SpectraSuite Data File
++++++++++++++++++++++++++++++++++++
Date: Mon Oct 07 14:55:00 GMT-05:00 2013
User: price-jones
Dark Spectrum Present: No
Reference Spectrum Present: No
Number of Sampled Component Spectra: 1
Spectrometers: USB2+H05261
Integration Time (usec): 10000 (USB2+H05261)
Spectra Averaged: 1 (USB2+H05261)
Boxcar Smoothing: 0 (USB2+H05261)
Correct for Electrical Dark: No (USB2+H05261)
Strobe/Lamp Enabled: No (USB2+H05261)
Correct for Detector Non-linearity: No (USB2+H05261)
Correct for Stray Light: No (USB2+H05261)
Number of Pixels in Processed Spectrum: 2048
>>>>>Begin Processed Spectral Data<<<<<
365.73	0.00
365.92	0.00
366.12	0.00
366.32	0.00
366.52	0.00
366.72	0.00
366.91	0.00
367.11	0.00
367.31	0.00
367.51	0.00
367.70	0.00
367.90	0.00
368.10	0.00
368.30	0.00
368.49	0.00
368.69	0.00
368.89	0.00
369.09	0.00
369.28	0.00
369.48	0.00
369.68	0.00
369.87	0.00
370.07	0.00
370.27	0.00
370.47	79.58
370.66	1390.28
370.86	1753.06
371.06	1799.87
371.25	1657.10
371.45	1701.57
371.65	1359.85
371.84	1306.02
372.04	1502.62
372.24	1673.48
372.44	1617.31
372.63	1671.14
372.83	1453.47
373.03	1380.92
373.22	1306.02
373.42	1362.19
373.62	1675.82
373.81	1610.29
374.01	1582.20
374.21	1345.81
374.40	1385.60
374.60	1563.48
374.79	1706.25
374.99	1982.43
375.19	2090.10
375.38	2033.93
375.58	1912.22
375.78	1968.39
375.97	1895.83
376.17	2012.86
376.37	2008.18
376.56	2083.08
376.76	2148.61
376.95	2319.47
377.15	2558.21
377.35	2616.72
377.54	2750.13
377.74	2836.73
377.93	2806.30
378.13	2729.06
378.33	2583.95
378.52	2310.11
378.72	2214.15
378.91	2207.13
379.11	2195.42
379.31	2099.46
379.50	2193.08
379.70	2352.24
379.89	2513.74
380.09	2729.06
380.28	2860.13
380.48	2712.68
380.68	2740.77
380.87	2651.83
381.07	2263.30
381.26	2076.06
381.46	2010.52
381.65	1858.39
381.85	1851.36
382.04	1823.28
382.24	1619.65
382.43	1689.87
382.63	1680.50
382.83	1582.20
383.02	1556.46
383.22	1671.14
383.41	1689.87
383.61	1870.09
383.80	2085.42
384.00	2256.28
384.19	2738.43
384.39	2731.41
384.58	2960.78
384.78	2771.19
384.97	2649.49
385.17	2452.88
385.36	2345.22
385.56	2279.68
385.75	2443.52
385.95	2661.19
386.14	2738.43
386.34	2719.70
386.53	2619.06
386.72	2487.99
386.92	2658.85
387.11	2679.91
387.31	2864.82
387.50	2715.02
387.70	2609.70
387.89	2644.81
388.09	2661.19
388.28	2710.34
388.48	2710.34
388.67	3103.55
388.86	3295.47
389.06	3536.55
389.25	3765.92
389.45	3620.81
389.64	3726.13
389.84	3543.57
390.03	3571.66
390.22	3562.30
390.42	3709.75
390.61	4107.64
390.81	4351.06
391.00	4372.12
391.19	4308.93
391.39	4161.47
391.58	3857.20
391.78	3653.58
391.97	3543.57
392.16	3267.39
392.36	2766.51
392.55	2174.36
392.75	1746.04
392.94	1430.07
393.13	1629.01
393.33	1863.07
393.52	2602.68
393.71	3091.85
393.91	3269.73
394.10	3644.21
394.29	3974.23
394.49	4311.27
394.68	4582.77
394.88	4547.66
395.07	4842.57
395.26	4793.42
395.46	4650.64
395.65	4180.20
395.84	3475.70
396.04	2864.82
396.23	2466.92
396.42	2038.61
396.62	2017.54
396.81	2506.71
397.00	3229.94
397.19	4058.49
397.39	4954.91
397.58	5371.53
397.77	5544.73
397.97	5872.40
398.16	5804.53
398.35	6015.18
398.55	6293.70
398.74	6279.66
398.93	6581.59
399.12	6544.14
399.32	6197.74
399.51	6466.90
399.70	6832.02
399.90	6850.75
400.09	6747.76
400.28	6789.89
400.47	6775.85
400.67	7037.99
400.86	7311.83
401.05	7337.58
401.24	7138.63
401.44	7545.89
401.63	7503.76
401.82	7578.65
402.01	7489.71
402.21	7351.62
402.40	7595.04
402.59	7321.20
402.78	7073.10
402.97	7049.69
403.17	7344.60
403.36	7639.51
403.55	7786.96
403.74	7901.65
403.93	7323.54
404.13	6888.20
404.32	7080.12
404.51	7705.04
404.70	7705.04
404.89	7712.07
405.09	7475.67
405.28	7447.58
405.47	7527.16
405.66	7192.47
405.85	6972.46
406.05	7068.42
406.24	7129.27
406.43	7695.68
406.62	7714.41
406.81	7688.66
407.00	7316.51
407.20	7133.95
407.39	7346.94
407.58	7667.60
407.77	8011.65
407.96	8472.74
408.15	8386.14
408.34	8603.81
408.54	8631.90
408.73	8624.87
408.92	8734.88
409.11	8566.36
409.30	8044.42
409.49	7442.90
409.68	7023.95
409.87	7091.82
410.07	7485.03
410.26	7880.58
410.45	8533.59
410.64	8461.04
410.83	8851.91
411.02	9104.68
411.21	9528.32
411.40	9142.13
411.59	9467.47
411.78	9104.68
411.98	9135.11
412.17	9373.85
412.36	9167.88
412.55	9572.79
412.74	9107.02
412.93	8971.27
413.12	8985.32
413.31	9893.44
413.50	9949.62
413.69	10008.13
413.88	9334.06
414.07	9320.01
414.26	9635.99
414.45	9586.83
414.64	9661.73
414.83	9647.69
415.02	9694.50
415.22	9643.01
415.41	9856.00
415.60	10335.81
415.79	10766.46
415.98	10834.34
416.17	10764.12
416.36	10633.05
416.55	10534.75
416.74	10115.80
416.93	9708.54
417.12	9872.38
417.31	10099.41
417.50	10228.14
417.69	10394.32
417.88	10462.19
418.07	10441.13
418.26	10141.54
418.45	10249.21
418.64	10911.58
418.83	11089.46
419.02	10813.28
419.21	10597.95
419.39	10237.50
419.58	9928.55
419.77	9937.91
419.96	10394.32
420.15	10956.05
420.34	11080.10
420.53	11417.13
420.72	11733.11
420.91	11407.77
421.10	11382.03
421.29	11494.37
421.48	11122.23
421.67	11487.35
421.86	10738.38
422.05	10073.67
422.24	9270.86
422.43	9673.43
422.61	10806.25
422.80	11360.96
422.99	11037.97
423.18	10626.03
423.37	10541.77
423.56	10572.20
423.75	10946.69
423.94	10944.34
424.13	10462.19
424.32	10319.42
424.50	10590.92
424.69	10558.16
424.88	10586.24
425.07	10389.64
425.26	10532.41
425.45	10092.39
425.64	9905.15
425.83	10120.48
426.01	10899.87
426.20	11145.63
426.39	10934.98
426.58	9781.10
426.77	9069.58
426.96	8877.65
427.15	9570.45
427.33	10476.24
427.52	10586.24
427.71	10314.74
427.90	10331.12
428.09	10272.61
428.28	9989.41
428.46	9715.56
428.65	9907.49
428.84	9867.70
429.03	10012.81
429.22	9682.80
429.40	8877.65
429.59	7992.93
429.78	7407.80
429.97	7274.38
430.16	7398.43
430.34	7269.70
430.53	7522.48
430.72	7901.65
430.91	8924.46
431.10	10640.08
431.28	12107.59
431.47	12781.67
431.66	12645.91
431.85	11178.40
432.03	10356.87
432.22	10427.09
432.41	11133.93
432.60	11861.84
432.79	12409.52
432.97	12334.62
433.16	11899.28
433.35	10834.34
433.54	9764.72
433.72	9448.74
433.91	10066.64
434.10	10995.84
434.28	11686.29
434.47	12081.85
434.66	11707.36
434.85	11765.87
435.03	12086.53
435.22	11838.43
435.41	12620.17
435.59	13050.83
435.78	12903.37
435.97	13266.16
436.16	13376.16
436.34	13027.42
436.53	12938.48
436.72	13097.64
436.90	12374.41
437.09	12180.15
437.28	12308.88
437.46	12575.70
437.65	12217.60
437.84	11143.29
438.02	10457.51
438.21	10752.42
438.40	11040.31
438.58	12332.28
438.77	12416.54
438.96	12561.66
439.14	13036.78
439.33	13252.11
439.52	13312.97
439.70	13139.77
439.89	12470.37
440.08	12538.25
440.26	12847.20
440.45	13270.84
440.63	14064.28
440.82	14689.20
441.01	13947.25
441.19	14274.93
441.38	14906.87
441.57	15133.90
441.75	15339.87
441.94	15494.35
442.12	15190.08
442.31	15616.05
442.50	15639.46
442.68	15070.71
442.87	15140.93
443.05	14764.10
443.24	14946.66
443.43	15632.44
443.61	15707.34
443.80	15875.85
443.98	15030.92
444.17	14984.11
444.35	15953.09
444.54	16140.33
444.73	16060.76
444.91	15129.22
445.10	14408.34
445.28	13671.07
445.47	13727.24
445.65	14012.79
445.84	14520.68
446.02	14841.34
446.21	15389.02
446.39	15279.02
446.58	15232.21
446.77	16137.99
446.95	15695.63
447.14	16173.10
447.32	16182.46
447.51	15770.53
447.69	15517.75
447.88	15494.35
448.06	15920.32
448.25	16107.57
448.43	16135.65
448.62	15672.23
448.80	16063.10
448.99	15667.55
449.17	15838.41
449.36	15840.75
449.54	16695.04
449.73	16702.06
449.91	16671.64
450.10	17312.94
450.28	17715.51
450.46	17600.83
450.65	17593.81
450.83	17139.74
451.02	17125.70
451.20	16795.68
451.39	17015.69
451.57	17048.46
451.76	16847.18
451.94	16542.91
452.13	16290.13
452.31	15260.29
452.49	14597.92
452.68	15047.30
452.86	14953.68
453.05	15246.25
453.23	16327.58
453.42	16205.87
453.60	16320.56
453.78	16617.80
453.97	16325.24
454.15	16432.90
454.34	15681.59
454.52	16067.78
454.70	15894.58
454.89	16259.70
455.07	16229.27
455.26	16266.72
455.44	16924.41
455.62	17137.40
455.81	17064.85
455.99	17362.09
456.17	17334.01
456.36	17551.68
456.54	17837.22
456.73	17759.98
456.91	17816.16
457.09	18057.23
457.28	18579.17
457.46	17820.84
457.64	17067.19
457.83	16783.98
458.01	16779.30
458.19	17111.66
458.38	17069.53
458.56	17626.57
458.74	17467.42
458.93	17507.21
459.11	17214.64
459.29	16926.75
459.48	17092.93
459.66	17085.91
459.84	17486.14
460.03	17614.87
460.21	17596.15
460.39	18429.38
460.57	17930.84
460.76	17984.68
460.94	17954.25
461.12	17958.93
461.31	17914.46
461.49	18272.56
461.67	17919.14
461.85	18618.96
462.04	18597.90
462.22	18541.72
462.40	18934.93
462.59	18600.24
462.77	18546.40
462.95	18438.74
463.13	18038.51
463.32	18129.79
463.50	18541.72
463.68	18200.01
463.86	18338.10
464.05	17507.21
464.23	17394.86
464.41	17479.12
464.59	16891.65
464.78	18113.41
464.96	18436.40
465.14	18033.83
465.32	18211.71
465.50	18761.73
465.69	18764.07
465.87	18628.32
466.05	17715.51
466.23	16739.51
466.41	16795.68
466.60	17759.98
466.78	17249.75
466.96	17542.32
467.14	17748.28
467.32	17767.01
467.51	18111.07
467.69	17198.26
467.87	17586.79
468.05	17895.74
468.23	18075.96
468.41	18050.21
468.60	18071.28
468.78	18251.50
468.96	17914.46
469.14	18317.03
469.32	18396.61
469.50	17259.11
469.69	17366.78
469.87	17011.01
470.05	17383.16
470.23	17338.69
470.41	17720.20
470.59	17312.94
470.77	17853.61
470.95	18300.65
471.14	18298.31
471.32	18253.84
471.50	19208.78
471.68	19246.23
471.86	19501.34
472.04	19405.38
472.22	19499.00
472.40	18515.98
472.58	18403.63
472.77	18134.47
472.95	18857.70
473.13	19414.74
473.31	18757.05
473.49	18663.43
473.67	19372.61
473.85	19087.07
474.03	19840.72
474.21	19971.79
474.39	20184.78
474.57	20683.31
474.75	20446.92
474.93	19721.35
475.12	19374.95
475.30	19410.06
475.48	19534.11
475.66	19761.14
475.84	19564.54
476.02	19124.52
476.20	19103.45
476.38	19580.92
476.56	20339.26
476.74	20538.20
476.92	20367.34
477.10	20582.67
477.28	21584.42
477.46	21013.33
477.64	21406.54
477.82	21542.29
478.00	22370.84
478.18	21469.73
478.36	21106.95
478.54	21640.59
478.72	21818.47
478.90	23005.13
479.08	23105.77
479.26	22754.69
479.44	23098.75
479.62	22548.72
479.80	22754.69
479.98	23222.80
480.16	23742.39
480.34	22824.90
480.52	23068.32
480.70	23501.32
480.88	23623.03
481.06	23967.09
481.24	23798.57
481.41	24463.28
481.59	25076.50
481.77	24645.84
481.95	24968.84
482.13	24542.86
482.31	24652.86
482.49	25596.10
482.67	25104.59
482.85	25238.00
483.03	25762.28
483.21	26209.32
483.39	25495.46
483.57	24779.25
483.74	24376.68
483.92	25223.95
484.10	24989.90
484.28	25656.95
484.46	25888.67
484.64	25324.60
484.82	25015.65
485.00	25336.30
485.18	24900.96
485.35	23370.25
485.53	21193.55
485.71	19777.53
485.89	19843.06
486.07	21238.02
486.25	23112.79
486.43	24245.61
486.61	24769.89
486.78	24821.38
486.96	25841.85
487.14	26242.09
487.32	26328.69
487.50	27445.12
487.68	27686.20
487.85	28467.94
488.03	28821.36
488.21	28030.26
488.39	27168.94
488.57	26682.11
488.75	26654.02
488.92	28465.60
489.10	29923.75
489.28	30300.58
489.46	30946.56
489.64	30672.72
489.81	31594.89
489.99	30616.55
490.17	31381.90
490.35	31257.85
490.53	30136.74
490.70	30127.38
490.88	29680.33
491.06	30663.36
491.24	31058.91
491.41	29383.09
491.59	28292.40
491.77	27793.86
491.95	29003.92
492.13	30513.56
492.30	31646.38
492.48	33008.58
492.66	32802.61
492.84	32208.11
493.01	32198.75
493.19	31262.54
493.37	31564.46
493.54	31899.16
493.72	32957.08
493.90	33191.14
494.08	33329.23
494.25	34153.10
494.43	34061.82
494.61	34382.47
494.79	35093.99
494.96	34398.85
495.14	32907.93
495.32	32680.90
495.49	32996.87
495.67	33818.40
495.85	35878.07
496.02	35548.06
496.20	34958.24
496.38	34873.98
496.55	34576.73
496.73	35234.42
496.91	34993.35
497.09	36814.29
497.26	36189.36
497.44	35428.69
497.62	34534.60
497.79	34230.33
497.97	32559.19
498.14	33495.41
498.32	35365.49
498.50	36081.70
498.67	35519.97
498.85	36095.74
499.03	35992.76
499.20	36917.27
499.38	36486.61
499.56	36503.00
499.73	35489.54
499.91	34024.37
500.08	34075.86
500.26	33071.77
500.44	33996.28
500.61	34763.98
500.79	34850.58
500.97	33738.82
501.14	33621.80
501.32	33523.49
501.49	34178.84
501.67	34438.64
501.84	34742.91
502.02	34934.84
502.20	35227.40
502.37	36140.21
502.55	35749.34
502.72	35967.01
502.90	36847.05
503.07	35637.00
503.25	35438.05
503.43	34031.39
503.60	33654.56
503.78	33586.69
503.95	34258.42
504.13	35901.48
504.30	37148.98
504.48	36556.83
504.65	35824.24
504.83	36079.36
505.01	36751.09
505.18	37015.57
505.36	37673.26
505.53	37996.26
505.71	39056.52
505.88	39611.23
506.06	38347.34
506.23	37792.63
506.41	36973.44
506.58	37596.03
506.76	36650.45
506.93	36727.69
507.11	35976.37
507.28	36664.49
507.46	36264.26
507.63	35704.87
507.81	35213.36
507.98	35236.77
508.16	36823.65
508.33	37982.21
508.50	37661.56
508.68	38115.62
508.85	39625.27
509.03	38871.62
509.20	38099.24
509.38	36275.96
509.55	36664.49
509.73	37113.87
509.90	37165.37
510.08	37092.81
510.25	36975.78
510.42	36191.70
510.60	37366.65
510.77	38237.33
510.95	39360.79
511.12	38770.97
511.30	39461.43
511.47	38597.77
511.64	38878.64
511.82	38146.05
511.99	37151.32
512.17	37109.19
512.34	37455.59
512.51	36982.80
512.69	36388.31
512.86	36495.97
513.04	38319.25
513.21	37404.10
513.38	36538.10
513.56	34649.29
513.73	34897.39
513.90	35372.52
514.08	35510.61
514.25	36287.67
514.43	36676.19
514.60	36339.16
514.77	36210.43
514.95	37928.38
515.12	36910.25
515.29	36858.76
515.47	37179.41
515.64	38220.95
515.81	37446.23
515.99	36598.96
516.16	33806.70
516.33	31175.94
516.51	31339.77
516.68	29603.10
516.85	29977.58
517.03	30452.71
517.20	33769.25
517.37	36381.29
517.54	36943.02
517.72	34831.85
517.89	32493.66
518.06	31061.25
518.24	32332.16
518.41	33378.38
518.58	35999.78
518.75	36392.99
518.93	35480.18
519.10	35672.10
519.27	36098.08
519.45	37102.17
519.62	37446.23
519.79	37443.89
519.96	37645.18
520.14	36638.75
520.31	35613.59
520.48	36116.81
520.65	36662.15
520.83	38249.03
521.00	38108.60
521.17	37202.82
521.34	37635.81
521.52	37865.19
521.69	37408.78
521.86	38321.59
522.03	37525.81
522.20	36343.84
522.38	35571.46
522.55	36336.82
522.72	36392.99
522.89	35723.60
523.07	36643.43
523.24	36842.37
523.41	37897.95
523.58	37904.98
523.75	38014.98
523.92	39033.11
524.10	39164.18
524.27	39168.87
524.44	38754.59
524.61	38038.39
524.78	37443.89
524.96	37450.91
525.13	36994.51
525.30	37790.29
525.47	38721.82
525.64	38588.41
525.81	36751.09
525.98	34902.07
526.16	34520.56
526.33	32491.32
526.50	32002.14
526.67	31356.16
526.84	33322.21
527.01	34859.94
527.18	35672.10
527.36	37380.70
527.53	37172.39
527.70	37139.62
527.87	36203.41
528.04	37106.85
528.21	36725.35
528.38	38969.92
528.55	39871.03
528.72	39777.40
528.89	40161.25
529.07	39377.17
529.24	37628.79
529.41	36779.18
529.58	37301.12
529.75	37509.43
529.92	38754.59
530.09	38892.68
530.26	39199.29
530.43	39496.54
530.60	39538.67
530.77	38993.32
530.94	39061.20
531.11	38029.02
531.28	37965.83
531.46	37682.62
531.63	37158.34
531.80	37303.46
531.97	36304.05
532.14	35864.03
532.31	34408.22
532.48	35093.99
532.65	34295.87
532.82	35653.38
532.99	37956.47
533.16	37539.85
533.33	37874.55
533.50	36006.80
533.67	36563.85
533.84	36699.60
534.01	36910.25
534.18	37010.89
534.35	37504.74
534.52	36978.12
534.69	38335.63
534.86	38443.30
535.03	37228.56
535.20	38492.45
535.37	39372.49
535.54	39477.82
535.71	39182.91
535.88	38424.57
536.05	37097.49
536.22	36919.61
536.38	36788.54
536.55	34583.76
536.72	35185.27
536.89	35192.30
537.06	35934.24
537.23	37780.93
537.40	37888.59
537.57	38164.78
537.74	37572.62
537.91	37865.19
538.08	36837.69
538.25	36404.69
538.42	37425.17
538.59	37291.76
538.75	36023.19
538.92	35543.38
539.09	36879.82
539.26	36339.16
539.43	35852.33
539.60	35627.63
539.77	37015.57
539.94	35374.86
540.11	34043.09
540.28	34047.77
540.44	33727.12
540.61	34866.96
540.78	36570.87
540.95	37392.40
541.12	36058.29
541.29	36364.90
541.46	36821.31
541.62	37221.54
541.79	37638.15
541.96	36128.51
542.13	35262.51
542.30	35171.23
542.47	35611.25
542.63	35641.68
542.80	35325.71
542.97	36163.62
543.14	34658.65
543.31	36046.59
543.48	36493.63
543.64	37123.24
543.81	37301.12
543.98	37661.56
544.15	36191.70
544.32	35594.87
544.48	36301.71
544.65	36753.43
544.82	37221.54
544.99	35995.10
545.16	35721.26
545.32	35889.77
545.49	37186.43
545.66	36301.71
545.83	35484.86
546.00	35679.13
546.16	35941.27
546.33	36154.26
546.50	35171.23
546.67	36643.43
546.83	35735.30
547.00	35644.02
547.17	34768.66
547.34	33963.51
547.50	34927.81
547.67	35615.93
547.84	35669.76
548.00	36322.77
548.17	36205.75
548.34	35601.89
548.51	35906.16
548.67	36907.91
548.84	36715.98
549.01	36847.05
549.18	35948.29
549.34	35679.13
549.51	35868.71
549.68	36566.19
549.84	35751.68
550.01	35262.51
550.18	35864.03
550.34	35091.65
550.51	35063.57
550.68	35459.12
550.84	35257.83
551.01	34969.94
551.18	35321.02
551.34	35709.55
551.51	35157.19
551.68	35943.61
551.84	36844.71
552.01	36048.93
552.18	35255.49
552.34	35033.14
552.51	35054.20
552.68	35269.53
552.84	35885.09
553.01	34993.35
553.18	34536.94
553.34	34866.96
553.51	35697.85
553.67	35269.53
553.84	34934.84
554.01	35171.23
554.17	35089.31
554.34	35400.60
554.51	34511.20
554.67	34888.03
554.84	35267.19
555.00	34988.67
555.17	34946.54
555.33	34279.49
555.50	35627.63
555.67	34464.39
555.83	33343.27
556.00	32306.41
556.16	33603.07
556.33	33024.96
556.50	34024.37
556.66	34494.82
556.83	34190.55
556.99	33937.77
557.16	33570.30
557.32	34295.87
557.49	34848.24
557.65	35019.10
557.82	35000.37
557.98	34396.51
558.15	33755.21
558.32	34211.61
558.48	32362.59
558.65	32011.51
558.81	31105.72
558.98	31409.99
559.14	33329.23
559.31	34029.05
559.47	32741.75
559.64	31639.36
559.80	30305.26
559.97	32140.24
560.13	33336.25
560.30	33336.25
560.46	34670.36
560.63	35192.30
560.79	35501.25
560.96	33694.35
561.12	32346.20
561.29	31971.72
561.45	31424.03
561.61	31679.15
561.78	32217.47
561.94	32706.65
562.11	32641.11
562.27	33605.41
562.44	32929.00
562.60	33582.01
562.77	34012.66
562.93	33448.60
563.10	32610.68
563.26	32753.46
563.42	32893.89
563.59	32086.40
563.75	31810.22
563.92	32423.44
564.08	32643.45
564.24	32011.51
564.41	32055.98
564.57	33064.75
564.74	32229.18
564.90	32016.19
565.07	31850.01
565.23	30705.49
565.39	30436.33
565.56	30850.60
565.72	30632.93
565.88	29956.52
566.05	31552.76
566.21	32116.83
566.38	30906.77
566.54	32180.03
566.70	32229.18
566.87	32491.32
567.03	31466.16
567.19	31419.35
567.36	32027.89
567.52	31604.25
567.68	31950.65
567.85	30443.35
568.01	29586.71
568.17	30253.76
568.34	31491.91
568.50	31449.78
568.66	32367.27
568.83	31501.27
568.99	31180.62
569.15	31496.59
569.32	31161.89
569.48	31079.97
569.64	30307.60
569.81	30312.28
569.97	30525.27
570.13	30962.95
570.30	30356.75
570.46	29961.20
570.62	28961.79
570.78	29113.92
570.95	30043.12
571.11	30438.67
571.27	30733.57
571.43	30848.26
571.60	30412.92
571.76	31035.50
571.92	30869.33
572.09	30328.66
572.25	31330.41
572.41	31707.24
572.57	32385.99
572.74	31981.08
572.90	31412.33
573.06	30888.05
573.22	30022.05
573.38	29708.42
573.55	30274.83
573.71	29289.46
573.87	30073.54
574.03	30155.46
574.20	30309.94
574.36	30913.80
574.52	30939.54
574.68	29558.63
574.84	28795.61
575.01	28863.49
575.17	29010.94
575.33	29465.00
575.49	29034.35
575.65	29560.97
575.82	29495.43
575.98	28737.10
576.14	29090.52
576.30	28765.18
576.46	29333.93
576.62	29963.54
576.79	29956.52
576.95	29263.72
577.11	28226.86
577.27	29024.98
577.43	29481.39
577.59	29043.71
577.75	28992.22
577.92	27985.79
578.08	27697.90
578.24	28222.18
578.40	27960.04
578.56	28360.27
578.72	28900.94
578.88	28734.76
579.04	28940.72
579.21	28334.53
579.37	29092.86
579.53	29790.34
579.69	30602.50
579.85	29563.31
580.01	28418.78
580.17	28294.74
580.33	28362.61
580.49	28716.03
580.65	28030.26
580.82	28177.71
580.98	28739.44
581.14	29371.38
581.30	28393.04
581.46	28414.10
581.62	28641.14
581.78	28379.00
581.94	28774.55
582.10	29060.09
582.26	29273.08
582.42	28957.11
582.58	29092.86
582.74	29039.03
582.90	29261.38
583.06	29053.07
583.22	28898.59
583.38	29563.31
583.54	29116.26
583.70	28844.76
583.86	28500.70
584.02	28856.46
584.18	29092.86
584.34	29156.05
584.50	28865.83
584.66	28210.48
584.82	28018.55
584.98	28739.44
585.14	27674.49
585.30	27686.20
585.46	27407.67
585.62	27222.77
585.78	27381.93
585.94	27658.11
586.10	26843.60
586.26	27030.85
586.42	27810.25
