SpectraSuite Data File
++++++++++++++++++++++++++++++++++++
Date: Mon Oct 07 14:54:55 GMT-05:00 2013
User: price-jones
Dark Spectrum Present: No
Reference Spectrum Present: No
Number of Sampled Component Spectra: 1
Spectrometers: USB2+H05261
Integration Time (usec): 10000 (USB2+H05261)
Spectra Averaged: 1 (USB2+H05261)
Boxcar Smoothing: 0 (USB2+H05261)
Correct for Electrical Dark: No (USB2+H05261)
Strobe/Lamp Enabled: No (USB2+H05261)
Correct for Detector Non-linearity: No (USB2+H05261)
Correct for Stray Light: No (USB2+H05261)
Number of Pixels in Processed Spectrum: 2048
>>>>>Begin Processed Spectral Data<<<<<
365.73	0.00
365.92	0.00
366.12	0.00
366.32	0.00
366.52	0.00
366.72	0.00
366.91	0.00
367.11	0.00
367.31	0.00
367.51	0.00
367.70	0.00
367.90	0.00
368.10	0.00
368.30	0.00
368.49	0.00
368.69	0.00
368.89	0.00
369.09	0.00
369.28	0.00
369.48	0.00
369.68	0.00
369.87	0.00
370.07	0.00
370.27	0.00
370.47	0.00
370.66	0.00
370.86	0.00
371.06	0.00
371.25	0.00
371.45	0.00
371.65	0.00
371.84	0.00
372.04	0.00
372.24	2.34
372.44	18.72
372.63	70.22
372.83	0.00
373.03	0.00
373.22	0.00
373.42	0.00
373.62	21.06
373.81	25.75
374.01	0.00
374.21	4.68
374.40	0.00
374.60	0.00
374.79	0.00
374.99	131.07
375.19	53.83
375.38	91.28
375.58	105.32
375.78	86.60
375.97	84.26
376.17	119.37
376.37	121.71
376.56	114.69
376.76	110.01
376.95	107.66
377.15	238.73
377.35	170.86
377.54	234.05
377.74	252.78
377.93	212.99
378.13	262.14
378.33	140.43
378.52	117.03
378.72	166.18
378.91	140.43
379.11	86.60
379.31	170.86
379.50	100.64
379.70	147.45
379.89	95.96
380.09	374.49
380.28	184.90
380.48	189.58
380.68	220.01
380.87	189.58
381.07	117.03
381.26	205.97
381.46	100.64
381.65	112.35
381.85	98.30
382.04	46.81
382.24	37.45
382.43	39.79
382.63	30.43
382.83	21.06
383.02	4.68
383.22	0.00
383.41	91.28
383.61	65.54
383.80	51.49
384.00	95.96
384.19	191.92
384.39	166.18
384.58	245.76
384.78	203.63
384.97	220.01
385.17	175.54
385.36	133.41
385.56	187.24
385.75	93.62
385.95	95.96
386.14	156.82
386.34	175.54
386.53	110.01
386.72	222.35
386.92	168.52
387.11	245.76
387.31	107.66
387.50	124.05
387.70	142.77
387.89	135.75
388.09	173.20
388.28	248.10
388.48	149.79
388.67	154.48
388.86	301.93
389.06	348.74
389.25	339.38
389.45	320.65
389.64	344.06
389.84	308.95
390.03	269.16
390.22	351.08
390.42	327.68
390.61	325.33
390.81	507.90
391.00	411.93
391.19	353.42
391.39	393.21
391.58	414.27
391.78	381.51
391.97	315.97
392.16	283.20
392.36	222.35
392.55	191.92
392.75	79.58
392.94	2.34
393.13	0.00
393.33	0.00
393.52	170.86
393.71	140.43
393.91	271.50
394.10	346.40
394.29	344.06
394.49	463.43
394.68	407.25
394.88	430.66
395.07	451.72
395.26	500.87
395.46	470.45
395.65	433.00
395.84	376.83
396.04	259.80
396.23	227.03
396.42	37.45
396.62	18.72
396.81	149.79
397.00	280.86
397.19	388.53
397.39	503.22
397.58	643.65
397.77	636.63
397.97	643.65
398.16	634.29
398.35	699.82
398.55	709.18
398.74	753.65
398.93	746.63
399.12	704.50
399.32	688.12
399.51	643.65
399.70	821.53
399.90	650.67
400.09	802.80
400.28	697.48
400.47	702.16
400.67	842.59
400.86	891.74
401.05	877.70
401.24	933.87
401.44	884.72
401.63	873.02
401.82	837.91
402.01	849.61
402.21	851.96
402.40	830.89
402.59	896.43
402.78	755.99
402.97	744.29
403.17	807.48
403.36	912.81
403.55	875.36
403.74	959.62
403.93	933.87
404.13	844.93
404.32	791.10
404.51	891.74
404.70	887.06
404.89	847.27
405.09	966.64
405.28	837.91
405.47	809.83
405.66	891.74
405.85	844.93
406.05	830.89
406.24	751.31
406.43	795.78
406.62	903.45
406.81	926.85
407.00	833.23
407.20	873.02
407.39	873.02
407.58	884.72
407.77	847.27
407.96	861.32
408.15	929.19
408.34	961.96
408.54	1029.84
408.73	1032.18
408.92	1015.79
409.11	1004.09
409.30	992.39
409.49	800.46
409.68	851.96
409.87	805.14
410.07	800.46
410.26	889.40
410.45	990.05
410.64	966.64
410.83	1074.31
411.02	1039.20
411.21	1128.14
411.40	1179.63
411.59	1116.44
411.78	1071.97
411.98	1008.77
412.17	1074.31
412.36	1097.71
412.55	1071.97
412.74	1111.75
412.93	1004.09
413.12	1001.75
413.31	1174.95
413.50	1214.74
413.69	1228.78
413.88	1160.91
414.07	1074.31
414.26	1036.86
414.45	1158.57
414.64	1118.78
414.83	1123.46
415.02	1118.78
415.22	1181.97
415.41	1156.22
415.60	1156.22
415.79	1200.69
415.98	1338.79
416.17	1294.32
416.36	1231.12
416.55	1306.02
416.74	1102.39
416.93	1137.50
417.12	1188.99
417.31	1015.79
417.50	1125.80
417.69	1188.99
417.88	1254.53
418.07	1207.72
418.26	1228.78
418.45	1158.57
418.64	1320.06
418.83	1327.08
419.02	1411.34
419.21	1224.10
419.39	1156.22
419.58	1233.46
419.77	1135.16
419.96	1224.10
420.15	1245.16
420.34	1217.08
420.53	1444.11
420.72	1352.83
420.91	1385.60
421.10	1310.70
421.29	1359.85
421.48	1226.44
421.67	1350.49
421.86	1301.34
422.05	1235.80
422.24	1128.14
422.43	976.00
422.61	1273.25
422.80	1359.85
422.99	1273.25
423.18	1221.76
423.37	1242.82
423.56	1259.21
423.75	1146.86
423.94	1284.95
424.13	1254.53
424.32	1270.91
424.50	1240.48
424.69	1247.51
424.88	1210.06
425.07	1200.69
425.26	1186.65
425.45	1277.93
425.64	1275.59
425.83	1109.41
426.01	1188.99
426.20	1231.12
426.39	1296.66
426.58	1149.20
426.77	1083.67
426.96	1008.77
427.15	994.73
427.33	1198.35
427.52	1343.47
427.71	1270.91
427.90	1156.22
428.09	1158.57
428.28	1111.75
428.46	1053.24
428.65	1158.57
428.84	1109.41
429.03	1200.69
429.22	1153.88
429.40	1013.45
429.59	873.02
429.78	739.61
429.97	699.82
430.16	706.84
430.34	727.91
430.53	774.72
430.72	868.34
430.91	842.59
431.10	1050.90
431.28	1387.94
431.47	1500.28
431.66	1444.11
431.85	1299.00
432.03	1259.21
432.22	1139.84
432.41	1144.52
432.60	1324.74
432.79	1376.24
432.97	1392.62
433.16	1423.05
433.35	1252.19
433.54	1163.25
433.72	1050.90
433.91	1116.44
434.10	1301.34
434.28	1268.57
434.47	1528.37
434.66	1418.36
434.85	1406.66
435.03	1256.87
435.22	1455.81
435.41	1488.58
435.59	1610.29
435.78	1455.81
435.97	1554.12
436.16	1533.05
436.34	1504.96
436.53	1483.90
436.72	1453.47
436.90	1362.19
437.09	1462.83
437.28	1427.73
437.46	1469.86
437.65	1320.06
437.84	1441.77
438.02	1181.97
438.21	1123.46
438.40	1153.88
438.58	1376.24
438.77	1362.19
438.96	1418.36
439.14	1526.03
439.33	1586.88
439.52	1593.90
439.70	1551.78
439.89	1561.14
440.08	1437.09
440.26	1514.33
440.45	1474.54
440.63	1696.89
440.82	1673.48
441.01	1605.61
441.19	1530.71
441.38	1626.67
441.57	1799.87
441.75	1757.74
441.94	1755.40
442.12	1701.57
442.31	1720.29
442.50	1799.87
442.68	1771.79
442.87	1762.42
443.05	1596.25
443.24	1724.97
443.43	1820.94
443.61	1802.21
443.80	1863.07
443.98	1729.66
444.17	1748.38
444.35	1820.94
444.54	1783.49
444.73	1825.62
444.91	1760.08
445.10	1699.23
445.28	1504.96
445.47	1568.16
445.65	1792.85
445.84	1577.52
446.02	1654.76
446.21	1638.38
446.39	1769.44
446.58	1799.87
446.77	1823.28
446.95	1692.21
447.14	1872.43
447.32	1881.79
447.51	1820.94
447.69	1626.67
447.88	1764.76
448.06	1853.70
448.25	1732.00
448.43	1753.06
448.62	1699.23
448.80	1827.96
448.99	1788.17
449.17	1783.49
449.36	1816.26
449.54	1874.77
449.73	1820.94
449.91	1952.01
450.10	1902.86
450.28	2031.58
450.46	2012.86
450.65	2078.40
450.83	2052.65
451.02	1912.22
451.20	1923.92
451.39	1937.96
451.57	1898.17
451.76	1842.00
451.94	1813.92
452.13	1891.15
452.31	1746.04
452.49	1673.48
452.68	1666.46
452.86	1715.61
453.05	1743.70
453.23	1741.36
453.42	1797.53
453.60	1870.09
453.78	1870.09
453.97	1856.04
454.15	1942.64
454.34	1849.02
454.52	1797.53
454.70	1757.74
454.89	1750.72
455.07	1874.77
455.26	1881.79
455.44	2057.33
455.62	1975.41
455.81	1919.24
455.99	1926.26
456.17	1919.24
456.36	1909.88
456.54	2017.54
456.73	1916.90
456.91	2111.16
457.09	1968.39
457.28	2036.27
457.46	2127.55
457.64	1895.83
457.83	1856.04
458.01	1977.75
458.19	1980.09
458.38	1844.34
458.56	1818.60
458.74	1959.03
458.93	1900.52
459.11	1947.33
459.29	1830.30
459.48	1844.34
459.66	1987.11
459.84	1944.99
460.03	1980.09
460.21	1921.58
460.39	1973.07
460.57	2033.93
460.76	2104.14
460.94	2036.27
461.12	2040.95
461.31	2038.61
461.49	1963.71
461.67	1961.37
461.85	2179.04
462.04	2019.88
462.22	2249.25
462.40	1987.11
462.59	2181.38
462.77	2050.31
462.95	2054.99
463.13	1994.14
463.32	2017.54
463.50	2038.61
463.68	1933.28
463.86	1996.48
464.05	2012.86
464.23	1853.70
464.41	1902.86
464.59	1879.45
464.78	2003.50
464.96	2038.61
465.14	1884.13
465.32	2001.16
465.50	2064.35
465.69	2047.97
465.87	2092.44
466.05	1991.80
466.23	1853.70
466.41	1781.15
466.60	1846.68
466.78	1991.80
466.96	1947.33
467.14	1891.15
467.32	2005.84
467.51	2064.35
467.69	1907.54
467.87	1877.11
468.05	1935.62
468.23	2017.54
468.41	1954.35
468.60	1984.77
468.78	1973.07
468.96	2008.18
469.14	1970.73
469.32	2057.33
469.50	1919.24
469.69	1944.99
469.87	1947.33
470.05	1860.73
470.23	1881.79
470.41	1980.09
470.59	1991.80
470.77	1914.56
470.95	2052.65
471.14	2033.93
471.32	1980.09
471.50	2153.29
471.68	1998.82
471.86	2181.38
472.04	2047.97
472.22	2200.10
472.40	2136.91
472.58	2078.40
472.77	1933.28
472.95	2050.31
473.13	2038.61
473.31	2064.35
473.49	2057.33
473.67	2120.53
473.85	2211.81
474.03	2207.13
474.21	2188.40
474.39	2195.42
474.57	2256.28
474.75	2256.28
474.93	2211.81
475.12	2232.87
475.30	2153.29
475.48	2160.31
475.66	2293.72
475.84	2286.70
476.02	2003.50
476.20	2148.61
476.38	2115.84
476.56	2169.68
476.74	2218.83
476.92	2200.10
477.10	2338.20
477.28	2347.56
477.46	2347.56
477.64	2331.17
477.82	2438.84
478.00	2457.56
478.18	2401.39
478.36	2387.35
478.54	2396.71
478.72	2345.22
478.90	2548.84
479.08	2628.42
479.26	2555.86
479.44	2490.33
479.62	2361.60
479.80	2504.37
479.98	2480.97
480.16	2469.27
480.34	2516.08
480.52	2438.84
480.70	2478.63
480.88	2684.59
481.06	2661.19
481.24	2684.59
481.41	2693.96
481.59	2787.58
481.77	2677.57
481.95	2677.57
482.13	2541.82
482.31	2621.40
482.49	2841.41
482.67	2633.10
482.85	2663.53
483.03	2808.64
483.21	2890.56
483.39	2815.66
483.57	2766.51
483.74	2820.35
483.92	2717.36
484.10	2787.58
484.28	2717.36
484.46	2860.13
484.64	3035.67
484.82	2806.30
485.00	2754.81
485.18	2689.28
485.35	2626.08
485.53	2520.76
485.71	2225.85
485.89	2188.40
486.07	2211.81
486.25	2551.18
486.43	2637.78
486.61	2715.02
486.78	2731.41
486.96	2782.90
487.14	2736.09
487.32	2738.43
487.50	3000.57
487.68	3009.93
487.85	3000.57
488.03	3056.74
488.21	3009.93
488.39	2956.10
488.57	2995.89
488.75	2871.84
488.92	2904.60
489.10	3199.51
489.28	3325.90
489.46	3260.37
489.64	3361.01
489.81	3410.16
489.99	3449.95
490.17	3403.14
490.35	3236.96
490.53	3260.37
490.70	3187.81
490.88	3260.37
491.06	3468.67
491.24	3419.52
491.41	3129.30
491.59	3075.46
491.77	3073.12
491.95	3150.36
492.13	3295.47
492.30	3262.71
492.48	3508.46
492.66	3576.34
492.84	3407.82
493.01	3559.95
493.19	3508.46
493.37	3496.76
493.54	3295.47
493.72	3494.42
493.90	3630.17
494.08	3782.31
494.25	3653.58
494.43	3838.48
494.61	3658.26
494.79	3751.88
494.96	3896.99
495.14	3801.03
495.32	3529.53
495.49	3456.97
495.67	3648.90
495.85	3852.52
496.02	4032.74
496.20	3927.42
496.38	3754.22
496.55	3747.20
496.73	3904.01
496.91	3925.08
497.09	3775.28
497.26	3948.48
497.44	3896.99
497.62	3669.96
497.79	3637.19
497.97	3639.53
498.14	3588.04
498.32	3627.83
498.50	3796.35
498.67	3859.54
498.85	3911.04
499.03	3997.64
499.20	3948.48
499.38	3969.55
499.56	3892.31
499.73	3880.61
499.91	3686.34
500.08	3763.58
500.26	3625.49
500.44	3679.32
500.61	3786.99
500.79	3756.56
500.97	3691.02
501.14	3714.43
501.32	3651.24
501.49	3620.81
501.67	3604.42
501.84	3693.37
502.02	3845.50
502.20	4014.02
502.37	3908.69
502.55	3976.57
502.72	3964.87
502.90	4124.02
503.07	3918.06
503.25	4086.58
503.43	3911.04
503.60	3623.15
503.78	3541.23
503.95	3770.60
504.13	4023.38
504.30	4067.85
504.48	4084.23
504.65	3988.27
504.83	3962.53
505.01	4046.79
505.18	3955.51
505.36	4114.66
505.53	4208.28
505.71	4264.46
505.88	4124.02
506.06	4051.47
506.23	4016.36
506.41	4063.17
506.58	4056.15
506.76	4086.58
506.93	4016.36
507.11	3981.25
507.28	4007.00
507.46	3953.16
507.63	3801.03
507.81	3908.69
507.98	3889.97
508.16	3885.29
508.33	3967.21
508.50	4016.36
508.68	4159.13
508.85	4147.43
509.03	4189.56
509.20	4255.09
509.38	4049.13
509.55	3922.74
509.73	3957.85
509.90	4009.34
510.08	4154.45
510.25	3992.95
510.42	3896.99
510.60	3932.10
510.77	4072.53
510.95	4114.66
511.12	4159.13
511.30	4138.07
511.47	4175.52
511.64	4217.65
511.82	4147.43
511.99	4227.01
512.17	4044.45
512.34	4035.08
512.51	4072.53
512.69	4081.89
512.86	3871.25
513.04	4189.56
513.21	4072.53
513.38	4004.66
513.56	3843.16
513.73	3801.03
513.90	3936.78
514.08	3798.69
514.25	3770.60
514.43	4105.30
514.60	3911.04
514.77	3920.40
514.95	3978.91
515.12	3974.23
515.29	4039.76
515.47	4128.70
515.64	4058.49
515.81	4011.68
515.99	3920.40
516.16	3693.37
516.33	3485.06
516.51	3332.92
516.68	3185.47
516.85	3201.85
517.03	3194.83
517.20	3478.04
517.37	3915.72
517.54	3932.10
517.72	4060.83
517.89	3571.66
518.06	3375.05
518.24	3290.79
518.41	3627.83
518.58	3812.73
518.75	3831.46
518.93	3812.73
519.10	3878.27
519.27	3770.60
519.45	3967.21
519.62	4063.17
519.79	4107.64
519.96	3889.97
520.14	3918.06
520.31	3960.19
520.48	4028.06
520.65	3913.38
520.83	3962.53
521.00	4067.85
521.17	3918.06
521.34	3983.59
521.52	3953.16
521.69	4053.81
521.86	4079.55
522.03	4107.64
522.20	4025.72
522.38	3810.39
522.55	3684.00
522.72	3723.79
522.89	3927.42
523.07	3918.06
523.24	3880.61
523.41	4049.13
523.58	4084.23
523.75	4191.90
523.92	4133.39
524.10	4135.73
524.27	4112.32
524.44	4011.68
524.61	4163.81
524.78	4156.79
524.96	4063.17
525.13	4074.87
525.30	4182.54
525.47	4173.18
525.64	4114.66
525.81	4222.33
525.98	3995.29
526.16	3398.46
526.33	3536.55
526.50	3447.61
526.67	3471.01
526.84	3606.77
527.01	3721.45
527.18	3754.22
527.36	3770.60
527.53	3967.21
527.70	3964.87
527.87	3894.65
528.04	3948.48
528.21	3985.93
528.38	4051.47
528.55	4161.47
528.72	4334.67
528.89	4290.20
529.07	4269.14
529.24	4177.86
529.41	3915.72
529.58	3896.99
529.75	3929.76
529.92	3889.97
530.09	4023.38
530.26	4266.80
530.43	4147.43
530.60	4201.26
530.77	4255.09
530.94	4081.89
531.11	4056.15
531.28	4266.80
531.46	3908.69
531.63	4161.47
531.80	4058.49
531.97	4060.83
532.14	3911.04
532.31	3749.54
532.48	3611.45
532.65	3723.79
532.82	3779.97
532.99	4035.08
533.16	4046.79
533.33	4037.42
533.50	4021.04
533.67	3964.87
533.84	3779.97
534.01	3992.95
534.18	4028.06
534.35	3992.95
534.52	4159.13
534.69	3939.12
534.86	3950.82
535.03	4046.79
535.20	4135.73
535.37	4161.47
535.54	4290.20
535.71	4238.71
535.88	4203.60
536.05	3925.08
536.22	3904.01
536.38	3911.04
536.55	3936.78
536.72	3763.58
536.89	3723.79
537.06	3824.44
537.23	3936.78
537.40	3997.64
537.57	3904.01
537.74	4170.83
537.91	4014.02
538.08	3950.82
538.25	3969.55
538.42	4023.38
538.59	4035.08
538.75	3918.06
538.92	3950.82
539.09	3819.75
539.26	3658.26
539.43	3754.22
539.60	3775.28
539.77	3880.61
539.94	3686.34
540.11	3777.62
540.28	3588.04
540.44	3620.81
540.61	3758.90
540.78	3660.60
540.95	3611.45
541.12	3857.20
541.29	3896.99
541.46	3873.59
541.62	3866.56
541.79	3667.62
541.96	3655.92
542.13	3674.64
542.30	3836.14
542.47	3812.73
542.63	3836.14
542.80	3719.11
542.97	3817.41
543.14	3836.14
543.31	3866.56
543.48	3684.00
543.64	3904.01
543.81	3861.88
543.98	3978.91
544.15	3850.18
544.32	3803.37
544.48	3763.58
544.65	3782.31
544.82	3901.67
544.99	3964.87
545.16	3772.94
545.32	3922.74
545.49	3929.76
545.66	3976.57
545.83	3920.40
546.00	3829.12
546.16	3812.73
546.33	3824.44
546.50	3810.39
546.67	3941.46
546.83	3852.52
547.00	3798.69
547.17	3672.30
547.34	3588.04
547.50	3478.04
547.67	3747.20
547.84	3702.73
548.00	3885.29
548.17	3740.18
548.34	3826.78
548.51	3754.22
548.67	3784.65
548.84	3819.75
549.01	3716.77
549.18	3826.78
549.34	3641.87
549.51	3772.94
549.68	3723.79
549.84	3805.71
550.01	3644.21
550.18	3801.03
550.34	3637.19
550.51	3674.64
550.68	3698.05
550.84	3669.96
551.01	3653.58
551.18	3721.45
551.34	3744.86
551.51	3702.73
551.68	3822.09
551.84	3646.55
552.01	3620.81
552.18	3611.45
552.34	3489.74
552.51	3520.17
552.68	3417.18
552.84	3618.47
553.01	3716.77
553.18	3548.25
553.34	3522.51
553.51	3644.21
553.67	3648.90
553.84	3772.94
554.01	3569.32
554.17	3545.91
554.34	3744.86
554.51	3705.07
554.67	3665.28
554.84	3721.45
555.00	3716.77
555.17	3655.92
555.33	3548.25
555.50	3527.19
555.67	3653.58
555.83	3503.78
556.00	3424.20
556.16	3595.06
556.33	3426.54
556.50	3536.55
556.66	3541.23
556.83	3349.31
556.99	3382.07
557.16	3461.65
557.32	3592.72
557.49	3520.17
557.65	3449.95
557.82	3581.02
557.98	3426.54
558.15	3431.23
558.32	3375.05
558.48	3283.77
558.65	3220.58
558.81	3440.59
558.98	3375.05
559.14	3433.57
559.31	3290.79
559.47	3368.03
559.64	3300.16
559.80	3220.58
559.97	3246.32
560.13	3440.59
560.30	3473.36
560.46	3590.38
560.63	3550.59
560.79	3618.47
560.96	3559.95
561.12	3286.11
561.29	3283.77
561.45	3290.79
561.61	3295.47
561.78	3386.76
561.94	3300.16
562.11	3447.61
562.27	3316.54
562.44	3377.39
562.60	3393.78
562.77	3370.37
562.93	3344.63
563.10	3487.40
563.26	3433.57
563.42	3370.37
563.59	3302.50
563.75	3236.96
563.92	3344.63
564.08	3337.60
564.24	3288.45
564.41	3405.48
564.57	3304.84
564.74	3307.18
564.90	3300.16
565.07	3234.62
565.23	3192.49
565.39	3169.09
565.56	3201.85
565.72	3199.51
565.88	3136.32
566.05	3183.13
566.21	3208.87
566.38	3311.86
566.54	3321.22
566.70	3265.05
566.87	3330.58
567.03	3262.71
567.19	3405.48
567.36	3141.00
567.52	3176.11
567.68	3297.81
567.85	3173.77
568.01	3075.46
568.17	3070.78
568.34	3000.57
568.50	2986.52
568.66	3185.47
568.83	3126.96
568.99	3143.34
569.15	3073.12
569.32	3035.67
569.48	3227.60
569.64	3096.53
569.81	3047.38
569.97	3007.59
570.13	3068.44
570.30	3108.23
570.46	3084.83
570.62	2869.50
570.78	2911.63
570.95	2960.78
571.11	2895.24
571.27	3049.72
571.43	3028.65
571.60	3054.40
571.76	2993.55
571.92	3094.19
572.09	3068.44
572.25	3197.17
572.41	3089.51
572.57	3038.02
572.74	3251.00
572.90	3028.65
573.06	3033.33
573.22	3136.32
573.38	2972.48
573.55	3042.70
573.71	3061.42
573.87	3040.36
574.03	3012.27
574.20	3066.10
574.36	3021.63
574.52	3075.46
574.68	3005.25
574.84	2991.20
575.01	3030.99
575.17	2815.66
575.33	2909.29
575.49	2913.97
575.65	2895.24
575.82	2839.07
575.98	2857.79
576.14	2928.01
576.30	3019.29
576.46	2991.20
576.62	3110.57
576.79	3005.25
576.95	3021.63
577.11	2930.35
577.27	3033.33
577.43	3028.65
577.59	2916.31
577.75	2722.04
577.92	2860.13
578.08	2689.28
578.24	2867.16
578.40	2867.16
578.56	2864.82
578.72	2916.31
578.88	2883.54
579.04	2963.12
579.21	2862.48
579.37	2984.18
579.53	2820.35
579.69	2918.65
579.85	2963.12
580.01	2853.11
580.17	2832.05
580.33	2815.66
580.49	2878.86
580.65	2780.56
580.82	2899.92
580.98	2834.39
581.14	2860.13
581.30	2846.09
581.46	2895.24
581.62	2860.13
581.78	2883.54
581.94	3019.29
582.10	2949.08
582.26	2984.18
582.42	2928.01
582.58	2970.14
582.74	2935.03
582.90	2988.86
583.06	2818.00
583.22	2871.84
583.38	2967.80
583.54	2848.43
583.70	2878.86
583.86	2836.73
584.02	2822.69
584.18	2803.96
584.34	2918.65
584.50	2925.67
584.66	2829.71
584.82	2764.17
584.98	2733.75
585.14	2792.26
585.30	2764.17
585.46	2668.21
585.62	2635.44
585.78	2759.49
585.94	2705.66
586.10	2640.12
586.26	2658.85
586.42	2612.04
586.58	2757.15
586.74	2789.92
586.90	2729.06
587.06	2679.91
587.22	2820.35
587.38	2794.60
587.54	2530.12
587.70	2614.38
587.86	2663.53
588.02	2672.89
588.18	2649.49
588.34	2497.35
588.49	2368.62
588.65	2307.77
588.81	2197.76
588.97	2132.23
589.13	2214.15
589.29	2104.14
589.45	2396.71
589.61	2333.51
589.77	2382.67
589.93	2473.95
590.08	2478.63
590.24	2705.66
590.40	2698.64
590.56	2651.83
590.72	2569.91
590.88	2633.10
591.04	2560.55
591.20	2539.48
591.35	2567.57
591.51	2377.98
591.67	2567.57
591.83	2502.03
591.99	2532.46
592.15	2612.04
592.31	2588.63
592.46	2621.40
592.62	2450.54
592.78	2672.89
592.94	2530.12
593.10	2586.29
593.26	2553.52
593.41	2534.80
593.57	2410.75
593.73	2518.42
593.89	2485.65
594.05	2483.31
594.20	2420.11
594.36	2375.64
594.52	2389.69
594.68	2375.64
594.84	2410.75
594.99	2476.29
595.15	2307.77
595.31	2504.37
595.47	2382.67
595.62	2520.76
595.78	2478.63
595.94	2443.52
596.10	2438.84
596.25	2492.67
596.41	2513.74
596.57	2427.14
596.73	2396.71
596.88	2457.56
597.04	2335.85
597.20	2485.65
597.36	2476.29
597.51	2413.09
597.67	2476.29
597.83	2406.07
597.99	2469.27
598.14	2296.07
598.30	2434.16
598.46	2349.90
598.61	2417.77
598.77	2406.07
598.93	2361.60
599.09	2345.22
599.24	2455.22
599.40	2459.90
599.56	2319.47
