SpectraSuite Data File
++++++++++++++++++++++++++++++++++++
Date: Mon Oct 07 14:53:24 GMT-05:00 2013
User: price-jones
Dark Spectrum Present: No
Reference Spectrum Present: No
Number of Sampled Component Spectra: 1
Spectrometers: USB2+H05261
Integration Time (usec): 100000 (USB2+H05261)
Spectra Averaged: 1 (USB2+H05261)
Boxcar Smoothing: 0 (USB2+H05261)
Correct for Electrical Dark: No (USB2+H05261)
Strobe/Lamp Enabled: No (USB2+H05261)
Correct for Detector Non-linearity: No (USB2+H05261)
Correct for Stray Light: No (USB2+H05261)
Number of Pixels in Processed Spectrum: 2048
>>>>>Begin Processed Spectral Data<<<<<
365.73	0.00
365.92	0.00
366.12	0.00
366.32	0.00
366.52	0.00
366.72	0.00
366.91	0.00
367.11	0.00
367.31	0.00
367.51	0.00
367.70	0.00
367.90	0.00
368.10	0.00
368.30	0.00
368.49	0.00
368.69	0.00
368.89	0.00
369.09	0.00
369.28	0.00
369.48	0.00
369.68	0.00
369.87	0.00
370.07	0.00
370.27	0.00
370.47	486.83
370.66	2815.66
370.86	3222.92
371.06	3648.90
371.25	3669.96
371.45	3330.58
371.65	3063.76
371.84	2733.75
372.04	2892.90
372.24	3368.03
372.44	3499.10
372.63	3337.60
372.83	3183.13
373.03	2710.34
373.22	2630.76
373.42	2808.64
373.62	3342.28
373.81	3344.63
374.01	3485.06
374.21	3112.91
374.40	2857.79
374.60	3035.67
374.79	3337.60
374.99	3791.67
375.19	4063.17
375.38	4219.99
375.58	3995.29
375.78	3798.69
375.97	4025.72
376.17	3967.21
376.37	4084.23
376.56	4060.83
376.76	4435.32
376.95	4554.68
377.15	5097.69
377.35	5212.37
377.54	5455.79
377.74	5458.13
377.93	5589.20
378.13	5427.70
378.33	5195.99
378.52	4711.50
378.72	4552.34
378.91	4465.74
379.11	4491.49
379.31	4224.67
379.50	4271.48
379.70	4624.90
379.89	5125.77
380.09	5313.02
380.28	5621.97
380.48	5479.19
380.68	5378.55
380.87	5165.56
381.07	5018.11
381.26	4533.62
381.46	4173.18
381.65	4131.05
381.85	4007.00
382.04	3744.86
382.24	3613.79
382.43	3346.97
382.63	3323.56
382.83	3314.20
383.02	3258.03
383.22	3363.35
383.41	3255.69
383.61	3688.68
383.80	4100.62
384.00	4697.46
384.19	5090.67
384.39	5418.34
384.58	5432.38
384.78	5455.79
384.97	5322.38
385.17	5020.45
385.36	4664.69
385.56	4711.50
385.75	4734.90
385.95	5121.09
386.14	5682.82
386.34	5643.03
386.53	5343.44
386.72	5060.24
386.92	5111.73
387.11	5413.66
387.31	5572.82
387.50	5614.95
387.70	5291.95
387.89	5280.25
388.09	5247.48
388.28	5406.64
388.48	5460.47
388.67	5830.27
388.86	6532.44
389.06	6803.94
389.25	7307.15
389.45	7424.18
389.64	7204.17
389.84	7248.64
390.03	7110.55
390.22	7220.55
390.42	7339.92
390.61	8011.65
390.81	8107.62
391.00	8437.63
391.19	8376.78
391.39	8344.01
391.58	7676.96
391.78	7030.97
391.97	7000.54
392.16	6551.16
392.36	6069.01
392.55	4737.24
392.75	3941.46
392.94	3073.12
393.13	3183.13
393.33	3590.38
393.52	4601.49
393.71	5785.80
393.91	6366.26
394.10	6930.33
394.29	7630.15
394.49	8152.09
394.68	8924.46
394.88	9015.74
395.07	9348.10
395.26	9034.47
395.46	8812.12
395.65	8252.73
395.84	7145.66
396.04	6164.97
396.23	5181.95
396.42	4304.25
396.62	3981.25
396.81	4643.62
397.00	5949.64
397.19	7421.84
397.39	8957.23
397.58	9961.32
397.77	10567.52
397.97	10836.68
398.16	11190.10
398.35	11592.67
398.55	11641.82
398.74	12133.34
398.93	12732.51
399.12	12212.92
399.32	11964.82
399.51	12402.50
399.70	13165.51
399.90	12819.11
400.09	13046.15
400.28	12769.96
400.47	12961.89
400.67	13554.04
400.86	14099.39
401.05	13895.76
401.24	13874.70
401.44	14389.61
401.63	14406.00
401.82	14317.06
402.01	14485.58
402.21	14340.46
402.40	14733.67
402.59	14010.45
402.78	13741.29
402.97	13025.08
403.17	13607.87
403.36	14314.72
403.55	14927.94
403.74	15269.66
403.93	14539.41
404.13	13408.93
404.32	13184.24
404.51	13657.03
404.70	14899.85
404.89	14829.63
405.09	14480.89
405.28	14005.77
405.47	14183.65
405.66	14115.77
405.85	13561.06
406.05	13315.31
406.24	13413.61
406.43	14183.65
406.62	14827.29
406.81	14682.18
407.00	14207.05
407.20	13956.61
407.39	14193.01
407.58	14747.72
407.77	15194.76
407.96	15775.21
408.15	16107.57
408.34	15960.11
408.54	16594.40
408.73	16723.13
408.92	16533.54
409.11	16142.67
409.30	15417.11
409.49	14431.74
409.68	13439.36
409.87	13287.22
410.07	13806.82
410.26	14799.21
410.45	16133.31
410.64	16416.52
410.83	16575.67
411.02	17142.08
411.21	17928.50
411.40	17664.02
411.59	17724.88
411.78	17689.77
411.98	17504.87
412.17	17619.55
412.36	17319.96
412.55	17422.95
412.74	16858.88
412.93	16592.06
413.12	16657.59
413.31	18026.81
413.50	18525.34
413.69	18827.27
413.88	18281.92
414.07	17408.90
414.26	17860.63
414.45	18441.08
414.64	18239.79
414.83	18544.06
415.02	18146.17
415.22	18099.36
415.41	18764.07
415.60	19115.16
415.79	20067.75
415.98	20383.73
416.17	20528.84
416.36	19840.72
416.55	19779.87
416.74	18785.14
416.93	18354.48
417.12	18548.75
417.31	18586.19
417.50	19138.56
417.69	19494.32
417.88	19311.76
418.07	19332.82
418.26	19096.43
418.45	19278.99
418.64	19625.39
418.83	20524.16
419.02	20613.10
419.21	20318.19
419.39	19047.28
419.58	18169.58
419.77	18555.77
419.96	19215.80
420.15	20479.69
420.34	20524.16
420.53	21495.48
420.72	22286.58
420.91	21884.01
421.10	21537.61
421.29	21476.76
421.48	20718.42
421.67	21570.38
421.86	20945.45
422.05	19524.75
422.24	17867.65
422.43	17373.80
422.61	19288.35
422.80	20659.91
422.99	20875.24
423.18	20299.47
423.37	19590.28
423.56	19620.71
423.75	20006.90
423.94	20308.83
424.13	19477.94
424.32	19573.90
424.50	19660.50
424.69	19403.04
424.88	19440.49
425.07	19590.28
425.26	19414.74
425.45	19194.73
425.64	19054.30
425.83	18885.78
426.01	19964.77
426.20	20603.74
426.39	20346.28
426.58	18888.12
426.77	17413.59
426.96	16713.77
427.15	17280.18
427.33	19241.54
427.52	19571.56
427.71	19557.52
427.90	19609.01
428.09	19421.77
428.28	18607.26
428.46	18260.86
428.65	18026.81
428.84	18541.72
429.03	18939.62
429.22	17958.93
429.40	16957.18
429.59	15040.28
429.78	13530.64
429.97	13540.00
430.16	13741.29
430.34	13703.84
430.53	13750.65
430.72	14398.98
430.91	15590.31
431.10	18263.20
431.28	21682.72
431.47	23199.39
431.66	23805.59
431.85	21460.37
432.03	19873.49
432.22	18778.12
432.41	19470.92
432.60	21949.54
432.79	22705.54
432.97	22918.53
433.16	22817.88
433.35	20823.75
433.54	18574.49
433.72	17355.07
433.91	18111.07
434.10	20311.17
434.28	21474.42
434.47	22813.20
434.66	22436.38
434.85	21832.52
435.03	21420.58
435.22	22314.67
435.41	23735.37
435.59	23922.62
435.78	23946.02
435.97	24388.38
436.16	24837.76
436.34	24500.73
436.53	23646.43
436.72	23777.50
436.90	22548.72
437.09	22616.60
437.28	21965.93
437.46	23138.54
437.65	22881.08
437.84	21397.18
438.02	19566.88
438.21	19353.89
438.40	20453.94
438.58	22403.61
438.77	22705.54
438.96	23171.30
439.14	24292.42
439.33	24313.48
439.52	25036.71
439.70	24058.37
439.89	23988.15
440.08	23243.86
440.26	23070.66
440.45	23955.38
440.63	25916.75
440.82	26841.26
441.01	26373.16
441.19	26195.28
441.38	26501.89
441.57	27681.52
441.75	28189.41
441.94	28095.79
442.12	28254.95
442.31	28542.83
442.50	28456.23
442.68	28379.00
442.87	27709.60
443.05	27096.38
443.24	27611.30
443.43	28257.29
443.61	28732.42
443.80	29006.26
443.98	27339.80
444.17	27475.55
444.35	29102.22
444.54	29635.86
444.73	29413.51
444.91	28163.67
445.10	27143.19
445.28	25909.73
445.47	25280.13
445.65	25544.61
445.84	26405.92
446.02	27159.58
446.21	27491.93
446.39	27868.76
446.58	27915.57
446.77	28257.29
446.95	28964.13
447.14	29455.64
447.32	29989.28
447.51	29523.52
447.69	28458.57
447.88	27681.52
448.06	28446.87
448.25	29118.60
448.43	29621.82
448.62	28437.51
448.80	28369.63
448.99	28460.91
449.17	28914.98
449.36	28814.34
449.54	29694.38
449.73	30604.84
449.91	31047.21
450.10	31637.02
450.28	32217.47
450.46	31576.17
450.65	31880.44
450.83	31571.49
451.02	30881.03
451.20	30984.01
451.39	31271.90
451.57	30677.40
451.76	30616.55
451.94	30745.28
452.13	29991.62
452.31	28591.98
452.49	27515.34
452.68	27428.74
452.86	27707.26
453.05	28297.08
453.23	28996.90
453.42	29366.70
453.60	30120.35
453.78	30618.89
453.97	29982.26
454.15	30452.71
454.34	29418.19
454.52	29979.92
454.70	29050.73
454.89	29521.18
455.07	29577.35
455.26	29970.56
455.44	30944.22
455.62	31782.13
455.81	32018.53
455.99	31417.01
456.17	31384.24
456.36	31393.61
456.54	32196.41
456.73	31772.77
456.91	32694.94
457.09	32643.45
457.28	33144.33
457.46	31779.79
457.64	32065.34
457.83	31049.55
458.01	30122.69
458.19	30874.01
458.38	30911.46
458.56	32570.90
458.74	31873.42
458.93	31634.68
459.11	31414.67
459.29	31503.61
459.48	31529.36
459.66	31129.12
459.84	31615.96
460.03	31976.40
460.21	32098.11
460.39	32690.26
460.57	32673.88
460.76	33113.90
460.94	33394.76
461.12	32767.50
461.31	32741.75
461.49	32734.73
461.67	32912.61
461.85	34157.78
462.04	33359.66
462.22	34132.03
462.40	33951.81
462.59	33436.89
462.77	33525.83
462.95	33472.00
463.13	33074.11
463.32	32961.76
463.50	32725.37
463.68	32821.33
463.86	33113.90
464.05	32208.11
464.23	31742.35
464.41	31721.28
464.59	30579.10
464.78	32308.76
464.96	32561.53
465.14	31924.91
465.32	32807.29
465.50	33504.77
465.69	33979.90
465.87	33432.21
466.05	32332.16
466.23	31562.12
466.41	30263.13
466.60	31314.03
466.78	31255.51
466.96	31903.84
467.14	32577.92
467.32	32718.35
467.51	32917.29
467.69	31229.77
467.87	31714.26
468.05	32280.67
468.23	32617.71
468.41	32126.19
468.60	32975.81
468.78	32877.51
468.96	32407.06
469.14	32868.14
469.32	33226.24
469.50	31564.46
469.69	31688.51
469.87	31494.25
470.05	31857.03
470.23	31641.70
470.41	31615.96
470.59	32395.35
470.77	32180.03
470.95	32793.25
471.14	33411.15
471.32	33490.73
471.50	34986.33
471.68	35456.78
471.86	35557.42
472.04	35569.12
472.22	35768.07
472.40	34115.65
472.58	34054.79
472.77	32898.57
472.95	33867.55
473.13	35182.93
473.31	33603.07
473.49	33982.24
473.67	34632.91
473.85	35136.12
474.03	35992.76
474.21	35866.37
474.39	36556.83
474.57	36704.28
474.75	36542.78
474.93	36397.67
475.12	35814.88
475.30	35632.32
475.48	35632.32
475.66	36231.49
475.84	35866.37
476.02	35290.60
476.20	34806.11
476.38	35433.37
476.56	36290.01
476.74	37237.92
476.92	37324.52
477.10	37748.16
477.28	38918.43
477.46	38820.13
477.64	39414.62
477.82	39288.23
478.00	39885.07
478.18	39154.82
478.36	38897.36
478.54	38960.56
478.72	39218.02
478.90	40273.60
479.08	41027.25
479.26	41493.02
479.44	41205.13
479.62	41322.16
479.80	41181.73
479.98	41558.55
480.16	42150.71
480.34	41045.97
480.52	41567.91
480.70	41982.19
480.88	42298.16
481.06	42801.38
481.24	43093.94
481.41	43847.60
481.59	44456.14
481.77	43873.34
481.95	44184.63
482.13	43562.05
482.31	43594.82
482.49	44133.14
482.67	43983.35
482.85	44233.78
483.03	44900.84
483.21	45237.87
483.39	45090.42
483.57	44224.42
483.74	44147.18
483.92	45031.91
484.10	44741.68
484.28	45518.74
484.46	46330.90
484.64	46845.82
484.82	45626.40
485.00	44940.63
485.18	44046.54
485.35	42817.76
485.53	40044.23
485.71	36856.42
485.89	35992.76
486.07	37982.21
486.25	41053.00
486.43	43196.93
486.61	44299.32
486.78	43894.41
486.96	44140.16
487.14	46178.77
487.32	46759.22
487.50	48051.20
487.68	48739.32
487.85	49202.74
488.03	49169.97
488.21	48870.39
488.39	48126.10
488.57	47372.44
488.75	47271.80
488.92	48306.32
489.10	50632.81
489.28	51758.61
489.46	52933.56
489.64	52353.10
489.81	52521.62
489.99	52065.22
490.17	52090.96
490.35	52802.49
490.53	52083.94
490.70	51571.36
490.88	51559.66
491.06	52566.09
491.24	52722.91
491.41	51512.85
491.59	49804.26
491.77	49001.46
491.95	50356.63
492.13	51735.20
492.30	52750.99
492.48	53652.10
492.66	54150.63
492.84	53890.83
493.01	53631.04
493.19	53132.50
493.37	52968.66
493.54	52622.26
493.72	53478.90
493.90	54527.46
494.08	55229.62
494.25	55501.12
494.43	55763.26
494.61	55999.66
494.79	56011.36
494.96	56027.74
495.14	54951.10
495.32	54277.02
495.49	53670.82
495.67	54693.64
495.85	55931.78
496.02	56296.91
496.20	56505.21
496.38	55985.61
496.55	55779.65
496.73	56264.14
496.91	56355.42
497.09	56858.63
497.26	57373.55
497.44	56528.62
497.62	56133.07
497.79	55430.91
497.97	54049.99
498.14	54160.00
498.32	55386.44
498.50	56388.19
498.67	56865.66
498.85	56615.22
499.03	56900.76
499.20	56985.02
499.38	56963.96
499.56	56807.14
499.73	56296.91
499.91	56020.72
500.08	55566.66
500.26	54791.94
500.44	55257.71
500.61	56079.24
500.79	55714.11
500.97	55419.20
501.14	55384.10
501.32	55187.49
501.49	55110.25
501.67	55248.35
501.84	55915.40
502.02	56144.77
502.20	56320.31
502.37	56474.79
502.55	56505.21
502.72	57174.61
502.90	57792.51
503.07	57233.12
503.25	56804.80
503.43	56055.83
503.60	55449.63
503.78	54607.04
503.95	55040.04
504.13	56563.73
504.30	57694.21
504.48	57270.57
504.65	57041.20
504.83	56968.64
505.01	57563.14
505.18	57914.22
505.36	58454.88
505.53	58410.41
505.71	58621.06
505.88	58728.72
506.06	58103.80
506.23	57726.97
506.41	57474.20
506.58	57722.29
506.76	57762.08
506.93	57771.44
507.11	57478.88
507.28	57432.07
507.46	57296.31
507.63	56769.69
507.81	56170.52
507.98	56655.01
508.16	57148.86
508.33	57757.40
508.50	58033.58
508.68	58515.73
508.85	58763.83
509.03	58677.23
509.20	58815.32
509.38	57982.09
509.55	57265.89
509.73	57455.47
509.90	57834.64
510.08	57984.43
510.25	58082.73
510.42	57778.46
510.60	57846.34
510.77	58213.80
510.95	58443.18
511.12	58794.26
511.30	59082.14
511.47	59325.56
511.64	59255.34
511.82	59004.91
511.99	58068.69
512.17	57867.40
512.34	57312.70
512.51	57616.97
512.69	57593.56
512.86	57911.88
513.04	58021.88
513.21	58145.93
513.38	57949.32
513.56	57340.78
513.73	56629.26
513.90	57006.09
514.08	57043.54
514.25	57689.52
514.43	57649.74
514.60	57602.92
514.77	57785.49
514.95	57881.45
515.12	57605.26
515.29	58101.46
515.47	58504.03
515.64	58782.55
515.81	58295.72
515.99	57738.68
516.16	56341.38
516.33	54033.61
516.51	52692.48
516.68	51538.60
516.85	51145.39
517.03	51767.97
517.20	54450.22
517.37	57104.39
517.54	57780.81
517.72	57366.53
517.89	55072.81
518.06	52397.57
518.24	53146.54
518.41	55323.24
518.58	56495.85
518.75	56481.81
518.93	57029.49
519.10	56865.66
519.27	57228.44
519.45	57418.02
519.62	58255.93
519.79	58480.63
519.96	58174.02
520.14	57883.79
520.31	57080.98
520.48	56832.89
520.65	57490.58
520.83	58295.72
521.00	58604.67
521.17	58134.23
521.34	57956.35
521.52	58319.13
521.69	58820.00
521.86	59288.11
522.03	58906.60
522.20	57719.95
522.38	56671.39
522.55	56669.05
522.72	57441.43
522.89	57544.41
523.07	57546.75
523.24	57970.39
523.41	58717.02
523.58	58955.75
523.75	59405.14
523.92	59297.47
524.10	59079.80
524.27	59358.33
524.44	59018.95
524.61	58719.36
524.78	58630.42
524.96	58742.77
525.13	58511.05
525.30	58843.41
525.47	59215.55
525.64	59093.85
525.81	58342.53
525.98	57176.95
526.16	55639.22
526.33	55248.35
526.50	54660.87
526.67	54206.81
526.84	55040.04
527.01	55908.38
527.18	56877.36
527.36	57783.15
527.53	58529.78
527.70	58801.28
527.87	58227.85
528.04	57804.21
528.21	58281.68
528.38	58864.47
528.55	59348.96
528.72	59728.13
528.89	59903.67
529.07	59587.70
529.24	58983.84
529.41	58433.81
529.58	57631.01
529.75	57932.94
529.92	58443.18
530.09	58705.32
530.26	59164.06
530.43	59433.22
530.60	59599.40
530.77	59746.86
530.94	59779.62
531.11	59224.92
531.28	59037.67
531.46	58665.53
531.63	59009.59
531.80	58831.71
531.97	58684.25
532.14	57528.03
532.31	56659.69
532.48	56083.92
532.65	55957.53
532.82	56914.81
532.99	58101.46
533.16	58436.16
533.33	58988.52
533.50	58775.53
533.67	58045.29
533.84	57712.93
534.01	58052.31
534.18	58120.18
534.35	58234.87
534.52	57963.37
534.69	58504.03
534.86	58866.81
535.03	58997.88
535.20	59517.48
535.37	59884.95
535.54	59758.56
535.71	59444.93
535.88	59222.58
536.05	58202.10
536.22	58040.60
536.38	57661.44
536.55	57495.26
536.72	56947.57
536.89	56868.00
537.06	57605.26
537.23	58429.13
537.40	58780.21
537.57	58656.17
537.74	58211.46
537.91	58557.86
538.08	58220.83
538.25	58342.53
538.42	58717.02
538.59	58382.32
538.75	57799.53
538.92	57640.37
539.09	57471.85
539.26	57165.24
539.43	57116.09
539.60	56996.73
539.77	57375.89
539.94	57286.95
540.11	56528.62
540.28	56083.92
540.44	56193.92
540.61	56292.22
540.78	56549.68
540.95	56860.97
541.12	57312.70
541.29	57570.16
541.46	57865.06
541.62	58082.73
541.79	57715.27
541.96	57073.96
542.13	57113.75
542.30	57710.59
542.47	57832.30
542.63	57448.45
542.80	57146.52
542.97	57425.04
543.14	57085.67
543.31	57324.40
543.48	57563.14
543.64	58585.95
543.81	58681.91
543.98	58571.91
544.15	57733.99
544.32	57102.05
544.48	57436.75
544.65	57844.00
544.82	58164.65
544.99	57745.70
545.16	57509.30
545.32	57584.20
545.49	57991.45
545.66	58394.03
545.83	58017.20
546.00	57766.76
546.16	57464.83
546.33	57502.28
546.50	57621.65
546.67	57808.89
546.83	57324.40
547.00	57268.23
547.17	56825.87
547.34	56123.71
547.50	56083.92
547.67	56605.86
547.84	56690.12
548.00	57303.34
548.17	57640.37
548.34	57343.12
548.51	57411.00
548.67	57371.21
548.84	57750.38
549.01	57605.26
549.18	57492.92
549.34	57305.68
549.51	57460.15
549.68	57310.36
549.84	57029.49
550.01	57125.46
550.18	56938.21
550.34	56942.89
550.51	56891.40
550.68	57097.37
550.84	56568.41
551.01	56636.28
551.18	56774.37
551.34	56924.17
551.51	57010.77
551.68	57350.15
551.84	57652.08
552.01	57343.12
552.18	56963.96
552.34	56413.93
552.51	55938.80
552.68	55927.10
552.84	56591.81
553.01	56449.04
553.18	56479.47
553.34	56626.92
553.51	56975.66
553.67	57066.94
553.84	57289.29
554.01	57024.81
554.17	56844.59
554.34	56809.48
554.51	57279.93
554.67	57607.61
554.84	57066.94
555.00	56919.49
555.17	56530.96
555.33	56605.86
555.50	56573.09
555.67	56582.45
555.83	56552.02
556.00	55899.01
556.16	56376.48
556.33	55828.80
556.50	55611.13
556.66	55395.80
556.83	55246.00
556.99	55437.93
557.16	55510.49
557.32	55896.67
557.49	56406.91
557.65	55849.86
557.82	55957.53
557.98	55934.12
558.15	55571.34
558.32	54302.77
558.48	53467.20
558.65	54035.95
558.81	54143.61
558.98	54447.88
559.14	54742.79
559.31	54838.75
559.47	54763.85
559.64	54621.08
559.80	54258.30
559.97	54550.87
560.13	54890.24
560.30	55671.98
560.46	56519.26
560.63	56409.25
560.79	56299.25
560.96	56109.66
561.12	55023.65
561.29	53848.71
561.45	54134.25
561.61	54920.67
561.78	55040.04
561.94	55075.15
562.11	54805.98
562.27	54808.32
562.44	55327.92
562.60	55407.50
562.77	55583.04
562.93	55138.34
563.10	55416.86
563.26	54600.02
563.42	54674.91
563.59	54763.85
563.75	54714.70
563.92	54581.29
564.08	54639.81
564.24	54918.33
564.41	54855.14
564.57	54784.92
564.74	54866.84
564.90	54506.40
565.07	54492.35
565.23	53923.60
565.39	53399.32
565.56	53221.44
565.72	53165.27
565.88	53277.61
566.05	53394.64
566.21	53930.62
566.38	53813.60
566.54	53888.49
566.70	54323.83
566.87	54672.57
567.03	54658.53
567.19	54859.82
567.36	54415.11
567.52	54583.63
567.68	54162.34
567.85	53240.17
568.01	53132.50
568.17	52587.16
568.34	52863.34
568.50	52912.49
568.66	52509.92
568.83	52949.94
568.99	53123.14
569.15	53682.53
569.32	53600.61
569.48	53008.45
569.64	53125.48
569.81	52701.84
569.97	52755.68
570.13	52212.67
570.30	51842.87
570.46	51459.02
570.62	50836.44
570.78	50873.88
570.95	50871.54
571.11	51756.27
571.27	51990.32
571.43	52224.37
571.60	52769.72
571.76	53088.03
571.92	53303.36
572.09	53471.88
572.25	53361.87
572.41	53272.93
572.57	53179.31
572.74	53003.77
572.90	52804.83
573.06	52664.39
573.22	52669.08
573.38	52750.99
573.55	52697.16
573.71	52743.97
573.87	52910.15
574.03	52697.16
574.20	52374.17
574.36	51955.21
574.52	52210.33
574.68	51805.42
574.84	51222.62
575.01	51100.92
575.17	50885.59
575.33	51311.56
575.49	51576.04
575.65	51660.30
575.82	51353.69
575.98	50787.28
576.14	51454.34
576.30	51707.12
576.46	51845.21
576.62	51529.23
576.79	51547.96
576.95	51639.24
577.11	50981.55
577.27	51318.59
577.43	51590.09
577.59	51253.05
577.75	50431.52
577.92	49940.01
578.08	49769.15
578.24	49687.23
578.40	49668.51
578.56	50424.50
578.72	50600.04
578.88	50522.80
579.04	50916.01
579.21	51000.27
579.37	51030.70
579.53	51058.79
579.69	50944.10
579.85	51442.63
580.01	51192.20
580.17	50597.70
580.33	50220.87
580.49	50490.04
580.65	50866.86
580.82	50976.87
580.98	50962.82
581.14	50698.34
581.30	51098.58
581.46	50504.08
581.62	51295.18
581.78	51026.02
581.94	51147.73
582.10	51011.98
582.26	50707.71
582.42	50976.87
582.58	51344.33
582.74	51068.15
582.90	51175.81
583.06	51011.98
583.22	50986.23
583.38	50593.02
583.54	50480.67
583.70	50529.83
583.86	50586.00
584.02	50260.66
584.18	50721.75
584.34	50703.03
584.50	50305.13
584.66	50099.17
584.82	49808.94
584.98	49755.11
585.14	49125.50
585.30	48385.89
