SpectraSuite Data File
++++++++++++++++++++++++++++++++++++
Date: Mon Oct 07 14:53:30 GMT-05:00 2013
User: price-jones
Dark Spectrum Present: No
Reference Spectrum Present: No
Number of Sampled Component Spectra: 1
Spectrometers: USB2+H05261
Integration Time (usec): 100000 (USB2+H05261)
Spectra Averaged: 1 (USB2+H05261)
Boxcar Smoothing: 0 (USB2+H05261)
Correct for Electrical Dark: No (USB2+H05261)
Strobe/Lamp Enabled: No (USB2+H05261)
Correct for Detector Non-linearity: No (USB2+H05261)
Correct for Stray Light: No (USB2+H05261)
Number of Pixels in Processed Spectrum: 2048
>>>>>Begin Processed Spectral Data<<<<<
365.73	0.00
365.92	0.00
366.12	0.00
366.32	0.00
366.52	0.00
366.72	0.00
366.91	0.00
367.11	0.00
367.31	0.00
367.51	0.00
367.70	0.00
367.90	0.00
368.10	0.00
368.30	0.00
368.49	0.00
368.69	0.00
368.89	0.00
369.09	0.00
369.28	0.00
369.48	0.00
369.68	0.00
369.87	0.00
370.07	0.00
370.27	0.00
370.47	624.92
370.66	3143.34
370.86	3794.01
371.06	4077.21
371.25	4093.60
371.45	3744.86
371.65	3314.20
371.84	3059.08
372.04	3187.81
372.24	3597.40
372.44	3922.74
372.63	3644.21
372.83	3595.06
373.03	3068.44
373.22	2850.77
373.42	2942.05
373.62	3552.93
373.81	3756.56
374.01	3819.75
374.21	3325.90
374.40	3068.44
374.60	3272.07
374.79	3475.70
374.99	4264.46
375.19	4479.79
375.38	4624.90
375.58	4451.70
375.78	4154.45
375.97	4381.48
376.17	4449.36
376.37	4573.41
376.56	4542.98
376.76	4851.93
376.95	5254.50
377.15	5596.22
377.35	5750.70
377.54	6036.24
377.74	6179.01
377.93	6204.76
378.13	6010.50
378.33	5944.96
378.52	5451.11
378.72	5057.90
378.91	5088.32
379.11	4891.72
379.31	4596.81
379.50	4739.58
379.70	5015.77
379.89	5439.40
380.09	5916.87
380.28	6188.38
380.48	5879.43
380.68	5989.43
380.87	5776.44
381.07	5479.19
381.26	4971.30
381.46	4540.64
381.65	4535.96
381.85	4442.34
382.04	4224.67
382.24	3948.48
382.43	3749.54
382.63	3651.24
382.83	3522.51
383.02	3822.09
383.22	3681.66
383.41	3840.82
383.61	3983.59
383.80	4575.75
384.00	5001.72
384.19	5572.82
384.39	6157.95
384.58	5973.05
384.78	5987.09
384.97	5888.79
385.17	5631.33
385.36	5254.50
385.56	5046.20
385.75	5179.61
385.95	5682.82
386.14	6239.87
386.34	6204.76
386.53	5949.64
386.72	5633.67
386.92	5753.04
387.11	6169.65
387.31	6036.24
387.50	6146.25
387.70	5998.79
387.89	5907.51
388.09	6057.31
388.28	5884.11
388.48	6225.82
388.67	6490.31
388.86	6984.16
389.06	7494.40
389.25	8030.38
389.45	8021.02
389.64	7941.44
389.84	7943.78
390.03	7702.70
390.22	7726.11
390.42	7953.14
390.61	8734.88
390.81	9085.96
391.00	9294.27
391.19	9380.87
391.39	8926.80
391.58	8409.54
391.78	7901.65
391.97	7882.92
392.16	7162.04
392.36	6825.00
392.55	5235.78
392.75	4248.07
392.94	3552.93
393.13	3398.46
393.33	4030.40
393.52	5245.14
393.71	6340.51
393.91	7234.60
394.10	7669.94
394.29	8369.76
394.49	9107.02
394.68	9844.29
394.88	9895.78
395.07	10326.44
395.26	9984.73
395.46	9717.90
395.65	9357.46
395.84	8201.24
396.04	6860.11
396.23	5453.45
396.42	4669.37
396.62	4507.87
396.81	5167.90
397.00	6569.88
397.19	8346.35
397.39	9867.70
397.58	11105.84
397.77	11920.35
397.97	12318.24
398.16	12283.13
398.35	12971.25
398.55	13060.19
398.74	13820.86
398.93	14050.24
399.12	13954.27
399.32	13315.31
399.51	13818.52
399.70	14523.02
399.90	14146.20
400.09	14253.86
400.28	14534.73
400.47	14644.73
400.67	15108.16
400.86	15447.54
401.05	15323.49
401.24	15510.73
401.44	15985.86
401.63	15573.92
401.82	15824.36
402.01	15995.22
402.21	16135.65
402.40	16374.39
402.59	15527.11
402.78	14855.38
402.97	14668.14
403.17	15129.22
403.36	16042.03
403.55	16875.26
403.74	16723.13
403.93	16308.85
404.13	15033.26
404.32	14195.35
404.51	15426.47
404.70	16266.72
404.89	16346.30
405.09	16194.17
405.28	15517.75
405.47	15721.38
405.66	15878.19
405.85	15363.28
406.05	14857.72
406.24	14988.79
406.43	15618.39
406.62	16175.44
406.81	16236.30
407.00	15819.68
407.20	15241.57
407.39	15557.54
407.58	16154.38
407.77	16812.07
407.96	17460.40
408.15	17607.85
408.34	17675.73
408.54	18752.37
408.73	18450.44
408.92	18614.28
409.11	17933.18
409.30	17146.76
409.49	15824.36
409.68	14857.72
409.87	14415.36
410.07	15482.64
410.26	16278.43
410.45	17575.08
410.64	17926.16
410.83	18445.76
411.02	19002.81
411.21	19641.78
411.40	19356.23
411.59	19468.58
411.78	19440.49
411.98	18958.34
412.17	19585.60
412.36	19199.41
412.55	19215.80
412.74	19019.19
412.93	18586.19
413.12	18518.32
413.31	20535.86
413.50	20400.11
413.69	20999.29
413.88	20049.03
414.07	19442.83
414.26	19887.53
414.45	20512.46
414.64	20517.14
414.83	20669.27
415.02	20322.87
415.22	20081.80
415.41	20662.25
415.60	21242.70
415.79	22405.95
415.98	22457.44
416.17	22906.82
416.36	22256.15
416.55	21935.50
416.74	21252.06
416.93	20334.57
417.12	20444.58
417.31	20491.39
417.50	21083.55
417.69	21619.53
417.88	21530.59
418.07	21408.88
418.26	21102.27
418.45	21006.31
418.64	22288.92
418.83	22890.44
419.02	22370.84
419.21	22607.23
419.39	21275.47
419.58	20219.89
419.77	20093.50
419.96	21462.71
420.15	22153.17
420.34	23159.60
420.53	24243.27
420.72	24215.18
420.91	24180.07
421.10	23697.92
421.29	23660.48
421.48	22845.97
421.67	23971.77
421.86	23826.65
422.05	21745.92
422.24	19557.52
422.43	19452.19
422.61	21219.30
422.80	23246.20
422.99	23164.28
423.18	22457.44
423.37	21933.16
423.56	22022.10
423.75	22511.27
423.94	22515.95
424.13	21420.58
424.32	21647.61
424.50	22125.08
424.69	21254.40
424.88	21748.26
425.07	21832.52
425.26	21479.10
425.45	21387.82
425.64	20648.21
425.83	20961.84
426.01	22422.33
426.20	22855.33
426.39	22740.64
426.58	20973.54
426.77	19384.32
426.96	18738.33
427.15	19398.36
427.33	20875.24
427.52	21542.29
427.71	22089.98
427.90	21362.07
428.09	21572.72
428.28	21394.84
428.46	20463.30
428.65	19864.13
428.84	20343.94
429.03	20617.78
429.22	19674.54
429.40	18700.88
429.59	16788.66
429.78	14911.55
429.97	14857.72
430.16	15129.22
430.34	15400.72
430.53	15269.66
430.72	15674.57
430.91	17322.30
431.10	20453.94
431.28	23728.35
431.47	25951.86
431.66	26001.01
431.85	23744.73
432.03	21774.00
432.22	20905.66
432.41	21907.41
432.60	24261.99
432.79	25106.93
432.97	25741.21
433.16	25383.11
433.35	23168.96
433.54	20711.40
433.72	19384.32
433.91	19915.62
434.10	22565.10
434.28	24123.90
434.47	25102.25
434.66	24458.60
434.85	23964.75
435.03	24123.90
435.22	24458.60
435.41	26263.15
435.59	26284.22
435.78	26195.28
435.97	26745.30
436.16	27372.57
436.34	26991.06
436.53	26277.19
436.72	26129.74
436.90	25130.33
437.09	25195.87
437.28	24451.58
437.46	25352.68
437.65	25628.87
437.84	23449.83
438.02	21582.08
438.21	21371.43
438.40	22733.62
438.58	25008.62
438.77	25085.86
438.96	25717.81
439.14	26700.83
439.33	27243.84
439.52	27555.13
439.70	27222.77
439.89	26534.65
440.08	25678.02
440.26	25638.23
440.45	26389.54
440.63	28308.78
440.82	30008.01
441.01	29378.40
441.19	29214.57
441.38	29406.49
441.57	30609.53
441.75	31056.57
441.94	31187.64
442.12	30785.07
442.31	31452.12
442.50	31536.38
442.68	31166.57
442.87	30742.94
443.05	30272.49
443.24	30726.55
443.43	31325.73
443.61	31960.02
443.80	32533.45
443.98	30377.81
444.17	30555.69
444.35	32332.16
444.54	32734.73
444.73	32510.04
444.91	31377.22
445.10	30251.42
445.28	28713.69
445.47	27878.12
445.65	28421.13
445.84	29429.90
446.02	30092.27
446.21	30747.62
446.39	30951.24
446.58	30859.96
446.77	31405.31
446.95	31896.82
447.14	32762.82
447.32	33619.46
447.51	32507.70
447.69	31276.58
447.88	31089.34
448.06	31372.54
448.25	32318.12
448.43	32322.80
448.62	31601.91
448.80	31337.43
448.99	31749.37
449.17	31945.97
449.36	32217.47
449.54	33369.02
449.73	34155.44
449.91	34319.28
450.10	35349.11
450.28	35700.19
450.46	35330.39
450.65	35173.57
450.83	34813.13
451.02	34185.86
451.20	34424.60
451.39	34213.95
451.57	33841.81
451.76	34153.10
451.94	33624.14
452.13	33261.35
452.31	31859.37
452.49	30024.39
452.68	30661.02
452.86	30574.42
453.05	31040.18
453.23	31992.78
453.42	32493.66
453.60	33390.08
453.78	34199.91
453.97	33336.25
454.15	33383.06
454.34	32725.37
454.52	32879.85
454.70	31871.07
454.89	32933.68
455.07	32723.03
455.26	33340.93
455.44	34342.68
455.62	34962.92
455.81	35126.76
455.99	34689.08
456.17	34663.33
456.36	34567.37
456.54	35407.62
456.73	35461.46
456.91	36409.37
457.09	36184.68
457.28	37125.58
457.46	35480.18
457.64	35608.91
457.83	34455.03
458.01	33656.90
458.19	34038.41
458.38	34462.05
458.56	35934.24
458.74	35686.15
458.93	34841.21
459.11	35068.25
459.29	34796.74
459.48	34998.03
459.66	34295.87
459.84	35243.79
460.03	35571.46
460.21	35091.65
460.39	36320.43
460.57	36037.23
460.76	37205.16
460.94	36573.21
461.12	36414.05
461.31	36566.19
461.49	36439.80
461.67	36168.30
461.85	37406.44
462.04	37324.52
462.22	37989.24
462.40	37551.56
462.59	37251.97
462.77	37170.05
462.95	37027.28
463.13	36886.84
463.32	36479.59
463.50	36170.64
463.68	36121.49
463.86	36250.22
464.05	36114.47
464.23	35314.00
464.41	35133.78
464.59	34508.86
464.78	36172.98
464.96	35950.63
465.14	35938.93
465.32	36734.71
465.50	37483.68
465.69	37687.31
465.87	36659.81
466.05	36011.48
466.23	34696.10
466.41	33523.49
466.60	34707.80
466.78	34319.28
466.96	35363.15
467.14	35421.67
467.32	35936.59
467.51	36577.89
467.69	34548.65
467.87	35555.08
468.05	36034.89
468.23	35615.93
468.41	36093.40
468.60	36421.08
468.78	36760.45
468.96	36109.78
469.14	36823.65
469.32	36863.44
469.50	35536.35
469.69	35381.88
469.87	34883.34
470.05	34829.51
470.23	34930.16
470.41	35227.40
470.59	35840.62
470.77	35962.33
470.95	36575.55
471.14	36629.38
471.32	36528.74
471.50	38845.87
471.68	38937.15
471.86	39564.42
472.04	39426.32
472.22	39292.91
472.40	37546.87
472.58	37415.80
472.77	37060.04
472.95	37748.16
473.13	38789.70
473.31	37776.25
473.49	37860.51
473.67	38501.81
473.85	38878.64
474.03	39941.24
474.21	39943.58
474.39	40311.05
474.57	40580.21
474.75	40418.71
474.93	40552.12
475.12	39229.72
475.30	39070.56
475.48	39817.19
475.66	39924.86
475.84	39606.55
476.02	39098.65
476.20	38628.20
476.38	39276.53
476.56	40617.66
476.74	40959.38
476.92	41273.01
477.10	42169.43
477.28	43065.86
477.46	43168.84
477.64	43611.20
477.82	43580.78
478.00	43604.18
478.18	42897.34
478.36	43026.07
478.54	42485.40
478.72	43393.53
478.90	44219.74
479.08	45745.77
479.26	45792.58
479.44	45612.36
479.62	45446.18
479.80	45448.52
479.98	45539.80
480.16	46117.92
480.34	46050.04
480.52	45858.12
480.70	45638.11
480.88	46033.66
481.06	47161.79
481.24	47325.63
481.41	47924.81
481.59	48638.67
481.77	48030.13
481.95	47711.82
482.13	47487.13
482.31	47629.90
482.49	48346.11
482.67	48154.18
482.85	48715.91
483.03	48617.61
483.21	49563.18
483.39	49521.05
483.57	48339.08
483.74	48346.11
483.92	48692.50
484.10	48753.36
484.28	49851.07
484.46	50321.52
484.64	50670.26
484.82	49771.49
485.00	49003.80
485.18	48999.12
485.35	46967.53
485.53	43978.67
485.71	40517.01
485.89	39765.70
486.07	41769.20
486.25	45174.68
486.43	47393.51
486.61	48364.83
486.78	48322.70
486.96	48240.78
487.14	49818.30
487.32	50698.34
487.50	51629.88
487.68	52498.22
487.85	52898.45
488.03	52837.59
488.21	52231.40
488.39	52135.43
488.57	51171.13
488.75	51040.06
488.92	51957.55
489.10	53947.01
489.28	55075.15
489.46	55590.06
489.64	55323.24
489.81	55796.03
489.99	55498.78
490.17	55618.15
490.35	55709.43
490.53	55103.23
490.70	54937.05
490.88	54923.01
491.06	55777.31
491.24	55800.71
491.41	54813.01
491.59	53399.32
491.77	52697.16
491.95	53640.40
492.13	54726.41
492.30	55559.64
492.48	56755.65
492.66	56830.55
492.84	57036.51
493.01	56743.95
493.19	56411.59
493.37	55929.44
493.54	55545.59
493.72	56348.40
493.90	57258.87
494.08	57883.79
494.25	58108.48
494.43	58429.13
494.61	58864.47
494.79	58815.32
494.96	58733.40
495.14	57902.51
495.32	57043.54
495.49	56640.96
495.67	57591.22
495.85	58747.45
496.02	59161.72
496.20	59140.66
496.38	58550.84
496.55	58401.05
496.73	59023.63
496.91	59208.53
497.09	59625.15
497.26	59957.50
497.44	59171.08
497.62	58763.83
497.79	58197.42
497.97	57008.43
498.14	57062.26
498.32	58218.49
498.50	58880.86
498.67	59576.00
498.85	59440.24
499.03	59641.53
499.20	59835.80
499.38	59678.98
499.56	59618.13
499.73	59166.40
499.91	58649.14
500.08	58405.73
500.26	57696.55
500.44	58045.29
500.61	58726.38
500.79	58651.48
500.97	58183.38
501.14	58042.95
501.32	57975.07
501.49	58169.33
501.67	58110.82
501.84	58782.55
502.02	58745.11
502.20	59154.70
502.37	59414.50
502.55	59260.02
502.72	60100.28
502.90	60238.37
503.07	60104.96
503.25	59838.14
503.43	59068.10
503.60	58288.70
503.78	57741.02
503.95	57766.76
504.13	59236.62
504.30	60140.07
504.48	60009.00
504.65	59641.53
504.83	59510.46
505.01	60205.60
505.18	60568.38
505.36	61146.50
505.53	61076.28
505.71	61429.70
505.88	61422.68
506.06	60858.61
506.23	60493.49
506.41	60271.14
506.58	60381.14
506.76	60477.10
506.93	60308.58
507.11	60158.79
507.28	60266.45
507.46	59774.94
507.63	59201.51
507.81	59093.85
507.98	59241.30
508.16	59833.46
508.33	60416.25
508.50	60896.06
508.68	60933.51
508.85	61490.55
509.03	61511.62
509.20	61329.06
509.38	60669.03
509.55	59952.82
509.73	59931.76
509.90	60357.74
510.08	60779.03
510.25	60914.78
510.42	60413.91
510.60	60362.42
510.77	60729.88
510.95	61174.58
511.12	61291.61
511.30	61528.00
511.47	61801.85
511.64	61607.58
511.82	61425.02
511.99	60720.52
512.17	60226.66
512.34	60221.98
512.51	60133.04
512.69	60193.90
512.86	60460.72
513.04	60874.99
513.21	60942.87
513.38	60369.44
513.56	60214.96
513.73	59409.82
513.90	59590.04
514.08	59770.26
514.25	60214.96
514.43	60196.24
514.60	60292.20
514.77	60416.25
514.95	60559.02
515.12	60568.38
515.29	60664.35
515.47	61003.72
515.64	61289.27
515.81	61048.19
515.99	60568.38
516.16	59278.75
516.33	57134.82
516.51	55671.98
516.68	55178.13
516.85	54499.37
517.03	55065.78
517.20	57331.42
517.37	59451.95
517.54	60720.52
517.72	60109.64
517.89	57895.49
518.06	55824.12
518.24	55849.86
518.41	58014.86
518.58	59234.28
518.75	59522.16
518.93	59753.88
519.10	59325.56
519.27	59983.25
519.45	60151.77
519.62	60872.65
519.79	61223.73
519.96	61247.14
520.14	60484.12
520.31	59751.54
520.48	59667.28
520.65	59969.21
520.83	60907.76
521.00	61300.97
521.17	61076.28
521.34	60561.36
521.52	60835.20
521.69	61286.93
521.86	61806.53
522.03	61492.89
522.20	60465.40
522.38	59433.22
522.55	59564.29
522.72	59796.01
522.89	60233.69
523.07	60331.99
523.24	60619.88
523.41	61279.91
523.58	61682.48
523.75	62087.39
523.92	61874.40
524.10	61991.43
524.27	61792.48
524.44	61549.07
524.61	61572.47
524.78	61429.70
524.96	61317.35
525.13	61396.93
525.30	61748.01
525.47	61935.26
525.64	61883.76
525.81	61158.20
525.98	59854.52
526.16	58501.69
526.33	57757.40
526.50	57813.57
526.67	57118.43
526.84	57921.24
527.01	58951.07
527.18	59695.36
527.36	60465.40
527.53	61183.94
527.70	61286.93
527.87	60860.95
528.04	60465.40
528.21	60898.40
528.38	61523.32
528.55	62056.96
528.72	62326.13
528.89	62621.03
529.07	62258.25
529.24	61626.31
529.41	60872.65
529.58	60537.96
529.75	60631.58
529.92	60795.42
530.09	61354.80
530.26	61902.49
530.43	62078.03
530.60	62035.90
530.77	62284.00
530.94	62384.64
531.11	61963.34
531.28	61490.55
531.46	61469.49
531.63	61375.87
531.80	61586.52
531.97	61109.05
532.14	60402.21
532.31	59449.61
532.48	59028.31
532.65	58871.49
532.82	59756.22
532.99	60659.66
533.16	60844.57
533.33	61584.18
533.50	61595.88
533.67	60940.53
533.84	60193.90
534.01	60748.60
534.18	60795.42
534.35	60879.67
534.52	60729.88
534.69	61064.58
534.86	61282.25
535.03	61516.30
535.20	61939.94
535.37	62302.72
535.54	62419.75
535.71	62106.12
535.88	61792.48
536.05	61130.11
536.22	60769.67
536.38	60570.72
536.55	60226.66
536.72	59522.16
536.89	59475.35
537.06	60449.02
537.23	61183.94
537.40	61401.61
537.57	61235.44
537.74	61197.99
537.91	61020.11
538.08	60956.91
538.25	61179.26
538.42	61188.63
538.59	60999.04
538.75	60268.79
538.92	60221.98
539.09	60243.05
539.26	60072.19
539.43	59723.45
539.60	59906.01
539.77	60322.63
539.94	59854.52
540.11	59281.09
540.28	58754.47
540.44	58918.31
540.61	58988.52
540.78	59288.11
540.95	59608.76
541.12	60009.00
541.29	60439.65
541.46	60601.15
541.62	60556.68
541.79	60556.68
541.96	59779.62
542.13	59772.60
542.30	60292.20
542.47	60336.67
542.63	60114.32
542.80	59875.58
542.97	59978.57
543.14	59938.78
543.31	60027.72
543.48	60299.22
543.64	61130.11
543.81	61450.77
543.98	61244.80
544.15	60615.19
544.32	60189.22
544.48	60032.40
544.65	60573.06
544.82	60963.93
544.99	60528.59
545.16	60062.83
545.32	60025.38
545.49	60566.04
545.66	61008.40
545.83	60678.39
546.00	60441.99
546.16	59908.35
546.33	60104.96
546.50	60186.88
546.67	60598.81
546.83	60109.64
547.00	60254.75
547.17	59571.32
547.34	58852.77
547.50	59007.25
547.67	59454.29
547.84	59461.31
548.00	59882.61
548.17	60306.24
548.34	60186.88
548.51	60060.49
548.67	60278.16
548.84	60177.51
549.01	60252.41
549.18	60154.11
549.34	60067.51
549.51	60004.31
549.68	60018.36
549.84	59817.07
550.01	59770.26
550.18	59597.06
550.34	59753.88
550.51	59788.98
550.68	59819.41
550.84	59351.30
551.01	59304.49
551.18	59405.14
551.34	59671.96
551.51	60001.97
551.68	60067.51
551.84	60076.87
552.01	60044.10
552.18	59999.63
552.34	59292.79
552.51	58763.83
552.68	58660.85
552.84	59337.26
553.01	59552.59
553.18	59262.36
553.34	59496.42
553.51	59559.61
553.67	59796.01
553.84	59962.18
554.01	59873.24
554.17	59650.89
554.34	59648.55
554.51	59812.39
554.67	59978.57
554.84	59941.12
555.00	59590.04
555.17	59463.65
555.33	59437.90
555.50	59463.65
555.67	59461.31
555.83	59285.77
556.00	59002.56
556.16	59166.40
556.33	58464.24
556.50	58330.83
556.66	58384.66
556.83	58054.65
556.99	58382.32
557.16	58363.60
557.32	58911.28
557.49	59018.95
557.65	58988.52
557.82	59093.85
557.98	58522.76
558.15	58478.28
558.32	57687.18
558.48	56697.14
558.65	56968.64
558.81	57425.04
558.98	57675.48
559.14	57811.23
559.31	57834.64
559.47	57951.66
559.64	57542.07
559.80	57244.82
559.97	57298.65
560.13	57783.15
560.30	58569.57
560.46	59208.53
560.63	59182.79
560.79	59320.88
560.96	58922.99
561.12	57937.62
561.29	57027.15
561.45	57151.20
561.61	57668.46
561.78	58127.20
561.94	58152.95
562.11	57872.09
562.27	57513.98
562.44	57836.98
562.60	58349.56
562.77	58546.16
562.93	58211.46
563.10	58293.38
563.26	57726.97
563.42	57729.31
563.59	57406.32
563.75	57595.90
563.92	57481.22
564.08	57609.95
564.24	57876.77
564.41	58007.84
564.57	57689.52
564.74	57701.23
564.90	57511.64
565.07	57331.42
565.23	56762.67
565.39	56652.67
565.56	56271.16
565.72	56109.66
565.88	56514.58
566.05	56633.94
566.21	57059.92
566.38	56910.13
566.54	56858.63
566.70	57338.44
566.87	57336.10
567.03	57560.79
567.19	57886.13
567.36	57432.07
567.52	57195.67
567.68	57076.30
567.85	56561.39
568.01	56282.86
568.17	55877.95
568.34	55962.21
568.50	55723.47
568.66	56109.66
568.83	56425.64
568.99	56420.95
569.15	56605.86
569.32	56355.42
569.48	56198.60
569.64	56198.60
569.81	55840.50
569.97	55781.99
570.13	55632.19
570.30	55126.64
570.46	55042.38
570.62	54508.74
570.78	54326.17
570.95	54480.65
571.11	55147.70
571.27	55435.59
571.43	55793.69
571.60	55992.64
571.76	55903.70
571.92	56229.03
572.09	56444.36
572.25	56332.01
572.41	56292.22
572.57	56308.61
572.74	56339.04
572.90	55758.58
573.06	55936.46
573.22	56053.49
573.38	55920.08
573.55	55838.16
573.71	56123.71
573.87	55950.51
574.03	55611.13
574.20	55767.94
574.36	55618.15
574.52	55112.59
574.68	55058.76
574.84	55049.40
575.01	54223.19
575.17	54155.32
575.33	54630.44
575.49	54923.01
575.65	54939.39
575.82	55058.76
575.98	54485.33
576.14	54852.80
576.30	54990.89
576.46	55047.06
576.62	55117.28
576.79	55136.00
576.95	54738.11
577.11	54604.70
577.27	54791.94
577.43	55030.68
577.59	54410.43
577.75	54167.02
577.92	53710.61
578.08	53415.71
578.24	53343.15
578.40	53717.64
578.56	54152.97
578.72	54054.67
578.88	54120.21
579.04	54284.04
579.21	54237.23
579.37	54557.89
579.53	54813.01
579.69	54384.69
579.85	54738.11
580.01	54564.91
580.17	54031.27
580.33	54061.69
580.49	54108.50
580.65	54298.09
580.82	54181.06
580.98	54335.54
581.14	54288.73
581.30	54330.86
581.46	54089.78
581.62	54487.67
581.78	54593.00
581.94	54504.06
582.10	54667.89
582.26	54672.57
582.42	54522.78
582.58	54438.52
582.74	54630.44
582.90	54478.31
583.06	54494.69
583.22	54330.86
583.38	54113.19
583.54	54220.85
583.70	54300.43
583.86	54188.08
584.02	54164.68
584.18	53986.80
584.34	54049.99
584.50	54012.54
584.66	53944.67
584.82	53867.43
584.98	53638.06
585.14	53099.73
