SpectraSuite Data File
++++++++++++++++++++++++++++++++++++
Date: Mon Oct 07 14:52:55 GMT-05:00 2013
User: price-jones
Dark Spectrum Present: No
Reference Spectrum Present: No
Number of Sampled Component Spectra: 1
Spectrometers: USB2+H05261
Integration Time (usec): 100000 (USB2+H05261)
Spectra Averaged: 1 (USB2+H05261)
Boxcar Smoothing: 0 (USB2+H05261)
Correct for Electrical Dark: No (USB2+H05261)
Strobe/Lamp Enabled: No (USB2+H05261)
Correct for Detector Non-linearity: No (USB2+H05261)
Correct for Stray Light: No (USB2+H05261)
Number of Pixels in Processed Spectrum: 2048
>>>>>Begin Processed Spectral Data<<<<<
365.73	0.00
365.92	0.00
366.12	0.00
366.32	0.00
366.52	0.00
366.72	0.00
366.91	0.00
367.11	0.00
367.31	0.00
367.51	0.00
367.70	0.00
367.90	0.00
368.10	0.00
368.30	0.00
368.49	0.00
368.69	0.00
368.89	0.00
369.09	0.00
369.28	0.00
369.48	0.00
369.68	0.00
369.87	0.00
370.07	0.00
370.27	0.00
370.47	388.53
370.66	2324.15
370.86	2806.30
371.06	3061.42
371.25	3096.53
371.45	2806.30
371.65	2373.30
371.84	2286.70
372.04	2445.86
372.24	2761.83
372.44	2871.84
372.63	2876.52
372.83	2588.63
373.03	2172.02
373.22	2153.29
373.42	2204.78
373.62	2565.23
373.81	2736.09
374.01	2766.51
374.21	2565.23
374.40	2267.98
374.60	2385.01
374.79	2710.34
374.99	3199.51
375.19	3531.87
375.38	3578.68
375.58	3375.05
375.78	3136.32
375.97	3197.17
376.17	3356.33
376.37	3431.23
376.56	3463.99
376.76	3737.84
376.95	3932.10
377.15	4124.02
377.35	4327.65
377.54	4517.23
377.74	4786.40
377.93	4627.24
378.13	4542.98
378.33	4432.97
378.52	3908.69
378.72	3794.01
378.91	3784.65
379.11	3644.21
379.31	3543.57
379.50	3559.95
379.70	3751.88
379.89	4227.01
380.09	4454.04
380.28	4692.77
380.48	4578.09
380.68	4479.79
380.87	4454.04
381.07	4072.53
381.26	3852.52
381.46	3574.00
381.65	3520.17
381.85	3225.26
382.04	3077.80
382.24	2775.88
382.43	2841.41
382.63	2796.94
382.83	2792.26
383.02	2740.77
383.22	2949.08
383.41	2782.90
383.61	2946.73
383.80	3599.74
384.00	3857.20
384.19	4252.75
384.39	4482.13
384.58	4491.49
384.78	4418.93
384.97	4496.17
385.17	4161.47
385.36	3894.65
385.56	3847.84
385.75	3878.27
385.95	4341.69
386.14	4770.01
386.34	4868.31
386.53	4414.25
386.72	4318.29
386.92	4128.70
387.11	4383.82
387.31	4697.46
387.50	4620.22
387.70	4521.92
387.89	4301.90
388.09	4517.23
388.28	4414.25
388.48	4636.60
388.67	4861.29
388.86	5404.30
389.06	5652.39
389.25	5881.77
389.45	6171.99
389.64	6111.14
389.84	5961.34
390.03	5785.80
390.22	5975.39
390.42	6083.05
390.61	6670.53
390.81	6855.43
391.00	7122.25
391.19	7087.14
391.39	6736.06
391.58	6434.13
391.78	5959.00
391.97	5699.20
392.16	5460.47
392.36	4741.93
392.55	3974.23
392.75	3012.27
392.94	2509.05
393.13	2593.31
393.33	3138.66
393.52	4014.02
393.71	4777.03
393.91	5315.36
394.10	5767.08
394.29	6394.34
394.49	6883.52
394.68	7653.55
394.88	7424.18
395.07	7749.51
395.26	7609.08
395.46	7452.27
395.65	6942.03
395.84	6171.99
396.04	5114.07
396.23	4149.77
396.42	3515.48
396.62	3316.54
396.81	4058.49
397.00	5025.13
397.19	6389.66
397.39	7548.23
397.58	8360.39
397.77	8908.08
397.97	9474.49
398.16	9528.32
398.35	9783.44
398.55	10017.49
398.74	10377.94
398.93	10640.08
399.12	10445.81
399.32	10197.71
399.51	10207.08
399.70	10986.47
399.90	10714.97
400.09	10808.59
400.28	10939.66
400.47	11066.05
400.67	11257.98
400.86	11676.93
401.05	11918.01
401.24	11910.99
401.44	12112.27
401.63	12020.99
401.82	12236.32
402.01	11885.24
402.21	12430.59
402.40	12250.36
402.59	11686.29
402.78	11548.20
402.97	11007.54
403.17	11506.07
403.36	12074.82
403.55	12596.76
403.74	12835.50
403.93	12152.06
404.13	11311.81
404.32	11159.67
404.51	11550.54
404.70	12367.39
404.89	12486.76
405.09	12170.79
405.28	11822.05
405.47	11995.25
405.66	12201.21
405.85	11323.51
406.05	11370.32
406.24	11573.95
406.43	11976.52
406.62	12322.92
406.81	12365.05
407.00	11967.16
407.20	11419.47
407.39	12018.65
407.58	12379.09
407.77	12903.37
407.96	13303.60
408.15	13282.54
408.34	13858.31
408.54	14045.55
408.73	14143.86
408.92	13811.50
409.11	13731.92
409.30	13015.72
409.49	12051.42
409.68	11257.98
409.87	10878.81
410.07	12128.66
410.26	12734.85
410.45	13413.61
410.64	13865.33
410.83	13998.74
411.02	14712.61
411.21	15243.91
411.40	15087.09
411.59	14963.04
411.78	14902.19
411.98	14780.48
412.17	14867.08
412.36	14796.87
412.55	14668.14
412.74	14757.08
412.93	14071.30
413.12	14450.47
413.31	15611.37
413.50	15384.34
413.69	15721.38
413.88	15035.60
414.07	15061.35
414.26	15522.43
414.45	15901.60
414.64	15681.59
414.83	15414.77
415.02	15454.56
415.22	15503.71
415.41	16107.57
415.60	16339.28
415.79	16996.97
415.98	17525.93
416.17	17465.08
416.36	16732.49
416.55	16772.28
416.74	16205.87
416.93	15807.98
417.12	15672.23
417.31	16084.16
417.50	16248.00
417.69	16575.67
417.88	16671.64
418.07	16222.25
418.26	16269.06
418.45	16369.71
418.64	17003.99
418.83	17472.10
419.02	17198.26
419.21	17020.38
419.39	16444.60
419.58	15777.55
419.77	15730.74
419.96	16365.03
420.15	17446.35
420.34	17717.86
420.53	18471.51
420.72	18757.05
420.91	18527.68
421.10	18155.54
421.29	18368.52
421.48	17537.63
421.67	18420.02
421.86	17888.71
422.05	16453.97
422.24	14906.87
422.43	15133.90
422.61	16587.38
422.80	17930.84
422.99	18017.44
423.18	17212.30
423.37	16798.02
423.56	17085.91
423.75	17018.04
423.94	17603.17
424.13	16463.33
424.32	16868.24
424.50	16901.01
424.69	16578.01
424.88	16924.41
425.07	16901.01
425.26	16678.66
425.45	16472.69
425.64	16166.08
425.83	16201.19
426.01	17104.64
426.20	17544.66
426.39	17270.81
426.58	16203.53
426.77	14960.70
426.96	14483.24
427.15	14998.15
427.33	16060.76
427.52	17132.72
427.71	16854.20
427.90	16751.21
428.09	16774.62
428.28	16114.59
428.46	15857.13
428.65	15517.75
428.84	15592.65
429.03	16313.53
429.22	14981.77
429.40	14286.63
429.59	12919.76
429.78	11812.68
429.97	11627.78
430.16	11733.11
430.34	11887.58
430.53	11812.68
430.72	11990.56
430.91	13638.30
431.10	16037.35
431.28	18630.66
431.47	19983.49
431.66	20350.96
431.85	18218.73
432.03	17043.78
432.22	16390.77
432.41	17254.43
432.60	18778.12
432.79	19674.54
432.97	20159.03
433.16	19456.87
433.35	17523.59
433.54	15894.58
433.72	15250.93
433.91	15316.47
434.10	17266.13
434.28	18684.50
434.47	19831.36
434.66	19026.21
434.85	18743.01
435.03	18904.51
435.22	19658.16
435.41	20425.86
435.59	20629.48
435.78	20732.47
435.97	21291.85
436.16	21195.89
436.34	20802.68
436.53	20479.69
436.72	20556.93
436.90	19676.88
437.09	19531.77
437.28	19014.51
437.46	19819.66
437.65	19585.60
437.84	18197.67
438.02	17128.04
438.21	16774.62
438.40	17455.72
438.58	19234.52
438.77	19880.51
438.96	20016.26
439.14	20879.92
439.33	21315.26
439.52	21661.66
439.70	21453.35
439.89	20659.91
440.08	20144.99
440.26	20163.72
440.45	21041.42
440.63	22153.17
440.82	23585.58
441.01	23030.87
441.19	22691.49
441.38	23330.46
441.57	23901.55
441.75	24482.00
441.94	24425.83
442.12	24219.86
442.31	24683.29
442.50	24538.18
442.68	24151.99
442.87	24210.50
443.05	23674.52
443.24	24159.01
443.43	24540.52
443.61	25212.25
443.80	25425.24
443.98	24126.24
444.17	23943.68
444.35	25439.28
444.54	25766.96
444.73	25493.12
444.91	24652.86
445.10	23236.84
445.28	22532.34
445.47	22352.12
445.65	21977.63
445.84	22890.44
446.02	23534.09
446.21	24217.52
446.39	24219.86
446.58	24568.60
446.77	25088.20
446.95	25069.48
447.14	25804.41
447.32	26396.56
447.51	25692.06
447.69	24474.98
447.88	24147.31
448.06	24870.53
448.25	25560.99
448.43	25500.14
448.62	24795.64
448.80	25034.37
448.99	24797.98
449.17	25453.33
449.36	25039.05
449.54	26459.76
449.73	26637.64
449.91	26782.75
450.10	27695.56
450.28	27948.34
450.46	27826.63
450.65	28215.16
450.83	27461.51
451.02	26754.66
451.20	27080.00
451.39	26965.31
451.57	26747.64
451.76	26998.08
451.94	26487.84
452.13	26010.37
452.31	25050.75
452.49	23442.81
452.68	24166.03
452.86	24311.14
453.05	24524.13
453.23	25460.35
453.42	25893.35
453.60	26450.39
453.78	26754.66
453.97	26473.80
454.15	26511.25
454.34	25809.09
454.52	26181.23
454.70	25802.07
454.89	25781.00
455.07	26005.69
455.26	26244.43
455.44	27297.67
455.62	27580.87
455.81	27613.64
455.99	27424.06
456.17	27407.67
456.36	27398.31
456.54	28432.83
456.73	28088.77
456.91	28704.33
457.09	29254.36
457.28	29413.51
457.46	28189.41
457.64	27931.95
457.83	27456.82
458.01	26469.12
458.19	27531.72
458.38	27613.64
458.56	28877.53
458.74	28243.24
458.93	27367.88
459.11	27555.13
459.29	27302.35
459.48	27421.72
459.66	27892.16
459.84	27564.49
460.03	27964.72
460.21	28077.07
460.39	28882.21
460.57	28610.71
460.76	29333.93
460.94	29256.70
461.12	28931.36
461.31	28961.79
461.49	28788.59
461.67	28687.95
461.85	29858.21
462.04	29727.14
462.22	30052.48
462.40	29844.17
462.59	29846.51
462.77	29867.58
462.95	29694.38
463.13	29350.32
463.32	28868.17
463.50	28804.97
463.68	29193.50
463.86	28865.83
464.05	28393.04
464.23	28362.61
464.41	28128.56
464.59	27421.72
464.78	28964.13
464.96	28425.81
465.14	28215.16
465.32	29528.20
465.50	29998.65
465.69	29645.23
465.87	29425.22
466.05	28238.56
466.23	27028.51
466.41	26635.30
466.60	27899.19
466.78	27662.79
466.96	27960.04
467.14	28297.08
467.32	29017.96
467.51	28891.57
467.69	27709.60
467.87	28390.70
468.05	28922.00
468.23	28926.68
468.41	28538.15
468.60	28900.94
468.78	29102.22
468.96	28814.34
469.14	29607.78
469.32	29067.11
469.50	28477.30
469.69	28156.64
469.87	28294.74
470.05	27651.09
470.23	27906.21
470.41	27782.16
470.59	28643.48
470.77	28694.97
470.95	29221.59
471.14	29780.98
471.32	29673.31
471.50	31421.69
471.68	31133.81
471.86	31424.03
472.04	31622.98
472.22	31468.50
472.40	29926.09
472.58	30075.88
472.77	29825.45
472.95	30087.59
473.13	31197.00
473.31	30340.36
473.49	30036.09
473.67	31005.08
473.85	31075.29
474.03	31878.10
474.21	32100.45
474.39	32598.98
474.57	32884.53
474.75	32428.12
474.93	32283.01
475.12	31374.88
475.30	31473.18
475.48	31805.54
475.66	32371.95
475.84	31931.93
476.02	31601.91
476.20	31072.95
476.38	31840.65
476.56	32858.78
476.74	32912.61
476.92	33476.68
477.10	33514.13
477.28	34841.21
477.46	34934.84
477.64	35250.81
477.82	35264.85
478.00	35318.68
478.18	34778.02
478.36	35077.61
478.54	34815.47
478.72	34906.75
478.90	35592.53
479.08	37022.59
479.26	36999.19
479.44	37291.76
479.62	36708.96
479.80	36954.72
479.98	37193.45
480.16	37584.32
480.34	37202.82
480.52	37647.52
480.70	37904.98
480.88	37972.85
481.06	38529.90
481.24	38635.22
481.41	39742.30
481.59	39948.26
481.77	39803.15
481.95	39014.39
482.13	38855.23
482.31	38990.98
482.49	39662.72
482.67	39309.30
482.85	39810.17
483.03	40271.26
483.21	41029.59
483.39	40926.61
483.57	40123.80
483.74	40442.12
483.92	40435.10
484.10	40552.12
484.28	41698.98
484.46	41528.13
484.64	42183.48
484.82	40989.80
485.00	40453.82
485.18	39512.92
485.35	38476.07
485.53	35541.03
485.71	32690.26
485.89	32650.47
486.07	34167.14
486.25	36795.56
486.43	39187.59
486.61	39835.92
486.78	39318.66
486.96	39871.03
487.14	41081.08
487.32	42359.02
487.50	43613.54
487.68	44289.96
487.85	45001.48
488.03	44865.73
488.21	44493.58
488.39	43660.35
488.57	42618.81
488.75	42555.62
488.92	44205.70
489.10	46759.22
489.28	47971.62
489.46	48744.00
489.64	48395.26
489.81	48664.42
489.99	48451.43
490.17	48395.26
490.35	48655.06
490.53	48299.30
490.70	47992.68
490.88	47920.13
491.06	48882.09
491.24	48652.72
491.41	47161.79
491.59	45172.34
491.77	44872.75
491.95	46216.22
492.13	47536.28
492.30	48917.20
492.48	50035.97
492.66	50492.38
492.84	50703.03
493.01	50623.45
493.19	49378.28
493.37	49230.83
493.54	48947.62
493.72	50068.74
493.90	50834.10
494.08	51711.80
494.25	52151.82
494.43	52172.88
494.61	52736.95
494.79	52868.02
494.96	52559.07
495.14	52069.90
495.32	50525.14
495.49	50103.85
495.67	51316.25
495.85	52921.85
496.02	53567.84
496.20	53399.32
496.38	52416.30
496.55	52198.63
496.73	53251.87
496.91	53148.88
497.09	53860.41
497.26	53996.16
497.44	53347.83
497.62	53116.12
497.79	51840.53
497.97	50391.73
498.14	50974.53
498.32	52212.67
498.50	53059.94
498.67	53794.87
498.85	53684.87
499.03	53701.25
499.20	54049.99
499.38	54021.90
499.56	53867.43
499.73	53076.33
499.91	52933.56
500.08	52317.99
500.26	51505.83
500.44	52163.52
500.61	53015.47
500.79	52851.64
500.97	51987.98
501.14	51931.81
501.32	51840.53
501.49	51922.44
501.67	52348.42
501.84	52942.92
502.02	53109.10
502.20	53399.32
502.37	53715.29
502.55	53942.33
502.72	54611.72
502.90	54791.94
503.07	54387.03
503.25	54087.44
503.43	52949.94
503.60	52032.45
503.78	51519.87
503.95	52203.31
504.13	53869.77
504.30	54721.72
504.48	54342.56
504.65	53923.60
504.83	54206.81
505.01	54468.95
505.18	55030.68
505.36	55636.87
505.53	55636.87
505.71	56095.62
505.88	55943.48
506.06	55171.11
506.23	54885.56
506.41	54590.66
506.58	54904.29
506.76	54735.77
506.93	54719.38
507.11	54424.48
507.28	54632.78
507.46	53862.75
507.63	53509.33
507.81	53392.30
507.98	53815.94
508.16	54363.62
508.33	55040.04
508.50	55292.82
508.68	55702.41
508.85	56090.94
509.03	56011.36
509.20	55828.80
509.38	55138.34
509.55	54298.09
509.73	54670.23
509.90	55021.31
510.08	55351.33
510.25	55267.07
510.42	55164.09
510.60	54873.86
510.77	55356.01
510.95	56046.47
511.12	56175.20
511.30	56458.40
511.47	56708.84
511.64	56425.64
511.82	56299.25
511.99	55238.98
512.17	55056.42
512.34	54967.48
512.51	55091.53
512.69	54822.37
512.86	55009.61
513.04	55526.87
513.21	55409.84
513.38	55224.94
513.56	54754.49
513.73	53951.69
513.90	53907.22
514.08	54457.24
514.25	54660.87
514.43	54749.81
514.60	54672.57
514.77	55056.42
514.95	55143.02
515.12	55093.87
515.29	55166.43
515.47	55887.31
515.64	56030.08
515.81	55667.30
515.99	55089.19
516.16	53244.85
516.33	50232.58
516.51	49223.81
516.68	48093.33
516.85	47765.65
517.03	48392.92
517.20	51601.79
517.37	54410.43
517.54	55217.92
517.72	54686.62
517.89	51915.42
518.06	48926.56
518.24	49801.92
518.41	52418.64
518.58	53708.27
518.75	53769.13
518.93	54082.76
519.10	53991.48
519.27	54630.44
519.45	54600.02
519.62	55510.49
519.79	55992.64
519.96	55664.96
520.14	55037.70
520.31	54286.39
520.48	54141.27
520.65	54653.85
520.83	55664.96
521.00	55845.18
521.17	55810.07
521.34	55412.18
521.52	55604.11
521.69	56285.20
521.86	56577.77
522.03	56275.84
522.20	54754.49
522.38	54169.36
522.55	53998.50
522.72	54721.72
522.89	54887.90
523.07	54848.11
523.24	55393.46
523.41	56420.95
523.58	56420.95
523.75	56879.70
523.92	56851.61
524.10	56673.73
524.27	56736.93
524.44	56458.40
524.61	56243.07
524.78	56116.68
524.96	56046.47
525.13	56147.11
525.30	56395.21
525.47	56931.19
525.64	56509.89
525.81	55807.73
525.98	54499.37
526.16	52786.10
526.33	52135.43
526.50	51655.62
526.67	51639.24
526.84	52112.03
527.01	53289.32
527.18	54298.09
527.36	55194.51
527.53	55992.64
527.70	56540.32
527.87	55435.59
528.04	55316.22
528.21	55929.44
528.38	56589.47
528.55	57064.60
528.72	57242.48
528.89	57345.47
529.07	57073.96
529.24	56516.92
529.41	55702.41
529.58	55416.86
529.75	55384.10
529.92	56044.13
530.09	56395.21
530.26	56912.47
530.43	56996.73
530.60	57190.99
530.77	57504.62
530.94	57432.07
531.11	56697.14
531.28	56633.94
531.46	56252.44
531.63	56676.07
531.80	56409.25
531.97	55800.71
532.14	54733.43
532.31	53792.53
532.48	53153.57
532.65	53628.69
532.82	54635.13
532.99	55650.92
533.16	55833.48
533.33	56591.81
533.50	56107.32
533.67	55838.16
533.84	55260.05
534.01	55489.42
534.18	55512.83
534.35	55915.40
534.52	55547.93
534.69	55793.69
534.86	56076.90
535.03	56835.23
535.20	57151.20
535.37	57329.08
535.54	57495.26
535.71	56966.30
535.88	56701.82
536.05	55936.46
536.22	55664.96
536.38	55292.82
536.55	55056.42
536.72	54422.14
536.89	54417.46
537.06	55297.50
537.23	56133.07
537.40	56257.12
537.57	56114.34
537.74	56060.51
537.91	56004.34
538.08	56032.42
538.25	56074.55
538.42	56395.21
538.59	56030.08
538.75	55346.65
538.92	55152.38
539.09	55025.99
539.26	54745.13
539.43	54660.87
539.60	54773.22
539.77	54827.05
539.94	54562.57
540.11	53932.96
540.28	53258.89
540.44	53352.51
540.61	53612.31
540.78	54007.86
540.95	54562.57
541.12	54852.80
541.29	55348.99
541.46	55545.59
541.62	55498.78
541.79	55199.19
541.96	54461.93
542.13	54588.31
542.30	55196.85
542.47	55100.89
542.63	55222.60
542.80	54829.39
542.97	54670.23
543.14	54588.31
543.31	54710.02
543.48	55269.41
543.64	56278.18
543.81	56484.15
543.98	55936.46
544.15	55423.89
544.32	54894.92
544.48	54953.44
544.65	55573.68
544.82	55941.14
544.99	55262.39
545.16	55112.59
545.32	54967.48
545.49	56030.08
545.66	56112.00
545.83	55604.11
546.00	55215.58
546.16	55117.28
546.33	55201.53
546.50	55143.02
546.67	55540.91
546.83	55030.68
547.00	55040.04
547.17	54234.89
547.34	53523.37
547.50	53528.05
547.67	54171.70
547.84	54279.36
548.00	55096.21
548.17	55187.49
548.34	55093.87
548.51	55061.10
548.67	54958.12
548.84	54981.52
549.01	55119.62
549.18	54960.46
549.34	54976.84
549.51	54930.03
549.68	54817.69
549.84	54543.84
550.01	54478.31
550.18	54361.28
550.34	54578.95
550.51	54578.95
550.68	54632.78
550.84	54124.89
551.01	54178.72
551.18	54054.67
551.34	54440.86
551.51	54707.68
551.68	55061.10
551.84	55306.86
552.01	54827.05
552.18	54780.24
552.34	53668.48
552.51	53652.10
552.68	53509.33
552.84	53818.28
553.01	54052.33
553.18	54328.52
553.34	53895.52
553.51	54237.23
553.67	54691.30
553.84	54997.91
554.01	54621.08
554.17	54536.82
554.34	54309.79
554.51	54880.88
554.67	55061.10
554.84	54663.21
555.00	54515.76
555.17	54255.96
555.33	53975.09
555.50	54141.27
555.67	54178.72
555.83	54035.95
556.00	53539.75
556.16	53656.78
556.33	53254.21
556.50	53169.95
556.66	53174.63
556.83	52507.58
556.99	52718.23
557.16	53261.23
557.32	53553.80
557.49	53752.74
557.65	53460.18
557.82	53605.29
557.98	53532.73
558.15	52713.55
558.32	52041.81
558.48	51178.15
558.65	51545.62
558.81	51695.41
558.98	52006.70
559.14	52296.93
559.31	52137.77
559.47	52392.89
559.64	52116.71
559.80	51664.99
559.97	51828.82
560.13	52404.59
560.30	53308.04
560.46	53755.08
560.63	54026.59
560.79	53982.12
560.96	53535.07
561.12	51978.62
561.29	51590.09
561.45	51388.80
561.61	51943.51
561.78	52626.95
561.94	52442.04
562.11	52540.35
562.27	52090.96
562.44	52219.69
562.60	52769.72
562.77	53015.47
562.93	53172.29
563.10	52956.96
563.26	52215.01
563.42	52493.54
563.59	52023.09
563.75	52341.40
563.92	52158.84
564.08	52027.77
564.24	52463.11
564.41	52456.09
564.57	52336.72
564.74	52161.18
564.90	51842.87
565.07	51695.41
565.23	51313.90
565.39	50756.86
565.56	50330.88
565.72	50213.85
565.88	50707.71
566.05	50731.11
566.21	51229.65
566.38	51311.56
566.54	51449.66
566.70	51723.50
566.87	51910.74
567.03	51873.29
567.19	51985.64
567.36	51840.53
567.52	51723.50
567.68	51407.53
567.85	50887.93
568.01	50431.52
568.17	49907.24
568.34	49818.30
568.50	49851.07
568.66	50277.05
568.83	50450.25
568.99	50490.04
569.15	50782.60
569.32	50841.12
569.48	50410.46
569.64	50223.22
569.81	50117.89
569.97	49504.67
570.13	49787.88
570.30	48837.62
570.46	48437.39
570.62	47831.19
570.78	47817.14
570.95	48217.38
571.11	49106.78
571.27	49279.98
571.43	49720.00
571.60	50066.40
571.76	50389.39
571.92	50375.35
572.09	50667.92
572.25	50674.94
572.41	50672.60
572.57	50602.38
572.74	50492.38
572.90	49947.03
573.06	49853.41
573.22	49712.98
573.38	49769.15
573.55	49944.69
573.71	50307.47
573.87	50136.62
574.03	49441.48
574.20	49464.88
574.36	49272.96
574.52	48966.35
574.68	48905.49
574.84	48261.85
575.01	47943.53
575.17	47992.68
575.33	48804.85
575.49	48694.85
575.65	48971.03
575.82	48069.92
575.98	48381.21
576.14	48624.63
576.30	48797.83
576.46	48914.86
576.62	49024.86
576.79	48755.70
576.95	48378.87
577.11	48313.34
577.27	48968.69
577.43	48371.85
577.59	48238.44
577.75	47608.84
577.92	47295.21
578.08	46885.61
578.24	46717.09
578.40	47437.98
578.56	47487.13
578.72	47690.76
578.88	47793.74
579.04	47758.63
579.21	48208.01
579.37	48002.05
579.53	48669.10
579.69	48189.29
579.85	48198.65
580.01	48058.22
580.17	47782.04
580.33	47299.89
580.49	47634.58
580.65	48158.86
580.82	48065.24
580.98	48079.28
581.14	47852.25
581.30	48238.44
581.46	47945.87
581.62	47756.29
581.78	48072.26
581.94	48261.85
582.10	48425.68
582.26	48512.28
582.42	48451.43
582.58	48633.99
582.74	48193.97
582.90	48542.71
583.06	48186.95
583.22	47957.58
583.38	48147.16
583.54	47702.46
583.70	47845.23
583.86	47852.25
584.02	47711.82
584.18	47739.91
584.34	47800.76
584.50	47746.93
584.66	47276.48
584.82	47384.15
584.98	46969.87
585.14	46258.35
585.30	45308.09
