SpectraSuite Data File
++++++++++++++++++++++++++++++++++++
Date: Mon Oct 07 14:53:07 GMT-05:00 2013
User: price-jones
Dark Spectrum Present: No
Reference Spectrum Present: No
Number of Sampled Component Spectra: 1
Spectrometers: USB2+H05261
Integration Time (usec): 100000 (USB2+H05261)
Spectra Averaged: 1 (USB2+H05261)
Boxcar Smoothing: 0 (USB2+H05261)
Correct for Electrical Dark: No (USB2+H05261)
Strobe/Lamp Enabled: No (USB2+H05261)
Correct for Detector Non-linearity: No (USB2+H05261)
Correct for Stray Light: No (USB2+H05261)
Number of Pixels in Processed Spectrum: 2048
>>>>>Begin Processed Spectral Data<<<<<
365.73	0.00
365.92	0.00
366.12	0.00
366.32	0.00
366.52	0.00
366.72	0.00
366.91	0.00
367.11	0.00
367.31	0.00
367.51	0.00
367.70	0.00
367.90	0.00
368.10	0.00
368.30	0.00
368.49	0.00
368.69	0.00
368.89	0.00
369.09	0.00
369.28	0.00
369.48	0.00
369.68	0.00
369.87	0.00
370.07	0.00
370.27	0.00
370.47	711.52
370.66	3059.08
370.86	3707.41
371.06	4166.15
371.25	4168.49
371.45	3864.22
371.65	3290.79
371.84	3075.46
372.04	3262.71
372.24	3595.06
372.44	3805.71
372.63	3730.81
372.83	3616.13
373.03	3141.00
373.22	2923.33
373.42	2986.52
373.62	3562.30
373.81	3700.39
374.01	3770.60
374.21	3449.95
374.40	3012.27
374.60	3220.58
374.79	3662.94
374.99	4423.61
375.19	4589.79
375.38	4711.50
375.58	4353.40
375.78	4170.83
375.97	4294.88
376.17	4521.92
376.37	4449.36
376.56	4704.48
376.76	4877.68
376.95	5078.96
377.15	5626.65
377.35	5750.70
377.54	5980.07
377.74	6176.67
377.93	6223.48
378.13	5937.94
378.33	5713.25
378.52	5217.05
378.72	5008.75
378.91	4943.21
379.11	4865.97
379.31	4702.14
379.50	4718.52
379.70	5100.03
379.89	5624.31
380.09	5973.05
380.28	6106.46
380.48	6176.67
380.68	5923.90
380.87	5844.32
381.07	5275.57
381.26	5057.90
381.46	4688.09
381.65	4491.49
381.85	4376.80
382.04	4166.15
382.24	3875.93
382.43	3637.19
382.63	3471.01
382.83	3620.81
383.02	3627.83
383.22	3756.56
383.41	3691.02
383.61	4009.34
383.80	4491.49
384.00	5095.35
384.19	5575.16
384.39	5940.28
384.58	6029.22
384.78	5839.64
384.97	5870.06
385.17	5575.16
385.36	5270.89
385.56	5195.99
385.75	5231.10
385.95	5818.57
386.14	6092.41
386.34	6228.17
386.53	5790.49
386.72	5610.26
386.92	5678.14
387.11	5888.79
387.31	6169.65
387.50	6282.00
387.70	5746.02
387.89	5909.85
388.09	5837.30
388.28	6073.69
388.48	6127.52
388.67	6548.82
388.86	7215.87
389.06	7435.88
389.25	7985.91
389.45	7896.97
389.64	7934.42
389.84	7864.20
390.03	7789.30
390.22	7648.87
390.42	8098.25
390.61	8582.74
390.81	9179.58
391.00	9404.27
391.19	9432.36
391.39	8891.70
391.58	8552.32
391.78	7756.54
391.97	7595.04
392.16	7152.68
392.36	6544.14
392.55	5350.46
392.75	4074.87
392.94	3269.73
393.13	3321.22
393.33	4081.89
393.52	5093.01
393.71	6406.05
393.91	7089.48
394.10	7723.77
394.29	8507.85
394.49	9015.74
394.68	9856.00
394.88	9764.72
395.07	10059.62
395.26	9989.41
395.46	9685.14
395.65	9114.05
395.84	7978.89
396.04	6796.92
396.23	5582.18
396.42	4634.26
396.62	4355.74
396.81	5144.50
397.00	6649.46
397.19	8255.07
397.39	10008.13
397.58	11335.21
397.77	11971.84
397.97	12013.97
398.16	12315.90
398.35	12737.20
398.55	13125.72
398.74	13626.60
398.93	13998.74
399.12	13750.65
399.32	13249.77
399.51	13631.28
399.70	14700.90
399.90	14284.29
400.09	14511.32
400.28	14214.07
400.47	14391.95
400.67	14965.39
400.86	15520.09
401.05	15293.06
401.24	15489.67
401.44	15583.29
401.63	15723.72
401.82	15740.10
402.01	16023.31
402.21	16250.34
402.40	15974.16
402.59	15648.82
402.78	14986.45
402.97	14349.82
403.17	15225.18
403.36	15978.84
403.55	16678.66
403.74	16926.75
403.93	16023.31
404.13	14841.34
404.32	14698.56
404.51	15393.70
404.70	16498.44
404.89	16320.56
405.09	16011.60
405.28	15681.59
405.47	15751.81
405.66	15906.28
405.85	15075.39
406.05	14813.25
406.24	15173.69
406.43	15716.70
406.62	16140.33
406.81	16269.06
407.00	15747.12
407.20	15391.36
407.39	15550.52
407.58	16170.76
407.77	16954.84
407.96	17563.38
408.15	17640.62
408.34	17947.23
408.54	18555.77
408.73	18672.79
408.92	18307.67
409.11	17769.35
409.30	16912.71
409.49	15976.50
409.68	15098.80
409.87	14668.14
410.07	15339.87
410.26	16608.44
410.45	17813.82
410.64	18202.35
410.83	18712.58
411.02	19234.52
411.21	19861.79
411.40	19449.85
411.59	19768.16
411.78	19580.92
411.98	19098.77
412.17	19569.22
412.36	19384.32
412.55	19278.99
412.74	18916.21
412.93	18405.97
413.12	18750.03
413.31	20610.76
413.50	20760.55
413.69	20858.85
413.88	20091.16
414.07	19473.26
414.26	19796.25
414.45	20627.14
414.64	20704.38
414.83	20767.57
415.02	20390.75
415.22	20425.86
415.41	20933.75
415.60	21198.23
415.79	22251.47
415.98	22735.96
416.17	22986.40
416.36	22178.92
416.55	22101.68
416.74	21036.74
416.93	20493.73
417.12	20641.18
417.31	20952.48
417.50	21048.44
417.69	21982.31
417.88	21933.16
418.07	21944.86
418.26	21247.38
418.45	21509.52
418.64	22359.14
418.83	23143.22
419.02	22541.70
419.21	22237.43
419.39	21331.64
419.58	20657.57
419.77	20685.65
419.96	21654.64
420.15	22925.55
420.34	23295.35
420.53	24095.82
420.72	24428.17
420.91	24353.27
421.10	24041.98
421.29	23931.98
421.48	22766.39
421.67	24395.40
421.86	23452.17
422.05	21790.39
422.24	19676.88
422.43	19854.76
422.61	21954.22
422.80	23454.51
422.99	23445.15
423.18	22923.21
423.37	22361.48
423.56	22239.77
423.75	22263.18
423.94	22937.25
424.13	21741.24
424.32	21652.30
424.50	21881.67
424.69	21876.99
424.88	21926.14
425.07	21696.77
425.26	21771.66
425.45	21460.37
425.64	21184.19
425.83	21132.70
426.01	22583.83
426.20	22972.36
426.39	22654.05
426.58	21282.49
426.77	19288.35
426.96	18822.59
427.15	19852.42
427.33	21174.83
427.52	21926.14
427.71	22253.81
427.90	21631.23
428.09	21759.96
428.28	21530.59
428.46	20563.95
428.65	20355.64
428.84	20889.28
429.03	21207.59
429.22	20002.22
429.40	18710.24
429.59	17216.98
429.78	15183.06
429.97	15414.77
430.16	15503.71
430.34	15618.39
430.53	15538.82
430.72	16058.42
430.91	17439.33
431.10	20905.66
431.28	24278.38
431.47	26185.91
431.66	26338.05
431.85	23857.08
432.03	21788.05
432.22	21394.84
432.41	22445.74
432.60	24566.26
432.79	25745.89
432.97	26040.80
433.16	25460.35
433.35	23290.67
433.54	20996.95
433.72	19814.98
433.91	20355.64
434.10	22651.70
434.28	24470.30
434.47	25818.45
434.66	25158.42
434.85	24421.15
435.03	24636.48
435.22	25015.65
435.41	26616.57
435.59	26785.09
435.78	26857.65
435.97	27791.52
436.16	27765.78
436.34	27463.85
436.53	26845.94
436.72	27122.13
436.90	25369.07
437.09	25563.33
437.28	24786.27
437.46	26295.92
437.65	25652.27
437.84	24013.90
438.02	21937.84
438.21	22167.21
438.40	23531.75
438.58	25078.84
438.77	25874.62
438.96	25935.48
439.14	27236.81
439.33	27962.38
439.52	28271.33
439.70	27821.95
439.89	26817.86
440.08	26251.45
440.26	26279.54
440.45	26803.82
440.63	29291.80
440.82	30518.25
441.01	29841.83
441.19	29284.78
441.38	30274.83
441.57	31421.69
441.75	31630.00
441.94	32102.79
442.12	31899.16
442.31	32322.80
442.50	31854.69
442.68	31580.85
442.87	31360.84
443.05	31070.61
443.24	31950.65
443.43	32360.25
443.61	32636.43
443.80	33181.77
443.98	31349.14
444.17	31468.50
444.35	32737.07
444.54	34012.66
444.73	33174.75
444.91	31850.01
445.10	30206.95
445.28	29252.02
445.47	28898.59
445.65	29434.58
445.84	29722.46
446.02	31314.03
446.21	31061.25
446.39	31604.25
446.58	31995.12
446.77	32481.95
446.95	32598.98
447.14	33340.93
447.32	33921.38
447.51	33167.73
447.69	31807.88
447.88	31639.36
448.06	32320.46
448.25	32807.29
448.43	33085.81
448.62	32528.77
448.80	32306.41
448.99	32575.58
449.17	32924.32
449.36	32840.06
449.54	34323.96
449.73	34424.60
449.91	35110.38
450.10	35824.24
450.28	36142.55
450.46	36266.60
450.65	36158.94
450.83	36077.02
451.02	34677.38
451.20	35007.39
451.39	35185.27
451.57	34719.51
451.76	34696.10
451.94	34359.06
452.13	34333.32
452.31	32390.67
452.49	31164.23
452.68	31077.63
452.86	31220.41
453.05	32016.19
453.23	32877.51
453.42	33163.05
453.60	34192.89
453.78	34436.30
453.97	34436.30
454.15	34696.10
454.34	33273.06
454.52	33525.83
454.70	33462.64
454.89	33675.63
455.07	33937.77
455.26	34412.90
455.44	35503.59
455.62	35653.38
455.81	36044.25
455.99	35894.46
456.17	35709.55
456.36	35775.09
456.54	36994.51
456.73	36603.64
456.91	37254.31
457.09	37432.19
457.28	38043.07
457.46	36474.91
457.64	36367.24
457.83	35306.98
458.01	34740.57
458.19	35526.99
458.38	35819.56
458.56	36643.43
458.74	36215.11
458.93	35651.04
459.11	36147.23
459.29	35353.79
459.48	36142.55
459.66	35658.06
459.84	36009.14
460.03	36582.57
460.21	36825.99
460.39	37893.27
460.57	37560.92
460.76	37670.92
460.94	38171.80
461.12	37193.45
461.31	37464.96
461.49	37518.79
461.67	37408.78
461.85	38565.01
462.04	38223.29
462.22	38766.29
462.40	38492.45
462.59	37874.55
462.77	38380.10
462.95	38675.01
463.13	37961.15
463.32	37874.55
463.50	37495.38
463.68	37591.34
463.86	37687.31
464.05	36776.84
464.23	36348.52
464.41	36720.66
464.59	35955.31
464.78	37371.33
464.96	37317.50
465.14	36533.42
465.32	37488.36
465.50	38885.66
465.69	39061.20
465.87	38719.48
466.05	37221.54
466.23	35597.21
466.41	34852.92
466.60	35789.13
466.78	35978.72
466.96	36439.80
467.14	36999.19
467.32	37516.45
467.51	37745.82
467.69	36109.78
467.87	36713.64
468.05	37429.85
468.23	37453.25
468.41	37368.99
468.60	37088.13
468.78	37694.33
468.96	37226.22
469.14	38462.02
469.32	38375.42
469.50	36723.01
469.69	36603.64
469.87	36041.91
470.05	35803.17
470.23	36395.33
470.41	36210.43
470.59	36671.51
470.77	37146.64
470.95	38038.39
471.14	38141.37
471.32	38560.33
471.50	40336.79
471.68	40612.98
471.86	40781.49
472.04	40552.12
472.22	40877.46
472.40	38958.22
472.58	38747.57
472.77	38782.68
472.95	39304.62
473.13	40238.49
473.31	39091.63
473.49	39484.84
473.67	40306.37
473.85	40519.35
474.03	41684.94
474.21	41448.55
474.39	42192.84
474.57	41862.82
474.75	42485.40
474.93	41640.47
475.12	40657.45
475.30	40982.78
475.48	41202.79
475.66	41661.54
475.84	41303.43
476.02	40851.71
476.20	40217.43
476.38	41261.30
476.56	42270.08
476.74	42508.81
476.92	43023.73
477.10	43342.04
477.28	44734.66
477.46	44868.07
477.64	45123.19
477.82	45333.84
478.00	45216.81
478.18	44725.30
478.36	44502.95
478.54	44835.30
478.72	44774.45
478.90	45769.18
479.08	46665.60
479.26	47407.55
479.44	47529.26
479.62	46930.08
479.80	47154.77
479.98	47430.96
480.16	47618.20
480.34	46855.18
480.52	47676.71
480.70	47749.27
480.88	47601.82
481.06	48769.74
481.24	48575.48
481.41	49364.24
481.59	50375.35
481.77	49991.50
481.95	49319.77
482.13	49272.96
482.31	49422.75
482.49	50017.25
482.67	49638.08
482.85	49916.61
483.03	50380.03
483.21	51168.79
483.39	51075.17
483.57	50270.03
483.74	50068.74
483.92	50300.45
484.10	50696.00
484.28	51533.92
484.46	51767.97
484.64	51910.74
484.82	51400.50
485.00	50611.74
485.18	50096.83
485.35	49092.74
485.53	45764.49
485.71	42356.67
485.89	41900.27
486.07	43519.92
486.25	47391.17
486.43	49326.79
486.61	49888.52
486.78	50094.49
486.96	49911.92
487.14	51615.83
487.32	52154.16
487.50	53034.20
487.68	53998.50
487.85	54356.60
488.03	54251.28
488.21	53984.46
488.39	53429.75
488.57	52533.32
488.75	52493.54
488.92	53614.65
489.10	55398.14
489.28	56488.83
489.46	57212.06
489.64	56825.87
489.81	57141.84
489.99	56713.52
490.17	56809.48
490.35	57006.09
490.53	56624.58
490.70	56320.31
490.88	56226.69
491.06	57153.54
491.24	57029.49
491.41	56233.71
491.59	54616.40
491.77	53937.65
491.95	55215.58
492.13	56137.75
492.30	57064.60
492.48	58040.60
492.66	58342.53
492.84	58319.13
493.01	58176.36
493.19	57614.63
493.37	57275.25
493.54	57167.58
493.72	57750.38
493.90	58450.20
494.08	59325.56
494.25	59533.87
494.43	59583.02
494.61	59819.41
494.79	60037.08
494.96	59997.29
495.14	59374.71
495.32	58604.67
495.49	58038.26
495.67	59271.73
495.85	60097.94
496.02	60427.95
496.20	60308.58
496.38	59737.49
496.55	59810.05
496.73	60317.95
496.91	60317.95
497.09	60963.93
497.26	60945.21
497.44	60463.06
497.62	60154.11
497.79	59306.83
497.97	58248.91
498.14	58501.69
498.32	59370.03
498.50	60191.56
498.67	60563.70
498.85	60640.94
499.03	60896.06
499.20	61127.77
499.38	60886.70
499.56	60994.36
499.73	60671.37
499.91	60032.40
500.08	59611.10
500.26	58913.62
500.44	59540.89
500.61	60317.95
500.79	59962.18
500.97	59683.66
501.14	59559.61
501.32	59220.23
501.49	59388.75
501.67	59753.88
501.84	60011.34
502.02	60170.49
502.20	60640.94
502.37	60605.83
502.55	60715.84
502.72	61244.80
502.90	61525.66
503.07	61230.75
503.25	60994.36
503.43	60245.39
503.60	59480.03
503.78	59072.78
503.95	59643.87
504.13	60846.91
504.30	61446.08
504.48	61307.99
504.65	60893.72
504.83	61008.40
505.01	61462.47
505.18	61949.30
505.36	62375.28
505.53	62553.16
505.71	62644.44
505.88	62630.40
506.06	62124.84
506.23	62052.28
506.41	61462.47
506.58	61612.26
506.76	61661.41
506.93	61724.61
507.11	61483.53
507.28	61551.41
507.46	61214.37
507.63	60699.45
507.81	60640.94
507.98	60701.79
508.16	61275.22
508.33	61677.80
508.50	62021.86
508.68	62504.01
508.85	62899.56
509.03	62834.02
509.20	62679.55
509.38	62021.86
509.55	61347.78
509.73	61638.01
509.90	61921.21
510.08	62110.80
510.25	62101.43
510.42	61935.26
510.60	61762.06
510.77	62106.12
510.95	62625.71
511.12	62745.08
511.30	63061.05
511.47	63229.57
511.64	63147.65
511.82	62803.59
511.99	62291.02
512.17	61755.03
512.34	61478.85
512.51	61724.61
512.69	61808.87
512.86	62005.47
513.04	62169.31
513.21	62274.63
513.38	61865.04
513.56	61326.72
513.73	61059.90
513.90	61202.67
514.08	61244.80
514.25	61689.50
514.43	61785.46
514.60	61851.00
514.77	61829.93
514.95	62035.90
515.12	61893.13
515.29	62255.91
515.47	62447.83
515.64	62735.72
515.81	62480.60
515.99	61911.85
516.16	60643.28
516.33	58457.22
516.51	57326.74
516.68	56729.90
516.85	56521.60
517.03	56835.23
517.20	59119.59
517.37	61188.63
517.54	62124.84
517.72	61621.62
517.89	59278.75
518.06	57471.85
518.24	57879.11
518.41	59810.05
518.58	60867.97
518.75	61006.06
518.93	60928.83
519.10	60989.68
519.27	61305.65
519.45	61773.76
519.62	62410.38
519.79	62679.55
519.96	62398.68
520.14	62003.13
520.31	61303.31
520.48	61181.60
520.65	61689.50
520.83	62501.67
521.00	62653.80
521.17	62588.27
521.34	62089.73
521.52	62635.08
521.69	62871.47
521.86	63192.12
522.03	62897.22
522.20	61780.78
522.38	61155.86
522.55	61073.94
522.72	61577.15
522.89	61542.05
523.07	61944.62
523.24	62241.87
523.41	62979.14
523.58	63327.87
523.75	63615.76
523.92	63367.66
524.10	63409.79
524.27	63330.22
524.44	63189.78
524.61	63065.73
524.78	62883.17
524.96	62976.79
525.13	62864.45
525.30	62885.51
525.47	63526.82
525.64	63461.29
525.81	62773.17
525.98	61420.34
526.16	60221.98
526.33	59690.68
526.50	59414.50
526.67	59138.32
526.84	59643.87
527.01	60680.73
527.18	61375.87
527.36	62216.12
527.53	62948.71
527.70	62901.90
527.87	62461.88
528.04	62101.43
528.21	62616.35
528.38	63117.23
528.55	63646.19
528.72	63908.33
528.89	64020.67
529.07	63707.04
529.24	63093.82
529.41	62639.76
529.58	62159.95
529.75	62295.70
529.92	62705.29
530.09	63112.55
530.26	63561.93
530.43	63601.72
530.60	63578.31
530.77	64015.99
530.94	63838.11
531.11	63538.52
531.28	63288.09
531.46	63208.51
531.63	63210.85
531.80	63030.63
531.97	62702.95
532.14	62010.15
532.31	61066.92
532.48	60713.50
532.65	60690.09
532.82	61410.98
532.99	62438.47
533.16	62789.55
533.33	63407.45
533.50	63117.23
533.67	62508.69
533.84	62319.10
534.01	62536.77
534.18	62574.22
534.35	62646.78
534.52	62574.22
534.69	62705.29
534.86	62990.84
535.03	63372.34
535.20	63737.47
535.37	64023.01
535.54	63913.01
535.71	63758.53
535.88	63416.82
536.05	62876.15
536.22	62653.80
536.38	62195.06
536.55	61811.21
536.72	61420.34
536.89	61233.10
537.06	62159.95
537.23	62876.15
537.40	62995.52
537.57	63096.16
537.74	62841.04
537.91	62752.10
538.08	62658.48
538.25	62684.23
538.42	63107.86
538.59	62784.87
538.75	62265.27
538.92	62092.07
539.09	61890.79
539.26	61813.55
539.43	61511.62
539.60	61748.01
539.77	61879.08
539.94	61682.48
540.11	61041.17
540.28	60540.30
540.44	60739.24
540.61	60928.83
540.78	61083.30
540.95	61509.28
541.12	61914.19
541.29	62078.03
541.46	62265.27
541.62	62611.67
541.79	62092.07
541.96	61652.05
542.13	61726.95
542.30	61993.77
542.47	61989.09
542.63	61935.26
542.80	61696.52
542.97	61949.30
543.14	61684.82
543.31	61804.19
543.48	62141.22
543.64	63007.22
543.81	63196.80
543.98	63000.20
544.15	62213.78
544.32	62056.96
544.48	62078.03
544.65	62506.35
544.82	62621.03
544.99	62379.96
545.16	61993.77
545.32	61818.23
545.49	62684.23
545.66	62848.06
545.83	62403.36
546.00	62078.03
546.16	61860.36
546.33	61946.96
546.50	61975.05
546.67	62426.77
546.83	62078.03
547.00	62131.86
547.17	61289.27
547.34	61153.52
547.50	60874.99
547.67	61249.48
547.84	61427.36
548.00	61731.63
548.17	62134.20
548.34	61939.94
548.51	62092.07
548.67	62108.46
548.84	62148.24
549.01	62113.14
549.18	61762.06
549.34	61895.47
549.51	61818.23
549.68	61808.87
549.84	61684.82
550.01	61553.75
550.18	61375.87
550.34	61492.89
550.51	61680.14
550.68	61586.52
550.84	61516.30
551.01	61331.40
551.18	61240.12
551.34	61516.30
551.51	62035.90
551.68	62040.58
551.84	62010.15
552.01	61890.79
552.18	61806.53
552.34	60940.53
552.51	60640.94
552.68	60741.58
552.84	61291.61
553.01	61300.97
553.18	61172.24
553.34	61418.00
553.51	61638.01
553.67	61710.56
553.84	61949.30
554.01	61628.65
554.17	61572.47
554.34	61694.18
554.51	61890.79
554.67	62178.67
554.84	61893.13
555.00	61663.75
555.17	61368.85
555.33	61495.24
555.50	61406.30
555.67	61462.47
555.83	61293.95
556.00	60956.91
556.16	60917.12
556.33	60467.74
556.50	60683.07
556.66	60378.80
556.83	60280.50
556.99	60310.92
557.16	60481.78
557.32	60924.14
557.49	61069.26
557.65	60903.08
557.82	61080.96
557.98	60612.85
558.15	60245.39
558.32	59660.26
558.48	58951.07
558.65	59262.36
558.81	59620.47
558.98	59753.88
559.14	59898.99
559.31	59985.59
559.47	60090.91
559.64	59854.52
559.80	59351.30
559.97	59461.31
560.13	59847.50
560.30	60537.96
560.46	61052.87
560.63	61432.04
560.79	61378.21
560.96	61020.11
561.12	59838.14
561.29	59196.83
561.45	59358.33
561.61	59870.90
561.78	60327.31
561.94	59880.27
562.11	59831.11
562.27	59770.26
562.44	60189.22
562.60	60420.93
562.77	60472.42
562.93	60383.48
563.10	60247.73
563.26	60034.74
563.42	59973.89
563.59	59725.79
563.75	59814.73
563.92	59770.26
564.08	59784.30
564.24	59924.74
564.41	59707.07
564.57	59873.24
564.74	59707.07
564.90	59763.24
565.07	59629.83
565.23	59135.98
565.39	58562.54
565.56	58513.39
565.72	58468.92
565.88	58738.08
566.05	58784.90
566.21	59042.35
566.38	59213.21
566.54	59075.12
566.70	59540.89
566.87	59732.81
567.03	59657.91
567.19	60095.60
567.36	59716.43
567.52	59515.14
567.68	59400.46
567.85	58908.94
568.01	58431.47
568.17	58178.70
568.34	58272.32
568.50	58080.39
568.66	58129.54
568.83	58279.34
568.99	58719.36
569.15	58871.49
569.32	58841.07
569.48	58492.33
569.64	58314.45
569.81	58162.31
569.97	57972.73
570.13	58042.95
570.30	57609.95
570.46	57499.94
570.62	56809.48
570.78	56631.60
570.95	57036.51
571.11	57703.57
571.27	57759.74
571.43	58026.56
571.60	58181.04
571.76	58494.67
571.92	58607.01
572.09	58728.72
572.25	58607.01
572.41	58660.85
572.57	58639.78
572.74	58489.99
572.90	58059.33
573.06	58349.56
573.22	58204.44
573.38	58354.24
573.55	58047.63
573.71	58468.92
573.87	58342.53
574.03	58155.29
574.20	58225.51
574.36	57844.00
574.52	57745.70
574.68	57474.20
574.84	57073.96
575.01	56853.95
575.17	56879.70
575.33	57111.41
575.49	57230.78
575.65	57425.04
575.82	57296.31
575.98	57055.24
576.14	57286.95
576.30	57553.77
576.46	57647.39
576.62	57595.90
576.79	57586.54
576.95	57478.88
577.11	57132.48
577.27	57165.24
577.43	57464.83
577.59	56830.55
577.75	56694.80
577.92	56009.02
578.08	55957.53
578.24	55985.61
578.40	56301.59
578.56	56430.32
578.72	56561.39
578.88	56807.14
579.04	56947.57
579.21	57008.43
579.37	56795.44
579.53	56961.62
579.69	56804.80
579.85	56963.96
580.01	56931.19
580.17	56545.00
580.33	56437.34
580.49	56549.68
580.65	57027.15
580.82	56910.13
580.98	56877.36
581.14	56994.39
581.30	56825.87
581.46	56755.65
581.62	57186.31
581.78	56966.30
581.94	57073.96
582.10	57111.41
582.26	57055.24
582.42	57198.01
582.58	57055.24
582.74	57069.28
582.90	57123.11
583.06	57263.55
583.22	56912.47
583.38	56928.85
583.54	56963.96
583.70	56858.63
583.86	56823.53
584.02	56605.86
584.18	56879.70
584.34	56622.24
584.50	56547.34
584.66	56364.78
584.82	56222.01
584.98	56126.05
585.14	55690.71
