SpectraSuite Data File
++++++++++++++++++++++++++++++++++++
Date: Mon Oct 07 14:55:01 GMT-05:00 2013
User: price-jones
Dark Spectrum Present: No
Reference Spectrum Present: No
Number of Sampled Component Spectra: 1
Spectrometers: USB2+H05261
Integration Time (usec): 10000 (USB2+H05261)
Spectra Averaged: 1 (USB2+H05261)
Boxcar Smoothing: 0 (USB2+H05261)
Correct for Electrical Dark: No (USB2+H05261)
Strobe/Lamp Enabled: No (USB2+H05261)
Correct for Detector Non-linearity: No (USB2+H05261)
Correct for Stray Light: No (USB2+H05261)
Number of Pixels in Processed Spectrum: 2048
>>>>>Begin Processed Spectral Data<<<<<
365.73	0.00
365.92	0.00
366.12	0.00
366.32	0.00
366.52	0.00
366.72	0.00
366.91	0.00
367.11	0.00
367.31	0.00
367.51	0.00
367.70	0.00
367.90	0.00
368.10	0.00
368.30	0.00
368.49	0.00
368.69	0.00
368.89	0.00
369.09	0.00
369.28	0.00
369.48	0.00
369.68	0.00
369.87	0.00
370.07	0.00
370.27	0.00
370.47	374.49
370.66	2305.43
370.86	2693.96
371.06	2853.11
371.25	2848.43
371.45	2637.78
371.65	2317.13
371.84	2279.68
372.04	2464.58
372.24	2588.63
372.44	2712.68
372.63	2518.42
372.83	2289.04
373.03	2136.91
373.22	2019.88
373.42	2157.97
373.62	2462.24
373.81	2649.49
374.01	2422.45
374.21	2324.15
374.40	2221.17
374.60	2401.39
374.79	2637.78
374.99	3159.72
375.19	3328.24
375.38	3162.06
375.58	3138.66
375.78	3068.44
375.97	2951.42
376.17	3253.34
376.37	3351.65
376.56	3440.59
376.76	3566.98
376.95	3782.31
377.15	3971.89
377.35	4126.36
377.54	4348.72
377.74	4411.91
377.93	4437.66
378.13	4210.62
378.33	4023.38
378.52	3726.13
378.72	3686.34
378.91	3602.08
379.11	3527.19
379.31	3215.90
379.50	3325.90
379.70	3721.45
379.89	4184.88
380.09	4154.45
380.28	4266.80
380.48	4287.86
380.68	4196.58
380.87	4095.94
381.07	3660.60
381.26	3536.55
381.46	3274.41
381.65	3122.27
381.85	2977.16
382.04	2691.62
382.24	2778.22
382.43	2747.79
382.63	2616.72
382.83	2583.95
383.02	2635.44
383.22	2511.39
383.41	2750.13
383.61	2740.77
383.80	3342.28
384.00	3896.99
384.19	4287.86
384.39	4369.78
384.58	4266.80
384.78	4238.71
384.97	4205.94
385.17	4011.68
385.36	3641.87
385.56	3599.74
385.75	3871.25
385.95	4320.63
386.14	4660.01
386.34	4566.39
386.53	4023.38
386.72	3889.97
386.92	4072.53
387.11	4339.35
387.31	4521.92
387.50	4344.03
387.70	4241.05
387.89	4191.90
388.09	4154.45
388.28	4217.65
388.48	4444.68
388.67	4727.88
388.86	5303.65
389.06	5771.76
389.25	5914.53
389.45	5994.11
389.64	5937.94
389.84	5647.71
390.03	5694.52
390.22	5825.59
390.42	6024.54
390.61	6424.77
390.81	6747.76
391.00	6888.20
391.19	6754.79
391.39	6590.95
391.58	6132.20
391.78	5736.65
391.97	5638.35
392.16	5214.71
392.36	4477.44
392.55	3641.87
392.75	2808.64
392.94	2354.58
393.13	2602.68
393.33	3183.13
393.52	3995.29
393.71	4692.77
393.91	5373.87
394.10	5879.43
394.29	6333.49
394.49	6993.52
394.68	7456.95
394.88	7311.83
395.07	7522.48
395.26	7344.60
395.46	7136.29
395.65	6677.55
395.84	5767.08
396.04	4643.62
396.23	3770.60
396.42	3332.92
396.62	3389.10
396.81	4224.67
397.00	5294.29
397.19	6548.82
397.39	7714.41
397.58	8629.56
397.77	8912.76
397.97	9067.24
398.16	9362.14
398.35	9647.69
398.55	9893.44
398.74	10300.70
398.93	10260.91
399.12	10232.82
399.32	9788.12
399.51	10150.90
399.70	10789.87
399.90	10583.90
400.09	10471.56
400.28	10513.69
400.47	10806.25
400.67	11372.66
400.86	11492.03
401.05	11393.73
401.24	11578.63
401.44	11672.25
401.63	11868.86
401.82	11822.05
402.01	11967.16
402.21	11915.67
402.40	12018.65
402.59	11726.08
402.78	11044.99
402.97	10778.17
403.17	11559.91
403.36	12369.73
403.55	12437.61
403.74	12791.03
403.93	11903.96
404.13	10799.23
404.32	10895.19
404.51	11662.89
404.70	12236.32
404.89	12156.74
405.09	12023.33
405.28	11681.61
405.47	11667.57
405.66	12023.33
405.85	11499.05
406.05	11218.19
406.24	11426.50
406.43	12032.69
406.62	12236.32
406.81	12121.63
407.00	11831.41
407.20	11683.95
407.39	11644.17
407.58	12156.74
407.77	12898.69
407.96	13345.73
408.15	13493.19
408.34	13708.52
408.54	13771.71
408.73	14040.87
408.92	13776.39
409.11	13205.30
409.30	12685.70
409.49	12046.74
409.68	11267.34
409.87	11044.99
410.07	12166.10
410.26	13032.10
410.45	13160.83
410.64	13642.98
410.83	14382.59
411.02	14565.15
411.21	15005.17
411.40	14764.10
411.59	15035.60
411.78	14888.15
411.98	14745.38
412.17	15150.29
412.36	14675.16
412.55	14593.24
412.74	14129.81
412.93	14115.77
413.12	14548.77
413.31	15939.05
413.50	15999.90
413.69	16042.03
413.88	15110.50
414.07	15138.58
414.26	15803.30
414.45	16086.50
414.64	15431.15
414.83	15672.23
415.02	15531.80
415.22	15559.88
415.41	16322.90
415.60	16652.91
415.79	16985.27
415.98	17490.82
416.17	17198.26
416.36	16688.02
416.55	16954.84
416.74	15653.50
416.93	15543.50
417.12	15765.85
417.31	15995.22
417.50	16549.93
417.69	17027.40
417.88	16561.63
418.07	16505.46
418.26	16376.73
418.45	16547.59
418.64	17469.76
418.83	17834.88
419.02	17343.37
419.21	16730.15
419.39	16182.46
419.58	15712.02
419.77	16161.40
419.96	16987.61
420.15	17565.72
420.34	18235.11
420.53	18525.34
420.72	18836.63
420.91	18424.70
421.10	18246.82
421.29	18249.16
421.48	18022.12
421.67	18696.20
421.86	17816.16
422.05	16397.79
422.24	14808.57
422.43	15751.81
422.61	17551.68
422.80	17965.95
422.99	17357.41
423.18	17130.38
423.37	17144.42
423.56	17001.65
423.75	17802.11
423.94	17848.93
424.13	16910.37
424.32	16952.50
424.50	17174.85
424.69	17245.07
424.88	17074.21
425.07	17078.89
425.26	16968.88
425.45	16503.12
425.64	16369.71
425.83	16580.36
426.01	17291.88
426.20	17628.92
426.39	17348.05
426.58	16121.61
426.77	15033.26
426.96	15154.97
427.15	15468.60
427.33	16837.81
427.52	16982.93
427.71	17439.33
427.90	17032.08
428.09	16982.93
428.28	16372.05
428.46	15688.61
428.65	15484.98
428.84	16180.12
429.03	16372.05
429.22	15035.60
429.40	14195.35
429.59	12800.39
429.78	11644.17
429.97	11967.16
430.16	11875.88
430.34	11969.50
430.53	12374.41
430.72	12954.87
430.91	14207.05
431.10	16872.92
431.28	19089.41
431.47	20662.25
431.66	20360.32
431.85	17792.75
432.03	16622.48
432.22	16666.95
432.41	18075.96
432.60	19278.99
432.79	19976.47
432.97	20140.31
433.16	19604.33
433.35	17713.17
433.54	15873.51
433.72	15606.69
433.91	16720.79
434.10	18487.89
434.28	19173.67
434.47	19822.00
434.66	19545.81
434.85	18920.89
435.03	19466.24
435.22	19646.46
435.41	20388.41
435.59	20793.32
435.78	21057.80
435.97	21441.65
436.16	21455.69
436.34	21628.89
436.53	21235.68
436.72	20732.47
436.90	19620.71
437.09	19763.48
437.28	19541.13
437.46	20128.61
437.65	19866.47
437.84	18120.43
438.02	17200.60
438.21	17575.08
438.40	18253.84
438.58	19791.57
438.77	20350.96
438.96	20547.56
439.14	21465.05
439.33	22136.79
439.52	22204.66
439.70	20893.96
439.89	20610.76
440.08	20109.88
440.26	20388.41
440.45	21245.04
440.63	22815.54
440.82	23784.52
441.01	23381.95
441.19	22885.76
441.38	24051.34
441.57	24807.34
441.75	24907.98
441.94	24992.24
442.12	24559.24
442.31	25497.80
442.50	25142.03
442.68	24486.68
442.87	24690.31
443.05	24313.48
443.24	24676.27
443.43	24893.94
443.61	25610.14
443.80	26012.71
443.98	24758.19
444.17	24320.51
444.35	26073.57
444.54	26286.56
444.73	26001.01
444.91	24173.05
445.10	23721.33
445.28	22717.24
445.47	22595.53
445.65	22640.00
445.84	23805.59
446.02	24397.74
446.21	24685.63
446.39	24809.68
446.58	25242.68
446.77	25673.34
446.95	25771.64
447.14	26073.57
447.32	26719.56
447.51	26054.84
447.69	25160.76
447.88	25474.39
448.06	25338.64
448.25	25759.94
448.43	25881.64
448.62	25383.11
448.80	25450.99
448.99	25441.62
449.17	26167.19
449.36	26202.30
449.54	26927.86
449.73	27026.17
449.91	27358.52
450.10	28493.68
450.28	28465.60
450.46	28854.12
450.65	28882.21
450.83	28306.44
451.02	27639.39
451.20	27461.51
451.39	27585.55
451.57	27747.05
451.76	27637.05
451.94	27386.61
452.13	26380.18
452.31	25097.56
452.49	23761.12
452.68	24706.70
452.86	25221.61
453.05	25422.90
453.23	26513.59
453.42	26817.86
453.60	27515.34
453.78	27428.74
453.97	27267.24
454.15	26441.03
454.34	25656.95
454.52	26059.52
454.70	25977.61
454.89	26647.00
455.07	26499.55
455.26	26829.56
455.44	27784.50
455.62	28627.09
455.81	28371.97
455.99	28327.50
456.17	28299.42
456.36	29064.77
456.54	28790.93
456.73	28723.05
456.91	29062.43
457.09	29125.63
457.28	29788.00
457.46	28257.29
457.64	28379.00
457.83	27695.56
458.01	27285.97
458.19	28416.44
458.38	29273.08
458.56	29333.93
458.74	28767.52
458.93	28568.58
459.11	27751.73
459.29	27669.81
459.48	28517.09
459.66	27784.50
459.84	28135.58
460.03	29013.28
460.21	29144.35
460.39	29654.59
460.57	29523.52
460.76	29146.69
460.94	29567.99
461.12	29619.48
461.31	29682.67
461.49	29886.30
461.67	29687.36
461.85	30497.18
462.04	30836.56
462.22	30845.92
462.40	30244.40
462.59	29970.56
462.77	29951.84
462.95	30096.95
463.13	29757.57
463.32	29397.13
463.50	29123.29
463.68	29308.19
463.86	30192.91
464.05	28875.19
464.23	27955.36
464.41	28683.27
464.59	28357.93
464.78	29467.34
464.96	29434.58
465.14	28596.67
465.32	30143.76
465.50	30874.01
465.69	31529.36
465.87	29937.79
466.05	29146.69
466.23	28175.37
466.41	27491.93
466.60	28608.37
466.78	28329.84
466.96	28737.10
467.14	29528.20
467.32	29266.06
467.51	29376.06
467.69	28154.30
467.87	28905.62
468.05	29549.26
468.23	29275.42
468.41	28999.24
468.60	29256.70
468.78	30328.66
468.96	29830.13
469.14	30045.46
469.32	30106.31
469.50	28620.07
469.69	28889.23
469.87	28680.92
470.05	28208.14
470.23	28327.50
470.41	28650.50
470.59	29106.90
470.77	29003.92
470.95	30087.59
471.14	30700.81
471.32	30511.22
471.50	32100.45
471.68	32156.62
471.86	32694.94
472.04	32421.10
472.22	32510.04
472.40	31147.85
472.58	30876.35
472.77	30377.81
472.95	30969.97
473.13	32107.47
473.31	30668.04
473.49	30520.59
473.67	31311.69
473.85	31903.84
474.03	33638.18
474.21	33624.14
474.39	33795.00
474.57	33481.36
474.75	33783.29
474.93	33060.07
475.12	32503.02
475.30	32767.50
475.48	31922.57
475.66	31938.95
475.84	31688.51
476.02	32350.88
476.20	32084.06
476.38	32311.10
476.56	33532.86
476.74	34691.42
476.92	34281.83
477.10	34539.29
477.28	35072.93
477.46	35526.99
477.64	35941.27
477.82	36247.88
478.00	36507.68
478.18	35365.49
478.36	34740.57
478.54	35267.19
478.72	35941.27
478.90	37350.27
479.08	38995.67
479.26	38717.14
479.44	38607.14
479.62	37682.62
479.80	38639.90
479.98	38447.98
480.16	38813.10
480.34	37909.66
480.52	38822.47
480.70	39625.27
480.88	38869.28
481.06	39672.08
481.24	40100.40
481.41	40755.75
481.59	42127.30
481.77	40519.35
481.95	40165.93
482.13	39866.34
482.31	40151.89
482.49	41034.27
482.67	40540.42
482.85	40409.35
483.03	40545.10
483.21	41181.73
483.39	41193.43
483.57	41078.74
483.74	40954.69
483.92	41785.58
484.10	40851.71
484.28	41574.94
484.46	41670.90
484.64	43648.65
484.82	42267.73
485.00	41607.70
485.18	40835.33
485.35	38614.16
485.53	34108.63
485.71	32421.10
485.89	32762.82
486.07	35318.68
486.25	38181.16
486.43	40140.19
486.61	40304.02
486.78	40121.46
486.96	41574.94
487.14	42801.38
487.32	43414.60
487.50	44243.15
487.68	45579.59
487.85	46394.10
488.03	45298.73
488.21	45268.30
488.39	44556.78
488.57	43749.29
488.75	43281.19
488.92	45488.31
489.10	47587.77
489.28	48247.80
489.46	49904.90
489.64	49502.33
489.81	50028.95
489.99	48692.50
490.17	49031.88
490.35	49336.15
490.53	48669.10
490.70	48123.75
490.88	47952.90
491.06	49727.02
491.24	49890.86
491.41	48306.32
491.59	46422.19
491.77	46227.92
491.95	48018.43
492.13	49610.00
492.30	50398.76
492.48	51143.05
492.66	51597.11
492.84	51049.42
493.01	50621.11
493.19	50752.18
493.37	50082.78
493.54	50696.00
493.72	51356.03
493.90	52041.81
494.08	52278.21
494.25	52545.03
494.43	53081.01
494.61	53806.58
494.79	53701.25
494.96	53872.11
495.14	53298.68
495.32	51901.38
495.49	52233.74
495.67	53123.14
495.85	54031.27
496.02	54665.55
496.20	54262.98
496.38	53879.13
496.55	53439.11
496.73	54864.50
496.91	54389.37
497.09	54342.56
497.26	54817.69
497.44	54475.97
497.62	53277.61
497.79	52512.26
497.97	51480.08
498.14	52479.49
498.32	53907.22
498.50	53841.68
498.67	53879.13
498.85	54340.22
499.03	54813.01
499.20	54955.78
499.38	54415.11
499.56	53970.41
499.73	53858.07
499.91	53319.74
500.08	52966.32
500.26	51999.68
500.44	53125.48
500.61	53619.33
500.79	53385.28
500.97	53614.65
501.14	52409.28
501.32	52006.70
501.49	52261.82
501.67	52818.87
501.84	53052.92
502.02	53656.78
502.20	54525.12
502.37	54759.17
502.55	54883.22
502.72	55325.58
502.90	55810.07
503.07	55348.99
503.25	54033.61
503.43	52896.11
503.60	52718.23
503.78	52577.79
503.95	52779.08
504.13	54478.31
504.30	54578.95
504.48	54277.02
504.65	54447.88
504.83	54656.19
505.01	55657.94
505.18	55636.87
505.36	55941.14
505.53	56219.67
505.71	56554.36
505.88	56647.99
506.06	55994.98
506.23	55236.64
506.41	55466.02
506.58	55856.88
506.76	55686.03
506.93	55173.45
507.11	54820.03
507.28	55348.99
507.46	54410.43
507.63	54637.47
507.81	53787.85
507.98	54461.93
508.16	55955.19
508.33	55835.82
508.50	56088.60
508.68	56491.17
508.85	56582.45
509.03	56931.19
509.20	56346.06
509.38	55227.28
509.55	54995.57
509.73	55489.42
509.90	55592.40
510.08	56219.67
510.25	55114.94
510.42	55487.08
510.60	56016.04
510.77	56158.81
510.95	56165.84
511.12	56559.05
511.30	57024.81
511.47	57303.34
511.64	57298.65
511.82	57186.31
511.99	56086.26
512.17	55842.84
512.34	55700.07
512.51	55461.33
512.69	56114.34
512.86	55803.05
513.04	56214.99
513.21	55690.71
513.38	54536.82
513.56	54377.67
513.73	54115.53
513.90	54876.20
514.08	55143.02
514.25	54616.40
514.43	55121.96
514.60	55437.93
514.77	55615.81
514.95	55870.93
515.12	55774.97
515.29	56238.39
515.47	56746.29
515.64	56533.30
515.81	56175.20
515.99	55002.59
516.16	52921.85
516.33	50635.15
516.51	50433.86
516.68	48484.20
516.85	47618.20
517.03	49806.60
517.20	52945.26
517.37	55140.68
517.54	55966.89
517.72	54410.43
517.89	50841.12
518.06	49757.45
518.24	51234.33
518.41	53375.92
518.58	54174.04
518.75	54305.11
518.93	54382.35
519.10	53771.47
519.27	55103.23
519.45	55400.48
519.62	56116.68
519.79	56226.69
519.96	55627.51
520.14	55309.20
520.31	54012.54
520.48	54637.47
520.65	55379.42
520.83	56423.29
521.00	56163.50
521.17	55585.38
521.34	55650.92
521.52	56299.25
521.69	56484.15
521.86	56760.33
522.03	56846.93
522.20	55025.99
522.38	54412.77
522.55	55229.62
522.72	55669.64
522.89	55194.51
523.07	55772.63
523.24	56025.40
523.41	57202.69
523.58	57453.13
523.75	57832.30
523.92	57347.81
524.10	57036.51
524.27	56697.14
524.44	56725.22
524.61	55971.57
524.78	56477.13
524.96	56680.75
525.13	56591.81
525.30	57418.02
525.47	57319.72
525.64	57155.88
525.81	56315.63
525.98	54312.13
526.16	53010.79
526.33	53308.04
526.50	52561.41
526.67	52809.51
526.84	53333.79
527.01	54288.73
527.18	54930.03
527.36	55875.61
527.53	56985.02
527.70	55994.98
527.87	54843.43
528.04	56016.04
528.21	56666.71
528.38	57230.78
528.55	57928.26
528.72	57635.69
528.89	57195.67
529.07	56781.40
529.24	55688.37
529.41	55573.68
529.58	55416.86
529.75	56636.28
529.92	56832.89
530.09	56561.39
530.26	57212.06
530.43	58052.31
530.60	56779.06
530.77	57549.09
530.94	57836.98
531.11	56956.94
531.28	57125.46
531.46	57322.06
531.63	56865.66
531.80	56355.42
531.97	55627.51
532.14	55952.85
532.31	54300.43
532.48	53518.69
532.65	54216.17
532.82	54585.97
532.99	56233.71
533.16	56624.58
533.33	56750.97
533.50	56760.33
533.67	56659.69
533.84	56006.68
534.01	56137.75
534.18	56657.35
534.35	56083.92
534.52	55599.43
534.69	56252.44
534.86	56783.74
535.03	57064.60
535.20	56788.42
535.37	57446.11
535.54	57996.13
535.71	57598.24
535.88	57944.64
536.05	56327.33
536.22	55746.88
536.38	55622.83
536.55	54396.39
536.72	54129.57
536.89	55405.16
537.06	55257.71
537.23	56020.72
537.40	56334.35
537.57	55700.07
537.74	56135.41
537.91	56238.39
538.08	55994.98
538.25	55805.39
538.42	56765.01
538.59	55889.65
538.75	54934.71
538.92	54658.53
539.09	54866.84
539.26	54974.50
539.43	54958.12
539.60	55164.09
539.77	55405.16
539.94	55393.46
540.11	54459.58
540.28	54244.26
540.44	53436.77
540.61	53579.54
540.78	54667.89
540.95	55047.06
541.12	55278.77
541.29	55789.01
541.46	56294.56
541.62	56058.17
541.79	55166.43
541.96	54438.52
542.13	54710.02
542.30	54761.51
542.47	55278.77
542.63	55077.49
542.80	54986.21
542.97	54363.62
543.14	54260.64
543.31	54326.17
543.48	55746.88
543.64	56268.82
543.81	56907.79
543.98	56753.31
544.15	55037.70
544.32	55875.61
544.48	55243.66
544.65	55360.69
544.82	55784.33
544.99	54124.89
545.16	53921.26
545.32	54162.34
545.49	55145.36
545.66	55313.88
545.83	54993.23
546.00	55578.36
546.16	55533.89
546.33	55171.11
546.50	55276.43
546.67	55987.95
546.83	54876.20
547.00	55517.51
547.17	54246.60
547.34	53207.40
547.50	53291.66
547.67	54745.13
547.84	55688.37
548.00	55150.04
548.17	55089.19
548.34	55311.54
548.51	55664.96
548.67	56074.55
548.84	55615.81
549.01	55824.12
549.18	54897.27
549.34	55257.71
549.51	55147.70
549.68	55379.42
549.84	54820.03
550.01	54511.08
550.18	54024.25
550.34	54124.89
550.51	54995.57
550.68	55023.65
550.84	54990.89
551.01	53954.03
551.18	54171.70
551.34	53535.07
551.51	54665.55
551.68	54607.04
551.84	54901.95
552.01	54791.94
552.18	54251.28
552.34	53404.00
552.51	53315.06
552.68	53195.70
552.84	53467.20
553.01	53687.21
553.18	54866.84
553.34	54726.41
553.51	54829.39
553.67	54651.51
553.84	54129.57
554.01	54499.37
554.17	53958.71
554.34	54370.64
554.51	54478.31
554.67	53654.44
554.84	53764.45
555.00	53624.01
555.17	53893.18
555.33	53216.76
555.50	52708.86
555.67	53806.58
555.83	53991.48
556.00	53684.87
556.16	53221.44
556.33	52360.12
556.50	53272.93
556.66	53586.57
556.83	53221.44
556.99	52465.45
557.16	52818.87
557.32	52884.40
557.49	53132.50
557.65	52657.37
557.82	53471.88
557.98	53750.40
558.15	52315.65
558.32	51791.37
558.48	50497.06
558.65	50972.19
558.81	51721.16
558.98	52514.60
559.14	52865.68
559.31	52037.13
559.47	51929.47
559.64	51278.80
559.80	50773.24
559.97	52006.70
560.13	53186.33
560.30	54162.34
560.46	54401.07
560.63	54901.95
560.79	54506.40
560.96	53675.51
561.12	52034.79
561.29	51292.84
561.45	51639.24
561.61	53176.97
561.78	52287.57
561.94	53289.32
562.11	52987.39
562.27	51987.98
562.44	52568.43
562.60	53242.51
562.77	53034.20
562.93	52102.67
563.10	52137.77
563.26	52453.75
563.42	52652.69
563.59	51870.95
563.75	51927.13
563.92	51828.82
564.08	51014.32
564.24	52339.06
564.41	51672.01
564.57	52774.40
564.74	52112.03
564.90	51327.95
565.07	51540.94
565.23	50286.41
565.39	49982.14
565.56	50752.18
565.72	50646.85
565.88	49137.21
566.05	51468.38
566.21	52240.76
566.38	51236.67
566.54	51545.62
566.70	52179.90
566.87	52048.83
567.03	51302.20
567.19	52451.41
567.36	52800.15
567.52	51524.55
567.68	51351.35
567.85	50000.86
568.01	50003.20
568.17	50714.73
568.34	51264.75
568.50	50752.18
568.66	51007.29
568.83	50007.89
568.99	49336.15
569.15	50305.13
569.32	50251.30
569.48	49879.16
569.64	49535.10
569.81	49932.99
569.97	49378.28
570.13	48376.53
570.30	48589.52
570.46	47660.33
570.62	46918.38
570.78	47241.37
570.95	47955.24
571.11	47927.15
571.27	47660.33
571.43	48233.76
571.60	47856.93
571.76	49509.35
571.92	49855.75
572.09	50326.20
572.25	50365.99
572.41	50726.43
572.57	50604.72
572.74	50522.80
572.90	51510.51
573.06	50515.78
573.22	50969.85
573.38	50646.85
573.55	51716.48
573.71	50148.32
573.87	50553.23
574.03	50389.39
574.20	49675.53
574.36	49886.18
574.52	48676.12
574.68	48811.87
574.84	47786.72
575.01	48200.99
575.17	49193.38
575.33	48898.47
575.49	48800.17
575.65	47910.77
575.82	48758.04
575.98	47428.62
576.14	49226.15
576.30	49497.65
576.46	47955.24
576.62	47995.03
576.79	48296.95
576.95	48296.95
577.11	48554.41
577.27	48638.67
577.43	49102.10
577.59	47730.54
577.75	46553.26
577.92	46576.66
578.08	46691.35
578.24	47849.91
578.40	47679.05
578.56	46609.43
578.72	46899.65
578.88	46698.37
579.04	47414.57
579.21	46586.02
579.37	47255.42
579.53	47922.47
579.69	47711.82
579.85	47276.48
580.01	47304.57
580.17	46478.36
580.33	48128.44
580.49	48100.35
580.65	45961.10
580.82	46834.12
580.98	48102.69
581.14	48102.69
581.30	47683.73
581.46	47208.61
581.62	47688.42
581.78	48259.51
581.94	48184.61
582.10	48528.67
582.26	48865.70
582.42	48350.79
582.58	46923.06
582.74	46948.81
582.90	46408.14
583.06	47660.33
583.22	47660.33
583.38	47721.18
583.54	47737.57
583.70	48659.74
583.86	47826.51
584.02	47503.51
584.18	46513.47
584.34	46050.04
584.50	45991.53
584.66	45975.14
584.82	47023.70
584.98	46387.08
585.14	45869.82
585.30	46277.07
