SpectraSuite Data File
++++++++++++++++++++++++++++++++++++
Date: Mon Oct 07 14:55:00 GMT-05:00 2013
User: price-jones
Dark Spectrum Present: No
Reference Spectrum Present: No
Number of Sampled Component Spectra: 1
Spectrometers: USB2+H05261
Integration Time (usec): 10000 (USB2+H05261)
Spectra Averaged: 1 (USB2+H05261)
Boxcar Smoothing: 0 (USB2+H05261)
Correct for Electrical Dark: No (USB2+H05261)
Strobe/Lamp Enabled: No (USB2+H05261)
Correct for Detector Non-linearity: No (USB2+H05261)
Correct for Stray Light: No (USB2+H05261)
Number of Pixels in Processed Spectrum: 2048
>>>>>Begin Processed Spectral Data<<<<<
365.73	0.00
365.92	0.00
366.12	0.00
366.32	0.00
366.52	0.00
366.72	0.00
366.91	0.00
367.11	0.00
367.31	0.00
367.51	0.00
367.70	0.00
367.90	0.00
368.10	0.00
368.30	0.00
368.49	0.00
368.69	0.00
368.89	0.00
369.09	0.00
369.28	0.00
369.48	0.00
369.68	0.00
369.87	0.00
370.07	0.00
370.27	0.00
370.47	273.84
370.66	2134.57
370.86	2693.96
371.06	2782.90
371.25	2668.21
371.45	2495.01
371.65	2115.84
371.84	2045.63
372.04	2342.88
372.24	2530.12
372.44	2686.94
372.63	2476.29
372.83	2356.92
373.03	2003.50
373.22	1966.05
373.42	2129.89
373.62	2436.50
373.81	2595.65
374.01	2647.15
374.21	2225.85
374.40	2200.10
374.60	2296.07
374.79	2733.75
374.99	3129.30
375.19	3197.17
375.38	3059.08
375.58	3016.95
375.78	2932.69
375.97	2956.10
376.17	2918.65
376.37	3143.34
376.56	3396.12
376.76	3510.80
376.95	3805.71
377.15	3819.75
377.35	4063.17
377.54	4159.13
377.74	4320.63
377.93	4383.82
378.13	4201.26
378.33	3810.39
378.52	3674.64
378.72	3447.61
378.91	3524.85
379.11	3246.32
379.31	3309.52
379.50	3251.00
379.70	3536.55
379.89	3978.91
380.09	4114.66
380.28	4311.27
380.48	4173.18
380.68	4212.96
380.87	3981.25
381.07	3723.79
381.26	3279.09
381.46	3229.94
381.65	3047.38
381.85	2928.01
382.04	2733.75
382.24	2672.89
382.43	2698.64
382.63	2525.44
382.83	2370.96
383.02	2558.21
383.22	2476.29
383.41	2480.97
383.61	2729.06
383.80	3208.87
384.00	3744.86
384.19	3964.87
384.39	4126.36
384.58	4074.87
384.78	4229.35
384.97	4039.76
385.17	3840.82
385.36	3758.90
385.56	3576.34
385.75	3810.39
385.95	4212.96
386.14	4432.97
386.34	4245.73
386.53	4100.62
386.72	3749.54
386.92	3992.95
387.11	4182.54
387.31	4273.82
387.50	4355.74
387.70	4086.58
387.89	4058.49
388.09	4250.41
388.28	4121.68
388.48	4440.00
388.67	4671.71
388.86	5095.35
389.06	5523.66
389.25	5834.96
389.45	5741.33
389.64	5673.46
389.84	5359.83
390.03	5579.84
390.22	5734.31
390.42	5895.81
390.61	6230.51
390.81	6729.04
391.00	6722.02
391.19	6586.27
391.39	6342.85
391.58	5947.30
391.78	5661.76
391.97	5423.02
392.16	5247.48
392.36	4425.95
392.55	3499.10
392.75	2775.88
392.94	2239.89
393.13	2422.45
393.33	3082.49
393.52	3990.61
393.71	4636.60
393.91	5240.46
394.10	5699.20
394.29	6296.04
394.49	6794.58
394.68	7131.61
394.88	7070.76
395.07	7295.45
395.26	7192.47
395.46	6803.94
395.65	6441.15
395.84	5650.05
396.04	4573.41
396.23	3850.18
396.42	3166.74
396.62	3283.77
396.81	4042.11
397.00	5280.25
397.19	6377.96
397.39	7426.52
397.58	8236.35
397.77	8493.80
397.97	8901.06
398.16	9202.99
398.35	9376.19
398.55	9640.67
398.74	10141.54
398.93	10115.80
399.12	10090.05
399.32	9790.46
399.51	9982.38
399.70	10686.89
399.90	10424.75
400.09	10342.83
400.28	10399.00
400.47	10448.15
400.67	11117.54
400.86	11082.44
401.05	11304.79
401.24	11250.96
401.44	11676.93
401.63	11510.75
401.82	11609.06
402.01	11417.13
402.21	11737.79
402.40	11726.08
402.59	11147.97
402.78	10860.09
402.97	10520.71
403.17	11311.81
403.36	12023.33
403.55	12238.66
403.74	12212.92
403.93	11613.74
404.13	10251.55
404.32	10579.22
404.51	11396.07
404.70	11969.50
404.89	11892.26
405.09	11587.99
405.28	11480.33
405.47	11508.41
405.66	11548.20
405.85	10806.25
406.05	11091.80
406.24	11482.67
406.43	11721.40
406.62	11939.07
406.81	11833.75
407.00	11749.49
407.20	11288.40
407.39	11351.60
407.58	12070.14
407.77	12781.67
407.96	12933.80
408.15	13296.58
408.34	13165.51
408.54	13762.35
408.73	13743.63
408.92	13322.33
409.11	12720.81
409.30	12397.82
409.49	11510.75
409.68	10951.37
409.87	11007.54
410.07	11648.85
410.26	12381.43
410.45	13163.17
410.64	13654.69
410.83	13841.93
411.02	14328.76
411.21	14516.00
411.40	14551.11
411.59	14696.22
411.78	14504.30
411.98	14633.03
412.17	14562.81
412.36	14267.91
412.55	14544.09
412.74	13877.04
412.93	13544.68
413.12	14345.14
413.31	15541.16
413.50	15342.21
413.69	15302.42
413.88	14829.63
414.07	14661.12
414.26	15009.86
414.45	15445.20
414.64	15089.43
414.83	15377.32
415.02	14951.34
415.22	15260.29
415.41	15492.01
415.60	15981.18
415.79	16769.94
415.98	16926.75
416.17	16968.88
416.36	16601.42
416.55	16442.26
416.74	15812.66
416.93	15468.60
417.12	15742.44
417.31	15569.24
417.50	15946.07
417.69	16203.53
417.88	16318.22
418.07	16098.20
418.26	16114.59
418.45	16585.04
418.64	16734.83
418.83	17371.46
419.02	17191.23
419.21	16800.37
419.39	15971.82
419.58	15398.38
419.77	15756.49
419.96	16423.54
420.15	17432.31
420.34	17722.54
420.53	18494.91
420.72	18562.79
420.91	18195.32
421.10	17750.62
421.29	17830.20
421.48	17135.06
421.67	18244.48
421.86	17137.40
422.05	16032.67
422.24	14700.90
422.43	15267.31
422.61	16812.07
422.80	17394.86
422.99	17404.22
423.18	17074.21
423.37	16716.11
423.56	16877.60
423.75	17167.83
423.94	17479.12
424.13	16772.28
424.32	16175.44
424.50	16650.57
424.69	16826.11
424.88	16788.66
425.07	16683.34
425.26	16697.38
425.45	16299.49
425.64	15751.81
425.83	16240.98
426.01	17380.82
426.20	17422.95
426.39	17245.07
426.58	15658.18
426.77	14635.37
426.96	14679.84
427.15	15122.20
427.33	16863.56
427.52	16924.41
427.71	16889.31
427.90	16648.23
428.09	16273.74
428.28	16013.95
428.46	15185.40
428.65	15597.33
428.84	15922.66
429.03	15805.64
429.22	14972.41
429.40	13907.46
429.59	12479.74
429.78	11428.84
429.97	11941.41
430.16	11831.41
430.34	11705.02
430.53	11999.93
430.72	12360.37
430.91	13940.23
431.10	16561.63
431.28	18953.66
431.47	20016.26
431.66	19552.84
431.85	17762.33
432.03	16407.16
432.22	16540.57
432.41	17762.33
432.60	19110.47
432.79	19627.73
432.97	19819.66
433.16	18988.77
433.35	17242.73
433.54	15707.34
433.72	15337.53
433.91	15922.66
434.10	17738.92
434.28	18759.39
434.47	19433.47
434.66	18635.35
434.85	18787.48
435.03	19234.52
435.22	19248.57
435.41	20547.56
435.59	20938.43
435.78	20893.96
435.97	20943.11
436.16	21298.88
436.34	20657.57
436.53	20231.59
436.72	20297.13
436.90	19585.60
437.09	19447.51
437.28	19335.17
437.46	20355.64
437.65	19314.10
437.84	17879.35
438.02	17193.58
438.21	17343.37
438.40	18045.53
438.58	19133.88
438.77	19871.15
438.96	19997.54
439.14	21214.62
439.33	21401.86
439.52	21362.07
439.70	21039.08
439.89	20566.29
440.08	20353.30
440.26	20528.84
440.45	20891.62
440.63	22169.55
440.82	23386.63
441.01	22511.27
441.19	23023.85
441.38	23311.74
441.57	24240.93
441.75	24070.07
441.94	24189.44
442.12	24353.27
442.31	24919.68
442.50	24456.26
442.68	24280.72
442.87	24229.23
443.05	23414.72
443.24	24374.34
443.43	25125.65
443.61	25462.69
443.80	25333.96
443.98	24458.60
444.17	24505.41
444.35	25722.49
444.54	25610.14
444.73	25266.08
444.91	24025.60
445.10	23468.55
445.28	22522.98
445.47	22239.77
445.65	22611.92
445.84	23309.40
446.02	23513.02
446.21	24357.96
446.39	24130.92
446.58	24334.55
446.77	25362.04
446.95	25188.85
447.14	26424.65
447.32	26852.97
447.51	25776.32
447.69	24482.00
447.88	24343.91
448.06	25039.05
448.25	25764.62
448.43	24886.92
448.62	25188.85
448.80	25209.91
448.99	25233.32
449.17	25415.88
449.36	25954.20
449.54	26476.14
449.73	26899.78
449.91	27468.53
450.10	27899.19
450.28	27948.34
450.46	28414.10
450.65	28336.87
450.83	27761.09
451.02	27314.05
451.20	27026.17
451.39	27372.57
451.57	27297.67
451.76	27470.87
451.94	26796.79
452.13	25804.41
452.31	24741.80
452.49	23529.41
452.68	24711.38
452.86	24807.34
453.05	24882.24
453.23	25766.96
453.42	26316.98
453.60	26892.76
453.78	26691.47
453.97	27061.27
454.15	26354.43
454.34	25865.26
454.52	25647.59
454.70	25493.12
454.89	25912.07
455.07	26113.36
455.26	27131.49
455.44	27463.85
455.62	27709.60
455.81	27779.82
455.99	27838.33
456.17	27524.70
456.36	28257.29
456.54	28442.19
456.73	28020.89
456.91	28643.48
457.09	28570.92
457.28	30075.88
457.46	28156.64
457.64	27821.95
457.83	27044.89
458.01	26707.85
458.19	27424.06
458.38	28538.15
458.56	28938.38
458.74	28699.65
458.93	27920.25
459.11	27550.45
459.29	27723.65
459.48	28332.18
459.66	27658.11
459.84	28088.77
460.03	28512.41
460.21	28367.29
460.39	29226.27
460.57	29233.29
460.76	29244.99
460.94	29177.12
461.12	29149.03
461.31	29511.81
461.49	29198.18
461.67	29474.37
461.85	30031.41
462.04	29673.31
462.22	29935.45
462.40	29804.38
462.59	29474.37
462.77	30089.93
462.95	30019.71
463.13	29734.17
463.32	28568.58
463.50	29352.66
463.68	29242.65
463.86	29619.48
464.05	28694.97
464.23	28041.96
464.41	27852.38
464.59	27873.44
464.78	29376.06
464.96	28484.32
465.14	27538.74
465.32	29495.43
465.50	30771.02
465.69	31496.59
465.87	30274.83
466.05	29064.77
466.23	27688.54
466.41	27433.42
466.60	27924.93
466.78	27754.07
466.96	27873.44
467.14	28308.78
467.32	28716.03
467.51	28989.88
467.69	27779.82
467.87	28570.92
468.05	29050.73
468.23	29287.12
468.41	29088.18
468.60	29347.98
468.78	29736.51
468.96	29570.33
469.14	30153.12
469.32	29710.76
469.50	28191.75
469.69	28940.72
469.87	28175.37
470.05	27845.35
470.23	28161.33
470.41	28273.67
470.59	28643.48
470.77	28259.63
470.95	29160.73
471.14	29853.53
471.32	30115.67
471.50	31756.39
471.68	31065.93
471.86	32107.47
472.04	31676.81
472.22	31637.02
472.40	29734.17
472.58	30452.71
472.77	30221.00
472.95	30611.87
473.13	31660.43
473.31	30412.92
473.49	31250.83
473.67	31129.12
473.85	32329.82
474.03	33289.44
474.21	33076.45
474.39	32868.14
474.57	32739.41
474.75	33212.20
474.93	32716.01
475.12	32018.53
475.30	32196.41
475.48	31641.70
475.66	32664.52
475.84	31433.39
476.02	32315.78
476.20	30953.58
476.38	31997.46
476.56	32961.76
476.74	33710.74
476.92	34359.06
477.10	33979.90
477.28	35122.08
477.46	35779.77
477.64	36041.91
477.82	35702.53
478.00	36020.84
478.18	35206.34
478.36	34948.88
478.54	35253.15
478.72	35924.88
478.90	36439.80
479.08	37869.87
479.26	37352.61
479.44	38272.44
479.62	37940.08
479.80	37792.63
479.98	37923.70
480.16	37734.12
480.34	37085.79
480.52	38234.99
480.70	37909.66
480.88	37874.55
481.06	38525.22
481.24	39000.35
481.41	40491.27
481.59	40458.50
481.77	39648.68
481.95	39381.85
482.13	39636.97
482.31	40187.00
482.49	40535.74
482.67	40472.54
482.85	40018.48
483.03	40065.29
483.21	41645.15
483.39	41350.24
483.57	41493.02
483.74	40304.02
483.92	40715.96
484.10	41099.81
484.28	42047.72
484.46	41343.22
484.64	43007.34
484.82	41848.78
485.00	40830.65
485.18	40535.74
485.35	38698.42
485.53	34251.40
485.71	31527.02
485.89	32308.76
486.07	35358.47
486.25	37408.78
486.43	39445.05
486.61	40100.40
486.78	39496.54
486.96	41563.23
487.14	42178.79
487.32	43419.28
487.50	44217.40
487.68	44978.07
487.85	45851.09
488.03	45834.71
488.21	44416.35
488.39	44343.79
488.57	42356.67
488.75	42731.16
488.92	44612.95
489.10	46897.31
489.28	47672.03
489.46	48975.71
489.64	47690.76
489.81	48968.69
489.99	48680.80
490.17	48622.29
490.35	49111.46
490.53	48458.45
490.70	48563.78
490.88	47992.68
491.06	49858.09
491.24	50096.83
491.41	47915.45
491.59	46513.47
491.77	45558.53
491.95	46564.96
492.13	48760.38
492.30	49794.90
492.48	51068.15
492.66	50707.71
492.84	50136.62
493.01	50134.28
493.19	50054.70
493.37	49663.83
493.54	49876.82
493.72	50883.25
493.90	52004.36
494.08	52458.43
494.25	52816.53
494.43	53144.20
494.61	53572.52
494.79	53118.46
494.96	53244.85
495.14	53102.07
495.32	51274.12
495.49	51363.06
495.67	52292.25
495.85	53380.60
496.02	53998.50
496.20	53095.05
496.38	52587.16
496.55	52523.96
496.73	53652.10
496.91	53881.47
497.09	54403.41
497.26	55344.31
497.44	53996.16
497.62	52772.06
497.79	52491.19
497.97	51423.91
498.14	51725.84
498.32	53284.64
498.50	53563.16
498.67	53792.53
498.85	53539.75
499.03	54145.95
499.20	54342.56
499.38	53654.44
499.56	52554.39
499.73	52975.69
499.91	53104.41
500.08	52186.92
500.26	52406.94
500.44	52650.35
500.61	53654.44
500.79	52865.68
500.97	52460.77
501.14	52432.68
501.32	51281.14
501.49	51634.56
501.67	52774.40
501.84	53294.00
502.02	53446.13
502.20	53581.88
502.37	53413.37
502.55	54520.44
502.72	55262.39
502.90	55629.85
503.07	54803.64
503.25	53949.35
503.43	52825.89
503.60	52133.09
503.78	52388.21
503.95	53193.36
504.13	54370.64
504.30	55229.62
504.48	54754.49
504.65	54621.08
504.83	54794.28
505.01	55367.71
505.18	55323.24
505.36	56303.93
505.53	56055.83
505.71	55922.42
505.88	56271.16
506.06	55737.52
506.23	55508.14
506.41	54639.81
506.58	55264.73
506.76	55442.61
506.93	54955.78
507.11	54920.67
507.28	54787.26
507.46	54227.87
507.63	54508.74
507.81	53893.18
507.98	53970.41
508.16	55238.98
508.33	55831.14
508.50	55746.88
508.68	56198.60
508.85	56360.10
509.03	57078.64
509.20	56425.64
509.38	56037.11
509.55	55800.71
509.73	55346.65
509.90	55278.77
510.08	55625.17
510.25	55248.35
510.42	54836.41
510.60	55238.98
510.77	56109.66
510.95	56264.14
511.12	56624.58
511.30	57270.57
511.47	57368.87
511.64	57052.90
511.82	56898.42
511.99	55622.83
512.17	55632.19
512.34	54948.76
512.51	55550.27
512.69	55889.65
512.86	55384.10
513.04	55615.81
513.21	55283.45
513.38	54394.05
513.56	54014.88
513.73	53432.09
513.90	55018.97
514.08	54497.03
514.25	54571.93
514.43	55096.21
514.60	55014.29
514.77	55451.97
514.95	55781.99
515.12	55613.47
515.29	56217.33
515.47	56570.75
515.64	56442.02
515.81	55873.27
515.99	54731.09
516.16	52968.66
516.33	50099.17
516.51	49991.50
516.68	48664.42
516.85	47124.35
517.03	49029.54
517.20	52278.21
517.37	54684.28
517.54	55751.56
517.72	54529.80
517.89	51255.39
518.06	49420.41
518.24	50719.41
518.41	53038.88
518.58	54555.55
518.75	54291.07
518.93	54171.70
519.10	53677.85
519.27	54724.07
519.45	55508.14
519.62	56339.04
519.79	56186.90
519.96	55669.64
520.14	55629.85
520.31	54649.17
520.48	54499.37
520.65	55316.22
520.83	56179.88
521.00	55924.76
521.17	55189.83
521.34	55634.53
521.52	56821.19
521.69	56523.94
521.86	57301.00
522.03	56324.99
522.20	55030.68
522.38	53792.53
522.55	54225.53
522.72	54220.85
522.89	54384.69
523.07	55316.22
523.24	56198.60
523.41	56371.80
523.58	56868.00
523.75	56982.68
523.92	57371.21
524.10	57078.64
524.27	56481.81
524.44	55908.38
524.61	55491.76
524.78	55971.57
524.96	56116.68
525.13	56299.25
525.30	56935.87
525.47	56966.30
525.64	57036.51
525.81	55861.57
525.98	53764.45
526.16	52072.24
526.33	52392.89
526.50	51969.26
526.67	52310.97
526.84	52872.70
527.01	53745.72
527.18	54576.61
527.36	55468.36
527.53	56376.48
527.70	55845.18
527.87	54611.72
528.04	55171.11
528.21	56053.49
528.38	56566.07
528.55	57677.82
528.72	57687.18
528.89	57221.42
529.07	56493.51
529.24	55650.92
529.41	55566.66
529.58	55547.93
529.75	56189.24
529.92	56982.68
530.09	56776.72
530.26	56970.98
530.43	57804.21
530.60	57134.82
530.77	57551.43
530.94	57659.10
531.11	56912.47
531.28	56470.11
531.46	56704.16
531.63	56851.61
531.80	56229.03
531.97	55838.16
532.14	55693.05
532.31	54375.33
532.48	53738.70
532.65	54014.88
532.82	54365.96
532.99	56612.88
533.16	56690.12
533.33	56879.70
533.50	56842.25
533.67	55896.67
533.84	56009.02
534.01	56264.14
534.18	55980.93
534.35	56154.13
534.52	55498.78
534.69	55903.70
534.86	56495.85
535.03	57022.47
535.20	57387.60
535.37	58003.16
535.54	58129.54
535.71	57226.10
535.88	56858.63
536.05	56182.22
536.22	55133.66
536.38	55363.03
536.55	54981.52
536.72	54569.59
536.89	55105.57
537.06	55599.43
537.23	56196.26
537.40	55463.67
537.57	55700.07
537.74	55671.98
537.91	55847.52
538.08	55435.59
538.25	56219.67
538.42	56711.18
538.59	56472.45
538.75	55660.28
538.92	54546.18
539.09	54908.97
539.26	54990.89
539.43	54894.92
539.60	54515.76
539.77	55217.92
539.94	54768.54
540.11	54485.33
540.28	53991.48
540.44	53834.66
540.61	53858.07
540.78	53975.09
540.95	54590.66
541.12	54485.33
541.29	55281.11
541.46	54988.55
541.62	55426.23
541.79	54564.91
541.96	54160.00
542.13	54920.67
542.30	54749.81
542.47	55121.96
542.63	54745.13
542.80	54539.16
542.97	53506.99
543.14	54471.29
543.31	55028.34
543.48	55613.47
543.64	56102.64
543.81	56402.23
543.98	56310.95
544.15	55576.02
544.32	55789.01
544.48	55683.69
544.65	54815.35
544.82	55934.12
544.99	54618.74
545.16	54363.62
545.32	54873.86
545.49	55763.26
545.66	55821.78
545.83	55585.38
546.00	55604.11
546.16	54988.55
546.33	54501.71
546.50	54614.06
546.67	55421.55
546.83	55217.92
547.00	55215.58
547.17	53694.23
547.34	52949.94
547.50	53165.27
547.67	53937.65
547.84	54412.77
548.00	55597.09
548.17	55288.13
548.34	55236.64
548.51	55533.89
548.67	54752.15
548.84	54848.11
549.01	55231.96
549.18	54836.41
549.34	54768.54
549.51	55044.72
549.68	55784.33
549.84	54344.90
550.01	53844.02
550.18	54583.63
550.34	54211.49
550.51	54302.77
550.68	54651.51
550.84	55136.00
551.01	54101.48
551.18	54508.74
551.34	54518.10
551.51	54850.45
551.68	55044.72
551.84	56081.58
552.01	54993.23
552.18	54941.74
552.34	53783.17
552.51	53041.22
552.68	53350.17
552.84	54344.90
553.01	54122.55
553.18	53696.57
553.34	54052.33
553.51	54288.73
553.67	54445.54
553.84	54873.86
554.01	55222.60
554.17	54518.10
554.34	54204.47
554.51	54330.86
554.67	53577.20
554.84	54066.38
555.00	53485.92
555.17	53867.43
555.33	53783.17
555.50	53301.02
555.67	53551.46
555.83	53375.92
556.00	52788.44
556.16	52844.62
556.33	53062.29
556.50	53364.21
556.66	53052.92
556.83	52432.68
556.99	52521.62
557.16	53120.80
557.32	53120.80
557.49	53719.98
557.65	53059.94
557.82	53759.76
557.98	53958.71
558.15	52549.71
558.32	52390.55
558.48	51246.03
558.65	50908.99
558.81	51650.94
558.98	52296.93
559.14	51838.18
559.31	52303.95
559.47	52409.28
559.64	51934.15
559.80	51393.48
559.97	51557.32
560.13	52374.17
560.30	53778.49
560.46	54160.00
560.63	54265.32
560.79	54387.03
560.96	53499.97
561.12	52563.75
561.29	52662.05
561.45	52287.57
561.61	53441.45
561.78	52182.24
561.94	52140.11
562.11	51786.69
562.27	51241.35
562.44	52633.97
562.60	53209.74
562.77	52575.45
562.93	52582.48
563.10	53270.59
563.26	52669.08
563.42	52954.62
563.59	52612.90
563.75	51976.28
563.92	52037.13
564.08	52479.49
564.24	53310.38
564.41	51882.66
564.57	53286.98
564.74	52601.20
564.90	51976.28
565.07	50967.51
565.23	50789.62
565.39	49867.45
565.56	49954.05
565.72	50864.52
565.88	50461.95
566.05	52287.57
566.21	51557.32
566.38	51873.29
566.54	52919.51
566.70	52877.38
566.87	52317.99
567.03	53139.52
567.19	53815.94
567.36	53439.11
567.52	51812.44
567.68	51363.06
567.85	50384.71
568.01	51246.03
568.17	50574.30
568.34	50894.95
568.50	50263.00
568.66	49729.36
568.83	49975.12
568.99	49631.06
569.15	50363.65
569.32	49923.63
569.48	50019.59
569.64	50454.93
569.81	50796.65
569.97	50155.34
570.13	49153.59
570.30	48102.69
570.46	48090.99
570.62	48048.86
570.78	48648.03
570.95	48123.75
571.11	49462.54
571.27	48615.27
571.43	49656.81
571.60	50122.57
571.76	49956.39
571.92	50183.43
572.09	50674.94
572.25	49808.94
572.41	49642.76
572.57	49937.67
572.74	51159.43
572.90	51477.74
573.06	51489.45
573.22	51313.90
573.38	51597.11
573.55	51852.23
573.71	50925.38
573.87	50330.88
574.03	50206.83
574.20	49331.47
574.36	49151.25
574.52	49469.56
574.68	49223.81
574.84	47894.38
575.01	48058.22
575.17	48121.41
575.33	49057.63
575.49	49137.21
575.65	48065.24
575.82	48231.42
575.98	49394.67
576.14	49642.76
576.30	50171.72
576.46	49090.40
576.62	48346.11
576.79	48584.84
576.95	49127.84
577.11	49462.54
577.27	48648.03
577.43	48706.55
577.59	48568.46
577.75	48191.63
577.92	47632.24
578.08	47344.36
578.24	47320.95
578.40	47524.58
578.56	46398.78
578.72	47143.07
578.88	47442.66
579.04	47779.70
579.21	47447.34
579.37	47112.64
579.53	48165.88
579.69	46986.25
579.85	46838.80
580.01	47435.64
580.17	46930.08
580.33	47903.74
580.49	47943.53
580.65	47674.37
580.82	48479.52
580.98	47775.02
581.14	47374.78
581.30	46672.62
581.46	47112.64
581.62	47573.73
581.78	48676.12
581.94	48355.47
582.10	48900.81
582.26	48053.54
582.42	48428.02
582.58	47587.77
582.74	47538.62
582.90	47440.32
583.06	49057.63
583.22	47807.78
583.38	48208.01
583.54	48516.96
583.70	48006.73
583.86	48205.67
584.02	46976.89
584.18	47285.84
584.34	46726.46
584.50	46588.36
584.66	46831.78
584.82	45956.42
584.98	46791.99
585.14	45642.79
585.30	45532.78
