SpectraSuite Data File
++++++++++++++++++++++++++++++++++++
Date: Mon Oct 07 14:53:40 GMT-05:00 2013
User: price-jones
Dark Spectrum Present: No
Reference Spectrum Present: No
Number of Sampled Component Spectra: 1
Spectrometers: USB2+H05261
Integration Time (usec): 100000 (USB2+H05261)
Spectra Averaged: 1 (USB2+H05261)
Boxcar Smoothing: 0 (USB2+H05261)
Correct for Electrical Dark: No (USB2+H05261)
Strobe/Lamp Enabled: No (USB2+H05261)
Correct for Detector Non-linearity: No (USB2+H05261)
Correct for Stray Light: No (USB2+H05261)
Number of Pixels in Processed Spectrum: 2048
>>>>>Begin Processed Spectral Data<<<<<
365.73	0.00
365.92	0.00
366.12	0.00
366.32	0.00
366.52	0.00
366.72	0.00
366.91	0.00
367.11	0.00
367.31	0.00
367.51	0.00
367.70	0.00
367.90	0.00
368.10	0.00
368.30	0.00
368.49	0.00
368.69	0.00
368.89	0.00
369.09	0.00
369.28	0.00
369.48	0.00
369.68	0.00
369.87	0.00
370.07	0.00
370.27	0.00
370.47	589.82
370.66	2862.48
370.86	3351.65
371.06	3784.65
371.25	3861.88
371.45	3349.31
371.65	3035.67
371.84	2930.35
372.04	3019.29
372.24	3398.46
372.44	3555.27
372.63	3585.70
372.83	3192.49
373.03	2930.35
373.22	2785.24
373.42	2801.62
373.62	3131.64
373.81	3400.80
374.01	3548.25
374.21	3251.00
374.40	3040.36
374.60	3096.53
374.79	3492.08
374.99	4107.64
375.19	4229.35
375.38	4285.52
375.58	3915.72
375.78	4009.34
375.97	4014.02
376.17	4269.14
376.37	4149.77
376.56	4332.33
376.76	4746.61
376.95	4912.78
377.15	5165.56
377.35	5350.46
377.54	5706.23
377.74	5886.45
377.93	5703.89
378.13	5785.80
378.33	5434.72
378.52	4898.74
378.72	4697.46
378.91	4779.37
379.11	4688.09
379.31	4468.08
379.50	4369.78
379.70	4755.97
379.89	5359.83
380.09	5369.19
380.28	5626.65
380.48	5694.52
380.68	5551.75
380.87	5376.21
381.07	5083.64
381.26	4650.64
381.46	4205.94
381.65	4234.03
381.85	4145.09
382.04	3899.33
382.24	3761.24
382.43	3496.76
382.63	3311.86
382.83	3431.23
383.02	3456.97
383.22	3595.06
383.41	3398.46
383.61	3658.26
383.80	4353.40
384.00	4746.61
384.19	5404.30
384.39	5628.99
384.58	5671.12
384.78	5432.38
384.97	5549.41
385.17	5224.08
385.36	4912.78
385.56	4798.10
385.75	4861.29
385.95	5430.04
386.14	5764.74
386.34	5673.46
386.53	5598.56
386.72	5177.26
386.92	5256.84
387.11	5481.53
387.31	5888.79
387.50	5919.21
387.70	5518.98
387.89	5397.28
388.09	5528.35
388.28	5603.24
388.48	5636.01
388.67	6047.94
388.86	6546.48
389.06	7192.47
389.25	7485.03
389.45	7590.36
389.64	7592.70
389.84	7501.42
390.03	7583.34
390.22	7283.75
390.42	7679.30
390.61	8250.39
390.81	8622.53
391.00	8957.23
391.19	8730.20
391.39	8461.04
391.58	8173.15
391.78	7433.54
391.97	7314.17
392.16	6677.55
392.36	6312.42
392.55	4903.42
392.75	4025.72
392.94	3150.36
393.13	3038.02
393.33	3578.68
393.52	4908.10
393.71	5802.19
393.91	6602.65
394.10	7126.93
394.29	7936.76
394.49	8510.19
394.68	9153.84
394.88	9298.95
395.07	9579.81
395.26	9495.55
395.46	9205.33
395.65	8814.46
395.84	7606.74
396.04	6513.71
396.23	5341.10
396.42	4470.42
396.62	4252.75
396.81	4954.91
397.00	6230.51
397.19	7726.11
397.39	9289.59
397.58	10424.75
397.77	10953.71
397.97	11344.58
398.16	11934.39
398.35	12126.32
398.55	12594.42
398.74	13193.60
398.93	13469.78
399.12	12912.74
399.32	12400.16
399.51	12561.66
399.70	13898.10
399.90	13689.79
400.09	13561.06
400.28	13635.96
400.47	13614.90
400.67	14066.62
400.86	14569.83
401.05	14663.46
401.24	14792.19
401.44	14965.39
401.63	14965.39
401.82	15176.03
402.01	15248.59
402.21	15316.47
402.40	15412.43
402.59	14787.50
402.78	14256.20
402.97	13687.45
403.17	14148.54
403.36	14937.30
403.55	16044.37
403.74	16154.38
403.93	15115.18
404.13	13998.74
404.32	13839.59
404.51	14361.53
404.70	15456.90
404.89	15351.57
405.09	15201.78
405.28	14939.64
405.47	14949.00
405.66	14965.39
405.85	14490.26
406.05	14232.80
406.24	14342.80
406.43	14750.06
406.62	15410.09
406.81	15609.03
407.00	14930.28
407.20	14590.90
407.39	14923.26
407.58	15571.58
407.77	16224.59
407.96	16631.85
408.15	16917.39
408.34	16812.07
408.54	17596.15
408.73	17666.36
408.92	17444.01
409.11	17060.16
409.30	16318.22
409.49	15019.22
409.68	14204.71
409.87	13717.88
410.07	14644.73
410.26	15737.76
410.45	16578.01
410.64	17385.50
410.83	17645.30
411.02	18225.75
411.21	18721.95
411.40	18733.65
411.59	18890.46
411.78	18373.21
411.98	18288.95
412.17	18796.84
412.36	18412.99
412.55	18090.00
412.74	17832.54
412.93	17355.07
413.12	17851.27
413.31	19208.78
413.50	19843.06
413.69	19803.27
413.88	19302.40
414.07	18441.08
414.26	18963.02
414.45	19587.94
414.64	19833.70
414.83	19777.53
415.02	19262.61
415.22	19159.63
415.41	19688.59
415.60	20236.27
415.79	21205.25
415.98	21256.75
416.17	21579.74
416.36	21537.61
416.55	20585.01
416.74	19948.39
416.93	19494.32
417.12	19538.79
417.31	19719.01
417.50	19861.79
417.69	20854.17
417.88	20437.56
418.07	20353.30
418.26	20327.55
418.45	20407.13
418.64	21130.36
418.83	21977.63
419.02	21624.21
419.21	21551.65
419.39	20547.56
419.58	19391.34
419.77	19337.51
419.96	20229.25
420.15	21493.14
420.34	21855.92
420.53	22530.00
420.72	23491.96
420.91	22841.29
421.10	22911.50
421.29	22640.00
421.48	21759.96
421.67	23281.31
421.86	22384.88
422.05	20985.24
422.24	18668.11
422.43	18593.22
422.61	20414.15
422.80	21893.37
422.99	22295.94
423.18	21315.26
423.37	20666.93
423.56	21174.83
423.75	21120.99
423.94	21741.24
424.13	20276.06
424.32	20622.46
424.50	20800.34
424.69	20886.94
424.88	20753.53
425.07	20699.70
425.26	20512.46
425.45	20240.95
425.64	20077.12
425.83	19906.26
426.01	21151.42
426.20	21834.86
426.39	21390.16
426.58	20163.72
426.77	18609.60
426.96	17570.40
427.15	18530.02
427.33	20130.95
427.52	20690.34
427.71	20994.61
427.90	20596.71
428.09	20762.89
428.28	20189.46
428.46	19286.01
428.65	19110.47
428.84	19613.69
429.03	20072.43
429.22	18792.16
429.40	18125.11
429.59	16093.52
429.78	14326.42
429.97	14244.50
430.16	14614.30
430.34	14829.63
430.53	14726.65
430.72	15129.22
430.91	16404.81
431.10	19325.80
431.28	22888.10
431.47	24755.85
431.66	24865.85
431.85	22927.89
432.03	21137.38
432.22	19639.44
432.41	20802.68
432.60	23255.56
432.79	24266.67
432.97	24634.14
433.16	24133.26
433.35	21900.39
433.54	19777.53
433.72	18590.88
433.91	19159.63
434.10	21315.26
434.28	22953.63
434.47	24304.12
434.66	23854.74
434.85	23124.49
435.03	23197.05
435.22	23637.07
435.41	25420.56
435.59	25151.40
435.78	25322.26
435.97	26026.76
436.16	26160.17
436.34	25631.21
436.53	25371.41
436.72	25273.10
436.90	24065.39
437.09	23784.52
437.28	23498.98
437.46	24140.29
437.65	24123.90
437.84	23087.04
438.02	20723.10
438.21	20636.50
438.40	21671.02
438.58	23470.89
438.77	24484.34
438.96	24528.81
439.14	25280.13
439.33	26045.48
439.52	26534.65
439.70	26167.19
439.89	25106.93
440.08	24929.05
440.26	24592.01
440.45	25678.02
440.63	27175.96
440.82	28327.50
441.01	28212.82
441.19	28212.82
441.38	28379.00
441.57	29462.66
441.75	29965.88
441.94	30251.42
442.12	30033.75
442.31	30457.39
442.50	30319.30
442.68	30160.14
442.87	29525.86
443.05	29008.60
443.24	29273.08
443.43	30192.91
443.61	30740.60
443.80	31220.41
443.98	29247.33
444.17	29633.52
444.35	31054.23
444.54	31917.89
444.73	31564.46
444.91	29895.66
445.10	28900.94
445.28	27674.49
445.47	26904.46
445.65	27314.05
445.84	28346.23
446.02	29296.49
446.21	29146.69
446.39	29788.00
446.58	29963.54
446.77	30284.19
446.95	30422.28
447.14	31651.06
447.32	32170.66
447.51	31065.93
447.69	30213.98
447.88	29785.66
448.06	30408.24
448.25	31264.88
448.43	31419.35
448.62	30338.02
448.80	30656.34
448.99	30572.08
449.17	31091.68
449.36	30752.30
449.54	32105.13
449.73	32479.61
449.91	32744.09
450.10	34185.86
450.28	34195.23
450.46	33694.35
450.65	33975.22
450.83	33563.28
451.02	33137.30
451.20	32669.20
451.39	33394.76
451.57	32760.48
451.76	32713.67
451.94	32306.41
452.13	32004.49
452.31	30536.97
452.49	29242.65
452.68	29336.27
452.86	29710.76
453.05	30141.42
453.23	30527.61
453.42	31278.92
453.60	32507.70
453.78	32374.29
453.97	32077.04
454.15	32350.88
454.34	31564.46
454.52	31824.26
454.70	31157.21
454.89	31292.96
455.07	31330.41
455.26	32116.83
455.44	33170.07
455.62	33652.22
455.81	34122.67
455.99	33638.18
456.17	33036.66
456.36	33464.98
456.54	34476.09
456.73	34433.96
456.91	34789.72
457.09	34909.09
457.28	35690.83
457.46	34256.08
457.64	34136.71
457.83	33034.32
458.01	32390.67
458.19	33207.52
458.38	33319.87
458.56	34660.99
458.74	34466.73
458.93	33862.87
459.11	33376.04
459.29	33207.52
459.48	33776.27
459.66	33476.68
459.84	33670.95
460.03	34597.80
460.21	34089.90
460.39	34972.28
460.57	35040.16
460.76	35700.19
460.94	35365.49
461.12	34948.88
461.31	35407.62
461.49	35274.21
461.67	34906.75
461.85	36060.63
462.04	35948.29
462.22	36254.90
462.40	35859.35
462.59	35842.96
462.77	36191.70
462.95	36006.80
463.13	35721.26
463.32	35269.53
463.50	35534.01
463.68	35290.60
463.86	35110.38
464.05	34548.65
464.23	33654.56
464.41	34160.12
464.59	33434.55
464.78	34452.69
464.96	34855.26
465.14	34424.60
465.32	35531.67
465.50	36062.97
465.69	36594.28
465.87	35344.43
466.05	34703.12
466.23	33146.67
466.41	32596.64
466.60	33509.45
466.78	34024.37
466.96	34136.71
467.14	34373.11
467.32	34873.98
467.51	35756.36
467.69	33221.56
467.87	34469.07
468.05	35337.41
468.23	34852.92
468.41	35185.27
468.60	34993.35
468.78	35454.44
468.96	34934.84
469.14	35655.72
469.32	35770.41
469.50	34253.74
469.69	34352.04
469.87	33926.07
470.05	33692.01
470.23	33701.37
470.41	33986.92
470.59	34478.43
470.77	34623.54
470.95	35686.15
471.14	35637.00
471.32	35555.08
471.50	37404.10
471.68	37780.93
471.86	38043.07
472.04	38164.78
472.22	38298.19
472.40	36680.88
472.58	35840.62
472.77	35875.73
472.95	36254.90
473.13	37333.89
473.31	36676.19
473.49	36671.51
473.67	37769.22
473.85	37668.58
474.03	38696.08
474.21	38745.23
474.39	38862.26
474.57	39299.94
474.75	39398.24
474.93	38873.96
475.12	38092.22
475.30	38162.43
475.48	38202.22
475.66	38866.94
475.84	38398.83
476.02	38206.90
476.20	37581.98
476.38	38230.31
476.56	39234.40
476.74	39945.92
476.92	40238.49
477.10	40713.62
477.28	41858.14
477.46	41982.19
477.64	42527.53
477.82	42284.12
478.00	42705.41
478.18	41998.57
478.36	42340.29
478.54	41743.45
478.72	42197.52
478.90	43222.67
479.08	43887.39
479.26	45029.57
479.44	44725.30
479.62	43943.56
479.80	44231.44
479.98	44645.72
480.16	44549.76
480.34	44219.74
480.52	44687.85
480.70	44755.72
480.88	44837.64
481.06	45675.55
481.24	45944.72
481.41	46841.14
481.59	47145.41
481.77	47107.96
481.95	46436.23
482.13	46513.47
482.31	46490.06
482.49	46902.00
482.67	47065.83
482.85	47084.56
483.03	47723.52
483.21	48334.40
483.39	48112.05
483.57	47320.95
483.74	47327.97
483.92	47428.62
484.10	47587.77
484.28	48357.81
484.46	49223.81
484.64	49507.01
484.82	48568.46
485.00	47742.25
485.18	47510.53
485.35	46129.62
485.53	43098.62
485.71	39758.68
485.89	38733.53
486.07	40346.15
486.25	43725.89
486.43	46632.83
486.61	46902.00
486.78	46904.34
486.96	47023.70
487.14	49392.33
487.32	49645.10
487.50	50693.66
487.68	51454.34
487.85	51896.70
488.03	51856.91
488.21	51749.24
488.39	50855.16
488.57	50293.43
488.75	49701.28
488.92	50658.56
489.10	53050.58
489.28	54178.72
489.46	54892.58
489.64	54747.47
489.81	54883.22
489.99	54288.73
490.17	54415.11
490.35	54639.81
490.53	54658.53
490.70	54284.04
490.88	53829.98
491.06	54958.12
491.24	55002.59
491.41	53848.71
491.59	52495.88
491.77	51917.76
491.95	52825.89
492.13	53989.14
492.30	54976.84
492.48	55716.45
492.66	56378.82
492.84	56250.09
493.01	55955.19
493.19	55498.78
493.37	55386.44
493.54	54822.37
493.72	55550.27
493.90	56729.90
494.08	57265.89
494.25	57565.48
494.43	57549.09
494.61	58127.20
494.79	57954.00
494.96	57729.31
495.14	57338.44
495.32	56610.54
495.49	56100.30
495.67	56935.87
495.85	58309.77
496.02	58272.32
496.20	58347.21
496.38	57881.45
496.55	57743.36
496.73	58316.79
496.91	58316.79
497.09	58878.52
497.26	59082.14
497.44	58658.51
497.62	58042.95
497.79	57329.08
497.97	56271.16
498.14	56303.93
498.32	57392.28
498.50	58192.74
498.67	58684.25
498.85	58780.21
499.03	58969.80
499.20	58948.73
499.38	59084.48
499.56	58894.90
499.73	58340.19
499.91	58103.80
500.08	57673.14
500.26	56914.81
500.44	57048.22
500.61	58110.82
500.79	57834.64
500.97	57439.09
501.14	57305.68
501.32	57076.30
501.49	57279.93
501.67	57680.16
501.84	58056.99
502.02	58237.21
502.20	58670.21
502.37	58810.64
502.55	58529.78
502.72	59234.28
502.90	59632.17
503.07	59348.96
503.25	59009.59
503.43	58384.66
503.60	57638.03
503.78	57083.33
503.95	57528.03
504.13	58707.66
504.30	59489.40
504.48	59269.39
504.65	58897.24
504.83	58906.60
505.01	59583.02
505.18	59870.90
505.36	60479.44
505.53	60441.99
505.71	60610.51
505.88	60734.56
506.06	60079.21
506.23	59978.57
506.41	59370.03
506.58	59725.79
506.76	59824.09
506.93	59723.45
507.11	59299.81
507.28	59517.48
507.46	59161.72
507.63	58604.67
507.81	58422.11
507.98	58700.64
508.16	59260.02
508.33	59842.82
508.50	60001.97
508.68	60537.96
508.85	60795.42
509.03	60774.35
509.20	60701.79
509.38	60069.85
509.55	59157.04
509.73	59545.57
509.90	59868.56
510.08	59976.23
510.25	59973.89
510.42	60090.91
510.60	59945.80
510.77	60182.19
510.95	60425.61
511.12	60769.67
511.30	61066.92
511.47	61272.88
511.64	61095.00
511.82	61008.40
511.99	60018.36
512.17	59896.65
512.34	59381.73
512.51	59571.32
512.69	59613.44
512.86	59714.09
513.04	60381.14
513.21	60254.75
513.38	59732.81
513.56	59458.97
513.73	58740.42
513.90	59000.22
514.08	59182.79
514.25	59510.46
514.43	59690.68
514.60	59723.45
514.77	59810.05
514.95	60072.19
515.12	59863.88
515.29	60165.81
515.47	60617.53
515.64	60882.02
515.81	60306.24
515.99	59805.37
516.16	58422.11
516.33	56404.57
516.51	54946.42
516.68	54419.80
516.85	53904.88
517.03	54255.96
517.20	56851.61
517.37	58930.01
517.54	60032.40
517.72	59482.37
517.89	57371.21
518.06	55180.47
518.24	55084.51
518.41	57233.12
518.58	58791.92
518.75	59021.29
518.93	59178.10
519.10	58871.49
519.27	59173.42
519.45	59618.13
519.62	60161.13
519.79	60495.83
519.96	60341.35
520.14	59798.35
520.31	59049.38
520.48	59217.89
520.65	59384.07
520.83	60285.18
521.00	60781.37
521.17	60357.74
521.34	59927.08
521.52	60090.91
521.69	60505.19
521.86	61366.51
522.03	60779.03
522.20	59908.35
522.38	58915.96
522.55	58836.39
522.72	59264.70
522.89	59510.46
523.07	59690.68
523.24	59920.05
523.41	60610.51
523.58	61015.43
523.75	61408.64
523.92	61399.27
524.10	61244.80
524.27	61434.38
524.44	61080.96
524.61	60903.08
524.78	61045.85
524.96	60631.58
525.13	60734.56
525.30	61022.45
525.47	61338.42
525.64	61193.31
525.81	60837.54
525.98	59283.43
526.16	57836.98
526.33	57186.31
526.50	56959.28
526.67	56769.69
526.84	57169.93
527.01	58274.66
527.18	58958.09
527.36	59842.82
527.53	60559.02
527.70	60900.74
527.87	60594.13
528.04	59948.14
528.21	60317.95
528.38	60959.25
528.55	61553.75
528.72	61757.38
528.89	61869.72
529.07	61492.89
529.24	61043.51
529.41	60568.38
529.58	59917.71
529.75	59906.01
529.92	60399.86
530.09	60956.91
530.26	61237.78
530.43	61549.07
530.60	61490.55
530.77	61666.09
530.94	61876.74
531.11	61462.47
531.28	61083.30
531.46	60779.03
531.63	61172.24
531.80	60980.32
531.97	60399.86
532.14	59910.69
532.31	58873.84
532.48	58436.16
532.65	58429.13
532.82	59269.39
532.99	60086.23
533.16	60430.29
533.33	61073.94
533.50	60811.80
533.67	60191.56
533.84	59678.98
534.01	60086.23
534.18	60317.95
534.35	60488.80
534.52	60303.90
534.69	60573.06
534.86	60863.29
535.03	61038.83
535.20	61268.20
535.37	61815.89
535.54	61834.61
535.71	61488.21
535.88	61432.04
536.05	60788.39
536.22	60186.88
536.38	60037.08
536.55	59503.44
536.72	59084.48
536.89	58958.09
537.06	59765.58
537.23	60647.96
537.40	60570.72
537.57	60956.91
537.74	60570.72
537.91	60495.83
538.08	60348.37
538.25	60322.63
538.42	60800.10
538.59	60465.40
538.75	60088.57
538.92	59735.15
539.09	59788.98
539.26	59334.92
539.43	59344.28
539.60	59260.02
539.77	59489.40
539.94	59496.42
540.11	58653.82
540.28	57902.51
540.44	58188.06
540.61	58426.79
540.78	58663.19
540.95	59313.86
541.12	59561.95
541.29	59894.31
541.46	59955.16
541.62	60207.94
541.79	60081.55
541.96	59482.37
542.13	59346.62
542.30	59587.70
542.47	59742.17
542.63	59643.87
542.80	59276.41
542.97	59585.36
543.14	59505.78
543.31	59487.06
543.48	59983.25
543.64	60786.05
543.81	61024.79
543.98	60685.41
544.15	60147.09
544.32	59728.13
544.48	59686.00
544.65	60006.65
544.82	60402.21
544.99	59959.84
545.16	59868.56
545.32	59456.63
545.49	60074.53
545.66	60404.55
545.83	60243.05
546.00	60088.57
546.16	59634.51
546.33	59620.47
546.50	59629.83
546.67	60102.62
546.83	59803.03
547.00	59629.83
547.17	59084.48
547.34	58569.57
547.50	58710.00
547.67	58883.20
547.84	59021.29
548.00	59519.82
548.17	59863.88
548.34	59739.83
548.51	59442.59
548.67	59627.49
548.84	59725.79
549.01	59746.86
549.18	59618.13
549.34	59758.56
549.51	59571.32
549.68	59491.74
549.84	59297.47
550.01	59159.38
550.18	59054.06
550.34	59271.73
550.51	59391.09
550.68	59348.96
550.84	59065.76
551.01	58887.88
551.18	58944.05
551.34	59091.51
551.51	59430.88
551.68	59615.79
551.84	59826.43
552.01	59686.00
552.18	59559.61
552.34	58728.72
552.51	58457.22
552.68	58150.61
552.84	58798.94
553.01	59028.31
553.18	58915.96
553.34	58918.31
553.51	59079.80
553.67	59274.07
553.84	59508.12
554.01	59285.77
554.17	59086.82
554.34	59009.59
554.51	59367.69
554.67	59833.46
554.84	59402.80
555.00	59330.24
555.17	58993.20
555.33	58871.49
555.50	58906.60
555.67	58871.49
555.83	58738.08
556.00	58478.28
556.16	58284.02
556.33	58035.92
556.50	57921.24
556.66	58096.78
556.83	57860.38
556.99	57977.41
557.16	58080.39
557.32	58244.23
557.49	58602.33
557.65	58422.11
557.82	58351.90
557.98	58174.02
558.15	58040.60
558.32	57073.96
558.48	56509.89
558.65	56392.87
558.81	56868.00
558.98	57104.39
559.14	57380.57
559.31	57256.53
559.47	57729.31
559.64	57038.86
559.80	56797.78
559.97	56947.57
560.13	57286.95
560.30	57916.56
560.46	58567.23
560.63	58775.53
560.79	58927.67
560.96	58642.12
561.12	57366.53
561.29	56425.64
561.45	56647.99
561.61	57104.39
561.78	57584.20
561.94	57427.38
562.11	57312.70
562.27	57038.86
562.44	57406.32
562.60	57701.23
562.77	58012.52
562.93	57925.92
563.10	57904.85
563.26	57226.10
563.42	57134.82
563.59	57174.61
563.75	57090.35
563.92	57123.11
564.08	57078.64
564.24	57331.42
564.41	57453.13
564.57	57275.25
564.74	57331.42
564.90	57169.93
565.07	56898.42
565.23	56647.99
565.39	56184.56
565.56	55957.53
565.72	55545.59
565.88	56060.51
566.05	55957.53
566.21	56186.90
566.38	56413.93
566.54	56523.94
566.70	57052.90
566.87	57059.92
567.03	57165.24
567.19	57134.82
567.36	56938.21
567.52	56605.86
567.68	56622.24
567.85	55980.93
568.01	55669.64
568.17	55515.17
568.34	55416.86
568.50	55260.05
568.66	55086.85
568.83	55604.11
568.99	55810.07
569.15	56278.18
569.32	56009.02
569.48	55739.86
569.64	55828.80
569.81	55384.10
569.97	55386.44
570.13	55363.03
570.30	55023.65
570.46	54459.58
570.62	53769.13
570.78	53418.05
570.95	54071.06
571.11	54656.19
571.27	54827.05
571.43	55107.91
571.60	55468.36
571.76	55330.26
571.92	56058.17
572.09	56086.26
572.25	56023.06
572.41	55842.84
572.57	55697.73
572.74	55693.05
572.90	55505.80
573.06	55332.60
573.22	55510.49
573.38	55337.29
573.55	55505.80
573.71	55756.24
573.87	55267.07
574.03	55250.69
574.20	55255.37
574.36	54855.14
574.52	55133.66
574.68	54930.03
574.84	54452.56
575.01	54143.61
575.17	53820.62
575.33	54003.18
575.49	54365.96
575.65	54485.33
575.82	54270.00
575.98	54082.76
576.14	54574.27
576.30	54480.65
576.46	54642.15
576.62	54564.91
576.79	54646.83
576.95	54038.29
577.11	54087.44
577.27	54110.85
577.43	54447.88
577.59	53776.15
577.75	53703.59
577.92	53104.41
578.08	52877.38
578.24	52746.31
578.40	53158.25
578.56	53785.51
578.72	53481.24
578.88	53815.94
579.04	53818.28
579.21	53722.32
579.37	53888.49
579.53	54197.44
579.69	53996.16
579.85	54232.55
580.01	54246.60
580.17	53476.56
580.33	53455.50
580.49	53715.29
580.65	53741.04
580.82	53748.06
580.98	53722.32
581.14	53822.96
581.30	53982.12
581.46	53684.87
581.62	53879.13
581.78	54005.52
581.94	54038.29
582.10	54396.39
582.26	54213.83
582.42	54127.23
582.58	54089.78
582.74	54010.20
582.90	54066.38
583.06	54270.00
583.22	53921.26
583.38	53783.17
583.54	53766.79
583.70	53710.61
583.86	53808.92
584.02	53549.12
584.18	53792.53
584.34	53705.93
584.50	53488.26
584.66	53546.78
584.82	53289.32
584.98	53088.03
585.14	52774.40
585.30	51870.95
