SpectraSuite Data File
++++++++++++++++++++++++++++++++++++
Date: Mon Oct 07 14:54:03 GMT-05:00 2013
User: price-jones
Dark Spectrum Present: No
Reference Spectrum Present: No
Number of Sampled Component Spectra: 1
Spectrometers: USB2+H05261
Integration Time (usec): 100000 (USB2+H05261)
Spectra Averaged: 1 (USB2+H05261)
Boxcar Smoothing: 0 (USB2+H05261)
Correct for Electrical Dark: No (USB2+H05261)
Strobe/Lamp Enabled: No (USB2+H05261)
Correct for Detector Non-linearity: No (USB2+H05261)
Correct for Stray Light: No (USB2+H05261)
Number of Pixels in Processed Spectrum: 2048
>>>>>Begin Processed Spectral Data<<<<<
365.73	0.00
365.92	0.00
366.12	0.00
366.32	0.00
366.52	0.00
366.72	0.00
366.91	0.00
367.11	0.00
367.31	0.00
367.51	0.00
367.70	0.00
367.90	0.00
368.10	0.00
368.30	0.00
368.49	0.00
368.69	0.00
368.89	0.00
369.09	0.00
369.28	0.00
369.48	0.00
369.68	0.00
369.87	0.00
370.07	0.00
370.27	0.00
370.47	704.50
370.66	3276.75
370.86	3922.74
371.06	4348.72
371.25	4210.62
371.45	3878.27
371.65	3375.05
371.84	3159.72
372.04	3471.01
372.24	3822.09
372.44	4065.51
372.63	3997.64
372.83	3744.86
373.03	3229.94
373.22	2967.80
373.42	3150.36
373.62	3679.32
373.81	3978.91
374.01	3946.14
374.21	3538.89
374.40	3290.79
374.60	3449.95
374.79	3875.93
374.99	4475.10
375.19	4816.82
375.38	4767.67
375.58	4547.66
375.78	4421.27
375.97	4454.04
376.17	4840.23
376.37	4791.08
376.56	4880.02
376.76	5036.83
376.95	5348.12
377.15	5703.89
377.35	6090.07
377.54	6265.61
377.74	6483.28
377.93	6619.04
378.13	6366.26
378.33	6031.56
378.52	5605.58
378.72	5310.68
378.91	5193.65
379.11	5090.67
379.31	4887.04
379.50	4865.97
379.70	5282.59
379.89	5823.25
380.09	6181.35
380.28	6244.55
380.48	6319.45
380.68	6319.45
380.87	5891.13
381.07	5647.71
381.26	5289.61
381.46	4940.87
381.65	4622.56
381.85	4559.36
382.04	4498.51
382.24	4114.66
382.43	3829.12
382.63	3880.61
382.83	3674.64
383.02	3845.50
383.22	3896.99
383.41	3990.61
383.61	4140.41
383.80	4667.03
384.00	5390.25
384.19	5827.93
384.39	6179.01
384.58	6279.66
384.78	6218.80
384.97	6069.01
385.17	5710.91
385.36	5355.15
385.56	5224.08
385.75	5425.36
385.95	5919.21
386.14	6537.12
386.34	6450.52
386.53	6169.65
386.72	5849.00
386.92	5863.04
387.11	6253.91
387.31	6443.49
387.50	6333.49
387.70	6146.25
387.89	5973.05
388.09	6076.03
388.28	5923.90
388.48	6146.25
388.67	6635.42
388.86	7321.20
389.06	7737.81
389.25	8168.47
389.45	8341.67
389.64	8210.60
389.84	8194.22
390.03	8173.15
390.22	8262.09
390.42	8383.80
390.61	9130.43
390.81	9479.17
391.00	9650.03
391.19	9341.08
391.39	9256.82
391.58	8688.07
391.78	8315.92
391.97	7999.95
392.16	7566.95
392.36	7056.72
392.55	5715.59
392.75	4278.50
392.94	3499.10
393.13	3466.33
393.33	4161.47
393.52	5425.36
393.71	6438.81
393.91	7234.60
394.10	7812.71
394.29	8634.24
394.49	9441.72
394.68	10286.65
394.88	10186.01
395.07	10291.34
395.26	10291.34
395.46	10253.89
395.65	9689.82
395.84	8428.27
396.04	7091.82
396.23	5596.22
396.42	4865.97
396.62	4578.09
396.81	5404.30
397.00	6548.82
397.19	8519.55
397.39	10218.78
397.58	11417.13
397.77	12004.61
397.97	12559.31
398.16	12688.04
398.35	12947.84
398.55	13713.20
398.74	14193.01
398.93	14384.93
399.12	14031.51
399.32	13575.11
399.51	13968.32
399.70	14878.79
399.90	14684.52
400.09	14782.82
400.28	14780.48
400.47	14757.08
400.67	15606.69
400.86	16039.69
401.05	15971.82
401.24	16166.08
401.44	16109.91
401.63	16135.65
401.82	16491.41
402.01	16198.85
402.21	16233.96
402.40	16713.77
402.59	16032.67
402.78	15335.19
402.97	14965.39
403.17	15410.09
403.36	16114.59
403.55	16985.27
403.74	17338.69
403.93	16397.79
404.13	15246.25
404.32	14752.40
404.51	15578.61
404.70	16945.48
404.89	16786.32
405.09	16608.44
405.28	16182.46
405.47	16093.52
405.66	16077.14
405.85	15882.88
406.05	15068.37
406.24	15283.70
406.43	15782.23
406.62	16699.72
406.81	16741.85
407.00	15861.81
407.20	15719.04
407.39	15826.70
407.58	16776.96
407.77	17116.34
407.96	17621.89
408.15	17846.58
408.34	18157.88
408.54	18824.93
408.73	19117.50
408.92	18806.20
409.11	17956.59
409.30	17310.60
409.49	16236.30
409.68	15117.52
409.87	14663.46
410.07	15702.65
410.26	16849.52
410.45	17937.87
410.64	18148.51
410.83	18747.69
411.02	19426.45
411.21	20084.14
411.40	20058.39
411.59	20016.26
411.78	19695.61
411.98	19583.26
412.17	20388.41
412.36	19417.08
412.55	19513.05
412.74	19122.18
412.93	18733.65
413.12	19007.49
413.31	20812.04
413.50	21238.02
413.69	21359.73
413.88	20294.79
414.07	19941.36
414.26	20414.15
414.45	20746.51
414.64	20844.81
414.83	20985.24
415.02	20524.16
415.22	20159.03
415.41	20767.57
415.60	21551.65
415.79	22415.31
415.98	23019.17
416.17	22862.35
416.36	22670.43
416.55	22136.79
416.74	21312.92
416.93	20589.69
417.12	20535.86
417.31	20908.01
417.50	21273.13
417.69	21926.14
417.88	21916.78
418.07	21462.71
418.26	21745.92
418.45	21603.14
418.64	22403.61
418.83	22869.37
419.02	22759.37
419.21	22560.42
419.39	21369.09
419.58	20776.94
419.77	20872.90
419.96	21521.23
420.15	22434.03
420.34	23417.06
420.53	24278.38
420.72	24584.99
420.91	24367.32
421.10	24100.50
421.29	23845.38
421.48	23393.65
421.67	24369.66
421.86	23779.84
422.05	22001.04
422.24	19737.74
422.43	19550.49
422.61	21451.01
422.80	23091.73
422.99	23119.81
423.18	22380.20
423.37	22197.64
423.56	21926.14
423.75	22724.26
423.94	23016.83
424.13	21722.51
424.32	21689.74
424.50	21846.56
424.69	21617.19
424.88	21809.11
425.07	21624.21
425.26	21633.57
425.45	21252.06
425.64	20739.49
425.83	20823.75
426.01	22391.91
426.20	22988.74
426.39	22686.81
426.58	21113.97
426.77	19353.89
426.96	18520.66
427.15	19339.85
427.33	21078.86
427.52	21905.07
427.71	21846.56
427.90	21549.31
428.09	21638.25
428.28	21083.55
428.46	20177.76
428.65	20091.16
428.84	20306.49
429.03	20788.64
429.22	20128.61
429.40	18752.37
429.59	16940.80
429.78	14923.26
429.97	15267.31
430.16	15091.77
430.34	15286.04
430.53	15295.40
430.72	15470.94
430.91	17291.88
431.10	20107.54
431.28	23976.45
431.47	25923.77
431.66	26277.19
431.85	23740.05
432.03	21823.16
432.22	20938.43
432.41	22019.76
432.60	24121.56
432.79	25202.89
432.97	25734.19
433.16	25399.49
433.35	22871.72
433.54	20582.67
433.72	19412.40
433.91	20032.65
434.10	22319.35
434.28	23990.49
434.47	25305.87
434.66	24870.53
434.85	24191.78
435.03	23501.32
435.22	24889.26
435.41	26082.93
435.59	26012.71
435.78	26513.59
435.97	26789.77
436.16	27199.37
436.34	27047.23
436.53	25986.97
436.72	26483.16
436.90	24900.96
437.09	24907.98
437.28	24678.61
437.46	25476.73
437.65	25490.77
437.84	23569.19
438.02	21497.82
438.21	21731.87
438.40	22710.22
438.58	24325.19
438.77	25326.94
438.96	25731.85
439.14	26593.17
439.33	27180.64
439.52	27428.74
439.70	27234.47
439.89	26302.94
440.08	25579.71
440.26	25649.93
440.45	26675.09
440.63	28318.14
440.82	29415.85
441.01	29434.58
441.19	28790.93
441.38	29364.36
441.57	30752.30
441.75	31154.87
441.94	30838.90
442.12	30654.00
442.31	31583.19
442.50	31620.64
442.68	31040.18
442.87	30569.74
443.05	29935.45
443.24	30579.10
443.43	31119.76
443.61	31461.48
443.80	32318.12
443.98	30256.11
444.17	30445.69
444.35	32058.32
444.54	32999.21
444.73	32376.63
444.91	30810.81
445.10	29619.48
445.28	28629.43
445.47	28074.73
445.65	28451.55
445.84	29034.35
446.02	29909.71
446.21	30181.21
446.39	30455.05
446.58	30871.67
446.77	31440.42
446.95	31662.77
447.14	32643.45
447.32	33099.86
447.51	32472.59
447.69	31063.59
447.88	30590.80
448.06	31152.53
448.25	31700.22
448.43	32219.81
448.62	30988.69
448.80	31164.23
448.99	31400.63
449.17	31522.34
449.36	31735.32
449.54	33139.65
449.73	33582.01
449.91	33947.13
450.10	34539.29
450.28	35068.25
450.46	34958.24
450.65	34742.91
450.83	34480.77
451.02	34012.66
451.20	33954.15
451.39	33631.16
451.57	33303.48
451.76	33607.75
451.94	33151.35
452.13	32327.48
452.31	31255.51
452.49	29799.70
452.68	29830.13
452.86	30244.40
453.05	30286.53
453.23	30998.06
453.42	32308.76
453.60	32882.19
453.78	33483.70
453.97	32566.21
454.15	33357.32
454.34	32290.03
454.52	32357.91
454.70	31765.75
454.89	31763.41
455.07	32088.74
455.26	32884.53
455.44	33820.74
455.62	34312.25
455.81	35103.35
455.99	34141.39
456.17	33937.77
456.36	34309.91
456.54	34944.20
456.73	34789.72
456.91	35742.32
457.09	35538.69
457.28	36144.89
457.46	34752.27
457.64	34939.52
457.83	33591.37
458.01	33106.88
458.19	34171.82
458.38	33958.83
458.56	34909.09
458.74	34986.33
458.93	33530.51
459.11	34307.57
459.29	33713.08
459.48	34110.97
459.66	34103.95
459.84	34312.25
460.03	34944.20
460.21	34539.29
460.39	35847.64
460.57	35676.79
460.76	36123.83
460.94	36259.58
461.12	35505.93
461.31	35842.96
461.49	35777.43
461.67	35360.81
461.85	36842.37
462.04	36219.79
462.22	36596.62
462.40	36655.13
462.59	36760.45
462.77	36774.50
462.95	36416.40
463.13	35875.73
463.32	35718.92
463.50	35702.53
463.68	35725.94
463.86	35470.82
464.05	35629.98
464.23	34314.59
464.41	34323.96
464.59	33858.19
464.78	34965.26
464.96	35157.19
465.14	35044.84
465.32	35796.15
465.50	36535.76
465.69	36837.69
465.87	35859.35
466.05	35339.75
466.23	33130.28
466.41	33092.83
466.60	34157.78
466.78	33881.60
466.96	34424.60
467.14	35129.10
467.32	35452.09
467.51	35442.73
467.69	33766.91
467.87	34574.39
468.05	34951.22
468.23	34845.90
468.41	34738.23
468.60	35304.64
468.78	35164.21
468.96	35051.86
469.14	36062.97
469.32	36013.82
469.50	34448.00
469.69	34410.56
469.87	34122.67
470.05	33806.70
470.23	34073.52
470.41	34469.07
470.59	34663.33
470.77	34417.58
470.95	35325.71
471.14	36327.45
471.32	35952.97
471.50	37691.99
471.68	38134.35
471.86	38263.08
472.04	38675.01
472.22	38550.96
472.40	36634.06
472.58	36540.44
472.77	35765.73
472.95	36521.72
473.13	37399.42
473.31	36718.32
473.49	37116.22
473.67	37167.71
473.85	37951.79
474.03	38806.08
474.21	38799.06
474.39	38892.68
474.57	39098.65
474.75	39297.59
474.93	38918.43
475.12	37961.15
475.30	38019.66
475.48	38242.01
475.66	39047.16
475.84	38330.95
476.02	38157.75
476.20	37432.19
476.38	38227.97
476.56	39597.18
476.74	39882.73
476.92	39948.26
477.10	40854.05
477.28	41743.45
477.46	41691.96
477.64	42546.26
477.82	42693.71
478.00	42436.25
478.18	41532.81
478.36	41631.11
478.54	41628.77
478.72	42333.27
478.90	43107.99
479.08	43915.47
479.26	44886.79
479.44	44364.85
479.62	44357.83
479.80	43407.58
479.98	44383.58
480.16	44685.51
480.34	44002.07
480.52	44376.56
480.70	44388.26
480.88	44940.63
481.06	45432.14
481.24	46005.57
481.41	46859.87
481.59	47161.79
481.77	47058.81
481.95	46471.34
482.13	46230.26
482.31	46326.22
482.49	47372.44
482.67	46644.54
482.85	47161.79
483.03	47629.90
483.21	48215.04
483.39	48048.86
483.57	47306.91
483.74	47232.01
483.92	47180.52
484.10	47501.17
484.28	48573.14
484.46	48821.23
484.64	49205.08
484.82	48149.50
485.00	47704.80
485.18	46855.18
485.35	45624.06
485.53	42806.06
485.71	38941.83
485.89	37991.58
486.07	40217.43
486.25	44065.27
486.43	45937.69
486.61	46791.99
486.78	46670.28
486.96	47182.86
487.14	48648.03
487.32	49303.38
487.50	50237.26
487.68	51208.58
487.85	51758.61
488.03	51585.41
488.21	51360.72
488.39	50410.46
488.57	49670.85
488.75	49666.17
488.92	50583.66
489.10	52514.60
489.28	53731.68
489.46	54791.94
489.64	54452.56
489.81	54660.87
489.99	54014.88
490.17	53834.66
490.35	54440.86
490.53	53909.56
490.70	53844.02
490.88	53616.99
491.06	54361.28
491.24	54625.76
491.41	53558.48
491.59	52046.49
491.77	51231.99
491.95	52149.48
492.13	53425.07
492.30	54417.46
492.48	55498.78
492.66	56009.02
492.84	55765.60
493.01	55817.10
493.19	55178.13
493.37	54677.25
493.54	54574.27
493.72	55098.55
493.90	56100.30
494.08	56732.25
494.25	57071.62
494.43	57102.05
494.61	57427.38
494.79	57790.17
494.96	57411.00
495.14	56849.27
495.32	55938.80
495.49	55454.31
495.67	56507.55
495.85	57738.68
496.02	58108.48
496.20	57977.41
496.38	57521.01
496.55	57371.21
496.73	57621.65
496.91	57792.51
497.09	58274.66
497.26	58702.98
497.44	58040.60
497.62	57848.68
497.79	57120.77
497.97	55721.13
498.14	55723.47
498.32	56999.07
498.50	57715.27
498.67	58213.80
498.85	57977.41
499.03	58260.62
499.20	58511.05
499.38	58590.63
499.56	58143.59
499.73	57970.39
499.91	57532.71
500.08	57193.33
500.26	56266.48
500.44	56912.47
500.61	57537.39
500.79	57478.88
500.97	57024.81
501.14	56844.59
501.32	56617.56
501.49	56626.92
501.67	57104.39
501.84	57553.77
502.02	57677.82
502.20	58143.59
502.37	58333.17
502.55	58073.37
502.72	58761.49
502.90	59068.10
503.07	58937.03
503.25	58389.34
503.43	57649.74
503.60	56954.60
503.78	56126.05
503.95	56692.46
504.13	57946.98
504.30	58920.65
504.48	58775.53
504.65	58443.18
504.83	58422.11
505.01	58967.46
505.18	59199.17
505.36	59707.07
505.53	59973.89
505.71	60151.77
505.88	60062.83
506.06	59550.25
506.23	59227.26
506.41	58700.64
506.58	59061.08
506.76	59028.31
506.93	59072.78
507.11	58941.71
507.28	58958.09
507.46	58555.52
507.63	57726.97
507.81	57773.78
507.98	57865.06
508.16	58702.98
508.33	59065.76
508.50	59318.54
508.68	59669.62
508.85	60224.32
509.03	60320.29
509.20	60198.58
509.38	59213.21
509.55	58632.76
509.73	58597.65
509.90	59234.28
510.08	59587.70
510.25	59370.03
510.42	59098.53
510.60	59126.61
510.77	59306.83
510.95	59910.69
511.12	59943.46
511.30	60360.08
511.47	60437.31
511.64	60528.59
511.82	60172.83
511.99	59442.59
512.17	58913.62
512.34	58550.84
512.51	58834.05
512.69	58850.43
512.86	58937.03
513.04	59416.84
513.21	59576.00
513.38	59100.87
513.56	58632.76
513.73	57993.79
513.90	58269.98
514.08	58281.68
514.25	58691.27
514.43	58686.59
514.60	58787.24
514.77	59058.74
514.95	59009.59
515.12	58995.54
515.29	59363.01
515.47	59639.19
515.64	59814.73
515.81	59327.90
515.99	58932.35
516.16	57652.08
516.33	55288.13
516.51	53914.24
516.68	53310.38
516.85	52786.10
517.03	53233.14
517.20	55763.26
517.37	58216.14
517.54	59180.45
517.72	58452.54
517.89	56252.44
518.06	53900.20
518.24	54024.25
518.41	56566.07
518.58	57869.75
518.75	57916.56
518.93	57951.66
519.10	58061.67
519.27	58372.96
519.45	58597.65
519.62	59353.65
519.79	59653.23
519.96	59395.77
520.14	59037.67
520.31	58134.23
520.48	58075.71
520.65	58450.20
520.83	59245.98
521.00	59992.61
521.17	59428.54
521.34	58941.71
521.52	59313.86
521.69	59634.51
521.86	60268.79
522.03	59845.16
522.20	58768.51
522.38	57680.16
522.55	57839.32
522.72	58262.96
522.89	58602.33
523.07	58625.74
523.24	58983.84
523.41	59751.54
523.58	60154.11
523.75	60676.05
523.92	60425.61
524.10	60353.05
524.27	60243.05
524.44	60074.53
524.61	59915.37
524.78	59512.80
524.96	59643.87
525.13	59803.03
525.30	59913.03
525.47	60507.53
525.64	60392.84
525.81	59683.66
525.98	58181.04
526.16	56872.68
526.33	56390.53
526.50	56193.92
526.67	55356.01
526.84	56081.58
527.01	57034.17
527.18	57745.70
527.36	58712.34
527.53	59477.69
527.70	59859.20
527.87	59337.26
528.04	58894.90
528.21	59384.07
528.38	59880.27
528.55	60360.08
528.72	60493.49
528.89	60828.18
529.07	60537.96
529.24	59985.59
529.41	59339.60
529.58	58611.70
529.75	58866.81
529.92	59309.18
530.09	59639.19
530.26	60477.10
530.43	60556.68
530.60	60453.70
530.77	60891.38
530.94	60814.14
531.11	60320.29
531.28	60165.81
531.46	59910.69
531.63	59737.49
531.80	59721.11
531.97	59241.30
532.14	58899.58
532.31	57806.55
532.48	57118.43
532.65	57141.84
532.82	57907.19
532.99	59075.12
533.16	59330.24
533.33	59915.37
533.50	59730.47
533.67	59124.27
533.84	58663.19
534.01	58876.18
534.18	59049.38
534.35	59201.51
534.52	59098.53
534.69	59393.43
534.86	59559.61
535.03	59735.15
535.20	60221.98
535.37	60502.85
535.54	60701.79
535.71	60371.78
535.88	60137.72
536.05	59583.02
536.22	59147.68
536.38	58759.15
536.55	58408.07
536.72	57794.85
536.89	57839.32
537.06	58506.37
537.23	59327.90
537.40	59646.21
537.57	59585.36
537.74	59288.11
537.91	59276.41
538.08	59157.04
538.25	59285.77
538.42	59536.21
538.59	59187.47
538.75	58667.87
538.92	58272.32
539.09	58342.53
539.26	58251.25
539.43	57846.34
539.60	57977.41
539.77	58251.25
539.94	58220.83
540.11	57312.70
540.28	56900.76
540.44	56860.97
540.61	56907.79
540.78	57385.25
540.95	57982.09
541.12	58061.67
541.29	58426.79
541.46	58883.20
541.62	58815.32
541.79	58733.40
541.96	57869.75
542.13	58014.86
542.30	58248.91
542.47	58607.01
542.63	58291.04
542.80	57860.38
542.97	58206.78
543.14	57848.68
543.31	57921.24
543.48	58504.03
543.64	59283.43
543.81	59398.12
543.98	59465.99
544.15	58922.99
544.32	58031.24
544.48	58176.36
544.65	58625.74
544.82	59037.67
544.99	58604.67
545.16	58251.25
545.32	58108.48
545.49	59011.93
545.66	59206.19
545.83	58742.77
546.00	58342.53
546.16	58014.86
546.33	58124.86
546.50	58246.57
546.67	58967.46
546.83	58267.64
547.00	58178.70
547.17	57579.52
547.34	57298.65
547.50	57118.43
547.67	57525.69
547.84	57509.30
548.00	57900.17
548.17	58569.57
548.34	58026.56
548.51	58127.20
548.67	58150.61
548.84	58440.84
549.01	58274.66
549.18	58176.36
549.34	58040.60
549.51	57998.48
549.68	58054.65
549.84	57642.71
550.01	57659.10
550.18	57418.02
550.34	57467.17
550.51	57731.65
550.68	57808.89
550.84	57593.56
551.01	57427.38
551.18	57343.12
551.34	57476.54
551.51	57808.89
551.68	58391.68
551.84	58248.91
552.01	57975.07
552.18	57855.70
552.34	57085.67
552.51	56743.95
552.68	56617.56
552.84	57034.17
553.01	57279.93
553.18	57331.42
553.34	57443.77
553.51	57499.94
553.67	57696.55
553.84	57663.78
554.01	57694.21
554.17	57418.02
554.34	57457.81
554.51	57773.78
554.67	58138.91
554.84	57682.50
555.00	57485.90
555.17	57237.80
555.33	57289.29
555.50	57183.97
555.67	57223.76
555.83	57279.93
556.00	56790.76
556.16	56804.80
556.33	56493.51
556.50	56278.18
556.66	56470.11
556.83	56123.71
556.99	56238.39
557.16	55987.95
557.32	56666.71
557.49	56973.32
557.65	56605.86
557.82	56839.91
557.98	56479.47
558.15	56032.42
558.32	55435.59
558.48	54684.28
558.65	54490.01
558.81	55002.59
558.98	55192.17
559.14	55618.15
559.31	55292.82
559.47	55767.94
559.64	55271.75
559.80	54841.09
559.97	55042.38
560.13	55117.28
560.30	56088.60
560.46	56844.59
560.63	56893.74
560.79	57118.43
560.96	56776.72
561.12	55290.48
561.29	54637.47
561.45	54478.31
561.61	55210.90
561.78	55627.51
561.94	55487.08
562.11	55475.38
562.27	55089.19
562.44	55536.23
562.60	56037.11
562.77	56041.79
562.93	55882.63
563.10	55749.22
563.26	55503.46
563.42	55433.25
563.59	55339.63
563.75	54925.35
563.92	55253.03
564.08	55086.85
564.24	55491.76
564.41	55519.85
564.57	55348.99
564.74	55112.59
564.90	55220.26
565.07	54827.05
565.23	54480.65
565.39	54087.44
565.56	53605.29
565.72	53509.33
565.88	53939.99
566.05	53806.58
566.21	54422.14
566.38	54557.89
566.54	54466.61
566.70	54810.67
566.87	55323.24
567.03	55000.25
567.19	55255.37
567.36	54976.84
567.52	54738.11
567.68	54796.62
567.85	53874.45
568.01	53785.51
568.17	53162.93
568.34	53389.96
568.50	53261.23
568.66	53329.11
568.83	53595.93
568.99	53677.85
569.15	53975.09
569.32	54028.93
569.48	53567.84
569.64	53439.11
569.81	53212.08
569.97	52956.96
570.13	52931.22
570.30	52645.67
570.46	52446.72
570.62	51468.38
570.78	51402.85
570.95	51531.57
571.11	52760.36
571.27	52680.78
571.43	53081.01
571.60	52996.75
571.76	53371.24
571.92	53542.10
572.09	53602.95
572.25	53408.68
572.41	53387.62
572.57	53380.60
572.74	53656.78
572.90	53125.48
573.06	53455.50
573.22	53167.61
573.38	53174.63
573.55	53191.01
573.71	53378.26
573.87	53207.40
574.03	52903.13
574.20	52938.24
574.36	52428.00
574.52	52528.64
574.68	52149.48
574.84	52289.91
575.01	51697.75
575.17	50988.57
575.33	51704.77
575.49	51796.06
575.65	52058.20
575.82	51660.30
575.98	51484.76
576.14	52097.98
576.30	52425.66
576.46	52196.29
576.62	52067.56
576.79	51990.32
576.95	51517.53
577.11	51531.57
577.27	52009.04
577.43	52037.13
577.59	51346.67
577.75	51086.87
577.92	50534.51
578.08	50073.42
578.24	50153.00
578.40	50396.42
578.56	50801.33
578.72	50960.48
578.88	51199.22
579.04	51019.00
579.21	51332.63
579.37	50974.53
579.53	51758.61
579.69	51643.92
579.85	51554.98
580.01	51292.84
580.17	51037.72
580.33	50691.32
580.49	51082.19
580.65	50817.71
580.82	51608.81
580.98	51213.26
581.14	51243.69
581.30	51400.50
581.46	50962.82
581.62	51480.08
581.78	51009.64
581.94	51484.76
582.10	51456.68
582.26	51435.61
582.42	51452.00
582.58	51442.63
582.74	51423.91
582.90	51327.95
583.06	51482.42
583.22	50897.29
583.38	50997.93
583.54	50911.33
583.70	50953.46
583.86	50787.28
584.02	50719.41
584.18	51035.38
584.34	50848.14
584.50	50880.91
584.66	50794.31
584.82	49935.33
584.98	49911.92
585.14	50192.79
