SpectraSuite Data File
++++++++++++++++++++++++++++++++++++
Date: Mon Oct 07 14:53:22 GMT-05:00 2013
User: price-jones
Dark Spectrum Present: No
Reference Spectrum Present: No
Number of Sampled Component Spectra: 1
Spectrometers: USB2+H05261
Integration Time (usec): 100000 (USB2+H05261)
Spectra Averaged: 1 (USB2+H05261)
Boxcar Smoothing: 0 (USB2+H05261)
Correct for Electrical Dark: No (USB2+H05261)
Strobe/Lamp Enabled: No (USB2+H05261)
Correct for Detector Non-linearity: No (USB2+H05261)
Correct for Stray Light: No (USB2+H05261)
Number of Pixels in Processed Spectrum: 2048
>>>>>Begin Processed Spectral Data<<<<<
365.73	0.00
365.92	0.00
366.12	0.00
366.32	0.00
366.52	0.00
366.72	0.00
366.91	0.00
367.11	0.00
367.31	0.00
367.51	0.00
367.70	0.00
367.90	0.00
368.10	0.00
368.30	0.00
368.49	0.00
368.69	0.00
368.89	0.00
369.09	0.00
369.28	0.00
369.48	0.00
369.68	0.00
369.87	0.00
370.07	0.00
370.27	0.00
370.47	528.96
370.66	3049.72
370.86	3494.42
371.06	3943.80
371.25	3955.51
371.45	3634.85
371.65	3138.66
371.84	2988.86
372.04	3091.85
372.24	3485.06
372.44	3698.05
372.63	3712.09
372.83	3445.27
373.03	3094.19
373.22	2623.74
373.42	2923.33
373.62	3279.09
373.81	3688.68
374.01	3609.11
374.21	3445.27
374.40	3211.22
374.60	3112.91
374.79	3478.04
374.99	4119.34
375.19	4540.64
375.38	4400.21
375.58	4175.52
375.78	4208.28
375.97	4259.78
376.17	4248.07
376.37	4379.14
376.56	4475.10
376.76	4826.18
376.95	5032.15
377.15	5455.79
377.35	5528.35
377.54	5778.78
377.74	5984.75
377.93	5888.79
378.13	5853.68
378.33	5558.77
378.52	5029.81
378.72	4964.28
378.91	4840.23
379.11	4760.65
379.31	4617.88
379.50	4528.94
379.70	4816.82
379.89	5441.75
380.09	5638.35
380.28	5797.51
380.48	6069.01
380.68	5841.98
380.87	5549.41
381.07	5294.29
381.26	4968.96
381.46	4568.73
381.65	4348.72
381.85	4044.45
382.04	4128.70
382.24	3749.54
382.43	3524.85
382.63	3382.07
382.83	3370.37
383.02	3419.52
383.22	3365.69
383.41	3562.30
383.61	3906.35
383.80	4367.44
384.00	4908.10
384.19	5586.86
384.39	5753.04
384.58	5792.83
384.78	5680.48
384.97	5612.60
385.17	5359.83
385.36	5121.09
385.56	4889.38
385.75	5020.45
385.95	5675.80
386.14	6033.90
386.34	6066.67
386.53	5783.46
386.72	5385.57
386.92	5348.12
387.11	5621.97
387.31	5970.71
387.50	5968.37
387.70	5661.76
387.89	5397.28
388.09	5460.47
388.28	5771.76
388.48	6017.52
388.67	6171.99
388.86	6913.94
389.06	7375.03
389.25	7777.60
389.45	7927.39
389.64	7885.26
389.84	7541.21
390.03	7368.01
390.22	7527.16
390.42	7686.32
390.61	8147.40
390.81	8898.72
391.00	8964.25
391.19	9008.72
391.39	8627.21
391.58	8088.89
391.78	7571.63
391.97	7503.76
392.16	6906.92
392.36	6394.34
392.55	5095.35
392.75	3927.42
392.94	3302.50
393.13	3225.26
393.33	3985.93
393.52	4837.89
393.71	6003.47
393.91	6768.83
394.10	7492.05
394.29	8091.23
394.49	8723.18
394.68	9259.16
394.88	9341.08
395.07	9886.42
395.26	9727.27
395.46	9324.69
395.65	8692.75
395.84	7819.73
396.04	6707.98
396.23	5280.25
396.42	4498.51
396.62	4344.03
396.81	4926.83
397.00	6307.74
397.19	7990.59
397.39	9392.57
397.58	10743.06
397.77	11243.93
397.97	11922.69
398.16	11899.28
398.35	12535.91
398.55	12617.83
398.74	13167.85
398.93	13547.02
399.12	13310.63
399.32	12751.24
399.51	13078.91
399.70	13970.66
399.90	13713.20
400.09	13661.71
400.28	13937.89
400.47	13937.89
400.67	14700.90
400.86	14675.16
401.05	14707.93
401.24	14939.64
401.44	15021.56
401.63	15365.62
401.82	15236.89
402.01	15447.54
402.21	15424.13
402.40	15426.47
402.59	15145.61
402.78	14181.31
402.97	13865.33
403.17	14466.85
403.36	15477.96
403.55	16168.42
403.74	16397.79
403.93	15337.53
404.13	14125.13
404.32	14003.43
404.51	14525.36
404.70	15648.82
404.89	15707.34
405.09	15733.08
405.28	15255.61
405.47	15026.24
405.66	15077.73
405.85	14581.54
406.05	14228.12
406.24	14649.41
406.43	15288.38
406.62	15775.21
406.81	15662.86
407.00	14970.07
407.20	14721.97
407.39	15000.49
407.58	15683.93
407.77	16072.46
407.96	16765.26
408.15	16891.65
408.34	16992.29
408.54	17664.02
408.73	17970.63
408.92	17823.18
409.11	17193.58
409.30	16538.23
409.49	15290.72
409.68	14286.63
409.87	13919.17
410.07	14831.97
410.26	16027.99
410.45	16835.47
410.64	17348.05
410.83	17851.27
411.02	18438.74
411.21	18984.09
411.40	19000.47
411.59	19108.13
411.78	18862.38
411.98	18515.98
412.17	19115.16
412.36	18597.90
412.55	18576.83
412.74	18146.17
412.93	17724.88
413.12	18150.85
413.31	19800.93
413.50	19625.39
413.69	20032.65
413.88	19215.80
414.07	18527.68
414.26	18958.34
414.45	19758.80
414.64	19529.43
414.83	19751.78
415.02	19618.37
415.22	19702.63
415.41	19917.96
415.60	20601.40
415.79	21397.18
415.98	21542.29
416.17	21834.86
416.36	21198.23
416.55	21006.31
416.74	20503.09
416.93	19564.54
417.12	19655.82
417.31	19782.21
417.50	20236.27
417.69	21010.99
417.88	20360.32
418.07	20592.03
418.26	20526.50
418.45	20472.67
418.64	21088.23
418.83	21855.92
419.02	21666.34
419.21	21451.01
419.39	20505.43
419.58	19548.15
419.77	19814.98
419.96	20568.63
420.15	21385.47
420.34	22562.76
420.53	23438.12
420.72	23690.90
420.91	23206.41
421.10	22644.68
421.29	22827.24
421.48	21937.84
421.67	23012.15
421.86	22391.91
422.05	20971.20
422.24	18815.57
422.43	18497.25
422.61	20758.21
422.80	22113.38
422.99	22354.46
423.18	21106.95
423.37	21076.52
423.56	21160.78
423.75	21291.85
423.94	21977.63
424.13	20535.86
424.32	20580.33
424.50	21027.37
424.69	20439.90
424.88	20755.87
425.07	20435.22
425.26	20790.98
425.45	20514.80
425.64	20037.33
425.83	20116.90
426.01	21504.84
426.20	21996.35
426.39	21493.14
426.58	20177.76
426.77	18719.60
426.96	18043.19
427.15	18441.08
427.33	20264.36
427.52	21104.61
427.71	20926.73
427.90	20517.14
428.09	20688.00
428.28	20374.36
428.46	19445.17
428.65	19396.02
428.84	19772.85
429.03	19924.98
429.22	19070.68
429.40	17809.14
429.59	16336.94
429.78	14429.40
429.97	14459.83
430.16	14754.74
430.34	14698.56
430.53	14684.52
430.72	14991.13
430.91	16603.76
431.10	19435.81
431.28	22948.95
431.47	24957.13
431.66	25109.27
431.85	23232.16
432.03	21046.10
432.22	19917.96
432.41	20978.22
432.60	23047.26
432.79	24219.86
432.97	24748.82
433.16	24119.22
433.35	21930.82
433.54	19709.65
433.72	18845.99
433.91	19194.73
434.10	21785.71
434.28	23028.53
434.47	24201.14
434.66	23920.28
434.85	23183.01
435.03	22955.97
435.22	23751.76
435.41	25057.78
435.59	24877.55
435.78	25429.92
435.97	26600.19
436.16	26408.26
436.34	25855.90
436.53	25240.34
436.72	25467.37
436.90	24196.46
437.09	23894.53
437.28	23447.49
437.46	24414.13
437.65	24364.98
437.84	22838.95
438.02	20531.18
438.21	20631.82
438.40	22010.40
438.58	23686.22
438.77	24507.75
438.96	24400.08
439.14	25689.72
439.33	26366.13
439.52	26635.30
439.70	26202.30
439.89	25465.03
440.08	24760.53
440.26	25104.59
440.45	25614.82
440.63	27496.61
440.82	28914.98
441.01	28599.01
441.19	28105.15
441.38	28467.94
441.57	29233.29
441.75	29696.72
441.94	30082.91
442.12	29720.12
442.31	30169.51
442.50	30958.27
442.68	29722.46
442.87	30075.88
443.05	29167.76
443.24	29670.97
443.43	30326.32
443.61	30635.27
443.80	31002.74
443.98	29364.36
444.17	29677.99
444.35	31089.34
444.54	31955.33
444.73	31477.86
444.91	30188.23
445.10	28657.52
445.28	27697.90
445.47	27213.41
445.65	27255.54
445.84	28126.22
446.02	29170.10
446.21	29607.78
446.39	29476.71
446.58	30153.12
446.77	30216.32
446.95	30483.14
447.14	31740.00
447.32	32250.24
447.51	31131.47
447.69	30221.00
447.88	29802.04
448.06	30494.84
448.25	31168.91
448.43	31129.12
448.62	30630.59
448.80	30469.09
448.99	30698.47
449.17	31087.00
449.36	30897.41
449.54	31936.61
449.73	32371.95
449.91	32877.51
450.10	33776.27
450.28	34536.94
450.46	33947.13
450.65	33668.61
450.83	33624.14
451.02	33282.42
451.20	33235.61
451.39	32968.79
451.57	32671.54
451.76	32762.82
451.94	32496.00
452.13	31957.67
452.31	30604.84
452.49	28844.76
452.68	29448.62
452.86	29329.25
453.05	29958.86
453.23	31194.66
453.42	31445.10
453.60	32189.39
453.78	32339.18
453.97	32161.30
454.15	32264.28
454.34	31428.71
454.52	31402.97
454.70	30567.40
454.89	31405.31
455.07	31175.94
455.26	31866.39
455.44	33202.84
455.62	33621.80
455.81	34157.78
455.99	33504.77
456.17	33441.57
456.36	33312.84
456.54	34579.07
456.73	33832.44
456.91	35035.48
457.09	34686.74
457.28	35697.85
457.46	34616.52
457.64	34139.05
457.83	33102.20
458.01	32231.52
458.19	33343.27
458.38	33221.56
458.56	34565.03
458.74	34213.95
458.93	33352.63
459.11	33642.86
459.29	33544.56
459.48	33539.88
459.66	33282.42
459.84	33853.51
460.03	34307.57
460.21	33799.68
460.39	34934.84
460.57	35093.99
460.76	35161.87
460.94	35269.53
461.12	34747.59
461.31	35185.27
461.49	35236.77
461.67	35042.50
461.85	36165.96
462.04	35852.33
462.22	36664.49
462.40	36306.39
462.59	35662.74
462.77	35709.55
462.95	36041.91
463.13	35178.25
463.32	35171.23
463.50	34663.33
463.68	35306.98
463.86	34976.97
464.05	34616.52
464.23	33905.00
464.41	33577.33
464.59	33071.77
464.78	34899.73
464.96	34195.23
465.14	34108.63
465.32	35222.72
465.50	36107.44
465.69	36341.50
465.87	35730.62
466.05	34639.93
466.23	33095.18
466.41	32212.79
466.60	33371.36
466.78	33369.02
466.96	33879.25
467.14	34220.97
467.32	35056.54
467.51	34953.56
467.69	33371.36
467.87	34195.23
468.05	34927.81
468.23	34656.31
468.41	34895.05
468.60	34663.33
468.78	35271.87
468.96	34307.57
469.14	35545.72
469.32	35810.20
469.50	34171.82
469.69	34548.65
469.87	33443.91
470.05	33947.13
470.23	33556.26
470.41	33778.61
470.59	34433.96
470.77	34995.69
470.95	35393.58
471.14	35964.67
471.32	35927.22
471.50	37399.42
471.68	37598.37
471.86	37916.68
472.04	38401.17
472.22	38202.22
472.40	36837.69
472.58	35716.58
472.77	35534.01
472.95	36655.13
473.13	37497.72
473.31	36484.27
473.49	36074.68
473.67	37174.73
473.85	37617.09
474.03	38504.15
474.21	38731.18
474.39	39196.95
474.57	39313.98
474.75	38948.85
474.93	38696.08
475.12	37811.35
475.30	37935.40
475.48	38405.85
475.66	38890.34
475.84	38541.60
476.02	37773.91
476.20	37589.00
476.38	38218.61
476.56	39487.18
476.74	39938.90
476.92	40226.79
477.10	40212.74
477.28	41549.19
477.46	41640.47
477.64	42181.13
477.82	41996.23
478.00	42139.00
478.18	41771.54
478.36	41392.37
478.54	41244.92
478.72	42139.00
478.90	42602.43
479.08	44081.65
479.26	44325.07
479.44	44069.95
479.62	43913.13
479.80	43990.37
479.98	44170.59
480.16	44362.51
480.34	43763.34
480.52	44498.26
480.70	44524.01
480.88	44821.26
481.06	45663.85
481.24	45799.60
481.41	47227.33
481.59	47112.64
481.77	46955.83
481.95	46422.19
482.13	46059.40
482.31	46213.88
482.49	46986.25
482.67	46887.95
482.85	46939.44
483.03	47501.17
483.21	48100.35
483.39	48065.24
483.57	47437.98
483.74	46958.17
483.92	47107.96
484.10	47278.82
484.28	48385.89
484.46	48926.56
484.64	49069.33
484.82	48191.63
485.00	47941.19
485.18	47175.84
485.35	45680.24
485.53	42478.38
485.71	38712.46
485.89	38014.98
486.07	40442.12
486.25	44156.55
486.43	46321.54
486.61	46909.02
486.78	46562.62
486.96	46782.63
487.14	49034.22
487.32	49595.95
487.50	50581.32
487.68	51180.49
487.85	51662.64
488.03	51613.49
488.21	51182.84
488.39	50604.72
488.57	49893.20
488.75	49895.54
488.92	50719.41
489.10	52823.55
489.28	54248.94
489.46	54894.92
489.64	54490.01
489.81	54618.74
489.99	54347.24
490.17	54506.40
490.35	54635.13
490.53	54307.45
490.70	54141.27
490.88	53729.34
491.06	54733.43
491.24	54602.36
491.41	53806.58
491.59	51924.78
491.77	51435.61
491.95	52332.04
492.13	53551.46
492.30	54777.90
492.48	55704.75
492.66	56247.75
492.84	55943.48
493.01	55852.20
493.19	55318.56
493.37	54972.16
493.54	54831.73
493.72	55365.37
493.90	56463.08
494.08	57034.17
494.25	57380.57
494.43	57392.28
494.61	57951.66
494.79	57918.90
494.96	57841.66
495.14	57151.20
495.32	56076.90
495.49	55580.70
495.67	56563.73
495.85	57836.98
496.02	58237.21
496.20	58082.73
496.38	57691.86
496.55	57588.88
496.73	57771.44
496.91	58064.01
497.09	58855.11
497.26	58878.52
497.44	58148.27
497.62	57984.43
497.79	57050.56
497.97	56009.02
498.14	56282.86
498.32	57188.65
498.50	58049.97
498.67	58562.54
498.85	58241.89
499.03	58724.04
499.20	58794.26
499.38	58944.05
499.56	58656.17
499.73	58017.20
499.91	57741.02
500.08	57396.96
500.26	56584.79
500.44	57230.78
500.61	57766.76
500.79	57645.05
500.97	57200.35
501.14	57106.73
501.32	56921.83
501.49	57027.15
501.67	57132.48
501.84	57492.92
502.02	57970.39
502.20	58204.44
502.37	58323.81
502.55	58733.40
502.72	58967.46
502.90	59419.18
503.07	59187.47
503.25	58761.49
503.43	57710.59
503.60	57144.18
503.78	56385.85
503.95	57102.05
504.13	58581.27
504.30	59075.12
504.48	59187.47
504.65	58918.31
504.83	58735.74
505.01	59241.30
505.18	59669.62
505.36	60240.71
505.53	60210.28
505.71	60460.72
505.88	60500.51
506.06	59952.82
506.23	59772.60
506.41	59274.07
506.58	59601.74
506.76	59454.29
506.93	59274.07
507.11	59253.00
507.28	59351.30
507.46	58728.72
507.63	58480.63
507.81	58110.82
507.98	58370.62
508.16	59199.17
508.33	59618.13
508.50	59831.11
508.68	60079.21
508.85	60589.45
509.03	60556.68
509.20	60425.61
509.38	59774.94
509.55	59096.19
509.73	59154.70
509.90	59891.97
510.08	60034.74
510.25	59861.54
510.42	59625.15
510.60	59568.97
510.77	59812.39
510.95	60385.82
511.12	60568.38
511.30	60746.26
511.47	60905.42
511.64	60900.74
511.82	60624.56
511.99	59779.62
512.17	59522.16
512.34	59035.33
512.51	59363.01
512.69	59491.74
512.86	59632.17
513.04	59983.25
513.21	59791.33
513.38	59664.94
513.56	59100.87
513.73	58394.03
513.90	58731.06
514.08	58756.81
514.25	59131.29
514.43	59327.90
514.60	59576.00
514.77	59437.90
514.95	59477.69
515.12	59547.91
515.29	59758.56
515.47	60371.78
515.64	60449.02
515.81	60058.15
515.99	59391.09
516.16	58157.63
516.33	55943.48
516.51	54728.75
516.68	54021.90
516.85	53420.39
517.03	53993.82
517.20	56317.97
517.37	58878.52
517.54	59657.91
517.72	59098.53
517.89	56968.64
518.06	54707.68
518.24	55140.68
518.41	57137.16
518.58	58230.19
518.75	58618.72
518.93	58492.33
519.10	58831.71
519.27	59128.95
519.45	59140.66
519.62	59990.27
519.79	60018.36
519.96	59681.32
520.14	59580.68
520.31	58866.81
520.48	58944.05
520.65	59351.30
520.83	60009.00
521.00	60390.50
521.17	60130.70
521.34	59709.41
521.52	59852.18
521.69	60563.70
521.86	60860.95
522.03	60584.77
522.20	59430.88
522.38	58349.56
522.55	58665.53
522.72	59028.31
522.89	59194.49
523.07	59449.61
523.24	59831.11
523.41	60570.72
523.58	60575.40
523.75	61240.12
523.92	61052.87
524.10	60860.95
524.27	60945.21
524.44	60774.35
524.61	60603.49
524.78	60397.52
524.96	60182.19
525.13	60416.25
525.30	60369.44
525.47	61010.74
525.64	60933.51
525.81	60250.07
525.98	59030.65
526.16	57640.37
526.33	56933.53
526.50	56662.03
526.67	56456.06
526.84	56893.74
527.01	57813.57
527.18	58457.22
527.36	59597.06
527.53	60299.22
527.70	60488.80
527.87	59976.23
528.04	59494.08
528.21	60140.07
528.38	60666.69
528.55	61183.94
528.72	61303.31
528.89	61649.71
529.07	61223.73
529.24	60699.45
529.41	60046.44
529.58	59533.87
529.75	59676.64
529.92	60102.62
530.09	60544.98
530.26	60795.42
530.43	61263.52
530.60	61270.54
530.77	61478.85
530.94	61450.77
531.11	60872.65
531.28	60643.28
531.46	60404.55
531.63	60650.30
531.80	60683.07
531.97	60198.58
532.14	59402.80
532.31	58429.13
532.48	57970.39
532.65	57888.47
532.82	58644.46
532.99	59973.89
533.16	60219.64
533.33	60392.84
533.50	60357.74
533.67	59756.22
533.84	59407.48
534.01	59758.56
534.18	59896.65
534.35	60217.30
534.52	59767.92
534.69	60133.04
534.86	60505.19
535.03	60725.20
535.20	61181.60
535.37	61415.66
535.54	61619.28
535.71	61073.94
535.88	60849.25
536.05	60100.28
536.22	59697.70
536.38	59704.73
536.55	59100.87
536.72	58543.82
536.89	58583.61
537.06	59480.03
537.23	60221.98
537.40	60530.93
537.57	60598.81
537.74	60266.45
537.91	60088.57
538.08	60182.19
538.25	60243.05
538.42	60207.94
538.59	60053.47
538.75	59454.29
538.92	59224.92
539.09	59323.22
539.26	59021.29
539.43	58913.62
539.60	58906.60
539.77	59297.47
539.94	59145.34
540.11	58309.77
540.28	57914.22
540.44	57682.50
540.61	58117.84
540.78	58223.17
540.95	58801.28
541.12	59271.73
541.29	59126.61
541.46	59662.60
541.62	59744.51
541.79	59519.82
541.96	59011.93
542.13	58855.11
542.30	59302.15
542.47	59288.11
542.63	59124.27
542.80	59145.34
542.97	59082.14
543.14	58855.11
543.31	58927.67
543.48	59639.19
543.64	60301.56
543.81	60467.74
543.98	60119.00
544.15	59470.67
544.32	59047.04
544.48	59337.26
544.65	59585.36
544.82	59948.14
544.99	59660.26
545.16	59323.22
545.32	59040.01
545.49	59800.69
545.66	60001.97
545.83	59887.29
546.00	59412.16
546.16	59173.42
546.33	59276.41
546.50	59255.34
546.67	59814.73
546.83	59243.64
547.00	59309.18
547.17	58635.10
547.34	58110.82
547.50	57935.28
547.67	58485.31
547.84	58574.25
548.00	58960.44
548.17	59473.01
548.34	59107.89
548.51	59203.85
548.67	59344.28
548.84	59332.58
549.01	59320.88
549.18	59133.63
549.34	58930.01
549.51	59140.66
549.68	59016.61
549.84	58925.33
550.01	58906.60
550.18	58644.46
550.34	58702.98
550.51	58681.91
550.68	58859.79
550.84	58244.23
551.01	58464.24
551.18	58330.83
551.34	58749.79
551.51	59133.63
551.68	59164.06
551.84	59234.28
552.01	59098.53
552.18	58904.26
552.34	58307.43
552.51	58059.33
552.68	57785.49
552.84	58288.70
553.01	58473.60
553.18	58286.36
553.34	58401.05
553.51	58520.41
553.67	58745.11
553.84	59002.56
554.01	58831.71
554.17	58609.35
554.34	58775.53
554.51	58960.44
554.67	59421.52
554.84	59128.95
555.00	58663.19
555.17	58501.69
555.33	58567.23
555.50	58468.92
555.67	58492.33
555.83	58188.06
556.00	57799.53
556.16	58019.54
556.33	57640.37
556.50	57598.24
556.66	57413.34
556.83	57293.97
556.99	57399.30
557.16	57382.91
557.32	57738.68
557.49	58085.07
557.65	57951.66
557.82	58040.60
557.98	57593.56
558.15	57289.29
558.32	56678.41
558.48	55929.44
558.65	56069.87
558.81	56395.21
558.98	56596.49
559.14	56985.02
559.31	57090.35
559.47	56779.06
559.64	56545.00
559.80	56346.06
559.97	56301.59
560.13	56830.55
560.30	57616.97
560.46	57965.71
560.63	58089.76
560.79	58412.75
560.96	57944.64
561.12	56879.70
561.29	56163.50
561.45	56243.07
561.61	56626.92
561.78	56968.64
561.94	56868.00
562.11	56889.06
562.27	56755.65
562.44	56898.42
562.60	57233.12
562.77	57478.88
562.93	57109.07
563.10	57270.57
563.26	56633.94
563.42	56828.21
563.59	56610.54
563.75	56545.00
563.92	56893.74
564.08	56610.54
564.24	56947.57
564.41	56797.78
564.57	56666.71
564.74	56683.09
564.90	56587.13
565.07	56303.93
565.23	55959.87
565.39	55594.74
565.56	55203.88
565.72	55014.29
565.88	55299.84
566.05	55557.30
566.21	55920.08
566.38	55847.52
566.54	55971.57
566.70	56376.48
566.87	56640.96
567.03	56339.04
567.19	56676.07
567.36	56444.36
567.52	56449.04
567.68	56058.17
567.85	55732.84
568.01	55063.44
568.17	54923.01
568.34	55023.65
568.50	54628.10
568.66	54892.58
568.83	55224.94
568.99	55147.70
569.15	55386.44
569.32	55430.91
569.48	55058.76
569.64	55257.71
569.81	54609.38
569.97	54693.64
570.13	54745.13
570.30	54167.02
570.46	53970.41
570.62	53516.35
570.78	52963.98
570.95	53312.72
571.11	54120.21
571.27	54251.28
571.43	54571.93
571.60	54948.76
571.76	55082.17
571.92	55164.09
572.09	55203.88
572.25	55229.62
572.41	55267.07
572.57	54990.89
572.74	55290.48
572.90	54932.37
573.06	54754.49
573.22	54920.67
573.38	54693.64
573.55	54548.53
573.71	55260.05
573.87	54810.67
574.03	54504.06
574.20	54597.68
574.36	54485.33
574.52	54220.85
574.68	54206.81
574.84	53680.19
575.01	53474.22
575.17	52947.60
575.33	53380.60
575.49	53478.90
575.65	53813.60
575.82	53532.73
575.98	53270.59
576.14	53675.51
576.30	53895.52
576.46	53925.94
576.62	53977.43
576.79	53921.26
576.95	53759.76
577.11	53619.33
577.27	53837.00
577.43	53794.87
577.59	53567.84
577.75	52863.34
577.92	52229.05
578.08	52039.47
578.24	52182.24
578.40	52767.38
578.56	52952.28
578.72	52444.38
578.88	52610.56
579.04	53198.04
579.21	53382.94
579.37	53116.12
579.53	53272.93
579.69	53066.97
579.85	53251.87
580.01	53371.24
580.17	52779.08
580.33	52631.63
580.49	53006.11
580.65	52889.09
580.82	52889.09
580.98	53078.67
581.14	53109.10
581.30	53162.93
581.46	52928.87
581.62	53207.40
581.78	53373.58
581.94	53684.87
582.10	53483.58
582.26	53652.10
582.42	53471.88
582.58	53441.45
582.74	53448.47
582.90	53169.95
583.06	53544.44
583.22	53270.59
583.38	53223.78
583.54	53296.34
583.70	52919.51
583.86	53003.77
584.02	52832.91
584.18	52870.36
584.34	52961.64
584.50	52622.26
584.66	52776.74
584.82	52442.04
584.98	52128.41
585.14	51847.55
585.30	51089.21
