SpectraSuite Data File
++++++++++++++++++++++++++++++++++++
Date: Mon Oct 07 14:54:57 GMT-05:00 2013
User: price-jones
Dark Spectrum Present: No
Reference Spectrum Present: No
Number of Sampled Component Spectra: 1
Spectrometers: USB2+H05261
Integration Time (usec): 10000 (USB2+H05261)
Spectra Averaged: 1 (USB2+H05261)
Boxcar Smoothing: 0 (USB2+H05261)
Correct for Electrical Dark: No (USB2+H05261)
Strobe/Lamp Enabled: No (USB2+H05261)
Correct for Detector Non-linearity: No (USB2+H05261)
Correct for Stray Light: No (USB2+H05261)
Number of Pixels in Processed Spectrum: 2048
>>>>>Begin Processed Spectral Data<<<<<
365.73	0.00
365.92	0.00
366.12	0.00
366.32	0.00
366.52	0.00
366.72	0.00
366.91	0.00
367.11	0.00
367.31	0.00
367.51	0.00
367.70	0.00
367.90	0.00
368.10	0.00
368.30	0.00
368.49	0.00
368.69	0.00
368.89	0.00
369.09	0.00
369.28	0.00
369.48	0.00
369.68	0.00
369.87	0.00
370.07	0.00
370.27	0.00
370.47	191.92
370.66	1554.12
370.86	1621.99
371.06	1799.87
371.25	1795.19
371.45	1617.31
371.65	1451.13
371.84	1392.62
372.04	1554.12
372.24	1762.42
372.44	1713.27
372.63	1582.20
372.83	1509.65
373.03	1418.36
373.22	1247.51
373.42	1383.26
373.62	1547.09
373.81	1699.23
374.01	1675.82
374.21	1444.11
374.40	1437.09
374.60	1507.30
374.79	1816.26
374.99	2031.58
375.19	2012.86
375.38	2272.66
375.58	1937.96
375.78	2045.63
375.97	1921.58
376.17	2066.69
376.37	2228.19
376.56	2282.02
376.76	2305.43
376.95	2504.37
377.15	2616.72
377.35	2801.62
377.54	2820.35
377.74	2864.82
377.93	2883.54
378.13	2757.15
378.33	2588.63
378.52	2450.54
378.72	2244.57
378.91	2263.30
379.11	2209.47
379.31	2108.82
379.50	2129.89
379.70	2410.75
379.89	2586.29
380.09	2649.49
380.28	2832.05
380.48	2913.97
380.68	2722.04
380.87	2654.17
381.07	2417.77
381.26	2157.97
381.46	2069.03
381.65	1954.35
381.85	1949.67
382.04	1778.81
382.24	1631.35
382.43	1647.74
382.63	1750.72
382.83	1647.74
383.02	1586.88
383.22	1528.37
383.41	1769.44
383.61	1820.94
383.80	2097.12
384.00	2340.54
384.19	2647.15
384.39	2813.32
384.58	2766.51
384.78	2590.97
384.97	2588.63
385.17	2417.77
385.36	2174.36
385.56	2387.35
385.75	2511.39
385.95	2640.12
386.14	2958.44
386.34	2834.39
386.53	2640.12
386.72	2586.29
386.92	2628.42
387.11	2691.62
387.31	2848.43
387.50	2764.17
387.70	2609.70
387.89	2656.51
388.09	2726.72
388.28	2684.59
388.48	2757.15
388.67	3014.61
388.86	3396.12
389.06	3510.80
389.25	3676.98
389.45	3740.18
389.64	3765.92
389.84	3786.99
390.03	3651.24
390.22	3630.17
390.42	3810.39
390.61	4196.58
390.81	4191.90
391.00	4337.01
391.19	4273.82
391.39	4084.23
391.58	3831.46
391.78	3456.97
391.97	3480.38
392.16	3316.54
392.36	2787.58
392.55	2104.14
392.75	1694.55
392.94	1448.79
393.13	1605.61
393.33	1935.62
393.52	2499.69
393.71	3075.46
393.91	3342.28
394.10	3705.07
394.29	3969.55
394.49	4156.79
394.68	4566.39
394.88	4461.06
395.07	4652.98
395.26	4624.90
395.46	4510.21
395.65	4107.64
395.84	3459.31
396.04	2897.58
396.23	2403.73
396.42	2024.56
396.62	2113.50
396.81	2532.46
397.00	3337.60
397.19	4004.66
397.39	4720.86
397.58	5090.67
397.77	5469.83
397.97	5640.69
398.16	5776.44
398.35	5884.11
398.55	6153.27
398.74	6214.12
398.93	6417.75
399.12	6218.80
399.32	6274.98
399.51	6406.05
399.70	6764.15
399.90	6551.16
400.09	6679.89
400.28	6630.74
400.47	6822.66
400.67	7054.37
400.86	7253.32
401.05	7187.79
401.24	7192.47
401.44	7218.21
401.63	7290.77
401.82	7157.36
402.01	7328.22
402.21	7510.78
402.40	7372.69
402.59	7073.10
402.78	6829.68
402.97	6736.06
403.17	7005.22
403.36	7489.71
403.55	7606.74
403.74	7581.00
403.93	7138.63
404.13	6796.92
404.32	6771.17
404.51	7211.19
404.70	7583.34
404.89	7709.72
405.09	7337.58
405.28	7183.10
405.47	7300.13
405.66	7169.06
405.85	7096.50
406.05	6841.39
406.24	7136.29
406.43	7225.23
406.62	7602.06
406.81	7449.93
407.00	7335.24
407.20	7005.22
407.39	7103.53
407.58	7606.74
407.77	7812.71
407.96	7793.98
408.15	8248.05
408.34	8400.18
408.54	8528.91
408.73	8627.21
408.92	8435.29
409.11	7971.86
409.30	7747.17
409.49	7236.94
409.68	6876.49
409.87	6942.03
410.07	7342.26
410.26	7494.40
410.45	8140.38
410.64	8259.75
410.83	8674.03
411.02	9029.79
411.21	9214.69
411.40	9181.92
411.59	9195.96
411.78	8905.74
411.98	8863.61
412.17	8847.22
412.36	8734.88
412.55	8823.82
412.74	8526.57
412.93	8566.36
413.12	8812.12
413.31	9263.84
413.50	9514.28
413.69	9430.02
413.88	9020.42
414.07	8786.37
414.26	9193.62
414.45	9423.00
414.64	9540.02
414.83	9448.74
415.02	9238.09
415.22	9287.25
415.41	9411.29
415.60	9600.88
415.79	10054.94
415.98	10359.21
416.17	10097.07
416.36	10012.81
416.55	9912.17
416.74	9521.30
416.93	9118.73
417.12	9252.14
417.31	9483.85
417.50	9540.02
417.69	9715.56
417.88	9640.67
418.07	9523.64
418.26	9727.27
418.45	9846.63
418.64	10448.15
418.83	10640.08
419.02	10246.87
419.21	10148.56
419.39	9540.02
419.58	9132.77
419.77	9479.17
419.96	9799.82
420.15	10583.90
420.34	10752.42
420.53	10799.23
420.72	11176.06
420.91	10754.76
421.10	10810.93
421.29	10787.53
421.48	10354.53
421.67	10867.11
421.86	10469.22
422.05	9577.47
422.24	8896.38
422.43	8950.21
422.61	9870.04
422.80	10607.31
422.99	10211.76
423.18	9961.32
423.37	10120.48
423.56	10469.22
423.75	10221.12
423.94	10525.39
424.13	9724.93
424.32	9692.16
424.50	9584.49
424.69	9666.41
424.88	9989.41
425.07	9853.66
425.26	9851.31
425.45	9540.02
425.64	9748.33
425.83	10059.62
426.01	10317.08
426.20	10277.29
426.39	9973.02
426.58	9312.99
426.77	8751.26
426.96	8622.53
427.15	9130.43
427.33	9980.04
427.52	9741.31
427.71	10001.11
427.90	9481.51
428.09	9558.75
428.28	9540.02
428.46	9198.31
428.65	9062.55
428.84	9540.02
429.03	9392.57
429.22	8777.01
429.40	8243.37
429.59	7386.73
429.78	6691.59
429.97	6864.79
430.16	6682.23
430.34	6609.67
430.53	6885.86
430.72	7227.57
430.91	8231.66
431.10	9694.50
431.28	10785.19
431.47	11496.71
431.66	11728.42
431.85	10303.04
432.03	9523.64
432.22	9696.84
432.41	10188.35
432.60	10778.17
432.79	11442.88
432.97	11506.07
433.16	11131.59
433.35	10108.77
433.54	8851.91
433.72	9092.98
433.91	9259.16
434.10	10286.65
434.28	11075.42
434.47	11250.96
434.66	10839.02
434.85	10939.66
435.03	11180.74
435.22	11405.43
435.41	11501.39
435.59	11796.30
435.78	11906.31
435.97	12102.91
436.16	12159.08
436.34	12086.53
436.53	12042.06
436.72	11957.80
436.90	11000.52
437.09	11213.51
437.28	11044.99
437.46	11463.94
437.65	11080.10
437.84	10115.80
438.02	9783.44
438.21	10061.96
438.40	10710.29
438.58	10953.71
438.77	11131.59
438.96	11644.17
439.14	12196.53
439.33	12063.12
439.52	12439.95
439.70	12114.61
439.89	11688.64
440.08	11548.20
440.26	11580.97
440.45	12114.61
440.63	12760.60
440.82	13289.56
441.01	13104.66
441.19	13275.52
441.38	13642.98
441.57	13429.99
441.75	13848.95
441.94	13921.51
442.12	13591.49
442.31	14221.10
442.50	14394.29
442.68	14080.66
442.87	13675.75
443.05	13832.57
443.24	14413.02
443.43	13996.40
443.61	14251.52
443.80	14520.68
443.98	13994.06
444.17	14083.00
444.35	14628.35
444.54	15143.27
444.73	14572.18
444.91	13872.36
445.10	13188.92
445.28	12915.08
445.47	12886.99
445.65	12585.06
445.84	13280.20
446.02	13483.83
446.21	13638.30
446.39	13954.27
446.58	14150.88
446.77	14682.18
446.95	14679.84
447.14	14707.93
447.32	14820.27
447.51	14401.32
447.69	13682.77
447.88	13764.69
448.06	13895.76
448.25	14305.35
448.43	14462.17
448.62	13973.00
448.80	13963.64
448.99	14022.15
449.17	14464.51
449.36	14303.01
449.54	14691.54
449.73	14871.76
449.91	14892.83
450.10	15733.08
450.28	15817.34
450.46	15426.47
450.65	15197.10
450.83	15522.43
451.02	15353.91
451.20	15063.69
451.39	14874.10
451.57	14892.83
451.76	15019.22
451.94	14890.49
452.13	14736.01
452.31	13909.80
452.49	13270.84
452.68	13577.45
452.86	13710.86
453.05	13757.67
453.23	14473.87
453.42	14724.31
453.60	14640.05
453.78	14637.71
453.97	14726.65
454.15	14597.92
454.34	14370.89
454.52	14736.01
454.70	14508.98
454.89	14305.35
455.07	14415.36
455.26	14934.96
455.44	14937.30
455.62	15234.55
455.81	15859.47
455.99	14981.77
456.17	14995.81
456.36	15555.20
456.54	15707.34
456.73	15634.78
456.91	16135.65
457.09	15981.18
457.28	16306.51
457.46	15648.82
457.64	15658.18
457.83	14743.03
458.01	14586.22
458.19	15257.95
458.38	15363.28
458.56	15571.58
458.74	15503.71
458.93	15304.76
459.11	14939.64
459.29	14937.30
459.48	15339.87
459.66	15094.11
459.84	15276.68
460.03	15777.55
460.21	15492.01
460.39	16046.71
460.57	15826.70
460.76	15997.56
460.94	16065.44
461.12	15735.42
461.31	15910.96
461.49	15985.86
461.67	16070.12
461.85	16376.73
462.04	16166.08
462.22	16355.66
462.40	16191.83
462.59	15756.49
462.77	16088.84
462.95	16245.66
463.13	16210.55
463.32	15910.96
463.50	15744.78
463.68	15592.65
463.86	16009.26
464.05	15800.96
464.23	14967.73
464.41	14991.13
464.59	15133.90
464.78	15463.92
464.96	15461.58
465.14	15349.23
465.32	15948.41
465.50	16437.58
465.69	16126.29
465.87	15637.12
466.05	15459.24
466.23	14932.62
466.41	15110.50
466.60	15576.27
466.78	15433.49
466.96	15082.41
467.14	15346.89
467.32	15484.98
467.51	15510.73
467.69	15009.86
467.87	15059.01
468.05	15335.19
468.23	15545.84
468.41	15466.26
468.60	15772.87
468.78	15466.26
468.96	15777.55
469.14	16116.93
469.32	16276.09
469.50	15293.06
469.69	15080.07
469.87	14595.58
470.05	14974.75
470.23	15103.48
470.41	15428.81
470.59	15499.03
470.77	15456.90
470.95	15693.29
471.14	15878.19
471.32	16109.91
471.50	17142.08
471.68	17064.85
471.86	17057.82
472.04	16980.59
472.22	16772.28
472.40	16107.57
472.58	16250.34
472.77	15829.04
472.95	16390.77
473.13	16676.32
473.31	16088.84
473.49	16063.10
473.67	16695.04
473.85	16477.37
474.03	16793.34
474.21	16919.73
474.39	17029.74
474.57	17039.10
474.75	17008.67
474.93	17186.55
475.12	16816.75
475.30	17081.23
475.48	16968.88
475.66	17137.40
475.84	16795.68
476.02	16992.29
476.20	16510.14
476.38	16933.78
476.56	17256.77
476.74	17455.72
476.92	17879.35
477.10	17547.00
477.28	18335.76
477.46	18534.70
477.64	18401.29
477.82	18328.74
478.00	18312.35
478.18	18277.24
478.36	18045.53
478.54	17989.36
478.72	18883.44
478.90	19379.64
479.08	19403.04
479.26	19491.98
479.44	18923.23
479.62	19606.67
479.80	19527.09
479.98	19730.72
480.16	19964.77
480.34	20002.22
480.52	19623.05
480.70	19520.07
480.88	19899.23
481.06	19997.54
481.24	20641.18
481.41	20999.29
481.59	21467.39
481.77	20830.77
481.95	20589.69
482.13	21130.36
482.31	20540.54
482.49	21333.98
482.67	20702.04
482.85	20821.41
483.03	20828.43
483.21	21184.19
483.39	21575.06
483.57	21125.68
483.74	20798.00
483.92	20615.44
484.10	21469.73
484.28	21916.78
484.46	21504.84
484.64	21312.92
484.82	21788.05
485.00	21123.33
485.18	20636.50
485.35	19585.60
485.53	17476.78
485.71	16365.03
485.89	16683.34
486.07	17933.18
486.25	19524.75
486.43	20423.51
486.61	19562.20
486.78	19875.83
486.96	20730.12
487.14	21607.83
487.32	22293.60
487.50	22611.92
487.68	21996.35
487.85	23138.54
488.03	23140.88
488.21	22504.25
488.39	21839.54
488.57	21876.99
488.75	21977.63
488.92	23201.73
489.10	24938.41
489.28	25340.98
489.46	26029.10
489.64	26359.11
489.81	25919.09
489.99	25280.13
490.17	25802.07
490.35	26167.19
490.53	25029.69
490.70	24765.21
490.88	25156.08
491.06	25799.73
491.24	25661.63
491.41	24470.30
491.59	23676.86
491.77	23119.81
491.95	24205.82
492.13	24603.71
492.30	25380.77
492.48	26499.55
492.66	27080.00
492.84	26635.30
493.01	26441.03
493.19	25312.89
493.37	24711.38
493.54	25099.90
493.72	26012.71
493.90	27047.23
494.08	27447.46
494.25	28142.60
494.43	28584.96
494.61	28947.75
494.79	28903.28
494.96	28416.44
495.14	27199.37
495.32	26888.07
495.49	26581.46
495.67	27381.93
495.85	28807.31
496.02	28790.93
496.20	29062.43
496.38	28694.97
496.55	28177.71
496.73	28676.24
496.91	28334.53
497.09	28751.14
497.26	28966.47
497.44	29670.97
497.62	28826.04
497.79	27894.50
497.97	26981.70
498.14	27009.78
498.32	28006.85
498.50	28158.99
498.67	29345.64
498.85	28762.84
499.03	28102.81
499.20	29067.11
499.38	28758.16
499.56	27730.67
499.73	27800.88
499.91	27709.60
500.08	27087.02
500.26	26766.37
500.44	27667.47
500.61	28236.22
500.79	27358.52
500.97	27445.12
501.14	27225.11
501.32	26647.00
501.49	26073.57
501.67	27269.58
501.84	28339.21
502.02	28259.63
502.20	28245.58
502.37	28716.03
502.55	29287.12
502.72	29694.38
502.90	29961.20
503.07	28992.22
503.25	29472.03
503.43	28198.77
503.60	27337.46
503.78	26906.80
503.95	27356.18
504.13	28489.00
504.30	29729.48
504.48	29523.52
504.65	29024.98
504.83	29429.90
505.01	29209.89
505.18	29495.43
505.36	30548.67
505.53	30244.40
505.71	31044.87
505.88	30668.04
506.06	30733.57
506.23	29626.50
506.41	29195.84
506.58	29869.92
506.76	28943.06
506.93	29696.72
507.11	27789.18
507.28	29060.09
507.46	28704.33
507.63	28287.71
507.81	27686.20
507.98	28390.70
508.16	28929.02
508.33	29446.28
508.50	29095.20
508.68	30340.36
508.85	30558.03
509.03	30202.27
509.20	29226.27
509.38	29111.58
509.55	28931.36
509.73	29677.99
509.90	30125.04
510.08	28893.91
510.25	29200.52
510.42	29230.95
510.60	29017.96
510.77	29837.15
510.95	30785.07
511.12	29717.78
511.30	30567.40
511.47	31049.55
511.64	29837.15
511.82	30464.41
511.99	29439.26
512.17	29605.44
512.34	28914.98
512.51	28774.55
512.69	28580.28
512.86	29303.51
513.04	29993.97
513.21	29521.18
513.38	29216.91
513.56	28795.61
513.73	27620.66
513.90	27653.43
514.08	28247.93
514.25	28615.39
514.43	29003.92
514.60	29523.52
514.77	29420.53
514.95	29102.22
515.12	28709.01
515.29	29427.56
515.47	29921.41
515.64	29699.06
515.81	29975.24
515.99	29043.71
516.16	26785.09
516.33	24617.75
516.51	24032.62
516.68	22705.54
516.85	22349.78
517.03	23428.76
517.20	25839.51
517.37	27747.05
517.54	27889.82
517.72	27117.45
517.89	25214.59
518.06	23999.85
518.24	25050.75
518.41	26377.84
518.58	27627.68
518.75	27250.86
518.93	27807.90
519.10	27513.00
519.27	27906.21
519.45	28575.60
519.62	28797.95
519.79	29514.16
519.96	29085.84
520.14	27864.08
520.31	27630.02
520.48	27995.15
520.65	28362.61
520.83	28940.72
521.00	28779.23
521.17	28460.91
521.34	28002.17
521.52	27859.40
521.69	29223.93
521.86	29631.18
522.03	28601.35
522.20	28156.64
522.38	26733.60
522.55	26892.76
522.72	27854.72
522.89	27363.20
523.07	27922.59
523.24	28357.93
523.41	28744.12
523.58	28910.30
523.75	28627.09
523.92	29640.54
524.10	29200.52
524.27	29659.27
524.44	29268.40
524.61	30171.85
524.78	29521.18
524.96	28966.47
525.13	29247.33
525.30	30237.38
525.47	30349.73
525.64	29790.34
525.81	28350.91
525.98	26742.96
526.16	24982.88
526.33	24870.53
526.50	25160.76
526.67	25174.80
526.84	25446.30
527.01	26867.01
527.18	27674.49
527.36	27835.99
527.53	29593.73
527.70	28690.29
527.87	27248.52
528.04	27391.29
528.21	28507.72
528.38	28503.04
528.55	29848.85
528.72	29806.72
528.89	29472.03
529.07	29708.42
529.24	28259.63
529.41	28720.71
529.58	27360.86
529.75	27847.69
529.92	28023.23
530.09	28044.30
530.26	28882.21
530.43	27517.68
530.60	28657.52
530.77	29460.32
530.94	29968.22
531.11	28877.53
531.28	29062.43
531.46	28460.91
531.63	29677.99
531.80	29528.20
531.97	27805.56
532.14	26567.42
532.31	25675.68
532.48	25174.80
532.65	25130.33
532.82	26057.18
532.99	27218.09
533.16	28268.99
533.33	29146.69
533.50	28343.89
533.67	27889.82
533.84	27756.41
534.01	27978.76
534.18	27929.61
534.35	27487.25
534.52	27697.90
534.69	27943.66
534.86	28107.49
535.03	28416.44
535.20	28980.51
535.37	28940.72
535.54	29207.55
535.71	28599.01
535.88	28219.84
536.05	27122.13
536.22	27356.18
536.38	26625.93
536.55	26677.43
536.72	26511.25
536.89	26628.27
537.06	27686.20
537.23	27784.50
537.40	28018.55
537.57	27634.71
537.74	26899.78
537.91	26941.91
538.08	28350.91
538.25	28163.67
538.42	27559.81
538.59	27805.56
538.75	27843.01
538.92	27517.68
539.09	26670.40
539.26	26096.97
539.43	25422.90
539.60	25766.96
539.77	26101.65
539.94	25135.01
540.11	25041.39
540.28	24191.78
540.44	24875.21
540.61	24987.56
540.78	25610.14
540.95	26824.88
541.12	25926.11
541.29	27213.41
541.46	26450.39
541.62	26415.29
541.79	25757.60
541.96	25731.85
542.13	26712.53
542.30	26244.43
542.47	26635.30
542.63	26139.10
542.80	25481.41
542.97	25570.35
543.14	25359.70
543.31	25439.28
543.48	26850.63
543.64	26955.95
543.81	27559.81
543.98	26541.68
544.15	26457.42
544.32	25649.93
544.48	26473.80
544.65	25326.94
544.82	25891.01
544.99	26314.64
545.16	26277.19
545.32	26431.67
545.49	26871.69
545.66	26548.70
545.83	26373.16
546.00	26171.87
546.16	26134.42
546.33	25895.69
546.50	26637.64
546.67	25977.61
546.83	25855.90
547.00	25689.72
547.17	25535.24
547.34	25422.90
547.50	25017.99
547.67	25153.74
547.84	24957.13
548.00	25359.70
548.17	25160.76
548.34	24727.76
548.51	25184.16
548.67	26148.46
548.84	25982.29
549.01	26178.89
549.18	26143.78
549.34	26462.10
549.51	26349.75
549.68	25893.35
549.84	25099.90
550.01	25343.32
550.18	24884.58
550.34	24734.78
550.51	24847.13
550.68	24423.49
550.84	23637.07
551.01	24091.13
551.18	23599.62
551.34	23396.00
551.51	24748.82
551.68	25862.92
551.84	24690.31
552.01	25273.10
552.18	24680.95
552.34	24554.56
552.51	24360.30
552.68	24924.36
552.84	24563.92
553.01	24786.27
553.18	25184.16
553.34	25193.53
553.51	24870.53
553.67	24573.28
553.84	25390.13
554.01	25743.55
554.17	24372.00
554.34	24549.88
554.51	25338.64
554.67	24924.36
554.84	24636.48
555.00	24425.83
555.17	24489.03
555.33	24369.66
555.50	25139.69
555.67	24985.22
555.83	24861.17
556.00	24676.27
556.16	24484.34
556.33	24121.56
556.50	23988.15
556.66	23019.17
556.83	22991.08
556.99	23412.38
557.16	23920.28
557.32	24095.82
557.49	24135.60
557.65	24100.50
557.82	23028.53
557.98	23098.75
558.15	23597.28
558.32	22796.82
558.48	22207.00
558.65	21914.44
558.81	22284.24
558.98	22710.22
559.14	23143.22
559.31	23236.84
559.47	22824.90
559.64	22295.94
559.80	23061.30
559.97	22750.01
560.13	23592.60
560.30	23475.57
560.46	23494.30
560.63	23723.67
560.79	24215.18
560.96	23374.93
561.12	22885.76
561.29	22267.86
561.45	22113.38
561.61	22515.95
561.78	22368.50
561.94	22513.61
562.11	22483.19
562.27	22567.45
562.44	23105.77
562.60	23065.98
562.77	23566.85
562.93	22698.52
563.10	22733.62
563.26	22544.04
563.42	21916.78
563.59	21865.28
563.75	22948.95
563.92	22256.15
564.08	22221.05
564.24	22319.35
564.41	21659.32
564.57	22008.06
564.74	21518.89
564.90	21406.54
565.07	21317.60
565.23	20908.01
565.39	20779.28
565.56	21935.50
565.72	21912.10
565.88	22441.06
566.05	21422.92
566.21	21781.03
566.38	21209.93
566.54	21027.37
566.70	21125.68
566.87	21664.00
567.03	22403.61
567.19	23019.17
567.36	21481.44
567.52	22155.51
567.68	21579.74
567.85	21579.74
568.01	21935.50
568.17	20718.42
568.34	20217.55
568.50	19941.36
568.66	20760.55
568.83	20959.50
568.99	21149.08
569.15	21053.12
569.32	21603.14
569.48	21317.60
569.64	20847.15
569.81	20107.54
569.97	20379.04
570.13	20233.93
570.30	19988.18
570.46	19536.45
570.62	19089.41
570.78	18263.20
570.95	18977.06
571.11	19775.19
571.27	19367.93
571.43	19719.01
571.60	20388.41
571.76	20861.19
571.92	20788.64
572.09	20847.15
572.25	20360.32
572.41	21106.95
572.57	20992.26
572.74	20311.17
572.90	20470.33
573.06	20142.65
573.22	20100.52
573.38	19756.46
573.55	19468.58
573.71	19831.36
573.87	20191.80
574.03	20259.68
574.20	20250.32
574.36	20170.74
574.52	19777.53
574.68	19515.39
574.84	19431.13
575.01	19681.56
575.17	19964.77
575.33	19573.90
575.49	19321.12
575.65	19723.69
575.82	19440.49
575.98	19136.22
576.14	19220.48
576.30	19033.24
576.46	18761.73
576.62	19248.57
576.79	19070.68
576.95	18689.18
577.11	18705.56
577.27	18677.48
577.43	18649.39
577.59	18658.75
577.75	19042.60
577.92	18511.30
578.08	18216.39
578.24	17982.34
578.40	18672.79
578.56	18658.75
578.72	18560.45
578.88	18874.08
579.04	18581.51
579.21	18373.21
579.37	19070.68
579.53	18537.04
579.69	18115.75
579.85	18291.29
580.01	18148.51
580.17	18637.69
580.33	18443.42
580.49	18214.05
580.65	18312.35
580.82	18649.39
580.98	18647.05
581.14	18792.16
581.30	18925.57
581.46	18628.32
581.62	18473.85
581.78	18588.53
581.94	19115.16
582.10	18757.05
582.26	18459.81
582.42	18597.90
582.58	19468.58
582.74	18930.25
582.90	18661.09
583.06	18937.27
583.22	18684.50
583.38	18782.80
583.54	18958.34
583.70	18768.76
583.86	18693.86
584.02	18775.78
584.18	18780.46
584.34	18693.86
584.50	19269.63
584.66	19028.56
584.82	18427.04
584.98	18324.05
585.14	17755.30
585.30	17465.08
585.46	17378.48
585.62	16910.37
585.78	17476.78
585.94	17603.17
586.10	17961.27
586.26	17832.54
586.42	17788.07
586.58	18139.15
586.74	17287.20
