SpectraSuite Data File
++++++++++++++++++++++++++++++++++++
Date: Mon Oct 07 14:53:31 GMT-05:00 2013
User: price-jones
Dark Spectrum Present: No
Reference Spectrum Present: No
Number of Sampled Component Spectra: 1
Spectrometers: USB2+H05261
Integration Time (usec): 100000 (USB2+H05261)
Spectra Averaged: 1 (USB2+H05261)
Boxcar Smoothing: 0 (USB2+H05261)
Correct for Electrical Dark: No (USB2+H05261)
Strobe/Lamp Enabled: No (USB2+H05261)
Correct for Detector Non-linearity: No (USB2+H05261)
Correct for Stray Light: No (USB2+H05261)
Number of Pixels in Processed Spectrum: 2048
>>>>>Begin Processed Spectral Data<<<<<
365.73	0.00
365.92	0.00
366.12	0.00
366.32	0.00
366.52	0.00
366.72	0.00
366.91	0.00
367.11	0.00
367.31	0.00
367.51	0.00
367.70	0.00
367.90	0.00
368.10	0.00
368.30	0.00
368.49	0.00
368.69	0.00
368.89	0.00
369.09	0.00
369.28	0.00
369.48	0.00
369.68	0.00
369.87	0.00
370.07	0.00
370.27	0.00
370.47	575.77
370.66	2897.58
370.86	3644.21
371.06	3967.21
371.25	3955.51
371.45	3571.66
371.65	3234.62
371.84	3049.72
372.04	3222.92
372.24	3625.49
372.44	3700.39
372.63	3585.70
372.83	3337.60
373.03	2944.39
373.22	2825.03
373.42	3002.91
373.62	3405.48
373.81	3684.00
374.01	3651.24
374.21	3372.71
374.40	3073.12
374.60	3243.98
374.79	3592.72
374.99	4182.54
375.19	4489.15
375.38	4545.32
375.58	4215.30
375.78	4278.50
375.97	4264.46
376.17	4507.87
376.37	4313.61
376.56	4496.17
376.76	4833.21
376.95	5095.35
377.15	5516.64
377.35	5612.60
377.54	5884.11
377.74	6064.33
377.93	6143.91
378.13	5973.05
378.33	5736.65
378.52	5128.11
378.72	4917.47
378.91	4959.60
379.11	4727.88
379.31	4692.77
379.50	4526.60
379.70	4973.64
379.89	5523.66
380.09	5612.60
380.28	6132.20
380.48	6066.67
380.68	5666.44
380.87	5563.45
381.07	5163.22
381.26	4952.57
381.46	4683.41
381.65	4381.48
381.85	4173.18
382.04	4114.66
382.24	3817.41
382.43	3761.24
382.63	3716.77
382.83	3728.47
383.02	3611.45
383.22	3714.43
383.41	3592.72
383.61	3836.14
383.80	4500.85
384.00	5004.07
384.19	5710.91
384.39	5825.59
384.58	5834.96
384.78	5811.55
384.97	5778.78
385.17	5418.34
385.36	5212.37
385.56	5013.43
385.75	5025.13
385.95	5621.97
386.14	6069.01
386.34	6235.19
386.53	5757.72
386.72	5591.54
386.92	5521.32
387.11	5731.97
387.31	6104.12
387.50	5991.77
387.70	5741.33
387.89	5638.35
388.09	5905.17
388.28	5781.12
388.48	5839.64
388.67	6244.55
388.86	6949.05
389.06	7538.87
389.25	7950.80
389.45	7873.56
389.64	7803.35
389.84	8025.70
390.03	7564.61
390.22	7538.87
390.42	7934.42
390.61	8435.29
390.81	8990.00
391.00	9348.10
391.19	9092.98
391.39	8629.56
391.58	8297.20
391.78	7880.58
391.97	7550.57
392.16	7131.61
392.36	6490.31
392.55	5277.91
392.75	4252.75
392.94	3559.95
393.13	3344.63
393.33	4018.70
393.52	4936.19
393.71	6162.63
393.91	6829.68
394.10	7424.18
394.29	8297.20
394.49	8901.06
394.68	9582.15
394.88	9762.37
395.07	10169.63
395.26	9846.63
395.46	9582.15
395.65	9139.79
395.84	7868.88
396.04	6558.18
396.23	5526.00
396.42	4418.93
396.62	4332.33
396.81	5064.92
397.00	6637.76
397.19	7859.52
397.39	9671.09
397.58	11136.27
397.77	11459.26
397.97	11918.01
398.16	12212.92
398.35	12692.73
398.55	12886.99
398.74	13453.40
398.93	13790.44
399.12	13039.12
399.32	12891.67
399.51	13247.43
399.70	14029.17
399.90	13921.51
400.09	14214.07
400.28	13951.93
400.47	13940.23
400.67	14560.47
400.86	15054.33
401.05	14836.66
401.24	15040.28
401.44	15337.53
401.63	15508.39
401.82	15454.56
402.01	15419.45
402.21	15655.84
402.40	15735.42
402.59	15360.94
402.78	14490.26
402.97	14366.21
403.17	14956.02
403.36	15513.07
403.55	16093.52
403.74	16468.01
403.93	15775.21
404.13	14567.49
404.32	14239.82
404.51	14895.17
404.70	16011.60
404.89	16042.03
405.09	15782.23
405.28	15241.57
405.47	15330.51
405.66	15304.76
405.85	15115.18
406.05	14593.24
406.24	14799.21
406.43	15283.70
406.62	16102.89
406.81	16004.58
407.00	15604.35
407.20	14923.26
407.39	15316.47
407.58	15503.71
407.77	16507.80
407.96	17034.42
408.15	17289.54
408.34	17266.13
408.54	17802.11
408.73	18080.64
408.92	18335.76
409.11	17692.11
409.30	16578.01
409.49	15786.91
409.68	14539.41
409.87	14031.51
410.07	14932.62
410.26	15922.66
410.45	17242.73
410.64	17582.10
410.83	18090.00
411.02	18544.06
411.21	19564.54
411.40	19372.61
411.59	19386.66
411.78	19122.18
411.98	18735.99
412.17	19044.94
412.36	18806.20
412.55	18754.71
412.74	18239.79
412.93	17848.93
413.12	18181.28
413.31	19796.25
413.50	19871.15
413.69	20271.38
413.88	19620.71
414.07	18948.98
414.26	19445.17
414.45	20123.93
414.64	20009.24
414.83	20374.36
415.02	19660.50
415.22	19611.35
415.41	20376.70
415.60	20650.55
415.79	21476.76
415.98	22136.79
416.17	22218.71
416.36	21696.77
416.55	21216.96
416.74	20533.52
416.93	20147.33
417.12	20116.90
417.31	20287.76
417.50	20224.57
417.69	21436.97
417.88	20954.82
418.07	21179.51
418.26	20678.63
418.45	20898.64
418.64	21537.61
418.83	22024.44
419.02	22092.32
419.21	21762.30
419.39	20807.36
419.58	19744.76
419.77	20051.37
419.96	20655.23
420.15	22127.42
420.34	22614.26
420.53	23454.51
420.72	23896.87
420.91	23639.41
421.10	23199.39
421.29	23084.70
421.48	22347.44
421.67	23435.78
421.86	22813.20
422.05	21486.12
422.24	19030.90
422.43	19016.85
422.61	20650.55
422.80	22324.03
422.99	22845.97
423.18	21937.84
423.37	21369.09
423.56	21525.91
423.75	21675.70
423.94	22377.86
424.13	21025.03
424.32	21228.66
424.50	21315.26
424.69	21048.44
424.88	21352.71
425.07	21418.24
425.26	21085.89
425.45	20751.19
425.64	20446.92
425.83	20325.21
426.01	21589.10
426.20	22092.32
426.39	21844.22
426.58	20453.94
426.77	18963.02
426.96	18192.98
427.15	18995.79
427.33	20395.43
427.52	21099.93
427.71	21467.39
427.90	21301.22
428.09	20950.14
428.28	20617.78
428.46	19536.45
428.65	19571.56
428.84	19964.77
429.03	20472.67
429.22	19433.47
429.40	18412.99
429.59	16718.45
429.78	14677.50
429.97	14635.37
430.16	14965.39
430.34	14923.26
430.53	15063.69
430.72	15374.98
430.91	16615.46
431.10	19721.35
431.28	22995.76
431.47	24971.18
431.66	25755.26
431.85	23386.63
432.03	21455.69
432.22	20194.14
432.41	21296.53
432.60	23534.09
432.79	24741.80
432.97	25310.55
433.16	24559.24
433.35	22155.51
433.54	20121.59
433.72	18794.50
433.91	19424.11
434.10	21525.91
434.28	23194.71
434.47	24718.40
434.66	24610.73
434.85	23536.43
435.03	23414.72
435.22	24201.14
435.41	25900.37
435.59	25759.94
435.78	25902.71
435.97	26572.10
436.16	26712.53
436.34	26391.88
436.53	25720.15
436.72	25837.17
436.90	24339.23
437.09	24229.23
437.28	24285.40
437.46	25006.28
437.65	24903.30
437.84	23506.00
438.02	21369.09
438.21	20809.70
438.40	22593.19
438.58	24112.20
438.77	24702.01
438.96	24980.54
439.14	26106.34
439.33	26944.25
439.52	27126.81
439.70	26583.80
439.89	25825.47
440.08	25275.45
440.26	25149.06
440.45	25830.15
440.63	27807.90
440.82	29249.67
441.01	28474.96
441.19	28620.07
441.38	28807.31
441.57	30167.16
441.75	30183.55
441.94	30651.66
442.12	30246.74
442.31	31075.29
442.50	30969.97
442.68	30309.94
442.87	30054.82
443.05	29811.40
443.24	30228.02
443.43	30665.70
443.61	31456.80
443.80	31597.23
443.98	30017.37
444.17	29780.98
444.35	31508.29
444.54	32390.67
444.73	31864.05
444.91	30490.16
445.10	29163.08
445.28	28053.66
445.47	27381.93
445.65	27786.84
445.84	28493.68
446.02	29418.19
446.21	30085.25
446.39	30075.88
446.58	30202.27
446.77	31065.93
446.95	31140.83
447.14	32114.49
447.32	32868.14
447.51	32168.32
447.69	30789.75
447.88	30260.79
448.06	30836.56
448.25	31597.23
448.43	32034.91
448.62	31049.55
448.80	30934.86
448.99	31112.74
449.17	31552.76
449.36	31311.69
449.54	32870.48
449.73	32833.04
449.91	33060.07
450.10	34672.70
450.28	34450.35
450.46	34506.52
450.65	34616.52
450.83	34532.26
451.02	33570.30
451.20	33202.84
451.39	33193.48
451.57	32896.23
451.76	33436.89
451.94	33209.86
452.13	32524.08
452.31	30948.90
452.49	29322.23
452.68	30164.82
452.86	29912.05
453.05	30394.20
453.23	31307.01
453.42	32030.23
453.60	32737.07
453.78	33195.82
453.97	32446.85
454.15	32720.69
454.34	31798.52
454.52	32224.50
454.70	31648.72
454.89	31894.48
455.07	32140.24
455.26	32266.63
455.44	33701.37
455.62	34448.00
455.81	34726.53
455.99	34197.57
456.17	33607.75
456.36	33558.60
456.54	35201.66
456.73	34866.96
456.91	35353.79
457.09	35786.79
457.28	36194.04
457.46	34974.63
457.64	34892.71
457.83	33614.77
458.01	32678.56
458.19	33481.36
458.38	34204.59
458.56	35005.05
458.74	34930.16
458.93	34368.43
459.11	34171.82
459.29	33670.95
459.48	33940.11
459.66	33741.16
459.84	34443.32
460.03	34803.77
460.21	34820.15
460.39	35234.42
460.57	35641.68
460.76	36114.47
460.94	35803.17
461.12	35683.81
461.31	35924.88
461.49	35665.08
461.67	35978.72
461.85	36596.62
462.04	36458.52
462.22	36720.66
462.40	36355.54
462.59	36329.80
462.77	36346.18
462.95	36404.69
463.13	35945.95
463.32	35810.20
463.50	35400.60
463.68	35519.97
463.86	35346.77
464.05	35061.22
464.23	34562.69
464.41	34366.09
464.59	33729.46
464.78	35566.78
464.96	35306.98
465.14	34789.72
465.32	35611.25
465.50	36411.71
465.69	36662.15
465.87	36034.89
466.05	35159.53
466.23	33867.55
466.41	32793.25
466.60	34202.25
466.78	33893.30
466.96	34323.96
467.14	35138.46
467.32	35730.62
467.51	35629.98
467.69	34209.27
467.87	34623.54
468.05	34993.35
468.23	35225.06
468.41	35477.84
468.60	35112.72
468.78	35819.56
468.96	35370.18
469.14	35847.64
469.32	36055.95
469.50	34574.39
469.69	34691.42
469.87	34274.80
470.05	34352.04
470.23	34080.54
470.41	34197.57
470.59	35084.63
470.77	35037.82
470.95	35393.58
471.14	36374.27
471.32	36184.68
471.50	38220.95
471.68	38462.02
471.86	38337.98
472.04	38607.14
472.22	38646.93
472.40	36957.06
472.58	36451.50
472.77	36327.45
472.95	36811.95
473.13	38012.64
473.31	36409.37
473.49	37151.32
473.67	38052.43
473.85	37469.64
474.03	38941.83
474.21	38946.51
474.39	39431.01
474.57	39604.20
474.75	39395.90
474.93	39313.98
475.12	38543.94
475.30	38429.26
475.48	38703.10
475.66	39115.03
475.84	38373.08
476.02	38490.11
476.20	38398.83
476.38	38653.95
476.56	39950.60
476.74	40147.21
476.92	40353.18
477.10	40900.86
477.28	42021.98
477.46	41867.50
477.64	42497.11
477.82	42775.63
478.00	42845.85
478.18	42359.02
478.36	42218.58
478.54	42464.34
478.72	42312.20
478.90	42637.54
479.08	44355.49
479.26	44938.29
479.44	44844.66
479.62	44694.87
479.80	44776.79
479.98	44994.46
480.16	44842.32
480.34	44964.03
480.52	44889.13
480.70	45221.49
480.88	45265.96
481.06	46043.02
481.24	46616.45
481.41	47086.90
481.59	47917.79
481.77	47653.31
481.95	47009.66
482.13	46813.05
482.31	46670.28
482.49	47744.59
482.67	47201.58
482.85	47555.00
483.03	48439.73
483.21	48886.77
483.39	48523.99
483.57	47821.83
483.74	47870.98
483.92	47744.59
484.10	48252.48
484.28	48851.66
484.46	49677.87
484.64	49773.83
484.82	48477.18
485.00	48301.64
485.18	47152.43
485.35	46340.27
485.53	43569.07
485.71	39517.60
485.89	38911.41
486.07	40809.58
486.25	44229.10
486.43	46569.64
486.61	47594.79
486.78	47442.66
486.96	47767.99
487.14	49123.16
487.32	49865.11
487.50	50946.44
487.68	51426.25
487.85	52259.48
488.03	52292.25
488.21	51657.96
488.39	50808.35
488.57	50431.52
488.75	50087.46
488.92	51229.65
489.10	53174.63
489.28	54398.73
489.46	55016.63
489.64	54913.65
489.81	55360.69
489.99	54904.29
490.17	54691.30
490.35	54915.99
490.53	54801.30
490.70	54621.08
490.88	54265.32
491.06	54995.57
491.24	55178.13
491.41	54234.89
491.59	52680.78
491.77	51889.68
491.95	53034.20
492.13	53991.48
492.30	55171.11
492.48	56074.55
492.66	56392.87
492.84	56378.82
493.01	56280.52
493.19	55686.03
493.37	55353.67
493.54	55281.11
493.72	55679.00
493.90	56694.80
494.08	57406.32
494.25	57705.91
494.43	57958.69
494.61	58305.09
494.79	58295.72
494.96	58141.25
495.14	57546.75
495.32	56701.82
495.49	55887.31
495.67	56856.29
495.85	58188.06
496.02	58686.59
496.20	58497.01
496.38	57911.88
496.55	58054.65
496.73	58417.43
496.91	58492.33
497.09	59044.69
497.26	59238.96
497.44	58848.09
497.62	58445.52
497.79	57832.30
497.97	56327.33
498.14	56254.78
498.32	57495.26
498.50	58260.62
498.67	59030.65
498.85	58822.34
499.03	58848.09
499.20	59133.63
499.38	59004.91
499.56	59028.31
499.73	58447.86
499.91	58174.02
500.08	57698.89
500.26	57064.60
500.44	57394.62
500.61	58192.74
500.79	58040.60
500.97	57640.37
501.14	57429.72
501.32	57277.59
501.49	57301.00
501.67	57623.99
501.84	58056.99
502.02	58314.45
502.20	58534.46
502.37	58965.12
502.55	58672.55
502.72	59208.53
502.90	59753.88
503.07	59503.44
503.25	59196.83
503.43	58211.46
503.60	57783.15
503.78	57052.90
503.95	57399.30
504.13	58733.40
504.30	59456.63
504.48	59505.78
504.65	59016.61
504.83	59157.04
505.01	59477.69
505.18	59910.69
505.36	60519.23
505.53	60645.62
505.71	60764.99
505.88	60832.86
506.06	60280.50
506.23	59882.61
506.41	59667.28
506.58	59826.43
506.76	59718.77
506.93	59767.92
507.11	59440.24
507.28	59758.56
507.46	59180.45
507.63	58667.87
507.81	58466.58
507.98	58906.60
508.16	59592.38
508.33	59737.49
508.50	60317.95
508.68	60467.74
508.85	61017.77
509.03	61092.66
509.20	60690.09
509.38	60065.17
509.55	59540.89
509.73	59496.42
509.90	60140.07
510.08	60350.71
510.25	60189.22
510.42	60109.64
510.60	59873.24
510.77	60210.28
510.95	60547.32
511.12	60523.91
511.30	61080.96
511.47	61237.78
511.64	61169.90
511.82	60877.33
511.99	60149.43
512.17	59812.39
512.34	59597.06
512.51	59482.37
512.69	59779.62
512.86	59849.84
513.04	60376.46
513.21	60341.35
513.38	59831.11
513.56	59700.04
513.73	58871.49
513.90	59063.42
514.08	59194.49
514.25	59650.89
514.43	59667.28
514.60	59765.58
514.77	59938.78
514.95	60163.47
515.12	59931.76
515.29	59969.21
515.47	60659.66
515.64	60863.29
515.81	60392.84
515.99	59906.01
516.16	58426.79
516.33	56512.23
516.51	55103.23
516.68	54298.09
516.85	54035.95
517.03	54157.66
517.20	56509.89
517.37	59166.40
517.54	60135.38
517.72	59540.89
517.89	57577.18
518.06	55112.59
518.24	55250.69
518.41	57513.98
518.58	58784.90
518.75	58698.30
518.93	59128.95
519.10	59084.48
519.27	59428.54
519.45	59573.66
519.62	60149.43
519.79	60704.13
519.96	60378.80
520.14	59882.61
520.31	58997.88
520.48	59117.25
520.65	59384.07
520.83	60402.21
521.00	60591.79
521.17	60327.31
521.34	60067.51
521.52	60383.48
521.69	60783.71
521.86	61228.41
522.03	60924.14
522.20	59983.25
522.38	58796.60
522.55	58859.79
522.72	59344.28
522.89	59519.82
523.07	59597.06
523.24	60310.92
523.41	60839.89
523.58	61120.75
523.75	61647.37
523.92	61296.29
524.10	61450.77
524.27	61319.70
524.44	61237.78
524.61	61043.51
524.78	60793.07
524.96	60842.23
525.13	60772.01
525.30	60959.25
525.47	61396.93
525.64	61312.67
525.81	60680.73
525.98	59355.99
526.16	58068.69
526.33	57523.35
526.50	57127.80
526.67	56652.67
526.84	57549.09
527.01	58089.76
527.18	58887.88
527.36	59786.64
527.53	60676.05
527.70	60889.04
527.87	60526.25
528.04	59882.61
528.21	60376.46
528.38	60952.23
528.55	61647.37
528.72	61843.98
528.89	62033.56
529.07	61628.65
529.24	60966.27
529.41	60467.74
529.58	60065.17
529.75	60053.47
529.92	60491.15
530.09	60982.66
530.26	61205.01
530.43	61457.79
530.60	61567.79
530.77	61799.50
530.94	61902.49
531.11	61359.48
531.28	60903.08
531.46	61076.28
531.63	61083.30
531.80	60821.16
531.97	60580.09
532.14	59814.73
532.31	58880.86
532.48	58344.87
532.65	58295.72
532.82	59283.43
532.99	60126.02
533.16	60519.23
533.33	61113.73
533.50	60942.87
533.67	60158.79
533.84	59889.63
534.01	60069.85
534.18	60381.14
534.35	60601.15
534.52	60111.98
534.69	60364.76
534.86	60781.37
535.03	61015.43
535.20	61485.87
535.37	61846.32
535.54	61855.68
535.71	61743.33
535.88	61251.82
536.05	60713.50
536.22	60233.69
536.38	59910.69
536.55	59487.06
536.72	59344.28
536.89	59112.57
537.06	60023.04
537.23	60451.36
537.40	60743.92
537.57	60910.10
537.74	60526.25
537.91	60420.93
538.08	60509.87
538.25	60678.39
538.42	60713.50
538.59	60610.51
538.75	59903.67
538.92	59751.54
539.09	59678.98
539.26	59400.46
539.43	59295.13
539.60	59306.83
539.77	59618.13
539.94	59260.02
540.11	58653.82
540.28	58260.62
540.44	58305.09
540.61	58560.20
540.78	58604.67
540.95	58932.35
541.12	59503.44
541.29	59655.57
541.46	59903.67
541.62	60177.51
541.79	59805.37
541.96	59276.41
542.13	59295.13
542.30	59444.93
542.47	59927.08
542.63	59477.69
542.80	59210.87
542.97	59533.87
543.14	59297.47
543.31	59386.41
543.48	60046.44
543.64	60687.75
543.81	60795.42
543.98	60535.62
544.15	60102.62
544.32	59447.27
544.48	59634.51
544.65	60191.56
544.82	60313.26
544.99	59831.11
545.16	59718.77
545.32	59325.56
545.49	60048.78
545.66	60580.09
545.83	60044.10
546.00	59742.17
546.16	59449.61
546.33	59519.82
546.50	59756.22
546.67	60154.11
546.83	59580.68
547.00	59559.61
547.17	58979.16
547.34	58347.21
547.50	58494.67
547.67	58831.71
547.84	58922.99
548.00	59084.48
548.17	59695.36
548.34	59671.96
548.51	59611.10
548.67	59384.07
548.84	59767.92
549.01	59866.22
549.18	59664.94
549.34	59573.66
549.51	59449.61
549.68	59423.86
549.84	59175.76
550.01	59107.89
550.18	59018.95
550.34	59154.70
550.51	58871.49
550.68	59238.96
550.84	59058.74
551.01	58803.62
551.18	58712.34
551.34	58906.60
551.51	59395.77
551.68	59622.81
551.84	59770.26
552.01	59587.70
552.18	59456.63
552.34	58473.60
552.51	58351.90
552.68	58169.33
552.84	58745.11
553.01	58906.60
553.18	58599.99
553.34	58904.26
553.51	58958.09
553.67	59475.35
553.84	59505.78
554.01	59222.58
554.17	59084.48
554.34	59157.04
554.51	59339.60
554.67	59363.01
554.84	59433.22
555.00	59114.91
555.17	58883.20
555.33	58878.52
555.50	58915.96
555.67	58873.84
555.83	58740.42
556.00	58433.81
556.16	58487.65
556.33	58129.54
556.50	57977.41
556.66	57918.90
556.83	57567.82
556.99	57963.37
557.16	57701.23
557.32	58211.46
557.49	58445.52
557.65	58452.54
557.82	58216.14
557.98	58089.76
558.15	57743.36
558.32	57111.41
558.48	56149.45
558.65	56336.69
558.81	56802.46
558.98	56973.32
559.14	57169.93
559.31	57298.65
559.47	57392.28
559.64	57106.73
559.80	56624.58
559.97	56725.22
560.13	57247.16
560.30	58092.10
560.46	58431.47
560.63	58543.82
560.79	58607.01
560.96	58438.50
561.12	57223.76
561.29	56315.63
561.45	56575.43
561.61	56973.32
561.78	57471.85
561.94	57188.65
562.11	57242.48
562.27	57198.01
562.44	57483.56
562.60	57783.15
562.77	58045.29
562.93	57811.23
563.10	57684.84
563.26	56896.08
563.42	57052.90
563.59	57052.90
563.75	56940.55
563.92	56926.51
564.08	57090.35
564.24	57347.81
564.41	57497.60
564.57	57193.33
564.74	57111.41
564.90	57066.94
565.07	56762.67
565.23	56390.53
565.39	56018.38
565.56	55676.66
565.72	55711.77
565.88	56020.72
566.05	56027.74
566.21	56119.02
566.38	56212.65
566.54	56172.86
566.70	57001.41
566.87	56982.68
567.03	56982.68
567.19	57132.48
567.36	56928.85
567.52	56809.48
567.68	56545.00
567.85	55767.94
568.01	55704.75
568.17	55161.75
568.34	55428.57
568.50	55236.64
568.66	55255.37
568.83	55611.13
568.99	55845.18
569.15	55971.57
569.32	56158.81
569.48	55554.96
569.64	55470.70
569.81	55267.07
569.97	54791.94
570.13	55234.30
570.30	54431.50
570.46	54277.02
570.62	53614.65
570.78	53684.87
570.95	53921.26
571.11	54621.08
571.27	54733.43
571.43	55260.05
571.60	55206.22
571.76	55264.73
571.92	55840.50
572.09	55899.01
572.25	55751.56
572.41	55683.69
572.57	55395.80
572.74	55587.72
572.90	55096.21
573.06	54927.69
573.22	55037.70
573.38	55246.00
573.55	55285.79
573.71	55547.93
573.87	55466.02
574.03	55009.61
574.20	55000.25
574.36	54897.27
574.52	54705.34
574.68	54553.21
574.84	54148.29
575.01	53446.13
575.17	53593.59
575.33	54031.27
575.49	53930.62
575.65	54501.71
575.82	54239.57
575.98	53729.34
576.14	54106.16
576.30	54433.84
576.46	54649.17
576.62	54288.73
576.79	54262.98
576.95	54101.48
577.11	53993.82
577.27	54087.44
577.43	54054.67
577.59	53755.08
577.75	53600.61
577.92	52971.00
578.08	52694.82
578.24	52360.12
578.40	52861.00
578.56	53097.39
578.72	53401.66
578.88	53399.32
579.04	53525.71
579.21	53422.73
579.37	53579.54
579.53	53811.26
579.69	53918.92
579.85	53965.73
580.01	53956.37
580.17	53233.14
580.33	53249.53
580.49	53411.02
580.65	53415.71
580.82	53567.84
580.98	54057.01
581.14	53722.32
581.30	53762.11
581.46	53471.88
581.62	53916.58
581.78	53741.04
581.94	53883.81
582.10	53895.52
582.26	53787.85
582.42	53797.21
582.58	53837.00
582.74	53909.56
582.90	53860.41
583.06	53872.11
583.22	53776.15
583.38	53670.82
583.54	53441.45
583.70	53719.98
583.86	53586.57
584.02	53488.26
584.18	53570.18
584.34	53235.48
584.50	53261.23
584.66	53256.55
584.82	52671.42
584.98	52622.26
585.14	52549.71
