SpectraSuite Data File
++++++++++++++++++++++++++++++++++++
Date: Mon Oct 07 14:53:52 GMT-05:00 2013
User: price-jones
Dark Spectrum Present: No
Reference Spectrum Present: No
Number of Sampled Component Spectra: 1
Spectrometers: USB2+H05261
Integration Time (usec): 100000 (USB2+H05261)
Spectra Averaged: 1 (USB2+H05261)
Boxcar Smoothing: 0 (USB2+H05261)
Correct for Electrical Dark: No (USB2+H05261)
Strobe/Lamp Enabled: No (USB2+H05261)
Correct for Detector Non-linearity: No (USB2+H05261)
Correct for Stray Light: No (USB2+H05261)
Number of Pixels in Processed Spectrum: 2048
>>>>>Begin Processed Spectral Data<<<<<
365.73	0.00
365.92	0.00
366.12	0.00
366.32	0.00
366.52	0.00
366.72	0.00
366.91	0.00
367.11	0.00
367.31	0.00
367.51	0.00
367.70	0.00
367.90	0.00
368.10	0.00
368.30	0.00
368.49	0.00
368.69	0.00
368.89	0.00
369.09	0.00
369.28	0.00
369.48	0.00
369.68	0.00
369.87	0.00
370.07	0.00
370.27	0.00
370.47	592.16
370.66	2944.39
370.86	3499.10
371.06	3726.13
371.25	3838.48
371.45	3447.61
371.65	3152.70
371.84	2920.99
372.04	2988.86
372.24	3337.60
372.44	3592.72
372.63	3398.46
372.83	3258.03
373.03	2935.03
373.22	2614.38
373.42	2766.51
373.62	3229.94
373.81	3452.29
374.01	3576.34
374.21	3239.30
374.40	2885.88
374.60	2991.20
374.79	3372.71
374.99	3988.27
375.19	4266.80
375.38	4184.88
375.58	3894.65
375.78	3899.33
375.97	4051.47
376.17	4180.20
376.37	4175.52
376.56	4339.35
376.76	4603.83
376.95	4732.56
377.15	5093.01
377.35	5198.33
377.54	5533.03
377.74	5743.67
377.93	5884.11
378.13	5523.66
378.33	5514.30
378.52	4802.78
378.72	4655.33
378.91	4531.28
379.11	4510.21
379.31	4287.86
379.50	4395.53
379.70	4645.96
379.89	5146.84
380.09	5467.49
380.28	5638.35
380.48	5572.82
380.68	5518.98
380.87	5434.72
381.07	4938.53
381.26	4699.80
381.46	4423.61
381.65	4138.07
381.85	4084.23
382.04	3885.29
382.24	3447.61
382.43	3435.91
382.63	3342.28
382.83	3377.39
383.02	3344.63
383.22	3466.33
383.41	3274.41
383.61	3569.32
383.80	4166.15
384.00	4706.82
384.19	5247.48
384.39	5371.53
384.58	5500.26
384.78	5338.76
384.97	5289.61
385.17	5193.65
385.36	4727.88
385.56	4613.20
385.75	4716.18
385.95	5200.67
386.14	5809.21
386.34	5806.87
386.53	5572.82
386.72	5109.39
386.92	5078.96
387.11	5294.29
387.31	5753.04
387.50	5591.54
387.70	5366.85
387.89	5504.94
388.09	5373.87
388.28	5430.04
388.48	5408.98
388.67	5811.55
388.86	6534.78
389.06	6719.68
389.25	7234.60
389.45	7342.26
389.64	7501.42
389.84	7288.43
390.03	7300.13
390.22	6963.09
390.42	7487.37
390.61	7899.31
390.81	8318.26
391.00	8620.19
391.19	8594.45
391.39	8379.12
391.58	7798.66
391.78	7239.28
391.97	7084.80
392.16	6656.48
392.36	5959.00
392.55	4779.37
392.75	3772.94
392.94	3192.49
393.13	3091.85
393.33	3620.81
393.52	4573.41
393.71	5675.80
393.91	6480.94
394.10	7009.90
394.29	7726.11
394.49	8348.69
394.68	9064.89
394.88	9041.49
395.07	9481.51
395.26	9184.26
395.46	8945.53
395.65	8454.02
395.84	7435.88
396.04	6221.14
396.23	5135.14
396.42	4325.31
396.62	4098.28
396.81	4800.44
397.00	5998.79
397.19	7494.40
397.39	8971.27
397.58	10216.44
397.77	10743.06
397.97	11178.40
398.16	11407.77
398.35	11861.84
398.55	12028.01
398.74	12582.72
398.93	12812.09
399.12	12641.23
399.32	11880.56
399.51	12322.92
399.70	13298.92
399.90	12835.50
400.09	13088.28
400.28	13041.46
400.47	13228.71
400.67	13820.86
400.86	14031.51
401.05	14097.05
401.24	14073.64
401.44	14197.69
401.63	14361.53
401.82	14459.83
402.01	14586.22
402.21	14593.24
402.40	14527.71
402.59	14438.76
402.78	13696.82
402.97	13301.26
403.17	13547.02
403.36	14597.92
403.55	15173.69
403.74	15304.76
403.93	14670.48
404.13	13591.49
404.32	13097.64
404.51	13748.31
404.70	15084.75
404.89	15187.74
405.09	14857.72
405.28	14195.35
405.47	14464.51
405.66	14338.12
405.85	14008.11
406.05	13680.43
406.24	13420.63
406.43	14429.40
406.62	14918.57
406.81	14867.08
407.00	14396.64
407.20	14078.32
407.39	14148.54
407.58	14890.49
407.77	15119.86
407.96	15775.21
408.15	16107.57
408.34	15957.77
408.54	16968.88
408.73	16933.78
408.92	16779.30
409.11	16287.79
409.30	15382.00
409.49	14717.29
409.68	13516.59
409.87	13156.15
410.07	14057.26
410.26	15035.60
410.45	16011.60
410.64	16512.48
410.83	17006.33
411.02	17439.33
411.21	17963.61
411.40	18228.09
411.59	17912.12
411.78	17764.67
411.98	17371.46
412.17	17958.93
412.36	17488.48
412.55	17514.23
412.74	17102.29
412.93	16739.51
413.12	17053.14
413.31	18565.13
413.50	18705.56
413.69	18946.64
413.88	18256.18
414.07	17525.93
414.26	18256.18
414.45	18501.93
414.64	18574.49
414.83	18850.67
415.02	18403.63
415.22	18604.92
415.41	18850.67
415.60	19271.97
415.79	20374.36
415.98	20734.81
416.17	20725.44
416.36	20245.63
416.55	19669.86
416.74	19227.50
416.93	18499.59
417.12	18436.40
417.31	18750.03
417.50	19009.83
417.69	19997.54
417.88	19836.04
418.07	19559.86
418.26	19094.09
418.45	19391.34
418.64	20182.44
418.83	20872.90
419.02	20465.64
419.21	20191.80
419.39	19339.85
419.58	18623.64
419.77	18424.70
419.96	19213.46
420.15	20208.19
420.34	21174.83
420.53	21832.52
420.72	22401.27
420.91	22218.71
421.10	22012.74
421.29	21364.41
421.48	20617.78
421.67	21738.90
421.86	21022.69
422.05	19917.96
422.24	17724.88
422.43	17263.79
422.61	19468.58
422.80	21071.84
422.99	21142.06
423.18	20044.35
423.37	19784.55
423.56	19805.61
423.75	20273.72
423.94	20861.19
424.13	19555.18
424.32	19599.65
424.50	19758.80
424.69	19534.11
424.88	19229.84
425.07	19646.46
425.26	19353.89
425.45	19386.66
425.64	19103.45
425.83	18956.00
426.01	20016.26
426.20	20589.69
426.39	20566.29
426.58	18850.67
426.77	17879.35
426.96	16753.55
427.15	17343.37
427.33	19201.76
427.52	19531.77
427.71	19749.44
427.90	19660.50
428.09	19452.19
428.28	18981.74
428.46	18214.05
428.65	17933.18
428.84	18380.23
429.03	18710.24
429.22	17895.74
429.40	16854.20
429.59	15133.90
429.78	13448.72
429.97	13626.60
430.16	13862.99
430.34	13717.88
430.53	13884.06
430.72	14221.10
430.91	15562.22
431.10	18267.88
431.28	21245.04
431.47	23285.99
431.66	23566.85
431.85	21785.71
432.03	19814.98
432.22	18927.91
432.41	19470.92
432.60	21596.12
432.79	22541.70
432.97	23442.81
433.16	22693.83
433.35	20631.82
433.54	18520.66
433.72	17315.28
433.91	17947.23
434.10	19941.36
434.28	21722.51
434.47	22492.55
434.66	22258.49
434.85	21680.38
435.03	21418.24
435.22	22314.67
435.41	23463.87
435.59	23482.59
435.78	23901.55
435.97	24641.16
436.16	24886.92
436.34	24425.83
436.53	23754.10
436.72	24269.01
436.90	22710.22
437.09	22644.68
437.28	22153.17
437.46	23119.81
437.65	22443.40
437.84	21537.61
438.02	19410.06
438.21	19307.08
438.40	20428.20
438.58	22450.42
438.77	22780.43
438.96	22876.40
439.14	23885.17
439.33	24526.47
439.52	25177.14
439.70	24269.01
439.89	23988.15
440.08	23159.60
440.26	23229.82
440.45	24156.67
440.63	25212.25
440.82	26857.65
441.01	26410.60
441.19	25809.09
441.38	26504.23
441.57	27393.63
441.75	28304.10
441.94	28114.52
442.12	27627.68
442.31	28732.42
442.50	28552.20
442.68	27924.93
442.87	27908.55
443.05	26939.57
443.24	27807.90
443.43	28137.92
443.61	29088.18
443.80	28903.28
443.98	27494.27
444.17	27463.85
444.35	29153.71
444.54	29476.71
444.73	29301.17
444.91	27969.40
445.10	26909.14
445.28	25977.61
445.47	25432.26
445.65	25743.55
445.84	26253.79
446.02	27119.79
446.21	27442.78
446.39	27615.98
446.58	27723.65
446.77	28514.75
446.95	28891.57
447.14	29677.99
447.32	30080.56
447.51	29301.17
447.69	28371.97
447.88	27969.40
448.06	28421.13
448.25	28828.38
448.43	29209.89
448.62	28631.77
448.80	28243.24
448.99	28657.52
449.17	28903.28
449.36	28606.03
449.54	30015.03
449.73	30183.55
449.91	31044.87
450.10	31424.03
450.28	32051.30
450.46	31597.23
450.65	31768.09
450.83	31952.99
451.02	30574.42
451.20	30778.04
451.39	30780.39
451.57	30480.80
451.76	30396.54
451.94	30401.22
452.13	29942.47
452.31	28060.68
452.49	27283.62
452.68	27321.07
452.86	27632.36
453.05	27999.83
453.23	28458.57
453.42	29347.98
453.60	30110.99
453.78	30256.11
453.97	29972.90
454.15	29989.28
454.34	29462.66
454.52	29577.35
454.70	28732.42
454.89	29228.61
455.07	29252.02
455.26	29572.67
455.44	30864.64
455.62	31447.44
455.81	31842.99
455.99	31367.86
456.17	30808.47
456.36	31391.26
456.54	32283.01
456.73	31845.33
456.91	32519.40
457.09	32526.42
457.28	33184.12
457.46	31922.57
457.64	31681.49
457.83	30838.90
458.01	30258.45
458.19	30682.08
458.38	30525.27
458.56	32297.05
458.74	31819.58
458.93	32170.66
459.11	31330.41
459.29	31068.27
459.48	31278.92
459.66	30871.67
459.84	31548.08
460.03	31641.70
460.21	31695.53
460.39	32664.52
460.57	32708.99
460.76	32833.04
460.94	32821.33
461.12	32943.04
461.31	32723.03
461.49	32629.41
461.67	32741.75
461.85	33542.22
462.04	33160.71
462.22	33488.38
462.40	33607.75
462.59	33076.45
462.77	33464.98
462.95	33359.66
463.13	32751.12
463.32	32804.95
463.50	32231.52
463.68	32442.17
463.86	32514.72
464.05	31854.69
464.23	31480.21
464.41	31321.05
464.59	30747.62
464.78	32290.03
464.96	32135.56
465.14	31955.33
465.32	32786.22
465.50	33233.27
465.69	33453.28
465.87	32723.03
466.05	32325.14
466.23	30644.63
466.41	30305.26
466.60	31014.44
466.78	30890.39
466.96	31866.39
467.14	31941.29
467.32	32641.11
467.51	32507.70
467.69	30733.57
467.87	31522.34
468.05	31997.46
468.23	32219.81
468.41	32451.53
468.60	32568.55
468.78	32446.85
468.96	32402.38
469.14	33036.66
469.32	33120.92
469.50	31700.22
469.69	31840.65
469.87	31332.75
470.05	30866.98
470.23	31152.53
470.41	31459.14
470.59	31997.46
470.77	32023.21
470.95	32496.00
471.14	32734.73
471.32	33092.83
471.50	34852.92
471.68	34686.74
471.86	35131.44
472.04	35119.74
472.22	35005.05
472.40	33682.65
472.58	33893.30
472.77	32802.61
472.95	33481.36
473.13	34897.39
473.31	33851.17
473.49	33914.36
473.67	34726.53
473.85	35021.44
474.03	35400.60
474.21	35559.76
474.39	35775.09
474.57	36105.10
474.75	36037.23
474.93	36210.43
475.12	34890.37
475.30	35082.29
475.48	35529.33
475.66	36156.60
475.84	35077.61
476.02	34986.33
476.20	34223.31
476.38	35182.93
476.56	36266.60
476.74	36847.05
476.92	36741.73
477.10	37778.59
477.28	38508.83
477.46	38487.77
477.64	39082.27
477.82	38876.30
478.00	39103.33
478.18	38618.84
478.36	38412.87
478.54	38176.48
478.72	38497.13
478.90	39749.32
479.08	40559.14
479.26	41139.60
479.44	40830.65
479.62	40795.54
479.80	40914.90
479.98	40926.61
480.16	41642.81
480.34	40767.45
480.52	40884.48
480.70	40980.44
480.88	41305.77
481.06	42548.60
481.24	42473.70
481.41	43618.22
481.59	43765.68
481.77	43999.73
481.95	43054.15
482.13	42848.19
482.31	43250.76
482.49	43253.10
482.67	43407.58
482.85	43732.91
483.03	44626.99
483.21	44989.78
483.39	44921.90
483.57	44273.57
483.74	43388.85
483.92	43838.23
484.10	44690.19
484.28	44987.44
484.46	45432.14
484.64	45827.69
484.82	44706.57
485.00	44655.08
485.18	43718.87
485.35	42211.56
485.53	39330.36
485.71	36100.42
485.89	35168.89
486.07	37144.30
486.25	40509.99
486.43	42646.90
486.61	43812.49
486.78	43594.82
486.96	43435.66
487.14	45010.84
487.32	46021.95
487.50	47122.01
487.68	47969.28
487.85	48605.91
488.03	48523.99
488.21	48430.36
488.39	47641.60
488.57	46546.23
488.75	46506.44
488.92	47585.43
489.10	50096.83
489.28	51611.15
489.46	51969.26
489.64	51782.01
489.81	52165.86
489.99	51648.60
490.17	51405.19
490.35	52097.98
490.53	51426.25
490.70	50728.77
490.88	50829.41
491.06	52100.32
491.24	51899.04
491.41	51019.00
491.59	49476.58
491.77	48325.04
491.95	49825.32
492.13	50546.21
492.30	52018.41
492.48	53329.11
492.66	53773.81
492.84	53336.13
493.01	53291.66
493.19	52575.45
493.37	52095.64
493.54	52109.69
493.72	52811.85
493.90	53675.51
494.08	54850.45
494.25	54777.90
494.43	54836.41
494.61	55058.76
494.79	55330.26
494.96	55304.52
495.14	54794.28
495.32	53895.52
495.49	52926.53
495.67	53867.43
495.85	55519.85
496.02	55866.25
496.20	55833.48
496.38	55473.04
496.55	55379.42
496.73	55859.23
496.91	55824.12
497.09	56151.79
497.26	56509.89
497.44	55966.89
497.62	55444.95
497.79	54803.64
497.97	53312.72
498.14	53759.76
498.32	54703.00
498.50	55707.09
498.67	56280.52
498.85	56030.08
499.03	56214.99
499.20	56601.18
499.38	56549.68
499.56	56329.67
499.73	55875.61
499.91	55372.39
500.08	54906.63
500.26	54080.42
500.44	54714.70
500.61	55440.27
500.79	55131.32
500.97	54677.25
501.14	54684.28
501.32	54363.62
501.49	54548.53
501.67	54667.89
501.84	55405.16
502.02	55618.15
502.20	56004.34
502.37	55999.66
502.55	55969.23
502.72	56673.73
502.90	57198.01
503.07	56655.01
503.25	56474.79
503.43	55585.38
503.60	54951.10
503.78	54239.57
503.95	54504.06
504.13	56074.55
504.30	56853.95
504.48	56640.96
504.65	56313.29
504.83	56474.79
505.01	56788.42
505.18	57162.90
505.36	57951.66
505.53	57881.45
505.71	58253.59
505.88	58223.17
506.06	57553.77
506.23	57080.98
506.41	56942.89
506.58	57144.18
506.76	57167.58
506.93	57027.15
507.11	56760.33
507.28	57066.94
507.46	56547.34
507.63	56025.40
507.81	55688.37
507.98	55821.78
508.16	56615.22
508.33	57183.97
508.50	57535.05
508.68	57822.93
508.85	58504.03
509.03	58326.15
509.20	58129.54
509.38	57488.24
509.55	56437.34
509.73	56877.36
509.90	57396.96
510.08	57471.85
510.25	57535.05
510.42	57249.50
510.60	56980.34
510.77	57499.94
510.95	57755.06
511.12	58007.84
511.30	58625.74
511.47	58707.66
511.64	58440.84
511.82	58384.66
511.99	57345.47
512.17	56985.02
512.34	56865.66
512.51	56830.55
512.69	57088.01
512.86	57240.14
513.04	57633.35
513.21	57453.13
513.38	57322.06
513.56	56657.35
513.73	56037.11
513.90	56250.09
514.08	56119.02
514.25	56568.41
514.43	56701.82
514.60	56856.29
514.77	57233.12
514.95	57296.31
515.12	57095.03
515.29	57195.67
515.47	57703.57
515.64	58014.86
515.81	57605.26
515.99	57214.40
516.16	55398.14
516.33	53205.06
516.51	51959.89
516.68	51061.13
516.85	50408.12
517.03	50944.10
517.20	53631.04
517.37	56219.67
517.54	57183.97
517.72	56636.28
517.89	54227.87
518.06	51639.24
518.24	51690.73
518.41	54480.65
518.58	55971.57
518.75	56222.01
518.93	56126.05
519.10	56097.96
519.27	56437.34
519.45	56779.06
519.62	57462.49
519.79	57846.34
519.96	57443.77
520.14	57247.16
520.31	56154.13
520.48	56147.11
520.65	56615.22
520.83	57827.62
521.00	58164.65
521.17	57420.36
521.34	57270.57
521.52	57305.68
521.69	58316.79
521.86	58609.35
522.03	58192.74
522.20	56903.10
522.38	55667.30
522.55	55959.87
522.72	56395.21
522.89	56748.63
523.07	56938.21
523.24	57169.93
523.41	58000.82
523.58	58403.39
523.75	58630.42
523.92	58639.78
524.10	58356.58
524.27	58475.94
524.44	58284.02
524.61	58113.16
524.78	58241.89
524.96	57909.53
525.13	58045.29
525.30	58246.57
525.47	58728.72
525.64	58592.97
525.81	57937.62
525.98	56537.98
526.16	54773.22
526.33	54185.74
526.50	53832.32
526.67	53387.62
526.84	54064.03
527.01	55075.15
527.18	55910.72
527.36	56926.51
527.53	57783.15
527.70	58033.58
527.87	57574.84
528.04	56772.03
528.21	57399.30
528.38	57982.09
528.55	58702.98
528.72	59079.80
528.89	59217.89
529.07	58880.86
529.24	58281.68
529.41	57513.98
529.58	56994.39
529.75	57097.37
529.92	57586.54
530.09	57829.96
530.26	58251.25
530.43	58805.96
530.60	58728.72
530.77	58787.24
530.94	59227.26
531.11	58504.03
531.28	58089.76
531.46	58300.40
531.63	58291.04
531.80	58033.58
531.97	57558.45
532.14	56788.42
532.31	55889.65
532.48	55011.95
532.65	55288.13
532.82	56002.00
532.99	57499.94
533.16	57645.05
533.33	58113.16
533.50	57991.45
533.67	57188.65
533.84	56774.37
534.01	57010.77
534.18	57324.40
534.35	57432.07
534.52	57434.41
534.69	57499.94
534.86	57853.36
535.03	58134.23
535.20	58525.10
535.37	58976.82
535.54	58988.52
535.71	58653.82
535.88	58326.15
536.05	57752.72
536.22	57380.57
536.38	57031.83
536.55	56413.93
536.72	55917.74
536.89	55772.63
537.06	56765.01
537.23	57701.23
537.40	57879.11
537.57	57757.40
537.74	57389.94
537.91	57375.89
538.08	57427.38
538.25	57738.68
538.42	57602.92
538.59	57726.97
538.75	56949.92
538.92	56566.07
539.09	56552.02
539.26	56285.20
539.43	56147.11
539.60	56315.63
539.77	56530.96
539.94	56303.93
540.11	55374.73
540.28	55044.72
540.44	55070.46
540.61	55267.07
540.78	55641.56
540.95	55929.44
541.12	56362.44
541.29	56786.08
541.46	56940.55
541.62	56921.83
541.79	56818.84
541.96	56362.44
542.13	56193.92
542.30	56690.12
542.47	56601.18
542.63	56587.13
542.80	56128.39
542.97	56540.32
543.14	56198.60
543.31	56158.81
543.48	56938.21
543.64	57567.82
543.81	57719.95
543.98	57858.04
544.15	57020.13
544.32	56261.80
544.48	56444.36
544.65	57010.77
544.82	57221.42
544.99	56809.48
545.16	56552.02
545.32	56285.20
545.49	57078.64
545.66	57471.85
545.83	57141.84
546.00	56846.93
546.16	56502.87
546.33	56418.61
546.50	56477.13
546.67	56924.17
546.83	56547.34
547.00	56633.94
547.17	55758.58
547.34	55253.03
547.50	55363.03
547.67	55796.03
547.84	55810.07
548.00	56060.51
548.17	56715.86
548.34	56254.78
548.51	56502.87
548.67	56512.23
548.84	56465.42
549.01	56563.73
549.18	56198.60
549.34	56383.51
549.51	56224.35
549.68	56362.44
549.84	56130.73
550.01	55831.14
550.18	55767.94
550.34	55852.20
550.51	56016.04
550.68	56233.71
550.84	55641.56
551.01	55339.63
551.18	55470.70
551.34	55903.70
551.51	56048.81
551.68	56390.53
551.84	56404.57
552.01	56264.14
552.18	56261.80
552.34	55288.13
552.51	54873.86
552.68	54749.81
552.84	55540.91
553.01	55704.75
553.18	55543.25
553.34	55716.45
553.51	55730.50
553.67	55945.83
553.84	56121.37
554.01	56217.33
554.17	55711.77
554.34	55805.39
554.51	55777.31
554.67	56170.52
554.84	56133.07
555.00	55753.90
555.17	55543.25
555.33	55580.70
555.50	55805.39
555.67	55597.09
555.83	55189.83
556.00	54988.55
556.16	55147.70
556.33	54431.50
556.50	54478.31
556.66	54623.42
556.83	54270.00
556.99	54326.17
557.16	54672.57
557.32	54934.71
557.49	55262.39
557.65	54948.76
557.82	55075.15
557.98	54738.11
558.15	54497.03
558.32	53595.93
558.48	52207.99
558.65	52903.13
558.81	53373.58
558.98	53298.68
559.14	53886.15
559.31	53829.98
559.47	53764.45
559.64	53586.57
559.80	53167.61
559.97	53134.84
560.13	53506.99
560.30	54431.50
560.46	55126.64
560.63	55145.36
560.79	55414.52
560.96	54878.54
561.12	53937.65
561.29	53001.43
561.45	52928.87
561.61	53544.44
561.78	54188.08
561.94	53794.87
562.11	53591.25
562.27	53689.55
562.44	53874.45
562.60	54237.23
562.77	54199.79
562.93	54101.48
563.10	53996.16
563.26	53401.66
563.42	53415.71
563.59	53361.87
563.75	53352.51
563.92	53511.67
564.08	53268.25
564.24	53570.18
564.41	53825.30
564.57	53663.80
564.74	53319.74
564.90	53488.26
565.07	53221.44
565.23	52666.73
565.39	52416.30
565.56	52006.70
565.72	51875.63
565.88	52226.71
566.05	52474.81
566.21	52530.98
566.38	52561.41
566.54	52610.56
566.70	53429.75
566.87	53345.49
567.03	53631.04
567.19	53521.03
567.36	53324.43
567.52	53116.12
567.68	53069.31
567.85	52048.83
568.01	51779.67
568.17	51569.02
568.34	51426.25
568.50	51393.48
568.66	51442.63
568.83	51690.73
568.99	51767.97
569.15	52184.58
569.32	52086.28
569.48	51702.43
569.64	51531.57
569.81	51351.35
569.97	51028.36
570.13	50927.72
570.30	50501.74
570.46	49914.26
570.62	49958.73
570.78	49478.92
570.95	49595.95
571.11	50571.96
571.27	50497.06
571.43	50728.77
571.60	51281.14
571.76	51421.57
571.92	51810.10
572.09	51929.47
572.25	51800.74
572.41	52069.90
572.57	51737.54
572.74	51803.08
572.90	50904.31
573.06	50873.88
573.22	51421.57
573.38	51192.20
573.55	51337.31
573.71	51512.85
573.87	51316.25
574.03	51585.41
574.20	50698.34
574.36	50775.58
574.52	50475.99
574.68	50478.33
574.84	49975.12
575.01	49254.23
575.17	48999.12
575.33	49883.84
575.49	50005.55
575.65	49837.03
575.82	49956.39
575.98	49684.89
576.14	49918.95
576.30	50174.06
576.46	50375.35
576.62	49909.58
576.79	50335.56
576.95	49797.24
577.11	49574.89
577.27	49900.22
577.43	50047.68
577.59	49792.56
577.75	48971.03
577.92	48526.33
578.08	47868.64
578.24	48039.50
578.40	48559.09
578.56	48961.67
578.72	48484.20
578.88	48854.00
579.04	49338.49
579.21	49478.92
579.37	48940.60
579.53	49429.77
579.69	49422.75
579.85	49284.66
580.01	49322.11
580.17	49202.74
580.33	48346.11
580.49	48940.60
580.65	49193.38
580.82	49682.55
580.98	49322.11
581.14	49172.31
581.30	49415.73
581.46	49041.24
581.62	49612.34
581.78	49467.22
581.94	49872.14
582.10	49591.27
582.26	49523.40
582.42	49291.68
582.58	49371.26
582.74	49975.12
582.90	49380.62
583.06	49333.81
583.22	49043.59
583.38	49041.24
583.54	49071.67
583.70	49144.23
583.86	49008.48
584.02	49020.18
584.18	49230.83
584.34	48779.10
584.50	48552.07
584.66	48397.60
584.82	48280.57
584.98	48423.34
585.14	47622.88
585.30	47086.90
