SpectraSuite Data File
++++++++++++++++++++++++++++++++++++
Date: Mon Oct 07 14:53:01 GMT-05:00 2013
User: price-jones
Dark Spectrum Present: No
Reference Spectrum Present: No
Number of Sampled Component Spectra: 1
Spectrometers: USB2+H05261
Integration Time (usec): 100000 (USB2+H05261)
Spectra Averaged: 1 (USB2+H05261)
Boxcar Smoothing: 0 (USB2+H05261)
Correct for Electrical Dark: No (USB2+H05261)
Strobe/Lamp Enabled: No (USB2+H05261)
Correct for Detector Non-linearity: No (USB2+H05261)
Correct for Stray Light: No (USB2+H05261)
Number of Pixels in Processed Spectrum: 2048
>>>>>Begin Processed Spectral Data<<<<<
365.73	0.00
365.92	0.00
366.12	0.00
366.32	0.00
366.52	0.00
366.72	0.00
366.91	0.00
367.11	0.00
367.31	0.00
367.51	0.00
367.70	0.00
367.90	0.00
368.10	0.00
368.30	0.00
368.49	0.00
368.69	0.00
368.89	0.00
369.09	0.00
369.28	0.00
369.48	0.00
369.68	0.00
369.87	0.00
370.07	0.00
370.27	0.00
370.47	449.38
370.66	2736.09
370.86	3302.50
371.06	3733.15
371.25	3707.41
371.45	3297.81
371.65	3026.31
371.84	2899.92
372.04	2839.07
372.24	3375.05
372.44	3524.85
372.63	3349.31
372.83	3155.04
373.03	2630.76
373.22	2574.59
373.42	2761.83
373.62	3028.65
373.81	3307.18
374.01	3295.47
374.21	3047.38
374.40	2785.24
374.60	2925.67
374.79	3386.76
374.99	3779.97
375.19	4067.85
375.38	4182.54
375.58	3824.44
375.78	3829.12
375.97	3871.25
376.17	4102.96
376.37	4025.72
376.56	4154.45
376.76	4341.69
376.95	4667.03
377.15	4875.34
377.35	5200.67
377.54	5350.46
377.74	5565.79
377.93	5275.57
378.13	5313.02
378.33	5146.84
378.52	4610.86
378.72	4573.41
378.91	4423.61
379.11	4409.57
379.31	4292.54
379.50	4210.62
379.70	4587.45
379.89	5069.60
380.09	5287.27
380.28	5551.75
380.48	5579.84
380.68	5348.12
380.87	5116.41
381.07	4734.90
381.26	4512.55
381.46	4173.18
381.65	4070.19
381.85	3978.91
382.04	3808.05
382.24	3391.44
382.43	3351.65
382.63	3225.26
382.83	3279.09
383.02	3155.04
383.22	3253.34
383.41	3398.46
383.61	3534.21
383.80	4140.41
384.00	4617.88
384.19	5203.01
384.39	5425.36
384.58	5392.59
384.78	5334.08
384.97	5284.93
385.17	4805.12
385.36	4664.69
385.56	4498.51
385.75	4592.13
385.95	5193.65
386.14	5605.58
386.34	5392.59
386.53	5364.51
386.72	5109.39
386.92	5074.28
387.11	5177.26
387.31	5572.82
387.50	5490.90
387.70	5420.68
387.89	5235.78
388.09	5156.20
388.28	5284.93
388.48	5586.86
388.67	5877.09
388.86	6361.58
389.06	6689.25
389.25	7101.19
389.45	7372.69
389.64	7183.10
389.84	7185.44
390.03	6937.35
390.22	7073.10
390.42	7138.63
390.61	7772.92
390.81	8245.71
391.00	8271.45
391.19	8262.09
391.39	7901.65
391.58	7473.33
391.78	7108.21
391.97	6806.28
392.16	6319.45
392.36	5806.87
392.55	4657.67
392.75	3653.58
392.94	3089.51
393.13	3068.44
393.33	3630.17
393.52	4652.98
393.71	5652.39
393.91	6452.86
394.10	6946.71
394.29	7538.87
394.49	8231.66
394.68	8748.92
394.88	8739.56
395.07	8875.31
395.26	8964.25
395.46	8704.45
395.65	8201.24
395.84	7171.40
396.04	6005.81
396.23	4849.59
396.42	4042.11
396.62	4042.11
396.81	4713.84
397.00	6026.88
397.19	7620.78
397.39	9039.15
397.58	10083.03
397.77	10682.20
397.97	11145.63
398.16	11021.58
398.35	11449.90
398.55	11695.66
398.74	12049.08
398.93	12559.31
399.12	12100.57
399.32	11812.68
399.51	12175.47
399.70	13060.19
399.90	12755.92
400.09	12814.43
400.28	12933.80
400.47	13027.42
400.67	13437.02
400.86	13832.57
401.05	13638.30
401.24	13844.27
401.44	14267.91
401.63	14291.31
401.82	14279.61
402.01	14279.61
402.21	14286.63
402.40	14413.02
402.59	13769.37
402.78	13427.65
402.97	13062.53
403.17	13631.28
403.36	14202.37
403.55	15044.96
403.74	15218.16
403.93	14328.76
404.13	13371.48
404.32	13191.26
404.51	13905.12
404.70	14855.38
404.89	15030.92
405.09	14651.75
405.28	14125.13
405.47	13748.31
405.66	13926.19
405.85	13687.45
406.05	13331.69
406.24	13514.25
406.43	13996.40
406.62	14700.90
406.81	14752.40
407.00	13968.32
407.20	13774.05
407.39	13783.41
407.58	14860.06
407.77	15152.63
407.96	15690.95
408.15	15950.75
408.34	15908.62
408.54	16676.32
408.73	16786.32
408.92	16259.70
409.11	15728.40
409.30	15145.61
409.49	14204.71
409.68	13362.12
409.87	13242.75
410.07	13818.52
410.26	14934.96
410.45	15920.32
410.64	16180.12
410.83	16566.31
411.02	17181.87
411.21	17905.10
411.40	17706.15
411.59	17556.36
411.78	17446.35
411.98	17579.76
412.17	17809.14
412.36	17137.40
412.55	17451.03
412.74	17003.99
412.93	16664.61
413.12	16760.58
413.31	18466.83
413.50	18600.24
413.69	18640.03
413.88	17855.95
414.07	17654.66
414.26	18160.22
414.45	18513.64
414.64	18288.95
414.83	18480.87
415.02	18183.62
415.22	18148.51
415.41	18586.19
415.60	19463.90
415.79	20009.24
415.98	20238.61
416.17	20561.61
416.36	19637.09
416.55	19782.21
416.74	18738.33
416.93	18120.43
417.12	18324.05
417.31	18508.96
417.50	18899.83
417.69	19744.76
417.88	19735.40
418.07	19211.12
418.26	18939.62
418.45	19190.05
418.64	19805.61
418.83	20498.41
419.02	20168.40
419.21	20011.58
419.39	19185.37
419.58	18401.29
419.77	18452.78
419.96	19248.57
420.15	20334.57
420.34	20664.59
420.53	21734.21
420.72	22260.84
420.91	21942.52
421.10	21607.83
421.29	21504.84
421.48	20903.32
421.67	21954.22
421.86	20971.20
422.05	19667.52
422.24	17598.49
422.43	17547.00
422.61	19288.35
422.80	21006.31
422.99	21013.33
423.18	20027.96
423.37	19882.85
423.56	19939.02
423.75	20198.82
423.94	20566.29
424.13	19976.47
424.32	19892.21
424.50	19688.59
424.69	19658.16
424.88	19637.09
425.07	19477.94
425.26	19583.26
425.45	19166.65
425.64	19016.85
425.83	19101.11
426.01	19995.20
426.20	20262.02
426.39	20435.22
426.58	19014.51
426.77	17231.02
426.96	17209.96
427.15	17355.07
427.33	19101.11
427.52	19569.22
427.71	19651.14
427.90	19667.52
428.09	19426.45
428.28	18885.78
428.46	18761.73
428.65	18317.03
428.84	18602.58
429.03	18766.42
429.22	17919.14
429.40	17153.79
429.59	15180.71
429.78	13682.77
429.97	13422.97
430.16	13628.94
430.34	14038.53
430.53	13968.32
430.72	14340.46
430.91	16030.33
431.10	18579.17
431.28	21862.94
431.47	23236.84
431.66	23372.59
431.85	21474.42
432.03	19826.68
432.22	18920.89
432.41	19882.85
432.60	21984.65
432.79	22815.54
432.97	23281.31
433.16	22602.55
433.35	20517.14
433.54	18728.97
433.72	17589.13
433.91	18450.44
434.10	20407.13
434.28	21743.58
434.47	22869.37
434.66	22656.39
434.85	21539.95
435.03	21853.58
435.22	22422.33
435.41	23726.01
435.59	23953.04
435.78	24215.18
435.97	24861.17
436.16	24844.79
436.34	24797.98
436.53	23913.25
436.72	24133.26
436.90	22845.97
437.09	22553.40
437.28	22595.53
437.46	23164.28
437.65	22972.36
437.84	21118.65
438.02	19793.91
438.21	19784.55
438.40	20758.21
438.58	22001.04
438.77	23161.94
438.96	23405.36
439.14	24442.21
439.33	24915.00
439.52	25029.69
439.70	24404.77
439.89	24245.61
440.08	23396.00
440.26	23360.89
440.45	24386.04
440.63	25549.29
440.82	27491.93
441.01	26675.09
441.19	26487.84
441.38	27147.87
441.57	27927.27
441.75	28393.04
441.94	28332.18
442.12	28194.09
442.31	28627.09
442.50	28671.56
442.68	28683.27
442.87	28161.33
443.05	27501.29
443.24	28233.88
443.43	28400.06
443.61	29280.10
443.80	29549.26
443.98	27835.99
444.17	28032.60
444.35	29453.30
444.54	30232.70
444.73	29446.28
444.91	28364.95
445.10	27138.51
445.28	26101.65
445.47	25598.44
445.65	25689.72
445.84	26738.28
446.02	27660.45
446.21	28177.71
446.39	27913.23
446.58	28283.03
446.77	29083.50
446.95	29310.53
447.14	30162.48
447.32	30611.87
447.51	29472.03
447.69	28547.51
447.88	28205.80
448.06	28910.30
448.25	29699.06
448.43	29724.80
448.62	28987.53
448.80	28844.76
448.99	29212.23
449.17	29462.66
449.36	29724.80
449.54	30363.77
449.73	30958.27
449.91	31576.17
450.10	32063.00
450.28	32943.04
450.46	32393.01
450.65	32374.29
450.83	31819.58
451.02	31531.70
451.20	31199.34
451.39	31484.89
451.57	31016.78
451.76	31351.48
451.94	31136.15
452.13	30338.02
452.31	29256.70
452.49	27805.56
452.68	28041.96
452.86	28226.86
453.05	28514.75
453.23	29638.20
453.42	30522.93
453.60	30838.90
453.78	30850.60
453.97	30604.84
454.15	30974.65
454.34	29734.17
454.52	30609.53
454.70	29942.47
454.89	30075.88
455.07	30026.73
455.26	30546.33
455.44	31676.81
455.62	31791.50
455.81	32493.66
455.99	32102.79
456.17	32102.79
456.36	31840.65
456.54	32580.26
456.73	32968.79
456.91	33549.24
457.09	33582.01
457.28	33968.19
457.46	32479.61
457.64	32180.03
457.83	31473.18
458.01	30485.48
458.19	31857.03
458.38	32102.79
458.56	33092.83
458.74	32559.19
458.93	32570.90
459.11	31981.08
459.29	32006.83
459.48	32055.98
459.66	31990.44
459.84	32318.12
460.03	32966.45
460.21	32620.05
460.39	33230.93
460.57	33514.13
460.76	33787.97
460.94	33762.23
461.12	33490.73
461.31	33694.35
461.49	33439.23
461.67	33429.87
461.85	34506.52
462.04	34691.42
462.22	35023.78
462.40	34242.04
462.59	34417.58
462.77	34347.36
462.95	34515.88
463.13	33668.61
463.32	33652.22
463.50	33380.72
463.68	33488.38
463.86	33385.40
464.05	33174.75
464.23	32542.81
464.41	32329.82
464.59	32184.71
464.78	33308.16
464.96	33149.01
465.14	32847.08
465.32	33860.53
465.50	34455.03
465.69	34801.43
465.87	34113.31
466.05	33230.93
466.23	31622.98
466.41	31168.91
466.60	31978.74
466.78	31880.44
466.96	32636.43
467.14	33031.98
467.32	33319.87
467.51	33979.90
467.69	31971.72
467.87	32884.53
468.05	33298.80
468.23	33380.72
468.41	33310.50
468.60	33329.23
468.78	33642.86
468.96	33352.63
469.14	33881.60
469.32	34190.55
469.50	32575.58
469.69	32936.02
469.87	32301.73
470.05	32701.96
470.23	32650.47
470.41	32807.29
470.59	33029.64
470.77	33242.63
470.95	33834.78
471.14	34265.44
471.32	34497.16
471.50	35952.97
471.68	36385.97
471.86	36474.91
472.04	36205.75
472.22	36701.94
472.40	34911.43
472.58	34520.56
472.77	33855.85
472.95	34639.93
473.13	35784.45
473.31	34792.06
473.49	35072.93
473.67	35988.08
473.85	36353.20
474.03	37230.90
474.21	36865.78
474.39	37516.45
474.57	37797.31
474.75	37509.43
474.93	37146.64
475.12	36320.43
475.30	36535.76
475.48	36966.42
475.66	37425.17
475.84	36870.46
476.02	36294.69
476.20	35957.65
476.38	36697.26
476.56	37645.18
476.74	38476.07
476.92	38583.73
477.10	39526.97
477.28	39985.71
477.46	40027.84
477.64	40421.05
477.82	40289.98
478.00	40851.71
478.18	40067.63
478.36	40329.77
478.54	40147.21
478.72	40542.76
478.90	40957.03
479.08	42330.93
479.26	43030.75
479.44	42384.76
479.62	42422.21
479.80	42569.66
479.98	42880.95
480.16	43276.51
480.34	42534.56
480.52	43070.54
480.70	42906.70
480.88	42923.08
481.06	43859.30
481.24	44018.46
481.41	45277.66
481.59	46005.57
481.77	45057.65
481.95	44732.32
482.13	44418.69
482.31	44580.18
482.49	45354.90
482.67	45312.77
482.85	45525.76
483.03	46358.99
483.21	46710.07
483.39	46450.27
483.57	45654.49
483.74	45549.17
483.92	45970.46
484.10	45514.06
484.28	47002.64
484.46	47232.01
484.64	47693.10
484.82	46930.08
485.00	46398.78
485.18	45392.35
485.35	43910.79
485.53	41069.38
485.71	37546.87
485.89	37553.90
486.07	39180.57
486.25	42838.83
486.43	44886.79
486.61	45275.32
486.78	44985.10
486.96	45670.87
487.14	47096.26
487.32	48406.96
487.50	49354.88
487.68	49900.22
487.85	50204.49
488.03	49940.01
488.21	49743.41
488.39	49184.02
488.57	48713.57
488.75	48308.66
488.92	49677.87
489.10	51657.96
489.28	53279.96
489.46	53806.58
489.64	53317.40
489.81	53570.18
489.99	53284.64
490.17	53303.36
490.35	53600.61
490.53	53237.83
490.70	52896.11
490.88	53057.60
491.06	53535.07
491.24	53647.42
491.41	52624.60
491.59	50827.07
491.77	50115.55
491.95	51587.75
492.13	52734.61
492.30	53942.33
492.48	54513.42
492.66	54890.24
492.84	54850.45
493.01	54808.32
493.19	54387.03
493.37	53773.81
493.54	53881.47
493.72	54080.42
493.90	55297.50
494.08	55999.66
494.25	56339.04
494.43	56615.22
494.61	56772.03
494.79	56919.49
494.96	56671.39
495.14	56280.52
495.32	55103.23
495.49	54796.62
495.67	55573.68
495.85	57088.01
496.02	57464.83
496.20	57467.17
496.38	56697.14
496.55	56605.86
496.73	57446.11
496.91	57228.44
497.09	57846.34
497.26	57710.59
497.44	57647.39
497.62	56793.10
497.79	56390.53
497.97	54798.96
498.14	55594.74
498.32	56481.81
498.50	57169.93
498.67	57621.65
498.85	57659.10
499.03	57724.63
499.20	58038.26
499.38	58033.58
499.56	57888.47
499.73	57282.27
499.91	56926.51
500.08	56411.59
500.26	55943.48
500.44	56315.63
500.61	56952.26
500.79	56760.33
500.97	56301.59
501.14	56308.61
501.32	55994.98
501.49	56179.88
501.67	56427.98
501.84	57031.83
502.02	57198.01
502.20	57563.14
502.37	57315.04
502.55	57673.14
502.72	58429.13
502.90	58543.82
503.07	58302.74
503.25	57867.40
503.43	57127.80
503.60	56594.15
503.78	55920.08
503.95	56568.41
504.13	57607.61
504.30	58417.43
504.48	58068.69
504.65	58017.20
504.83	58005.50
505.01	58656.17
505.18	58761.49
505.36	59585.36
505.53	59386.41
505.71	59805.37
505.88	59697.70
506.06	59164.06
506.23	58915.96
506.41	58260.62
506.58	58768.51
506.76	58740.42
506.93	58700.64
507.11	58539.14
507.28	58693.61
507.46	58164.65
507.63	57528.03
507.81	57434.41
507.98	57588.88
508.16	58206.78
508.33	58845.75
508.50	59199.17
508.68	59468.33
508.85	59922.40
509.03	59838.14
509.20	59594.72
509.38	59133.63
509.55	58382.32
509.73	58370.62
509.90	59140.66
510.08	59449.61
510.25	59313.86
510.42	59011.93
510.60	58955.75
510.77	59131.29
510.95	59735.15
511.12	59716.43
511.30	60158.79
511.47	60390.50
511.64	60350.71
511.82	59889.63
511.99	59049.38
512.17	58649.14
512.34	58401.05
512.51	58883.20
512.69	58918.31
512.86	58801.28
513.04	59117.25
513.21	59428.54
513.38	58915.96
513.56	58365.94
513.73	57834.64
513.90	58277.00
514.08	58293.38
514.25	58379.98
514.43	58820.00
514.60	58904.26
514.77	58784.90
514.95	58834.05
515.12	58843.41
515.29	59208.53
515.47	59559.61
515.64	59959.84
515.81	59419.18
515.99	59065.76
516.16	57558.45
516.33	55035.36
516.51	54145.95
516.68	53228.46
516.85	52706.52
517.03	53549.12
517.20	55920.08
517.37	58239.55
517.54	59150.02
517.72	58443.18
517.89	56060.51
518.06	54017.22
518.24	54363.62
518.41	56458.40
518.58	57567.82
518.75	57881.45
518.93	58026.56
519.10	58024.22
519.27	58408.07
519.45	58848.09
519.62	59348.96
519.79	59777.28
519.96	59304.49
520.14	58974.48
520.31	58010.18
520.48	58089.76
520.65	58688.93
520.83	59398.12
521.00	59592.38
521.17	59295.13
521.34	59070.44
521.52	59423.86
521.69	59873.24
521.86	60301.56
522.03	59840.48
522.20	58555.52
522.38	57844.00
522.55	57946.98
522.72	58836.39
522.89	58702.98
523.07	58740.42
523.24	59196.83
523.41	60055.81
523.58	60182.19
523.75	60692.43
523.92	60371.78
524.10	60498.17
524.27	60343.69
524.44	60140.07
524.61	60147.09
524.78	59903.67
524.96	59709.41
525.13	59999.63
525.30	60210.28
525.47	60535.62
525.64	60434.97
525.81	59805.37
525.98	58166.99
526.16	56980.34
526.33	56453.72
526.50	55969.23
526.67	55739.86
526.84	56610.54
527.01	57446.11
527.18	58197.42
527.36	58988.52
527.53	59807.71
527.70	60016.02
527.87	59407.48
528.04	59072.78
528.21	59568.97
528.38	60184.54
528.55	60825.84
528.72	61045.85
528.89	61186.28
529.07	60889.04
529.24	60119.00
529.41	59578.34
529.58	58979.16
529.75	59262.36
529.92	59739.83
530.09	60053.47
530.26	60530.93
530.43	60746.26
530.60	60739.24
530.77	60973.30
530.94	61113.73
531.11	60378.80
531.28	60158.79
531.46	60004.31
531.63	60177.51
531.80	59941.12
531.97	59662.60
532.14	58878.52
532.31	57811.23
532.48	57097.37
532.65	57584.20
532.82	58504.03
532.99	59178.10
533.16	59653.23
533.33	60100.28
533.50	60090.91
533.67	59351.30
533.84	59175.76
534.01	59245.98
534.18	59419.18
534.35	59573.66
534.52	59210.87
534.69	59444.93
534.86	60055.81
535.03	60175.17
535.20	60687.75
535.37	60977.98
535.54	61078.62
535.71	60865.63
535.88	60437.31
536.05	59838.14
536.22	59477.69
536.38	58960.44
536.55	58754.47
536.72	58143.59
536.89	58150.61
537.06	58773.19
537.23	59994.95
537.40	59966.87
537.57	60088.57
537.74	59744.51
537.91	59721.11
538.08	59622.81
538.25	59702.38
538.42	59739.83
538.59	59728.13
538.75	59150.02
538.92	58922.99
539.09	58674.89
539.26	58621.06
539.43	58569.57
539.60	58321.47
539.77	58770.85
539.94	58611.70
540.11	57794.85
540.28	57331.42
540.44	57474.20
540.61	57616.97
540.78	57736.34
540.95	58365.94
541.12	58670.21
541.29	58951.07
541.46	59365.35
541.62	59201.51
541.79	59302.15
541.96	58412.75
542.13	58518.07
542.30	58988.52
542.47	59075.12
542.63	58681.91
542.80	58651.48
542.97	58745.11
543.14	58532.12
543.31	58611.70
543.48	59054.06
543.64	59887.29
543.81	60212.62
543.98	59770.26
544.15	59194.49
544.32	58841.07
544.48	58784.90
544.65	58969.80
544.82	59678.98
544.99	59138.32
545.16	59091.51
545.32	58724.04
545.49	59543.23
545.66	59711.75
545.83	59405.14
546.00	58857.45
546.16	58740.42
546.33	58944.05
546.50	58939.37
546.67	59512.80
546.83	58672.55
547.00	58901.92
547.17	58389.34
547.34	57708.25
547.50	57677.82
547.67	58335.51
547.84	58305.09
548.00	58590.63
548.17	59021.29
548.34	58925.33
548.51	58932.35
548.67	58979.16
548.84	59135.98
549.01	58969.80
549.18	58930.01
549.34	58845.75
549.51	58843.41
549.68	58590.63
549.84	58389.34
550.01	58482.97
550.18	58265.30
550.34	58438.50
550.51	58539.14
550.68	58504.03
550.84	57874.43
551.01	58216.14
551.18	58033.58
551.34	58265.30
551.51	58564.88
551.68	58775.53
551.84	58934.69
552.01	58742.77
552.18	58567.23
552.34	57677.82
552.51	57682.50
552.68	57586.54
552.84	58012.52
553.01	58384.66
553.18	58117.84
553.34	58248.91
553.51	58410.41
553.67	58574.25
553.84	58761.49
554.01	58644.46
554.17	58216.14
554.34	58672.55
554.51	58660.85
554.67	58812.98
554.84	58948.73
555.00	58232.53
555.17	58246.57
555.33	57975.07
555.50	58279.34
555.67	58363.60
555.83	58033.58
556.00	57757.40
556.16	57586.54
556.33	57537.39
556.50	57151.20
556.66	57483.56
556.83	57059.92
556.99	57406.32
557.16	57296.31
557.32	57535.05
557.49	57499.94
557.65	57694.21
557.82	57752.72
557.98	57401.64
558.15	56975.66
558.32	56083.92
558.48	55552.62
558.65	55863.91
558.81	56095.62
558.98	56608.20
559.14	56762.67
559.31	56655.01
559.47	56568.41
559.64	56119.02
559.80	56161.15
559.97	56154.13
560.13	56629.26
560.30	57453.13
560.46	57832.30
560.63	58185.72
560.79	57930.60
560.96	57696.55
561.12	56617.56
561.29	55744.54
561.45	55842.84
561.61	56690.12
561.78	56767.35
561.94	56816.50
562.11	56739.27
562.27	56570.75
562.44	56863.32
562.60	57092.69
562.77	57235.46
562.93	57167.58
563.10	57001.41
563.26	56449.04
563.42	56795.44
563.59	56327.33
563.75	56390.53
563.92	56479.47
564.08	56516.92
564.24	56727.56
564.41	56647.99
564.57	56605.86
564.74	56456.06
564.90	56425.64
565.07	55852.20
565.23	55845.18
565.39	55470.70
565.56	55203.88
565.72	55171.11
565.88	55412.18
566.05	55426.23
566.21	55468.36
566.38	55884.97
566.54	56093.28
566.70	56140.09
566.87	56530.96
567.03	56519.26
567.19	56722.88
567.36	56224.35
567.52	56397.55
567.68	55985.61
567.85	55117.28
568.01	55121.96
568.17	54628.10
568.34	54649.17
568.50	54667.89
568.66	54731.09
568.83	55187.49
568.99	55311.54
569.15	55386.44
569.32	55152.38
569.48	54908.97
569.64	55138.34
569.81	54703.00
569.97	54597.68
570.13	54471.29
570.30	53904.88
570.46	53645.08
570.62	53263.57
570.78	53038.88
570.95	53326.77
571.11	54143.61
571.27	54199.79
571.43	54253.62
571.60	54635.13
571.76	54974.50
571.92	55187.49
572.09	55025.99
572.25	55061.10
572.41	55166.43
572.57	55089.19
572.74	55030.68
572.90	54724.07
573.06	54775.56
573.22	54656.19
573.38	54712.36
573.55	54487.67
573.71	54951.10
573.87	54691.30
574.03	54384.69
574.20	54351.92
574.36	54216.17
574.52	54157.66
574.68	53986.80
574.84	53392.30
575.01	53041.22
575.17	53010.79
575.33	53303.36
575.49	53504.65
575.65	53593.59
575.82	53602.95
575.98	53265.91
576.14	53455.50
576.30	53734.02
576.46	53750.40
576.62	53780.83
576.79	53923.60
576.95	53633.38
577.11	53272.93
577.27	53530.39
577.43	53591.25
577.59	53151.23
577.75	52594.18
577.92	52172.88
578.08	52137.77
578.24	52072.24
578.40	52507.58
578.56	52526.30
578.72	52701.84
578.88	53233.14
579.04	52961.64
579.21	52942.92
579.37	52975.69
579.53	52982.71
579.69	53319.74
579.85	53301.02
580.01	52992.07
580.17	52392.89
580.33	52278.21
580.49	52706.52
580.65	53188.67
580.82	53263.57
580.98	53071.65
581.14	52821.21
581.30	53116.12
581.46	52982.71
581.62	53176.97
581.78	53408.68
581.94	53457.84
582.10	53485.92
582.26	53521.03
582.42	53471.88
582.58	53645.08
582.74	53366.55
582.90	53340.81
583.06	53413.37
583.22	52999.09
583.38	53041.22
583.54	53064.63
583.70	53010.79
583.86	53207.40
584.02	52898.45
584.18	52994.41
584.34	52842.27
584.50	52842.27
584.66	52619.92
584.82	52425.66
584.98	52591.84
585.14	51931.81
585.30	50983.89
