SpectraSuite Data File
++++++++++++++++++++++++++++++++++++
Date: Mon Oct 07 14:53:38 GMT-05:00 2013
User: price-jones
Dark Spectrum Present: No
Reference Spectrum Present: No
Number of Sampled Component Spectra: 1
Spectrometers: USB2+H05261
Integration Time (usec): 100000 (USB2+H05261)
Spectra Averaged: 1 (USB2+H05261)
Boxcar Smoothing: 0 (USB2+H05261)
Correct for Electrical Dark: No (USB2+H05261)
Strobe/Lamp Enabled: No (USB2+H05261)
Correct for Detector Non-linearity: No (USB2+H05261)
Correct for Stray Light: No (USB2+H05261)
Number of Pixels in Processed Spectrum: 2048
>>>>>Begin Processed Spectral Data<<<<<
365.73	0.00
365.92	0.00
366.12	0.00
366.32	0.00
366.52	0.00
366.72	0.00
366.91	0.00
367.11	0.00
367.31	0.00
367.51	0.00
367.70	0.00
367.90	0.00
368.10	0.00
368.30	0.00
368.49	0.00
368.69	0.00
368.89	0.00
369.09	0.00
369.28	0.00
369.48	0.00
369.68	0.00
369.87	0.00
370.07	0.00
370.27	0.00
370.47	547.69
370.66	2679.91
370.86	3232.28
371.06	3503.78
371.25	3515.48
371.45	3220.58
371.65	2860.13
371.84	2724.38
372.04	2848.43
372.24	3129.30
372.44	3412.50
372.63	3227.60
372.83	3192.49
373.03	2766.51
373.22	2385.01
373.42	2644.81
373.62	3035.67
373.81	3368.03
374.01	3293.13
374.21	3047.38
374.40	2686.94
374.60	2773.53
374.79	3211.22
374.99	3707.41
375.19	4067.85
375.38	4138.07
375.58	3763.58
375.78	3794.01
375.97	3875.93
376.17	3999.98
376.37	4058.49
376.56	4091.26
376.76	4304.25
376.95	4444.68
377.15	4791.08
377.35	5123.43
377.54	5423.02
377.74	5404.30
377.93	5572.82
378.13	5266.21
378.33	4957.25
378.52	4606.17
378.72	4493.83
378.91	4435.32
379.11	4231.69
379.31	4081.89
379.50	4149.77
379.70	4362.76
379.89	4807.46
380.09	5149.18
380.28	5420.68
380.48	5270.89
380.68	5139.82
380.87	5015.77
381.07	4748.95
381.26	4418.93
381.46	4060.83
381.65	4023.38
381.85	3782.31
382.04	3646.55
382.24	3372.71
382.43	3321.22
382.63	3316.54
382.83	3255.69
383.02	3251.00
383.22	3232.28
383.41	3211.22
383.61	3386.76
383.80	3971.89
384.00	4428.29
384.19	5130.45
384.39	5275.57
384.58	5233.44
384.78	5156.20
384.97	5132.79
385.17	4961.94
385.36	4732.56
385.56	4402.55
385.75	4517.23
385.95	4997.04
386.14	5423.02
386.34	5359.83
386.53	5160.88
386.72	4821.50
386.92	4889.38
387.11	5247.48
387.31	5479.19
387.50	5233.44
387.70	5137.48
387.89	5219.39
388.09	5160.88
388.28	5203.01
388.48	5240.46
388.67	5533.03
388.86	6186.04
389.06	6703.29
389.25	6972.46
389.45	7035.65
389.64	7145.66
389.84	7042.67
390.03	6820.32
390.22	6918.62
390.42	7028.63
390.61	7744.83
390.81	8058.46
391.00	8344.01
391.19	8168.47
391.39	7929.74
391.58	7435.88
391.78	7049.69
391.97	6890.54
392.16	6487.96
392.36	6001.13
392.55	4755.97
392.75	3740.18
392.94	3089.51
393.13	2876.52
393.33	3428.88
393.52	4472.76
393.71	5465.15
393.91	6284.34
394.10	6633.08
394.29	7485.03
394.49	7992.93
394.68	8737.22
394.88	8730.20
395.07	8952.55
395.26	8861.27
395.46	8542.96
395.65	8145.06
395.84	7138.63
396.04	6083.05
396.23	4884.70
396.42	4166.15
396.62	4021.04
396.81	4493.83
397.00	5804.53
397.19	7403.11
397.39	8674.03
397.58	9977.70
397.77	10471.56
397.97	10995.84
398.16	10984.13
398.35	11197.12
398.55	11749.49
398.74	12114.61
398.93	12355.69
399.12	12428.24
399.32	11908.65
399.51	11915.67
399.70	12898.69
399.90	12856.56
400.09	12641.23
400.28	12798.05
400.47	12674.00
400.67	13310.63
400.86	13687.45
401.05	13493.19
401.24	13731.92
401.44	13928.53
401.63	14017.47
401.82	13984.70
402.01	13909.80
402.21	14125.13
402.40	14258.54
402.59	13682.77
402.78	12940.82
402.97	12980.61
403.17	13343.39
403.36	14356.85
403.55	14925.60
403.74	15096.46
403.93	14274.93
404.13	13427.65
404.32	12849.54
404.51	13638.30
404.70	14527.71
404.89	14445.79
405.09	14424.72
405.28	13820.86
405.47	13762.35
405.66	14040.87
405.85	13820.86
406.05	13294.24
406.24	13291.90
406.43	13884.06
406.62	14483.24
406.81	14427.06
407.00	14235.14
407.20	13752.99
407.39	13834.91
407.58	14424.72
407.77	15232.21
407.96	15733.08
408.15	15454.56
408.34	15620.74
408.54	16407.16
408.73	16613.12
408.92	16379.07
409.11	15775.21
409.30	14911.55
409.49	14279.61
409.68	13577.45
409.87	13006.36
410.07	13678.09
410.26	14689.20
410.45	15662.86
410.64	16025.65
410.83	16512.48
411.02	16779.30
411.21	17535.29
411.40	17664.02
411.59	17455.72
411.78	17053.14
411.98	17116.34
412.17	17682.75
412.36	17179.53
412.55	17329.33
412.74	16776.96
412.93	16325.24
413.12	16397.79
413.31	18270.22
413.50	18567.47
413.69	18813.23
413.88	18141.49
414.07	17640.62
414.26	17755.30
414.45	18115.75
414.64	18569.81
414.83	18523.00
415.02	18033.83
415.22	18118.09
415.41	18513.64
415.60	19131.54
415.79	19625.39
415.98	20063.07
416.17	20180.10
416.36	19501.34
416.55	19611.35
416.74	19037.92
416.93	18508.96
417.12	18216.39
417.31	18609.60
417.50	18658.75
417.69	19555.18
417.88	19566.88
418.07	18829.61
418.26	18757.05
418.45	18780.46
418.64	19447.51
418.83	20362.66
419.02	19946.05
419.21	20088.82
419.39	19346.87
419.58	18064.25
419.77	18097.02
419.96	18963.02
420.15	19908.60
420.34	20727.78
420.53	21284.83
420.72	22024.44
420.91	21673.36
421.10	21144.40
421.29	21446.33
421.48	20177.76
421.67	21624.21
421.86	20940.77
422.05	19555.18
422.24	17734.24
422.43	17418.27
422.61	18677.48
422.80	20746.51
422.99	20554.58
423.18	19955.41
423.37	19798.59
423.56	19447.51
423.75	19819.66
423.94	19929.66
424.13	19653.48
424.32	19648.80
424.50	19419.42
424.69	19283.67
424.88	19447.51
425.07	19019.19
425.26	19271.97
425.45	19033.24
425.64	18705.56
425.83	18684.50
426.01	19906.26
426.20	20247.97
426.39	20542.88
426.58	18864.72
426.77	17544.66
426.96	16386.09
427.15	17221.66
427.33	18867.06
427.52	19557.52
427.71	19419.42
427.90	19157.28
428.09	19234.52
428.28	18827.27
428.46	18024.47
428.65	17811.48
428.84	18328.74
429.03	18761.73
429.22	17434.65
429.40	16844.84
429.59	15295.40
429.78	13212.32
429.97	13521.27
430.16	13535.32
430.34	13654.69
430.53	13371.48
430.72	13715.54
430.91	15330.51
431.10	18153.20
431.28	21556.33
431.47	23178.33
431.66	23370.25
431.85	21553.99
432.03	19800.93
432.22	18958.34
432.41	19178.35
432.60	21750.60
432.79	22363.82
432.97	23035.55
433.16	22932.57
433.35	20779.28
433.54	18284.26
433.72	17392.52
433.91	17813.82
434.10	20049.03
434.28	21612.51
434.47	22525.32
434.66	22356.80
434.85	21635.91
435.03	21619.53
435.22	22155.51
435.41	23587.92
435.59	23075.34
435.78	23836.02
435.97	24498.39
436.16	24545.20
436.34	24126.24
436.53	23742.39
436.72	23924.96
436.90	22452.76
437.09	22717.24
437.28	22134.45
437.46	22698.52
437.65	22565.10
437.84	21151.42
438.02	19662.84
438.21	19290.70
438.40	20540.54
438.58	22223.39
438.77	23035.55
438.96	22977.04
439.14	24245.61
439.33	24182.42
439.52	24687.97
439.70	24343.91
439.89	23587.92
440.08	23063.64
440.26	23253.22
440.45	23807.93
440.63	25560.99
440.82	26829.56
441.01	26445.71
441.19	26108.68
441.38	26295.92
441.57	27583.21
441.75	27992.81
441.94	28070.04
442.12	27697.90
442.31	28383.68
442.50	28582.62
442.68	28271.33
442.87	27868.76
443.05	27220.43
443.24	27805.56
443.43	28531.13
443.61	28922.00
443.80	28987.53
443.98	27363.20
444.17	27337.46
444.35	28966.47
444.54	29677.99
444.73	29127.97
444.91	27934.29
445.10	26981.70
445.28	25649.93
445.47	25291.83
445.65	25439.28
445.84	26237.41
446.02	27325.75
446.21	27527.04
446.39	27503.64
446.58	28060.68
446.77	28416.44
446.95	28772.21
447.14	29502.45
447.32	30134.40
447.51	29476.71
447.69	28357.93
447.88	28011.53
448.06	28442.19
448.25	28971.15
448.43	29640.54
448.62	28748.80
448.80	28332.18
448.99	28753.48
449.17	29092.86
449.36	28528.79
449.54	29703.74
449.73	30632.93
449.91	30892.73
450.10	31854.69
450.28	32217.47
450.46	31798.52
450.65	32037.25
450.83	31571.49
451.02	30850.60
451.20	30960.61
451.39	30801.45
451.57	30527.61
451.76	30747.62
451.94	30457.39
452.13	29603.10
452.31	28772.21
452.49	27220.43
452.68	27578.53
452.86	27576.19
453.05	27688.54
453.23	28589.64
453.42	28919.66
453.60	30314.62
453.78	30590.80
453.97	29881.62
454.15	29942.47
454.34	29642.88
454.52	29661.61
454.70	28931.36
454.89	29575.01
455.07	29589.05
455.26	29858.21
455.44	30871.67
455.62	31185.30
455.81	31969.38
455.99	31620.64
456.17	31489.57
456.36	31140.83
456.54	32175.34
456.73	32510.04
456.91	32486.64
457.09	32666.86
457.28	33523.49
457.46	32215.13
457.64	32252.58
457.83	31360.84
458.01	30192.91
458.19	31096.36
458.38	30918.48
458.56	32121.51
458.74	32226.84
458.93	31716.60
459.11	31346.79
459.29	31463.82
459.48	31571.49
459.66	31482.55
459.84	31735.32
460.03	31995.12
460.21	31747.03
460.39	33090.49
460.57	32800.27
460.76	33422.85
460.94	33362.00
461.12	32779.20
461.31	32992.19
461.49	32891.55
461.67	32533.45
461.85	33961.17
462.04	33666.27
462.22	34258.42
462.40	34103.95
462.59	33528.17
462.77	34066.50
462.95	34036.07
463.13	33268.37
463.32	33041.34
463.50	32910.27
463.68	32606.00
463.86	32898.57
464.05	32381.31
464.23	31866.39
464.41	31789.16
464.59	31332.75
464.78	32945.38
464.96	32615.37
465.14	32215.13
465.32	33167.73
465.50	34066.50
465.69	34260.76
465.87	33556.26
466.05	32322.80
466.23	31143.17
466.41	30445.69
466.60	31325.73
466.78	31030.82
466.96	31779.79
467.14	32526.42
467.32	32694.94
467.51	32947.72
467.69	31805.54
467.87	31927.25
468.05	32938.36
468.23	32947.72
468.41	32725.37
468.60	32863.46
468.78	33514.13
468.96	32474.93
469.14	33411.15
469.32	33486.04
469.50	31931.93
469.69	32566.21
469.87	31967.04
470.05	31702.56
470.23	31931.93
470.41	31557.44
470.59	32196.41
470.77	31999.80
470.95	32936.02
471.14	33406.47
471.32	33813.72
471.50	35269.53
471.68	35564.44
471.86	36048.93
472.04	35707.21
472.22	36259.58
472.40	34089.90
472.58	34125.01
472.77	33542.22
472.95	34326.30
473.13	35529.33
473.31	34628.23
473.49	34380.13
473.67	35075.27
473.85	35669.76
474.03	36362.56
474.21	36243.20
474.39	36488.95
474.57	37074.09
474.75	37067.06
474.93	36704.28
475.12	35927.22
475.30	35709.55
475.48	36041.91
475.66	36554.49
475.84	36168.30
476.02	35777.43
476.20	35360.81
476.38	35503.59
476.56	37024.93
476.74	37521.13
476.92	37844.12
477.10	38473.73
477.28	39236.74
477.46	39063.54
477.64	39629.95
477.82	39669.74
478.00	39847.62
478.18	39693.15
478.36	39150.14
478.54	39246.10
478.72	39709.53
478.90	40404.67
479.08	41544.51
479.26	42141.35
479.44	42527.53
479.62	42054.75
479.80	41448.55
479.98	41673.24
480.16	42036.02
480.34	41684.94
480.52	42117.94
480.70	42401.14
480.88	42066.45
481.06	43091.60
481.24	43405.23
481.41	44219.74
481.59	44697.21
481.77	44477.20
481.95	43868.66
482.13	43990.37
482.31	44009.09
482.49	44729.98
482.67	44566.14
482.85	44879.77
483.03	45265.96
483.21	46026.63
483.39	45794.92
483.57	45034.25
483.74	44907.86
483.92	45338.52
484.10	45462.57
484.28	46424.53
484.46	46653.90
484.64	47056.47
484.82	45930.67
485.00	45834.71
485.18	44760.40
485.35	43222.67
485.53	40282.96
485.71	37205.16
485.89	36048.93
486.07	38017.32
486.25	41745.80
486.43	43917.81
486.61	44676.15
486.78	44641.04
486.96	44535.71
487.14	46316.86
487.32	46958.17
487.50	48287.59
487.68	49284.66
487.85	49535.10
488.03	49780.85
488.21	49338.49
488.39	48758.04
488.57	47908.43
488.75	47269.46
488.92	48687.82
489.10	50806.01
489.28	52109.69
489.46	52893.77
489.64	53020.16
489.81	52907.81
489.99	52474.81
490.17	52849.30
490.35	53059.94
490.53	52388.21
490.70	52086.28
490.88	52172.88
491.06	53216.76
491.24	53038.88
491.41	52032.45
491.59	50071.08
491.77	49036.56
491.95	50419.82
492.13	51899.04
492.30	52872.70
492.48	53869.77
492.66	54581.29
492.84	54293.41
493.01	54239.57
493.19	53413.37
493.37	53375.92
493.54	53237.83
493.72	53485.92
493.90	54511.08
494.08	55716.45
494.25	55962.21
494.43	55901.36
494.61	56378.82
494.79	56584.79
494.96	56128.39
495.14	55779.65
495.32	54464.27
495.49	53989.14
495.67	55096.21
495.85	56397.55
496.02	56608.20
496.20	56722.88
496.38	56133.07
496.55	55906.04
496.73	56640.96
496.91	56584.79
497.09	57233.12
497.26	57427.38
497.44	56842.25
497.62	56411.59
497.79	55746.88
497.97	54459.58
498.14	54555.55
498.32	55650.92
498.50	56275.84
498.67	57279.93
498.85	57095.03
499.03	57080.98
499.20	57205.03
499.38	57567.82
499.56	57525.69
499.73	56814.16
499.91	56151.79
500.08	56032.42
500.26	55171.11
500.44	55625.17
500.61	56268.82
500.79	55962.21
500.97	55901.36
501.14	55852.20
501.32	55379.42
501.49	55463.67
501.67	55718.79
501.84	56245.41
502.02	56505.21
502.20	56884.38
502.37	57043.54
502.55	56931.19
502.72	57712.93
502.90	58120.18
503.07	57633.35
503.25	57411.00
503.43	56533.30
503.60	55831.14
503.78	55194.51
503.95	55725.81
504.13	56905.44
504.30	57862.72
504.48	57705.91
504.65	57249.50
504.83	57389.94
505.01	57818.25
505.18	58206.78
505.36	58735.74
505.53	58876.18
505.71	59105.55
505.88	59423.86
506.06	58632.76
506.23	58225.51
506.41	57963.37
506.58	57925.92
506.76	57925.92
506.93	58260.62
507.11	57834.64
507.28	57972.73
507.46	57368.87
507.63	56935.87
507.81	56650.33
507.98	56729.90
508.16	57677.82
508.33	58272.32
508.50	58298.06
508.68	58930.01
508.85	59229.60
509.03	59159.38
509.20	59140.66
509.38	58553.18
509.55	57698.89
509.73	57792.51
509.90	58082.73
510.08	58637.44
510.25	58578.93
510.42	58330.83
510.60	58396.37
510.77	58525.10
510.95	59009.59
511.12	59140.66
511.30	59330.24
511.47	59625.15
511.64	59386.41
511.82	59547.91
511.99	58571.91
512.17	58248.91
512.34	57769.10
512.51	58108.48
512.69	58019.54
512.86	58316.79
513.04	58656.17
513.21	58721.70
513.38	58300.40
513.56	57696.55
513.73	57312.70
513.90	57413.34
514.08	57616.97
514.25	57956.35
514.43	58000.82
514.60	58155.29
514.77	58464.24
514.95	58454.88
515.12	58326.15
515.29	58370.62
515.47	59018.95
515.64	59311.52
515.81	58679.57
515.99	58174.02
516.16	56917.15
516.33	54649.17
516.51	53062.29
516.68	52182.24
516.85	52018.41
517.03	52388.21
517.20	54775.56
517.37	57263.55
517.54	58417.43
517.72	57979.75
517.89	55627.51
518.06	53008.45
518.24	53275.27
518.41	55482.40
518.58	56900.76
518.75	57284.61
518.93	57382.91
519.10	57336.10
519.27	57684.84
519.45	57752.72
519.62	58607.01
519.79	58960.44
519.96	58681.91
520.14	58492.33
520.31	57631.01
520.48	57387.60
520.65	57626.33
520.83	58461.90
521.00	59040.01
521.17	58939.37
521.34	58560.20
521.52	58520.41
521.69	59199.17
521.86	59641.53
522.03	59454.29
522.20	58302.74
522.38	57324.40
522.55	56987.36
522.72	57771.44
522.89	58028.90
523.07	58080.39
523.24	58286.36
523.41	59100.87
523.58	59360.67
523.75	59990.27
523.92	59718.77
524.10	59573.66
524.27	59718.77
524.44	59700.04
524.61	59306.83
524.78	59068.10
524.96	59175.76
525.13	59175.76
525.30	59435.56
525.47	59957.50
525.64	59620.47
525.81	58997.88
525.98	57829.96
526.16	56353.08
526.33	55454.31
526.50	55178.13
526.67	55051.74
526.84	55503.46
527.01	56563.73
527.18	57251.84
527.36	58204.44
527.53	58932.35
527.70	59138.32
527.87	58873.84
528.04	58316.79
528.21	58632.76
528.38	59313.86
528.55	59873.24
528.72	60273.48
528.89	60303.90
529.07	59938.78
529.24	59606.42
529.41	58976.82
529.58	58220.83
529.75	58515.73
529.92	58824.68
530.09	59079.80
530.26	59702.38
530.43	59833.46
530.60	59910.69
530.77	60236.03
530.94	60238.37
531.11	59936.44
531.28	59590.04
531.46	59597.06
531.63	59487.06
531.80	59456.63
531.97	58906.60
532.14	58340.19
532.31	57511.64
532.48	56755.65
532.65	56853.95
532.82	57516.32
532.99	58508.71
533.16	58927.67
533.33	59550.25
533.50	59253.00
533.67	58656.17
533.84	58354.24
534.01	58468.92
534.18	58824.68
534.35	58922.99
534.52	58749.79
534.69	58932.35
534.86	59206.19
535.03	59416.84
535.20	60001.97
535.37	60158.79
535.54	60357.74
535.71	60001.97
535.88	59646.21
536.05	59203.85
536.22	58773.19
536.38	58525.10
536.55	57886.13
536.72	57439.09
536.89	57279.93
537.06	58120.18
537.23	59007.25
537.40	59222.58
537.57	59220.23
537.74	59040.01
537.91	58920.65
538.08	59002.56
538.25	58873.84
538.42	59070.44
538.59	59042.35
538.75	58405.73
538.92	58054.65
539.09	57991.45
539.26	57818.25
539.43	57799.53
539.60	57638.03
539.77	57939.96
539.94	57808.89
540.11	57085.67
540.28	56720.54
540.44	56591.81
540.61	56753.31
540.78	57118.43
540.95	57659.10
541.12	58075.71
541.29	58351.90
541.46	58625.74
541.62	58604.67
541.79	58277.00
541.96	57532.71
542.13	57719.95
542.30	58216.14
542.47	58197.42
542.63	58085.07
542.80	57893.15
542.97	58066.35
543.14	57663.78
543.31	57764.42
543.48	58230.19
543.64	58988.52
543.81	59281.09
543.98	59196.83
544.15	58616.38
544.32	57963.37
544.48	57895.49
544.65	58604.67
544.82	58782.55
544.99	58422.11
545.16	58134.23
545.32	57928.26
545.49	58607.01
545.66	59089.16
545.83	58585.95
546.00	58195.08
546.16	58087.42
546.33	58246.57
546.50	58164.65
546.67	58316.79
546.83	58108.48
547.00	58099.12
547.17	57619.31
547.34	56933.53
547.50	56783.74
547.67	57425.04
547.84	57401.64
548.00	57794.85
548.17	58129.54
548.34	57984.43
548.51	57822.93
548.67	57869.75
548.84	58066.35
549.01	58302.74
549.18	57954.00
549.34	57942.30
549.51	58092.10
549.68	58122.52
549.84	57766.76
550.01	57633.35
550.18	57497.60
550.34	57626.33
550.51	57483.56
550.68	57623.99
550.84	57432.07
551.01	57336.10
551.18	57368.87
551.34	57528.03
551.51	57998.48
551.68	58035.92
551.84	58033.58
552.01	58014.86
552.18	57586.54
552.34	57181.63
552.51	57022.47
552.68	56446.70
552.84	56872.68
553.01	57214.40
553.18	57162.90
553.34	57326.74
553.51	57340.78
553.67	57609.95
553.84	58019.54
554.01	57785.49
554.17	57439.09
554.34	57640.37
554.51	57783.15
554.67	58159.97
554.84	57907.19
555.00	57586.54
555.17	57389.94
555.33	57312.70
555.50	57535.05
555.67	57415.68
555.83	57062.26
556.00	56877.36
556.16	56692.46
556.33	56493.51
556.50	56294.56
556.66	56261.80
556.83	56205.62
556.99	56271.16
557.16	56458.40
557.32	56568.41
557.49	56985.02
557.65	56956.94
557.82	56760.33
557.98	56495.85
558.15	56212.65
558.32	55236.64
558.48	54494.69
558.65	54672.57
558.81	55028.34
558.98	55082.17
559.14	55606.45
559.31	55760.92
559.47	55686.03
559.64	55601.77
559.80	55079.83
559.97	55110.25
560.13	55503.46
560.30	56446.70
560.46	56853.95
560.63	57205.03
560.79	57144.18
560.96	57038.86
561.12	55866.25
561.29	54815.35
561.45	54625.76
561.61	55313.88
561.78	56013.70
561.94	55723.47
562.11	55765.60
562.27	55643.90
562.44	55908.38
562.60	56090.94
562.77	56229.03
562.93	56247.75
563.10	56238.39
563.26	55435.59
563.42	55662.62
563.59	55119.62
563.75	55494.10
563.92	55409.84
564.08	55236.64
564.24	55732.84
564.41	55730.50
564.57	55683.69
564.74	55327.92
564.90	55608.79
565.07	54850.45
565.23	54728.75
565.39	54450.22
565.56	54314.47
565.72	53724.66
565.88	54398.73
566.05	54307.45
566.21	54459.58
566.38	54628.10
566.54	54892.58
566.70	55014.29
566.87	55407.50
567.03	55299.84
567.19	55693.05
567.36	55290.48
567.52	55278.77
567.68	55030.68
567.85	54057.01
568.01	53925.94
568.17	53612.31
568.34	53432.09
568.50	53577.20
568.66	53778.49
568.83	54110.85
568.99	54253.62
569.15	54377.67
569.32	54218.51
569.48	54059.35
569.64	53904.88
569.81	53829.98
569.97	53476.56
570.13	53474.22
570.30	52849.30
570.46	52746.31
570.62	51931.81
570.78	51749.24
570.95	51962.23
571.11	53015.47
571.27	53024.84
571.43	53279.96
571.60	53558.48
571.76	53869.77
571.92	54117.87
572.09	54003.18
572.25	54122.55
572.41	54227.87
572.57	54103.82
572.74	53907.22
572.90	53499.97
573.06	53537.41
573.22	53736.36
573.38	53797.21
573.55	53614.65
573.71	53741.04
573.87	53380.60
574.03	53277.61
574.20	53315.06
574.36	53298.68
574.52	52889.09
574.68	52978.03
574.84	52687.80
575.01	51817.12
575.17	51643.92
575.33	52149.48
575.49	52479.49
575.65	52538.01
575.82	52460.77
575.98	52212.67
576.14	52381.19
576.30	52898.45
576.46	52828.23
576.62	52882.06
576.79	52605.88
576.95	52231.40
577.11	52254.80
577.27	52175.22
577.43	52353.10
577.59	52051.17
577.75	51620.52
577.92	50920.70
578.08	50600.04
578.24	50904.31
578.40	51166.45
578.56	51372.42
578.72	51475.40
578.88	51519.87
579.04	51854.57
579.21	51840.53
579.37	52067.56
579.53	51943.51
579.69	51985.64
579.85	52470.13
580.01	52343.74
580.17	51704.77
580.33	51569.02
580.49	51395.82
580.65	51606.47
580.82	52182.24
580.98	51945.85
581.14	52107.35
581.30	51990.32
581.46	51606.47
581.62	52074.58
581.78	52385.87
581.94	52509.92
582.10	52257.14
582.26	52205.65
582.42	52062.88
582.58	52016.07
582.74	52210.33
582.90	52308.63
583.06	52243.10
583.22	51863.93
583.38	51861.59
583.54	51767.97
583.70	51821.80
583.86	51477.74
584.02	51576.04
584.18	51899.04
584.34	51796.06
584.50	51257.73
584.66	51299.86
584.82	51398.16
584.98	51079.85
585.14	50239.60
585.30	50000.86
