SpectraSuite Data File
++++++++++++++++++++++++++++++++++++
Date: Mon Oct 07 14:55:01 GMT-05:00 2013
User: price-jones
Dark Spectrum Present: No
Reference Spectrum Present: No
Number of Sampled Component Spectra: 1
Spectrometers: USB2+H05261
Integration Time (usec): 10000 (USB2+H05261)
Spectra Averaged: 1 (USB2+H05261)
Boxcar Smoothing: 0 (USB2+H05261)
Correct for Electrical Dark: No (USB2+H05261)
Strobe/Lamp Enabled: No (USB2+H05261)
Correct for Detector Non-linearity: No (USB2+H05261)
Correct for Stray Light: No (USB2+H05261)
Number of Pixels in Processed Spectrum: 2048
>>>>>Begin Processed Spectral Data<<<<<
365.73	0.00
365.92	0.00
366.12	0.00
366.32	0.00
366.52	0.00
366.72	0.00
366.91	0.00
367.11	0.00
367.31	0.00
367.51	0.00
367.70	0.00
367.90	0.00
368.10	0.00
368.30	0.00
368.49	0.00
368.69	0.00
368.89	0.00
369.09	0.00
369.28	0.00
369.48	0.00
369.68	0.00
369.87	0.00
370.07	0.00
370.27	0.00
370.47	358.10
370.66	2588.63
370.86	3038.02
371.06	3152.70
371.25	3091.85
371.45	2768.85
371.65	2502.03
371.84	2354.58
372.04	2698.64
372.24	2878.86
372.44	2995.89
372.63	2860.13
372.83	2736.09
373.03	2324.15
373.22	2223.51
373.42	2590.97
373.62	2733.75
373.81	2960.78
374.01	2883.54
374.21	2576.93
374.40	2473.95
374.60	2534.80
374.79	3148.02
374.99	3482.72
375.19	3557.61
375.38	3625.49
375.58	3527.19
375.78	3351.65
375.97	3442.93
376.17	3543.57
376.37	3524.85
376.56	3646.55
376.76	3850.18
376.95	4191.90
377.15	4395.53
377.35	4533.62
377.54	4788.74
377.74	4830.87
377.93	4868.31
378.13	4554.68
378.33	4294.88
378.52	4297.22
378.72	4023.38
378.91	3763.58
379.11	3761.24
379.31	3660.60
379.50	3892.31
379.70	4021.04
379.89	4470.42
380.09	4737.24
380.28	4945.55
380.48	4830.87
380.68	4648.30
380.87	4512.55
381.07	3983.59
381.26	3812.73
381.46	3618.47
381.65	3417.18
381.85	3384.41
382.04	3155.04
382.24	3101.21
382.43	2939.71
382.63	2827.37
382.83	2871.84
383.02	2846.09
383.22	2736.09
383.41	2958.44
383.61	3141.00
383.80	3672.30
384.00	4187.22
384.19	4629.58
384.39	4774.69
384.58	4748.95
384.78	4706.82
384.97	4587.45
385.17	4329.99
385.36	4079.55
385.56	3932.10
385.75	4292.54
385.95	4770.01
386.14	4983.00
386.34	4987.68
386.53	4507.87
386.72	4238.71
386.92	4575.75
387.11	4713.84
387.31	5006.41
387.50	4877.68
387.70	4746.61
387.89	4730.22
388.09	4634.26
388.28	4535.96
388.48	4849.59
388.67	5296.63
388.86	5666.44
389.06	6141.57
389.25	6511.37
389.45	6464.56
389.64	6420.09
389.84	6382.64
390.03	6326.47
390.22	6342.85
390.42	6502.01
390.61	7023.95
390.81	7576.31
391.00	7510.78
391.19	7482.69
391.39	7063.74
391.58	6654.14
391.78	6471.58
391.97	6256.25
392.16	5680.48
392.36	5018.11
392.55	3866.56
392.75	3124.62
392.94	2637.78
393.13	2780.56
393.33	3604.42
393.52	4421.27
393.71	5116.41
393.91	5968.37
394.10	6300.72
394.29	7187.79
394.49	7403.11
394.68	8131.02
394.88	8023.36
395.07	8285.50
395.26	7988.25
395.46	7756.54
395.65	7152.68
395.84	6286.68
396.04	5025.13
396.23	4194.24
396.42	3564.64
396.62	3749.54
396.81	4575.75
397.00	5746.02
397.19	7236.94
397.39	8355.71
397.58	9298.95
397.77	9717.90
397.97	10286.65
398.16	10415.38
398.35	10640.08
398.55	10853.06
398.74	11400.75
398.93	11201.80
399.12	11241.59
399.32	10951.37
399.51	11496.71
399.70	11793.96
399.90	11461.60
400.09	11695.66
400.28	11580.97
400.47	11864.18
400.67	12451.65
400.86	12776.98
401.05	12851.88
401.24	12727.83
401.44	12774.64
401.63	13088.28
401.82	13174.88
402.01	12968.91
402.21	13310.63
402.40	13364.46
402.59	12531.23
402.78	12112.27
402.97	12224.62
403.17	12898.69
403.36	13266.16
403.55	13710.86
403.74	13813.84
403.93	13097.64
404.13	12128.66
404.32	12156.74
404.51	12741.88
404.70	13551.70
404.89	13238.07
405.09	13422.97
405.28	12996.99
405.47	13104.66
405.66	12908.05
405.85	12737.20
406.05	12163.76
406.24	12641.23
406.43	12884.65
406.62	13341.05
406.81	13598.51
407.00	13142.11
407.20	12552.29
407.39	12996.99
407.58	13795.12
407.77	14218.75
407.96	14878.79
408.15	14799.21
408.34	14759.42
408.54	15667.55
408.73	15569.24
408.92	15059.01
409.11	14604.94
409.30	13797.46
409.49	12938.48
409.68	12308.88
409.87	12159.08
410.07	13109.34
410.26	14307.69
410.45	14717.29
410.64	15389.02
410.83	15520.09
411.02	15866.49
411.21	16615.46
411.40	16430.56
411.59	16486.73
411.78	16507.80
411.98	16372.05
412.17	16772.28
412.36	16170.76
412.55	16030.33
412.74	16095.86
412.93	15445.20
413.12	16215.23
413.31	17865.31
413.50	17666.36
413.69	17530.61
413.88	16805.05
414.07	16608.44
414.26	17144.42
414.45	17542.32
414.64	17261.45
414.83	17273.15
415.02	17090.59
415.22	17053.14
415.41	17764.67
415.60	18122.77
415.79	18883.44
415.98	19290.70
416.17	19019.19
416.36	18501.93
416.55	18150.85
416.74	17455.72
416.93	17202.94
417.12	17666.36
417.31	17549.34
417.50	17947.23
417.69	18281.92
417.88	18169.58
418.07	18183.62
418.26	17682.75
418.45	18324.05
418.64	19002.81
418.83	19543.47
419.02	18939.62
419.21	18621.30
419.39	17886.37
419.58	17350.39
419.77	17706.15
419.96	18668.11
420.15	19255.59
420.34	20266.70
420.53	20568.63
420.72	20807.36
420.91	20884.60
421.10	20367.34
421.29	19810.29
421.48	19576.24
421.67	20622.46
421.86	19573.90
422.05	17965.95
422.24	16615.46
422.43	17280.18
422.61	19007.49
422.80	19924.98
422.99	19499.00
423.18	18824.93
423.37	18658.75
423.56	19190.05
423.75	19618.37
423.94	19796.25
424.13	18735.99
424.32	18558.11
424.50	18869.40
424.69	18654.07
424.88	18977.06
425.07	19009.83
425.26	18867.06
425.45	18150.85
425.64	17977.65
425.83	18611.94
426.01	19379.64
426.20	19201.76
426.39	18963.02
426.58	17628.92
426.77	16723.13
426.96	16388.43
427.15	17252.09
427.33	18398.95
427.52	18773.44
427.71	19019.19
427.90	18717.26
428.09	18789.82
428.28	17972.97
428.46	17465.08
428.65	17357.41
428.84	17841.90
429.03	17893.40
429.22	16931.44
429.40	15599.67
429.59	14396.64
429.78	12971.25
429.97	13195.94
430.16	13032.10
430.34	13083.59
430.53	13364.46
430.72	14181.31
430.91	15988.20
431.10	18579.17
431.28	21280.15
431.47	22860.01
431.66	22267.86
431.85	20217.55
432.03	18745.35
432.22	18462.15
432.41	20016.26
432.60	21472.07
432.79	22150.83
432.97	22171.89
433.16	21462.71
433.35	19297.72
433.54	17308.26
433.72	16870.58
433.91	17825.52
434.10	20271.38
434.28	21376.11
434.47	22160.19
434.66	21441.65
434.85	20769.91
435.03	21348.03
435.22	21984.65
435.41	22895.12
435.59	23208.75
435.78	23573.88
435.97	23908.57
436.16	23618.35
436.34	23239.18
436.53	23112.79
436.72	23171.30
436.90	21921.46
437.09	22031.46
437.28	21626.55
437.46	22450.42
437.65	21799.75
437.84	19917.96
438.02	18960.68
438.21	19630.07
438.40	20025.62
438.58	22029.12
438.77	22155.51
438.96	22574.47
439.14	23974.11
439.33	24184.76
439.52	24364.98
439.70	23309.40
439.89	22932.57
440.08	22300.62
440.26	22717.24
440.45	23522.38
440.63	25458.01
440.82	26033.78
441.01	25628.87
441.19	25401.83
441.38	26497.20
441.57	27623.00
441.75	27140.85
441.94	27791.52
442.12	27407.67
442.31	27969.40
442.50	28067.70
442.68	27358.52
442.87	26967.65
443.05	26885.73
443.24	27578.53
443.43	27494.27
443.61	28119.20
443.80	28519.43
443.98	27543.42
444.17	26817.86
444.35	28577.94
444.54	29406.49
444.73	28308.78
444.91	26838.92
445.10	26089.95
445.28	25378.43
445.47	25111.61
445.65	25338.64
445.84	26757.00
446.02	26733.60
446.21	27517.68
446.39	27407.67
446.58	27765.78
446.77	28315.80
446.95	28650.50
447.14	29160.73
447.32	29305.85
447.51	28992.22
447.69	28077.07
447.88	27728.33
448.06	28278.35
448.25	28622.41
448.43	28676.24
448.62	28294.74
448.80	28020.89
448.99	28423.47
449.17	28559.22
449.36	29256.70
449.54	29670.97
449.73	30115.67
449.91	30309.94
450.10	31194.66
450.28	31421.69
450.46	31735.32
450.65	31744.69
450.83	30976.99
451.02	30401.22
451.20	30532.29
451.39	30471.43
451.57	30504.20
451.76	30625.91
451.94	29942.47
452.13	29240.31
452.31	27505.98
452.49	26675.09
452.68	27007.44
452.86	27264.90
453.05	28056.00
453.23	29586.71
453.42	29727.14
453.60	30560.37
453.78	30213.98
453.97	30143.76
454.15	29804.38
454.34	28701.99
454.52	28414.10
454.70	28821.36
454.89	29151.37
455.07	29139.67
455.26	29603.10
455.44	30649.32
455.62	31431.05
455.81	31309.35
455.99	31002.74
456.17	31695.53
456.36	32032.57
456.54	32304.07
456.73	31716.60
456.91	31985.76
457.09	32306.41
457.28	33443.91
457.46	31683.83
457.64	31337.43
457.83	30562.72
458.01	30197.59
458.19	31295.30
458.38	32041.93
458.56	32336.84
458.74	31622.98
458.93	31356.16
459.11	30986.35
459.29	30567.40
459.48	32011.51
459.66	30724.21
459.84	31641.70
460.03	31924.91
460.21	32662.18
460.39	32517.06
460.57	32858.78
460.76	32655.15
460.94	32842.40
461.12	32795.59
461.31	33015.60
461.49	33174.75
461.67	32830.69
461.85	33827.76
462.04	33453.28
462.22	33605.41
462.40	33457.96
462.59	32554.51
462.77	33090.49
462.95	33317.53
463.13	32849.42
463.32	32521.74
463.50	31960.02
463.68	32903.25
463.86	32919.63
464.05	31976.40
464.23	31094.02
464.41	31187.64
464.59	31187.64
464.78	32437.48
464.96	32297.05
465.14	31625.32
465.32	33420.51
465.50	34272.46
465.69	34642.27
465.87	33546.90
466.05	32215.13
466.23	31051.89
466.41	30466.75
466.60	31611.28
466.78	31194.66
466.96	31793.84
467.14	32952.40
467.32	32514.72
467.51	32498.34
467.69	31353.82
467.87	31805.54
468.05	33053.05
468.23	32357.91
468.41	32254.92
468.60	32641.11
468.78	33502.43
468.96	33333.91
469.14	33570.30
469.32	33558.60
469.50	31686.17
469.69	32273.65
469.87	32121.51
470.05	31625.32
470.23	31377.22
470.41	31859.37
470.59	32222.16
470.77	32156.62
470.95	33177.09
471.14	33715.42
471.32	33724.78
471.50	35271.87
471.68	35983.40
471.86	35969.35
472.04	35601.89
472.22	35756.36
472.40	34155.44
472.58	34143.74
472.77	33715.42
472.95	34433.96
473.13	35550.40
473.31	33797.34
473.49	33792.65
473.67	34934.84
473.85	35426.35
474.03	37067.06
474.21	37338.57
474.39	37881.57
474.57	36755.77
474.75	36884.50
474.93	36723.01
475.12	35449.75
475.30	36147.23
475.48	35646.36
475.66	35674.45
475.84	35304.64
476.02	35604.23
476.20	35042.50
476.38	35840.62
476.56	37193.45
476.74	38054.77
476.92	37361.97
477.10	38237.33
477.28	38934.81
477.46	38951.20
477.64	40025.50
477.82	40194.02
478.00	39765.70
478.18	38667.99
478.36	38536.92
478.54	39253.12
478.72	39878.05
478.90	41083.42
479.08	43395.87
479.26	42483.06
479.44	42745.20
479.62	41972.83
479.80	42887.98
479.98	41977.51
480.16	42880.95
480.34	41986.87
480.52	42859.89
480.70	43239.06
480.88	42878.61
481.06	43807.81
481.24	43889.73
481.41	44423.37
481.59	46153.02
481.77	44605.93
481.95	43952.92
482.13	43934.20
482.31	44289.96
482.49	45097.44
482.67	44554.44
482.85	44715.93
483.03	44741.68
483.21	46370.69
483.39	45357.24
483.57	44769.77
483.74	44659.76
483.92	46007.91
484.10	45177.02
484.28	45947.06
484.46	45436.82
484.64	47519.90
484.82	46616.45
485.00	45621.72
485.18	45144.25
485.35	42911.38
485.53	37710.71
485.71	35796.15
485.89	36308.73
486.07	38763.95
486.25	41703.67
486.43	44151.87
486.61	44339.11
486.78	44081.65
486.96	45256.60
487.14	46906.68
487.32	47473.09
487.50	48357.81
487.68	49439.14
487.85	50321.52
488.03	49698.94
488.21	49139.55
488.39	49270.62
488.57	47344.36
488.75	47281.16
488.92	48992.09
489.10	51306.88
489.28	51995.00
489.46	53420.39
489.64	53071.65
489.81	52961.64
489.99	52444.38
490.17	52530.98
490.35	52884.40
490.53	52168.20
490.70	51711.80
490.88	51805.42
491.06	53141.86
491.24	53008.45
491.41	52023.09
491.59	50288.75
491.77	50319.18
491.95	51700.09
492.13	52877.38
492.30	53394.64
492.48	53977.43
492.66	54667.89
492.84	54316.81
493.01	53914.24
493.19	54028.93
493.37	53521.03
493.54	53710.61
493.72	54632.78
493.90	55114.94
494.08	55391.12
494.25	55449.63
494.43	56182.22
494.61	56442.02
494.79	56530.96
494.96	56685.43
495.14	56446.70
495.32	54960.46
495.49	55292.82
495.67	56268.82
495.85	56610.54
496.02	57506.96
496.20	57209.71
496.38	56912.47
496.55	56626.92
496.73	57432.07
496.91	57504.62
497.09	57352.49
497.26	57581.86
497.44	57371.21
497.62	56355.42
497.79	55309.20
497.97	54904.29
498.14	55393.46
498.32	56465.42
498.50	56889.06
498.67	56715.86
498.85	57347.81
499.03	57895.49
499.20	58101.46
499.38	57097.37
499.56	56968.64
499.73	56762.67
499.91	56718.20
500.08	55943.48
500.26	55468.36
500.44	56427.98
500.61	56708.84
500.79	56219.67
500.97	56521.60
501.14	55365.37
501.32	55136.00
501.49	55606.45
501.67	55941.14
501.84	56238.39
502.02	56727.56
502.20	57560.79
502.37	57560.79
502.55	57633.35
502.72	58255.93
502.90	58426.79
503.07	58216.14
503.25	56992.04
503.43	55966.89
503.60	55978.59
503.78	55927.10
503.95	56011.36
504.13	57240.14
504.30	57762.08
504.48	57270.57
504.65	57265.89
504.83	57539.73
505.01	58234.87
505.18	58646.80
505.36	58578.93
505.53	58899.58
505.71	59201.51
505.88	59147.68
506.06	58834.05
506.23	58269.98
506.41	57986.77
506.58	58527.44
506.76	58403.39
506.93	57839.32
507.11	57986.77
507.28	58000.82
507.46	57513.98
507.63	57560.79
507.81	56884.38
507.98	57450.79
508.16	58677.23
508.33	58637.44
508.50	58836.39
508.68	59365.35
508.85	59365.35
509.03	59695.36
509.20	59021.29
509.38	57970.39
509.55	57787.83
509.73	58262.96
509.90	58333.17
510.08	58646.80
510.25	58101.46
510.42	58045.29
510.60	58731.06
510.77	59133.63
510.95	59075.12
511.12	59297.47
511.30	59840.48
511.47	59913.03
511.64	59997.29
511.82	59803.03
511.99	58717.02
512.17	58763.83
512.34	58138.91
512.51	58309.77
512.69	58782.55
512.86	58599.99
513.04	58871.49
513.21	58464.24
513.38	57385.25
513.56	57364.19
513.73	57045.88
513.90	57726.97
514.08	57525.69
514.25	57478.88
514.43	58234.87
514.60	58408.07
514.77	58506.37
514.95	58651.48
515.12	58501.69
515.29	58972.14
515.47	59454.29
515.64	59140.66
515.81	58887.88
515.99	57902.51
516.16	56060.51
516.33	53822.96
516.51	53581.88
516.68	52418.64
516.85	51367.74
517.03	53764.45
517.20	55873.27
517.37	58059.33
517.54	58686.59
517.72	57422.70
517.89	54134.25
518.06	53139.52
518.24	54405.75
518.41	56439.68
518.58	57165.24
518.75	57301.00
518.93	57441.43
519.10	56575.43
519.27	57883.79
519.45	58321.47
519.62	58876.18
519.79	58890.22
519.96	58412.75
520.14	58064.01
520.31	56961.62
520.48	57282.27
520.65	58284.02
520.83	59032.99
521.00	58944.05
521.17	58335.51
521.34	58536.80
521.52	59077.46
521.69	59171.08
521.86	59332.58
522.03	59480.03
522.20	57579.52
522.38	57298.65
522.55	57801.87
522.72	58372.96
522.89	57855.70
523.07	58342.53
523.24	58841.07
523.41	59894.31
523.58	60273.48
523.75	60308.58
523.92	59884.95
524.10	59536.21
524.27	59458.97
524.44	59337.26
524.61	59004.91
524.78	59503.44
524.96	59292.79
525.13	59456.63
525.30	59863.88
525.47	59945.80
525.64	59718.77
525.81	58995.54
525.98	56924.17
526.16	56128.39
526.33	56404.57
526.50	55721.13
526.67	55824.12
526.84	55983.27
527.01	57202.69
527.18	57623.99
527.36	58829.37
527.53	59667.28
527.70	58899.58
527.87	57511.64
528.04	58635.10
528.21	59318.54
528.38	59735.15
528.55	60619.88
528.72	60310.92
528.89	59847.50
529.07	59568.97
529.24	58478.28
529.41	58335.51
529.58	58190.40
529.75	59157.04
529.92	59473.01
530.09	59238.96
530.26	59915.37
530.43	60846.91
530.60	59447.27
530.77	60189.22
530.94	60423.27
531.11	59451.95
531.28	59910.69
531.46	60072.19
531.63	59604.08
531.80	59070.44
531.97	58513.39
532.14	58567.23
532.31	57333.76
532.48	56392.87
532.65	56832.89
532.82	57645.05
532.99	59044.69
533.16	59229.60
533.33	59304.49
533.50	59512.80
533.67	59334.92
533.84	58492.33
534.01	58871.49
534.18	59203.85
534.35	59000.22
534.52	58230.19
534.69	58941.71
534.86	59367.69
535.03	59777.28
535.20	59484.72
535.37	60268.79
535.54	60341.35
535.71	60238.37
535.88	60554.34
536.05	59044.69
536.22	58525.10
536.38	58333.17
536.55	57380.57
536.72	57345.47
536.89	57869.75
537.06	58073.37
537.23	58803.62
537.40	58784.90
537.57	58518.07
537.74	58817.66
537.91	59079.80
538.08	58623.40
538.25	58576.59
538.42	59430.88
538.59	58871.49
538.75	57977.41
538.92	57513.98
539.09	57874.43
539.26	57649.74
539.43	57635.69
539.60	57989.11
539.77	58405.73
539.94	58047.63
540.11	57413.34
540.28	57083.33
540.44	56481.81
540.61	56397.55
540.78	57125.46
540.95	58197.42
541.12	58082.73
541.29	58431.47
541.46	58738.08
541.62	58864.47
541.79	57963.37
541.96	57169.93
542.13	57219.08
542.30	57567.82
542.47	58291.04
542.63	57869.75
542.80	58000.82
542.97	57457.81
543.14	57235.46
543.31	57155.88
543.48	58590.63
543.64	59007.25
543.81	59805.37
543.98	59444.93
544.15	57858.04
544.32	58473.60
544.48	58014.86
544.65	58206.78
544.82	58691.27
544.99	57186.31
545.16	56933.53
545.32	57120.77
545.49	58227.85
545.66	58028.90
545.83	57766.76
546.00	58202.10
546.16	58265.30
546.33	58061.67
546.50	58181.04
546.67	58665.53
546.83	57684.84
547.00	58468.92
547.17	57176.95
547.34	56573.09
547.50	56516.92
547.67	57511.64
547.84	58040.60
548.00	57937.62
548.17	57757.40
548.34	58157.63
548.51	58637.44
548.67	58571.91
548.84	58314.45
549.01	58356.58
549.18	58017.20
549.34	57975.07
549.51	58279.34
549.68	57888.47
549.84	57701.23
550.01	57088.01
550.18	56889.06
550.34	57371.21
550.51	57467.17
550.68	58092.10
550.84	57851.02
551.01	56987.36
551.18	57090.35
551.34	56296.91
551.51	57605.26
551.68	57567.82
551.84	57602.92
552.01	57530.37
552.18	57240.14
552.34	56596.49
552.51	56563.73
552.68	56287.54
552.84	56530.96
553.01	56928.85
553.18	57542.07
553.34	57869.75
553.51	57691.86
553.67	57319.72
553.84	56886.72
554.01	57385.25
554.17	56795.44
554.34	57291.63
554.51	57146.52
554.67	56514.58
554.84	56591.81
555.00	56725.22
555.17	56537.98
555.33	56357.76
555.50	55791.35
555.67	56942.89
555.83	56774.37
556.00	56474.79
556.16	56142.43
556.33	55587.72
556.50	56229.03
556.66	56301.59
556.83	55962.21
556.99	55765.60
557.16	56004.34
557.32	55742.20
557.49	55896.67
557.65	55671.98
557.82	56353.08
557.98	56442.02
558.15	55634.53
558.32	54705.34
558.48	54073.40
558.65	54314.47
558.81	54946.42
558.98	55569.00
559.14	55723.47
559.31	55267.07
559.47	54761.51
559.64	54761.51
559.80	54340.22
559.97	55157.06
560.13	56292.22
560.30	57153.54
560.46	57282.27
560.63	57558.45
560.79	57441.43
560.96	56615.22
561.12	55171.11
561.29	54855.14
561.45	54787.26
561.61	56299.25
561.78	55821.78
561.94	56425.64
562.11	56081.58
562.27	55114.94
562.44	55931.78
562.60	55945.83
562.77	56603.52
562.93	55168.77
563.10	55143.02
563.26	55068.12
563.42	56025.40
563.59	55201.53
563.75	54958.12
563.92	54974.50
564.08	54560.23
564.24	55428.57
564.41	54632.78
564.57	55702.41
564.74	55309.20
564.90	54490.01
565.07	54815.35
565.23	53965.73
565.39	53387.62
565.56	54131.91
565.72	54195.10
565.88	52718.23
566.05	54906.63
566.21	55199.19
566.38	54880.88
566.54	54794.28
566.70	55227.28
566.87	55070.46
567.03	54468.95
567.19	55550.27
567.36	56090.94
567.52	54567.25
567.68	54225.53
567.85	53329.11
568.01	53488.26
568.17	53804.24
568.34	54663.21
568.50	54026.59
568.66	54438.52
568.83	53371.24
568.99	53071.65
569.15	53572.52
569.32	53855.73
569.48	53441.45
569.64	53064.63
569.81	53038.88
569.97	52907.81
570.13	52657.37
570.30	52058.20
570.46	51145.39
570.62	50705.37
570.78	51110.28
570.95	52041.81
571.11	51739.88
571.27	51475.40
571.43	52172.88
571.60	51522.21
571.76	53125.48
571.92	53165.27
572.09	53731.68
572.25	53708.27
572.41	54365.96
572.57	54092.12
572.74	53872.11
572.90	54759.17
573.06	54078.08
573.22	54204.47
573.38	53801.89
573.55	55175.79
573.71	53703.59
573.87	53886.15
574.03	53652.10
574.20	53429.75
574.36	53364.21
574.52	52474.81
574.68	52261.82
574.84	51814.78
575.01	52034.79
575.17	52189.27
575.33	52392.89
575.49	52542.69
575.65	51613.49
575.82	52350.76
575.98	51643.92
576.14	52793.12
576.30	53193.36
576.46	51786.69
576.62	51999.68
576.79	51835.84
576.95	51887.34
577.11	52575.45
577.27	52072.24
577.43	52435.02
577.59	51983.30
577.75	50312.16
577.92	50705.37
578.08	50927.72
578.24	51767.97
578.40	51657.96
578.56	50548.55
578.72	50969.85
578.88	50649.19
579.04	51297.52
579.21	50712.39
579.37	51035.38
579.53	51789.03
579.69	50789.62
579.85	50939.42
580.01	50806.01
580.17	50611.74
580.33	51721.16
580.49	51744.56
580.65	50092.15
580.82	50866.86
580.98	51224.96
581.14	52200.97
581.30	51398.16
581.46	51133.68
581.62	51023.68
581.78	52364.81
581.94	51948.19
582.10	52554.39
582.26	52385.87
582.42	52224.37
582.58	50712.39
582.74	50483.01
582.90	50827.07
583.06	50948.78
583.22	51388.80
583.38	51480.08
583.54	51718.82
583.70	51959.89
583.86	51437.95
584.02	51023.68
584.18	50990.91
584.34	50143.64
584.50	49991.50
584.66	50244.28
584.82	50628.13
584.98	50443.23
585.14	50005.55
585.30	50274.71
