SpectraSuite Data File
++++++++++++++++++++++++++++++++++++
Date: Mon Oct 07 14:52:55 GMT-05:00 2013
User: price-jones
Dark Spectrum Present: No
Reference Spectrum Present: No
Number of Sampled Component Spectra: 1
Spectrometers: USB2+H05261
Integration Time (usec): 100000 (USB2+H05261)
Spectra Averaged: 1 (USB2+H05261)
Boxcar Smoothing: 0 (USB2+H05261)
Correct for Electrical Dark: No (USB2+H05261)
Strobe/Lamp Enabled: No (USB2+H05261)
Correct for Detector Non-linearity: No (USB2+H05261)
Correct for Stray Light: No (USB2+H05261)
Number of Pixels in Processed Spectrum: 2048
>>>>>Begin Processed Spectral Data<<<<<
365.73	0.00
365.92	0.00
366.12	0.00
366.32	0.00
366.52	0.00
366.72	0.00
366.91	0.00
367.11	0.00
367.31	0.00
367.51	0.00
367.70	0.00
367.90	0.00
368.10	0.00
368.30	0.00
368.49	0.00
368.69	0.00
368.89	0.00
369.09	0.00
369.28	0.00
369.48	0.00
369.68	0.00
369.87	0.00
370.07	0.00
370.27	0.00
370.47	475.13
370.66	2612.04
370.86	2981.84
371.06	3335.26
371.25	3286.11
371.45	3016.95
371.65	2675.23
371.84	2459.90
372.04	2626.08
372.24	3040.36
372.44	3190.15
372.63	2981.84
372.83	2834.39
373.03	2523.10
373.22	2349.90
373.42	2452.88
373.62	2874.18
373.81	3082.49
374.01	2916.31
374.21	2731.41
374.40	2490.33
374.60	2789.92
374.79	3108.23
374.99	3592.72
375.19	3824.44
375.38	3904.01
375.58	3552.93
375.78	3382.07
375.97	3478.04
376.17	3613.79
376.37	3700.39
376.56	3770.60
376.76	4053.81
376.95	4351.06
377.15	4592.13
377.35	4791.08
377.54	4861.29
377.74	5095.35
377.93	4952.57
378.13	4849.59
378.33	4645.96
378.52	4311.27
378.72	4152.11
378.91	4039.76
379.11	3962.53
379.31	3875.93
379.50	3836.14
379.70	4161.47
379.89	4608.51
380.09	4873.00
380.28	5100.03
380.48	4887.04
380.68	4760.65
380.87	4716.18
381.07	4327.65
381.26	4053.81
381.46	3824.44
381.65	3688.68
381.85	3609.11
382.04	3363.35
382.24	3194.83
382.43	3059.08
382.63	2988.86
382.83	2932.69
383.02	3009.93
383.22	3021.63
383.41	3033.33
383.61	3325.90
383.80	3826.78
384.00	4318.29
384.19	4732.56
384.39	4823.84
384.58	4915.12
384.78	4718.52
384.97	4585.11
385.17	4552.34
385.36	4285.52
385.56	4119.34
385.75	4353.40
385.95	4660.01
386.14	5053.22
386.34	5032.15
386.53	4802.78
386.72	4435.32
386.92	4592.13
387.11	4823.84
387.31	5013.43
387.50	5015.77
387.70	4894.06
387.89	4730.22
388.09	4856.61
388.28	4954.91
388.48	4854.27
388.67	5224.08
388.86	5830.27
389.06	6246.89
389.25	6525.41
389.45	6698.61
389.64	6513.71
389.84	6396.68
390.03	6342.85
390.22	6368.60
390.42	6614.35
390.61	7059.06
390.81	7576.31
391.00	7583.34
391.19	7602.06
391.39	7368.01
391.58	7075.44
391.78	6382.64
391.97	6253.91
392.16	5767.08
392.36	5310.68
392.55	4301.90
392.75	3405.48
392.94	2724.38
393.13	2651.83
393.33	3286.11
393.52	4259.78
393.71	5343.44
393.91	5760.06
394.10	6340.51
394.29	7002.88
394.49	7344.60
394.68	8159.11
394.88	8028.04
395.07	8404.86
395.26	8292.52
395.46	8112.30
395.65	7496.74
395.84	6558.18
396.04	5652.39
396.23	4489.15
396.42	3747.20
396.62	3798.69
396.81	4308.93
397.00	5394.93
397.19	6820.32
397.39	8475.08
397.58	9287.25
397.77	9764.72
397.97	10267.93
398.16	10143.88
398.35	10569.86
398.55	10885.83
398.74	11417.13
398.93	11515.44
399.12	11288.40
399.32	10932.64
399.51	11047.33
399.70	11988.22
399.90	11632.46
400.09	11854.81
400.28	11688.64
400.47	11716.72
400.67	12442.29
400.86	12849.54
401.05	12498.46
401.24	12854.22
401.44	12802.73
401.63	12877.63
401.82	13146.79
402.01	13128.06
402.21	12905.71
402.40	13256.79
402.59	12788.69
402.78	12472.71
402.97	11829.07
403.17	12472.71
403.36	13130.41
403.55	13935.55
403.74	13942.57
403.93	13130.41
404.13	12049.08
404.32	12067.80
404.51	12432.93
404.70	13593.83
404.89	13516.59
405.09	13544.68
405.28	12868.27
405.47	12870.61
405.66	12606.13
405.85	12634.21
406.05	12484.42
406.24	12564.00
406.43	12896.35
406.62	13334.03
406.81	13514.25
407.00	13149.13
407.20	12582.72
407.39	12905.71
407.58	13614.90
407.77	13785.76
407.96	14436.42
408.15	14616.65
408.34	14508.98
408.54	15466.26
408.73	15398.38
408.92	14998.15
409.11	14677.50
409.30	13841.93
409.49	12994.65
409.68	12503.14
409.87	11967.16
410.07	12828.48
410.26	14047.90
410.45	14670.48
410.64	14738.35
410.83	15412.43
411.02	15887.56
411.21	16259.70
411.40	16306.51
411.59	16020.97
411.78	16109.91
411.98	15985.86
412.17	16102.89
412.36	15843.09
412.55	15634.78
412.74	15658.18
412.93	15054.33
413.12	15620.74
413.31	17069.53
413.50	17053.14
413.69	17406.56
413.88	16404.81
414.07	16137.99
414.26	16603.76
414.45	16931.44
414.64	17114.00
414.83	17436.99
415.02	16683.34
415.22	16683.34
415.41	17186.55
415.60	17738.92
415.79	18558.11
415.98	18820.25
416.17	18541.72
416.36	18476.19
416.55	18331.08
416.74	17177.19
416.93	16683.34
417.12	16737.17
417.31	17144.42
417.50	17369.12
417.69	17865.31
417.88	17987.02
418.07	17715.51
418.26	17514.23
418.45	17596.15
418.64	18310.01
418.83	18855.36
419.02	18836.63
419.21	18466.83
419.39	17621.89
419.58	16973.56
419.77	16919.73
419.96	17790.41
420.15	18677.48
420.34	19094.09
420.53	19950.73
420.72	20435.22
420.91	20100.52
421.10	19550.49
421.29	19868.81
421.48	19222.82
421.67	19985.83
421.86	19281.33
422.05	17799.77
422.24	16533.54
422.43	15983.52
422.61	17926.16
422.80	19211.12
422.99	19466.24
423.18	18600.24
423.37	18256.18
423.56	18534.70
423.75	18656.41
423.94	18813.23
424.13	18085.32
424.32	17977.65
424.50	17951.91
424.69	17759.98
424.88	17956.59
425.07	18097.02
425.26	17982.34
425.45	17696.79
425.64	17465.08
425.83	17631.26
426.01	18377.89
426.20	18984.09
426.39	19019.19
426.58	17224.00
426.77	16074.80
426.96	15836.06
427.15	16395.45
427.33	17741.26
427.52	18403.63
427.71	18490.23
427.90	18115.75
428.09	17994.04
428.28	17848.93
428.46	17008.67
428.65	16610.78
428.84	17338.69
429.03	17509.55
429.22	16514.82
429.40	15323.49
429.59	13764.69
429.78	12472.71
429.97	12524.21
430.16	12706.77
430.34	12765.28
430.53	12741.88
430.72	12994.65
430.91	14361.53
431.10	17207.62
431.28	20290.10
431.47	21596.12
431.66	21795.07
431.85	19623.05
432.03	18127.45
432.22	17696.79
432.41	18476.19
432.60	20362.66
432.79	21212.28
432.97	21376.11
433.16	21020.35
433.35	19187.71
433.54	17549.34
433.72	16018.63
433.91	17048.46
434.10	19023.87
434.28	20266.70
434.47	21029.71
434.66	20683.31
434.85	20233.93
435.03	20343.94
435.22	20755.87
435.41	22038.48
435.59	22293.60
435.78	22352.12
435.97	22963.00
436.16	22970.02
436.34	22457.44
436.53	22176.58
436.72	22396.59
436.90	21003.97
437.09	20987.58
437.28	20582.67
437.46	21324.62
437.65	21380.79
437.84	19889.87
438.02	18272.56
438.21	18434.06
438.40	19194.73
438.58	20868.22
438.77	21420.58
438.96	21385.47
439.14	22539.36
439.33	22937.25
439.52	23293.01
439.70	22993.42
439.89	22221.05
440.08	21458.03
440.26	21736.56
440.45	22698.52
440.63	23885.17
440.82	25090.54
441.01	24844.79
441.19	24912.66
441.38	24809.68
441.57	25715.47
441.75	26115.70
441.94	26331.03
442.12	25954.20
442.31	26888.07
442.50	26668.06
442.68	26012.71
442.87	25963.56
443.05	25694.40
443.24	26429.33
443.43	26614.23
443.61	27159.58
443.80	27393.63
443.98	25862.92
444.17	26197.62
444.35	27630.02
444.54	27903.87
444.73	27440.44
444.91	26314.64
445.10	25348.00
445.28	24556.90
445.47	24315.83
445.65	24091.13
445.84	24889.26
446.02	25893.35
446.21	25921.43
446.39	26260.81
446.58	26616.57
446.77	26780.41
446.95	27211.07
447.14	27744.71
447.32	28102.81
447.51	27353.84
447.69	26988.72
447.88	26602.53
448.06	26827.22
448.25	27178.30
448.43	27264.90
448.62	26895.10
448.80	26848.29
448.99	26719.56
449.17	27262.56
449.36	27168.94
449.54	28283.03
449.73	28809.65
449.91	29270.74
450.10	29584.37
450.28	30572.08
450.46	30066.52
450.65	29811.40
450.83	30204.61
451.02	29383.09
451.20	29315.21
451.39	28957.11
451.57	29127.97
451.76	28971.15
451.94	28989.88
452.13	28058.34
452.31	26867.01
452.49	25638.23
452.68	25841.85
452.86	25984.63
453.05	26258.47
453.23	27297.67
453.42	28196.43
453.60	28388.36
453.78	28863.49
453.97	28149.62
454.15	28760.50
454.34	27852.38
454.52	27924.93
454.70	27969.40
454.89	27735.35
455.07	28379.00
455.26	28503.04
455.44	29553.94
455.62	30047.80
455.81	30092.27
455.99	29610.12
456.17	29549.26
456.36	29577.35
456.54	30604.84
456.73	30349.73
456.91	31140.83
457.09	31056.57
457.28	31775.11
457.46	30878.69
457.64	30618.89
457.83	29022.64
458.01	28884.55
458.19	29621.82
458.38	29764.59
458.56	30836.56
458.74	30487.82
458.93	30050.14
459.11	30000.99
459.29	29586.71
459.48	29900.34
459.66	29621.82
459.84	29968.22
460.03	30284.19
460.21	30766.34
460.39	31384.24
460.57	30981.67
460.76	31428.71
460.94	31573.83
461.12	31122.10
461.31	31199.34
461.49	31197.00
461.67	31152.53
461.85	32044.27
462.04	31864.05
462.22	32861.12
462.40	32016.19
462.59	32182.37
462.77	31831.29
462.95	32175.34
463.13	31632.34
463.32	31171.25
463.50	31147.85
463.68	31681.49
463.86	31339.77
464.05	30995.71
464.23	30157.80
464.41	29926.09
464.59	29673.31
464.78	31417.01
464.96	30904.43
465.14	30630.59
465.32	31639.36
465.50	32414.08
465.69	32531.11
465.87	31868.73
466.05	31110.40
466.23	29408.83
466.41	28790.93
466.60	29696.72
466.78	29914.39
466.96	30178.87
467.14	30441.01
467.32	31683.83
467.51	31227.43
467.69	29778.64
467.87	30258.45
468.05	30553.35
468.23	30895.07
468.41	30881.03
468.60	31133.81
468.78	31622.98
468.96	30960.61
469.14	32044.27
469.32	31594.89
469.50	30258.45
469.69	30806.13
469.87	30031.41
470.05	30499.52
470.23	30202.27
470.41	30197.59
470.59	30890.39
470.77	30586.12
470.95	31847.67
471.14	31878.10
471.32	32041.93
471.50	33317.53
471.68	33692.01
471.86	33614.77
472.04	34078.20
472.22	33942.45
472.40	32685.58
472.58	32620.05
472.77	31857.03
472.95	32821.33
473.13	33483.70
473.31	32524.08
473.49	32559.19
473.67	33212.20
473.85	33631.16
474.03	34480.77
474.21	34792.06
474.39	35126.76
474.57	35271.87
474.75	35093.99
474.93	34499.50
475.12	34333.32
475.30	33996.28
475.48	33944.79
475.66	34850.58
475.84	34504.18
476.02	34171.82
476.20	33544.56
476.38	34256.08
476.56	35386.56
476.74	35683.81
476.92	36055.95
477.10	36472.57
477.28	37631.13
477.46	37324.52
477.64	37720.07
477.82	38014.98
478.00	38649.27
478.18	37546.87
478.36	37364.31
478.54	37741.14
478.72	37610.07
478.90	38972.26
479.08	39510.58
479.26	39693.15
479.44	40102.74
479.62	40074.65
479.80	40418.71
479.98	39688.46
480.16	40385.94
480.34	40107.42
480.52	40299.34
480.70	40502.97
480.88	40603.61
481.06	41401.74
481.24	41205.13
481.41	42466.68
481.59	42705.41
481.77	42721.80
481.95	42085.17
482.13	41921.34
482.31	41989.21
482.49	42962.87
482.67	42777.97
482.85	42913.72
483.03	43491.83
483.21	44032.50
483.39	43629.93
483.57	43250.76
483.74	43229.69
483.92	42965.21
484.10	43222.67
484.28	44289.96
484.46	44835.30
484.64	45315.11
484.82	44236.12
485.00	43328.00
485.18	43283.53
485.35	41401.74
485.53	38031.36
485.71	35283.58
485.89	34958.24
486.07	36409.37
486.25	39854.64
486.43	42302.84
486.61	42370.72
486.78	42391.78
486.96	43110.33
487.14	44758.06
487.32	45378.31
487.50	46628.15
487.68	47419.25
487.85	47746.93
488.03	47971.62
488.21	47547.98
488.39	46157.70
488.57	45808.96
488.75	45649.81
488.92	47042.43
489.10	49085.72
489.28	50768.56
489.46	51622.86
489.64	51381.78
489.81	51606.47
489.99	51112.62
490.17	51136.02
490.35	51613.49
490.53	50969.85
490.70	50155.34
490.88	50506.42
491.06	51655.62
491.24	51365.40
491.41	49883.84
491.59	48172.91
491.77	47833.53
491.95	49132.53
492.13	50286.41
492.30	51774.99
492.48	52626.95
492.66	52954.62
492.84	52793.12
493.01	52940.58
493.19	52156.50
493.37	51660.30
493.54	51784.35
493.72	52224.37
493.90	53635.72
494.08	54436.18
494.25	54869.18
494.43	54834.07
494.61	54946.42
494.79	55082.17
494.96	55018.97
495.14	54298.09
495.32	53282.30
495.49	52734.61
495.67	53897.86
495.85	55084.51
496.02	55456.65
496.20	55639.22
496.38	55021.31
496.55	55100.89
496.73	55215.58
496.91	55732.84
497.09	55847.52
497.26	56039.45
497.44	55707.09
497.62	55131.32
497.79	54396.39
497.97	52954.62
498.14	53326.77
498.32	54564.91
498.50	55533.89
498.67	55959.87
498.85	55751.56
499.03	56030.08
499.20	56226.69
499.38	56299.25
499.56	56163.50
499.73	55199.19
499.91	55386.44
500.08	54557.89
500.26	53932.96
500.44	54656.19
500.61	55213.24
500.79	54934.71
500.97	54635.13
501.14	54382.35
501.32	54061.69
501.49	54459.58
501.67	54265.32
501.84	55246.00
502.02	55351.33
502.20	55646.24
502.37	55721.13
502.55	55997.32
502.72	56418.61
502.90	57066.94
503.07	56430.32
503.25	56198.60
503.43	55185.15
503.60	54490.01
503.78	54131.91
503.95	54658.53
504.13	56119.02
504.30	56631.60
504.48	56568.41
504.65	56006.68
504.83	56147.11
505.01	56633.94
505.18	57104.39
505.36	57773.78
505.53	57708.25
505.71	57902.51
505.88	57937.62
506.06	57329.08
506.23	57073.96
506.41	56846.93
506.58	57141.84
506.76	57043.54
506.93	56917.15
507.11	56626.92
507.28	56678.41
507.46	56320.31
507.63	55664.96
507.81	55643.90
507.98	56079.24
508.16	56640.96
508.33	57134.82
508.50	57436.75
508.68	57759.74
508.85	58169.33
509.03	58185.72
509.20	58145.93
509.38	57212.06
509.55	56640.96
509.73	56659.69
509.90	57097.37
510.08	57478.88
510.25	57378.23
510.42	57336.10
510.60	57205.03
510.77	57364.19
510.95	57939.96
511.12	58211.46
511.30	58513.39
511.47	58548.50
511.64	58735.74
511.82	58148.27
511.99	57188.65
512.17	56996.73
512.34	56633.94
512.51	56779.06
512.69	56999.07
512.86	57228.44
513.04	57591.22
513.21	57464.83
513.38	57434.41
513.56	56657.35
513.73	56268.82
513.90	56444.36
514.08	56500.53
514.25	56704.16
514.43	56966.30
514.60	57116.09
514.77	57270.57
514.95	57312.70
515.12	57329.08
515.29	57504.62
515.47	57808.89
515.64	57888.47
515.81	57502.28
515.99	57120.77
516.16	55636.87
516.33	53010.79
516.51	52186.92
516.68	50773.24
516.85	50417.48
517.03	51449.66
517.20	54014.88
517.37	56481.81
517.54	57504.62
517.72	56631.60
517.89	53808.92
518.06	52102.67
518.24	52549.71
518.41	54710.02
518.58	55655.60
518.75	56126.05
518.93	56367.12
519.10	56076.90
519.27	56680.75
519.45	57013.11
519.62	57712.93
519.79	57745.70
519.96	57659.10
520.14	57127.80
520.31	56259.46
520.48	56552.02
520.65	56954.60
520.83	57741.02
521.00	57949.32
521.17	57771.44
521.34	57268.23
521.52	57652.08
521.69	58204.44
521.86	58686.59
522.03	58181.04
522.20	57130.14
522.38	56271.16
522.55	56116.68
522.72	56886.72
522.89	56968.64
523.07	57188.65
523.24	57427.38
523.41	58216.14
523.58	58513.39
523.75	58983.84
523.92	58829.37
524.10	58717.02
524.27	58906.60
524.44	58588.29
524.61	58557.86
524.78	58049.97
524.96	58131.89
525.13	58253.59
525.30	58417.43
525.47	59035.33
525.64	58726.38
525.81	58073.37
525.98	56643.30
526.16	55147.70
526.33	54490.01
526.50	54169.36
526.67	53771.47
526.84	54515.76
527.01	55576.02
527.18	56327.33
527.36	57469.51
527.53	58113.16
527.70	58319.13
527.87	57593.56
528.04	57455.47
528.21	57982.09
528.38	58417.43
528.55	59166.40
528.72	59430.88
528.89	59402.80
529.07	59040.01
529.24	58326.15
529.41	57701.23
529.58	57352.49
529.75	57350.15
529.92	57741.02
530.09	58157.63
530.26	58897.24
530.43	58925.33
530.60	59040.01
530.77	59267.05
530.94	59451.95
531.11	58820.00
531.28	58553.18
531.46	58452.54
531.63	58536.80
531.80	58326.15
531.97	58101.46
532.14	57254.18
532.31	56336.69
532.48	55660.28
532.65	55992.64
532.82	56765.01
532.99	57677.82
533.16	58103.80
533.33	58663.19
533.50	58368.28
533.67	57499.94
533.84	57275.25
534.01	57652.08
534.18	57745.70
534.35	57949.32
534.52	57584.20
534.69	58038.26
534.86	58274.66
535.03	58595.31
535.20	58899.58
535.37	59444.93
535.54	59629.83
535.71	58932.35
535.88	58681.91
536.05	58071.03
536.22	57726.97
536.38	57403.98
536.55	56762.67
536.72	56535.64
536.89	56633.94
537.06	57382.91
537.23	58138.91
537.40	58260.62
537.57	58178.70
537.74	58056.99
537.91	58010.18
538.08	58066.35
538.25	58000.82
538.42	58049.97
538.59	58141.25
538.75	57305.68
538.92	57064.60
539.09	57027.15
539.26	56882.04
539.43	56844.59
539.60	56685.43
539.77	56889.06
539.94	56816.50
540.11	55945.83
540.28	55789.01
540.44	55964.55
540.61	56126.05
540.78	56397.55
540.95	56715.86
541.12	57095.03
541.29	57387.60
541.46	57652.08
541.62	57574.84
541.79	57174.61
541.96	56671.39
542.13	56811.82
542.30	57148.86
542.47	57193.33
542.63	57001.41
542.80	56877.36
542.97	56933.53
543.14	56741.61
543.31	56942.89
543.48	57265.89
543.64	58267.64
543.81	58480.63
543.98	58232.53
544.15	57441.43
544.32	56968.64
544.48	57315.04
544.65	57628.67
544.82	57977.41
544.99	57380.57
545.16	57256.53
545.32	56893.74
545.49	57883.79
545.66	58326.15
545.83	57532.71
546.00	57308.02
546.16	57172.27
546.33	57160.56
546.50	57167.58
546.67	57485.90
546.83	56912.47
547.00	57092.69
547.17	56329.67
547.34	55777.31
547.50	56048.81
547.67	56350.74
547.84	56392.87
548.00	56868.00
548.17	57193.33
548.34	57319.72
548.51	57027.15
548.67	57162.90
548.84	57247.16
549.01	57289.29
549.18	57099.71
549.34	57109.07
549.51	56947.57
549.68	57031.83
549.84	56528.62
550.01	56477.13
550.18	56502.87
550.34	56662.03
550.51	56589.47
550.68	56666.71
550.84	56205.62
551.01	56423.29
551.18	56542.66
551.34	56570.75
551.51	56999.07
551.68	57190.99
551.84	56996.73
552.01	56853.95
552.18	56863.32
552.34	56163.50
552.51	55716.45
552.68	55686.03
552.84	56161.15
553.01	56453.72
553.18	56004.34
553.34	56563.73
553.51	56779.06
553.67	56853.95
553.84	56949.92
554.01	56718.20
554.17	56643.30
554.34	56743.95
554.51	57092.69
554.67	57038.86
554.84	57048.22
555.00	56418.61
555.17	56224.35
555.33	56449.04
555.50	56336.69
555.67	56385.85
555.83	56102.64
556.00	55922.42
556.16	55877.95
556.33	55538.57
556.50	55407.50
556.66	55662.62
556.83	55171.11
556.99	55224.94
557.16	55587.72
557.32	55613.47
557.49	56048.81
557.65	55798.37
557.82	55707.09
557.98	55379.42
558.15	55030.68
558.32	54181.06
558.48	53551.46
558.65	53567.84
558.81	54199.79
558.98	54410.43
559.14	54494.69
559.31	54817.69
559.47	54431.50
559.64	54253.62
559.80	53832.32
559.97	54134.25
560.13	54876.20
560.30	55536.23
560.46	55786.67
560.63	56275.84
560.79	56104.98
560.96	55796.03
561.12	54541.50
561.29	53727.00
561.45	53806.58
561.61	54600.02
561.78	54939.39
561.94	54855.14
562.11	54693.64
562.27	54209.15
562.44	54686.62
562.60	55117.28
562.77	55388.78
562.93	55196.85
563.10	55199.19
563.26	54534.48
563.42	54588.31
563.59	54372.99
563.75	54614.06
563.92	54277.02
564.08	54475.97
564.24	54820.03
564.41	54738.11
564.57	54576.61
564.74	54398.73
564.90	54424.48
565.07	54342.56
565.23	53844.02
565.39	53057.60
565.56	53104.41
565.72	53036.54
565.88	53338.47
566.05	53179.31
566.21	53766.79
566.38	53886.15
566.54	53780.83
566.70	54099.14
566.87	54714.70
567.03	54417.46
567.19	54539.16
567.36	54267.66
567.52	53979.78
567.68	53649.76
567.85	53380.60
568.01	53017.82
568.17	52367.15
568.34	52554.39
568.50	52289.91
568.66	52612.90
568.83	52973.34
568.99	52835.25
569.15	53319.74
569.32	53045.90
569.48	53099.73
569.64	52729.93
569.81	52591.84
569.97	52598.86
570.13	52226.71
570.30	51789.03
570.46	51421.57
570.62	51086.87
570.78	50478.33
570.95	50578.98
571.11	51669.67
571.27	52205.65
571.43	52486.51
571.60	52896.11
571.76	53212.08
571.92	53291.66
572.09	53153.57
572.25	53085.69
572.41	53244.85
572.57	53118.46
572.74	52610.56
572.90	52538.01
573.06	52573.11
573.22	52327.36
573.38	52442.04
573.55	52673.76
573.71	52619.92
573.87	52727.59
574.03	51999.68
574.20	51962.23
574.36	52128.41
574.52	51751.59
574.68	51831.16
574.84	50941.76
575.01	50527.48
575.17	51019.00
575.33	51079.85
575.49	51501.15
575.65	51615.83
575.82	51147.73
575.98	51386.46
576.14	51587.75
576.30	51620.52
576.46	51807.76
576.62	51629.88
576.79	51639.24
576.95	51260.07
577.11	51227.31
577.27	51246.03
577.43	51552.64
577.59	50887.93
577.75	50611.74
577.92	49989.16
578.08	49631.06
578.24	49322.11
578.40	50227.90
578.56	50188.11
578.72	50251.30
578.88	50649.19
579.04	51070.49
579.21	50674.94
579.37	50829.41
579.53	50897.29
579.69	50941.76
579.85	51056.45
580.01	50815.37
580.17	50394.07
580.33	50541.53
580.49	50679.62
580.65	50782.60
580.82	51107.94
580.98	50955.80
581.14	50410.46
581.30	51147.73
581.46	50878.57
581.62	51356.03
581.78	51084.53
581.94	51208.58
582.10	51386.46
582.26	51150.07
582.42	51037.72
582.58	51168.79
582.74	51292.84
582.90	51220.28
583.06	51021.34
583.22	50934.74
583.38	50770.90
583.54	50635.15
583.70	50649.19
583.86	50691.32
584.02	50391.73
584.18	50822.39
584.34	50396.42
584.50	50763.88
584.66	50515.78
584.82	49712.98
584.98	49794.90
585.14	49640.42
585.30	48367.17
