SpectraSuite Data File
++++++++++++++++++++++++++++++++++++
Date: Mon Oct 07 14:53:26 GMT-05:00 2013
User: price-jones
Dark Spectrum Present: No
Reference Spectrum Present: No
Number of Sampled Component Spectra: 1
Spectrometers: USB2+H05261
Integration Time (usec): 100000 (USB2+H05261)
Spectra Averaged: 1 (USB2+H05261)
Boxcar Smoothing: 0 (USB2+H05261)
Correct for Electrical Dark: No (USB2+H05261)
Strobe/Lamp Enabled: No (USB2+H05261)
Correct for Detector Non-linearity: No (USB2+H05261)
Correct for Stray Light: No (USB2+H05261)
Number of Pixels in Processed Spectrum: 2048
>>>>>Begin Processed Spectral Data<<<<<
365.73	0.00
365.92	0.00
366.12	0.00
366.32	0.00
366.52	0.00
366.72	0.00
366.91	0.00
367.11	0.00
367.31	0.00
367.51	0.00
367.70	0.00
367.90	0.00
368.10	0.00
368.30	0.00
368.49	0.00
368.69	0.00
368.89	0.00
369.09	0.00
369.28	0.00
369.48	0.00
369.68	0.00
369.87	0.00
370.07	0.00
370.27	0.00
370.47	444.70
370.66	2588.63
370.86	2949.08
371.06	3300.16
371.25	3234.62
371.45	2979.50
371.65	2778.22
371.84	2464.58
372.04	2579.27
372.24	2920.99
372.44	3136.32
372.63	3054.40
372.83	2944.39
373.03	2647.15
373.22	2345.22
373.42	2551.18
373.62	2857.79
373.81	3143.34
374.01	3026.31
374.21	2715.02
374.40	2492.67
374.60	2609.70
374.79	3080.14
374.99	3445.27
375.19	3829.12
375.38	3808.05
375.58	3574.00
375.78	3634.85
375.97	3449.95
376.17	3606.77
376.37	3630.17
376.56	3829.12
376.76	3932.10
376.95	4287.86
377.15	4545.32
377.35	4748.95
377.54	4926.83
377.74	4980.66
377.93	5039.17
378.13	4772.35
378.33	4636.60
378.52	4409.57
378.72	4093.60
378.91	4219.99
379.11	3838.48
379.31	3950.82
379.50	3765.92
379.70	4161.47
379.89	4608.51
380.09	4865.97
380.28	5057.90
380.48	4870.65
380.68	4896.40
380.87	4662.35
381.07	4304.25
381.26	4152.11
381.46	3976.57
381.65	3609.11
381.85	3510.80
382.04	3316.54
382.24	3325.90
382.43	2979.50
382.63	3019.29
382.83	3007.59
383.02	2988.86
383.22	2942.05
383.41	3030.99
383.61	3084.83
383.80	3688.68
384.00	4166.15
384.19	4585.11
384.39	4980.66
384.58	5029.81
384.78	4851.93
384.97	4631.92
385.17	4479.79
385.36	4325.31
385.56	4224.67
385.75	4236.37
385.95	4788.74
386.14	5032.15
386.34	5025.13
386.53	4954.91
386.72	4496.17
386.92	4692.77
387.11	4744.27
387.31	5036.83
387.50	5083.64
387.70	4746.61
387.89	4753.63
388.09	4882.36
388.28	4894.06
388.48	4983.00
388.67	5390.25
388.86	5694.52
389.06	6132.20
389.25	6560.52
389.45	6485.62
389.64	6539.46
389.84	6436.47
390.03	6462.22
390.22	6399.02
390.42	6345.19
390.61	6906.92
390.81	7445.24
391.00	7520.14
391.19	7550.57
391.39	7246.30
391.58	6785.21
391.78	6668.19
391.97	6429.45
392.16	5720.27
392.36	5416.00
392.55	4386.16
392.75	3309.52
392.94	2740.77
393.13	2729.06
393.33	3246.32
393.52	4175.52
393.71	5158.54
393.91	5874.74
394.10	6225.82
394.29	6871.81
394.49	7356.30
394.68	7925.05
394.88	8021.02
395.07	8109.96
395.26	8138.04
395.46	8063.15
395.65	7573.97
395.84	6729.04
396.04	5483.88
396.23	4648.30
396.42	3857.20
396.62	3559.95
396.81	4238.71
397.00	5495.58
397.19	6684.57
397.39	7978.89
397.58	9060.21
397.77	9624.28
397.97	10150.90
398.16	10019.83
398.35	10380.28
398.55	10813.28
398.74	11075.42
398.93	11360.96
399.12	11115.20
399.32	10836.68
399.51	10967.75
399.70	11714.38
399.90	11768.21
400.09	11716.72
400.28	11496.71
400.47	11569.27
400.67	12308.88
400.86	12479.74
401.05	12561.66
401.24	12659.96
401.44	12699.75
401.63	12746.56
401.82	12933.80
402.01	13088.28
402.21	13064.87
402.40	13039.12
402.59	12683.36
402.78	12236.32
402.97	11864.18
403.17	12224.62
403.36	13095.30
403.55	13642.98
403.74	13855.97
403.93	13355.10
404.13	12072.48
404.32	11768.21
404.51	12624.85
404.70	13680.43
404.89	13453.40
405.09	13331.69
405.28	12706.77
405.47	13013.38
405.66	12725.49
405.85	12531.23
406.05	12222.28
406.24	12376.75
406.43	12908.05
406.62	13385.52
406.81	13518.93
407.00	12718.47
407.20	12325.26
407.39	12727.83
407.58	13364.46
407.77	14019.81
407.96	14267.91
408.15	14567.49
408.34	14572.18
408.54	15047.30
408.73	15501.37
408.92	14771.12
409.11	14532.39
409.30	13657.03
409.49	13132.75
409.68	12065.46
409.87	11812.68
410.07	12458.67
410.26	13357.44
410.45	14270.25
410.64	14719.63
410.83	14970.07
411.02	15463.92
411.21	16056.08
411.40	15971.82
411.59	15892.24
411.78	15822.02
411.98	15602.01
412.17	15997.56
412.36	15686.27
412.55	15747.12
412.74	15248.59
412.93	15059.01
413.12	15300.08
413.31	16774.62
413.50	17001.65
413.69	16807.39
413.88	16093.52
414.07	16042.03
414.26	16077.14
414.45	16673.98
414.64	16704.40
414.83	16835.47
415.02	16505.46
415.22	16496.10
415.41	16741.85
415.60	17095.27
415.79	18036.17
415.98	18218.73
416.17	18314.69
416.36	18071.28
416.55	17759.98
416.74	17249.75
416.93	16636.53
417.12	16519.50
417.31	17146.76
417.50	17088.25
417.69	17734.24
417.88	17806.80
418.07	17446.35
418.26	17334.01
418.45	17448.69
418.64	17799.77
418.83	18324.05
419.02	18462.15
419.21	18349.80
419.39	17460.40
419.58	16634.19
419.77	16610.78
419.96	17462.74
420.15	18455.12
420.34	18902.17
420.53	19321.12
420.72	19934.34
420.91	19648.80
421.10	19482.62
421.29	19201.76
421.48	18658.75
421.67	19627.73
421.86	18827.27
422.05	17586.79
422.24	16051.39
422.43	15800.96
422.61	17373.80
422.80	19047.28
422.99	18696.20
423.18	18118.09
423.37	17853.61
423.56	17734.24
423.75	18555.77
423.94	18586.19
424.13	17488.48
424.32	17497.84
424.50	17797.43
424.69	17685.09
424.88	17345.71
425.07	17446.35
425.26	17523.59
425.45	17392.52
425.64	17081.23
425.83	17109.32
426.01	18113.41
426.20	18628.32
426.39	18408.31
426.58	16996.97
426.77	15985.86
426.96	15087.09
427.15	15817.34
427.33	16994.63
427.52	17898.08
427.71	17832.54
427.90	17455.72
428.09	17233.36
428.28	17039.10
428.46	16788.66
428.65	16269.06
428.84	16554.61
429.03	17083.57
429.22	15981.18
429.40	15246.25
429.59	13982.36
429.78	12088.87
429.97	12552.29
430.16	12453.99
430.34	12255.04
430.53	12304.20
430.72	12681.02
430.91	14038.53
431.10	16439.92
431.28	19484.96
431.47	21029.71
431.66	21373.77
431.85	19599.65
432.03	18008.08
432.22	17352.73
432.41	17752.96
432.60	19730.72
432.79	20596.71
432.97	21099.93
433.16	20613.10
433.35	18771.10
433.54	16798.02
433.72	15824.36
433.91	16229.27
434.10	17923.82
434.28	19665.18
434.47	20631.82
434.66	20379.04
434.85	19709.65
435.03	19665.18
435.22	20250.32
435.41	21158.44
435.59	21497.82
435.78	21757.62
435.97	22127.42
436.16	22256.15
436.34	21860.60
436.53	21696.77
436.72	21582.08
436.90	20870.56
437.09	20318.19
437.28	19861.79
437.46	20680.97
437.65	20898.64
437.84	19159.63
438.02	17635.94
438.21	17816.16
438.40	18658.75
438.58	20402.45
438.77	20737.15
438.96	20798.00
439.14	21804.43
439.33	22249.13
439.52	22703.20
439.70	22333.39
439.89	21399.52
440.08	21085.89
440.26	20854.17
440.45	21774.00
440.63	23122.15
440.82	24126.24
441.01	24130.92
441.19	23859.42
441.38	24163.69
441.57	25462.69
441.75	25146.72
441.94	25544.61
442.12	25104.59
442.31	25729.51
442.50	25530.56
442.68	25465.03
442.87	25146.72
443.05	24645.84
443.24	25069.48
443.43	25343.32
443.61	26127.40
443.80	26649.34
443.98	24816.70
444.17	24669.25
444.35	26295.92
444.54	26773.39
444.73	26321.66
444.91	25434.60
445.10	24224.54
445.28	23463.87
445.47	23145.56
445.65	23117.47
445.84	23742.39
446.02	24835.42
446.21	25022.67
446.39	25025.01
446.58	25294.17
446.77	25659.29
446.95	25715.47
447.14	26960.63
447.32	27131.49
447.51	26642.32
447.69	25523.54
447.88	25202.89
448.06	25490.77
448.25	26501.89
448.43	26387.20
448.62	25947.18
448.80	25771.64
448.99	26143.78
449.17	26143.78
449.36	26164.85
449.54	27131.49
449.73	27608.96
449.91	27929.61
450.10	28723.05
450.28	28954.77
450.46	28987.53
450.65	28800.29
450.83	28540.49
451.02	27672.15
451.20	27749.39
451.39	27845.35
451.57	27779.82
451.76	27707.26
451.94	27615.98
452.13	27257.88
452.31	26022.08
452.49	24655.20
452.68	25156.08
452.86	24863.51
453.05	25317.57
453.23	26038.46
453.42	26654.02
453.60	27491.93
453.78	27405.33
453.97	27744.71
454.15	27428.74
454.34	26883.39
454.52	26757.00
454.70	26398.90
454.89	26600.19
455.07	27115.11
455.26	27248.52
455.44	27934.29
455.62	28584.96
455.81	28430.49
455.99	28643.48
456.17	28013.87
456.36	28481.98
456.54	29371.38
456.73	29163.08
456.91	29453.30
457.09	29546.92
457.28	30176.53
457.46	29020.30
457.64	28615.39
457.83	28074.73
458.01	27510.66
458.19	28060.68
458.38	28142.60
458.56	29027.32
458.74	29205.20
458.93	28856.46
459.11	28685.61
459.29	28311.12
459.48	28498.36
459.66	28517.09
459.84	28404.74
460.03	29247.33
460.21	29219.25
460.39	29750.55
460.57	29722.46
460.76	30080.56
460.94	30038.44
461.12	29422.87
461.31	30005.67
461.49	29434.58
461.67	29619.48
461.85	30649.32
462.04	30511.22
462.22	31208.70
462.40	30742.94
462.59	30429.30
462.77	30448.03
462.95	30569.74
463.13	30335.68
463.32	29855.87
463.50	29483.73
463.68	30197.59
463.86	29741.19
464.05	29425.22
464.23	28545.17
464.41	28638.80
464.59	28226.86
464.78	29343.30
464.96	29420.53
465.14	28723.05
465.32	29514.16
465.50	30237.38
465.69	31278.92
465.87	30288.87
466.05	29563.31
466.23	28142.60
466.41	27300.01
466.60	28456.23
466.78	28210.48
466.96	28599.01
467.14	29291.80
467.32	29921.41
467.51	29905.02
467.69	28217.50
467.87	29041.37
468.05	29399.47
468.23	29420.53
468.41	29350.32
468.60	29324.57
468.78	29748.21
468.96	29186.48
469.14	30043.12
469.32	30335.68
469.50	28793.27
469.69	29184.14
469.87	28837.74
470.05	28428.15
470.23	28620.07
470.41	28800.29
470.59	29113.92
470.77	29362.02
470.95	29907.37
471.14	30202.27
471.32	30251.42
471.50	31433.39
471.68	32142.58
471.86	32203.43
472.04	32456.21
472.22	32608.34
472.40	31026.14
472.58	30590.80
472.77	30071.20
472.95	31110.40
473.13	31674.47
473.31	30675.06
473.49	30988.69
473.67	31543.40
473.85	31983.42
474.03	32863.46
474.21	32350.88
474.39	33001.55
474.57	33057.73
474.75	33310.50
474.93	32741.75
475.12	32189.39
475.30	32208.11
475.48	32591.96
475.66	32760.48
475.84	32446.85
476.02	32133.21
476.20	31599.57
476.38	32219.81
476.56	33404.13
476.74	33518.81
476.92	34103.95
477.10	34726.53
477.28	35393.58
477.46	35519.97
477.64	35981.06
477.82	36287.67
478.00	35934.24
478.18	35082.29
478.36	35147.82
478.54	35014.41
478.72	35693.17
478.90	36292.35
479.08	37549.21
479.26	37663.90
479.44	37439.21
479.62	37357.29
479.80	37266.01
479.98	37820.72
480.16	37970.51
480.34	37535.17
480.52	38122.65
480.70	38160.09
480.88	38412.87
481.06	39215.68
481.24	39686.12
481.41	40224.45
481.59	40339.13
481.77	40690.21
481.95	39981.03
482.13	39372.49
482.31	39908.47
482.49	40582.55
482.67	40629.36
482.85	40596.59
483.03	41357.27
483.21	41425.14
483.39	41268.33
483.57	40526.38
483.74	40395.31
483.92	40439.78
484.10	40952.35
484.28	42036.02
484.46	42319.23
484.64	43154.80
484.82	41467.27
485.00	41280.03
485.18	40610.64
485.35	39419.30
485.53	36645.77
485.71	33338.59
485.89	32788.56
486.07	34389.49
486.25	36760.45
486.43	39955.29
486.61	40493.61
486.78	39805.49
486.96	40112.10
487.14	42209.22
487.32	42965.21
487.50	44383.58
487.68	44903.18
487.85	45720.02
488.03	45532.78
488.21	45186.38
488.39	44404.64
488.57	43496.52
488.75	43154.80
488.92	44254.85
489.10	46937.10
489.28	48327.38
489.46	49301.04
489.64	49162.95
489.81	49326.79
489.99	49064.65
490.17	48748.68
490.35	49137.21
490.53	48488.88
490.70	48079.28
490.88	48306.32
491.06	49523.40
491.24	49464.88
491.41	48315.68
491.59	46080.47
491.77	44868.07
491.95	46447.93
492.13	47545.64
492.30	49361.90
492.48	50417.48
492.66	50892.61
492.84	51079.85
493.01	50525.14
493.19	49787.88
493.37	49558.50
493.54	49301.04
493.72	50028.95
493.90	51264.75
494.08	52147.14
494.25	52392.89
494.43	52488.85
494.61	53202.72
494.79	53258.89
494.96	52816.53
495.14	52294.59
495.32	51241.35
495.49	50586.00
495.67	51749.24
495.85	53141.86
496.02	53869.77
496.20	53666.14
496.38	52926.53
496.55	52802.49
496.73	53455.50
496.91	53373.58
497.09	54066.38
497.26	54307.45
497.44	53752.74
497.62	53219.10
497.79	52205.65
497.97	50834.10
498.14	51297.52
498.32	52554.39
498.50	53485.92
498.67	54211.49
498.85	53771.47
499.03	54124.89
499.20	54031.27
499.38	54387.03
499.56	53748.06
499.73	53446.13
499.91	53294.00
500.08	52727.59
500.26	51889.68
500.44	52243.10
500.61	53352.51
500.79	52755.68
500.97	52374.17
501.14	52458.43
501.32	51938.83
501.49	52215.01
501.67	52584.82
501.84	52914.83
502.02	53205.06
502.20	53694.23
502.37	53897.86
502.55	53860.41
502.72	54990.89
502.90	55161.75
503.07	54827.05
503.25	54136.59
503.43	53045.90
503.60	52624.60
503.78	51580.73
503.95	51899.04
504.13	53888.49
504.30	54686.62
504.48	54649.17
504.65	54234.89
504.83	54218.51
505.01	54850.45
505.18	55400.48
505.36	55880.29
505.53	55742.20
505.71	56025.40
505.88	56287.54
506.06	55543.25
506.23	55262.39
506.41	54679.60
506.58	55009.61
506.76	54852.80
506.93	54915.99
507.11	54915.99
507.28	55025.99
507.46	54508.74
507.63	53619.33
507.81	53497.62
507.98	53979.78
508.16	54408.09
508.33	55210.90
508.50	55449.63
508.68	55774.97
508.85	56528.62
509.03	56404.57
509.20	56229.03
509.38	55444.95
509.55	54485.33
509.73	54852.80
509.90	55210.90
510.08	55505.80
510.25	55566.66
510.42	55138.34
510.60	55285.79
510.77	55402.82
510.95	55899.01
511.12	56168.18
511.30	56545.00
511.47	56718.20
511.64	56589.47
511.82	56257.12
511.99	55695.39
512.17	55253.03
512.34	54644.49
512.51	54712.36
512.69	55033.02
512.86	55187.49
513.04	55494.10
513.21	55608.79
513.38	55187.49
513.56	54485.33
513.73	54162.34
513.90	54323.83
514.08	54541.50
514.25	54787.26
514.43	54976.84
514.60	55040.04
514.77	55063.44
514.95	55234.30
515.12	55065.78
515.29	55374.73
515.47	55941.14
515.64	56310.95
515.81	55693.05
515.99	55077.49
516.16	53595.93
516.33	51021.34
516.51	49242.53
516.68	48519.31
516.85	47887.36
517.03	48325.04
517.20	51597.11
517.37	54410.43
517.54	55112.59
517.72	54813.01
517.89	52100.32
518.06	49408.71
518.24	49539.78
518.41	52189.27
518.58	53769.13
518.75	53666.14
518.93	54124.89
519.10	54021.90
519.27	54419.80
519.45	54841.09
519.62	55533.89
519.79	55861.57
519.96	55501.12
520.14	55248.35
520.31	54209.15
520.48	54405.75
520.65	54705.34
520.83	55777.31
521.00	55901.36
521.17	55899.01
521.34	55419.20
521.52	55648.58
521.69	56418.61
521.86	56603.52
522.03	56154.13
522.20	54906.63
522.38	54042.97
522.55	54138.93
522.72	54574.27
522.89	54864.50
523.07	54962.80
523.24	55501.12
523.41	56332.01
523.58	56460.74
523.75	56980.34
523.92	56715.86
524.10	56577.77
524.27	56921.83
524.44	56467.76
524.61	56547.34
524.78	56196.26
524.96	55821.78
525.13	56123.71
525.30	56278.18
525.47	56966.30
525.64	56739.27
525.81	56006.68
525.98	54600.02
526.16	52748.65
526.33	52055.85
526.50	51688.39
526.67	51344.33
526.84	51805.42
527.01	53258.89
527.18	53890.83
527.36	54864.50
527.53	56030.08
527.70	56250.09
527.87	55707.09
528.04	55210.90
528.21	55807.73
528.38	56406.91
528.55	56699.48
528.72	57448.45
528.89	57277.59
529.07	57059.92
529.24	56739.27
529.41	55821.78
529.58	55147.70
529.75	55283.45
529.92	55868.59
530.09	56093.28
530.26	56736.93
530.43	56992.04
530.60	57095.03
530.77	57153.54
530.94	57368.87
531.11	57017.79
531.28	56430.32
531.46	56186.90
531.63	56350.74
531.80	56126.05
531.97	55899.01
532.14	54997.91
532.31	53813.60
532.48	53315.06
532.65	53366.55
532.82	54354.26
532.99	55297.50
533.16	55812.41
533.33	56406.91
533.50	56102.64
533.67	55477.72
533.84	55096.21
534.01	55224.94
534.18	55430.91
534.35	55700.07
534.52	55526.87
534.69	55676.66
534.86	56353.08
535.03	56493.51
535.20	56680.75
535.37	57291.63
535.54	57298.65
535.71	56926.51
535.88	56594.15
536.05	55948.17
536.22	55423.89
536.38	55159.41
536.55	54827.05
536.72	54164.68
536.89	53872.11
537.06	55316.22
537.23	56104.98
537.40	56193.92
537.57	56037.11
537.74	55920.08
537.91	56170.52
538.08	55763.26
538.25	55725.81
538.42	56011.36
538.59	55899.01
538.75	55011.95
538.92	55105.57
539.09	54752.15
539.26	54611.72
539.43	54309.79
539.60	54452.56
539.77	54623.42
539.94	54593.00
540.11	53755.08
540.28	53020.16
540.44	53432.09
540.61	53336.13
540.78	53572.52
540.95	54401.07
541.12	54831.73
541.29	54752.15
541.46	55206.22
541.62	55304.52
541.79	55159.41
541.96	54368.30
542.13	54433.84
542.30	54972.16
542.47	54995.57
542.63	54649.17
542.80	54583.63
542.97	54585.97
543.14	54529.80
543.31	54543.84
543.48	54965.14
543.64	56051.15
543.81	56196.26
543.98	56095.62
544.15	55295.16
544.32	54553.21
544.48	54457.24
544.65	55164.09
544.82	55653.26
544.99	55058.76
545.16	54791.94
545.32	54747.47
545.49	55538.57
545.66	55781.99
545.83	55526.87
546.00	54997.91
546.16	54869.18
546.33	54815.35
546.50	54798.96
546.67	55274.09
546.83	54831.73
547.00	54904.29
547.17	54202.13
547.34	53425.07
547.50	53172.29
547.67	54007.86
547.84	54073.40
548.00	54712.36
548.17	54838.75
548.34	54656.19
548.51	54742.79
548.67	54508.74
548.84	54710.02
549.01	54871.52
549.18	54555.55
549.34	54836.41
549.51	54930.03
549.68	54585.97
549.84	54410.43
550.01	54314.47
550.18	53911.90
550.34	54049.99
550.51	54321.49
550.68	54424.48
550.84	53918.92
551.01	53790.19
551.18	54085.10
551.34	53811.26
551.51	54342.56
551.68	54845.77
551.84	54665.55
552.01	54382.35
552.18	54616.40
552.34	53298.68
552.51	53202.72
552.68	52772.06
552.84	53619.33
553.01	53787.85
553.18	53984.46
553.34	53923.60
553.51	54131.91
553.67	54389.37
553.84	54770.88
554.01	54176.38
554.17	53947.01
554.34	54150.63
554.51	54281.70
554.67	54873.86
554.84	54602.36
555.00	54031.27
555.17	53965.73
555.33	53984.46
555.50	53614.65
555.67	53736.36
555.83	53820.62
556.00	53492.94
556.16	53698.91
556.33	53001.43
556.50	52650.35
556.66	52900.79
556.83	52310.97
556.99	52559.07
557.16	52697.16
557.32	53193.36
557.49	53450.81
557.65	52921.85
557.82	52933.56
557.98	52987.39
558.15	52584.82
558.32	51384.12
558.48	50578.98
558.65	50934.74
558.81	51229.65
558.98	51772.65
559.14	51983.30
559.31	51877.97
559.47	51966.91
559.64	51737.54
559.80	50972.19
559.97	50995.59
560.13	51910.74
560.30	52697.16
560.46	53371.24
560.63	53684.87
560.79	53727.00
560.96	53092.71
561.12	51892.02
561.29	50848.14
561.45	51016.66
561.61	51636.90
561.78	51913.08
561.94	52278.21
562.11	51948.19
562.27	51700.09
562.44	52175.22
562.60	52554.39
562.77	52416.30
562.93	52388.21
563.10	52523.96
563.26	51784.35
563.42	52009.04
563.59	51564.34
563.75	51508.17
563.92	51697.75
564.08	51690.73
564.24	51964.57
564.41	52032.45
564.57	51611.15
564.74	51695.41
564.90	51676.69
565.07	51241.35
565.23	50901.97
565.39	50361.31
565.56	50110.87
565.72	49907.24
565.88	49928.31
566.05	50220.87
566.21	50710.05
566.38	50871.54
566.54	50979.21
566.70	51522.21
566.87	51672.01
567.03	51604.13
567.19	51840.53
567.36	51611.15
567.52	51442.63
567.68	50836.44
567.85	50267.69
568.01	49923.63
568.17	49385.30
568.34	49485.95
568.50	49357.22
568.66	49495.31
568.83	50057.04
568.99	50096.83
569.15	50419.82
569.32	50300.45
569.48	49937.67
569.64	49626.38
569.81	49621.70
569.97	49254.23
570.13	49298.70
570.30	48353.13
570.46	47962.26
570.62	47194.56
570.78	47178.18
570.95	47515.22
571.11	48594.20
571.27	48538.03
571.43	49200.40
571.60	49502.33
571.76	49303.38
571.92	50167.04
572.09	50019.59
572.25	50145.98
572.41	49928.31
572.57	49979.80
572.74	49787.88
572.90	49186.36
573.06	49394.67
573.22	49710.64
573.38	49212.10
573.55	49724.68
573.71	49790.22
573.87	49425.09
574.03	49130.19
574.20	49378.28
574.36	48746.34
574.52	48348.45
574.68	48137.80
574.84	47924.81
575.01	47466.06
575.17	47110.30
575.33	47660.33
575.49	47665.01
575.65	48273.55
575.82	47952.90
575.98	47393.51
576.14	48140.14
576.30	48367.17
576.46	48371.85
576.62	48095.67
576.79	48465.47
576.95	47859.27
577.11	47407.55
577.27	47821.83
577.43	47980.98
577.59	47435.64
577.75	47150.09
577.92	46405.80
578.08	46227.92
578.24	45752.79
578.40	46541.55
578.56	46974.55
578.72	46698.37
578.88	47512.88
579.04	47562.03
579.21	47377.12
579.37	47063.49
579.53	47585.43
579.69	47360.74
579.85	47587.77
580.01	47508.19
580.17	46717.09
580.33	46635.17
580.49	47192.22
580.65	47063.49
580.82	47533.94
580.98	47590.11
581.14	47182.86
581.30	47662.67
581.46	46925.40
581.62	47323.29
581.78	47370.10
581.94	47821.83
582.10	47487.13
582.26	47683.73
582.42	47557.35
582.58	47667.35
582.74	47091.58
582.90	47634.58
583.06	48105.03
583.22	47374.78
583.38	47405.21
583.54	46934.76
583.70	47285.84
583.86	47159.45
584.02	46866.89
584.18	46983.91
584.34	47353.72
584.50	46997.96
584.66	46710.07
584.82	46258.35
584.98	46026.63
585.14	45778.54
585.30	44849.35
