SpectraSuite Data File
++++++++++++++++++++++++++++++++++++
Date: Mon Oct 07 14:53:29 GMT-05:00 2013
User: price-jones
Dark Spectrum Present: No
Reference Spectrum Present: No
Number of Sampled Component Spectra: 1
Spectrometers: USB2+H05261
Integration Time (usec): 100000 (USB2+H05261)
Spectra Averaged: 1 (USB2+H05261)
Boxcar Smoothing: 0 (USB2+H05261)
Correct for Electrical Dark: No (USB2+H05261)
Strobe/Lamp Enabled: No (USB2+H05261)
Correct for Detector Non-linearity: No (USB2+H05261)
Correct for Stray Light: No (USB2+H05261)
Number of Pixels in Processed Spectrum: 2048
>>>>>Begin Processed Spectral Data<<<<<
365.73	0.00
365.92	0.00
366.12	0.00
366.32	0.00
366.52	0.00
366.72	0.00
366.91	0.00
367.11	0.00
367.31	0.00
367.51	0.00
367.70	0.00
367.90	0.00
368.10	0.00
368.30	0.00
368.49	0.00
368.69	0.00
368.89	0.00
369.09	0.00
369.28	0.00
369.48	0.00
369.68	0.00
369.87	0.00
370.07	0.00
370.27	0.00
370.47	631.94
370.66	3211.22
370.86	3721.45
371.06	4060.83
371.25	4180.20
371.45	3646.55
371.65	3335.26
371.84	3019.29
372.04	3438.25
372.24	3676.98
372.44	3906.35
372.63	3719.11
372.83	3538.89
373.03	3176.11
373.22	2839.07
373.42	2911.63
373.62	3431.23
373.81	3777.62
374.01	3803.37
374.21	3578.68
374.40	3143.34
374.60	3323.56
374.79	3653.58
374.99	4301.90
375.19	4727.88
375.38	4657.67
375.58	4334.67
375.78	4245.73
375.97	4318.29
376.17	4505.53
376.37	4571.07
376.56	4568.73
376.76	4943.21
376.95	5320.04
377.15	5673.46
377.35	5825.59
377.54	6179.01
377.74	6157.95
377.93	6258.59
378.13	6031.56
378.33	5757.72
378.52	5394.93
378.72	4933.85
378.91	5142.16
379.11	4992.36
379.31	4718.52
379.50	4770.01
379.70	5109.39
379.89	5664.10
380.09	5865.38
380.28	6155.61
380.48	6099.44
380.68	5905.17
380.87	5839.64
381.07	5345.78
381.26	5139.82
381.46	4734.90
381.65	4493.83
381.85	4505.53
382.04	4318.29
382.24	4016.36
382.43	3712.09
382.63	3660.60
382.83	3716.77
383.02	3658.26
383.22	3662.94
383.41	3667.62
383.61	3889.97
383.80	4540.64
384.00	5195.99
384.19	5734.31
384.39	6239.87
384.58	6069.01
384.78	5823.25
384.97	5970.71
385.17	5591.54
385.36	5226.42
385.56	4926.83
385.75	5289.61
385.95	5694.52
386.14	6382.64
386.34	6274.98
386.53	5923.90
386.72	5643.03
386.92	5722.61
387.11	5874.74
387.31	6368.60
387.50	6104.12
387.70	6040.92
387.89	5844.32
388.09	5975.39
388.28	5792.83
388.48	5834.96
388.67	6649.46
388.86	7283.75
389.06	7721.43
389.25	8292.52
389.45	8187.19
389.64	8259.75
389.84	8086.55
390.03	8067.83
390.22	7815.05
390.42	8187.19
390.61	8858.93
390.81	9254.48
391.00	9540.02
391.19	9184.26
391.39	9050.85
391.58	8463.38
391.78	7896.97
391.97	7751.85
392.16	7206.51
392.36	6675.21
392.55	5160.88
392.75	4308.93
392.94	3531.87
393.13	3342.28
393.33	3801.03
393.52	5090.67
393.71	6347.53
393.91	7239.28
394.10	7688.66
394.29	8519.55
394.49	9130.43
394.68	9886.42
394.88	9731.95
395.07	10298.36
395.26	10214.10
395.46	9806.84
395.65	9287.25
395.84	8135.70
396.04	6820.32
396.23	5448.77
396.42	4678.73
396.62	4393.19
396.81	5179.61
397.00	6502.01
397.19	8545.30
397.39	9909.83
397.58	11229.89
397.77	11948.43
397.97	12369.73
398.16	12547.61
398.35	12922.10
398.55	13294.24
398.74	13823.20
398.93	14031.51
399.12	13734.26
399.32	13418.29
399.51	13596.17
399.70	14773.46
399.90	14789.85
400.09	14462.17
400.28	14274.93
400.47	14600.26
400.67	14979.43
400.86	15510.73
401.05	15262.63
401.24	15946.07
401.44	15817.34
401.63	15934.37
401.82	15936.71
402.01	15962.45
402.21	16163.74
402.40	16367.37
402.59	15641.80
402.78	15227.53
402.97	14581.54
403.17	15550.52
403.36	16145.02
403.55	16727.81
403.74	17191.23
403.93	16100.55
404.13	14916.23
404.32	14658.78
404.51	15501.37
404.70	16379.07
404.89	16416.52
405.09	16217.57
405.28	15793.94
405.47	15382.00
405.66	15749.46
405.85	15314.13
406.05	15084.75
406.24	15007.52
406.43	15562.22
406.62	16360.34
406.81	16498.44
407.00	16044.37
407.20	15321.15
407.39	15667.55
407.58	16250.34
407.77	16980.59
407.96	17462.74
408.15	17607.85
408.34	17535.29
408.54	18459.81
408.73	18698.54
408.92	18377.89
409.11	17994.04
409.30	17083.57
409.49	16163.74
409.68	15281.36
409.87	14387.27
410.07	15548.18
410.26	16666.95
410.45	17741.26
410.64	18080.64
410.83	18555.77
411.02	19307.08
411.21	20147.33
411.40	19496.66
411.59	19845.40
411.78	19948.39
411.98	19311.76
412.17	19983.49
412.36	19288.35
412.55	19403.04
412.74	18813.23
412.93	18614.28
413.12	18609.60
413.31	20596.71
413.50	20769.91
413.69	20826.09
413.88	20423.51
414.07	19665.18
414.26	19716.67
414.45	20812.04
414.64	20776.94
414.83	20444.58
415.02	20435.22
415.22	20540.54
415.41	20868.22
415.60	21434.63
415.79	22389.56
415.98	22771.07
416.17	23056.62
416.36	21940.18
416.55	22127.42
416.74	21427.60
416.93	20690.34
417.12	20493.73
417.31	20959.50
417.50	20875.24
417.69	22012.74
417.88	21673.36
418.07	21671.02
418.26	21383.13
418.45	21333.98
418.64	21994.01
418.83	23115.13
419.02	22761.71
419.21	22906.82
419.39	21408.88
419.58	20577.99
419.77	20812.04
419.96	21497.82
420.15	22651.70
420.34	23480.25
420.53	24081.77
420.72	24521.79
420.91	24472.64
421.10	24018.58
421.29	23836.02
421.48	23145.56
421.67	24004.53
421.86	23697.92
422.05	21881.67
422.24	19740.08
422.43	19501.34
422.61	21486.12
422.80	23267.27
422.99	23194.71
423.18	22558.08
423.37	21968.27
423.56	22115.72
423.75	22494.89
423.94	22953.63
424.13	21673.36
424.32	22106.36
424.50	22314.67
424.69	21172.49
424.88	21575.06
425.07	21872.31
425.26	21635.91
425.45	21486.12
425.64	21008.65
425.83	21205.25
426.01	22171.89
426.20	23089.38
426.39	22745.33
426.58	21282.49
426.77	19391.34
426.96	18815.57
427.15	19192.39
427.33	20985.24
427.52	21640.59
427.71	22106.36
427.90	21785.71
428.09	21635.91
428.28	21032.05
428.46	20538.20
428.65	20009.24
428.84	20482.03
429.03	20863.54
429.22	19791.57
429.40	19014.51
429.59	16959.52
429.78	15379.66
429.97	15391.36
430.16	15279.02
430.34	15426.47
430.53	15538.82
430.72	15580.95
430.91	17315.28
431.10	20292.44
431.28	23845.38
431.47	26237.41
431.66	26382.52
431.85	24119.22
432.03	22125.08
432.22	20629.48
432.41	21759.96
432.60	24140.29
432.79	25326.94
432.97	25951.86
433.16	25348.00
433.35	23208.75
433.54	21109.29
433.72	19225.16
433.91	19850.08
434.10	22487.87
434.28	24240.93
434.47	24964.15
434.66	25233.32
434.85	24416.47
435.03	24084.11
435.22	24854.15
435.41	26265.49
435.59	25975.27
435.78	26492.52
435.97	27307.03
436.16	27658.11
436.34	26801.47
436.53	26331.03
436.72	26689.13
436.90	25186.50
437.09	24931.39
437.28	24732.44
437.46	25296.51
437.65	25476.73
437.84	23948.36
438.02	21586.76
438.21	21399.52
438.40	22710.22
438.58	24947.77
438.77	25408.86
438.96	25717.81
439.14	26998.08
439.33	27606.62
439.52	28151.96
439.70	27400.65
439.89	26780.41
440.08	25631.21
440.26	25708.44
440.45	26785.09
440.63	28245.58
440.82	29979.92
441.01	29682.67
441.19	28943.06
441.38	29977.58
441.57	30691.44
441.75	31344.45
441.94	31412.33
442.12	31049.55
442.31	31421.69
442.50	31674.47
442.68	31627.66
442.87	30628.25
443.05	30389.52
443.24	31365.52
443.43	31489.57
443.61	32144.92
443.80	32580.26
443.98	30735.92
444.17	30459.73
444.35	32514.72
444.54	33228.59
444.73	32620.05
444.91	31400.63
445.10	30033.75
445.28	29083.50
445.47	28489.00
445.65	28580.28
445.84	29752.89
446.02	30328.66
446.21	31028.48
446.39	30899.75
446.58	31489.57
446.77	31906.18
446.95	32191.73
447.14	32971.13
447.32	33546.90
447.51	32849.42
447.69	31805.54
447.88	31042.53
448.06	31828.95
448.25	32325.14
448.43	32493.66
448.62	31976.40
448.80	31868.73
448.99	31992.78
449.17	32233.86
449.36	32081.72
449.54	33596.05
449.73	33905.00
449.91	34256.08
450.10	35414.65
450.28	35962.33
450.46	35580.82
450.65	35812.54
450.83	35304.64
451.02	34218.63
451.20	34099.26
451.39	34445.66
451.57	34096.92
451.76	34384.81
451.94	34089.90
452.13	33399.44
452.31	32048.96
452.49	30843.58
452.68	30976.99
452.86	30644.63
453.05	31117.42
453.23	31842.99
453.42	33085.81
453.60	33483.70
453.78	34073.52
453.97	33502.43
454.15	33645.20
454.34	32718.35
454.52	33106.88
454.70	32606.00
454.89	32732.39
455.07	33085.81
455.26	33483.70
455.44	34855.26
455.62	35321.02
455.81	35182.93
455.99	35330.39
456.17	34483.11
456.36	34778.02
456.54	35962.33
456.73	35578.48
456.91	36126.17
457.09	36559.17
457.28	37333.89
457.46	35981.06
457.64	35519.97
457.83	34558.01
458.01	33586.69
458.19	34438.64
458.38	34806.11
458.56	36093.40
458.74	36130.85
458.93	34934.84
459.11	35079.95
459.29	35220.38
459.48	35009.73
459.66	34866.96
459.84	35356.13
460.03	35725.94
460.21	35854.67
460.39	36437.46
460.57	36594.28
460.76	36690.24
460.94	37280.05
461.12	36135.53
461.31	36320.43
461.49	36519.38
461.67	36383.63
461.85	37490.70
462.04	37680.28
462.22	37965.83
462.40	37621.77
462.59	37390.06
462.77	37521.13
462.95	37333.89
463.13	37462.61
463.32	37151.32
463.50	36453.84
463.68	35833.60
463.86	36458.52
464.05	35805.52
464.23	35304.64
464.41	35236.77
464.59	34600.14
464.78	36418.74
464.96	36170.64
465.14	35548.06
465.32	37001.53
465.50	37626.45
465.69	37954.13
465.87	36856.42
466.05	36261.92
466.23	34581.42
466.41	34167.14
466.60	34637.59
466.78	34810.79
466.96	35196.98
467.14	35950.63
467.32	36627.04
467.51	36837.69
467.69	34813.13
467.87	35543.38
468.05	36381.29
468.23	36334.48
468.41	36196.38
468.60	36294.69
468.78	36910.25
468.96	36215.11
469.14	37060.04
469.32	37017.91
469.50	35515.29
469.69	35775.09
469.87	35475.50
470.05	34838.87
470.23	35035.48
470.41	35510.61
470.59	35866.37
470.77	35683.81
470.95	36652.79
471.14	36898.55
471.32	37254.31
471.50	39330.36
471.68	39356.11
471.86	39611.23
472.04	39835.92
472.22	39765.70
472.40	38052.43
472.58	37827.74
472.77	37282.39
472.95	37902.64
473.13	38871.62
473.31	37827.74
473.49	38120.31
473.67	38855.23
473.85	39021.41
474.03	40252.53
474.21	40308.71
474.39	40325.09
474.57	40886.82
474.75	40914.90
474.93	40306.37
475.12	39821.87
475.30	39562.08
475.48	39641.65
475.66	40465.52
475.84	39882.73
476.02	39463.77
476.20	39056.52
476.38	39889.75
476.56	41099.81
476.74	41581.96
476.92	41514.08
477.10	42351.99
477.28	43407.58
477.46	43309.27
477.64	43536.30
477.82	43620.56
478.00	44194.00
478.18	43328.00
478.36	43239.06
478.54	43501.20
478.72	43398.21
478.90	44683.17
479.08	45443.84
479.26	45970.46
479.44	45492.99
479.62	45785.56
479.80	45413.41
479.98	45858.12
480.16	46258.35
480.34	45961.10
480.52	46057.06
480.70	46344.95
480.88	46588.36
481.06	47129.03
481.24	47672.03
481.41	47927.15
481.59	48952.30
481.77	48825.92
481.95	47952.90
482.13	47856.93
482.31	47688.42
482.49	48570.80
482.67	48533.35
482.85	48575.48
483.03	49202.74
483.21	49811.28
483.39	49869.79
483.57	49085.72
483.74	48690.16
483.92	49191.04
484.10	48971.03
484.28	49867.45
484.46	50181.09
484.64	50813.03
484.82	49815.96
485.00	49677.87
485.18	48807.19
485.35	47606.50
485.53	44130.80
485.71	40524.04
485.89	40076.99
486.07	42066.45
486.25	45478.95
486.43	47901.40
486.61	48491.22
486.78	48196.31
486.96	48971.03
487.14	50122.57
487.32	50930.06
487.50	51997.34
487.68	52741.63
487.85	53104.41
488.03	53066.97
488.21	52692.48
488.39	51868.61
488.57	51367.74
488.75	51171.13
488.92	52222.03
489.10	54045.31
489.28	55393.46
489.46	55800.71
489.64	55648.58
489.81	55842.84
489.99	55765.60
490.17	55444.95
490.35	56016.04
490.53	55512.83
490.70	55248.35
490.88	55295.16
491.06	55927.10
491.24	56051.15
491.41	54981.52
491.59	53886.15
491.77	52383.53
491.95	53771.47
492.13	54962.80
492.30	55873.27
492.48	56851.61
492.66	57350.15
492.84	57247.16
493.01	57041.20
493.19	56435.00
493.37	56172.86
493.54	55927.10
493.72	56498.19
493.90	57546.75
494.08	58127.20
494.25	58401.05
494.43	58560.20
494.61	58789.58
494.79	59117.25
494.96	58735.74
495.14	58284.02
495.32	57574.84
495.49	56825.87
495.67	57698.89
495.85	58855.11
496.02	59444.93
496.20	59370.03
496.38	58794.26
496.55	58862.13
496.73	59377.05
496.91	59302.15
497.09	59877.93
497.26	60076.87
497.44	59604.08
497.62	58979.16
497.79	58298.06
497.97	57125.46
498.14	57216.74
498.32	58220.83
498.50	59138.32
498.67	59700.04
498.85	59442.59
499.03	59632.17
499.20	59887.29
499.38	60140.07
499.56	59728.13
499.73	59217.89
499.91	59032.99
500.08	58599.99
500.26	57986.77
500.44	58300.40
500.61	59133.63
500.79	59077.46
500.97	58337.85
501.14	58227.85
501.32	57968.05
501.49	57991.45
501.67	58269.98
501.84	58848.09
502.02	59049.38
502.20	59377.05
502.37	59428.54
502.55	59517.48
502.72	60039.42
502.90	60512.21
503.07	60034.74
503.25	59693.02
503.43	59037.67
503.60	58511.05
503.78	57804.21
503.95	58103.80
504.13	59737.49
504.30	60449.02
504.48	60090.91
504.65	59959.84
504.83	59845.16
505.01	60470.08
505.18	60643.28
505.36	61219.05
505.53	61237.78
505.71	61506.94
505.88	61506.94
506.06	61006.06
506.23	60741.58
506.41	60266.45
506.58	60554.34
506.76	60416.25
506.93	60437.31
507.11	60343.69
507.28	60589.45
507.46	59903.67
507.63	59454.29
507.81	59217.89
507.98	59388.75
508.16	60016.02
508.33	60711.16
508.50	60919.46
508.68	61153.52
508.85	61633.33
509.03	61764.40
509.20	61336.08
509.38	60949.89
509.55	60149.43
509.73	60224.32
509.90	60809.46
510.08	61062.24
510.25	60779.03
510.42	60687.75
510.60	60563.70
510.77	60893.72
510.95	61371.19
511.12	61530.34
511.30	61642.69
511.47	62056.96
511.64	61937.60
511.82	61698.86
511.99	60970.96
512.17	60395.18
512.34	60109.64
512.51	60568.38
512.69	60528.59
512.86	60790.73
513.04	61048.19
513.21	61083.30
513.38	60605.83
513.56	60130.70
513.73	59636.85
513.90	59887.29
514.08	60009.00
514.25	60261.77
514.43	60390.50
514.60	60552.00
514.77	60584.77
514.95	60659.66
515.12	60788.39
515.29	60963.93
515.47	61329.06
515.64	61577.15
515.81	61076.28
515.99	60477.10
516.16	59360.67
516.33	57319.72
516.51	56060.51
516.68	55201.53
516.85	54719.38
517.03	55243.66
517.20	57567.82
517.37	59777.28
517.54	60807.12
517.72	60364.76
517.89	58246.57
518.06	55929.44
518.24	56210.31
518.41	58258.27
518.58	59278.75
518.75	59552.59
518.93	59800.69
519.10	59494.08
519.27	59999.63
519.45	60247.73
519.62	60907.76
519.79	61251.82
519.96	61244.80
520.14	60727.54
520.31	59777.28
520.48	60090.91
520.65	60315.61
520.83	61132.45
521.00	61448.42
521.17	61169.90
521.34	60596.47
521.52	61048.19
521.69	61595.88
521.86	61872.06
522.03	61820.57
522.20	60662.00
522.38	59611.10
522.55	59540.89
522.72	60037.08
522.89	60268.79
523.07	60500.51
523.24	60741.58
523.41	61560.77
523.58	61813.55
523.75	62056.96
523.92	62108.46
524.10	62031.22
524.27	62129.52
524.44	61801.85
524.61	61684.82
524.78	61385.23
524.96	61427.36
525.13	61399.27
525.30	61726.95
525.47	62080.37
525.64	61900.15
525.81	61300.97
525.98	60140.07
526.16	58698.30
526.33	58099.12
526.50	57656.76
526.67	57476.54
526.84	57984.43
527.01	58983.84
527.18	59880.27
527.36	60449.02
527.53	61200.33
527.70	61551.41
527.87	61120.75
528.04	60584.77
528.21	61097.34
528.38	61701.20
528.55	62417.41
528.72	62569.54
528.89	62635.08
529.07	62274.63
529.24	61918.87
529.41	61130.11
529.58	60516.89
529.75	60800.10
529.92	61329.06
530.09	61340.76
530.26	62138.88
530.43	62272.29
530.60	62326.13
530.77	62349.53
530.94	62417.41
531.11	62258.25
531.28	61766.74
531.46	61525.66
531.63	61762.06
531.80	61691.84
531.97	61352.46
532.14	60498.17
532.31	59693.02
532.48	59161.72
532.65	59054.06
532.82	59723.45
532.99	61080.96
533.16	61190.97
533.33	61701.20
533.50	61478.85
533.67	61050.53
533.84	60423.27
534.01	60844.57
534.18	60865.63
534.35	61137.13
534.52	60942.87
534.69	61268.20
534.86	61649.71
535.03	61593.54
535.20	62295.70
535.37	62457.20
535.54	62639.76
535.71	62143.56
535.88	62005.47
536.05	61319.70
536.22	61003.72
536.38	60804.78
536.55	60369.44
536.72	59629.83
536.89	59753.88
537.06	60526.25
537.23	61439.06
537.40	61535.02
537.57	61518.64
537.74	61364.17
537.91	61087.98
538.08	61296.29
538.25	61193.31
538.42	61453.11
538.59	61055.21
538.75	60786.05
538.92	60346.03
539.09	60350.71
539.26	60100.28
539.43	60121.34
539.60	60158.79
539.77	60282.84
539.94	60053.47
540.11	59353.65
540.28	58892.56
540.44	58915.96
540.61	59152.36
540.78	59423.86
540.95	59889.63
541.12	60161.13
541.29	60694.77
541.46	60914.78
541.62	60797.76
541.79	60463.06
541.96	60062.83
542.13	60030.06
542.30	60392.84
542.47	60404.55
542.63	60324.97
542.80	60198.58
542.97	60238.37
543.14	59941.12
543.31	60177.51
543.48	60474.76
543.64	61293.95
543.81	61626.31
543.98	61593.54
544.15	60800.10
544.32	60259.43
544.48	60336.67
544.65	60711.16
544.82	61055.21
544.99	60774.35
545.16	60395.18
545.32	60278.16
545.49	60963.93
545.66	61375.87
545.83	60980.32
546.00	60650.30
546.16	60273.48
546.33	60406.89
546.50	60261.77
546.67	60844.57
546.83	60245.39
547.00	60491.15
547.17	59517.48
547.34	59164.06
547.50	59121.93
547.67	59643.87
547.84	59646.21
548.00	59913.03
548.17	60308.58
548.34	60463.06
548.51	60299.22
548.67	60252.41
548.84	60502.85
549.01	60336.67
549.18	60467.74
549.34	60327.31
549.51	60151.77
549.68	59922.40
549.84	60149.43
550.01	60128.36
550.18	59587.70
550.34	59788.98
550.51	60016.02
550.68	60020.70
550.84	59606.42
551.01	59781.96
551.18	59683.66
551.34	59849.84
551.51	60203.26
551.68	60392.84
551.84	60507.53
552.01	60193.90
552.18	60128.36
552.34	59299.81
552.51	59072.78
552.68	58681.91
552.84	59428.54
553.01	59770.26
553.18	59409.82
553.34	59688.34
553.51	59655.57
553.67	60104.96
553.84	60168.15
554.01	60172.83
554.17	59796.01
554.34	59770.26
554.51	59889.63
554.67	60378.80
554.84	60154.11
555.00	59891.97
555.17	59426.20
555.33	59688.34
555.50	59526.84
555.67	59655.57
555.83	59363.01
556.00	59358.33
556.16	59093.85
556.33	58766.17
556.50	58534.46
556.66	58745.11
556.83	58805.96
556.99	58478.28
557.16	58726.38
557.32	58946.39
557.49	59077.46
557.65	59084.48
557.82	59171.08
557.98	58979.16
558.15	58658.51
558.32	57923.58
558.48	57144.18
558.65	57237.80
558.81	57453.13
558.98	57790.17
559.14	58031.24
559.31	58010.18
559.47	58152.95
559.64	58031.24
559.80	57448.45
559.97	57530.37
560.13	57820.59
560.30	58752.13
560.46	59250.66
560.63	59489.40
560.79	59447.27
560.96	59168.74
561.12	57956.35
561.29	57167.58
561.45	57301.00
561.61	57944.64
561.78	58291.04
561.94	58145.93
562.11	58026.56
562.27	57961.03
562.44	58092.10
562.60	58295.72
562.77	58719.36
562.93	58482.97
563.10	58522.76
563.26	58054.65
563.42	58014.86
563.59	57916.56
563.75	58064.01
563.92	57801.87
564.08	57724.63
564.24	58075.71
564.41	58141.25
564.57	57949.32
564.74	57923.58
564.90	57879.11
565.07	57612.29
565.23	57343.12
565.39	56926.51
565.56	56601.18
565.72	56250.09
565.88	56537.98
566.05	56783.74
566.21	56940.55
566.38	57216.74
566.54	57233.12
566.70	57436.75
566.87	57745.70
567.03	57808.89
567.19	58080.39
567.36	57595.90
567.52	57607.61
567.68	57422.70
567.85	56708.84
568.01	56392.87
568.17	56432.66
568.34	56369.46
568.50	56018.38
568.66	56097.96
568.83	56528.62
568.99	56772.03
569.15	56750.97
569.32	56713.52
569.48	56376.48
569.64	56292.22
569.81	56081.58
569.97	55987.95
570.13	55779.65
570.30	55381.76
570.46	55276.43
570.62	54754.49
570.78	54595.34
570.95	54754.49
571.11	55554.96
571.27	55723.47
571.43	55959.87
571.60	56362.44
571.76	56259.46
571.92	56388.19
572.09	56704.16
572.25	56699.48
572.41	56413.93
572.57	56521.60
572.74	56498.19
572.90	56009.02
573.06	56137.75
573.22	55957.53
573.38	56250.09
573.55	56116.68
573.71	56367.12
573.87	55987.95
574.03	55999.66
574.20	55950.51
574.36	55608.79
574.52	55604.11
574.68	55508.14
574.84	55103.23
575.01	54522.78
575.17	54628.10
575.33	54915.99
575.49	55140.68
575.65	55306.86
575.82	54981.52
575.98	54522.78
576.14	54892.58
576.30	55358.35
576.46	55264.73
576.62	55484.74
576.79	55136.00
576.95	55112.59
577.11	54787.26
577.27	54953.44
577.43	55079.83
577.59	54656.19
577.75	54330.86
577.92	53769.13
578.08	53738.70
578.24	53591.25
578.40	53846.36
578.56	54342.56
578.72	54078.08
578.88	54480.65
579.04	54623.42
579.21	54597.68
579.37	54340.22
579.53	54777.90
579.69	54686.62
579.85	54740.45
580.01	54681.94
580.17	54403.41
580.33	53961.05
580.49	54286.39
580.65	54700.66
580.82	54724.07
580.98	54691.30
581.14	54684.28
581.30	54548.53
581.46	54475.97
581.62	54831.73
581.78	54754.49
581.94	54789.60
582.10	54651.51
582.26	54775.56
582.42	54693.64
582.58	54719.38
582.74	54777.90
582.90	54714.70
583.06	54787.26
583.22	54562.57
583.38	54534.48
583.54	54429.16
583.70	54567.25
583.86	54279.36
584.02	54384.69
584.18	54396.39
584.34	54567.25
584.50	54003.18
584.66	54157.66
584.82	53523.37
584.98	53801.89
585.14	53361.87
