SpectraSuite Data File
++++++++++++++++++++++++++++++++++++
Date: Mon Oct 07 14:53:01 GMT-05:00 2013
User: price-jones
Dark Spectrum Present: No
Reference Spectrum Present: No
Number of Sampled Component Spectra: 1
Spectrometers: USB2+H05261
Integration Time (usec): 100000 (USB2+H05261)
Spectra Averaged: 1 (USB2+H05261)
Boxcar Smoothing: 0 (USB2+H05261)
Correct for Electrical Dark: No (USB2+H05261)
Strobe/Lamp Enabled: No (USB2+H05261)
Correct for Detector Non-linearity: No (USB2+H05261)
Correct for Stray Light: No (USB2+H05261)
Number of Pixels in Processed Spectrum: 2048
>>>>>Begin Processed Spectral Data<<<<<
365.73	0.00
365.92	0.00
366.12	0.00
366.32	0.00
366.52	0.00
366.72	0.00
366.91	0.00
367.11	0.00
367.31	0.00
367.51	0.00
367.70	0.00
367.90	0.00
368.10	0.00
368.30	0.00
368.49	0.00
368.69	0.00
368.89	0.00
369.09	0.00
369.28	0.00
369.48	0.00
369.68	0.00
369.87	0.00
370.07	0.00
370.27	0.00
370.47	540.66
370.66	2686.94
370.86	3159.72
371.06	3562.30
371.25	3669.96
371.45	3269.73
371.65	2782.90
371.84	2841.41
372.04	2848.43
372.24	3141.00
372.44	3234.62
372.63	3162.06
372.83	2956.10
373.03	2724.38
373.22	2452.88
373.42	2569.91
373.62	3091.85
373.81	3353.99
374.01	3204.19
374.21	2899.92
374.40	2640.12
374.60	2946.73
374.79	3225.26
374.99	3744.86
375.19	3992.95
375.38	4011.68
375.58	3763.58
375.78	3702.73
375.97	3719.11
376.17	3838.48
376.37	3906.35
376.56	3999.98
376.76	4262.12
376.95	4437.66
377.15	4788.74
377.35	5064.92
377.54	5226.42
377.74	5425.36
377.93	5334.08
378.13	5172.58
378.33	5022.79
378.52	4610.86
378.72	4360.42
378.91	4372.12
379.11	4217.65
379.31	4079.55
379.50	3864.22
379.70	4344.03
379.89	4947.89
380.09	4877.68
380.28	5261.52
380.48	5268.55
380.68	5186.63
380.87	4973.64
381.07	4669.37
381.26	4451.70
381.46	4023.38
381.65	3803.37
381.85	3772.94
382.04	3751.88
382.24	3344.63
382.43	3150.36
382.63	3145.68
382.83	3192.49
383.02	3131.64
383.22	3117.59
383.41	3206.53
383.61	3454.63
383.80	3871.25
384.00	4386.16
384.19	4947.89
384.39	5184.29
384.58	5238.12
384.78	5060.24
384.97	5097.69
385.17	4784.06
385.36	4390.84
385.56	4271.48
385.75	4397.87
385.95	4877.68
386.14	5364.51
386.34	5369.19
386.53	5090.67
386.72	4732.56
386.92	4924.49
387.11	5008.75
387.31	5327.06
387.50	5163.22
387.70	5153.86
387.89	5139.82
388.09	5203.01
388.28	5095.35
388.48	5177.26
388.67	5404.30
388.86	6073.69
389.06	6459.88
389.25	6827.34
389.45	7056.72
389.64	6726.70
389.84	6916.28
390.03	6925.65
390.22	6862.45
390.42	6967.77
390.61	7613.76
390.81	8154.43
391.00	8145.06
391.19	7939.10
391.39	7550.57
391.58	7368.01
391.78	6860.11
391.97	6663.51
392.16	6150.93
392.36	5790.49
392.55	4292.54
392.75	3620.81
392.94	2991.20
393.13	2869.50
393.33	3555.27
393.52	4386.16
393.71	5390.25
393.91	6249.23
394.10	6724.36
394.29	7211.19
394.49	7927.39
394.68	8559.34
394.88	8484.44
395.07	8844.88
395.26	8674.03
395.46	8351.03
395.65	7983.57
395.84	6862.45
396.04	5870.06
396.23	4695.11
396.42	3976.57
396.62	3857.20
396.81	4538.30
397.00	5736.65
397.19	7316.51
397.39	8542.96
397.58	9617.26
397.77	10431.77
397.97	10712.63
398.16	10813.28
398.35	11028.60
398.55	11265.00
398.74	11918.01
398.93	12023.33
399.12	12020.99
399.32	11480.33
399.51	11838.43
399.70	12372.07
399.90	12402.50
400.09	12379.09
400.28	12355.69
400.47	12266.75
400.67	13153.81
400.86	13364.46
401.05	13186.58
401.24	13558.72
401.44	13701.50
401.63	13673.41
401.82	13926.19
402.01	13673.41
402.21	13921.51
402.40	13706.18
402.59	13289.56
402.78	12919.76
402.97	12692.73
403.17	13289.56
403.36	13547.02
403.55	14185.99
403.74	14583.88
403.93	13900.44
404.13	12980.61
404.32	12491.44
404.51	13116.36
404.70	14218.75
404.89	14153.22
405.09	13916.83
405.28	13504.89
405.47	13277.86
405.66	13530.64
405.85	13160.83
406.05	13085.94
406.24	12999.34
406.43	13675.75
406.62	13989.38
406.81	14057.26
407.00	13554.04
407.20	13167.85
407.39	13523.62
407.58	13998.74
407.77	14637.71
407.96	15042.62
408.15	15311.78
408.34	15389.02
408.54	16229.27
408.73	16072.46
408.92	15857.13
409.11	15417.11
409.30	14466.85
409.49	13696.82
409.68	12641.23
409.87	12517.18
410.07	13397.23
410.26	14300.67
410.45	15281.36
410.64	15580.95
410.83	16231.62
411.02	16636.53
411.21	16975.91
411.40	16891.65
411.59	17074.21
411.78	16671.64
411.98	16758.24
412.17	16872.92
412.36	16886.97
412.55	16578.01
412.74	16428.22
412.93	15990.54
413.12	16088.84
413.31	17668.70
413.50	18033.83
413.69	18176.60
413.88	17514.23
414.07	16842.50
414.26	17378.48
414.45	17781.05
414.64	17757.64
414.83	17797.43
415.02	17460.40
415.22	17376.14
415.41	17806.80
415.60	18370.86
415.79	19225.16
415.98	19651.14
416.17	19674.54
416.36	19201.76
416.55	18808.54
416.74	18183.62
416.93	17582.10
417.12	17589.13
417.31	17893.40
417.50	18197.67
417.69	18771.10
417.88	18850.67
418.07	18452.78
418.26	18225.75
418.45	18331.08
418.64	19260.27
418.83	19796.25
419.02	19611.35
419.21	19389.00
419.39	18403.63
419.58	17652.32
419.77	17893.40
419.96	18469.17
420.15	19578.58
420.34	20247.97
420.53	21043.76
420.72	21209.93
420.91	21085.89
421.10	20500.75
421.29	20828.43
421.48	20006.90
421.67	21018.01
421.86	20257.34
422.05	18761.73
422.24	16762.92
422.43	16835.47
422.61	18684.50
422.80	20128.61
422.99	20182.44
423.18	19501.34
423.37	19110.47
423.56	19035.58
423.75	19431.13
423.94	19957.75
424.13	18731.31
424.32	18920.89
424.50	18864.72
424.69	18735.99
424.88	18810.89
425.07	18848.33
425.26	18827.27
425.45	18415.34
425.64	18155.54
425.83	18111.07
426.01	19524.75
426.20	19709.65
426.39	19480.28
426.58	18080.64
426.77	16730.15
426.96	16367.37
427.15	16849.52
427.33	18235.11
427.52	19124.52
427.71	18881.10
427.90	18857.70
428.09	18874.08
428.28	18328.74
428.46	17467.42
428.65	17392.52
428.84	17715.51
429.03	18284.26
429.22	17259.11
429.40	16156.72
429.59	14626.01
429.78	12732.51
429.97	13053.17
430.16	13118.70
430.34	13266.16
430.53	13383.18
430.72	13415.95
430.91	15459.24
431.10	17734.24
431.28	21050.78
431.47	22281.90
431.66	22817.88
431.85	20526.50
432.03	18925.57
432.22	18263.20
432.41	18867.06
432.60	21088.23
432.79	21774.00
432.97	22632.98
433.16	21986.99
433.35	19997.54
433.54	18176.60
433.72	16975.91
433.91	17404.22
434.10	19566.88
434.28	21170.15
434.47	21722.51
434.66	21692.08
434.85	21104.61
435.03	20968.86
435.22	21640.59
435.41	22661.07
435.59	23133.86
435.78	23496.64
435.97	23960.06
436.16	23885.17
436.34	23470.89
436.53	23122.15
436.72	23201.73
436.90	21860.60
437.09	21876.99
437.28	21228.66
437.46	22422.33
437.65	21942.52
437.84	20837.79
438.02	19166.65
438.21	18862.38
438.40	19651.14
438.58	21633.57
438.77	22361.48
438.96	22377.86
439.14	23616.01
439.33	23929.64
439.52	24313.48
439.70	24077.09
439.89	23126.83
440.08	22644.68
440.26	22780.43
440.45	23363.23
440.63	24945.43
440.82	26185.91
441.01	25869.94
441.19	25795.04
441.38	25827.81
441.57	26712.53
441.75	27419.38
441.94	27335.12
442.12	27325.75
442.31	27662.79
442.50	27812.59
442.68	27278.94
442.87	26932.54
443.05	26658.70
443.24	27187.66
443.43	27594.92
443.61	28084.09
443.80	28404.74
443.98	26581.46
444.17	26403.58
444.35	28346.23
444.54	28959.45
444.73	28142.60
444.91	27199.37
445.10	26206.98
445.28	25109.27
445.47	24762.87
445.65	24959.47
445.84	26054.84
446.02	26642.32
446.21	26867.01
446.39	27180.64
446.58	27283.62
446.77	27824.29
446.95	28261.97
447.14	28964.13
447.32	29369.04
447.51	29039.03
447.69	27709.60
447.88	27337.46
448.06	27693.22
448.25	28423.47
448.43	28350.91
448.62	27889.82
448.80	27899.19
448.99	27962.38
449.17	28357.93
449.36	27999.83
449.54	29560.97
449.73	29998.65
449.91	30305.26
450.10	31040.18
450.28	31566.81
450.46	31393.61
450.65	31040.18
450.83	31182.96
451.02	30094.61
451.20	29837.15
451.39	30258.45
451.57	29724.80
451.76	29905.02
451.94	29448.62
452.13	29067.11
452.31	27927.27
452.49	26665.72
452.68	26944.25
452.86	27049.57
453.05	27201.71
453.23	28201.11
453.42	29113.92
453.60	29394.79
453.78	30022.05
453.97	29565.65
454.15	29378.40
454.34	28463.25
454.52	29209.89
454.70	28790.93
454.89	28884.55
455.07	29312.87
455.26	29479.05
455.44	29956.52
455.62	30684.42
455.81	31339.77
455.99	31005.08
456.17	30682.08
456.36	30778.04
456.54	31810.22
456.73	31456.80
456.91	32418.76
457.09	32168.32
457.28	32634.09
457.46	31569.15
457.64	31257.85
457.83	30010.35
458.01	29874.60
458.19	30307.60
458.38	30452.71
458.56	31557.44
458.74	31749.37
458.93	30834.22
459.11	30623.57
459.29	30492.50
459.48	30895.07
459.66	30213.98
459.84	31180.62
460.03	31449.78
460.21	31332.75
460.39	32238.54
460.57	32205.77
460.76	32603.66
460.94	32526.42
461.12	32039.59
461.31	32102.79
461.49	32650.47
461.67	32297.05
461.85	33256.67
462.04	33013.26
462.22	33556.26
462.40	33235.61
462.59	33010.92
462.77	32980.49
462.95	33013.26
463.13	32594.30
463.32	32573.24
463.50	32175.34
463.68	32081.72
463.86	32472.59
464.05	31505.95
464.23	30913.80
464.41	31367.86
464.59	30646.97
464.78	32484.30
464.96	31782.13
465.14	31564.46
465.32	32414.08
465.50	33340.93
465.69	33640.52
465.87	32818.99
466.05	31981.08
466.23	30773.36
466.41	29788.00
466.60	30630.59
466.78	30864.64
466.96	31204.02
467.14	31826.60
467.32	32341.52
467.51	32109.81
467.69	30979.33
467.87	31709.58
468.05	32240.88
468.23	32055.98
468.41	32350.88
468.60	32196.41
468.78	32488.98
468.96	32238.54
469.14	32833.04
469.32	32730.05
469.50	31428.71
469.69	31730.64
469.87	31166.57
470.05	30857.62
470.23	31255.51
470.41	31187.64
470.59	31721.28
470.77	31784.48
470.95	32687.92
471.14	33127.94
471.32	33013.26
471.50	34691.42
471.68	35278.89
471.86	35124.42
472.04	35433.37
472.22	35318.68
472.40	33640.52
472.58	33385.40
472.77	32900.91
472.95	33687.33
473.13	34885.68
473.31	33216.88
473.49	34120.33
473.67	34714.83
473.85	34595.46
474.03	35676.79
474.21	35814.88
474.39	35814.88
474.57	36018.50
474.75	35931.90
474.93	35849.99
475.12	35019.10
475.30	35122.08
475.48	35377.20
475.66	35892.12
475.84	35416.99
476.02	34939.52
476.20	34356.72
476.38	34848.24
476.56	36278.30
476.74	36741.73
476.92	36872.80
477.10	37333.89
477.28	38419.89
477.46	38600.12
477.64	39171.21
477.82	39232.06
478.00	39150.14
478.18	38515.86
478.36	38749.91
478.54	38651.61
478.72	38478.41
478.90	39835.92
479.08	40631.70
479.26	41434.50
479.44	40896.18
479.62	40907.88
479.80	40811.92
479.98	40816.60
480.16	40837.67
480.34	40832.99
480.52	41521.10
480.70	41624.09
480.88	41640.47
481.06	42394.12
481.24	42590.73
481.41	43690.78
481.59	44325.07
481.77	43569.07
481.95	43290.55
482.13	42899.68
482.31	43161.82
482.49	44245.49
482.67	43978.67
482.85	44177.61
483.03	45015.52
483.21	45109.14
483.39	44657.42
483.57	44025.48
483.74	43959.94
483.92	44411.67
484.10	44378.90
484.28	44992.12
484.46	45811.31
484.64	46167.07
484.82	45287.03
485.00	45010.84
485.18	43973.98
485.35	42403.49
485.53	39253.12
485.71	35882.75
485.89	35859.35
486.07	37736.46
486.25	40889.16
486.43	42990.96
486.61	43931.86
486.78	44011.43
486.96	43873.34
487.14	46181.11
487.32	46712.41
487.50	48037.16
487.68	48505.26
487.85	49076.35
488.03	48790.81
488.21	48224.40
488.39	47817.14
488.57	46836.46
488.75	46777.95
488.92	48502.92
489.10	50408.12
489.28	51789.03
489.46	52334.38
489.64	52088.62
489.81	52505.24
489.99	52039.47
490.17	51849.89
490.35	52453.75
490.53	52149.48
490.70	51484.76
490.88	51260.07
491.06	52334.38
491.24	52416.30
491.41	51213.26
491.59	49258.91
491.77	48964.01
491.95	49855.75
492.13	51363.06
492.30	52540.35
492.48	53729.34
492.66	54108.50
492.84	54026.59
493.01	53633.38
493.19	52994.41
493.37	52729.93
493.54	52411.62
493.72	53183.99
493.90	54468.95
494.08	54955.78
494.25	55222.60
494.43	55615.81
494.61	55622.83
494.79	55835.82
494.96	55625.17
495.14	55114.94
495.32	54026.59
495.49	53305.70
495.67	54695.98
495.85	55936.46
496.02	56130.73
496.20	56385.85
496.38	55721.13
496.55	55758.58
496.73	56198.60
496.91	56271.16
497.09	56999.07
497.26	57015.45
497.44	56390.53
497.62	55671.98
497.79	55164.09
497.97	53764.45
498.14	54241.92
498.32	55152.38
498.50	56151.79
498.67	56708.84
498.85	56699.48
499.03	56753.31
499.20	56903.10
499.38	56910.13
499.56	56926.51
499.73	56137.75
499.91	56025.40
500.08	55309.20
500.26	54915.99
500.44	55290.48
500.61	55985.61
500.79	55753.90
500.97	55421.55
501.14	55309.20
501.32	54892.58
501.49	55089.19
501.67	55578.36
501.84	55976.25
502.02	56002.00
502.20	56605.86
502.37	56418.61
502.55	56739.27
502.72	57439.09
502.90	57780.81
503.07	57324.40
503.25	57073.96
503.43	55957.53
503.60	55253.03
503.78	54791.94
503.95	55391.12
504.13	56619.90
504.30	57340.78
504.48	57155.88
504.65	56970.98
504.83	57212.06
505.01	57565.48
505.18	58103.80
505.36	58515.73
505.53	58466.58
505.71	58714.68
505.88	58651.48
506.06	58202.10
506.23	58056.99
506.41	57301.00
506.58	57886.13
506.76	57621.65
506.93	57794.85
507.11	57439.09
507.28	57755.06
507.46	57223.76
507.63	56362.44
507.81	56444.36
507.98	56687.78
508.16	57394.62
508.33	57879.11
508.50	58244.23
508.68	58387.00
508.85	58805.96
509.03	58944.05
509.20	58717.02
509.38	57961.03
509.55	57352.49
509.73	57286.95
509.90	57876.77
510.08	58237.21
510.25	58227.85
510.42	57872.09
510.60	57778.46
510.77	58099.12
510.95	58761.49
511.12	58623.40
511.30	59128.95
511.47	59348.96
511.64	59381.73
511.82	58894.90
511.99	57883.79
512.17	57886.13
512.34	57455.47
512.51	57535.05
512.69	57652.08
512.86	58052.31
513.04	58328.49
513.21	58272.32
513.38	57813.57
513.56	57310.36
513.73	56917.15
513.90	57460.15
514.08	57179.29
514.25	57315.04
514.43	57631.01
514.60	57806.55
514.77	57846.34
514.95	57902.51
515.12	57783.15
515.29	58078.05
515.47	58492.33
515.64	59018.95
515.81	58511.05
515.99	57719.95
516.16	56362.44
516.33	54190.42
516.51	52587.16
516.68	51503.49
516.85	51203.90
517.03	52123.73
517.20	54969.82
517.37	57195.67
517.54	57937.62
517.72	57425.04
517.89	55035.36
518.06	52891.43
518.24	53446.13
518.41	55393.46
518.58	56664.37
518.75	56800.12
518.93	56917.15
519.10	56949.92
519.27	57448.45
519.45	57825.28
519.62	58426.79
519.79	58597.65
519.96	58511.05
520.14	58073.37
520.31	57235.46
520.48	57172.27
520.65	57626.33
520.83	58504.03
521.00	58880.86
521.17	58382.32
521.34	58232.53
521.52	58518.07
521.69	58897.24
521.86	59318.54
522.03	58857.45
522.20	57748.04
522.38	56793.10
522.55	56987.36
522.72	57588.88
522.89	57785.49
523.07	57841.66
523.24	58169.33
523.41	59086.82
523.58	59126.61
523.75	59681.32
523.92	59592.38
524.10	59381.73
524.27	59421.52
524.44	59379.39
524.61	58908.94
524.78	59035.33
524.96	58960.44
525.13	58885.54
525.30	59320.88
525.47	59632.17
525.64	59365.35
525.81	58588.29
525.98	57298.65
526.16	55866.25
526.33	55264.73
526.50	55164.09
526.67	54600.02
526.84	55182.81
527.01	56301.59
527.18	57064.60
527.36	57968.05
527.53	59021.29
527.70	59035.33
527.87	58642.12
528.04	58195.08
528.21	58759.15
528.38	59250.66
528.55	59667.28
528.72	59714.09
528.89	60030.06
529.07	59728.13
529.24	59061.08
529.41	58379.98
529.58	57949.32
529.75	58038.26
529.92	58899.58
530.09	58836.39
530.26	59381.73
530.43	59770.26
530.60	59742.17
530.77	59924.74
530.94	60097.94
531.11	59353.65
531.28	59327.90
531.46	59040.01
531.63	59021.29
531.80	59093.85
531.97	58592.97
532.14	57921.24
532.31	56762.67
532.48	56402.23
532.65	56725.22
532.82	57244.82
532.99	58190.40
533.16	58667.87
533.33	59313.86
533.50	58906.60
533.67	58354.24
533.84	57958.69
534.01	58258.27
534.18	58515.73
534.35	58536.80
534.52	58433.81
534.69	58710.00
534.86	59105.55
535.03	59278.75
535.20	59662.60
535.37	60074.53
535.54	60100.28
535.71	59505.78
535.88	59449.61
536.05	58693.61
536.22	58234.87
536.38	58007.84
536.55	57518.67
536.72	57308.02
536.89	57223.76
537.06	57776.12
537.23	58855.11
537.40	59096.19
537.57	58953.41
537.74	58569.57
537.91	58731.06
538.08	58749.79
538.25	58883.20
538.42	59086.82
538.59	58630.42
538.75	58113.16
538.92	57984.43
539.09	57600.58
539.26	57673.14
539.43	57528.03
539.60	57446.11
539.77	57504.62
539.94	57663.78
540.11	56945.23
540.28	56336.69
540.44	56257.12
540.61	56610.54
540.78	56729.90
540.95	57216.74
541.12	57677.82
541.29	58363.60
541.46	58300.40
541.62	58248.91
541.79	58148.27
541.96	57389.94
542.13	57513.98
542.30	57874.43
542.47	57958.69
542.63	57848.68
542.80	57579.52
542.97	57628.67
543.14	57546.75
543.31	57780.81
543.48	57930.60
543.64	58941.71
543.81	59217.89
543.98	58749.79
544.15	58061.67
544.32	57633.35
544.48	57682.50
544.65	58499.35
544.82	58534.46
544.99	58347.21
545.16	58066.35
545.32	57724.63
545.49	58382.32
545.66	58665.53
545.83	58372.96
546.00	58056.99
546.16	57801.87
546.33	57937.62
546.50	57963.37
546.67	58415.09
546.83	57996.13
547.00	57946.98
547.17	57310.36
547.34	56680.75
547.50	56516.92
547.67	57275.25
547.84	57165.24
548.00	57619.31
548.17	58204.44
548.34	57834.64
548.51	57715.27
548.67	58136.57
548.84	57958.69
549.01	57904.85
549.18	57815.91
549.34	57710.59
549.51	57808.89
549.68	57876.77
549.84	57467.17
550.01	57455.47
550.18	57207.37
550.34	57418.02
550.51	57506.96
550.68	57626.33
550.84	57008.43
551.01	57104.39
551.18	56973.32
551.34	57165.24
551.51	57509.30
551.68	57925.92
551.84	57900.17
552.01	57846.34
552.18	57513.98
552.34	56898.42
552.51	56858.63
552.68	56463.08
552.84	56933.53
553.01	57155.88
553.18	57055.24
553.34	57020.13
553.51	57298.65
553.67	57556.11
553.84	57715.27
554.01	57483.56
554.17	57357.17
554.34	57572.50
554.51	57425.04
554.67	57956.35
554.84	57881.45
555.00	57284.61
555.17	57198.01
555.33	56992.04
555.50	56919.49
555.67	57242.48
555.83	57132.48
556.00	56655.01
556.16	56594.15
556.33	56523.94
556.50	55903.70
556.66	56179.88
556.83	56062.85
556.99	56123.71
557.16	56135.41
557.32	56310.95
557.49	56603.52
557.65	56662.03
557.82	56547.34
557.98	56739.27
558.15	55955.19
558.32	55187.49
558.48	54335.54
558.65	54536.82
558.81	55260.05
558.98	55243.66
559.14	55531.55
559.31	55728.16
559.47	55543.25
559.64	55079.83
559.80	54618.74
559.97	54983.86
560.13	55604.11
560.30	56308.61
560.46	56931.19
560.63	56910.13
560.79	57165.24
560.96	56566.07
561.12	55402.82
561.29	54574.27
561.45	54672.57
561.61	55360.69
561.78	55856.88
561.94	55632.19
562.11	55625.17
562.27	55559.64
562.44	55805.39
562.60	55894.33
562.77	56191.58
562.93	55913.06
563.10	56231.37
563.26	55421.55
563.42	55442.61
563.59	55409.84
563.75	55213.24
563.92	55374.73
564.08	55344.31
564.24	55943.48
564.41	55737.52
564.57	55388.78
564.74	55332.60
564.90	55145.36
565.07	55030.68
565.23	54429.16
565.39	54124.89
565.56	54028.93
565.72	53481.24
565.88	54284.04
566.05	54012.54
566.21	54674.91
566.38	54798.96
566.54	54770.88
566.70	54930.03
566.87	55248.35
567.03	55299.84
567.19	55395.80
567.36	55384.10
567.52	55121.96
567.68	54770.88
567.85	53935.30
568.01	53616.99
568.17	53333.79
568.34	53394.64
568.50	53427.41
568.66	53502.31
568.83	53825.30
568.99	53844.02
569.15	54197.44
569.32	53970.41
569.48	54082.76
569.64	53719.98
569.81	53495.28
569.97	53516.35
570.13	53193.36
570.30	52612.90
570.46	52523.96
570.62	51716.48
570.78	52055.85
570.95	52257.14
571.11	52900.79
571.27	53160.59
571.43	53315.06
571.60	53677.85
571.76	53694.23
571.92	54080.42
572.09	54113.19
572.25	53869.77
572.41	54087.44
572.57	54040.63
572.74	53600.61
572.90	53708.27
573.06	53450.81
573.22	53741.04
573.38	53478.90
573.55	53497.62
573.71	53886.15
573.87	53514.01
574.03	53345.49
574.20	53343.15
574.36	52762.70
574.52	53031.86
574.68	52484.17
574.84	51992.66
575.01	52097.98
575.17	52116.71
575.33	52467.79
575.49	52451.41
575.65	52540.35
575.82	52362.46
575.98	52030.11
576.14	52516.94
576.30	52509.92
576.46	52804.83
576.62	52631.63
576.79	52678.44
576.95	52428.00
577.11	52296.93
577.27	52210.33
577.43	52259.48
577.59	51931.81
577.75	51770.31
577.92	51007.29
578.08	50768.56
578.24	50459.61
578.40	51072.83
578.56	51292.84
578.72	51311.56
578.88	51657.96
579.04	51721.16
579.21	51870.95
579.37	51880.31
579.53	52252.46
579.69	51962.23
579.85	52261.82
580.01	51978.62
580.17	51243.69
580.33	51283.48
580.49	51786.69
580.65	51826.48
580.82	52076.92
580.98	51859.25
581.14	51784.35
581.30	51983.30
581.46	51583.07
581.62	52016.07
581.78	51938.83
581.94	52245.44
582.10	52203.31
582.26	52210.33
582.42	52273.52
582.58	52329.70
582.74	52121.39
582.90	52226.71
583.06	52189.27
583.22	51952.87
583.38	51840.53
583.54	51889.68
583.70	51529.23
583.86	51789.03
584.02	51959.89
584.18	51786.69
584.34	51346.67
584.50	51421.57
584.66	51351.35
584.82	51264.75
584.98	50616.43
585.14	50607.06
585.30	49553.82
