SpectraSuite Data File
++++++++++++++++++++++++++++++++++++
Date: Mon Oct 07 14:55:00 GMT-05:00 2013
User: price-jones
Dark Spectrum Present: No
Reference Spectrum Present: No
Number of Sampled Component Spectra: 1
Spectrometers: USB2+H05261
Integration Time (usec): 10000 (USB2+H05261)
Spectra Averaged: 1 (USB2+H05261)
Boxcar Smoothing: 0 (USB2+H05261)
Correct for Electrical Dark: No (USB2+H05261)
Strobe/Lamp Enabled: No (USB2+H05261)
Correct for Detector Non-linearity: No (USB2+H05261)
Correct for Stray Light: No (USB2+H05261)
Number of Pixels in Processed Spectrum: 2048
>>>>>Begin Processed Spectral Data<<<<<
365.73	0.00
365.92	0.00
366.12	0.00
366.32	0.00
366.52	0.00
366.72	0.00
366.91	0.00
367.11	0.00
367.31	0.00
367.51	0.00
367.70	0.00
367.90	0.00
368.10	0.00
368.30	0.00
368.49	0.00
368.69	0.00
368.89	0.00
369.09	0.00
369.28	0.00
369.48	0.00
369.68	0.00
369.87	0.00
370.07	0.00
370.27	0.00
370.47	112.35
370.66	1446.45
370.86	1631.35
371.06	1853.70
371.25	1837.32
371.45	1668.80
371.65	1479.22
371.84	1486.24
372.04	1488.58
372.24	1753.06
372.44	1863.07
372.63	1689.87
372.83	1568.16
373.03	1380.92
373.22	1193.67
373.42	1554.12
373.62	1652.42
373.81	1762.42
374.01	1820.94
374.21	1528.37
374.40	1418.36
374.60	1537.73
374.79	1774.13
374.99	2057.33
375.19	2169.68
375.38	2101.80
375.58	1907.54
375.78	2008.18
375.97	1947.33
376.17	2120.53
376.37	2101.80
376.56	2183.72
376.76	2387.35
376.95	2525.44
377.15	2600.34
377.35	2829.71
377.54	2913.97
377.74	3002.91
377.93	2860.13
378.13	2822.69
378.33	2609.70
378.52	2443.52
378.72	2448.20
378.91	2256.28
379.11	2200.10
379.31	2190.74
379.50	2244.57
379.70	2476.29
379.89	2647.15
380.09	2789.92
380.28	3000.57
380.48	2764.17
380.68	2785.24
380.87	2764.17
381.07	2539.48
381.26	2267.98
381.46	2106.48
381.65	2015.20
381.85	1956.69
382.04	1933.28
382.24	1797.53
382.43	1764.76
382.63	1764.76
382.83	1743.70
383.02	1692.21
383.22	1710.93
383.41	1710.93
383.61	1867.75
383.80	2143.93
384.00	2642.46
384.19	2654.17
384.39	2977.16
384.58	2881.20
384.78	2759.49
384.97	2972.48
385.17	2537.14
385.36	2424.80
385.56	2356.92
385.75	2466.92
385.95	2743.11
386.14	3180.79
386.34	3000.57
386.53	2745.45
386.72	2635.44
386.92	2775.88
387.11	2991.20
387.31	3028.65
387.50	2881.20
387.70	2834.39
387.89	2792.26
388.09	2810.98
388.28	2883.54
388.48	2963.12
388.67	3276.75
388.86	3536.55
389.06	3768.26
389.25	3831.46
389.45	3929.76
389.64	3871.25
389.84	3838.48
390.03	3648.90
390.22	3854.86
390.42	4011.68
390.61	4271.48
390.81	4517.23
391.00	4451.70
391.19	4393.19
391.39	4283.18
391.58	4128.70
391.78	3833.80
391.97	3812.73
392.16	3318.88
392.36	3045.04
392.55	2368.62
392.75	1811.57
392.94	1645.40
393.13	1629.01
393.33	2111.16
393.52	2619.06
393.71	3056.74
393.91	3555.27
394.10	3946.14
394.29	4306.59
394.49	4660.01
394.68	4746.61
394.88	4938.53
395.07	4908.10
395.26	4987.68
395.46	4802.78
395.65	4524.26
395.84	3660.60
396.04	2991.20
396.23	2434.16
396.42	2108.82
396.62	2193.08
396.81	2715.02
397.00	3461.65
397.19	4325.31
397.39	5001.72
397.58	5544.73
397.77	5827.93
397.97	6167.31
398.16	6457.54
398.35	6303.06
398.55	6455.20
398.74	6909.26
398.93	6909.26
399.12	6754.79
399.32	6473.92
399.51	6740.74
399.70	7037.99
399.90	6970.12
400.09	7035.65
400.28	7297.79
400.47	7279.07
400.67	7559.93
400.86	7590.36
401.05	7791.64
401.24	7698.02
401.44	7793.98
401.63	7829.09
401.82	7932.08
402.01	7990.59
402.21	8049.10
402.40	7892.29
402.59	7595.04
402.78	7297.79
402.97	7265.02
403.17	7765.90
403.36	7896.97
403.55	8306.56
403.74	8191.88
403.93	7793.98
404.13	7190.13
404.32	7403.11
404.51	7962.50
404.70	8236.35
404.89	8056.12
405.09	7899.31
405.28	7957.82
405.47	8011.65
405.66	7721.43
405.85	7662.91
406.05	7220.55
406.24	7435.88
406.43	7903.99
406.62	8231.66
406.81	8056.12
407.00	7747.17
407.20	7578.65
407.39	7707.38
407.58	8273.79
407.77	8472.74
407.96	8898.72
408.15	8901.06
408.34	8985.32
408.54	9254.48
408.73	9219.37
408.92	9231.07
409.11	8924.46
409.30	8318.26
409.49	7819.73
409.68	7473.33
409.87	7438.22
410.07	7981.23
410.26	8599.13
410.45	8887.01
410.64	9167.88
410.83	9607.90
411.02	9797.48
411.21	9846.63
411.40	9769.40
411.59	10005.79
411.78	9984.73
411.98	9839.61
412.17	9954.30
412.36	9626.62
412.55	9525.98
412.74	9493.21
412.93	9432.36
413.12	9748.33
413.31	10260.91
413.50	10265.59
413.69	10417.72
413.88	9848.97
414.07	9951.96
414.26	10019.83
414.45	10085.37
414.64	10120.48
414.83	10410.70
415.02	10043.24
415.22	10193.03
415.41	10352.19
415.60	10832.00
415.79	11133.93
415.98	11318.83
416.17	11562.25
416.36	11101.16
416.55	10934.98
416.74	10373.25
416.93	10305.38
417.12	10417.72
417.31	10342.83
417.50	10642.42
417.69	11014.56
417.88	11117.54
418.07	10834.34
418.26	10937.32
418.45	11084.78
418.64	11466.28
418.83	11838.43
419.02	11421.81
419.21	11112.86
419.39	10824.98
419.58	10413.04
419.77	10630.71
419.96	11194.78
420.15	11672.25
420.34	11992.90
420.53	12060.78
420.72	11981.20
420.91	12006.95
421.10	11946.09
421.29	12147.38
421.48	11690.98
421.67	12154.40
421.86	11545.86
422.05	10738.38
422.24	9916.85
422.43	10087.71
422.61	11414.79
422.80	12063.12
422.99	11522.46
423.18	11126.91
423.37	10705.61
423.56	11318.83
423.75	11672.25
423.94	11667.57
424.13	11021.58
424.32	10953.71
424.50	11166.70
424.69	11147.97
424.88	10993.50
425.07	11007.54
425.26	11232.23
425.45	10562.84
425.64	10532.41
425.83	10752.42
426.01	11508.41
426.20	11786.94
426.39	11618.42
426.58	10195.37
426.77	9776.42
426.96	9958.98
427.15	10171.97
427.33	10946.69
427.52	11143.29
427.71	11089.46
427.90	10920.94
428.09	10775.83
428.28	10668.16
428.46	10399.00
428.65	10361.55
428.84	10597.95
429.03	10665.82
429.22	10052.60
429.40	9404.27
429.59	8720.84
429.78	7662.91
429.97	8030.38
430.16	7992.93
430.34	7765.90
430.53	7838.45
430.72	8484.44
430.91	9324.69
431.10	10848.38
431.28	12884.65
431.47	13748.31
431.66	13472.12
431.85	12004.61
432.03	10771.15
432.22	10864.77
432.41	11618.42
432.60	12645.91
432.79	12917.42
432.97	13095.30
433.16	12699.75
433.35	11337.56
433.54	10324.10
433.72	10015.15
433.91	10705.61
434.10	11803.32
434.28	12578.04
434.47	13020.40
434.66	12650.60
434.85	12435.27
435.03	12706.77
435.22	12924.44
435.41	13422.97
435.59	13645.32
435.78	13776.39
435.97	14136.84
436.16	14059.60
436.34	13921.51
436.53	13818.52
436.72	13764.69
436.90	13039.12
437.09	12858.90
437.28	12915.08
437.46	13422.97
437.65	12894.01
437.84	11737.79
438.02	11440.54
438.21	11407.77
438.40	11920.35
438.58	13083.59
438.77	13088.28
438.96	13413.61
439.14	14115.77
439.33	14352.16
439.52	14263.22
439.70	13785.76
439.89	13142.11
440.08	13296.58
440.26	13275.52
440.45	13944.91
440.63	14918.57
440.82	15555.20
441.01	15110.50
441.19	15147.95
441.38	15503.71
441.57	15674.57
441.75	15660.52
441.94	16465.67
442.12	16259.70
442.31	16365.03
442.50	16496.10
442.68	16046.71
442.87	15960.11
443.05	15939.05
443.24	16219.91
443.43	16559.29
443.61	16444.60
443.80	17088.25
443.98	15728.40
444.17	15917.98
444.35	16898.67
444.54	17114.00
444.73	16819.09
444.91	16189.49
445.10	15269.66
445.28	14782.82
445.47	14834.32
445.65	14719.63
445.84	15318.81
446.02	15754.15
446.21	16465.67
446.39	16463.33
446.58	16009.26
446.77	16765.26
446.95	16695.04
447.14	17137.40
447.32	17448.69
447.51	16835.47
447.69	16556.95
447.88	16416.52
448.06	16547.59
448.25	16966.54
448.43	16917.39
448.62	16645.89
448.80	16491.41
448.99	16585.04
449.17	16809.73
449.36	17111.66
449.54	17359.75
449.73	17980.00
449.91	17647.64
450.10	18637.69
450.28	18705.56
450.46	18654.07
450.65	18689.18
450.83	18628.32
451.02	18302.99
451.20	17919.14
451.39	18253.84
451.57	18204.69
451.76	17996.38
451.94	17488.48
452.13	17224.00
452.31	16044.37
452.49	15538.82
452.68	15768.19
452.86	15850.11
453.05	16184.80
453.23	16854.20
453.42	17170.17
453.60	17418.27
453.78	17565.72
453.97	17727.22
454.15	17453.37
454.34	16711.42
454.52	17160.81
454.70	16959.52
454.89	17046.12
455.07	16971.22
455.26	17724.88
455.44	18176.60
455.62	18565.13
455.81	18717.26
455.99	18558.11
456.17	18281.92
456.36	18668.11
456.54	18979.40
456.73	18572.15
456.91	18923.23
457.09	19075.37
457.28	19477.94
457.46	18693.86
457.64	18082.98
457.83	17715.51
458.01	17984.68
458.19	18087.66
458.38	18391.93
458.56	19056.64
458.74	18588.53
458.93	18394.27
459.11	18277.24
459.29	17837.22
459.48	18469.17
459.66	17804.46
459.84	18569.81
460.03	18988.77
460.21	18672.79
460.39	19704.97
460.57	19290.70
460.76	19459.21
460.94	19459.21
461.12	19171.33
461.31	19185.37
461.49	19468.58
461.67	19286.01
461.85	19756.46
462.04	19768.16
462.22	20280.74
462.40	19927.32
462.59	19812.63
462.77	19480.28
462.95	19580.92
463.13	19580.92
463.32	19225.16
463.50	19316.44
463.68	19428.79
463.86	19391.34
464.05	18789.82
464.23	18658.75
464.41	18279.58
464.59	18181.28
464.78	19765.82
464.96	19077.71
465.14	18972.38
465.32	19192.39
465.50	19908.60
465.69	20250.32
465.87	19847.74
466.05	18719.60
466.23	18127.45
466.41	17479.12
466.60	18672.79
466.78	18490.23
466.96	18785.14
467.14	18668.11
467.32	18965.36
467.51	18937.27
467.69	18181.28
467.87	18544.06
468.05	19414.74
468.23	19157.28
468.41	19126.86
468.60	19082.39
468.78	19119.84
468.96	19077.71
469.14	19433.47
469.32	19594.96
469.50	18675.13
469.69	18473.85
469.87	18436.40
470.05	18532.36
470.23	18382.57
470.41	18731.31
470.59	18455.12
470.77	18927.91
470.95	19421.77
471.14	19552.84
471.32	19665.18
471.50	20549.90
471.68	20910.35
471.86	20917.37
472.04	20945.45
472.22	20905.66
472.40	19756.46
472.58	19660.50
472.77	19431.13
472.95	19859.45
473.13	20531.18
473.31	20140.31
473.49	20107.54
473.67	20299.47
473.85	20692.68
474.03	21596.12
474.21	21621.87
474.39	21535.27
474.57	21680.38
474.75	21575.06
474.93	21422.92
475.12	21156.10
475.30	21034.39
475.48	20533.52
475.66	21446.33
475.84	21003.97
476.02	20594.37
476.20	20535.86
476.38	21226.32
476.56	21970.61
476.74	22188.28
476.92	22089.98
477.10	22150.83
477.28	23487.28
477.46	22824.90
477.64	23026.19
477.82	23311.74
478.00	23700.26
478.18	23358.55
478.36	22876.40
478.54	22883.42
478.72	23260.24
478.90	24519.45
479.08	25034.37
479.26	24453.92
479.44	24758.19
479.62	24140.29
479.80	24367.32
479.98	24561.58
480.16	25228.63
480.34	24350.93
480.52	25146.72
480.70	25619.50
480.88	25266.08
481.06	25881.64
481.24	25392.47
481.41	26146.12
481.59	26984.04
481.77	26192.94
481.95	26342.73
482.13	26232.72
482.31	26649.34
482.49	27211.07
482.67	26867.01
482.85	26923.18
483.03	27487.25
483.21	27648.75
483.39	27213.41
483.57	26396.56
483.74	26099.31
483.92	26710.19
484.10	26972.33
484.28	27412.35
484.46	28058.34
484.64	27410.01
484.82	27555.13
485.00	26675.09
485.18	26586.15
485.35	25303.53
485.53	22663.41
485.71	21057.80
485.89	21575.06
486.07	22656.39
486.25	24615.41
486.43	26267.83
486.61	26532.31
486.78	26153.15
486.96	27482.57
487.14	28070.04
487.32	27531.72
487.50	28807.31
487.68	29773.95
487.85	30115.67
488.03	30576.76
488.21	30471.43
488.39	29247.33
488.57	28615.39
488.75	28840.08
488.92	30263.13
489.10	31646.38
489.28	32205.77
489.46	33188.80
489.64	32781.54
489.81	33001.55
489.99	33289.44
490.17	33853.51
490.35	33392.42
490.53	32648.13
490.70	31892.14
490.88	32304.07
491.06	33015.60
491.24	33111.56
491.41	31288.28
491.59	29940.13
491.77	29741.19
491.95	31452.12
492.13	33027.30
492.30	33687.33
492.48	34686.74
492.66	35019.10
492.84	34579.07
493.01	34836.53
493.19	34045.43
493.37	33940.11
493.54	34110.97
493.72	35639.34
493.90	35583.16
494.08	35871.05
494.25	36437.46
494.43	36353.20
494.61	37132.60
494.79	37322.18
494.96	36840.03
495.14	36175.32
495.32	35541.03
495.49	35211.02
495.67	36474.91
495.85	37940.08
496.02	38195.20
496.20	37200.47
496.38	37106.85
496.55	37691.99
496.73	37666.24
496.91	37794.97
497.09	38932.47
497.26	38850.55
497.44	37392.40
497.62	37223.88
497.79	36346.18
497.97	34951.22
498.14	35962.33
498.32	37977.53
498.50	38183.50
498.67	38223.29
498.85	38930.13
499.03	38761.61
499.20	39234.40
499.38	39840.60
499.56	38712.46
499.73	37947.11
499.91	36301.71
500.08	35639.34
500.26	35618.27
500.44	36327.45
500.61	37148.98
500.79	37275.37
500.97	36041.91
501.14	36002.12
501.32	35555.08
501.49	36526.40
501.67	36751.09
501.84	37076.43
502.02	37933.06
502.20	38099.24
502.37	38749.91
502.55	38328.61
502.72	38815.44
502.90	39756.34
503.07	38969.92
503.25	37642.84
503.43	37120.90
503.60	36673.85
503.78	35676.79
503.95	36718.32
504.13	39012.05
504.30	39400.58
504.48	39033.11
504.65	38426.92
504.83	38480.75
505.01	39255.46
505.18	39365.47
505.36	40060.61
505.53	40617.66
505.71	41530.47
505.88	42209.22
506.06	40952.35
506.23	40418.71
506.41	39634.63
506.58	40278.28
506.76	39515.26
506.93	39449.73
507.11	39309.30
507.28	39241.42
507.46	38920.77
507.63	38653.95
507.81	37553.90
507.98	37991.58
508.16	39175.89
508.33	40301.68
508.50	40388.28
508.68	40638.72
508.85	42021.98
509.03	41263.64
509.20	40914.90
509.38	39005.03
509.55	39480.16
509.73	40018.48
509.90	40088.70
510.08	39150.14
510.25	39735.27
510.42	39042.48
510.60	40318.07
510.77	41221.52
510.95	42237.31
511.12	42007.94
511.30	42808.40
511.47	41610.04
511.64	41383.01
511.82	40634.04
511.99	39744.64
512.17	39651.02
512.34	39117.37
512.51	39529.31
512.69	38766.29
512.86	39447.39
513.04	40409.35
513.21	40266.58
513.38	39171.21
513.56	37390.06
513.73	37361.97
513.90	38565.01
514.08	38302.87
514.25	38888.00
514.43	39086.95
514.60	39023.75
514.77	38967.58
514.95	40566.16
515.12	39784.43
515.29	39496.54
515.47	40367.22
515.64	41394.71
515.81	40570.85
515.99	38885.66
516.16	36488.95
516.33	33759.89
516.51	33479.02
516.68	31828.95
516.85	31594.89
517.03	32615.37
517.20	36856.42
517.37	38857.57
517.54	39594.84
517.72	37572.62
517.89	35260.17
518.06	33802.02
518.24	34342.68
518.41	36046.59
518.58	38990.98
518.75	38948.85
518.93	38466.70
519.10	38597.77
519.27	38747.57
519.45	39941.24
519.62	39831.24
519.79	40552.12
519.96	40306.37
520.14	39707.19
520.31	38337.98
520.48	38747.57
520.65	39374.83
520.83	40500.63
521.00	40870.43
521.17	40470.20
521.34	40739.36
521.52	40863.41
521.69	40175.30
521.86	41427.48
522.03	40713.62
522.20	38998.01
522.38	38518.20
522.55	38628.20
522.72	39150.14
522.89	39093.97
523.07	39501.22
523.24	39697.83
523.41	41392.37
523.58	41060.02
523.75	41256.62
523.92	41862.82
524.10	41415.78
524.27	41563.23
524.44	41518.76
524.61	40849.37
524.78	40243.17
524.96	40374.24
525.13	40187.00
525.30	41366.63
525.47	41324.50
525.64	41593.66
525.81	39192.27
525.98	37479.00
526.16	37172.39
526.33	34815.47
526.50	34457.37
526.67	33923.72
526.84	35941.27
527.01	37696.67
527.18	38569.69
527.36	39878.05
527.53	39908.47
527.70	39796.13
527.87	39363.13
528.04	39903.79
528.21	39765.70
528.38	41811.33
528.55	43180.54
528.72	43210.97
528.89	43168.84
529.07	42246.67
529.24	40201.04
529.41	39667.40
529.58	39639.31
529.75	39964.65
529.92	41053.00
530.09	41713.03
530.26	42075.81
530.43	42895.00
530.60	42504.13
530.77	41741.11
530.94	42181.13
531.11	41394.71
531.28	41006.19
531.46	40835.33
531.63	40275.94
531.80	40584.89
531.97	39470.79
532.14	38167.12
532.31	36664.49
532.48	37483.68
532.65	37839.44
532.82	38078.18
532.99	40346.15
533.16	40739.36
533.33	40336.79
533.50	38639.90
533.67	39489.52
533.84	39679.10
534.01	39873.37
534.18	39728.25
534.35	40832.99
534.52	39597.18
534.69	41050.66
534.86	41001.50
535.03	40313.39
535.20	41865.16
535.37	42277.10
535.54	42155.39
535.71	42024.32
535.88	41305.77
536.05	39777.40
536.22	39842.94
536.38	39824.22
536.55	37734.12
536.72	37982.21
536.89	38373.08
537.06	38387.13
537.23	40685.53
537.40	40814.26
537.57	40818.94
537.74	41188.75
537.91	40947.67
538.08	39695.49
538.25	39360.79
538.42	40217.43
538.59	40175.30
538.75	38354.36
538.92	38820.13
539.09	38679.69
539.26	39215.68
539.43	38569.69
539.60	38251.38
539.77	40154.23
539.94	38539.26
540.11	37193.45
540.28	36699.60
540.44	36531.08
540.61	37631.13
540.78	39374.83
540.95	39564.42
541.12	38745.23
541.29	39115.03
541.46	39033.11
541.62	39597.18
541.79	40364.88
541.96	39431.01
542.13	37883.91
542.30	37975.19
542.47	38162.43
542.63	37811.35
542.80	38155.41
542.97	38731.18
543.14	37691.99
543.31	38314.57
543.48	39524.63
543.64	39784.43
543.81	40294.66
543.98	39931.88
544.15	38632.88
544.32	38223.29
544.48	39461.43
544.65	39955.29
544.82	40065.29
544.99	38616.50
545.16	38642.24
545.32	38218.61
545.49	40442.12
545.66	39145.46
545.83	38417.55
546.00	38298.19
546.16	38274.78
546.33	39115.03
546.50	38377.76
546.67	40170.61
546.83	38447.98
547.00	38457.34
547.17	37670.92
547.34	36699.60
547.50	37429.85
547.67	38515.86
547.84	38249.03
548.00	38731.18
548.17	38850.55
548.34	38445.64
548.51	38396.49
548.67	39428.66
548.84	39835.92
549.01	39934.22
549.18	38927.79
549.34	38146.05
549.51	38785.02
549.68	39145.46
549.84	38916.09
550.01	37940.08
550.18	37940.08
550.34	37645.18
550.51	37874.55
550.68	38398.83
550.84	37977.53
551.01	37408.78
551.18	38499.47
551.34	38796.72
551.51	37872.21
551.68	38768.63
551.84	39328.02
552.01	39220.36
552.18	38396.49
552.34	37965.83
552.51	37532.83
552.68	38005.62
552.84	38824.81
553.01	37867.53
553.18	37476.66
553.34	37813.70
553.51	38433.94
553.67	38707.78
553.84	37621.77
554.01	38012.64
554.17	38197.54
554.34	38263.08
554.51	37261.33
554.67	37404.10
554.84	38185.84
555.00	37951.79
555.17	37879.23
555.33	36980.46
555.50	37848.80
555.67	36954.72
555.83	35674.45
556.00	35594.87
556.16	36271.28
556.33	35625.29
556.50	37078.77
556.66	37383.04
556.83	37469.64
556.99	36704.28
557.16	36142.55
557.32	36666.83
557.49	37275.37
557.65	37331.54
557.82	37364.31
557.98	36575.55
558.15	37521.13
558.32	36208.09
558.48	34345.02
558.65	34340.34
558.81	33565.62
558.98	34277.15
559.14	35672.10
559.31	36346.18
559.47	35360.81
559.64	34045.43
559.80	32931.34
559.97	34548.65
560.13	36580.23
560.30	36308.73
560.46	37109.19
560.63	37837.10
560.79	38733.53
560.96	36252.56
561.12	34918.45
561.29	34352.04
561.45	33897.98
561.61	34136.71
561.78	34565.03
561.94	35351.45
562.11	35241.45
562.27	36334.48
562.44	36018.50
562.60	36278.30
562.77	36428.10
562.93	35938.93
563.10	34965.26
563.26	35112.72
563.42	34998.03
563.59	34387.15
563.75	34284.17
563.92	34335.66
564.08	34883.34
564.24	34593.12
564.41	34604.82
564.57	35576.14
564.74	34824.83
564.90	34330.98
565.07	34452.69
565.23	33591.37
565.39	32732.39
565.56	33364.34
565.72	32701.96
565.88	32362.59
566.05	33804.36
566.21	34565.03
566.38	33638.18
566.54	34550.99
566.70	34768.66
566.87	35318.68
567.03	34560.35
567.19	33942.45
567.36	34630.57
567.52	34017.35
567.68	34366.09
567.85	33013.26
568.01	31952.99
568.17	32849.42
568.34	33797.34
568.50	33539.88
568.66	34679.72
568.83	34239.70
568.99	33591.37
569.15	33886.28
569.32	34239.70
569.48	33565.62
569.64	32659.84
569.81	33249.65
569.97	33230.93
570.13	33230.93
570.30	32765.16
570.46	31969.38
570.62	31583.19
570.78	31346.79
570.95	32285.35
571.11	32957.08
571.27	33195.82
571.43	32875.16
571.60	32734.73
571.76	33156.03
571.92	33404.13
572.09	33158.37
572.25	34078.20
572.41	34553.33
572.57	34913.77
572.74	34494.82
572.90	34033.73
573.06	33701.37
573.22	32376.63
573.38	32222.16
573.55	32650.47
573.71	32201.09
573.87	32318.12
574.03	32704.31
574.20	32818.99
574.36	32781.54
574.52	33574.98
574.68	32095.77
574.84	31044.87
575.01	30909.11
575.17	31887.46
575.33	32048.96
575.49	31246.15
575.65	31630.00
575.82	31894.48
575.98	31496.59
576.14	31248.49
576.30	31159.55
576.46	31419.35
576.62	32648.13
576.79	31967.04
576.95	31630.00
577.11	30658.68
577.27	31126.78
577.43	31653.40
577.59	31285.94
577.75	31318.71
577.92	30085.25
578.08	29788.00
578.24	30803.79
578.40	30068.86
578.56	30944.22
578.72	30806.13
578.88	31119.76
579.04	31087.00
579.21	30857.62
579.37	31417.01
579.53	32304.07
579.69	32348.54
579.85	31262.54
580.01	31126.78
580.17	31014.44
580.33	31337.43
580.49	31454.46
580.65	30419.94
580.82	30579.10
580.98	31299.98
581.14	31988.10
581.30	31225.09
581.46	30773.36
581.62	31040.18
581.78	31138.49
581.94	31461.48
582.10	32257.26
582.26	31454.46
582.42	31281.26
582.58	31215.72
582.74	31716.60
582.90	31662.77
583.06	31672.13
583.22	31218.07
583.38	31686.17
583.54	31192.32
583.70	31297.64
583.86	30850.60
584.02	31262.54
584.18	31365.52
584.34	31470.84
584.50	30553.35
584.66	30452.71
584.82	30064.18
584.98	31084.65
585.14	29940.13
585.30	29872.26
585.46	29565.65
585.62	29610.12
585.78	29661.61
585.94	29813.74
586.10	28790.93
586.26	29383.09
