SpectraSuite Data File
++++++++++++++++++++++++++++++++++++
Date: Mon Oct 07 14:53:28 GMT-05:00 2013
User: price-jones
Dark Spectrum Present: No
Reference Spectrum Present: No
Number of Sampled Component Spectra: 1
Spectrometers: USB2+H05261
Integration Time (usec): 100000 (USB2+H05261)
Spectra Averaged: 1 (USB2+H05261)
Boxcar Smoothing: 0 (USB2+H05261)
Correct for Electrical Dark: No (USB2+H05261)
Strobe/Lamp Enabled: No (USB2+H05261)
Correct for Detector Non-linearity: No (USB2+H05261)
Correct for Stray Light: No (USB2+H05261)
Number of Pixels in Processed Spectrum: 2048
>>>>>Begin Processed Spectral Data<<<<<
365.73	0.00
365.92	0.00
366.12	0.00
366.32	0.00
366.52	0.00
366.72	0.00
366.91	0.00
367.11	0.00
367.31	0.00
367.51	0.00
367.70	0.00
367.90	0.00
368.10	0.00
368.30	0.00
368.49	0.00
368.69	0.00
368.89	0.00
369.09	0.00
369.28	0.00
369.48	0.00
369.68	0.00
369.87	0.00
370.07	0.00
370.27	0.00
370.47	592.16
370.66	3112.91
370.86	3819.75
371.06	4074.87
371.25	4138.07
371.45	3662.94
371.65	3361.01
371.84	3176.11
372.04	3239.30
372.24	3801.03
372.44	3829.12
372.63	3770.60
372.83	3576.34
373.03	3026.31
373.22	2913.97
373.42	3054.40
373.62	3435.91
373.81	3796.35
374.01	3693.37
374.21	3396.12
374.40	3201.85
374.60	3337.60
374.79	3733.15
374.99	4390.84
375.19	4709.16
375.38	4557.02
375.58	4484.47
375.78	4280.84
375.97	4210.62
376.17	4528.94
376.37	4461.06
376.56	4596.81
376.76	4835.55
376.95	5132.79
377.15	5703.89
377.35	5659.42
377.54	5935.60
377.74	6076.03
377.93	6359.24
378.13	5956.66
378.33	5755.38
378.52	5364.51
378.72	5116.41
378.91	5146.84
379.11	4922.15
379.31	4704.48
379.50	4725.54
379.70	4940.87
379.89	5483.88
380.09	5844.32
380.28	6209.44
380.48	6064.33
380.68	5877.09
380.87	5790.49
381.07	5563.45
381.26	4997.04
381.46	4727.88
381.65	4596.81
381.85	4489.15
382.04	4191.90
382.24	4025.72
382.43	3756.56
382.63	3616.13
382.83	3630.17
383.02	3695.71
383.22	3730.81
383.41	3569.32
383.61	4025.72
383.80	4451.70
384.00	5135.14
384.19	5886.45
384.39	6043.26
384.58	5921.56
384.78	6026.88
384.97	5785.80
385.17	5416.00
385.36	5336.42
385.56	5046.20
385.75	5132.79
385.95	5706.23
386.14	6129.86
386.34	6387.32
386.53	6026.88
386.72	5523.66
386.92	5724.95
387.11	5893.47
387.31	6265.61
387.50	6071.35
387.70	5879.43
387.89	5841.98
388.09	5998.79
388.28	5937.94
388.48	5951.98
388.67	6483.28
388.86	7049.69
389.06	7686.32
389.25	8028.04
389.45	8187.19
389.64	8105.28
389.84	8039.74
390.03	7913.35
390.22	7805.69
390.42	8035.06
390.61	8561.68
390.81	9142.13
391.00	9596.20
391.19	9310.65
391.39	9160.86
391.58	8454.02
391.78	7969.52
391.97	7726.11
392.16	7279.07
392.36	6590.95
392.55	5387.91
392.75	4341.69
392.94	3522.51
393.13	3295.47
393.33	3899.33
393.52	5048.54
393.71	6214.12
393.91	7068.42
394.10	7805.69
394.29	8374.44
394.49	9104.68
394.68	9731.95
394.88	9687.48
395.07	10338.15
395.26	9956.64
395.46	9870.04
395.65	9275.54
395.84	8245.71
396.04	6916.28
396.23	5678.14
396.42	4486.81
396.62	4404.89
396.81	5001.72
397.00	6539.46
397.19	8224.64
397.39	10160.27
397.58	11239.25
397.77	11623.10
397.97	12468.03
398.16	12442.29
398.35	13015.72
398.55	13146.79
398.74	13575.11
398.93	13891.08
399.12	13935.55
399.32	13422.97
399.51	13626.60
399.70	14637.71
399.90	14328.76
400.09	14256.20
400.28	14153.22
400.47	14424.72
400.67	15140.93
400.86	15456.90
401.05	15484.98
401.24	15742.44
401.44	15669.89
401.63	15983.52
401.82	15782.23
402.01	15655.84
402.21	16109.91
402.40	16175.44
402.59	15597.33
402.78	14902.19
402.97	14391.95
403.17	15112.84
403.36	15824.36
403.55	16709.08
403.74	17212.30
403.93	16095.86
404.13	14710.27
404.32	14506.64
404.51	15227.53
404.70	16578.01
404.89	16512.48
405.09	16187.14
405.28	15672.23
405.47	15761.17
405.66	15630.10
405.85	15449.88
406.05	14773.46
406.24	15234.55
406.43	15859.47
406.62	16348.64
406.81	16512.48
407.00	15920.32
407.20	15405.41
407.39	15236.89
407.58	16444.60
407.77	17067.19
407.96	17469.76
408.15	17455.72
408.34	17593.81
408.54	18412.99
408.73	18834.29
408.92	18235.11
409.11	17928.50
409.30	17025.06
409.49	15920.32
409.68	14923.26
409.87	14438.76
410.07	15520.09
410.26	16390.77
410.45	17788.07
410.64	18125.11
410.83	18642.37
411.02	19112.81
411.21	19751.78
411.40	19398.36
411.59	19672.20
411.78	19297.72
411.98	19323.46
412.17	19711.99
412.36	19337.51
412.55	19419.42
412.74	18958.34
412.93	18689.18
413.12	18932.59
413.31	20194.14
413.50	20496.07
413.69	21111.63
413.88	20107.54
414.07	19489.64
414.26	19878.17
414.45	20357.98
414.64	20669.27
414.83	20734.81
415.02	20442.24
415.22	20217.55
415.41	20908.01
415.60	21465.05
415.79	22312.33
415.98	22600.21
416.17	22604.89
416.36	22309.99
416.55	21596.12
416.74	21034.39
416.93	20287.76
417.12	20491.39
417.31	20793.32
417.50	21305.90
417.69	21656.98
417.88	21928.48
418.07	21420.58
418.26	21308.24
418.45	21305.90
418.64	22075.93
418.83	22810.86
419.02	22630.64
419.21	22298.28
419.39	21106.95
419.58	20306.49
419.77	20336.91
419.96	21308.24
420.15	22579.15
420.34	22967.68
420.53	23772.82
420.72	24687.97
420.91	24390.72
421.10	23803.25
421.29	23864.10
421.48	22754.69
421.67	24219.86
421.86	23101.09
422.05	21923.80
422.24	19274.31
422.43	19398.36
422.61	20893.96
422.80	23187.69
422.99	23019.17
423.18	22483.19
423.37	21907.41
423.56	21926.14
423.75	22305.31
423.94	23096.41
424.13	21635.91
424.32	21769.32
424.50	21652.30
424.69	21397.18
424.88	21633.57
425.07	21563.36
425.26	21813.79
425.45	21446.33
425.64	20936.09
425.83	21212.28
426.01	22555.74
426.20	22944.27
426.39	22595.53
426.58	21067.16
426.77	19290.70
426.96	18211.71
427.15	19248.57
427.33	20905.66
427.52	21961.25
427.71	21811.45
427.90	21600.80
428.09	21528.25
428.28	20645.87
428.46	20236.27
428.65	19964.77
428.84	20559.27
429.03	20664.59
429.22	19714.33
429.40	18588.53
429.59	16847.18
429.78	14892.83
429.97	15098.80
430.16	15452.22
430.34	15321.15
430.53	15012.20
430.72	15452.22
430.91	17233.36
431.10	20166.06
431.28	23875.80
431.47	25663.97
431.66	26368.48
431.85	24023.26
432.03	21879.33
432.22	20807.36
432.41	21486.12
432.60	24095.82
432.79	25191.19
432.97	25858.24
433.16	24999.26
433.35	23173.64
433.54	20449.26
433.72	19433.47
433.91	20116.90
434.10	22246.79
434.28	24046.66
434.47	25497.80
434.66	24734.78
434.85	23836.02
435.03	24194.12
435.22	24870.53
435.41	26066.55
435.59	26075.91
435.78	26492.52
435.97	27349.16
436.16	27283.62
436.34	27271.92
436.53	26029.10
436.72	26843.60
436.90	25247.36
437.09	24751.17
437.28	24430.51
437.46	25324.60
437.65	25214.59
437.84	23594.94
438.02	21750.60
438.21	21261.43
438.40	22991.08
438.58	24842.45
438.77	25415.88
438.96	25589.08
439.14	26426.99
439.33	27197.02
439.52	27821.95
439.70	27276.60
439.89	26487.84
440.08	25738.87
440.26	25713.13
440.45	26658.70
440.63	28243.24
440.82	29738.85
441.01	29392.45
441.19	29308.19
441.38	29043.71
441.57	30991.03
441.75	31405.31
441.94	31353.82
442.12	31180.62
442.31	31964.70
442.50	31620.64
442.68	30824.86
442.87	30803.79
443.05	30274.83
443.24	30679.74
443.43	31358.50
443.61	32041.93
443.80	33083.47
443.98	30614.21
444.17	30614.21
444.35	32180.03
444.54	33060.07
444.73	32058.32
444.91	31321.05
445.10	29778.64
445.28	28884.55
445.47	27999.83
445.65	28271.33
445.84	29404.15
446.02	30258.45
446.21	30614.21
446.39	30916.14
446.58	31428.71
446.77	31241.47
446.95	31676.81
447.14	32814.31
447.32	33488.38
447.51	32655.15
447.69	31431.05
447.88	31260.20
448.06	31421.69
448.25	32144.92
448.43	32641.11
448.62	31573.83
448.80	31508.29
448.99	32060.66
449.17	32098.11
449.36	32156.62
449.54	33200.50
449.73	33467.32
449.91	34082.88
450.10	35250.81
450.28	35845.30
450.46	35302.30
450.65	35089.31
450.83	34881.00
451.02	34279.49
451.20	34274.80
451.39	34265.44
451.57	34071.18
451.76	34024.37
451.94	33701.37
452.13	33294.12
452.31	31899.16
452.49	30181.21
452.68	30979.33
452.86	30799.11
453.05	31026.14
453.23	32311.10
453.42	32849.42
453.60	33628.82
453.78	33916.70
453.97	33104.54
454.15	33813.72
454.34	32545.15
454.52	32964.10
454.70	32271.31
454.89	32907.93
455.07	32868.14
455.26	33266.03
455.44	34735.89
455.62	34918.45
455.81	35271.87
455.99	34665.67
456.17	34707.80
456.36	34885.68
456.54	36091.06
456.73	35634.66
456.91	36488.95
457.09	36566.19
457.28	36528.74
457.46	35842.96
457.64	35393.58
457.83	34438.64
458.01	33354.97
458.19	34480.77
458.38	34850.58
458.56	35744.66
458.74	35744.66
458.93	34920.79
459.11	34932.50
459.29	34801.43
459.48	35096.33
459.66	34733.55
459.84	35538.69
460.03	35463.80
460.21	35620.61
460.39	36081.70
460.57	36282.98
460.76	37076.43
460.94	36577.89
461.12	36158.94
461.31	36313.41
461.49	36655.13
461.67	36355.54
461.85	37645.18
462.04	37153.66
462.22	38178.82
462.40	37340.91
462.59	37443.89
462.77	37366.65
462.95	37425.17
463.13	36982.80
463.32	36650.45
463.50	35990.42
463.68	36470.23
463.86	36584.91
464.05	36261.92
464.23	34778.02
464.41	35351.45
464.59	34611.84
464.78	36439.80
464.96	35962.33
465.14	35728.28
465.32	36655.13
465.50	37528.15
465.69	37308.14
465.87	37130.26
466.05	36201.07
466.23	34522.90
466.41	33947.13
466.60	34312.25
466.78	34738.23
466.96	35255.49
467.14	36002.12
467.32	36720.66
467.51	36409.37
467.69	34752.27
467.87	35716.58
468.05	36570.87
468.23	36039.57
468.41	36247.88
468.60	36376.61
468.78	36959.40
468.96	36318.09
469.14	36865.78
469.32	37020.25
469.50	35690.83
469.69	35697.85
469.87	34876.32
470.05	35274.21
470.23	34962.92
470.41	35398.26
470.59	35491.88
470.77	35969.35
470.95	37027.28
471.14	36928.97
471.32	36952.38
471.50	39037.80
471.68	38885.66
471.86	39335.04
472.04	39641.65
472.22	40320.41
472.40	37638.15
472.58	37600.71
472.77	37015.57
472.95	37984.55
473.13	38483.09
473.31	37806.67
473.49	38316.91
473.67	38574.37
473.85	38845.87
474.03	39948.26
474.21	39831.24
474.39	40730.00
474.57	40369.56
474.75	40526.38
474.93	39948.26
475.12	39842.94
475.30	39419.30
475.48	39786.77
475.66	39978.69
475.84	39716.55
476.02	39735.27
476.20	39215.68
476.38	40027.84
476.56	40781.49
476.74	41165.34
476.92	41373.65
477.10	41902.61
477.28	42918.40
477.46	43189.91
477.64	43648.65
477.82	43285.87
478.00	43784.40
478.18	43583.12
478.36	43344.38
478.54	43012.02
478.72	43566.73
478.90	44657.42
479.08	45785.56
479.26	46110.89
479.44	45574.91
479.62	45815.99
479.80	45661.51
479.98	45677.90
480.16	45984.51
480.34	45698.96
480.52	46106.21
480.70	46153.02
480.88	46019.61
481.06	47185.20
481.24	47337.33
481.41	48301.64
481.59	48605.91
481.77	48500.58
481.95	48065.24
482.13	47863.96
482.31	47805.44
482.49	48727.61
482.67	48409.30
482.85	48900.81
483.03	49081.03
483.21	49490.63
483.39	49727.02
483.57	48825.92
483.74	48598.88
483.92	48811.87
484.10	49256.57
484.28	49801.92
484.46	50185.77
484.64	50511.10
484.82	49757.45
485.00	49432.11
485.18	48591.86
485.35	47526.92
485.53	44175.27
485.71	40772.13
485.89	39704.85
486.07	42274.76
486.25	45598.32
486.43	47255.42
486.61	48598.88
486.78	48196.31
486.96	48198.65
487.14	50321.52
487.32	50843.46
487.50	51531.57
487.68	52381.19
487.85	53062.29
488.03	52844.62
488.21	52615.24
488.39	51894.36
488.57	51351.35
488.75	50955.80
488.92	51938.83
489.10	54005.52
489.28	55145.36
489.46	55793.69
489.64	55599.43
489.81	55936.46
489.99	55332.60
490.17	55423.89
490.35	55779.65
490.53	55365.37
490.70	55161.75
490.88	54948.76
491.06	55798.37
491.24	55781.99
491.41	54993.23
491.59	53530.39
491.77	52561.41
491.95	53415.71
492.13	54625.76
492.30	55739.86
492.48	56816.50
492.66	57411.00
492.84	57029.49
493.01	56706.50
493.19	56376.48
493.37	56126.05
493.54	55742.20
493.72	56453.72
493.90	57420.36
494.08	57951.66
494.25	58436.16
494.43	58520.41
494.61	58899.58
494.79	58922.99
494.96	58700.64
495.14	58129.54
495.32	57338.44
495.49	56655.01
495.67	57832.30
495.85	58644.46
496.02	59253.00
496.20	59154.70
496.38	58541.48
496.55	58426.79
496.73	59065.76
496.91	59117.25
497.09	59597.06
497.26	59859.20
497.44	59374.71
497.62	58801.28
497.79	58141.25
497.97	56968.64
498.14	57345.47
498.32	58178.70
498.50	58899.58
498.67	59613.44
498.85	59505.78
499.03	59531.53
499.20	59831.11
499.38	59868.56
499.56	59515.14
499.73	59253.00
499.91	58773.19
500.08	58527.44
500.26	57612.29
500.44	58005.50
500.61	58887.88
500.79	58712.34
500.97	58108.48
501.14	58351.90
501.32	57982.09
501.49	57944.64
501.67	58384.66
501.84	58623.40
502.02	58960.44
502.20	59304.49
502.37	59416.84
502.55	59559.61
502.72	59917.71
502.90	60399.86
503.07	59952.82
503.25	59786.64
503.43	59112.57
503.60	58433.81
503.78	57811.23
503.95	58335.51
504.13	59529.19
504.30	60399.86
504.48	60224.32
504.65	59683.66
504.83	59636.85
505.01	60231.35
505.18	60617.53
505.36	61106.71
505.53	61212.03
505.71	61336.08
505.88	61640.35
506.06	61017.77
506.23	60699.45
506.41	60273.48
506.58	60519.23
506.76	60650.30
506.93	60392.84
507.11	60095.60
507.28	60411.57
507.46	59955.16
507.63	59522.16
507.81	59025.97
507.98	59655.57
508.16	60076.87
508.33	60552.00
508.50	60839.89
508.68	61254.16
508.85	61759.72
509.03	61523.32
509.20	61439.06
509.38	60762.65
509.55	60067.51
509.73	60083.89
509.90	60692.43
510.08	60949.89
510.25	60863.29
510.42	60605.83
510.60	60643.28
510.77	60678.39
510.95	61247.14
511.12	61483.53
511.30	61869.72
511.47	61993.77
511.64	61848.66
511.82	61565.45
511.99	60926.49
512.17	60535.62
512.34	60226.66
512.51	60346.03
512.69	60327.31
512.86	60465.40
513.04	61027.13
513.21	60980.32
513.38	60664.35
513.56	60210.28
513.73	59648.55
513.90	59723.45
514.08	59796.01
514.25	60097.94
514.43	60495.83
514.60	60420.93
514.77	60750.94
514.95	60626.90
515.12	60563.70
515.29	60884.36
515.47	61279.91
515.64	61427.36
515.81	61052.87
515.99	60502.85
516.16	59339.60
516.33	57188.65
516.51	55655.60
516.68	55033.02
516.85	54911.31
517.03	54983.86
517.20	57560.79
517.37	59983.25
517.54	60514.55
517.72	60252.41
517.89	57874.43
518.06	55711.77
518.24	56203.28
518.41	58024.22
518.58	59306.83
518.75	59594.72
518.93	59718.77
519.10	59475.35
519.27	59950.48
519.45	60207.94
519.62	60889.04
519.79	61083.30
519.96	61113.73
520.14	60519.23
520.31	59681.32
520.48	60048.78
520.65	60200.92
520.83	61125.43
521.00	61420.34
521.17	61073.94
521.34	60683.07
521.52	60996.70
521.69	61483.53
521.86	61937.60
522.03	61614.60
522.20	60427.95
522.38	59498.76
522.55	59370.03
522.72	60133.04
522.89	60142.41
523.07	60502.85
523.24	60755.63
523.41	61656.73
523.58	61740.99
523.75	62188.03
523.92	62066.33
524.10	61813.55
524.27	61998.45
524.44	61827.59
524.61	61635.67
524.78	61394.59
524.96	61434.38
525.13	61300.97
525.30	61712.91
525.47	62232.50
525.64	61946.96
525.81	61186.28
525.98	59793.67
526.16	58815.32
526.33	58120.18
526.50	57719.95
526.67	57450.79
526.84	58073.37
527.01	58955.75
527.18	59842.82
527.36	60678.39
527.53	61427.36
527.70	61712.91
527.87	61064.58
528.04	60814.14
528.21	61008.40
528.38	61673.12
528.55	62157.61
528.72	62391.66
528.89	62731.04
529.07	62302.72
529.24	61647.37
529.41	61066.92
529.58	60547.32
529.75	60666.69
529.92	61069.26
530.09	61429.70
530.26	62007.81
530.43	62127.18
530.60	62195.06
530.77	62529.75
530.94	62663.16
531.11	62178.67
531.28	61909.51
531.46	61586.52
531.63	61879.08
531.80	61726.95
531.97	61286.93
532.14	60671.37
532.31	59503.44
532.48	59171.08
532.65	59126.61
532.82	59613.44
532.99	60720.52
533.16	61139.47
533.33	61776.10
533.50	61565.45
533.67	60954.57
533.84	60657.32
534.01	60755.63
534.18	60947.55
534.35	61179.26
534.52	61066.92
534.69	61392.25
534.86	61443.74
535.03	61743.33
535.20	62012.49
535.37	62478.26
535.54	62562.52
535.71	62012.49
535.88	61848.66
536.05	61237.78
536.22	60842.23
536.38	60687.75
536.55	60243.05
536.72	59688.34
536.89	59561.95
537.06	60463.06
537.23	61410.98
537.40	61268.20
537.57	61296.29
537.74	61392.25
537.91	61247.14
538.08	61188.63
538.25	61141.81
538.42	61427.36
538.59	61298.63
538.75	60666.69
538.92	60254.75
539.09	60329.65
539.26	60186.88
539.43	59987.93
539.60	60058.15
539.77	60285.18
539.94	60055.81
540.11	59533.87
540.28	58845.75
540.44	58967.46
540.61	59098.53
540.78	59435.56
540.95	59512.80
541.12	60196.24
541.29	60432.63
541.46	60743.92
541.62	60907.76
541.79	60671.37
541.96	59849.84
542.13	60027.72
542.30	60371.78
542.47	60608.17
542.63	60224.32
542.80	59969.21
542.97	60238.37
543.14	60095.60
543.31	60109.64
543.48	60645.62
543.64	61317.35
543.81	61616.94
543.98	61293.95
544.15	60755.63
544.32	60229.01
544.48	60238.37
544.65	60683.07
544.82	61069.26
544.99	60636.26
545.16	60519.23
545.32	60233.69
545.49	60774.35
545.66	61226.07
545.83	60851.59
546.00	60580.09
546.16	60189.22
546.33	60357.74
546.50	60409.23
546.67	60692.43
546.83	60186.88
547.00	60238.37
547.17	59641.53
547.34	59229.60
547.50	59227.26
547.67	59657.91
547.84	59671.96
548.00	59915.37
548.17	60472.42
548.34	60322.63
548.51	60233.69
548.67	60409.23
548.84	60472.42
549.01	60229.01
549.18	60292.20
549.34	60114.32
549.51	60165.81
549.68	60236.03
549.84	59920.05
550.01	59861.54
550.18	59573.66
550.34	59749.20
550.51	59927.08
550.68	60076.87
550.84	59578.34
551.01	59564.29
551.18	59428.54
551.34	59730.47
551.51	60149.43
551.68	60399.86
551.84	60397.52
552.01	60126.02
552.18	60041.76
552.34	59323.22
552.51	58986.18
552.68	58810.64
552.84	59475.35
553.01	59681.32
553.18	59409.82
553.34	59590.04
553.51	59725.79
553.67	60030.06
553.84	60280.50
554.01	59980.91
554.17	59674.30
554.34	60069.85
554.51	60037.08
554.67	60252.41
554.84	60266.45
555.00	59777.28
555.17	59533.87
555.33	59442.59
555.50	59421.52
555.67	59496.42
555.83	59330.24
556.00	58932.35
556.16	59250.66
556.33	58644.46
556.50	58656.17
556.66	58595.31
556.83	58518.07
556.99	58681.91
557.16	58674.89
557.32	58911.28
557.49	59210.87
557.65	59100.87
557.82	59096.19
557.98	58834.05
558.15	58452.54
558.32	57776.12
558.48	56783.74
558.65	57209.71
558.81	57621.65
558.98	57736.34
559.14	58059.33
559.31	57804.21
559.47	58181.04
559.64	57829.96
559.80	57645.05
559.97	57298.65
560.13	57986.77
560.30	58541.48
560.46	59107.89
560.63	59381.73
560.79	59423.86
560.96	59025.97
561.12	57855.70
561.29	57251.84
561.45	57228.44
561.61	57797.19
561.78	58143.59
561.94	58052.31
562.11	58047.63
562.27	58061.67
562.44	58176.36
562.60	58361.26
562.77	58775.53
562.93	58628.08
563.10	58504.03
563.26	57869.75
563.42	57958.69
563.59	57666.12
563.75	57813.57
563.92	57972.73
564.08	57631.01
564.24	58099.12
564.41	58035.92
564.57	57855.70
564.74	57865.06
564.90	57542.07
565.07	57593.56
565.23	56931.19
565.39	56788.42
565.56	56552.02
565.72	56226.69
565.88	56722.88
566.05	56823.53
566.21	57078.64
566.38	57233.12
566.54	57207.37
566.70	57354.83
566.87	57914.22
567.03	57799.53
567.19	58052.31
567.36	57542.07
567.52	57675.48
567.68	57373.55
567.85	56741.61
568.01	56334.35
568.17	55992.64
568.34	56200.94
568.50	56023.06
568.66	56114.34
568.83	56601.18
568.99	56547.34
569.15	56666.71
569.32	56505.21
569.48	56528.62
569.64	56252.44
569.81	55920.08
569.97	55791.35
570.13	56072.21
570.30	55379.42
570.46	55217.92
570.62	54607.04
570.78	54333.20
570.95	54782.58
571.11	55473.04
571.27	55746.88
571.43	55749.22
571.60	55887.31
571.76	56364.78
571.92	56435.00
572.09	56573.09
572.25	56577.77
572.41	56420.95
572.57	56364.78
572.74	56399.89
572.90	55894.33
573.06	55936.46
573.22	56184.56
573.38	56151.79
573.55	56032.42
573.71	56193.92
573.87	56163.50
574.03	55758.58
574.20	55868.59
574.36	55587.72
574.52	55648.58
574.68	55318.56
574.84	54784.92
575.01	54450.22
575.17	54232.55
575.33	54773.22
575.49	55210.90
575.65	55290.48
575.82	55033.02
575.98	54747.47
576.14	55042.38
576.30	55290.48
576.46	55412.18
576.62	55238.98
576.79	55269.41
576.95	54726.41
577.11	54777.90
577.27	54939.39
577.43	54986.21
577.59	54614.06
577.75	54419.80
577.92	53851.05
578.08	53647.42
578.24	53743.38
578.40	53942.33
578.56	54260.64
578.72	54401.07
578.88	54468.95
579.04	54490.01
579.21	54550.87
579.37	54782.58
579.53	54745.13
579.69	54443.20
579.85	54782.58
580.01	54583.63
580.17	54351.92
580.33	53972.75
580.49	54218.51
580.65	54724.07
580.82	54541.50
580.98	54532.14
581.14	54543.84
581.30	54607.04
581.46	54508.74
581.62	54784.92
581.78	54576.61
581.94	54843.43
582.10	54667.89
582.26	54794.28
582.42	54703.00
582.58	54972.16
582.74	54534.48
582.90	54740.45
583.06	54873.86
583.22	54646.83
583.38	54309.79
583.54	54293.41
583.70	54337.88
583.86	54424.48
584.02	53972.75
584.18	54529.80
584.34	54202.13
584.50	54277.02
584.66	53958.71
584.82	53776.15
584.98	53619.33
585.14	53104.41
