SpectraSuite Data File
++++++++++++++++++++++++++++++++++++
Date: Mon Oct 07 14:54:57 GMT-05:00 2013
User: price-jones
Dark Spectrum Present: No
Reference Spectrum Present: No
Number of Sampled Component Spectra: 1
Spectrometers: USB2+H05261
Integration Time (usec): 10000 (USB2+H05261)
Spectra Averaged: 1 (USB2+H05261)
Boxcar Smoothing: 0 (USB2+H05261)
Correct for Electrical Dark: No (USB2+H05261)
Strobe/Lamp Enabled: No (USB2+H05261)
Correct for Detector Non-linearity: No (USB2+H05261)
Correct for Stray Light: No (USB2+H05261)
Number of Pixels in Processed Spectrum: 2048
>>>>>Begin Processed Spectral Data<<<<<
365.73	0.00
365.92	0.00
366.12	0.00
366.32	0.00
366.52	0.00
366.72	0.00
366.91	0.00
367.11	0.00
367.31	0.00
367.51	0.00
367.70	0.00
367.90	0.00
368.10	0.00
368.30	0.00
368.49	0.00
368.69	0.00
368.89	0.00
369.09	0.00
369.28	0.00
369.48	0.00
369.68	0.00
369.87	0.00
370.07	0.00
370.27	0.00
370.47	367.46
370.66	2593.31
370.86	3178.45
371.06	3339.94
371.25	3309.52
371.45	3066.10
371.65	2633.10
371.84	2661.19
372.04	2712.68
372.24	3000.57
372.44	3157.38
372.63	3026.31
372.83	2700.98
373.03	2420.11
373.22	2340.54
373.42	2532.46
373.62	3077.80
373.81	3098.87
374.01	3033.33
374.21	2710.34
374.40	2574.59
374.60	2813.32
374.79	3253.34
374.99	3716.77
375.19	3796.35
375.38	3845.50
375.58	3571.66
375.78	3475.70
375.97	3632.51
376.17	3805.71
376.37	3756.56
376.56	3850.18
376.76	3953.16
376.95	4393.19
377.15	4697.46
377.35	4720.86
377.54	4875.34
377.74	5226.42
377.93	5036.83
378.13	4770.01
378.33	4587.45
378.52	4329.99
378.72	4306.59
378.91	4107.64
379.11	3927.42
379.31	3735.50
379.50	3894.65
379.70	4070.19
379.89	4479.79
380.09	4985.34
380.28	5235.78
380.48	5018.11
380.68	4999.38
380.87	4809.80
381.07	4243.39
381.26	3983.59
381.46	3861.88
381.65	3639.53
381.85	3648.90
382.04	3197.17
382.24	3124.62
382.43	3063.76
382.63	2951.42
382.83	3052.06
383.02	2935.03
383.22	2993.55
383.41	3148.02
383.61	3391.44
383.80	3836.14
384.00	4430.63
384.19	4840.23
384.39	5036.83
384.58	4873.00
384.78	4919.81
384.97	4674.05
385.17	4449.36
385.36	4290.20
385.56	4215.30
385.75	4454.04
385.95	4947.89
386.14	5130.45
386.34	5163.22
386.53	4816.82
386.72	4521.92
386.92	4725.54
387.11	5097.69
387.31	5186.63
387.50	4954.91
387.70	4840.23
387.89	4854.27
388.09	5167.90
388.28	4887.04
388.48	5067.26
388.67	5650.05
388.86	6141.57
389.06	6356.90
389.25	6612.01
389.45	6832.02
389.64	6862.45
389.84	6684.57
390.03	6490.31
390.22	6487.96
390.42	6949.05
390.61	7529.50
390.81	7943.78
391.00	7871.22
391.19	7770.58
391.39	7454.61
391.58	6867.13
391.78	6511.37
391.97	6415.41
392.16	5916.87
392.36	5387.91
392.55	4138.07
392.75	3232.28
392.94	2815.66
393.13	2935.03
393.33	3597.40
393.52	4655.33
393.71	5514.30
393.91	6289.02
394.10	6600.31
394.29	7164.38
394.49	7880.58
394.68	8287.84
394.88	8252.73
395.07	8519.55
395.26	8716.16
395.46	8063.15
395.65	7414.82
395.84	6267.95
396.04	5383.23
396.23	4278.50
396.42	3730.81
396.62	3941.46
396.81	4739.58
397.00	6033.90
397.19	7555.25
397.39	8781.69
397.58	9799.82
397.77	10029.20
397.97	10607.31
398.16	10745.40
398.35	11005.20
398.55	11375.00
398.74	11859.49
398.93	11885.24
399.12	11770.55
399.32	11269.68
399.51	12210.57
399.70	12659.96
399.90	12250.36
400.09	12159.08
400.28	12243.34
400.47	12327.60
400.67	13174.88
400.86	13336.37
401.05	13238.07
401.24	13532.98
401.44	13432.33
401.63	13394.89
401.82	13767.03
402.01	13734.26
402.21	13930.87
402.40	13717.88
402.59	13348.08
402.78	12784.01
402.97	12397.82
403.17	13158.49
403.36	14019.81
403.55	14078.32
403.74	14532.39
403.93	13509.57
404.13	12486.76
404.32	12760.60
404.51	13387.86
404.70	14441.11
404.89	13848.95
405.09	14015.13
405.28	13570.43
405.47	13537.66
405.66	13476.80
405.85	13104.66
406.05	12704.43
406.24	13350.42
406.43	13870.01
406.62	14178.97
406.81	14073.64
407.00	13554.04
407.20	13312.97
407.39	13727.24
407.58	14434.08
407.77	14878.79
407.96	14993.47
408.15	15421.79
408.34	15627.76
408.54	16489.07
408.73	16133.31
408.92	15669.89
409.11	15323.49
409.30	14338.12
409.49	13369.14
409.68	13055.51
409.87	12931.46
410.07	14190.67
410.26	14775.80
410.45	15344.55
410.64	15623.08
410.83	16339.28
411.02	16498.44
411.21	17294.22
411.40	16814.41
411.59	16809.73
411.78	16805.05
411.98	16901.01
412.17	16961.86
412.36	16634.19
412.55	16463.33
412.74	15999.90
412.93	15894.58
413.12	16760.58
413.31	18045.53
413.50	18195.32
413.69	18256.18
413.88	17130.38
414.07	17139.74
414.26	17652.32
414.45	17987.02
414.64	17977.65
414.83	17893.40
415.02	17963.61
415.22	17888.71
415.41	18562.79
415.60	19269.63
415.79	19836.04
415.98	19924.98
416.17	19534.11
416.36	19491.98
416.55	19176.01
416.74	18506.62
416.93	17888.71
417.12	17909.78
417.31	18324.05
417.50	18796.84
417.69	19133.88
417.88	19190.05
418.07	18972.38
418.26	18607.26
418.45	19133.88
418.64	19861.79
418.83	20327.55
419.02	20063.07
419.21	19461.55
419.39	19023.87
419.58	17830.20
419.77	18284.26
419.96	19089.41
420.15	19969.45
420.34	20800.34
420.53	21331.64
420.72	21820.81
420.91	21640.59
421.10	20758.21
421.29	20919.71
421.48	20512.46
421.67	21394.84
421.86	20367.34
422.05	18572.15
422.24	16985.27
422.43	17563.38
422.61	19506.02
422.80	20552.24
422.99	20142.65
423.18	19695.61
423.37	19777.53
423.56	19822.00
423.75	20034.99
423.94	20638.84
424.13	19632.41
424.32	19183.03
424.50	19112.81
424.69	19552.84
424.88	19545.81
425.07	19262.61
425.26	19506.02
425.45	18740.67
425.64	18675.13
425.83	19431.13
426.01	20463.30
426.20	20439.90
426.39	19967.11
426.58	18202.35
426.77	17149.11
426.96	16978.25
427.15	18078.30
427.33	19398.36
427.52	19396.02
427.71	19573.90
427.90	19154.94
428.09	19208.78
428.28	18328.74
428.46	17827.86
428.65	18047.87
428.84	18665.77
429.03	18640.03
429.22	17263.79
429.40	16407.16
429.59	15124.54
429.78	13579.79
429.97	13696.82
430.16	13624.26
430.34	13156.15
430.53	13614.90
430.72	14473.87
430.91	16758.24
431.10	19215.80
431.28	21916.78
431.47	22885.76
431.66	22852.99
431.85	20746.51
432.03	18803.86
432.22	19257.93
432.41	20404.79
432.60	22412.97
432.79	23302.37
432.97	23330.46
433.16	22279.56
433.35	20100.52
433.54	17987.02
433.72	17296.56
433.91	18789.82
434.10	20868.22
434.28	22040.82
434.47	23178.33
434.66	22305.31
434.85	21865.28
435.03	21912.10
435.22	22307.65
435.41	23688.56
435.59	23988.15
435.78	24243.27
435.97	24741.80
436.16	24678.61
436.34	24112.20
436.53	23763.46
436.72	23475.57
436.90	22518.29
437.09	23241.52
437.28	22462.12
437.46	23157.26
437.65	22632.98
437.84	20978.22
438.02	19999.88
438.21	20503.09
438.40	21163.12
438.58	22642.34
438.77	23283.65
438.96	23548.13
439.14	24671.59
439.33	25340.98
439.52	25376.09
439.70	24276.04
439.89	23896.87
440.08	23946.02
440.26	23707.29
440.45	24893.94
440.63	26387.20
440.82	27763.43
441.01	26553.38
441.19	26396.56
441.38	26948.93
441.57	28107.49
441.75	28016.21
441.94	28404.74
442.12	28318.14
442.31	29385.43
442.50	29312.87
442.68	28278.35
442.87	27978.76
443.05	27433.42
443.24	29060.09
443.43	29085.84
443.61	28870.51
443.80	29432.24
443.98	28528.79
444.17	28496.02
444.35	29811.40
444.54	30043.12
444.73	29661.61
444.91	27864.08
445.10	26609.55
445.28	26391.88
445.47	26377.84
445.65	26286.56
445.84	26960.63
446.02	27197.02
446.21	28402.40
446.39	28692.63
446.58	28907.96
446.77	29675.65
446.95	29551.60
447.14	30328.66
447.32	30754.64
447.51	30075.88
447.69	28795.61
447.88	28865.83
448.06	29495.43
448.25	29780.98
448.43	29392.45
448.62	29085.84
448.80	28753.48
448.99	28669.22
449.17	29813.74
449.36	30148.44
449.54	30937.20
449.73	31583.19
449.91	31828.95
450.10	32905.59
450.28	32816.65
450.46	32903.25
450.65	32863.46
450.83	32463.23
451.02	31620.64
451.20	31672.13
451.39	31887.46
451.57	31861.71
451.76	31225.09
451.94	30799.11
452.13	30183.55
452.31	29006.26
452.49	28060.68
452.68	28533.47
452.86	28617.73
453.05	28849.44
453.23	29933.11
453.42	31384.24
453.60	31728.30
453.78	31857.03
453.97	30609.53
454.15	31424.03
454.34	30108.65
454.52	30820.17
454.70	30307.60
454.89	30239.72
455.07	29895.66
455.26	31213.38
455.44	32173.00
455.62	32327.48
455.81	32357.91
455.99	31812.56
456.17	31845.33
456.36	32528.77
456.54	32975.81
456.73	32512.38
456.91	33516.47
457.09	34150.76
457.28	34380.13
457.46	33450.94
457.64	32493.66
457.83	32400.04
458.01	31157.21
458.19	32357.91
458.38	32505.36
458.56	33078.79
458.74	32870.48
458.93	32044.27
459.11	32004.49
459.29	31845.33
459.48	32896.23
459.66	32142.58
459.84	32697.28
460.03	33450.94
460.21	33308.16
460.39	33951.81
460.57	33591.37
460.76	34298.21
460.94	34246.72
461.12	33710.74
461.31	34206.93
461.49	34047.77
461.67	33441.57
461.85	34459.71
462.04	34937.18
462.22	35096.33
462.40	35447.41
462.59	35360.81
462.77	34565.03
462.95	34890.37
463.13	34614.18
463.32	33399.44
463.50	33434.55
463.68	33715.42
463.86	34110.97
464.05	33345.61
464.23	32737.07
464.41	32802.61
464.59	32882.19
464.78	34426.94
464.96	33696.69
465.14	33811.38
465.32	34497.16
465.50	35482.52
465.69	34974.63
465.87	33900.32
466.05	32914.95
466.23	31903.84
466.41	32058.32
466.60	32603.66
466.78	33347.95
466.96	33315.19
467.14	33869.89
467.32	34284.17
467.51	33799.68
467.69	32673.88
467.87	33308.16
468.05	33425.19
468.23	33905.00
468.41	33963.51
468.60	34113.31
468.78	34195.23
468.96	33811.38
469.14	34190.55
469.32	34567.37
469.50	33535.20
469.69	33457.96
469.87	33053.05
470.05	33041.34
470.23	33006.23
470.41	33064.75
470.59	34040.75
470.77	33965.85
470.95	34597.80
471.14	35030.80
471.32	35161.87
471.50	36807.26
471.68	36715.98
471.86	37034.30
472.04	36975.78
472.22	37504.74
472.40	35550.40
472.58	35693.17
472.77	35005.05
472.95	35824.24
473.13	36236.17
473.31	35824.24
473.49	36074.68
473.67	36451.50
473.85	36086.38
474.03	37539.85
474.21	37296.44
474.39	37832.42
474.57	37928.38
474.75	37626.45
474.93	37766.88
475.12	37116.22
475.30	37006.21
475.48	36531.08
475.66	38387.13
475.84	36896.20
476.02	37034.30
476.20	36713.64
476.38	37809.01
476.56	38827.15
476.74	39253.12
476.92	38927.79
477.10	39849.96
477.28	39903.79
477.46	40245.51
477.64	40861.07
477.82	41893.25
478.00	41205.13
478.18	40727.66
478.36	39922.52
478.54	41095.13
478.72	41909.63
478.90	42815.42
479.08	43959.94
479.26	44046.54
479.44	42738.18
479.62	43587.80
479.80	43761.00
479.98	43552.69
480.16	43798.44
480.34	43826.53
480.52	43821.85
480.70	43786.74
480.88	44336.77
481.06	45008.50
481.24	44367.20
481.41	45354.90
481.59	46644.54
481.77	45823.01
481.95	45397.03
482.13	45612.36
482.31	45624.06
482.49	46857.52
482.67	46639.86
482.85	46265.37
483.03	46885.61
483.21	46885.61
483.39	47037.75
483.57	46129.62
483.74	46953.49
483.92	46085.15
484.10	47339.68
484.28	47721.18
484.46	48910.17
484.64	48231.42
484.82	46061.74
485.00	46859.87
485.18	45724.71
485.35	44484.22
485.53	40540.42
485.71	37776.25
485.89	39606.55
486.07	41567.91
486.25	43828.87
486.43	46251.33
486.61	46026.63
486.78	46190.47
486.96	45979.82
487.14	48198.65
487.32	49003.80
487.50	49759.79
487.68	50251.30
487.85	50543.87
488.03	50630.47
488.21	50033.63
488.39	50148.32
488.57	49244.87
488.75	49647.44
488.92	50005.55
489.10	52313.31
489.28	53359.53
489.46	53773.81
489.64	53574.86
489.81	53954.03
489.99	53635.72
490.17	53619.33
490.35	54508.74
490.53	53815.94
490.70	53588.91
490.88	53860.41
491.06	54525.12
491.24	53764.45
491.41	52332.04
491.59	51295.18
491.77	51503.49
491.95	52224.37
492.13	53099.73
492.30	54490.01
492.48	55325.58
492.66	55379.42
492.84	55393.46
493.01	55065.78
493.19	54466.61
493.37	54117.87
493.54	54585.97
493.72	55318.56
493.90	55704.75
494.08	56364.78
494.25	56509.89
494.43	56870.34
494.61	57312.70
494.79	57216.74
494.96	56736.93
495.14	56493.51
495.32	56381.16
495.49	56540.32
495.67	56708.84
495.85	57425.04
496.02	57041.20
496.20	57453.13
496.38	57146.52
496.55	57209.71
496.73	57565.48
496.91	57918.90
497.09	58438.50
497.26	58585.95
497.44	58267.64
497.62	57808.89
497.79	56687.78
497.97	55627.51
498.14	56086.26
498.32	57221.42
498.50	58094.44
498.67	58681.91
498.85	58340.19
499.03	58948.73
499.20	58932.35
499.38	58377.64
499.56	57834.64
499.73	57542.07
499.91	57413.34
500.08	56350.74
500.26	56058.17
500.44	57006.09
500.61	57696.55
500.79	57214.40
500.97	57195.67
501.14	56949.92
501.32	56685.43
501.49	56561.39
501.67	56666.71
501.84	57113.75
502.02	57099.71
502.20	57977.41
502.37	58717.02
502.55	58511.05
502.72	58754.47
502.90	59400.46
503.07	59061.08
503.25	58321.47
503.43	57738.68
503.60	57085.67
503.78	57396.96
503.95	57378.23
504.13	58752.13
504.30	59126.61
504.48	58672.55
504.65	58028.90
504.83	58513.39
505.01	59152.36
505.18	59716.43
505.36	60507.53
505.53	60093.25
505.71	59723.45
505.88	59363.01
506.06	59458.97
506.23	59082.14
506.41	58747.45
506.58	59150.02
506.76	59554.93
506.93	59353.65
507.11	58794.26
507.28	59135.98
507.46	59103.21
507.63	58232.53
507.81	58312.11
507.98	58206.78
508.16	58937.03
508.33	59943.46
508.50	59983.25
508.68	60236.03
508.85	60790.73
509.03	60474.76
509.20	59608.76
509.38	58852.77
509.55	58480.63
509.73	59086.82
509.90	59671.96
510.08	59470.67
510.25	59332.58
510.42	59700.04
510.60	59388.75
510.77	59662.60
510.95	60229.01
511.12	59615.79
511.30	59639.19
511.47	60203.26
511.64	60449.02
511.82	60299.22
511.99	59016.61
512.17	58887.88
512.34	58609.35
512.51	59040.01
512.69	59498.76
512.86	59458.97
513.04	59636.85
513.21	59650.89
513.38	58436.16
513.56	59168.74
513.73	58590.63
513.90	58951.07
514.08	59075.12
514.25	59327.90
514.43	59311.52
514.60	59147.68
514.77	59433.22
514.95	59334.92
515.12	59021.29
515.29	60774.35
515.47	60823.50
515.64	60526.25
515.81	60009.00
515.99	59004.91
516.16	57502.28
516.33	55114.94
516.51	54569.59
516.68	53439.11
516.85	52725.25
517.03	54614.06
517.20	57099.71
517.37	58724.04
517.54	59437.90
517.72	57954.00
517.89	55047.06
518.06	55011.95
518.24	55625.17
518.41	57329.08
518.58	58880.86
518.75	58101.46
518.93	58202.10
519.10	58932.35
519.27	59049.38
519.45	59011.93
519.62	58649.14
519.79	59758.56
519.96	59587.70
520.14	59145.34
520.31	58576.59
520.48	58595.31
520.65	58937.03
520.83	60016.02
521.00	59906.01
521.17	59767.92
521.34	59344.28
521.52	59906.01
521.69	60191.56
521.86	60507.53
522.03	60388.16
522.20	59072.78
522.38	58791.92
522.55	58089.76
522.72	58363.60
522.89	58773.19
523.07	58892.56
523.24	58941.71
523.41	60179.85
523.58	60336.67
523.75	60367.10
523.92	60654.98
524.10	60376.46
524.27	60779.03
524.44	61214.37
524.61	60830.52
524.78	60444.33
524.96	60072.19
525.13	60310.92
525.30	60842.23
525.47	60346.03
525.64	59924.74
525.81	59604.08
525.98	57762.08
526.16	56292.22
526.33	55632.19
526.50	55386.44
526.67	55852.20
526.84	56779.06
527.01	57986.77
527.18	58365.94
527.36	60041.76
527.53	60341.35
527.70	60196.24
527.87	59840.48
528.04	60102.62
528.21	60444.33
528.38	61492.89
528.55	61513.96
528.72	61998.45
528.89	61776.10
529.07	61408.64
529.24	60374.12
529.41	60013.68
529.58	59711.75
529.75	60636.26
529.92	61057.56
530.09	61261.18
530.26	60683.07
530.43	61244.80
530.60	60945.21
530.77	61939.94
530.94	61532.68
531.11	60580.09
531.28	60966.27
531.46	61015.43
531.63	60711.16
531.80	60275.82
531.97	59882.61
532.14	58869.15
532.31	58672.55
532.48	57893.15
532.65	58134.23
532.82	58511.05
532.99	58906.60
533.16	60137.72
533.33	60685.41
533.50	60245.39
533.67	59395.77
533.84	59171.08
534.01	59810.05
534.18	59994.95
534.35	59887.29
534.52	59058.74
534.69	59807.71
534.86	59842.82
535.03	60224.32
535.20	60652.64
535.37	60849.25
535.54	61226.07
535.71	61366.51
535.88	61219.05
536.05	60362.42
536.22	59917.71
536.38	59655.57
536.55	58812.98
536.72	59702.38
536.89	59311.52
537.06	59536.21
537.23	59547.91
537.40	59540.89
537.57	60697.11
537.74	59566.63
537.91	59810.05
538.08	59477.69
538.25	60341.35
538.42	59966.87
538.59	60032.40
538.75	58997.88
538.92	59826.43
539.09	59437.90
539.26	59180.45
539.43	59199.17
539.60	58883.20
539.77	58277.00
539.94	58040.60
540.11	57937.62
540.28	57408.66
540.44	57600.58
540.61	57181.63
540.78	58702.98
540.95	59494.08
541.12	59054.06
541.29	58983.84
541.46	59877.93
541.62	59533.87
541.79	58663.19
541.96	58553.18
542.13	58810.64
542.30	58969.80
542.47	58426.79
542.63	58630.42
542.80	58763.83
542.97	58251.25
543.14	58614.04
543.31	58555.52
543.48	58901.92
543.64	60292.20
543.81	60851.59
543.98	60334.33
544.15	58398.71
544.32	58185.72
544.48	58801.28
544.65	58974.48
544.82	60172.83
544.99	59489.40
545.16	59353.65
545.32	59772.60
545.49	60275.82
545.66	60678.39
545.83	59489.40
546.00	59119.59
546.16	59402.80
546.33	58494.67
546.50	58155.29
546.67	58805.96
546.83	59061.08
547.00	59526.84
547.17	57902.51
547.34	57425.04
547.50	58445.52
547.67	58960.44
547.84	59047.04
548.00	59934.10
548.17	59011.93
548.34	59421.52
548.51	60037.08
548.67	59217.89
548.84	58775.53
549.01	58609.35
549.18	58560.20
549.34	58890.22
549.51	58054.65
549.68	59025.97
549.84	58169.33
550.01	59550.25
550.18	59468.33
550.34	58686.59
550.51	58901.92
550.68	58419.77
550.84	57560.79
551.01	57954.00
551.18	58213.80
551.34	58049.97
551.51	59072.78
551.68	59339.60
551.84	59765.58
552.01	59325.56
552.18	59054.06
552.34	57773.78
552.51	57633.35
552.68	57804.21
552.84	57733.99
553.01	58611.70
553.18	58087.42
553.34	58529.78
553.51	59175.76
553.67	58651.48
553.84	58731.06
554.01	58796.60
554.17	58745.11
554.34	59622.81
554.51	59681.32
554.67	59868.56
554.84	59489.40
555.00	58885.54
555.17	58953.41
555.33	58780.21
555.50	58265.30
555.67	58272.32
555.83	57701.23
556.00	56968.64
556.16	57144.18
556.33	56914.81
556.50	56954.60
556.66	56935.87
556.83	56844.59
556.99	57329.08
557.16	58127.20
557.32	57923.58
557.49	57719.95
557.65	57829.96
557.82	57698.89
557.98	57848.68
558.15	56863.32
558.32	55803.05
558.48	56442.02
558.65	56247.75
558.81	55934.12
558.98	55917.74
559.14	56266.48
559.31	56701.82
559.47	56692.46
559.64	56430.32
559.80	56570.75
559.97	56727.56
560.13	56816.50
560.30	57677.82
560.46	58117.84
560.63	58450.20
560.79	58234.87
560.96	57073.96
561.12	56189.24
561.29	56016.04
561.45	56051.15
561.61	56334.35
561.78	56755.65
561.94	55859.23
562.11	56741.61
562.27	56348.40
562.44	56406.91
562.60	56907.79
562.77	56882.04
562.93	57581.86
563.10	57542.07
563.26	56254.78
563.42	56140.09
563.59	55510.49
563.75	56086.26
563.92	57198.01
564.08	56336.69
564.24	55959.87
564.41	56545.00
564.57	56334.35
564.74	55543.25
564.90	55089.19
565.07	55978.59
565.23	55473.04
565.39	54328.52
565.56	55213.24
565.72	55091.53
565.88	56198.60
566.05	56327.33
566.21	55994.98
566.38	55852.20
566.54	56034.77
566.70	56549.68
566.87	56025.40
567.03	55522.19
567.19	55475.38
567.36	55629.85
567.52	55503.46
567.68	56568.41
567.85	55643.90
568.01	55407.50
568.17	54387.03
568.34	54817.69
568.50	54990.89
568.66	54976.84
568.83	55856.88
568.99	56011.36
569.15	54784.92
569.32	55700.07
569.48	54344.90
569.64	53986.80
569.81	54094.46
569.97	52683.12
570.13	54073.40
570.30	54396.39
570.46	53762.11
570.62	52933.56
570.78	53359.53
570.95	53731.68
571.11	55068.12
571.27	54487.67
571.43	54639.81
571.60	55035.36
571.76	54632.78
571.92	54651.51
572.09	55501.12
572.25	55758.58
572.41	55966.89
572.57	54906.63
572.74	55051.74
572.90	54546.18
573.06	55667.30
573.22	55058.76
573.38	54454.90
573.55	54206.81
573.71	54986.21
573.87	55124.30
574.03	55224.94
574.20	53565.50
574.36	53525.71
574.52	53408.68
574.68	52954.62
574.84	52477.15
575.01	52009.04
575.17	52207.99
575.33	51929.47
575.49	52865.68
575.65	54302.77
575.82	53867.43
575.98	53357.19
576.14	53986.80
576.30	53312.72
576.46	51206.24
576.62	53078.67
576.79	53890.83
576.95	54429.16
577.11	54199.79
577.27	54452.56
577.43	53249.53
577.59	53125.48
577.75	53052.92
577.92	53041.22
578.08	52493.54
578.24	53045.90
578.40	53317.40
578.56	52535.66
578.72	53102.07
578.88	53389.96
579.04	53256.55
579.21	53436.77
579.37	53876.79
579.53	53839.34
579.69	53492.94
579.85	52538.01
580.01	52725.25
580.17	53198.04
580.33	53572.52
580.49	52662.05
580.65	53385.28
580.82	52638.65
580.98	52683.12
581.14	51550.30
581.30	51592.43
581.46	52034.79
581.62	52355.44
581.78	52404.59
581.94	53542.10
582.10	52076.92
582.26	53294.00
582.42	53162.93
582.58	53331.45
582.74	52753.33
582.90	52753.33
583.06	53907.22
583.22	54066.38
583.38	53762.11
583.54	53710.61
583.70	53155.91
583.86	52334.38
584.02	53139.52
584.18	53504.65
584.34	53743.38
584.50	53563.16
584.66	51959.89
584.82	51428.59
584.98	52648.01
585.14	52722.91
585.30	51503.49
