SpectraSuite Data File
++++++++++++++++++++++++++++++++++++
Date: Mon Oct 07 14:52:57 GMT-05:00 2013
User: price-jones
Dark Spectrum Present: No
Reference Spectrum Present: No
Number of Sampled Component Spectra: 1
Spectrometers: USB2+H05261
Integration Time (usec): 100000 (USB2+H05261)
Spectra Averaged: 1 (USB2+H05261)
Boxcar Smoothing: 0 (USB2+H05261)
Correct for Electrical Dark: No (USB2+H05261)
Strobe/Lamp Enabled: No (USB2+H05261)
Correct for Detector Non-linearity: No (USB2+H05261)
Correct for Stray Light: No (USB2+H05261)
Number of Pixels in Processed Spectrum: 2048
>>>>>Begin Processed Spectral Data<<<<<
365.73	0.00
365.92	0.00
366.12	0.00
366.32	0.00
366.52	0.00
366.72	0.00
366.91	0.00
367.11	0.00
367.31	0.00
367.51	0.00
367.70	0.00
367.90	0.00
368.10	0.00
368.30	0.00
368.49	0.00
368.69	0.00
368.89	0.00
369.09	0.00
369.28	0.00
369.48	0.00
369.68	0.00
369.87	0.00
370.07	0.00
370.27	0.00
370.47	568.75
370.66	2843.75
370.86	3197.17
371.06	3639.53
371.25	3576.34
371.45	3159.72
371.65	2937.37
371.84	2780.56
372.04	2818.00
372.24	3344.63
372.44	3566.98
372.63	3283.77
372.83	3009.93
373.03	2759.49
373.22	2469.27
373.42	2600.34
373.62	3030.99
373.81	3396.12
374.01	3368.03
374.21	2951.42
374.40	2616.72
374.60	2974.82
374.79	3344.63
374.99	3747.20
375.19	3927.42
375.38	4021.04
375.58	3850.18
375.78	3805.71
375.97	3826.78
376.17	4121.68
376.37	3976.57
376.56	3988.27
376.76	4344.03
376.95	4652.98
377.15	4950.23
377.35	5163.22
377.54	5460.47
377.74	5404.30
377.93	5659.42
378.13	5352.81
378.33	5034.49
378.52	4578.09
378.72	4444.68
378.91	4475.10
379.11	4180.20
379.31	4166.15
379.50	4241.05
379.70	4582.77
379.89	4882.36
380.09	5249.82
380.28	5327.06
380.48	5305.99
380.68	5366.85
380.87	4994.70
381.07	4865.97
381.26	4421.27
381.46	3997.64
381.65	3957.85
381.85	4053.81
382.04	3660.60
382.24	3346.97
382.43	3262.71
382.63	3098.87
382.83	3208.87
383.02	3372.71
383.22	3286.11
383.41	3150.36
383.61	3489.74
383.80	4112.32
384.00	4418.93
384.19	5100.03
384.39	5263.86
384.58	5320.04
384.78	5359.83
384.97	5170.24
385.17	5029.81
385.36	4650.64
385.56	4540.64
385.75	4648.30
385.95	4952.57
386.14	5408.98
386.34	5467.49
386.53	5165.56
386.72	4887.04
386.92	4978.32
387.11	5181.95
387.31	5549.41
387.50	5394.93
387.70	5095.35
387.89	5085.98
388.09	5252.16
388.28	5418.34
388.48	5207.69
388.67	5647.71
388.86	6534.78
389.06	6899.90
389.25	7173.74
389.45	7105.87
389.64	6911.60
389.84	6965.43
390.03	7030.97
390.22	7171.40
390.42	7052.03
390.61	7721.43
390.81	8079.53
391.00	8435.29
391.19	8098.25
391.39	7831.43
391.58	7524.82
391.78	7119.91
391.97	6883.52
392.16	6338.17
392.36	5884.11
392.55	4533.62
392.75	3763.58
392.94	3014.61
393.13	2977.16
393.33	3595.06
393.52	4688.09
393.71	5619.63
393.91	6342.85
394.10	6883.52
394.29	7740.15
394.49	8194.22
394.68	8681.05
394.88	8690.41
395.07	9034.47
395.26	8800.41
395.46	8519.55
395.65	7911.01
395.84	7098.84
396.04	6019.86
396.23	4987.68
396.42	4114.66
396.62	3831.46
396.81	4585.11
397.00	5877.09
397.19	7363.33
397.39	8889.35
397.58	9951.96
397.77	10747.74
397.97	11124.57
398.16	10956.05
398.35	11447.56
398.55	11803.32
398.74	12128.66
398.93	12374.41
399.12	12168.45
399.32	11913.33
399.51	12123.98
399.70	12814.43
399.90	12943.16
400.09	12709.11
400.28	12688.04
400.47	12669.32
400.67	13668.73
400.86	13572.77
401.05	13680.43
401.24	13511.91
401.44	13888.74
401.63	14057.26
401.82	13923.85
402.01	14045.55
402.21	14200.03
402.40	14621.33
402.59	13937.89
402.78	13179.56
402.97	12982.95
403.17	13235.73
403.36	14373.23
403.55	14839.00
403.74	15084.75
403.93	14239.82
404.13	13411.27
404.32	13011.04
404.51	13654.69
404.70	14443.45
404.89	14621.33
405.09	14366.21
405.28	13593.83
405.47	13905.12
405.66	13860.65
405.85	13575.11
406.05	13142.11
406.24	13195.94
406.43	13923.85
406.62	14366.21
406.81	14668.14
407.00	13944.91
407.20	13561.06
407.39	13713.20
407.58	14408.34
407.77	15145.61
407.96	15686.27
408.15	15726.06
408.34	15875.85
408.54	16294.81
408.73	16475.03
408.92	16304.17
409.11	15857.13
409.30	15005.17
409.49	14094.71
409.68	13062.53
409.87	13146.79
410.07	13720.22
410.26	14883.47
410.45	15868.83
410.64	16322.90
410.83	16482.05
411.02	17174.85
411.21	17563.38
411.40	17256.77
411.59	17764.67
411.78	17284.86
411.98	17228.68
412.17	17556.36
412.36	17102.29
412.55	17444.01
412.74	16491.41
412.93	16395.45
413.12	16528.86
413.31	18249.16
413.50	18513.64
413.69	18735.99
413.88	17956.59
414.07	17486.14
414.26	17640.62
414.45	18082.98
414.64	18204.69
414.83	18319.37
415.02	18008.08
415.22	17914.46
415.41	18148.51
415.60	19271.97
415.79	20016.26
415.98	19943.70
416.17	20519.48
416.36	19840.72
416.55	19328.14
416.74	18698.54
416.93	18057.23
417.12	18359.16
417.31	18492.57
417.50	18881.10
417.69	19278.99
417.88	19372.61
418.07	19374.95
418.26	18981.74
418.45	18862.38
418.64	19777.53
418.83	20725.44
419.02	20313.51
419.21	20262.02
419.39	18951.32
419.58	18197.67
419.77	18260.86
419.96	19136.22
420.15	20475.01
420.34	20552.24
420.53	21422.92
420.72	22078.27
420.91	21743.58
421.10	21411.22
421.29	21429.94
421.48	20673.95
421.67	21743.58
421.86	20479.69
422.05	19800.93
422.24	17544.66
422.43	17579.76
422.61	19557.52
422.80	20730.12
422.99	20407.13
423.18	20318.19
423.37	19861.79
423.56	19594.96
423.75	19964.77
423.94	20594.37
424.13	19321.12
424.32	19484.96
424.50	19470.92
424.69	19613.69
424.88	19756.46
425.07	19063.66
425.26	19372.61
425.45	19066.00
425.64	18635.35
425.83	18747.69
426.01	20018.60
426.20	20109.88
426.39	20201.16
426.58	18651.73
426.77	17376.14
426.96	16711.42
427.15	17448.69
427.33	19215.80
427.52	19637.09
427.71	19548.15
427.90	19253.25
428.09	19173.67
428.28	18628.32
428.46	18024.47
428.65	18075.96
428.84	18611.94
429.03	18712.58
429.22	17511.89
429.40	16470.35
429.59	15384.34
429.78	13490.85
429.97	13441.70
430.16	13713.20
430.34	13743.63
430.53	13788.10
430.72	13954.27
430.91	15592.65
431.10	18260.86
431.28	21977.63
431.47	23527.06
431.66	23456.85
431.85	21254.40
432.03	19386.66
432.22	18703.22
432.41	19662.84
432.60	21708.47
432.79	22761.71
432.97	23356.21
433.16	22522.98
433.35	20673.95
433.54	18682.16
433.72	17755.30
433.91	18298.31
434.10	20397.77
434.28	21834.86
434.47	22576.81
434.66	22167.21
434.85	22010.40
435.03	21617.19
435.22	22305.31
435.41	23775.16
435.59	23634.73
435.78	23733.03
435.97	24549.88
436.16	24772.23
436.34	24168.37
436.53	23845.38
436.72	23922.62
436.90	22499.57
437.09	22401.27
437.28	22338.07
437.46	23201.73
437.65	22951.29
437.84	21219.30
438.02	19700.29
438.21	20034.99
438.40	20926.73
438.58	22272.54
438.77	22462.12
438.96	23248.54
439.14	24182.42
439.33	24526.47
439.52	25268.42
439.70	24472.64
439.89	23817.29
440.08	23601.96
440.26	23187.69
440.45	24360.30
440.63	25713.13
440.82	27173.62
441.01	26295.92
441.19	26174.21
441.38	27220.43
441.57	27824.29
441.75	28224.52
441.94	28446.87
442.12	28041.96
442.31	28718.37
442.50	28395.38
442.68	28154.30
442.87	27988.13
443.05	27679.18
443.24	28081.75
443.43	28374.31
443.61	28912.64
443.80	29420.53
443.98	27983.44
444.17	27388.95
444.35	29539.90
444.54	29956.52
444.73	29530.54
444.91	28135.58
445.10	27192.34
445.28	26225.70
445.47	25912.07
445.65	26001.01
445.84	26726.58
446.02	27407.67
446.21	27793.86
446.39	28105.15
446.58	28622.41
446.77	28683.27
446.95	29249.67
447.14	29682.67
447.32	30354.41
447.51	29640.54
447.69	28814.34
447.88	28371.97
448.06	28643.48
448.25	29228.61
448.43	29434.58
448.62	29062.43
448.80	28648.16
448.99	29275.42
449.17	29083.50
449.36	29120.95
449.54	30167.16
449.73	30923.16
449.91	31405.31
450.10	32144.92
450.28	32393.01
450.46	32236.20
450.65	32247.90
450.83	31931.93
451.02	31056.57
451.20	31204.02
451.39	31222.75
451.57	30794.43
451.76	31021.46
451.94	30553.35
452.13	29460.32
452.31	28512.41
452.49	27316.39
452.68	28180.05
452.86	28327.50
453.05	28065.36
453.23	29249.67
453.42	29673.31
453.60	30543.99
453.78	30967.63
453.97	30483.14
454.15	30637.61
454.34	30277.17
454.52	30045.46
454.70	29785.66
454.89	30139.08
455.07	29923.75
455.26	30349.73
455.44	31672.13
455.62	32400.04
455.81	32346.20
455.99	31857.03
456.17	31538.72
456.36	31725.96
456.54	32622.39
456.73	32865.80
456.91	33050.70
457.09	33127.94
457.28	34235.02
457.46	32407.06
457.64	32521.74
457.83	31426.37
458.01	30733.57
458.19	31452.12
458.38	31800.86
458.56	32964.10
458.74	32783.88
458.93	32142.58
459.11	32203.43
459.29	31510.63
459.48	31800.86
459.66	31742.35
459.84	32039.59
460.03	32315.78
460.21	32435.14
460.39	33411.15
460.57	33479.02
460.76	33553.92
460.94	33553.92
461.12	33521.15
461.31	33352.63
461.49	33228.59
461.67	33443.91
461.85	34213.95
462.04	33837.12
462.22	34904.41
462.40	34394.17
462.59	34068.84
462.77	34279.49
462.95	34389.49
463.13	33656.90
463.32	33511.79
463.50	33317.53
463.68	33095.18
463.86	33582.01
464.05	32800.27
464.23	32278.33
464.41	32549.83
464.59	31866.39
464.78	33284.76
464.96	33249.65
465.14	32865.80
465.32	33343.27
465.50	34670.36
465.69	34850.58
465.87	33956.49
466.05	33034.32
466.23	31669.79
466.41	30988.69
466.60	31777.45
466.78	31672.13
466.96	32407.06
467.14	33221.56
467.32	33649.88
467.51	33397.10
467.69	32084.06
467.87	32683.24
468.05	33380.72
468.23	33242.63
468.41	33645.20
468.60	33055.39
468.78	33862.87
468.96	32631.75
469.14	33766.91
469.32	34300.55
469.50	32596.64
469.69	32662.18
469.87	32378.97
470.05	32011.51
470.23	32687.92
470.41	32402.38
470.59	33455.62
470.77	32921.98
470.95	33879.25
471.14	33935.43
471.32	34321.62
471.50	35622.95
471.68	35857.01
471.86	36491.29
472.04	36442.14
472.22	36662.15
472.40	34705.46
472.58	34305.23
472.77	34092.24
472.95	35299.96
473.13	36126.17
473.31	34871.64
473.49	35131.44
473.67	35737.64
473.85	35910.84
474.03	36774.50
474.21	36865.78
474.39	37160.69
474.57	37340.91
474.75	37305.80
474.93	37188.77
475.12	36236.17
475.30	36329.80
475.48	36727.69
475.66	37209.84
475.84	36355.54
476.02	36568.53
476.20	35669.76
476.38	36423.42
476.56	37738.80
476.74	38492.45
476.92	38415.21
477.10	38937.15
477.28	39407.60
477.46	40062.95
477.64	40531.06
477.82	40254.87
478.00	40481.91
478.18	40233.81
478.36	39852.30
478.54	39920.18
478.72	40088.70
478.90	41464.93
479.08	42462.00
479.26	42878.61
479.44	42651.58
479.62	42103.90
479.80	42316.89
479.98	42773.29
480.16	42684.35
480.34	42438.59
480.52	42955.85
480.70	43026.07
480.88	43367.79
481.06	44051.22
481.24	44395.28
481.41	45312.77
481.59	45853.44
481.77	45588.95
481.95	44737.00
482.13	44842.32
482.31	44669.12
482.49	45603.00
482.67	45535.12
482.85	45757.47
483.03	46639.86
483.21	46387.08
483.39	46382.40
483.57	45755.13
483.74	45698.96
483.92	45696.62
484.10	45710.66
484.28	47122.01
484.46	47253.08
484.64	47494.15
484.82	46906.68
485.00	46124.94
485.18	45347.88
485.35	44217.40
485.53	41148.96
485.71	37694.33
485.89	37429.85
486.07	39482.50
486.25	42443.27
486.43	44605.93
486.61	45528.10
486.78	45392.35
486.96	45446.18
487.14	47210.95
487.32	48018.43
487.50	49389.98
487.68	49741.06
487.85	50255.98
488.03	50066.40
488.21	50291.09
488.39	49411.05
488.57	48596.54
488.75	48081.63
488.92	49462.54
489.10	51971.60
489.28	53078.67
489.46	53361.87
489.64	53305.70
489.81	53640.40
489.99	53144.20
490.17	53066.97
490.35	53478.90
490.53	52912.49
490.70	52533.32
490.88	52701.84
491.06	53717.64
491.24	53654.44
491.41	52786.10
491.59	50789.62
491.77	50447.91
491.95	51594.77
492.13	52622.26
492.30	53727.00
492.48	54880.88
492.66	55166.43
492.84	55121.96
493.01	54749.81
493.19	54265.32
493.37	53818.28
493.54	53476.56
493.72	54651.51
493.90	55480.06
494.08	56184.56
494.25	56507.55
494.43	56343.72
494.61	57043.54
494.79	56956.94
494.96	56849.27
495.14	56055.83
495.32	55285.79
495.49	54798.96
495.67	56002.00
495.85	57078.64
496.02	57474.20
496.20	57214.40
496.38	56835.23
496.55	56933.53
496.73	57284.61
496.91	57111.41
497.09	57874.43
497.26	58007.84
497.44	57581.86
497.62	56989.70
497.79	56203.28
497.97	55072.81
498.14	55253.03
498.32	56285.20
498.50	57214.40
498.67	57860.38
498.85	57745.70
499.03	57804.21
499.20	57970.39
499.38	58204.44
499.56	57710.59
499.73	57476.54
499.91	57064.60
500.08	56236.05
500.26	55721.13
500.44	56502.87
500.61	57132.48
500.79	56739.27
500.97	56521.60
501.14	56383.51
501.32	56175.20
501.49	56257.12
501.67	56186.90
501.84	56774.37
502.02	57265.89
502.20	57530.37
502.37	57640.37
502.55	57806.55
502.72	58141.25
502.90	58546.16
503.07	58185.72
503.25	57961.03
503.43	57205.03
503.60	56411.59
503.78	55915.40
503.95	56261.80
504.13	57769.10
504.30	58665.53
504.48	58258.27
504.65	57888.47
504.83	57951.66
505.01	58726.38
505.18	58878.52
505.36	59475.35
505.53	59571.32
505.71	59723.45
505.88	59760.90
506.06	59054.06
506.23	58798.94
506.41	58443.18
506.58	58623.40
506.76	58548.50
506.93	58770.85
507.11	58309.77
507.28	58623.40
507.46	58183.38
507.63	57628.67
507.81	57429.72
507.98	57652.08
508.16	58480.63
508.33	58791.92
508.50	59119.59
508.68	59419.18
508.85	60016.02
509.03	59840.48
509.20	59725.79
509.38	58958.09
509.55	58497.01
509.73	58445.52
509.90	59178.10
510.08	59173.42
510.25	59159.38
510.42	58960.44
510.60	58876.18
510.77	59161.72
510.95	59512.80
511.12	59976.23
511.30	60083.89
511.47	60528.59
511.64	60285.18
511.82	60093.25
511.99	59178.10
512.17	58827.02
512.34	58471.26
512.51	58864.47
512.69	58756.81
512.86	58850.43
513.04	59323.22
513.21	59199.17
513.38	58986.18
513.56	58621.06
513.73	57729.31
513.90	58103.80
514.08	58382.32
514.25	58691.27
514.43	58965.12
514.60	58805.96
514.77	59025.97
514.95	58787.24
515.12	58962.78
515.29	59283.43
515.47	59695.36
515.64	59814.73
515.81	59377.05
515.99	58892.56
516.16	57504.62
516.33	55243.66
516.51	53949.35
516.68	53382.94
516.85	52727.59
517.03	53544.44
517.20	55709.43
517.37	58258.27
517.54	59185.13
517.72	58431.47
517.89	55980.93
518.06	53989.14
518.24	54499.37
518.41	56357.76
518.58	57574.84
518.75	57811.23
518.93	57984.43
519.10	57989.11
519.27	58394.03
519.45	58801.28
519.62	59437.90
519.79	59838.14
519.96	59447.27
520.14	59004.91
520.31	58120.18
520.48	58059.33
520.65	58740.42
520.83	59503.44
521.00	59922.40
521.17	59597.06
521.34	59086.82
521.52	59477.69
521.69	60025.38
521.86	60322.63
522.03	59868.56
522.20	58719.36
522.38	57916.56
522.55	57930.60
522.72	58614.04
522.89	58784.90
523.07	58951.07
523.24	59152.36
523.41	60023.04
523.58	60315.61
523.75	60530.93
523.92	60406.89
524.10	60474.76
524.27	60502.85
524.44	60114.32
524.61	60062.83
524.78	60018.36
524.96	59812.39
525.13	59737.49
525.30	60149.43
525.47	60748.60
525.64	60392.84
525.81	59891.97
525.98	58492.33
526.16	57116.09
526.33	56596.49
526.50	56112.00
526.67	55891.99
526.84	56596.49
527.01	57169.93
527.18	58232.53
527.36	59241.30
527.53	59812.39
527.70	59889.63
527.87	59381.73
528.04	59007.25
528.21	59632.17
528.38	60200.92
528.55	60781.37
528.72	60924.14
528.89	61139.47
529.07	60987.34
529.24	60339.01
529.41	59749.20
529.58	59175.76
529.75	59260.02
529.92	59873.24
530.09	60177.51
530.26	60505.19
530.43	60837.54
530.60	60818.82
530.77	61057.56
530.94	61095.00
531.11	60430.29
531.28	60252.41
531.46	60198.58
531.63	60392.84
531.80	60095.60
531.97	59664.94
532.14	59150.02
532.31	58054.65
532.48	57528.03
532.65	57670.80
532.82	58501.69
532.99	59475.35
533.16	59793.67
533.33	60069.85
533.50	60041.76
533.67	59412.16
533.84	59009.59
534.01	59222.58
534.18	59320.88
534.35	59650.89
534.52	59660.26
534.69	59859.20
534.86	60135.38
535.03	60341.35
535.20	60844.57
535.37	61036.49
535.54	61048.19
535.71	60741.58
535.88	60493.49
536.05	59821.75
536.22	59377.05
536.38	59103.21
536.55	58536.80
536.72	58300.40
536.89	58328.49
537.06	58901.92
537.23	59901.33
537.40	60231.35
537.57	60133.04
537.74	59889.63
537.91	59880.27
538.08	59838.14
538.25	59913.03
538.42	60044.10
538.59	59648.55
538.75	59018.95
538.92	59103.21
539.09	58932.35
539.26	58766.17
539.43	58529.78
539.60	58848.09
539.77	58965.12
539.94	58705.32
540.11	57984.43
540.28	57408.66
540.44	57516.32
540.61	57661.44
540.78	58152.95
540.95	58583.61
541.12	58878.52
541.29	58871.49
541.46	59306.83
541.62	59491.74
541.79	59213.21
541.96	58618.72
542.13	58621.06
542.30	59037.67
542.47	59182.79
542.63	58855.11
542.80	58719.36
542.97	58801.28
543.14	58473.60
543.31	58773.19
543.48	59264.70
543.64	59950.48
543.81	60327.31
543.98	59910.69
544.15	59590.04
544.32	58967.46
544.48	58946.39
544.65	59473.01
544.82	59793.67
544.99	59140.66
545.16	58941.71
545.32	58571.91
545.49	59667.28
545.66	59894.31
545.83	59412.16
546.00	59047.04
546.16	58948.73
546.33	58899.58
546.50	58972.14
546.67	59330.24
546.83	58871.49
547.00	58822.34
547.17	58415.09
547.34	57719.95
547.50	57698.89
547.67	58279.34
547.84	58452.54
548.00	58791.92
548.17	59072.78
548.34	59140.66
548.51	59194.49
548.67	58939.37
548.84	59231.94
549.01	59002.56
549.18	58883.20
549.34	58707.66
549.51	58717.02
549.68	58864.47
549.84	58632.76
550.01	58525.10
550.18	58382.32
550.34	58543.82
550.51	58525.10
550.68	58621.06
550.84	58288.70
551.01	58199.76
551.18	58131.89
551.34	58447.86
551.51	58564.88
551.68	58925.33
551.84	58925.33
552.01	58770.85
552.18	58691.27
552.34	57851.02
552.51	57808.89
552.68	57577.18
552.84	57801.87
553.01	58431.47
553.18	58176.36
553.34	58326.15
553.51	58478.28
553.67	58614.04
553.84	58892.56
554.01	58410.41
554.17	58487.65
554.34	58482.97
554.51	58707.66
554.67	59068.10
554.84	58955.75
555.00	58564.88
555.17	58422.11
555.33	58199.76
555.50	58141.25
555.67	58223.17
555.83	58056.99
556.00	57748.04
556.16	57888.47
556.33	57485.90
556.50	57200.35
556.66	57380.57
556.83	57305.68
556.99	57504.62
557.16	57476.54
557.32	57661.44
557.49	57902.51
557.65	57764.42
557.82	57918.90
557.98	57518.67
558.15	57080.98
558.32	56341.38
558.48	55599.43
558.65	55805.39
558.81	56287.54
558.98	56636.28
559.14	56552.02
559.31	56697.14
559.47	56456.06
559.64	56341.38
559.80	56130.73
559.97	56390.53
560.13	56701.82
560.30	57380.57
560.46	57930.60
560.63	58337.85
560.79	58255.93
560.96	57584.20
561.12	56591.81
561.29	56009.02
561.45	55870.93
561.61	56690.12
561.78	56769.69
561.94	56839.91
562.11	56678.41
562.27	56596.49
562.44	56715.86
562.60	56999.07
562.77	57354.83
562.93	57240.14
563.10	56945.23
563.26	56647.99
563.42	56568.41
563.59	56449.04
563.75	56411.59
563.92	56643.30
564.08	56704.16
564.24	56809.48
564.41	56907.79
564.57	56872.68
564.74	56575.43
564.90	56498.19
565.07	55992.64
565.23	55973.91
565.39	55487.08
565.56	55318.56
565.72	55047.06
565.88	55393.46
566.05	55547.93
566.21	55810.07
566.38	55690.71
566.54	56051.15
566.70	56126.05
566.87	56594.15
567.03	56301.59
567.19	56868.00
567.36	56437.34
567.52	56135.41
567.68	56280.52
567.85	55180.47
568.01	55014.29
568.17	54784.92
568.34	54431.50
568.50	54754.49
568.66	54894.92
568.83	55318.56
568.99	55175.79
569.15	55421.55
569.32	55643.90
569.48	55091.53
569.64	55025.99
569.81	54850.45
569.97	54267.66
570.13	54485.33
570.30	53998.50
570.46	53694.23
570.62	52907.81
570.78	53045.90
570.95	53434.43
571.11	54031.27
571.27	54300.43
571.43	54532.14
571.60	54908.97
571.76	55276.43
571.92	55299.84
572.09	55498.78
572.25	55304.52
572.41	55274.09
572.57	55224.94
572.74	55222.60
572.90	54773.22
573.06	54775.56
573.22	54588.31
573.38	54658.53
573.55	54855.14
573.71	55154.72
573.87	54824.71
574.03	54501.71
574.20	54536.82
574.36	54274.68
574.52	53996.16
574.68	53909.56
574.84	53602.95
575.01	53352.51
575.17	53343.15
575.33	53427.41
575.49	53689.55
575.65	54021.90
575.82	53684.87
575.98	53275.27
576.14	53673.16
576.30	53914.24
576.46	54293.41
576.62	53961.05
576.79	54049.99
576.95	53647.42
577.11	53572.52
577.27	53495.28
577.43	53579.54
577.59	53024.84
577.75	53010.79
577.92	52591.84
578.08	52287.57
578.24	52053.51
578.40	52690.14
578.56	52685.46
578.72	52919.51
578.88	52853.98
579.04	53268.25
579.21	53247.19
579.37	53570.18
579.53	53792.53
579.69	53577.20
579.85	53537.41
580.01	53418.05
580.17	52938.24
580.33	52956.96
580.49	52605.88
580.65	53396.98
580.82	53258.89
580.98	53244.85
581.14	53214.42
581.30	53277.61
581.46	53326.77
581.62	53612.31
581.78	53366.55
581.94	53418.05
582.10	53441.45
582.26	53818.28
582.42	53446.13
582.58	53736.36
582.74	53553.80
582.90	53778.49
583.06	53394.64
583.22	53083.35
583.38	53116.12
583.54	53167.61
583.70	53392.30
583.86	53347.83
584.02	53048.24
584.18	53354.85
584.34	53509.33
584.50	53045.90
584.66	52886.74
584.82	52533.32
584.98	52451.41
585.14	51838.18
585.30	51295.18
