SpectraSuite Data File
++++++++++++++++++++++++++++++++++++
Date: Mon Oct 07 14:53:10 GMT-05:00 2013
User: price-jones
Dark Spectrum Present: No
Reference Spectrum Present: No
Number of Sampled Component Spectra: 1
Spectrometers: USB2+H05261
Integration Time (usec): 100000 (USB2+H05261)
Spectra Averaged: 1 (USB2+H05261)
Boxcar Smoothing: 0 (USB2+H05261)
Correct for Electrical Dark: No (USB2+H05261)
Strobe/Lamp Enabled: No (USB2+H05261)
Correct for Detector Non-linearity: No (USB2+H05261)
Correct for Stray Light: No (USB2+H05261)
Number of Pixels in Processed Spectrum: 2048
>>>>>Begin Processed Spectral Data<<<<<
365.73	0.00
365.92	0.00
366.12	0.00
366.32	0.00
366.52	0.00
366.72	0.00
366.91	0.00
367.11	0.00
367.31	0.00
367.51	0.00
367.70	0.00
367.90	0.00
368.10	0.00
368.30	0.00
368.49	0.00
368.69	0.00
368.89	0.00
369.09	0.00
369.28	0.00
369.48	0.00
369.68	0.00
369.87	0.00
370.07	0.00
370.27	0.00
370.47	774.72
370.66	3375.05
370.86	4154.45
371.06	4456.38
371.25	4283.18
371.45	3889.97
371.65	3595.06
371.84	3323.56
372.04	3625.49
372.24	3929.76
372.44	4124.02
372.63	4065.51
372.83	3763.58
373.03	3243.98
373.22	3098.87
373.42	3316.54
373.62	3786.99
373.81	4025.72
374.01	3873.59
374.21	3627.83
374.40	3396.12
374.60	3482.72
374.79	3997.64
374.99	4702.14
375.19	5083.64
375.38	4971.30
375.58	4592.13
375.78	4575.75
375.97	4676.39
376.17	4945.55
376.37	4833.21
376.56	5041.51
376.76	5219.39
376.95	5533.03
377.15	5884.11
377.35	6087.73
377.54	6335.83
377.74	6614.35
377.93	6750.10
378.13	6270.30
378.33	6143.91
378.52	5628.99
378.72	5233.44
378.91	5296.63
379.11	5186.63
379.31	4978.32
379.50	4940.87
379.70	5493.24
379.89	5881.77
380.09	6195.40
380.28	6394.34
380.48	6303.06
380.68	6331.15
380.87	6155.61
381.07	5593.88
381.26	5210.03
381.46	4957.25
381.65	4697.46
381.85	4840.23
382.04	4535.96
382.24	4065.51
382.43	3833.80
382.63	3854.86
382.83	3920.40
383.02	3882.95
383.22	3887.63
383.41	3908.69
383.61	4173.18
383.80	4830.87
384.00	5502.60
384.19	6183.70
384.39	6333.49
384.58	6406.05
384.78	6179.01
384.97	6216.46
385.17	5954.32
385.36	5533.03
385.56	5298.97
385.75	5472.17
385.95	6092.41
386.14	6581.59
386.34	6487.96
386.53	6167.31
386.72	5944.96
386.92	6148.59
387.11	6190.72
387.31	6633.08
387.50	6401.37
387.70	6174.33
387.89	6087.73
388.09	6230.51
388.28	6179.01
388.48	6380.30
388.67	6883.52
388.86	7492.05
389.06	7988.25
389.25	8432.95
389.45	8725.52
389.64	8559.34
389.84	8212.94
390.03	8142.72
390.22	8365.07
390.42	8561.68
390.61	9109.36
390.81	9619.60
391.00	9799.82
391.19	9888.76
391.39	9376.19
391.58	8730.20
391.78	8285.50
391.97	8208.26
392.16	7393.75
392.36	6768.83
392.55	5605.58
392.75	4414.25
392.94	3714.43
393.13	3522.51
393.33	4269.14
393.52	5636.01
393.71	6775.85
393.91	7559.93
394.10	8191.88
394.29	8952.55
394.49	9549.39
394.68	10569.86
394.88	10239.84
395.07	10658.80
395.26	10600.29
395.46	10284.31
395.65	9753.01
395.84	8629.56
396.04	7108.21
396.23	5863.04
396.42	4847.25
396.62	4655.33
396.81	5509.62
397.00	7077.78
397.19	8945.53
397.39	10511.35
397.58	11833.75
397.77	12203.55
397.97	12779.32
398.16	13069.55
398.35	13614.90
398.55	14024.49
398.74	14736.01
398.93	14785.16
399.12	14520.68
399.32	13975.34
399.51	14249.18
399.70	15220.50
399.90	15117.52
400.09	15056.67
400.28	14747.72
400.47	15047.30
400.67	15985.86
400.86	16592.06
401.05	16070.12
401.24	16416.52
401.44	16449.28
401.63	16533.54
401.82	16430.56
402.01	16861.22
402.21	17118.68
402.40	17298.90
402.59	16411.84
402.78	15513.07
402.97	15250.93
403.17	15971.82
403.36	16870.58
403.55	17444.01
403.74	17975.31
403.93	16819.09
404.13	15545.84
404.32	15281.36
404.51	16168.42
404.70	17350.39
404.89	17158.47
405.09	17067.19
405.28	16468.01
405.47	16575.67
405.66	16531.20
405.85	16121.61
406.05	15541.16
406.24	15948.41
406.43	16458.65
406.62	17256.77
406.81	17387.84
407.00	16636.53
407.20	15950.75
407.39	16297.15
407.58	16952.50
407.77	17902.76
407.96	18347.46
408.15	18415.34
408.34	18747.69
408.54	19278.99
408.73	19152.60
408.92	19321.12
409.11	18595.56
409.30	17703.81
409.49	16453.97
409.68	15768.19
409.87	15358.60
410.07	16533.54
410.26	17687.43
410.45	18466.83
410.64	18831.95
410.83	19480.28
411.02	20109.88
411.21	20725.44
411.40	20526.50
411.59	20247.97
411.78	20809.70
411.98	20166.06
412.17	20692.68
412.36	20067.75
412.55	20046.69
412.74	19529.43
412.93	19513.05
413.12	19814.98
413.31	21369.09
413.50	21741.24
413.69	21986.99
413.88	21113.97
414.07	20313.51
414.26	20870.56
414.45	21106.95
414.64	21521.23
414.83	21762.30
415.02	21404.20
415.22	21221.64
415.41	21624.21
415.60	22146.15
415.79	23421.74
415.98	23543.45
416.17	23866.44
416.36	23295.35
416.55	22923.21
416.74	22382.54
416.93	21488.46
417.12	21476.76
417.31	21762.30
417.50	22097.00
417.69	23035.55
417.88	22998.10
418.07	22192.96
418.26	22412.97
418.45	22696.17
418.64	23482.59
418.83	24098.16
419.02	23534.09
419.21	23494.30
419.39	22431.69
419.58	21586.76
419.77	21469.73
419.96	22251.47
420.15	23417.06
420.34	24357.96
420.53	25001.60
420.72	25245.02
420.91	25507.16
421.10	25078.84
421.29	25446.30
421.48	23950.70
421.67	25364.39
421.86	24519.45
422.05	22927.89
422.24	20617.78
422.43	20629.48
422.61	22387.22
422.80	24498.39
422.99	24297.10
423.18	23379.61
423.37	22888.10
423.56	23285.99
423.75	24140.29
423.94	24159.01
424.13	22656.39
424.32	22862.35
424.50	22899.80
424.69	22595.53
424.88	23040.23
425.07	22883.42
425.26	22647.02
425.45	22443.40
425.64	22040.82
425.83	22242.11
426.01	23548.13
426.20	23903.89
426.39	23948.36
426.58	21905.07
426.77	20144.99
426.96	19594.96
427.15	20357.98
427.33	22354.46
427.52	22995.76
427.71	23147.90
427.90	22738.30
428.09	22761.71
428.28	22307.65
428.46	21649.96
428.65	21027.37
428.84	21689.74
429.03	21785.71
429.22	20648.21
429.40	19562.20
429.59	17781.05
429.78	15873.51
429.97	15960.11
430.16	16245.66
430.34	16161.40
430.53	16187.14
430.72	16505.46
430.91	18604.92
431.10	21699.11
431.28	25338.64
431.47	27225.11
431.66	27227.45
431.85	25036.71
432.03	22848.31
432.22	22155.51
432.41	23082.36
432.60	25640.57
432.79	26574.44
432.97	27440.44
433.16	26338.05
433.35	24404.77
433.54	21687.40
433.72	20552.24
433.91	21507.18
434.10	23836.02
434.28	25408.86
434.47	26651.68
434.66	26354.43
434.85	25242.68
435.03	25525.88
435.22	26272.51
435.41	27873.44
435.59	28156.64
435.78	27852.38
435.97	28697.31
436.16	29046.05
436.34	28610.71
436.53	27777.48
436.72	27960.04
436.90	26361.45
437.09	26408.26
437.28	25862.92
437.46	26960.63
437.65	26565.08
437.84	24952.45
438.02	22918.53
438.21	23152.58
438.40	24144.97
438.58	26127.40
438.77	26773.39
438.96	26916.16
439.14	28395.38
439.33	28706.67
439.52	29177.12
439.70	28610.71
439.89	28201.11
440.08	27047.23
440.26	27049.57
440.45	28411.76
440.63	30188.23
440.82	31505.95
441.01	30878.69
441.19	30998.06
441.38	31145.51
441.57	32900.91
441.75	32797.93
441.94	33043.68
442.12	33193.48
442.31	33591.37
442.50	33502.43
442.68	32900.91
442.87	32790.91
443.05	31873.42
443.24	32734.73
443.43	33029.64
443.61	33834.78
443.80	34497.16
443.98	32818.99
444.17	32481.95
444.35	34206.93
444.54	34806.11
444.73	34092.24
444.91	33130.28
445.10	31709.58
445.28	30433.99
445.47	30204.61
445.65	30237.38
445.84	31367.86
446.02	32294.71
446.21	32613.02
446.39	32467.91
446.58	32924.32
446.77	33565.62
446.95	34038.41
447.14	34941.86
447.32	35274.21
447.51	34508.86
447.69	33296.46
447.88	32959.42
448.06	33476.68
448.25	34403.53
448.43	34817.81
448.62	33708.40
448.80	33427.53
448.99	33745.84
449.17	33876.91
449.36	34108.63
449.54	35409.96
449.73	35826.58
449.91	36109.78
450.10	37504.74
450.28	37380.70
450.46	37198.13
450.65	37607.73
450.83	37099.83
451.02	36205.75
451.20	36084.04
451.39	36367.24
451.57	35782.11
451.76	36023.19
451.94	35751.68
452.13	34974.63
452.31	33542.22
452.49	32229.18
452.68	32589.62
452.86	32507.70
453.05	33195.82
453.23	34225.65
453.42	34895.05
453.60	35466.14
453.78	35819.56
453.97	35494.22
454.15	35606.57
454.34	34817.81
454.52	35187.61
454.70	34300.55
454.89	34848.24
455.07	34693.76
455.26	35810.20
455.44	36575.55
455.62	37301.12
455.81	37827.74
455.99	36891.52
456.17	36854.08
456.36	36790.88
456.54	37809.01
456.73	37684.97
456.91	38181.16
457.09	38649.27
457.28	39096.31
457.46	37694.33
457.64	37996.26
457.83	36498.31
458.01	35541.03
458.19	36933.65
458.38	37046.00
458.56	38375.42
458.74	38054.77
458.93	37343.25
459.11	37216.86
459.29	37038.98
459.48	36985.15
459.66	36601.30
459.84	37586.66
460.03	37888.59
460.21	37841.78
460.39	38923.11
460.57	38550.96
460.76	38976.94
460.94	39276.53
461.12	38375.42
461.31	38712.46
461.49	38340.32
461.67	38934.81
461.85	39887.41
462.04	39838.26
462.22	40074.65
462.40	39831.24
462.59	39756.34
462.77	39882.73
462.95	39466.11
463.13	39299.94
463.32	38536.92
463.50	38473.73
463.68	38651.61
463.86	38787.36
464.05	38110.94
464.23	37338.57
464.41	37319.84
464.59	36788.54
464.78	38550.96
464.96	38391.81
465.14	37942.42
465.32	39138.44
465.50	39487.18
465.69	40299.34
465.87	39297.59
466.05	38284.14
466.23	36933.65
466.41	36023.19
466.60	37509.43
466.78	37160.69
466.96	37799.65
467.14	38195.20
467.32	38593.09
467.51	38548.62
467.69	37134.94
467.87	37916.68
468.05	38298.19
468.23	38829.49
468.41	38951.20
468.60	38712.46
468.78	38920.77
468.96	38438.62
469.14	39070.56
469.32	39367.81
469.50	37598.37
469.69	37984.55
469.87	37415.80
470.05	37111.53
470.23	37205.16
470.41	37591.34
470.59	38204.56
470.77	38321.59
470.95	38888.00
471.14	39651.02
471.32	39611.23
471.50	41591.32
471.68	41518.76
471.86	42153.05
472.04	41935.38
472.22	42279.44
472.40	39945.92
472.58	40217.43
472.77	39634.63
472.95	40397.65
473.13	41057.68
473.31	40362.54
473.49	40744.05
473.67	41043.63
473.85	41631.11
474.03	42705.41
474.21	42653.92
474.39	42962.87
474.57	42887.98
474.75	43241.40
474.93	42745.20
475.12	41865.16
475.30	42213.90
475.48	42206.88
475.66	42967.55
475.84	41963.46
476.02	42265.39
476.20	41956.44
476.38	42000.91
476.56	43466.09
476.74	44069.95
476.92	44161.23
477.10	44851.69
477.28	45928.33
477.46	46071.10
477.64	46752.20
477.82	46712.41
478.00	46813.05
478.18	46146.00
478.36	45881.52
478.54	45879.18
478.72	46050.04
478.90	47012.00
479.08	48006.73
479.26	48711.23
479.44	48465.47
479.62	48418.66
479.80	48582.50
479.98	48500.58
480.16	48809.53
480.34	48018.43
480.52	48809.53
480.70	49261.26
480.88	48968.69
481.06	49492.97
481.24	50071.08
481.41	50784.94
481.59	51051.76
481.77	51316.25
481.95	50078.10
482.13	50520.46
482.31	50234.92
482.49	51035.38
482.67	50986.23
482.85	51313.90
483.03	51835.84
483.21	51892.02
483.39	51849.89
483.57	51075.17
483.74	50761.54
483.92	51320.93
484.10	51402.85
484.28	52509.92
484.46	52624.60
484.64	52793.12
484.82	52184.58
485.00	51873.29
485.18	50740.47
485.35	50108.53
485.53	46976.89
485.71	43594.82
485.89	42782.65
486.07	45418.10
486.25	48315.68
486.43	50422.16
486.61	51136.02
486.78	50841.12
486.96	50995.59
487.14	52643.33
487.32	53127.82
487.50	54136.59
487.68	54719.38
487.85	54948.76
488.03	54920.67
488.21	54726.41
488.39	54094.46
488.57	53675.51
488.75	53322.08
488.92	54527.46
489.10	56175.20
489.28	57151.20
489.46	57939.96
489.64	57422.70
489.81	57729.31
489.99	57457.81
490.17	57396.96
490.35	57799.53
490.53	57537.39
490.70	57041.20
490.88	57048.22
491.06	57757.40
491.24	57804.21
491.41	56790.76
491.59	55484.74
491.77	54894.92
491.95	55931.78
492.13	56905.44
492.30	57984.43
492.48	58625.74
492.66	59119.59
492.84	59000.22
493.01	58937.03
493.19	58417.43
493.37	58075.71
493.54	57991.45
493.72	58670.21
493.90	59264.70
494.08	59774.94
494.25	60212.62
494.43	60264.11
494.61	60764.99
494.79	60722.86
494.96	60683.07
495.14	59948.14
495.32	59128.95
495.49	58791.92
495.67	59723.45
495.85	61003.72
496.02	61003.72
496.20	61001.38
496.38	60430.29
496.55	60439.65
496.73	61062.24
496.91	60940.53
497.09	61389.91
497.26	61752.69
497.44	61186.28
497.62	60636.26
497.79	60055.81
497.97	58920.65
498.14	59222.58
498.32	60193.90
498.50	60917.12
498.67	61687.16
498.85	61240.12
499.03	61488.21
499.20	61715.25
499.38	61687.16
499.56	61481.19
499.73	61038.83
499.91	61006.06
500.08	60446.68
500.26	59732.81
500.44	60273.48
500.61	60893.72
500.79	60507.53
500.97	60214.96
501.14	60163.47
501.32	60114.32
501.49	60025.38
501.67	60285.18
501.84	60776.69
502.02	60823.50
502.20	61242.46
502.37	61331.40
502.55	61319.70
502.72	61825.25
502.90	62358.89
503.07	62000.79
503.25	61670.78
503.43	60786.05
503.60	60367.10
503.78	59737.49
503.95	60116.66
504.13	61488.21
504.30	62230.16
504.48	61874.40
504.65	61668.44
504.83	61745.67
505.01	62361.23
505.18	62768.49
505.36	62988.50
505.53	63117.23
505.71	63330.22
505.88	63428.52
506.06	62677.21
506.23	62553.16
506.41	62295.70
506.58	62199.74
506.76	62298.04
506.93	62389.32
507.11	62059.30
507.28	62405.70
507.46	61923.55
507.63	61265.86
507.81	61193.31
507.98	61623.96
508.16	62202.08
508.33	62471.24
508.50	62789.55
508.68	62995.52
508.85	63461.29
509.03	63426.18
509.20	63285.75
509.38	62714.65
509.55	62024.20
509.73	62134.20
509.90	62773.17
510.08	62798.91
510.25	62625.71
510.42	62482.94
510.60	62312.08
510.77	62688.91
510.95	63449.58
511.12	63391.07
511.30	63655.55
511.47	63863.86
511.64	63779.60
511.82	63512.78
511.99	62670.18
512.17	62340.17
512.34	62141.22
512.51	62408.04
512.69	62527.41
512.86	62616.35
513.04	62688.91
513.21	62763.81
513.38	62611.67
513.56	62178.67
513.73	61549.07
513.90	61928.23
514.08	62054.62
514.25	62143.56
514.43	62548.48
514.60	62412.73
514.77	62543.80
514.95	62791.89
515.12	62721.68
515.29	63091.48
515.47	63079.78
515.64	63543.20
515.81	63192.12
515.99	62595.29
516.16	61151.18
516.33	59194.49
516.51	58150.61
516.68	57371.21
516.85	56919.49
517.03	57492.92
517.20	59739.83
517.37	61853.34
517.54	62873.81
517.72	62204.42
517.89	60095.60
518.06	58316.79
518.24	58508.71
518.41	60388.16
518.58	61630.99
518.75	61556.09
518.93	61558.43
519.10	61663.75
519.27	62026.54
519.45	62267.61
519.62	63014.24
519.79	63292.77
519.96	63110.20
520.14	62562.52
520.31	61916.53
520.48	61853.34
520.65	62234.84
520.83	63206.17
521.00	63229.57
521.17	63058.71
521.34	62628.05
521.52	63016.58
521.69	63559.59
521.86	63868.54
522.03	63524.48
522.20	62347.19
522.38	61425.02
522.55	61680.14
522.72	62251.23
522.89	62326.13
523.07	62569.54
523.24	62810.62
523.41	63580.65
523.58	63898.97
523.75	64074.51
523.92	64053.44
524.10	64020.67
524.27	63927.05
524.44	63898.97
524.61	63538.52
524.78	63437.88
524.96	63524.48
525.13	63501.07
525.30	63767.90
525.47	64081.53
525.64	64104.93
525.81	63358.30
525.98	62232.50
526.16	60645.62
526.33	60360.08
526.50	59999.63
526.67	59784.30
526.84	60294.54
527.01	61006.06
527.18	61827.59
527.36	62745.08
527.53	63353.62
527.70	63618.10
527.87	63056.37
528.04	62625.71
528.21	63269.36
528.38	63835.77
528.55	64343.67
528.72	64367.07
528.89	64601.13
529.07	64493.46
529.24	63992.59
529.41	63157.02
529.58	62794.23
529.75	62763.81
529.92	63203.83
530.09	63650.87
530.26	64044.08
530.43	64322.60
530.60	64374.09
530.77	64463.03
530.94	64491.12
531.11	64221.96
531.28	64008.97
531.46	63767.90
531.63	63826.41
531.80	63611.08
531.97	63201.49
532.14	62585.92
532.31	61808.87
532.48	61111.39
532.65	61471.83
532.82	62202.08
532.99	63103.18
533.16	63325.53
533.33	63819.39
533.50	63653.21
533.67	63192.12
533.84	62606.99
534.01	62951.05
534.18	63107.86
534.35	63201.49
534.52	63063.39
534.69	63276.38
534.86	63678.96
535.03	63966.84
535.20	64240.68
535.37	64470.06
535.54	64587.08
535.71	64273.45
535.88	63978.54
536.05	63393.41
536.22	62972.11
536.38	62869.13
536.55	62241.87
536.72	61900.15
536.89	61888.45
537.06	62789.55
537.23	63454.26
537.40	63601.72
537.57	63620.44
537.74	63582.99
537.91	63365.32
538.08	63318.51
538.25	63435.54
538.42	63594.70
538.59	63245.96
538.75	62735.72
538.92	62653.80
539.09	62581.24
539.26	62234.84
539.43	62267.61
539.60	62321.44
539.77	62480.60
539.94	62265.27
540.11	61755.03
540.28	61127.77
540.44	61385.23
540.61	61516.30
540.78	61628.65
540.95	62246.55
541.12	62464.22
541.29	62850.41
541.46	62958.07
541.62	62967.43
541.79	62880.83
541.96	62169.31
542.13	62529.75
542.30	62614.01
542.47	62831.68
542.63	62585.92
542.80	62422.09
542.97	62431.45
543.14	62195.06
543.31	62155.27
543.48	62798.91
543.64	63484.69
543.81	63737.47
543.98	63533.84
544.15	62831.68
544.32	62337.83
544.48	62588.27
544.65	62988.50
544.82	63245.96
544.99	62969.77
545.16	62581.24
545.32	62405.70
545.49	63196.80
545.66	63437.88
545.83	62948.71
546.00	62731.04
546.16	62630.40
546.33	62658.48
546.50	62663.16
546.67	63135.95
546.83	62735.72
547.00	62536.77
547.17	61970.36
547.34	61481.19
547.50	61403.95
547.67	61914.19
547.84	62047.60
548.00	62319.10
548.17	62829.34
548.34	62595.29
548.51	62560.18
548.67	62817.64
548.84	62761.47
549.01	62677.21
549.18	62548.48
549.34	62305.06
549.51	62422.09
549.68	62436.13
549.84	62188.03
550.01	62134.20
550.18	62061.64
550.34	62129.52
550.51	62223.14
550.68	62312.08
550.84	61799.50
551.01	61993.77
551.18	61820.57
551.34	62056.96
551.51	62321.44
551.68	62606.99
551.84	62576.56
552.01	62651.46
552.18	62379.96
552.34	61516.30
552.51	61476.51
552.68	61366.51
552.84	61766.74
553.01	61890.79
553.18	61993.77
553.34	62068.67
553.51	62108.46
553.67	62293.36
553.84	62482.94
554.01	62368.26
554.17	62220.80
554.34	61993.77
554.51	62206.76
554.67	62695.93
554.84	62534.43
555.00	62188.03
555.17	61825.25
555.33	61811.21
555.50	61858.02
555.67	61946.96
555.83	61769.08
556.00	61478.85
556.16	61616.94
556.33	61167.56
556.50	60985.00
556.66	61212.03
556.83	60825.84
556.99	61104.37
557.16	61242.46
557.32	61366.51
557.49	61476.51
557.65	61300.97
557.82	61410.98
557.98	61495.24
558.15	60839.89
558.32	60097.94
558.48	59355.99
558.65	59625.15
558.81	60074.53
558.98	60350.71
559.14	60690.09
559.31	60533.28
559.47	60598.81
559.64	60144.75
559.80	59973.89
559.97	60161.13
560.13	60427.95
560.30	61279.91
560.46	61687.16
560.63	61865.04
560.79	61881.42
560.96	61446.08
561.12	60509.87
561.29	59767.92
561.45	59938.78
561.61	60486.46
561.78	60781.37
561.94	60561.36
562.11	60561.36
562.27	60191.56
562.44	60802.44
562.60	61083.30
562.77	61120.75
562.93	61109.05
563.10	60987.34
563.26	60678.39
563.42	60603.49
563.59	60479.44
563.75	60320.29
563.92	60540.30
564.08	60198.58
564.24	60563.70
564.41	60659.66
564.57	60364.76
564.74	60317.95
564.90	60285.18
565.07	60111.98
565.23	59906.01
565.39	59405.14
565.56	59082.14
565.72	59058.74
565.88	59370.03
566.05	59381.73
566.21	59529.19
566.38	59828.77
566.54	59784.30
566.70	60299.22
566.87	60390.50
567.03	60322.63
567.19	60638.60
567.36	60149.43
567.52	60123.68
567.68	59873.24
567.85	59440.24
568.01	59051.72
568.17	58700.64
568.34	58810.64
568.50	58843.41
568.66	58920.65
568.83	59250.66
568.99	59157.04
569.15	59388.75
569.32	59346.62
569.48	59192.15
569.64	59004.91
569.81	58731.06
569.97	58632.76
570.13	58721.70
570.30	58293.38
570.46	57851.02
570.62	57502.28
570.78	57464.83
570.95	57916.56
571.11	58225.51
571.27	58351.90
571.43	58763.83
571.60	59016.61
571.76	59180.45
571.92	59405.14
572.09	59217.89
572.25	59131.29
572.41	59215.55
572.57	59124.27
572.74	59208.53
572.90	58726.38
573.06	58866.81
573.22	58859.79
573.38	58787.24
573.55	58646.80
573.71	59147.68
573.87	58951.07
574.03	58618.72
574.20	58721.70
574.36	58628.08
574.52	58424.45
574.68	58164.65
574.84	57729.31
575.01	57425.04
575.17	57265.89
575.33	57862.72
575.49	57970.39
575.65	58218.49
575.82	58007.84
575.98	57551.43
576.14	57794.85
576.30	57982.09
576.46	58176.36
576.62	58117.84
576.79	58248.91
576.95	57970.39
577.11	57733.99
577.27	57942.30
577.43	57963.37
577.59	57525.69
577.75	57181.63
577.92	56577.77
578.08	56603.52
578.24	56643.30
578.40	56884.38
578.56	57027.15
578.72	57216.74
578.88	57202.69
579.04	57521.01
579.21	57394.62
579.37	57275.25
579.53	57455.47
579.69	57441.43
579.85	57712.93
580.01	57600.58
580.17	57209.71
580.33	56835.23
580.49	57038.86
580.65	57434.41
580.82	57640.37
580.98	57436.75
581.14	57549.09
581.30	57593.56
581.46	57233.12
581.62	57546.75
581.78	57670.80
581.94	57724.63
582.10	57675.48
582.26	57855.70
582.42	57670.80
582.58	57647.39
582.74	57687.18
582.90	57733.99
583.06	57986.77
583.22	57464.83
583.38	57488.24
583.54	57495.26
583.70	57195.67
583.86	57509.30
584.02	57064.60
584.18	57563.14
584.34	57284.61
584.50	57148.86
584.66	57263.55
584.82	56708.84
584.98	56743.95
585.14	56514.58
