SpectraSuite Data File
++++++++++++++++++++++++++++++++++++
Date: Mon Oct 07 14:54:04 GMT-05:00 2013
User: price-jones
Dark Spectrum Present: No
Reference Spectrum Present: No
Number of Sampled Component Spectra: 1
Spectrometers: USB2+H05261
Integration Time (usec): 100000 (USB2+H05261)
Spectra Averaged: 1 (USB2+H05261)
Boxcar Smoothing: 0 (USB2+H05261)
Correct for Electrical Dark: No (USB2+H05261)
Strobe/Lamp Enabled: No (USB2+H05261)
Correct for Detector Non-linearity: No (USB2+H05261)
Correct for Stray Light: No (USB2+H05261)
Number of Pixels in Processed Spectrum: 2048
>>>>>Begin Processed Spectral Data<<<<<
365.73	0.00
365.92	0.00
366.12	0.00
366.32	0.00
366.52	0.00
366.72	0.00
366.91	0.00
367.11	0.00
367.31	0.00
367.51	0.00
367.70	0.00
367.90	0.00
368.10	0.00
368.30	0.00
368.49	0.00
368.69	0.00
368.89	0.00
369.09	0.00
369.28	0.00
369.48	0.00
369.68	0.00
369.87	0.00
370.07	0.00
370.27	0.00
370.47	690.46
370.66	3524.85
370.86	4067.85
371.06	4416.59
371.25	4447.02
371.45	4028.06
371.65	3637.19
371.84	3396.12
372.04	3398.46
372.24	4072.53
372.44	4060.83
372.63	3997.64
372.83	3906.35
373.03	3283.77
373.22	3108.23
373.42	3262.71
373.62	3691.02
373.81	4102.96
374.01	4072.53
374.21	3609.11
374.40	3396.12
374.60	3578.68
374.79	3957.85
374.99	4702.14
375.19	5067.26
375.38	5156.20
375.58	4676.39
375.78	4793.42
375.97	4660.01
376.17	5062.58
376.37	4870.65
376.56	4945.55
376.76	5270.89
376.95	5767.08
377.15	6228.17
377.35	6253.91
377.54	6544.14
377.74	6724.36
377.93	6787.55
378.13	6586.27
378.33	6377.96
378.52	5586.86
378.72	5551.75
378.91	5486.22
379.11	5193.65
379.31	5039.17
379.50	5102.37
379.70	5416.00
379.89	5968.37
380.09	6300.72
380.28	6745.42
380.48	6745.42
380.68	6471.58
380.87	6267.95
381.07	5743.67
381.26	5458.13
381.46	5018.11
381.65	4908.10
381.85	4746.61
382.04	4526.60
382.24	4255.09
382.43	4044.45
382.63	3911.04
382.83	3988.27
383.02	4109.98
383.22	4077.21
383.41	4149.77
383.61	4241.05
383.80	4807.46
384.00	5523.66
384.19	6211.78
384.39	6480.94
384.58	6303.06
384.78	6171.99
384.97	6277.32
385.17	6029.22
385.36	5652.39
385.56	5500.26
385.75	5610.26
385.95	5970.71
386.14	6689.25
386.34	6637.76
386.53	6455.20
386.72	5825.59
386.92	6076.03
387.11	6401.37
387.31	6813.30
387.50	6637.76
387.70	6150.93
387.89	6303.06
388.09	6242.21
388.28	6230.51
388.48	6377.96
388.67	6853.09
388.86	7679.30
389.06	8056.12
389.25	8629.56
389.45	8596.79
389.64	8517.21
389.84	8613.17
390.03	8390.82
390.22	8322.94
390.42	8683.39
390.61	9151.49
390.81	9715.56
391.00	9830.25
391.19	9921.53
391.39	9483.85
391.58	9114.05
391.78	8503.17
391.97	8238.69
392.16	7728.45
392.36	7021.61
392.55	5612.60
392.75	4561.70
392.94	3702.73
393.13	3676.98
393.33	4248.07
393.52	5626.65
393.71	6607.33
393.91	7489.71
394.10	8114.64
394.29	8882.33
394.49	9617.26
394.68	10406.02
394.88	10256.23
395.07	10911.58
395.26	10520.71
395.46	10347.51
395.65	9769.40
395.84	8692.75
396.04	7267.36
396.23	5893.47
396.42	4975.98
396.62	4688.09
396.81	5460.47
397.00	7094.16
397.19	8870.63
397.39	10560.50
397.58	11775.24
397.77	12510.16
397.97	12924.44
398.16	13130.41
398.35	13652.34
398.55	14064.28
398.74	14754.74
398.93	15005.17
399.12	14569.83
399.32	13961.30
399.51	14368.55
399.70	15484.98
399.90	15229.87
400.09	15321.15
400.28	15108.16
400.47	15302.42
400.67	15683.93
400.86	16358.00
401.05	16587.38
401.24	16559.29
401.44	16720.79
401.63	16765.26
401.82	16837.81
402.01	16849.52
402.21	17163.15
402.40	16893.99
402.59	16421.20
402.78	15985.86
402.97	15419.45
403.17	16095.86
403.36	16795.68
403.55	17507.21
403.74	17982.34
403.93	17088.25
404.13	15723.72
404.32	15243.91
404.51	15985.86
404.70	17338.69
404.89	17418.27
405.09	16863.56
405.28	16189.49
405.47	16713.77
405.66	16599.08
405.85	16322.90
406.05	15749.46
406.24	15927.35
406.43	16673.98
406.62	17114.00
406.81	17343.37
407.00	16826.11
407.20	16292.47
407.39	16400.13
407.58	17076.55
407.77	17759.98
407.96	18457.46
408.15	18640.03
408.34	18602.58
408.54	19426.45
408.73	19669.86
408.92	19070.68
409.11	18993.45
409.30	17640.62
409.49	16549.93
409.68	15662.86
409.87	15042.62
410.07	16308.85
410.26	17783.39
410.45	18471.51
410.64	18712.58
410.83	19372.61
411.02	19740.08
411.21	20755.87
411.40	20496.07
411.59	20781.62
411.78	20175.42
411.98	20177.76
412.17	20676.29
412.36	20205.84
412.55	20105.20
412.74	19798.59
412.93	19171.33
413.12	19641.78
413.31	21219.30
413.50	21549.31
413.69	22335.73
413.88	21095.25
414.07	20086.48
414.26	20657.57
414.45	21357.39
414.64	21549.31
414.83	21542.29
415.02	21029.71
415.22	21034.39
415.41	22001.04
415.60	22309.99
415.79	23173.64
415.98	23339.82
416.17	23840.70
416.36	23262.58
416.55	22860.01
416.74	21839.54
416.93	21256.75
417.12	20994.61
417.31	21715.49
417.50	22279.56
417.69	22504.25
417.88	22588.51
418.07	22525.32
418.26	22003.38
418.45	22108.70
418.64	23075.34
418.83	23796.23
419.02	23639.41
419.21	23573.88
419.39	22459.78
419.58	21216.96
419.77	21387.82
419.96	22359.14
420.15	23594.94
420.34	24341.57
420.53	24915.00
420.72	25357.36
420.91	25142.03
421.10	24973.52
421.29	24725.42
421.48	23749.42
421.67	24952.45
421.86	24261.99
422.05	22850.65
422.24	20318.19
422.43	19920.30
422.61	22207.00
422.80	24049.00
422.99	24018.58
423.18	23061.30
423.37	22796.82
423.56	22768.73
423.75	23002.78
423.94	23688.56
424.13	22043.17
424.32	22717.24
424.50	22361.48
424.69	22382.54
424.88	22410.63
425.07	22258.49
425.26	22253.81
425.45	21998.70
425.64	21699.11
425.83	21642.93
426.01	22707.88
426.20	23433.44
426.39	23068.32
426.58	21493.14
426.77	20058.39
426.96	19363.25
427.15	20140.31
427.33	21614.85
427.52	22525.32
427.71	22504.25
427.90	22373.18
428.09	21942.52
428.28	21605.49
428.46	21266.11
428.65	20547.56
428.84	21226.32
429.03	21413.56
429.22	20327.55
429.40	19152.60
429.59	17731.90
429.78	15447.54
429.97	15339.87
430.16	15431.15
430.34	15826.70
430.53	15735.42
430.72	15829.04
430.91	17717.86
431.10	20835.45
431.28	24959.47
431.47	26707.85
431.66	27026.17
431.85	24641.16
432.03	22368.50
432.22	21558.67
432.41	22462.12
432.60	24713.72
432.79	25713.13
432.97	26574.44
433.16	25806.75
433.35	23597.28
433.54	21200.57
433.72	20049.03
433.91	20746.51
434.10	22855.33
434.28	24315.83
434.47	25905.05
434.66	25834.83
434.85	25048.41
435.03	24643.50
435.22	25233.32
435.41	26504.23
435.59	26953.61
435.78	27194.68
435.97	27634.71
436.16	27974.08
436.34	27424.06
436.53	26967.65
436.72	27164.26
436.90	25734.19
437.09	25715.47
437.28	25223.95
437.46	25825.47
437.65	26188.25
437.84	24379.02
438.02	22298.28
438.21	22253.81
438.40	23295.35
438.58	25319.92
438.77	25961.22
438.96	26096.97
439.14	27325.75
439.33	28027.92
439.52	28266.65
439.70	27871.10
439.89	27295.33
440.08	26515.93
440.26	25993.99
440.45	27136.17
440.63	28875.19
440.82	30450.37
441.01	29993.97
441.19	29563.31
441.38	29963.54
441.57	31356.16
441.75	31997.46
441.94	31974.06
442.12	31545.74
442.31	32196.41
442.50	32156.62
442.68	31782.13
442.87	31398.29
443.05	30813.15
443.24	31360.84
443.43	32060.66
443.61	32491.32
443.80	33039.00
443.98	30885.71
444.17	30972.31
444.35	33008.58
444.54	33703.71
444.73	33188.80
444.91	31997.46
445.10	30155.46
445.28	29266.06
445.47	28779.23
445.65	28945.41
445.84	29797.36
446.02	30356.75
446.21	31208.70
446.39	31424.03
446.58	31573.83
446.77	32191.73
446.95	32451.53
447.14	33582.01
447.32	33977.56
447.51	32912.61
447.69	31945.97
447.88	31606.59
448.06	31896.82
448.25	32947.72
448.43	32933.68
448.62	31967.04
448.80	32275.99
448.99	32407.06
449.17	32727.71
449.36	32594.30
449.54	34045.43
449.73	33933.09
449.91	34656.31
450.10	35871.05
450.28	35917.86
450.46	35927.22
450.65	35688.49
450.83	35463.80
451.02	34492.47
451.20	34604.82
451.39	34218.63
451.57	34658.65
451.76	34462.05
451.94	34340.34
452.13	33310.50
452.31	31915.54
452.49	30635.27
452.68	30925.50
452.86	30562.72
453.05	31644.04
453.23	32510.04
453.42	32870.48
453.60	33500.09
453.78	33897.98
453.97	33914.36
454.15	33724.78
454.34	33036.66
454.52	33085.81
454.70	32449.19
454.89	32947.72
455.07	33141.99
455.26	33582.01
455.44	34623.54
455.62	35306.98
455.81	35800.83
455.99	35388.90
456.17	34859.94
456.36	34815.47
456.54	35611.25
456.73	35833.60
456.91	36348.52
457.09	36444.48
457.28	37048.34
457.46	35899.14
457.64	35384.22
457.83	34831.85
458.01	33579.67
458.19	34656.31
458.38	34834.19
458.56	36378.95
458.74	36201.07
458.93	35405.28
459.11	34754.61
459.29	34635.25
459.48	35365.49
459.66	34822.49
459.84	35587.85
460.03	35761.05
460.21	36055.95
460.39	36601.30
460.57	36697.26
460.76	37148.98
460.94	37141.96
461.12	36446.82
461.31	36385.97
461.49	36500.65
461.67	36594.28
461.85	37727.10
462.04	37301.12
462.22	37383.04
462.40	37687.31
462.59	37619.43
462.77	38080.52
462.95	37645.18
463.13	37244.94
463.32	36680.88
463.50	36348.52
463.68	36168.30
463.86	36322.77
464.05	36266.60
464.23	35325.71
464.41	35126.76
464.59	34440.98
464.78	36346.18
464.96	36290.01
465.14	36051.27
465.32	36905.57
465.50	37404.10
465.69	37930.72
465.87	37244.94
466.05	36105.10
466.23	34258.42
466.41	33928.41
466.60	34749.93
466.78	34714.83
466.96	35407.62
467.14	35938.93
467.32	36449.16
467.51	36713.64
467.69	34850.58
467.87	35508.27
468.05	36126.17
468.23	35545.72
468.41	35999.78
468.60	36032.55
468.78	36432.78
468.96	36098.08
469.14	36547.47
469.32	37322.18
469.50	35629.98
469.69	35487.20
469.87	35206.34
470.05	34976.97
470.23	34841.21
470.41	35166.55
470.59	35945.95
470.77	35463.80
470.95	36353.20
471.14	36687.90
471.32	36570.87
471.50	38581.39
471.68	39367.81
471.86	38850.55
472.04	38904.38
472.22	39889.75
472.40	37787.95
472.58	37221.54
472.77	37118.56
472.95	37432.19
473.13	38185.84
473.31	37305.80
473.49	37745.82
473.67	38630.54
473.85	38785.02
474.03	39604.20
474.21	39988.05
474.39	40165.93
474.57	40591.91
474.75	40107.42
474.93	40062.95
475.12	38803.74
475.30	39381.85
475.48	39086.95
475.66	39707.19
475.84	39433.35
476.02	39009.71
476.20	38562.67
476.38	39332.70
476.56	40559.14
476.74	41102.15
476.92	40910.22
477.10	41738.77
477.28	42789.67
477.46	42703.07
477.64	43089.26
477.82	43758.66
478.00	43849.94
478.18	43002.66
478.36	42864.57
478.54	42684.35
478.72	42976.92
478.90	43491.83
479.08	44788.49
479.26	45411.07
479.44	45588.95
479.62	44954.67
479.80	44823.60
479.98	45357.24
480.16	45921.31
480.34	45186.38
480.52	45574.91
480.70	46036.00
480.88	45425.12
481.06	46438.57
481.24	46909.02
481.41	47983.32
481.59	48418.66
481.77	47966.94
481.95	47452.02
482.13	46904.34
482.31	46845.82
482.49	48100.35
482.67	48090.99
482.85	47978.64
483.03	48533.35
483.21	48978.05
483.39	48891.45
483.57	48332.06
483.74	47643.94
483.92	48432.71
484.10	48463.13
484.28	49179.34
484.46	49495.31
484.64	50129.59
484.82	49188.70
485.00	48631.65
485.18	48210.35
485.35	46295.80
485.53	43959.94
485.71	39917.84
485.89	39697.83
486.07	41045.97
486.25	44575.50
486.43	47353.72
486.61	47896.72
486.78	47302.23
486.96	47669.69
487.14	49511.69
487.32	50204.49
487.50	51070.49
487.68	51767.97
487.85	52449.06
488.03	52523.96
488.21	52137.77
488.39	51585.41
488.57	50731.11
488.75	50160.02
488.92	51203.90
489.10	53361.87
489.28	54667.89
489.46	55199.19
489.64	55065.78
489.81	55082.17
489.99	54979.18
490.17	54759.17
490.35	55168.77
490.53	54644.49
490.70	54270.00
490.88	54162.34
491.06	55187.49
491.24	55278.77
491.41	54213.83
491.59	53024.84
491.77	52009.04
491.95	53020.16
492.13	54270.00
492.30	55384.10
492.48	56046.47
492.66	56264.14
492.84	56708.84
493.01	56498.19
493.19	55861.57
493.37	55526.87
493.54	54990.89
493.72	55793.69
493.90	57027.15
494.08	57525.69
494.25	57804.21
494.43	57773.78
494.61	58209.12
494.79	58195.08
494.96	57979.75
495.14	57446.11
495.32	56760.33
495.49	56156.47
495.67	56903.10
495.85	58117.84
496.02	58742.77
496.20	58387.00
496.38	57977.41
496.55	57844.00
496.73	58410.41
496.91	58642.12
497.09	58946.39
497.26	59327.90
497.44	58616.38
497.62	58237.21
497.79	57577.18
497.97	56353.08
498.14	56367.12
498.32	57642.71
498.50	58277.00
498.67	58932.35
498.85	58642.12
499.03	58960.44
499.20	59135.98
499.38	59196.83
499.56	58983.84
499.73	58520.41
499.91	58206.78
500.08	57839.32
500.26	56954.60
500.44	57666.12
500.61	58078.05
500.79	58019.54
500.97	57661.44
501.14	57474.20
501.32	57092.69
501.49	57371.21
501.67	57453.13
501.84	57963.37
502.02	58302.74
502.20	58569.57
502.37	58677.23
502.55	58735.74
502.72	59267.05
502.90	59667.28
503.07	59430.88
503.25	59157.04
503.43	58372.96
503.60	57731.65
503.78	57036.51
503.95	57434.41
504.13	58621.06
504.30	59604.08
504.48	59262.36
504.65	59044.69
504.83	58976.82
505.01	59517.48
505.18	59915.37
505.36	60509.87
505.53	60540.30
505.71	60818.82
505.88	60779.03
506.06	60055.81
506.23	59732.81
506.41	59655.57
506.58	59854.52
506.76	59683.66
506.93	59379.39
507.11	59290.45
507.28	59594.72
507.46	59096.19
507.63	58721.70
507.81	58131.89
507.98	58595.31
508.16	59341.94
508.33	59753.88
508.50	59952.82
508.68	60346.03
508.85	60652.64
509.03	60809.46
509.20	60516.89
509.38	59821.75
509.55	59419.18
509.73	59395.77
509.90	59845.16
510.08	60243.05
510.25	60058.15
510.42	59873.24
510.60	59791.33
510.77	60090.91
510.95	60486.46
511.12	60542.64
511.30	60786.05
511.47	61080.96
511.64	61111.39
511.82	60608.17
511.99	59929.42
512.17	59655.57
512.34	59330.24
512.51	59367.69
512.69	59573.66
512.86	59531.53
513.04	59913.03
513.21	60179.85
513.38	59686.00
513.56	59302.15
513.73	58677.23
513.90	58775.53
514.08	58873.84
514.25	59018.95
514.43	59353.65
514.60	59618.13
514.77	59517.48
514.95	59702.38
515.12	59695.36
515.29	59725.79
515.47	60308.58
515.64	60493.49
515.81	60121.34
515.99	59468.33
516.16	58305.09
516.33	56112.00
516.51	54726.41
516.68	54047.65
516.85	53389.96
517.03	53897.86
517.20	56271.16
517.37	58773.19
517.54	59788.98
517.72	59229.60
517.89	57050.56
518.06	54541.50
518.24	54838.75
518.41	56858.63
518.58	58120.18
518.75	58560.20
518.93	58763.83
519.10	58515.73
519.27	59128.95
519.45	59241.30
519.62	59807.71
519.79	60303.90
519.96	60236.03
520.14	59742.17
520.31	58791.92
520.48	58801.28
520.65	59068.10
520.83	60020.70
521.00	60402.21
521.17	60048.78
521.34	59824.09
521.52	60062.83
521.69	60612.85
521.86	60727.54
522.03	60500.51
522.20	59395.77
522.38	58323.81
522.55	58550.84
522.72	59058.74
522.89	59243.64
523.07	59152.36
523.24	59505.78
523.41	60460.72
523.58	60701.79
523.75	60926.49
523.92	61120.75
524.10	60809.46
524.27	60825.84
524.44	60687.75
524.61	60474.76
524.78	60512.21
524.96	60336.67
525.13	60381.14
525.30	60629.24
525.47	61022.45
525.64	60715.84
525.81	60353.05
525.98	58878.52
526.16	57382.91
526.33	56851.61
526.50	56512.23
526.67	56097.96
526.84	56781.40
527.01	57647.39
527.18	58436.16
527.36	59154.70
527.53	60142.41
527.70	60657.32
527.87	59927.08
528.04	59416.84
528.21	59770.26
528.38	60530.93
528.55	60961.59
528.72	61263.52
528.89	61399.27
529.07	61317.35
529.24	60362.42
529.41	59976.23
529.58	59348.96
529.75	59384.07
529.92	59833.46
530.09	60182.19
530.26	60619.88
530.43	60823.50
530.60	61111.39
530.77	61352.46
530.94	61179.26
531.11	60982.66
531.28	60610.51
531.46	60203.26
531.63	60479.44
531.80	60285.18
531.97	60151.77
532.14	59311.52
532.31	58176.36
532.48	57778.46
532.65	57687.18
532.82	58630.42
532.99	59611.10
533.16	59945.80
533.33	60392.84
533.50	60360.08
533.67	59597.06
533.84	59185.13
534.01	59419.18
534.18	59433.22
534.35	59927.08
534.52	59636.85
534.69	59760.90
534.86	60144.75
535.03	60392.84
535.20	60816.48
535.37	61048.19
535.54	61425.02
535.71	60764.99
535.88	60619.88
536.05	59784.30
536.22	59686.00
536.38	59426.20
536.55	58944.05
536.72	58497.01
536.89	58403.39
537.06	59032.99
537.23	59971.55
537.40	60013.68
537.57	60369.44
537.74	59962.18
537.91	59784.30
538.08	59969.21
538.25	59800.69
538.42	60161.13
538.59	59749.20
538.75	59173.42
538.92	59032.99
539.09	58913.62
539.26	58878.52
539.43	58644.46
539.60	58614.04
539.77	58599.99
539.94	58562.54
540.11	57846.34
540.28	57481.22
540.44	57741.02
540.61	57719.95
540.78	57902.51
540.95	58351.90
541.12	58805.96
541.29	59063.42
541.46	59327.90
541.62	59061.08
541.79	59189.81
541.96	58326.15
542.13	58511.05
542.30	58747.45
542.47	59061.08
542.63	58688.93
542.80	58611.70
542.97	58773.19
543.14	58492.33
543.31	58623.40
543.48	59262.36
543.64	59962.18
543.81	60032.40
543.98	59873.24
544.15	59245.98
544.32	58590.63
544.48	58810.64
544.65	59100.87
544.82	59618.13
544.99	59208.53
545.16	58901.92
545.32	58588.29
545.49	59341.94
545.66	59667.28
545.83	59288.11
546.00	59185.13
546.16	58590.63
546.33	58735.74
546.50	58993.20
546.67	59229.60
546.83	58731.06
547.00	58864.47
547.17	58267.64
547.34	57607.61
547.50	57848.68
547.67	58047.63
547.84	58152.95
548.00	58515.73
548.17	59065.76
548.34	58845.75
548.51	58726.38
548.67	58726.38
548.84	58747.45
549.01	58611.70
549.18	58679.57
549.34	58712.34
549.51	58688.93
549.68	58597.65
549.84	58370.62
550.01	58227.85
550.18	58054.65
550.34	58377.64
550.51	58277.00
550.68	58274.66
550.84	57914.22
551.01	57937.62
551.18	57846.34
551.34	58148.27
551.51	58597.65
551.68	58532.12
551.84	58803.62
552.01	58508.71
552.18	58408.07
552.34	57710.59
552.51	57528.03
552.68	57073.96
552.84	57546.75
553.01	58017.20
553.18	57937.62
553.34	58026.56
553.51	58199.76
553.67	58546.16
553.84	58592.97
554.01	58384.66
554.17	58042.95
554.34	58239.55
554.51	58232.53
554.67	58649.14
554.84	58450.20
555.00	58181.04
555.17	57996.13
555.33	57886.13
555.50	57694.21
555.67	57820.59
555.83	57626.33
556.00	57509.30
556.16	57546.75
556.33	56914.81
556.50	56970.98
556.66	56760.33
556.83	56486.49
556.99	56762.67
557.16	56676.07
557.32	57162.90
557.49	57427.38
557.65	57350.15
557.82	57336.10
557.98	57027.15
558.15	56842.25
558.32	55814.76
558.48	55332.60
558.65	55199.19
558.81	56002.00
558.98	56156.47
559.14	56198.60
559.31	56123.71
559.47	56392.87
559.64	55959.87
559.80	55688.37
559.97	55599.43
560.13	55955.19
560.30	56844.59
560.46	57354.83
560.63	57649.74
560.79	57841.66
560.96	57195.67
561.12	55978.59
561.29	55260.05
561.45	55290.48
561.61	55978.59
561.78	56296.91
561.94	56212.65
562.11	55861.57
562.27	56004.34
562.44	56058.17
562.60	56587.13
562.77	56746.29
562.93	56790.76
563.10	56446.70
563.26	55819.44
563.42	56130.73
563.59	55756.24
563.75	55838.16
563.92	55669.64
564.08	55789.01
564.24	56301.59
564.41	56060.51
564.57	56135.41
564.74	55730.50
564.90	55756.24
565.07	55646.24
565.23	55248.35
565.39	54775.56
565.56	54562.57
565.72	54230.21
565.88	54384.69
566.05	54614.06
566.21	55084.51
566.38	54827.05
566.54	55051.74
566.70	55435.59
566.87	55803.05
567.03	55880.29
567.19	55709.43
567.36	55714.11
567.52	55276.43
567.68	55185.15
567.85	54541.50
568.01	53993.82
568.17	53942.33
568.34	53937.65
568.50	54019.56
568.66	53759.76
568.83	54291.07
568.99	54417.46
569.15	54749.81
569.32	54602.36
569.48	54218.51
569.64	54162.34
569.81	53996.16
569.97	53890.83
570.13	53778.49
570.30	53401.66
570.46	52629.29
570.62	52486.51
570.78	52088.62
570.95	52212.67
571.11	53354.85
571.27	53392.30
571.43	53647.42
571.60	53848.71
571.76	53998.50
571.92	54085.10
572.09	54396.39
572.25	54340.22
572.41	54468.95
572.57	54244.26
572.74	54396.39
572.90	53570.18
573.06	53853.39
573.22	53829.98
573.38	53848.71
573.55	53656.78
573.71	53956.37
573.87	53745.72
574.03	53347.83
574.20	53549.12
574.36	53457.84
574.52	53404.00
574.68	53205.06
574.84	52802.49
575.01	52215.01
575.17	51948.19
575.33	52343.74
575.49	52474.81
575.65	52547.37
575.82	52516.94
575.98	52282.89
576.14	52673.76
576.30	52959.30
576.46	53226.12
576.62	52844.62
576.79	52783.76
576.95	52542.69
577.11	52168.20
577.27	52704.18
577.43	52552.05
577.59	52289.91
577.75	51868.61
577.92	50869.20
578.08	51023.68
578.24	50937.08
578.40	51033.04
578.56	51573.70
578.72	51344.33
578.88	51873.29
579.04	51798.40
579.21	51833.50
579.37	51941.17
579.53	52179.90
579.69	52083.94
579.85	52140.11
580.01	52252.46
580.17	51454.34
580.33	51288.16
580.49	51732.86
580.65	52229.05
580.82	51927.13
580.98	52030.11
581.14	52151.82
581.30	51934.15
581.46	52046.49
581.62	52200.97
581.78	51814.78
581.94	52418.64
582.10	52189.27
582.26	52168.20
582.42	52343.74
582.58	52121.39
582.74	51980.96
582.90	52238.42
583.06	51997.34
583.22	51608.81
583.38	51730.52
583.54	51824.14
583.70	51634.56
583.86	51868.61
584.02	51587.75
584.18	51896.70
584.34	51779.67
584.50	51356.03
584.66	51620.52
584.82	51175.81
584.98	50827.07
585.14	50539.19
