SpectraSuite Data File
++++++++++++++++++++++++++++++++++++
Date: Mon Oct 07 14:53:28 GMT-05:00 2013
User: price-jones
Dark Spectrum Present: No
Reference Spectrum Present: No
Number of Sampled Component Spectra: 1
Spectrometers: USB2+H05261
Integration Time (usec): 100000 (USB2+H05261)
Spectra Averaged: 1 (USB2+H05261)
Boxcar Smoothing: 0 (USB2+H05261)
Correct for Electrical Dark: No (USB2+H05261)
Strobe/Lamp Enabled: No (USB2+H05261)
Correct for Detector Non-linearity: No (USB2+H05261)
Correct for Stray Light: No (USB2+H05261)
Number of Pixels in Processed Spectrum: 2048
>>>>>Begin Processed Spectral Data<<<<<
365.73	0.00
365.92	0.00
366.12	0.00
366.32	0.00
366.52	0.00
366.72	0.00
366.91	0.00
367.11	0.00
367.31	0.00
367.51	0.00
367.70	0.00
367.90	0.00
368.10	0.00
368.30	0.00
368.49	0.00
368.69	0.00
368.89	0.00
369.09	0.00
369.28	0.00
369.48	0.00
369.68	0.00
369.87	0.00
370.07	0.00
370.27	0.00
370.47	636.63
370.66	3143.34
370.86	3672.30
371.06	4072.53
371.25	4086.58
371.45	3756.56
371.65	3384.41
371.84	3185.47
372.04	3300.16
372.24	3695.71
372.44	3892.31
372.63	3812.73
372.83	3557.61
373.03	3103.55
373.22	2834.39
373.42	3054.40
373.62	3398.46
373.81	3772.94
374.01	3796.35
374.21	3412.50
374.40	3030.99
374.60	3258.03
374.79	3747.20
374.99	4145.09
375.19	4779.37
375.38	4674.05
375.58	4374.46
375.78	4219.99
375.97	4393.19
376.17	4557.02
376.37	4479.79
376.56	4685.75
376.76	4908.10
376.95	5018.11
377.15	5408.98
377.35	5720.27
377.54	5984.75
377.74	6157.95
377.93	6375.62
378.13	5954.32
378.33	5696.86
378.52	5179.61
378.72	4999.38
378.91	4924.49
379.11	4781.71
379.31	4732.56
379.50	4732.56
379.70	4891.72
379.89	5568.13
380.09	5914.53
380.28	6057.31
380.48	6188.38
380.68	5853.68
380.87	5877.09
381.07	5322.38
381.26	4980.66
381.46	4741.93
381.65	4620.22
381.85	4337.01
382.04	4222.33
382.24	3894.65
382.43	3733.15
382.63	3492.08
382.83	3684.00
383.02	3655.92
383.22	3602.08
383.41	3751.88
383.61	3946.14
383.80	4610.86
384.00	4950.23
384.19	5827.93
384.39	5980.07
384.58	5895.81
384.78	5717.93
384.97	5851.34
385.17	5556.43
385.36	5121.09
385.56	5158.54
385.75	5186.63
385.95	5666.44
386.14	6291.36
386.34	6361.58
386.53	5895.81
386.72	5528.35
386.92	5577.50
387.11	5783.46
387.31	6209.44
387.50	6071.35
387.70	5703.89
387.89	5872.40
388.09	5816.23
388.28	5942.62
388.48	6057.31
388.67	6452.86
388.86	6946.71
389.06	7566.95
389.25	8011.65
389.45	8084.21
389.64	8105.28
389.84	7976.55
390.03	7843.14
390.22	7578.65
390.42	7885.26
390.61	8468.06
390.81	9219.37
391.00	9277.88
391.19	9177.24
391.39	9233.41
391.58	8226.98
391.78	7772.92
391.97	7742.49
392.16	6885.86
392.36	6649.46
392.55	5198.33
392.75	4231.69
392.94	3398.46
393.13	3288.45
393.33	4035.08
393.52	5212.37
393.71	6340.51
393.91	6949.05
394.10	7639.51
394.29	8461.04
394.49	8924.46
394.68	9666.41
394.88	9848.97
395.07	10167.29
395.26	10167.29
395.46	9685.14
395.65	9387.89
395.84	8109.96
396.04	6754.79
396.23	5469.83
396.42	4704.48
396.62	4383.82
396.81	5158.54
397.00	6487.96
397.19	8173.15
397.39	9893.44
397.58	10864.77
397.77	11829.07
397.97	12315.90
398.16	12212.92
398.35	12634.21
398.55	13060.19
398.74	13717.88
398.93	14176.62
399.12	13558.72
399.32	13050.83
399.51	13509.57
399.70	14230.46
399.90	14104.07
400.09	14387.27
400.28	13965.98
400.47	14204.71
400.67	14883.47
400.86	15517.75
401.05	15269.66
401.24	15335.19
401.44	15492.01
401.63	15690.95
401.82	15777.55
402.01	15602.01
402.21	16060.76
402.40	16133.31
402.59	15744.78
402.78	14911.55
402.97	14394.29
403.17	14913.89
403.36	16009.26
403.55	16381.41
403.74	16982.93
403.93	15709.68
404.13	14712.61
404.32	14462.17
404.51	15082.41
404.70	16292.47
404.89	16425.88
405.09	16039.69
405.28	15503.71
405.47	15410.09
405.66	15492.01
405.85	15199.44
406.05	14839.00
406.24	15115.18
406.43	15440.51
406.62	16177.78
406.81	16374.39
407.00	15569.24
407.20	15356.25
407.39	15372.64
407.58	15971.82
407.77	16781.64
407.96	17104.64
408.15	17167.83
408.34	17460.40
408.54	18567.47
408.73	18565.13
408.92	18281.92
409.11	17729.56
409.30	16849.52
409.49	15843.09
409.68	14853.04
409.87	14185.99
410.07	15286.04
410.26	16397.79
410.45	17401.88
410.64	17680.41
410.83	18132.13
411.02	18717.26
411.21	19702.63
411.40	19452.19
411.59	19323.46
411.78	19293.04
411.98	19124.52
412.17	19550.49
412.36	19000.47
412.55	19073.03
412.74	18572.15
412.93	18307.67
413.12	18635.35
413.31	20329.89
413.50	20404.79
413.69	20594.37
413.88	19957.75
414.07	19208.78
414.26	19744.76
414.45	20112.22
414.64	20318.19
414.83	20519.48
415.02	19908.60
415.22	19763.48
415.41	20659.91
415.60	21294.19
415.79	22040.82
415.98	22424.67
416.17	22515.95
416.36	21916.78
416.55	21472.07
416.74	20847.15
416.93	20208.19
417.12	20219.89
417.31	20381.38
417.50	20692.68
417.69	21497.82
417.88	21373.77
418.07	21135.04
418.26	20987.58
418.45	21242.70
418.64	21855.92
418.83	22693.83
419.02	22560.42
419.21	22305.31
419.39	21130.36
419.58	20189.46
419.77	20292.44
419.96	21153.76
420.15	22396.59
420.34	23122.15
420.53	23597.28
420.72	24257.31
420.91	23800.91
421.10	23379.61
421.29	23660.48
421.48	22934.91
421.67	23988.15
421.86	23117.47
422.05	21706.13
422.24	19756.46
422.43	19164.31
422.61	21355.05
422.80	22855.33
422.99	23370.25
423.18	22235.09
423.37	21514.20
423.56	21656.98
423.75	22153.17
423.94	22572.13
424.13	21558.67
424.32	21390.16
424.50	21635.91
424.69	21209.93
424.88	21607.83
425.07	21195.89
425.26	21317.60
425.45	21273.13
425.64	20580.33
425.83	21104.61
426.01	22141.47
426.20	22635.32
426.39	22249.13
426.58	20886.94
426.77	19068.34
426.96	18551.09
427.15	19075.37
427.33	20276.06
427.52	21544.63
427.71	21757.62
427.90	21275.47
428.09	21467.39
428.28	20753.53
428.46	20341.60
428.65	19667.52
428.84	20222.23
429.03	20428.20
429.22	19445.17
429.40	18459.81
429.59	16842.50
429.78	14864.74
429.97	14878.79
430.16	15349.23
430.34	15438.17
430.53	14927.94
430.72	15267.31
430.91	17025.06
431.10	20175.42
431.28	23662.82
431.47	25947.18
431.66	25598.44
431.85	23854.74
432.03	21757.62
432.22	20706.72
432.41	21380.79
432.60	23880.49
432.79	24922.02
432.97	25572.69
433.16	24816.70
433.35	22993.42
433.54	20566.29
433.72	19161.97
433.91	19751.78
434.10	22272.54
434.28	23969.43
434.47	24718.40
434.66	24971.18
434.85	24177.73
435.03	23452.17
435.22	24491.37
435.41	25926.11
435.59	26024.42
435.78	26188.25
435.97	26857.65
436.16	27171.28
436.34	26733.60
436.53	25928.45
436.72	26096.97
436.90	24865.85
437.09	24573.28
437.28	24140.29
437.46	25298.85
437.65	25282.47
437.84	23442.81
438.02	21448.67
438.21	21441.65
438.40	22544.04
438.58	24631.80
438.77	25179.48
438.96	25273.10
439.14	26286.56
439.33	27190.00
439.52	27534.06
439.70	27161.92
439.89	26361.45
440.08	25762.28
440.26	25338.64
440.45	26525.29
440.63	28301.76
440.82	29743.53
441.01	29483.73
441.19	29202.86
441.38	29406.49
441.57	30436.33
441.75	30953.58
441.94	31234.45
442.12	30843.58
442.31	31498.93
442.50	31206.36
442.68	31023.80
442.87	30586.12
443.05	29935.45
443.24	30232.70
443.43	31253.17
443.61	31679.15
443.80	32191.73
443.98	30380.15
444.17	30520.59
444.35	31812.56
444.54	32638.77
444.73	31931.93
444.91	30998.06
445.10	29546.92
445.28	28713.69
445.47	28287.71
445.65	28245.58
445.84	29029.66
446.02	30125.04
446.21	30436.33
446.39	30321.64
446.58	30405.90
446.77	31101.04
446.95	31393.61
447.14	32797.93
447.32	32849.42
447.51	32006.83
447.69	31126.78
447.88	30911.46
448.06	31197.00
448.25	31995.12
448.43	32718.35
448.62	31075.29
448.80	31735.32
448.99	31531.70
449.17	32123.85
449.36	31777.45
449.54	32882.19
449.73	33542.22
449.91	34036.07
450.10	34686.74
450.28	35388.90
450.46	35150.17
450.65	34649.29
450.83	34838.87
451.02	34017.35
451.20	33869.89
451.39	34183.52
451.57	33841.81
451.76	33666.27
451.94	33633.50
452.13	32973.47
452.31	31351.48
452.49	29961.20
452.68	30396.54
452.86	30321.64
453.05	30881.03
453.23	31662.77
453.42	32287.69
453.60	33563.28
453.78	33472.00
453.97	33230.93
454.15	33343.27
454.34	32285.35
454.52	32615.37
454.70	32011.51
454.89	32453.87
455.07	32105.13
455.26	33090.49
455.44	34202.25
455.62	34621.20
455.81	35159.53
455.99	35358.47
456.17	34286.51
456.36	34618.86
456.54	35615.93
456.73	35421.67
456.91	35791.47
457.09	36070.00
457.28	36528.74
457.46	35281.24
457.64	35033.14
457.83	34146.08
458.01	32790.91
458.19	34281.83
458.38	34384.81
458.56	35555.08
458.74	35222.72
458.93	34838.87
459.11	34618.86
459.29	34277.15
459.48	34983.99
459.66	34555.67
459.84	34438.64
460.03	35161.87
460.21	35105.70
460.39	35861.69
460.57	35878.07
460.76	36676.19
460.94	36575.55
461.12	35976.37
461.31	36182.34
461.49	36198.73
461.67	36292.35
461.85	37495.38
462.04	37088.13
462.22	37713.05
462.40	37331.54
462.59	37134.94
462.77	37134.94
462.95	37048.34
463.13	36657.47
463.32	36584.91
463.50	36079.36
463.68	36172.98
463.86	36266.60
464.05	35896.80
464.23	35112.72
464.41	35353.79
464.59	34340.34
464.78	36084.04
464.96	35498.91
465.14	35412.31
465.32	36304.05
465.50	37310.48
465.69	37486.02
465.87	36950.04
466.05	35957.65
466.23	34066.50
466.41	33479.02
466.60	34529.92
466.78	34389.49
466.96	35494.22
467.14	35054.20
467.32	36236.17
467.51	36458.52
467.69	34181.18
467.87	35304.64
468.05	35608.91
468.23	36074.68
468.41	35938.93
468.60	35737.64
468.78	36584.91
468.96	35644.02
469.14	36535.76
469.32	36526.40
469.50	35133.78
469.69	35463.80
469.87	34904.41
470.05	34759.30
470.23	34742.91
470.41	34696.10
470.59	34991.01
470.77	35510.61
470.95	36067.66
471.14	36542.78
471.32	36369.58
471.50	39082.27
471.68	38810.76
471.86	38864.60
472.04	39093.97
472.22	39545.69
472.40	37390.06
472.58	37090.47
472.77	37081.11
472.95	37853.48
473.13	38146.05
473.31	37326.86
473.49	37596.03
473.67	38667.99
473.85	38759.27
474.03	39538.67
474.21	39842.94
474.39	40086.36
474.57	40311.05
474.75	40533.40
474.93	39803.15
475.12	39047.16
475.30	39445.05
475.48	39124.40
475.66	40100.40
475.84	39704.85
476.02	39136.10
476.20	38983.96
476.38	39250.78
476.56	40229.13
476.74	41085.76
476.92	40739.36
477.10	41832.39
477.28	42724.14
477.46	42698.39
477.64	43147.78
477.82	43328.00
478.00	43922.49
478.18	43110.33
478.36	42869.25
478.54	42990.96
478.72	43173.52
478.90	43828.87
479.08	45301.07
479.26	45773.86
479.44	45298.73
479.62	44767.43
479.80	45471.93
479.98	45441.50
480.16	45738.75
480.34	45324.47
480.52	45677.90
480.70	46010.25
480.88	46003.23
481.06	46930.08
481.24	46841.14
481.41	48203.33
481.59	48460.79
481.77	48247.80
481.95	47840.55
482.13	47271.80
482.31	47374.78
482.49	48191.63
482.67	48072.26
482.85	47971.62
483.03	49057.63
483.21	49055.29
483.39	49006.14
483.57	48294.61
483.74	48081.63
483.92	48523.99
484.10	48839.96
484.28	49869.79
484.46	50124.91
484.64	50241.94
484.82	49645.10
485.00	49045.93
485.18	47908.43
485.35	47215.63
485.53	43772.70
485.71	40280.62
485.89	39725.91
486.07	41336.20
486.25	45118.51
486.43	47370.10
486.61	48112.05
486.78	47573.73
486.96	48313.34
487.14	49647.44
487.32	50681.96
487.50	51606.47
487.68	52013.73
487.85	52875.04
488.03	52589.50
488.21	52327.36
488.39	51620.52
488.57	51004.95
488.75	50686.64
488.92	51950.53
489.10	54045.31
489.28	54960.46
489.46	55454.31
489.64	55482.40
489.81	55451.97
489.99	55302.18
490.17	55175.79
490.35	55751.56
490.53	55178.13
490.70	54506.40
490.88	54726.41
491.06	55679.00
491.24	55550.27
491.41	54658.53
491.59	53305.70
491.77	52395.23
491.95	53602.95
492.13	54541.50
492.30	55674.32
492.48	56353.08
492.66	56872.68
492.84	56760.33
493.01	56629.26
493.19	56119.02
493.37	55578.36
493.54	55590.06
493.72	56032.42
493.90	57027.15
494.08	57909.53
494.25	58174.02
494.43	58054.65
494.61	58705.32
494.79	58742.77
494.96	58487.65
495.14	57977.41
495.32	57176.95
495.49	56519.26
495.67	57446.11
495.85	58543.82
496.02	59159.38
496.20	59075.12
496.38	58578.93
496.55	58440.84
496.73	58789.58
496.91	58878.52
497.09	59400.46
497.26	59742.17
497.44	59309.18
497.62	58628.08
497.79	58040.60
497.97	56692.46
498.14	57038.86
498.32	58082.73
498.50	58794.26
498.67	59421.52
498.85	59325.56
499.03	59337.26
499.20	59662.60
499.38	59702.38
499.56	59407.48
499.73	58997.88
499.91	58489.99
500.08	58258.27
500.26	57694.21
500.44	57977.41
500.61	58623.40
500.79	58571.91
500.97	58127.20
501.14	57914.22
501.32	57881.45
501.49	57759.74
501.67	58113.16
501.84	58611.70
502.02	58693.61
502.20	59208.53
502.37	59194.49
502.55	59243.64
502.72	59812.39
502.90	60135.38
503.07	60018.36
503.25	59379.39
503.43	58478.28
503.60	58227.85
503.78	57389.94
503.95	57865.06
504.13	59220.23
504.30	59931.76
504.48	59812.39
504.65	59470.67
504.83	59480.03
505.01	60217.30
505.18	60458.38
505.36	61041.17
505.53	60992.02
505.71	61127.77
505.88	61317.35
506.06	60605.83
506.23	60568.38
506.41	59896.65
506.58	60212.62
506.76	60350.71
506.93	60200.92
507.11	59931.76
507.28	60090.91
507.46	59671.96
507.63	58972.14
507.81	59143.00
507.98	59245.98
508.16	59842.82
508.33	60423.27
508.50	60580.09
508.68	60977.98
508.85	61420.34
509.03	61183.94
509.20	61298.63
509.38	60898.40
509.55	59772.60
509.73	60011.34
509.90	60470.08
510.08	60664.35
510.25	60676.05
510.42	60348.37
510.60	60282.84
510.77	60617.53
510.95	61179.26
511.12	61193.31
511.30	61560.77
511.47	61694.18
511.64	61684.82
511.82	61338.42
511.99	60610.51
512.17	60346.03
512.34	59992.61
512.51	60062.83
512.69	60343.69
512.86	60533.28
513.04	60783.71
513.21	60694.77
513.38	60542.64
513.56	59793.67
513.73	59360.67
513.90	59564.29
514.08	59601.74
514.25	60109.64
514.43	60240.71
514.60	60212.62
514.77	60357.74
514.95	60303.90
515.12	60409.23
515.29	60577.75
515.47	61031.81
515.64	61333.74
515.81	60839.89
515.99	60362.42
516.16	59131.29
516.33	56816.50
516.51	55430.91
516.68	55131.32
516.85	54452.56
517.03	54965.14
517.20	57352.49
517.37	59477.69
517.54	60383.48
517.72	60177.51
517.89	57759.74
518.06	55571.34
518.24	56058.17
518.41	57689.52
518.58	59182.79
518.75	59344.28
518.93	59604.08
519.10	59597.06
519.27	60020.70
519.45	59898.99
519.62	60507.53
519.79	60952.23
519.96	60907.76
520.14	60331.99
520.31	59772.60
520.48	59655.57
520.65	60074.53
520.83	60772.01
521.00	61052.87
521.17	60753.29
521.34	60516.89
521.52	60729.88
521.69	61059.90
521.86	61764.40
522.03	61525.66
522.20	60310.92
522.38	59489.40
522.55	59428.54
522.72	59910.69
522.89	60032.40
523.07	60231.35
523.24	60570.72
523.41	61242.46
523.58	61762.06
523.75	62045.26
523.92	61932.92
524.10	61872.06
524.27	61872.06
524.44	61485.87
524.61	61403.95
524.78	61127.77
524.96	61064.58
525.13	61275.22
525.30	61338.42
525.47	61815.89
525.64	61776.10
525.81	61188.63
525.98	59786.64
526.16	58574.25
526.33	57876.77
526.50	57317.38
526.67	57174.61
526.84	57591.22
527.01	58672.55
527.18	59402.80
527.36	60224.32
527.53	61127.77
527.70	61322.04
527.87	60781.37
528.04	60364.76
528.21	60743.92
528.38	61425.02
528.55	61904.83
528.72	62246.55
528.89	62349.53
529.07	62007.81
529.24	61535.02
529.41	60982.66
529.58	60397.52
529.75	60488.80
529.92	60926.49
530.09	61275.22
530.26	61822.91
530.43	61982.07
530.60	61939.94
530.77	62342.51
530.94	62396.34
531.11	61848.66
531.28	61696.52
531.46	61446.08
531.63	61396.93
531.80	61446.08
531.97	61137.13
532.14	60360.08
532.31	59629.83
532.48	59014.27
532.65	58684.25
532.82	59646.21
532.99	60530.93
533.16	60933.51
533.33	61642.69
533.50	61179.26
533.67	60729.88
533.84	60437.31
534.01	60493.49
534.18	60662.00
534.35	61233.10
534.52	60814.14
534.69	61095.00
534.86	61263.52
535.03	61460.13
535.20	61790.14
535.37	62284.00
535.54	62274.63
535.71	62031.22
535.88	61738.65
536.05	61179.26
536.22	60860.95
536.38	60423.27
536.55	59943.46
536.72	59597.06
536.89	59374.71
537.06	60149.43
537.23	61305.65
537.40	61174.58
537.57	61312.67
537.74	60945.21
537.91	60823.50
538.08	60994.36
538.25	61132.45
538.42	61179.26
538.59	61036.49
538.75	60301.56
538.92	60154.11
539.09	60013.68
539.26	59889.63
539.43	59817.07
539.60	59856.86
539.77	59924.74
539.94	59805.37
540.11	59138.32
540.28	58670.21
540.44	58712.34
540.61	59077.46
540.78	59133.63
540.95	59517.48
541.12	59887.29
541.29	60252.41
541.46	60516.89
541.62	60591.79
541.79	60404.55
541.96	59957.50
542.13	59917.71
542.30	60039.42
542.47	60205.60
542.63	60083.89
542.80	59861.54
542.97	60006.65
543.14	59868.56
543.31	59821.75
543.48	60353.05
543.64	61120.75
543.81	61464.81
543.98	60872.65
544.15	60495.83
544.32	59973.89
544.48	59898.99
544.65	60573.06
544.82	60760.31
544.99	60587.11
545.16	60320.29
545.32	59870.90
545.49	60676.05
545.66	61195.65
545.83	60718.18
546.00	60203.26
546.16	59957.50
546.33	60116.66
546.50	60032.40
546.67	60505.19
546.83	60065.17
547.00	60107.30
547.17	59374.71
547.34	59103.21
547.50	58981.50
547.67	59405.14
547.84	59496.42
548.00	59831.11
548.17	60240.71
548.34	60116.66
548.51	59990.27
548.67	60090.91
548.84	60128.36
549.01	60123.68
549.18	60023.04
549.34	59955.16
549.51	59927.08
549.68	59854.52
549.84	59648.55
550.01	59587.70
550.18	59604.08
550.34	59522.16
550.51	59814.73
550.68	59906.01
550.84	59161.72
551.01	59236.62
551.18	59309.18
551.34	59561.95
551.51	59870.90
551.68	60086.23
551.84	60119.00
552.01	59922.40
552.18	60039.42
552.34	58951.07
552.51	58983.84
552.68	58506.37
552.84	59217.89
553.01	59379.39
553.18	59267.05
553.34	59313.86
553.51	59622.81
553.67	59753.88
553.84	59641.53
554.01	59716.43
554.17	59599.40
554.34	59763.24
554.51	59671.96
554.67	60058.15
554.84	59625.15
555.00	59498.76
555.17	59423.86
555.33	59285.77
555.50	59178.10
555.67	59358.33
555.83	59292.79
556.00	58960.44
556.16	58925.33
556.33	58609.35
556.50	58410.41
556.66	58473.60
556.83	58164.65
556.99	58574.25
557.16	58590.63
557.32	58749.79
557.49	58990.86
557.65	58719.36
557.82	59056.40
557.98	58515.73
558.15	58258.27
558.32	57553.77
558.48	56821.19
558.65	56750.97
558.81	57371.21
558.98	57446.11
559.14	57626.33
559.31	57979.75
559.47	57998.48
559.64	57338.44
559.80	57209.71
559.97	57064.60
560.13	57598.24
560.30	58599.99
560.46	59051.72
560.63	59040.01
560.79	59299.81
560.96	58780.21
561.12	57881.45
561.29	57078.64
561.45	56725.22
561.61	57609.95
561.78	57998.48
561.94	57907.19
562.11	57750.38
562.27	57528.03
562.44	57834.64
562.60	58202.10
562.77	58391.68
562.93	58148.27
563.10	58314.45
563.26	57364.19
563.42	57855.70
563.59	57474.20
563.75	57495.26
563.92	57691.86
564.08	57558.45
564.24	57759.74
564.41	57921.24
564.57	57703.57
564.74	57584.20
564.90	57504.62
565.07	57282.27
565.23	56970.98
565.39	56409.25
565.56	56268.82
565.72	56196.26
565.88	56409.25
566.05	56423.29
566.21	56727.56
566.38	56933.53
566.54	56898.42
566.70	57179.29
566.87	57439.09
567.03	57764.42
567.19	57382.91
567.36	57258.87
567.52	57378.23
567.68	57118.43
567.85	56310.95
568.01	56294.56
568.17	55945.83
568.34	55877.95
568.50	55891.99
568.66	55674.32
568.83	56306.27
568.99	56229.03
569.15	56580.11
569.32	56409.25
569.48	56238.39
569.64	55765.60
569.81	55838.16
569.97	55676.66
570.13	55826.46
570.30	55077.49
570.46	54670.23
570.62	54019.56
570.78	54162.34
570.95	54841.09
571.11	55341.97
571.27	55463.67
571.43	55444.95
571.60	56020.72
571.76	56025.40
571.92	55955.19
572.09	56446.70
572.25	56320.31
572.41	56121.37
572.57	56310.95
572.74	56336.69
572.90	55643.90
573.06	55796.03
573.22	55852.20
573.38	55922.42
573.55	55838.16
573.71	56189.24
573.87	55728.16
574.03	55737.52
574.20	55531.55
574.36	55379.42
574.52	55173.45
574.68	54953.44
574.84	54611.72
575.01	54136.59
575.17	54199.79
575.33	54253.62
575.49	54815.35
575.65	54967.48
575.82	54597.68
575.98	54452.56
576.14	54827.05
576.30	54918.33
576.46	55000.25
576.62	54761.51
576.79	54831.73
576.95	54560.23
577.11	54543.84
577.27	54625.76
577.43	54660.87
577.59	54405.75
577.75	54174.04
577.92	53371.24
578.08	53310.38
578.24	53277.61
578.40	53556.14
578.56	53907.22
578.72	53921.26
578.88	54127.23
579.04	54504.06
579.21	54234.89
579.37	54204.47
579.53	54415.11
579.69	54433.84
579.85	54501.71
580.01	54419.80
580.17	53954.03
580.33	54075.74
580.49	53811.26
580.65	54284.04
580.82	54396.39
580.98	54089.78
581.14	54279.36
581.30	54272.34
581.46	53989.14
581.62	54401.07
581.78	54326.17
581.94	54536.82
582.10	54625.76
582.26	54574.27
582.42	54412.77
582.58	54494.69
582.74	54539.16
582.90	54417.46
583.06	54508.74
583.22	54349.58
583.38	54183.40
583.54	54361.28
583.70	54035.95
583.86	54087.44
584.02	53944.67
584.18	54078.08
584.34	53935.30
584.50	53928.28
584.66	53766.79
584.82	53329.11
584.98	53450.81
585.14	53319.74
