SpectraSuite Data File
++++++++++++++++++++++++++++++++++++
Date: Mon Oct 07 14:53:08 GMT-05:00 2013
User: price-jones
Dark Spectrum Present: No
Reference Spectrum Present: No
Number of Sampled Component Spectra: 1
Spectrometers: USB2+H05261
Integration Time (usec): 100000 (USB2+H05261)
Spectra Averaged: 1 (USB2+H05261)
Boxcar Smoothing: 0 (USB2+H05261)
Correct for Electrical Dark: No (USB2+H05261)
Strobe/Lamp Enabled: No (USB2+H05261)
Correct for Detector Non-linearity: No (USB2+H05261)
Correct for Stray Light: No (USB2+H05261)
Number of Pixels in Processed Spectrum: 2048
>>>>>Begin Processed Spectral Data<<<<<
365.73	0.00
365.92	0.00
366.12	0.00
366.32	0.00
366.52	0.00
366.72	0.00
366.91	0.00
367.11	0.00
367.31	0.00
367.51	0.00
367.70	0.00
367.90	0.00
368.10	0.00
368.30	0.00
368.49	0.00
368.69	0.00
368.89	0.00
369.09	0.00
369.28	0.00
369.48	0.00
369.68	0.00
369.87	0.00
370.07	0.00
370.27	0.00
370.47	552.37
370.66	3129.30
370.86	3768.26
371.06	4128.70
371.25	4056.15
371.45	3716.77
371.65	3318.88
371.84	3108.23
372.04	3323.56
372.24	3669.96
372.44	3997.64
372.63	3782.31
372.83	3496.76
373.03	3258.03
373.22	2864.82
373.42	3089.51
373.62	3487.40
373.81	3822.09
374.01	3719.11
374.21	3440.59
374.40	3162.06
374.60	3318.88
374.79	3681.66
374.99	4374.46
375.19	4594.47
375.38	4690.43
375.58	4388.50
375.78	4250.41
375.97	4395.53
376.17	4706.82
376.37	4479.79
376.56	4706.82
376.76	4971.30
376.95	5291.95
377.15	5472.17
377.35	5825.59
377.54	6054.97
377.74	6207.10
377.93	6356.90
378.13	6040.92
378.33	5886.45
378.52	5324.72
378.72	5135.14
378.91	4922.15
379.11	4887.04
379.31	4774.69
379.50	4779.37
379.70	5060.24
379.89	5619.63
380.09	5893.47
380.28	6148.59
380.48	6204.76
380.68	5928.58
380.87	5849.00
381.07	5408.98
381.26	4978.32
381.46	4697.46
381.65	4641.28
381.85	4512.55
382.04	4180.20
382.24	4032.74
382.43	3845.50
382.63	3658.26
382.83	3588.04
383.02	3700.39
383.22	3721.45
383.41	3857.20
383.61	4025.72
383.80	4645.96
384.00	5242.80
384.19	5556.43
384.39	6073.69
384.58	6153.27
384.78	5912.19
384.97	5827.93
385.17	5537.71
385.36	5343.44
385.56	5034.49
385.75	5149.18
385.95	5781.12
386.14	6291.36
386.34	6218.80
386.53	6047.94
386.72	5703.89
386.92	5628.99
387.11	5898.15
387.31	5970.71
387.50	6108.80
387.70	5963.68
387.89	5982.41
388.09	5921.56
388.28	5926.24
388.48	6040.92
388.67	6555.84
388.86	7250.98
389.06	7623.12
389.25	8201.24
389.45	8119.32
389.64	8107.62
389.84	8051.44
390.03	7915.69
390.22	8053.78
390.42	8072.51
390.61	8669.34
390.81	9287.25
391.00	9413.63
391.19	9266.18
391.39	9135.11
391.58	8514.87
391.78	7999.95
391.97	7791.64
392.16	7117.57
392.36	6567.54
392.55	5252.16
392.75	4212.96
392.94	3487.40
393.13	3466.33
393.33	4028.06
393.52	5266.21
393.71	6499.67
393.91	7122.25
394.10	7667.60
394.29	8449.33
394.49	9198.31
394.68	9877.06
394.88	9933.23
395.07	10183.67
395.26	10010.47
395.46	9530.66
395.65	9247.46
395.84	8100.59
396.04	6726.70
396.23	5413.66
396.42	4650.64
396.62	4507.87
396.81	5385.57
397.00	6902.24
397.19	8421.25
397.39	10174.31
397.58	11222.87
397.77	11899.28
397.97	12388.46
398.16	12379.09
398.35	13137.43
398.55	13275.52
398.74	13839.59
398.93	14160.24
399.12	13839.59
399.32	13338.71
399.51	13727.24
399.70	14658.78
399.90	14424.72
400.09	14530.05
400.28	14270.25
400.47	14569.83
400.67	15147.95
400.86	15545.84
401.05	15910.96
401.24	15445.20
401.44	16095.86
401.63	15845.43
401.82	16100.55
402.01	16245.66
402.21	15927.35
402.40	16266.72
402.59	15791.59
402.78	15197.10
402.97	14314.72
403.17	15590.31
403.36	16299.49
403.55	17067.19
403.74	17029.74
403.93	16250.34
404.13	15180.71
404.32	14642.39
404.51	15208.80
404.70	16681.00
404.89	16596.74
405.09	16004.58
405.28	15875.85
405.47	15974.16
405.66	15763.51
405.85	15276.68
406.05	14846.02
406.24	15407.75
406.43	16130.97
406.62	16224.59
406.81	16559.29
407.00	16013.95
407.20	15541.16
407.39	15473.28
407.58	16360.34
407.77	17186.55
407.96	17640.62
408.15	18176.60
408.34	17790.41
408.54	18787.48
408.73	18785.14
408.92	18654.07
409.11	18115.75
409.30	17043.78
409.49	16250.34
409.68	14911.55
409.87	14534.73
410.07	15449.88
410.26	17111.66
410.45	17795.09
410.64	18286.61
410.83	18890.46
411.02	19358.57
411.21	19988.18
411.40	19728.38
411.59	19709.65
411.78	20030.30
411.98	19601.99
412.17	20107.54
412.36	19599.65
412.55	19508.37
412.74	18993.45
412.93	18705.56
413.12	19014.51
413.31	20774.60
413.50	20889.28
413.69	21174.83
413.88	20559.27
414.07	19946.05
414.26	20212.87
414.45	21099.93
414.64	20877.58
414.83	20858.85
415.02	20297.13
415.22	20758.21
415.41	21296.53
415.60	21607.83
415.79	22841.29
415.98	22698.52
416.17	22995.76
416.36	22480.85
416.55	22462.12
416.74	21317.60
416.93	20608.42
417.12	20645.87
417.31	21132.70
417.50	21671.02
417.69	22148.49
417.88	21914.44
418.07	22108.70
418.26	21523.57
418.45	21621.87
418.64	22394.25
418.83	23328.12
419.02	23042.57
419.21	22778.09
419.39	21675.70
419.58	20615.44
419.77	21046.10
419.96	21769.32
420.15	23211.09
420.34	23398.34
420.53	24252.63
420.72	25057.78
420.91	24659.88
421.10	24215.18
421.29	24606.05
421.48	23679.20
421.67	24432.85
421.86	23941.34
422.05	22239.77
422.24	19962.43
422.43	19941.36
422.61	21982.31
422.80	23660.48
422.99	23859.42
423.18	22728.94
423.37	22441.06
423.56	22345.09
423.75	22569.79
423.94	23515.36
424.13	22417.65
424.32	22539.36
424.50	22249.13
424.69	22052.53
424.88	22445.74
425.07	21942.52
425.26	22038.48
425.45	21762.30
425.64	21214.62
425.83	21619.53
426.01	22431.69
426.20	22958.31
426.39	23037.89
426.58	21242.70
426.77	19896.89
426.96	19211.12
427.15	19721.35
427.33	21839.54
427.52	22441.06
427.71	22307.65
427.90	22129.77
428.09	22019.76
428.28	21249.72
428.46	20898.64
428.65	20489.05
428.84	21160.78
429.03	21589.10
429.22	20397.77
429.40	19234.52
429.59	17216.98
429.78	15569.24
429.97	15550.52
430.16	15777.55
430.34	15770.53
430.53	15805.64
430.72	15969.48
430.91	17774.03
431.10	21193.55
431.28	24580.31
431.47	26265.49
431.66	26995.74
431.85	24238.59
432.03	22396.59
432.22	21434.63
432.41	22515.95
432.60	24690.31
432.79	25617.16
432.97	26745.30
433.16	26085.27
433.35	23339.82
433.54	21242.70
433.72	19908.60
433.91	20570.97
434.10	23384.29
434.28	24599.03
434.47	25832.49
434.66	25439.28
434.85	24718.40
435.03	24732.44
435.22	25528.22
435.41	27126.81
435.59	26967.65
435.78	27370.22
435.97	27922.59
436.16	27807.90
436.34	27613.64
436.53	27105.74
436.72	27194.68
436.90	25680.36
437.09	25528.22
437.28	25392.47
437.46	26101.65
437.65	25921.43
437.84	24191.78
438.02	22244.45
438.21	22293.60
438.40	23711.97
438.58	25530.56
438.77	26024.42
438.96	26298.26
439.14	27927.27
439.33	27995.15
439.52	28411.76
439.70	27995.15
439.89	27353.84
440.08	26632.96
440.26	26684.45
440.45	27410.01
440.63	29610.12
440.82	30735.92
441.01	30441.01
441.19	30274.83
441.38	30588.46
441.57	31548.08
441.75	31768.09
441.94	32219.81
442.12	31803.20
442.31	32320.46
442.50	32587.28
442.68	32257.26
442.87	31744.69
443.05	31438.08
443.24	31807.88
443.43	32568.55
443.61	32849.42
443.80	33823.08
443.98	31536.38
444.17	31445.10
444.35	33338.59
444.54	34036.07
444.73	33383.06
444.91	32240.88
445.10	31171.25
445.28	29612.46
445.47	29261.38
445.65	29518.84
445.84	30457.39
446.02	31384.24
446.21	31620.64
446.39	31714.26
446.58	32224.50
446.77	32943.04
446.95	33001.55
447.14	34094.58
447.32	34588.44
447.51	33696.69
447.69	32531.11
447.88	32046.62
448.06	32435.14
448.25	33233.27
448.43	33626.48
448.62	32748.78
448.80	32996.87
448.99	32720.69
449.17	33308.16
449.36	33200.50
449.54	34747.59
449.73	34939.52
449.91	35426.35
450.10	36542.78
450.28	37090.47
450.46	36591.94
450.65	36837.69
450.83	36334.48
451.02	35445.07
451.20	35442.73
451.39	35566.78
451.57	35285.92
451.76	35182.93
451.94	34677.38
452.13	34490.13
452.31	32650.47
452.49	31512.97
452.68	31945.97
452.86	31910.86
453.05	32320.46
453.23	33457.96
453.42	34197.57
453.60	35019.10
453.78	35491.88
453.97	34808.45
454.15	35089.31
454.34	34216.29
454.52	33996.28
454.70	33783.29
454.89	34349.70
455.07	33993.94
455.26	34464.39
455.44	35922.54
455.62	36561.51
455.81	36896.20
455.99	36552.15
456.17	35775.09
456.36	35964.67
456.54	36973.44
456.73	36931.31
456.91	37385.38
457.09	38394.15
457.28	38352.02
457.46	36723.01
457.64	36905.57
457.83	35852.33
458.01	34937.18
458.19	36009.14
458.38	36182.34
458.56	37254.31
458.74	36926.63
458.93	36512.36
459.11	36285.33
459.29	36383.63
459.48	36231.49
459.66	36051.27
459.84	36596.62
460.03	36882.16
460.21	36950.04
460.39	37581.98
460.57	38075.84
460.76	38071.15
460.94	38752.25
461.12	37539.85
461.31	37942.42
461.49	38263.08
461.67	37495.38
461.85	38827.15
462.04	38944.17
462.22	39227.38
462.40	39056.52
462.59	38934.81
462.77	38799.06
462.95	38857.57
463.13	38419.89
463.32	37935.40
463.50	37535.17
463.68	38078.18
463.86	38061.79
464.05	37331.54
464.23	36870.46
464.41	36943.02
464.59	36334.48
464.78	38031.36
464.96	37809.01
465.14	37219.20
465.32	38265.42
465.50	39377.17
465.69	39700.17
465.87	38424.57
466.05	37439.21
466.23	36107.44
466.41	35339.75
466.60	36549.81
466.78	36313.41
466.96	37113.87
467.14	37827.74
467.32	38309.89
467.51	37530.49
467.69	36304.05
467.87	37198.13
468.05	37811.35
468.23	37921.36
468.41	37647.52
468.60	38113.28
468.78	38459.68
468.96	37649.86
469.14	38614.16
469.32	38623.52
469.50	37331.54
469.69	37106.85
469.87	36786.20
470.05	36535.76
470.23	36781.52
470.41	37151.32
470.59	37724.75
470.77	37666.24
470.95	38237.33
471.14	38637.56
471.32	38698.42
471.50	41024.91
471.68	40847.03
471.86	41296.41
472.04	41507.06
472.22	41198.11
472.40	39414.62
472.58	39274.19
472.77	38946.51
472.95	39805.49
473.13	40498.29
473.31	39374.83
473.49	39835.92
473.67	40783.83
473.85	41027.25
474.03	41605.36
474.21	42014.96
474.39	42323.91
474.57	42216.24
474.75	42162.41
474.93	41993.89
475.12	41167.68
475.30	41345.56
475.48	41645.15
475.66	41741.11
475.84	41855.80
476.02	41757.50
476.20	40739.36
476.38	41776.22
476.56	42501.79
476.74	43782.06
476.92	43810.15
477.10	44069.95
477.28	44800.19
477.46	45127.87
477.64	45818.33
477.82	45450.86
478.00	45825.35
478.18	45223.83
478.36	44961.69
478.54	45207.45
478.72	45876.84
478.90	46834.12
479.08	47739.91
479.26	47739.91
479.44	47847.57
479.62	47557.35
479.80	47585.43
479.98	47618.20
480.16	48409.30
480.34	47688.42
480.52	48020.77
480.70	48247.80
480.88	48346.11
481.06	49144.23
481.24	48928.90
481.41	50045.33
481.59	50497.06
481.77	50099.17
481.95	50031.29
482.13	49682.55
482.31	49825.32
482.49	50220.87
482.67	50349.60
482.85	50520.46
483.03	51234.33
483.21	51222.62
483.39	51400.50
483.57	50752.18
483.74	50419.82
483.92	50850.48
484.10	51136.02
484.28	51473.06
484.46	51908.40
484.64	52240.76
484.82	51578.39
485.00	51180.49
485.18	50883.25
485.35	49584.25
485.53	46396.44
485.71	42405.83
485.89	41940.06
486.07	44076.97
486.25	47161.79
486.43	49797.24
486.61	50520.46
486.78	50204.49
486.96	50302.79
487.14	52032.45
487.32	52893.77
487.50	53670.82
487.68	54223.19
487.85	54534.48
488.03	54805.98
488.21	54160.00
488.39	53427.41
488.57	53216.76
488.75	52931.22
488.92	53900.20
489.10	55796.03
489.28	56931.19
489.46	57308.02
489.64	57144.18
489.81	57279.93
489.99	57027.15
490.17	56994.39
490.35	57457.81
490.53	56919.49
490.70	56622.24
490.88	56659.69
491.06	57478.88
491.24	57219.08
491.41	56662.03
491.59	54843.43
491.77	54712.36
491.95	55468.36
492.13	56381.16
492.30	57457.81
492.48	58277.00
492.66	58391.68
492.84	58646.80
493.01	58340.19
493.19	57923.58
493.37	57471.85
493.54	57382.91
493.72	58190.40
493.90	59061.08
494.08	59473.01
494.25	59948.14
494.43	59943.46
494.61	60210.28
494.79	60484.12
494.96	60214.96
495.14	59372.37
495.32	58789.58
495.49	58279.34
495.67	59355.99
495.85	60238.37
496.02	60781.37
496.20	60622.22
496.38	60210.28
496.55	60053.47
496.73	60470.08
496.91	60549.66
497.09	61165.22
497.26	61462.47
497.44	60729.88
497.62	60402.21
497.79	59501.10
497.97	58527.44
498.14	58876.18
498.32	59859.20
498.50	60526.25
498.67	61069.26
498.85	61057.56
499.03	61158.20
499.20	61361.82
499.38	61366.51
499.56	61375.87
499.73	60825.84
499.91	60463.06
500.08	59917.71
500.26	59463.65
500.44	59678.98
500.61	60465.40
500.79	60219.64
500.97	59880.27
501.14	59833.46
501.32	59660.26
501.49	59756.22
501.67	59873.24
501.84	60453.70
502.02	60704.13
502.20	60945.21
502.37	61036.49
502.55	61247.14
502.72	61673.12
502.90	61949.30
503.07	61607.58
503.25	61251.82
503.43	60451.36
503.60	59861.54
503.78	59360.67
503.95	60020.70
504.13	61078.62
504.30	61827.59
504.48	61834.61
504.65	61420.34
504.83	61310.33
505.01	61783.12
505.18	62386.98
505.36	62791.89
505.53	62939.35
505.71	63014.24
505.88	62862.11
506.06	62312.08
506.23	62169.31
506.41	61846.32
506.58	62031.22
506.76	61965.68
506.93	62003.13
507.11	61574.81
507.28	61881.42
507.46	61553.75
507.63	61015.43
507.81	60786.05
507.98	61207.35
508.16	61769.08
508.33	62136.54
508.50	62415.07
508.68	62628.05
508.85	63016.58
509.03	63075.10
509.20	62986.16
509.38	62319.10
509.55	61476.51
509.73	61783.12
509.90	62410.38
510.08	62665.50
510.25	62534.43
510.42	62485.28
510.60	62244.21
510.77	62468.90
510.95	62972.11
511.12	63009.56
511.30	63365.32
511.47	63580.65
511.64	63522.14
511.82	63142.97
511.99	62471.24
512.17	62258.25
512.34	61876.74
512.51	62169.31
512.69	62092.07
512.86	62244.21
513.04	62738.06
513.21	62468.90
513.38	62162.29
513.56	61565.45
513.73	61366.51
513.90	61387.57
514.08	61696.52
514.25	61769.08
514.43	62251.23
514.60	61939.94
514.77	62424.43
514.95	62354.21
515.12	62471.24
515.29	62508.69
515.47	62721.68
515.64	63126.59
515.81	62775.51
515.99	62211.44
516.16	61139.47
516.33	58775.53
516.51	57642.71
516.68	57099.71
516.85	56563.73
517.03	57155.88
517.20	59374.71
517.37	61731.63
517.54	62464.22
517.72	62035.90
517.89	59519.82
518.06	57663.78
518.24	58110.82
518.41	59999.63
518.58	61073.94
518.75	61237.78
518.93	61441.40
519.10	61406.30
519.27	61801.85
519.45	61907.17
519.62	62639.76
519.79	63037.65
519.96	62756.78
520.14	62312.08
520.31	61616.94
520.48	61406.30
520.65	61872.06
520.83	62892.54
521.00	63135.95
521.17	62805.94
521.34	62518.05
521.52	62836.36
521.69	63297.45
521.86	63545.54
522.03	63299.79
522.20	62014.83
522.38	61200.33
522.55	61256.50
522.72	61860.36
522.89	61876.74
523.07	62066.33
523.24	62574.22
523.41	63306.81
523.58	63512.78
523.75	63767.90
523.92	63674.27
524.10	63798.32
524.27	63833.43
524.44	63625.12
524.61	63377.03
524.78	63309.15
524.96	63089.14
525.13	63166.38
525.30	63578.31
525.47	63758.53
525.64	63728.11
525.81	63000.20
525.98	61605.24
526.16	60549.66
526.33	59999.63
526.50	59688.34
526.67	59522.16
526.84	59983.25
527.01	60680.73
527.18	61336.08
527.36	62436.13
527.53	63100.84
527.70	63250.64
527.87	62913.60
528.04	62454.86
528.21	62946.37
528.38	63262.34
528.55	64083.87
528.72	64221.96
528.89	64458.35
529.07	64095.57
529.24	63435.54
529.41	62740.40
529.58	62438.47
529.75	62466.56
529.92	62890.19
530.09	63372.34
530.26	63882.58
530.43	64086.21
530.60	64076.85
530.77	64296.86
530.94	64367.07
531.11	63990.25
531.28	63629.80
531.46	63297.45
531.63	63568.95
531.80	63524.48
531.97	62967.43
532.14	62541.45
532.31	61392.25
532.48	61069.26
532.65	60959.25
532.82	61794.82
532.99	62719.34
533.16	63063.39
533.33	63433.20
533.50	63393.41
533.67	62855.09
533.84	62461.88
534.01	62677.21
534.18	62742.74
534.35	63061.05
534.52	62754.44
534.69	63098.50
534.86	63620.44
535.03	63632.14
535.20	64170.47
535.37	64275.79
535.54	64523.89
535.71	63765.56
535.88	63674.27
536.05	63206.17
536.22	62702.95
536.38	62529.75
536.55	62047.60
536.72	61666.09
536.89	61717.59
537.06	62447.83
537.23	63149.99
537.40	63306.81
537.57	63416.82
537.74	63149.99
537.91	63140.63
538.08	63016.58
538.25	63229.57
538.42	63384.05
538.59	63131.27
538.75	62511.03
538.92	62347.19
539.09	62276.97
539.26	61883.76
539.43	61860.36
539.60	61953.98
539.77	62323.78
539.94	62309.74
540.11	61406.30
540.28	60879.67
540.44	60889.04
540.61	61197.99
540.78	61286.93
540.95	61932.92
541.12	62234.84
541.29	62482.94
541.46	62670.18
541.62	62656.14
541.79	62583.58
541.96	62007.81
542.13	62094.41
542.30	62333.15
542.47	62358.89
542.63	62145.90
542.80	62061.64
542.97	62204.42
543.14	62045.26
543.31	62071.01
543.48	62698.27
543.64	63182.76
543.81	63578.31
543.98	63318.51
544.15	62670.18
544.32	62244.21
544.48	62115.48
544.65	62625.71
544.82	63147.65
544.99	62555.50
545.16	62227.82
545.32	62286.34
545.49	62927.64
545.66	63142.97
545.83	62742.74
546.00	62489.96
546.16	62281.66
546.33	62370.60
546.50	62370.60
546.67	62993.18
546.83	62382.30
547.00	62410.38
547.17	61839.29
547.34	61403.95
547.50	61284.59
547.67	61822.91
547.84	61808.87
548.00	62061.64
548.17	62546.14
548.34	62372.94
548.51	62396.34
548.67	62478.26
548.84	62461.88
549.01	62342.51
549.18	62209.10
549.34	62213.78
549.51	62265.27
549.68	62143.56
549.84	62007.81
550.01	61956.32
550.18	61956.32
550.34	61778.44
550.51	61740.99
550.68	61977.39
550.84	61471.83
551.01	61738.65
551.18	61715.25
551.34	61851.00
551.51	62087.39
551.68	62571.88
551.84	62464.22
552.01	62363.57
552.18	61951.64
552.34	61457.79
552.51	61181.60
552.68	61020.11
552.84	61528.00
553.01	61623.96
553.18	61743.33
553.34	61748.01
553.51	61829.93
553.67	62216.12
553.84	62159.95
554.01	62134.20
554.17	61904.83
554.34	61986.75
554.51	62377.62
554.67	62471.24
554.84	62131.86
555.00	61827.59
555.17	61722.27
555.33	61731.63
555.50	61537.36
555.67	61755.03
555.83	61544.39
556.00	61212.03
556.16	61251.82
556.33	61055.21
556.50	60912.44
556.66	61020.11
556.83	60603.49
556.99	60706.47
557.16	60776.69
557.32	61095.00
557.49	61457.79
557.65	61272.88
557.82	61141.81
557.98	60977.98
558.15	60603.49
558.32	60107.30
558.48	59278.75
558.65	59407.48
558.81	59934.10
558.98	60107.30
559.14	60177.51
559.31	60339.01
559.47	60341.35
559.64	60072.19
559.80	59803.03
559.97	59898.99
560.13	60177.51
560.30	61092.66
560.46	61408.64
560.63	61549.07
560.79	61607.58
560.96	61312.67
561.12	60245.39
561.29	59355.99
561.45	59739.83
561.61	60282.84
561.78	60313.26
561.94	60350.71
562.11	60369.44
562.27	60116.66
562.44	60432.63
562.60	60636.26
562.77	60863.29
562.93	60748.60
563.10	60598.81
563.26	60203.26
563.42	60252.41
563.59	60285.18
563.75	60179.85
563.92	60259.43
564.08	60161.13
564.24	60343.69
564.41	60360.08
564.57	60266.45
564.74	60168.15
564.90	60163.47
565.07	59941.12
565.23	59554.93
565.39	59124.27
565.56	59051.72
565.72	58773.19
565.88	58969.80
566.05	59072.78
566.21	59517.48
566.38	59576.00
566.54	59671.96
566.70	59796.01
566.87	60116.66
567.03	60104.96
567.19	60350.71
567.36	59959.84
567.52	59959.84
567.68	59475.35
567.85	59009.59
568.01	58789.58
568.17	58599.99
568.34	58607.01
568.50	58534.46
568.66	58637.44
568.83	59110.23
568.99	59295.13
569.15	59199.17
569.32	59126.61
569.48	58930.01
569.64	58754.47
569.81	58443.18
569.97	58714.68
570.13	58487.65
570.30	57935.28
570.46	57748.04
570.62	57247.16
570.78	57183.97
570.95	57303.34
571.11	57937.62
571.27	58073.37
571.43	58440.84
571.60	58583.61
571.76	58754.47
571.92	58796.60
572.09	59016.61
572.25	58862.13
572.41	59164.06
572.57	58993.20
572.74	59086.82
572.90	58489.99
573.06	58405.73
573.22	58740.42
573.38	58747.45
573.55	58614.04
573.71	58768.51
573.87	58443.18
574.03	58522.76
574.20	58461.90
574.36	58094.44
574.52	58141.25
574.68	57851.02
574.84	57565.48
575.01	57347.81
575.17	57237.80
575.33	57551.43
575.49	57834.64
575.65	57862.72
575.82	57684.84
575.98	57214.40
576.14	57691.86
576.30	57696.55
576.46	57937.62
576.62	57895.49
576.79	57801.87
576.95	57560.79
577.11	57570.16
577.27	57551.43
577.43	57626.33
577.59	57336.10
577.75	56975.66
577.92	56610.54
578.08	56343.72
578.24	56355.42
578.40	56577.77
578.56	56907.79
578.72	56797.78
578.88	57013.11
579.04	57041.20
579.21	57146.52
579.37	57275.25
579.53	57532.71
579.69	57469.51
579.85	57453.13
580.01	57350.15
580.17	57003.75
580.33	56807.14
580.49	56987.36
580.65	57331.42
580.82	57364.19
580.98	57364.19
581.14	57193.33
581.30	57441.43
581.46	56928.85
581.62	57537.39
581.78	57315.04
581.94	57556.11
582.10	57532.71
582.26	57509.30
582.42	57361.85
582.58	57595.90
582.74	57558.45
582.90	57532.71
583.06	57467.17
583.22	57513.98
583.38	57102.05
583.54	57256.53
583.70	57160.56
583.86	57303.34
584.02	56856.29
584.18	57333.76
584.34	57111.41
584.50	57010.77
584.66	56907.79
584.82	56666.71
584.98	56619.90
585.14	56280.52
