SpectraSuite Data File
++++++++++++++++++++++++++++++++++++
Date: Mon Oct 07 14:53:35 GMT-05:00 2013
User: price-jones
Dark Spectrum Present: No
Reference Spectrum Present: No
Number of Sampled Component Spectra: 1
Spectrometers: USB2+H05261
Integration Time (usec): 100000 (USB2+H05261)
Spectra Averaged: 1 (USB2+H05261)
Boxcar Smoothing: 0 (USB2+H05261)
Correct for Electrical Dark: No (USB2+H05261)
Strobe/Lamp Enabled: No (USB2+H05261)
Correct for Detector Non-linearity: No (USB2+H05261)
Correct for Stray Light: No (USB2+H05261)
Number of Pixels in Processed Spectrum: 2048
>>>>>Begin Processed Spectral Data<<<<<
365.73	0.00
365.92	0.00
366.12	0.00
366.32	0.00
366.52	0.00
366.72	0.00
366.91	0.00
367.11	0.00
367.31	0.00
367.51	0.00
367.70	0.00
367.90	0.00
368.10	0.00
368.30	0.00
368.49	0.00
368.69	0.00
368.89	0.00
369.09	0.00
369.28	0.00
369.48	0.00
369.68	0.00
369.87	0.00
370.07	0.00
370.27	0.00
370.47	826.21
370.66	3227.60
370.86	3948.48
371.06	4236.37
371.25	4451.70
371.45	4023.38
371.65	3574.00
371.84	3482.72
372.04	3538.89
372.24	4072.53
372.44	4166.15
372.63	3983.59
372.83	3852.52
373.03	3447.61
373.22	3225.26
373.42	3157.38
373.62	3700.39
373.81	3985.93
374.01	4046.79
374.21	3623.15
374.40	3442.93
374.60	3435.91
374.79	4002.32
374.99	4608.51
375.19	5109.39
375.38	5245.14
375.58	4645.96
375.78	4521.92
375.97	4767.67
376.17	4938.53
376.37	4856.61
376.56	5151.52
376.76	5345.78
376.95	5717.93
377.15	6120.50
377.35	6282.00
377.54	6626.06
377.74	6597.97
377.93	6541.80
378.13	6408.39
378.33	6160.29
378.52	5694.52
378.72	5387.91
378.91	5474.51
379.11	5233.44
379.31	5111.73
379.50	4994.70
379.70	5458.13
379.89	5954.32
380.09	6406.05
380.28	6693.93
380.48	6567.54
380.68	6527.75
380.87	6214.12
381.07	5853.68
381.26	5416.00
381.46	5163.22
381.65	5004.07
381.85	4842.57
382.04	4447.02
382.24	4322.97
382.43	4119.34
382.63	3932.10
382.83	3992.95
383.02	3999.98
383.22	4051.47
383.41	3939.12
383.61	4156.79
383.80	4779.37
384.00	5486.22
384.19	6286.68
384.39	6628.40
384.58	6490.31
384.78	6326.47
384.97	6499.67
385.17	6003.47
385.36	5790.49
385.56	5460.47
385.75	5607.92
385.95	6129.86
386.14	6738.40
386.34	6862.45
386.53	6366.26
386.72	6127.52
386.92	6108.80
387.11	6228.17
387.31	6806.28
387.50	6768.83
387.70	6314.77
387.89	6342.85
388.09	6249.23
388.28	6487.96
388.48	6464.56
388.67	6918.62
388.86	7740.15
389.06	8182.51
389.25	8746.58
389.45	8613.17
389.64	8505.51
389.84	8484.44
390.03	8348.69
390.22	8603.81
390.42	8667.00
390.61	9469.81
390.81	10029.20
391.00	9989.41
391.19	10068.98
391.39	9621.94
391.58	9198.31
391.78	8477.42
391.97	8400.18
392.16	7836.11
392.36	7227.57
392.55	5874.74
392.75	4465.74
392.94	3735.50
393.13	3707.41
393.33	4301.90
393.52	5518.98
393.71	6860.11
393.91	7836.11
394.10	8446.99
394.29	9135.11
394.49	9778.76
394.68	10565.18
394.88	10672.84
395.07	11140.95
395.26	10827.32
395.46	10504.32
395.65	9975.36
395.84	8863.61
396.04	7454.61
396.23	6024.54
396.42	5118.75
396.62	4826.18
396.81	5584.52
397.00	7300.13
397.19	8854.25
397.39	10649.44
397.58	11908.65
397.77	12758.26
397.97	13277.86
398.16	13483.83
398.35	13912.14
398.55	14204.71
398.74	14799.21
398.93	15335.19
399.12	15122.20
399.32	14207.05
399.51	14944.32
399.70	15920.32
399.90	15597.33
400.09	15655.84
400.28	15300.08
400.47	15660.52
400.67	16514.82
400.86	16872.92
401.05	16648.23
401.24	16917.39
401.44	17121.02
401.63	17252.09
401.82	17366.78
402.01	17603.17
402.21	17406.56
402.40	17813.82
402.59	16842.50
402.78	16226.93
402.97	15861.81
403.17	16149.70
403.36	17156.13
403.55	18003.40
403.74	18305.33
403.93	17584.44
404.13	16067.78
404.32	15887.56
404.51	16355.66
404.70	17654.66
404.89	17975.31
405.09	17640.62
405.28	17156.13
405.47	17259.11
405.66	16973.56
405.85	16833.13
406.05	16257.36
406.24	16355.66
406.43	16957.18
406.62	17818.50
406.81	17860.63
407.00	16959.52
407.20	17106.98
407.39	16877.60
407.58	17853.61
407.77	18466.83
407.96	19119.84
408.15	19248.57
408.34	19325.80
408.54	19990.52
408.73	20264.36
408.92	19845.40
409.11	19211.12
409.30	18204.69
409.49	17462.74
409.68	16217.57
409.87	15510.73
410.07	16594.40
410.26	17926.16
410.45	19168.99
410.64	19810.29
410.83	20210.53
411.02	20627.14
411.21	21792.73
411.40	21378.45
411.59	21357.39
411.78	21151.42
411.98	20800.34
412.17	21490.80
412.36	20634.16
412.55	20886.94
412.74	20283.08
412.93	20133.29
413.12	20449.26
413.31	22033.80
413.50	22345.09
413.69	22993.42
413.88	21874.65
414.07	21273.13
414.26	21621.87
414.45	22307.65
414.64	22108.70
414.83	22611.92
415.02	21696.77
415.22	22017.42
415.41	22157.85
415.60	23353.87
415.79	24222.20
415.98	24641.16
416.17	24903.30
416.36	23957.72
416.55	23660.48
416.74	22871.72
416.93	22153.17
417.12	22246.79
417.31	22040.82
417.50	22647.02
417.69	23616.01
417.88	23419.40
418.07	23180.67
418.26	22965.34
418.45	22991.08
418.64	23962.40
418.83	24786.27
419.02	24582.65
419.21	23901.55
419.39	23449.83
419.58	22256.15
419.77	21902.73
419.96	23388.97
420.15	24917.34
420.34	25158.42
420.53	26455.08
420.72	26581.46
420.91	26450.39
421.10	26434.01
421.29	26029.10
421.48	25266.08
421.67	26026.76
421.86	25235.66
422.05	24088.79
422.24	21240.36
422.43	20943.11
422.61	23644.09
422.80	25205.23
422.99	25219.27
423.18	24474.98
423.37	23910.91
423.56	23831.33
423.75	24233.91
423.94	24638.82
424.13	23751.76
424.32	24159.01
424.50	23604.30
424.69	23344.50
424.88	23758.78
425.07	23527.06
425.26	23288.33
425.45	23517.70
425.64	22754.69
425.83	22602.55
426.01	24109.86
426.20	24760.53
426.39	24657.54
426.58	22984.06
426.77	21109.29
426.96	20449.26
427.15	20922.05
427.33	22831.93
427.52	24355.61
427.71	23765.80
427.90	23351.52
428.09	23414.72
428.28	22890.44
428.46	22176.58
428.65	21736.56
428.84	22239.77
429.03	22712.56
429.22	21605.49
429.40	20627.14
429.59	18558.11
429.78	16299.49
429.97	16240.98
430.16	16723.13
430.34	16865.90
430.53	16655.25
430.72	17226.34
430.91	18970.04
431.10	21841.88
431.28	25886.32
431.47	27899.19
431.66	28486.66
431.85	25902.71
432.03	23960.06
432.22	22881.08
432.41	23861.76
432.60	26101.65
432.79	27309.37
432.97	28114.52
433.16	27218.09
433.35	25184.16
433.54	22717.24
433.72	21111.63
433.91	21820.81
434.10	24257.31
434.28	25919.09
434.47	27826.63
434.66	27173.62
434.85	26572.10
435.03	26054.84
435.22	27072.98
435.41	28819.02
435.59	28765.18
435.78	29024.98
435.97	29546.92
436.16	29930.77
436.34	29392.45
436.53	28807.31
436.72	28889.23
436.90	27349.16
437.09	27587.89
437.28	26651.68
437.46	27515.34
437.65	27536.40
437.84	25804.41
438.02	23779.84
438.21	23403.02
438.40	24765.21
438.58	26785.09
438.77	27754.07
438.96	27840.67
439.14	29352.66
439.33	29738.85
439.52	29905.02
439.70	29909.71
439.89	28730.08
440.08	28329.84
440.26	28140.26
440.45	28762.84
440.63	30913.80
440.82	32872.82
441.01	32266.63
441.19	31615.96
441.38	32453.87
441.57	33493.07
441.75	33975.22
441.94	34450.35
442.12	33771.59
442.31	34616.52
442.50	34284.17
442.68	33977.56
442.87	33930.75
443.05	33106.88
443.24	33542.22
443.43	34199.91
443.61	35220.38
443.80	35105.70
443.98	33610.09
444.17	33268.37
444.35	35337.41
444.54	35866.37
444.73	35634.66
444.91	34190.55
445.10	32847.08
445.28	30808.47
445.47	30661.02
445.65	30845.92
445.84	31908.52
446.02	33092.83
446.21	33567.96
446.39	33645.20
446.58	34176.50
446.77	34394.17
446.95	34920.79
447.14	35892.12
447.32	36442.14
447.51	35697.85
447.69	34663.33
447.88	34239.70
448.06	34614.18
448.25	35402.94
448.43	35306.98
448.62	34763.98
448.80	34525.24
448.99	35075.27
449.17	35185.27
449.36	35585.50
449.54	36219.79
449.73	36868.12
449.91	37148.98
450.10	38368.40
450.28	38707.78
450.46	38890.34
450.65	38300.53
450.83	38581.39
451.02	37359.63
451.20	37486.02
451.39	37268.35
451.57	37207.50
451.76	37130.26
451.94	36999.19
452.13	36563.85
452.31	34888.03
452.49	32957.08
452.68	33759.89
452.86	33907.34
453.05	33792.65
453.23	34602.48
453.42	35622.95
453.60	36762.79
453.78	37219.20
453.97	36432.78
454.15	36814.29
454.34	35840.62
454.52	36238.51
454.70	35208.68
454.89	35831.26
455.07	35714.23
455.26	36397.67
455.44	37750.50
455.62	38246.69
455.81	38799.06
455.99	38050.09
456.17	37862.85
456.36	38022.00
456.54	38749.91
456.73	39402.92
456.91	39639.31
457.09	39922.52
457.28	40521.69
457.46	39044.82
457.64	38876.30
457.83	37750.50
458.01	36975.78
458.19	37574.96
458.38	38253.72
458.56	38871.62
458.74	39178.23
458.93	38415.21
459.11	37820.72
459.29	38043.07
459.48	38078.18
459.66	37904.98
459.84	38487.77
460.03	39065.88
460.21	38171.80
460.39	40105.08
460.57	39533.99
460.76	40027.84
460.94	40568.51
461.12	39908.47
461.31	39695.49
461.49	39632.29
461.67	39803.15
461.85	40935.97
462.04	40339.13
462.22	41525.78
462.40	40793.20
462.59	40360.20
462.77	40875.12
462.95	40942.99
463.13	40205.72
463.32	39866.34
463.50	39716.55
463.68	39491.86
463.86	40191.68
464.05	39124.40
464.23	38693.74
464.41	38637.56
464.59	37720.07
464.78	39625.27
464.96	39419.30
465.14	39084.61
465.32	39992.73
465.50	40985.12
465.69	41385.35
465.87	40500.63
466.05	39510.58
466.23	37790.29
466.41	37106.85
466.60	37968.17
466.78	37649.86
466.96	38820.13
467.14	39082.27
467.32	39735.27
467.51	39711.87
467.69	38302.87
467.87	38689.06
468.05	39412.28
468.23	39229.72
468.41	39416.96
468.60	39800.81
468.78	39992.73
468.96	39194.61
469.14	40460.84
469.32	40273.60
469.50	38665.65
469.69	39377.17
469.87	38190.52
470.05	38347.34
470.23	38305.21
470.41	38555.64
470.59	38934.81
470.77	39070.56
470.95	40308.71
471.14	40545.10
471.32	40570.85
471.50	42532.22
471.68	42773.29
471.86	43185.22
472.04	43220.33
472.22	43126.71
472.40	41455.57
472.58	40872.78
472.77	40694.89
472.95	41649.83
473.13	42344.97
473.31	41188.75
473.49	41418.12
473.67	42211.56
473.85	42815.42
474.03	43999.73
474.21	43529.28
474.39	44076.97
474.57	44304.00
474.75	44304.00
474.93	44175.27
475.12	43213.31
475.30	42988.62
475.48	43264.80
475.66	43838.23
475.84	43393.53
476.02	42866.91
476.20	42302.84
476.38	43398.21
476.56	44165.91
476.74	45551.51
476.92	44968.71
477.10	45954.08
477.28	46705.39
477.46	46789.65
477.64	47164.14
477.82	46997.96
478.00	47463.72
478.18	46965.19
478.36	46773.27
478.54	46534.53
478.72	47611.18
478.90	47894.38
479.08	49181.68
479.26	49584.25
479.44	49448.50
479.62	49228.49
479.80	49289.34
479.98	49406.37
480.16	49123.16
480.34	49043.59
480.52	49502.33
480.70	49572.55
480.88	49909.58
481.06	50464.29
481.24	50752.18
481.41	51327.95
481.59	52130.75
481.77	51707.12
481.95	51133.68
482.13	51253.05
482.31	51023.68
482.49	51950.53
482.67	51742.22
482.85	51936.49
483.03	52552.05
483.21	52891.43
483.39	52758.02
483.57	51990.32
483.74	51632.22
483.92	51887.34
484.10	52329.70
484.28	52989.73
484.46	53137.18
484.64	53467.20
484.82	52975.69
485.00	52760.36
485.18	51910.74
485.35	50960.48
485.53	47976.30
485.71	44048.88
485.89	43615.88
486.07	45272.98
486.25	48893.79
486.43	51330.29
486.61	51620.52
486.78	51594.77
486.96	51660.30
487.14	53057.60
487.32	53914.24
487.50	54733.43
487.68	55056.42
487.85	55674.32
488.03	55625.17
488.21	55639.22
488.39	54822.37
488.57	54309.79
488.75	54152.97
488.92	54768.54
489.10	56608.20
489.28	57799.53
489.46	58220.83
489.64	58171.67
489.81	58375.30
489.99	58134.23
490.17	58014.86
490.35	58340.19
490.53	57883.79
490.70	57560.79
490.88	57616.97
491.06	58234.87
491.24	58415.09
491.41	57439.09
491.59	56264.14
491.77	55529.21
491.95	56442.02
492.13	57336.10
492.30	58347.21
492.48	59103.21
492.66	59552.59
492.84	59288.11
493.01	59292.79
493.19	58930.01
493.37	58688.93
493.54	58211.46
493.72	58812.98
493.90	59807.71
494.08	60552.00
494.25	60786.05
494.43	60647.96
494.61	61022.45
494.79	61209.69
494.96	61078.62
495.14	60346.03
495.32	59627.49
495.49	59098.53
495.67	60023.04
495.85	61202.67
496.02	61567.79
496.20	61549.07
496.38	61258.84
496.55	61038.83
496.73	61326.72
496.91	61345.44
497.09	61818.23
497.26	62269.95
497.44	61759.72
497.62	61190.97
497.79	60526.25
497.97	59491.74
498.14	59796.01
498.32	60678.39
498.50	61326.72
498.67	61890.79
498.85	61834.61
499.03	62042.92
499.20	62101.43
499.38	62211.44
499.56	62300.38
499.73	61633.33
499.91	61296.29
500.08	60832.86
500.26	59990.27
500.44	60472.42
500.61	61237.78
500.79	60865.63
500.97	60790.73
501.14	60554.34
501.32	60324.97
501.49	60533.28
501.67	60554.34
501.84	61031.81
502.02	61359.48
502.20	61598.22
502.37	61738.65
502.55	61740.99
502.72	62281.66
502.90	62763.81
503.07	62644.44
503.25	62042.92
503.43	61345.44
503.60	60596.47
503.78	60285.18
503.95	60495.83
504.13	61623.96
504.30	62574.22
504.48	62269.95
504.65	62054.62
504.83	61991.43
505.01	62553.16
505.18	62897.22
505.36	63543.20
505.53	63426.18
505.71	63620.44
505.88	63753.85
506.06	63039.99
506.23	62958.07
506.41	62452.51
506.58	62878.49
506.76	62784.87
506.93	62787.21
507.11	62447.83
507.28	62841.04
507.46	62157.61
507.63	61598.22
507.81	61478.85
507.98	61696.52
508.16	62363.57
508.33	62784.87
508.50	62974.45
508.68	63332.56
508.85	63772.58
509.03	63817.05
509.20	63774.92
509.38	63000.20
509.55	62284.00
509.73	62475.92
509.90	62731.04
510.08	63182.76
510.25	63154.68
510.42	62981.48
510.60	62887.85
510.77	63206.17
510.95	63437.88
511.12	63749.17
511.30	63969.18
511.47	64205.58
511.64	64238.34
511.82	63955.14
511.99	63168.72
512.17	62714.65
512.34	62534.43
512.51	62733.38
512.69	62796.57
512.86	62925.30
513.04	63311.49
513.21	63285.75
513.38	62892.54
513.56	62527.41
513.73	61715.25
513.90	62183.35
514.08	62220.80
514.25	62464.22
514.43	62541.45
514.60	62817.64
514.77	62834.02
514.95	62850.41
515.12	62958.07
515.29	63086.80
515.47	63597.04
515.64	63866.20
515.81	63238.93
515.99	62883.17
516.16	61623.96
516.33	59522.16
516.51	58368.28
516.68	57619.31
516.85	57298.65
517.03	57623.99
517.20	59856.86
517.37	62049.94
517.54	62892.54
517.72	62471.24
517.89	60821.16
518.06	58363.60
518.24	58623.40
518.41	60563.70
518.58	61811.21
518.75	62134.20
518.93	61991.43
519.10	61902.49
519.27	62307.40
519.45	62494.64
519.62	63110.20
519.79	63526.82
519.96	63458.94
520.14	62953.39
520.31	62230.16
520.48	62209.10
520.65	62581.24
520.83	63323.19
521.00	63636.83
521.17	63255.32
521.34	62995.52
521.52	63161.70
521.69	63807.68
521.86	64149.40
522.03	63943.44
522.20	62944.03
522.38	61630.99
522.55	61895.47
522.72	62372.94
522.89	62614.01
523.07	62780.19
523.24	63004.88
523.41	63716.40
523.58	64060.46
523.75	64495.80
523.92	64292.18
524.10	64395.16
524.27	64170.47
524.44	64023.01
524.61	63903.65
524.78	63842.79
524.96	63587.67
525.13	63777.26
525.30	63983.22
525.47	64266.43
525.64	64184.51
525.81	63592.36
525.98	62319.10
526.16	61139.47
526.33	60404.55
526.50	60317.95
526.67	59781.96
526.84	60441.99
527.01	61410.98
527.18	61876.74
527.36	62787.21
527.53	63402.77
527.70	63945.78
527.87	63475.33
528.04	62927.64
528.21	63428.52
528.38	63838.11
528.55	64629.21
528.72	64573.04
528.89	64865.61
529.07	64594.10
529.24	63917.69
529.41	63470.65
529.58	62789.55
529.75	63002.54
529.92	63210.85
530.09	63643.85
530.26	64196.21
530.43	64364.73
530.60	64444.31
530.77	64701.77
530.94	64842.20
531.11	64317.92
531.28	64020.67
531.46	63781.94
531.63	64037.06
531.80	63913.01
531.97	63552.57
532.14	62934.66
532.31	61993.77
532.48	61207.35
532.65	61410.98
532.82	62096.75
532.99	63049.35
533.16	63451.92
533.33	63957.48
533.50	63955.14
533.67	63297.45
533.84	62915.94
534.01	62927.64
534.18	63166.38
534.35	63292.77
534.52	63264.68
534.69	63529.16
534.86	63753.85
535.03	64088.55
535.20	64402.18
535.37	64722.83
535.54	64877.31
535.71	64448.99
535.88	64205.58
536.05	63501.07
536.22	63157.02
536.38	63128.93
536.55	62557.84
536.72	62087.39
536.89	62019.52
537.06	62717.00
537.23	63491.71
537.40	63700.02
537.57	63751.51
537.74	63730.45
537.91	63454.26
538.08	63262.34
538.25	63472.99
538.42	63786.62
538.59	63498.73
538.75	62953.39
538.92	62644.44
539.09	62700.61
539.26	62410.38
539.43	62375.28
539.60	62267.61
539.77	62691.25
539.94	62522.73
540.11	61694.18
540.28	61324.38
540.44	61443.74
540.61	61471.83
540.78	61719.93
540.95	62003.13
541.12	62461.88
541.29	62747.42
541.46	63000.20
541.62	63084.46
541.79	62726.36
541.96	62375.28
542.13	62298.04
542.30	62450.17
542.47	62677.21
542.63	62417.41
542.80	62363.57
542.97	62398.68
543.14	62375.28
543.31	62349.53
543.48	62972.11
543.64	63496.39
543.81	63905.99
543.98	63707.04
544.15	62997.86
544.32	62525.07
544.48	62628.05
544.65	62887.85
544.82	63243.62
544.99	62929.98
545.16	62862.11
545.32	62522.73
545.49	62967.43
545.66	63475.33
545.83	63210.85
546.00	62742.74
546.16	62576.56
546.33	62560.18
546.50	62761.47
546.67	63096.16
546.83	62632.74
547.00	62639.76
547.17	62014.83
547.34	61598.22
547.50	61478.85
547.67	61984.41
547.84	62017.17
548.00	62286.34
548.17	62761.47
548.34	62719.34
548.51	62653.80
548.67	62571.88
548.84	62628.05
549.01	62595.29
549.18	62653.80
549.34	62536.77
549.51	62695.93
549.68	62382.30
549.84	62274.63
550.01	62279.31
550.18	61968.02
550.34	62171.65
550.51	62218.46
550.68	62293.36
550.84	61911.85
551.01	61925.89
551.18	61923.55
551.34	62159.95
551.51	62585.92
551.68	62719.34
551.84	62663.16
552.01	62597.63
552.18	62431.45
552.34	61638.01
552.51	61359.48
552.68	61237.78
552.84	61895.47
553.01	62052.28
553.18	61853.34
553.34	62120.16
553.51	61996.11
553.67	62262.93
553.84	62496.98
554.01	62375.28
554.17	62246.55
554.34	62192.72
554.51	62279.31
554.67	62602.31
554.84	62426.77
555.00	62234.84
555.17	62047.60
555.33	61829.93
555.50	62024.20
555.67	61780.78
555.83	61715.25
556.00	61607.58
556.16	61551.41
556.33	61099.68
556.50	60989.68
556.66	61205.01
556.83	60638.60
556.99	61006.06
557.16	61197.99
557.32	61415.66
557.49	61586.52
557.65	61525.66
557.82	61403.95
557.98	61254.16
558.15	60896.06
558.32	60226.66
558.48	59400.46
558.65	59788.98
558.81	60053.47
558.98	60303.90
559.14	60449.02
559.31	60266.45
559.47	60640.94
559.64	60357.74
559.80	59969.21
559.97	60048.78
560.13	60376.46
560.30	61263.52
560.46	61633.33
560.63	61902.49
560.79	61733.97
560.96	61567.79
561.12	60271.14
561.29	59742.17
561.45	59561.95
561.61	60273.48
561.78	60647.96
561.94	60481.78
562.11	60479.44
562.27	60346.03
562.44	60638.60
562.60	60823.50
562.77	61169.90
562.93	61123.09
563.10	60980.32
563.26	60261.77
563.42	60350.71
563.59	60282.84
563.75	60308.58
563.92	60191.56
564.08	60140.07
564.24	60718.18
564.41	60549.66
564.57	60348.37
564.74	60233.69
564.90	60032.40
565.07	60126.02
565.23	59526.84
565.39	59171.08
565.56	59234.28
565.72	58766.17
565.88	59309.18
566.05	59304.49
566.21	59473.01
566.38	59601.74
566.54	59868.56
566.70	60133.04
566.87	60161.13
567.03	60156.45
567.19	60306.24
567.36	60203.26
567.52	59763.24
567.68	59826.43
567.85	59405.14
568.01	59044.69
568.17	58607.01
568.34	58557.86
568.50	58553.18
568.66	58873.84
568.83	59154.70
568.99	58810.64
569.15	59023.63
569.32	59164.06
569.48	59065.76
569.64	58827.02
569.81	58637.44
569.97	58557.86
570.13	58567.23
570.30	58134.23
570.46	57715.27
570.62	57251.84
570.78	57148.86
570.95	57485.90
571.11	58007.84
571.27	58047.63
571.43	58363.60
571.60	58534.46
571.76	58693.61
571.92	59025.97
572.09	59229.60
572.25	59103.21
572.41	58864.47
572.57	58908.94
572.74	59194.49
572.90	58635.10
573.06	58576.59
573.22	58319.13
573.38	58562.54
573.55	58735.74
573.71	58724.04
573.87	58567.23
574.03	58492.33
574.20	58424.45
574.36	58195.08
574.52	57881.45
574.68	57921.24
574.84	57797.19
575.01	57439.09
575.17	57141.84
575.33	57338.44
575.49	57717.61
575.65	57766.76
575.82	57478.88
575.98	57542.07
576.14	57733.99
576.30	58080.39
576.46	57883.79
576.62	58071.03
576.79	57726.97
576.95	57413.34
577.11	57558.45
577.27	57537.39
577.43	57818.25
577.59	57319.72
577.75	57099.71
577.92	56619.90
578.08	56383.51
578.24	56371.80
578.40	56530.96
578.56	56882.04
578.72	56811.82
578.88	56945.23
579.04	57228.44
579.21	57198.01
579.37	57396.96
579.53	57324.40
579.69	57317.38
579.85	57476.54
580.01	57345.47
580.17	57034.17
580.33	56924.17
580.49	56919.49
580.65	57223.76
580.82	57371.21
580.98	57165.24
581.14	57162.90
581.30	57361.85
581.46	56879.70
581.62	57408.66
581.78	57326.74
581.94	57354.83
582.10	57439.09
582.26	57443.77
582.42	57563.14
582.58	57504.62
582.74	57354.83
582.90	57460.15
583.06	57521.01
583.22	57139.50
583.38	57155.88
583.54	57207.37
583.70	56907.79
583.86	57057.58
584.02	56823.53
584.18	57263.55
584.34	56884.38
584.50	56872.68
584.66	56727.56
584.82	56629.26
584.98	56507.55
585.14	56051.15
