SpectraSuite Data File
++++++++++++++++++++++++++++++++++++
Date: Mon Oct 07 14:55:03 GMT-05:00 2013
User: price-jones
Dark Spectrum Present: No
Reference Spectrum Present: No
Number of Sampled Component Spectra: 1
Spectrometers: USB2+H05261
Integration Time (usec): 10000 (USB2+H05261)
Spectra Averaged: 1 (USB2+H05261)
Boxcar Smoothing: 0 (USB2+H05261)
Correct for Electrical Dark: No (USB2+H05261)
Strobe/Lamp Enabled: No (USB2+H05261)
Correct for Detector Non-linearity: No (USB2+H05261)
Correct for Stray Light: No (USB2+H05261)
Number of Pixels in Processed Spectrum: 2048
>>>>>Begin Processed Spectral Data<<<<<
365.73	0.00
365.92	0.00
366.12	0.00
366.32	0.00
366.52	0.00
366.72	0.00
366.91	0.00
367.11	0.00
367.31	0.00
367.51	0.00
367.70	0.00
367.90	0.00
368.10	0.00
368.30	0.00
368.49	0.00
368.69	0.00
368.89	0.00
369.09	0.00
369.28	0.00
369.48	0.00
369.68	0.00
369.87	0.00
370.07	0.00
370.27	0.00
370.47	566.41
370.66	3009.93
370.86	3435.91
371.06	3819.75
371.25	3555.27
371.45	3318.88
371.65	2897.58
371.84	2846.09
372.04	3129.30
372.24	3417.18
372.44	3637.19
372.63	3325.90
372.83	3220.58
373.03	2789.92
373.22	2712.68
373.42	2846.09
373.62	3328.24
373.81	3613.79
374.01	3487.40
374.21	3082.49
374.40	2813.32
374.60	3096.53
374.79	3524.85
374.99	4077.21
375.19	4259.78
375.38	4262.12
375.58	4051.47
375.78	4011.68
375.97	4159.13
376.17	4208.28
376.37	4236.37
376.56	4318.29
376.76	4620.22
376.95	4966.62
377.15	5268.55
377.35	5329.40
377.54	5680.48
377.74	5966.03
377.93	5783.46
378.13	5497.92
378.33	5027.47
378.52	4826.18
378.72	4711.50
378.91	4599.15
379.11	4545.32
379.31	4287.86
379.50	4456.38
379.70	4884.70
379.89	5357.49
380.09	5654.73
380.28	5612.60
380.48	5797.51
380.68	5624.31
380.87	5320.04
381.07	4868.31
381.26	4470.42
381.46	4329.99
381.65	4070.19
381.85	3976.57
382.04	3859.54
382.24	3698.05
382.43	3400.80
382.63	3531.87
382.83	3545.91
383.02	3417.18
383.22	3466.33
383.41	3417.18
383.61	3885.29
383.80	4444.68
384.00	4959.60
384.19	5509.62
384.39	5851.34
384.58	5565.79
384.78	5586.86
384.97	5371.53
385.17	5139.82
385.36	4847.25
385.56	4748.95
385.75	5078.96
385.95	5598.56
386.14	5907.51
386.34	5851.34
386.53	5397.28
386.72	5135.14
386.92	5275.57
387.11	5577.50
387.31	5893.47
387.50	5837.30
387.70	5748.36
387.89	5514.30
388.09	5610.26
388.28	5696.86
388.48	5638.35
388.67	6303.06
388.86	6963.09
389.06	7403.11
389.25	7691.00
389.45	7808.03
389.64	7702.70
389.84	7463.97
390.03	7410.14
390.22	7672.28
390.42	7782.28
390.61	8358.05
390.81	8823.82
391.00	9116.39
391.19	8844.88
391.39	8685.73
391.58	8109.96
391.78	7562.27
391.97	7569.29
392.16	6960.75
392.36	5982.41
392.55	4582.77
392.75	3791.67
392.94	3152.70
393.13	3424.20
393.33	4184.88
393.52	5144.50
393.71	6228.17
393.91	7096.50
394.10	7508.44
394.29	8369.76
394.49	8973.61
394.68	9713.22
394.88	9584.49
395.07	9877.06
395.26	9823.23
395.46	9390.23
395.65	8755.94
395.84	7543.55
396.04	6122.84
396.23	5053.22
396.42	4231.69
396.62	4444.68
396.81	5296.63
397.00	6906.92
397.19	8374.44
397.39	9933.23
397.58	11066.05
397.77	11831.41
397.97	12262.07
398.16	12430.59
398.35	12624.85
398.55	12917.42
398.74	13762.35
398.93	14003.43
399.12	13504.89
399.32	12978.27
399.51	13603.19
399.70	14321.74
399.90	13795.12
400.09	14085.34
400.28	13696.82
400.47	14523.02
400.67	14974.75
400.86	15211.14
401.05	15180.71
401.24	15641.80
401.44	15756.49
401.63	15604.35
401.82	15800.96
402.01	15669.89
402.21	15730.74
402.40	15875.85
402.59	15143.27
402.78	14574.52
402.97	14579.20
403.17	15363.28
403.36	16009.26
403.55	16865.90
403.74	16893.99
403.93	15569.24
404.13	14649.41
404.32	14822.61
404.51	15613.71
404.70	16320.56
404.89	16095.86
405.09	15737.76
405.28	15637.12
405.47	15922.66
405.66	15564.56
405.85	15136.24
406.05	15096.46
406.24	15407.75
406.43	15627.76
406.62	16353.32
406.81	16369.71
407.00	15964.79
407.20	15836.06
407.39	15782.23
407.58	16758.24
407.77	17146.76
407.96	17631.26
408.15	17977.65
408.34	18052.55
408.54	18743.01
408.73	18822.59
408.92	18305.33
409.11	17788.07
409.30	16886.97
409.49	15796.28
409.68	14747.72
409.87	14644.73
410.07	15971.82
410.26	17291.88
410.45	18054.89
410.64	18366.18
410.83	18747.69
411.02	19398.36
411.21	19971.79
411.40	19522.41
411.59	19941.36
411.78	19871.15
411.98	19798.59
412.17	19644.12
412.36	19819.66
412.55	19403.04
412.74	19021.53
412.93	18876.42
413.12	19634.75
413.31	21399.52
413.50	21181.85
413.69	20992.26
413.88	20023.28
414.07	19805.61
414.26	20372.02
414.45	21238.02
414.64	21043.76
414.83	20929.07
415.02	20554.58
415.22	20910.35
415.41	21223.98
415.60	21790.39
415.79	22700.86
415.98	23082.36
416.17	23370.25
416.36	22455.10
416.55	22183.60
416.74	21216.96
416.93	20802.68
417.12	21050.78
417.31	21373.77
417.50	21745.92
417.69	22436.38
417.88	22263.18
418.07	22143.81
418.26	21537.61
418.45	21830.18
418.64	23054.28
418.83	23824.31
419.02	23393.65
419.21	22967.68
419.39	21958.91
419.58	21048.44
419.77	21385.47
419.96	22707.88
420.15	23779.84
420.34	24156.67
420.53	24514.77
420.72	25275.45
420.91	24776.91
421.10	24549.88
421.29	24540.52
421.48	24013.90
421.67	24943.09
421.86	23648.77
422.05	21802.09
422.24	20238.61
422.43	20610.76
422.61	23044.91
422.80	24526.47
422.99	23662.82
423.18	23061.30
423.37	22623.62
423.56	23410.04
423.75	23473.23
423.94	24088.79
424.13	22918.53
424.32	22452.76
424.50	22558.08
424.69	22909.16
424.88	23042.57
425.07	22963.00
425.26	22593.19
425.45	21919.12
425.64	21989.33
425.83	22221.05
426.01	23573.88
426.20	23833.68
426.39	23208.75
426.58	21621.87
426.77	20400.11
426.96	19988.18
427.15	21015.67
427.33	22883.42
427.52	23157.26
427.71	23227.48
427.90	23070.66
428.09	22991.08
428.28	21898.05
428.46	21610.17
428.65	21422.92
428.84	22080.61
429.03	21832.52
429.22	20554.58
429.40	19028.56
429.59	17509.55
429.78	15571.58
429.97	16369.71
430.16	16126.29
430.34	16238.64
430.53	16273.74
430.72	17090.59
430.91	19166.65
431.10	22810.86
431.28	25750.57
431.47	27803.22
431.66	26834.24
431.85	24346.25
432.03	22677.45
432.22	22972.36
432.41	24453.92
432.60	26279.54
432.79	26614.23
432.97	27204.05
433.16	26347.41
433.35	23370.25
433.54	21462.71
433.72	20676.29
433.91	22361.48
434.10	24332.21
434.28	25783.34
434.47	26705.51
434.66	26089.95
434.85	25848.88
435.03	25762.28
435.22	26649.34
435.41	27798.54
435.59	28732.42
435.78	28472.62
435.97	29589.05
436.16	28875.19
436.34	28769.86
436.53	27941.32
436.72	28355.59
436.90	27019.14
437.09	26471.46
437.28	26314.64
437.46	27763.43
437.65	26532.31
437.84	24369.66
438.02	23131.51
438.21	23358.55
438.40	24758.19
438.58	26707.85
438.77	27665.13
438.96	28133.24
439.14	29102.22
439.33	29282.44
439.52	29282.44
439.70	28381.34
439.89	28077.07
440.08	27281.28
440.26	28205.80
440.45	29102.22
440.63	31503.61
440.82	31807.88
441.01	31178.28
441.19	31637.02
441.38	32388.33
441.57	33064.75
441.75	32851.76
441.94	33446.26
442.12	33291.78
442.31	34646.95
442.50	34885.68
442.68	33596.05
442.87	33125.60
443.05	32393.01
443.24	34052.45
443.43	34560.35
443.61	34848.24
443.80	35269.53
443.98	34253.74
444.17	33771.59
444.35	34588.44
444.54	35288.26
444.73	35126.76
444.91	33394.76
445.10	32360.25
445.28	31438.08
445.47	31061.25
445.65	30836.56
445.84	31662.77
446.02	32238.54
446.21	33771.59
446.39	33984.58
446.58	34038.41
446.77	34820.15
446.95	35117.40
447.14	36091.06
447.32	36811.95
447.51	35445.07
447.69	34092.24
447.88	34274.80
448.06	35110.38
448.25	35599.55
448.43	35026.12
448.62	34653.97
448.80	34939.52
448.99	34955.90
449.17	35424.01
449.36	35840.62
449.54	36690.24
449.73	37076.43
449.91	37574.96
450.10	38550.96
450.28	38735.87
450.46	39276.53
450.65	38345.00
450.83	38569.69
451.02	37673.26
451.20	37764.54
451.39	37816.04
451.57	37453.25
451.76	37553.90
451.94	36498.31
452.13	36367.24
452.31	34162.46
452.49	32425.78
452.68	33228.59
452.86	33916.70
453.05	34075.86
453.23	35288.26
453.42	35920.20
453.60	37205.16
453.78	37584.32
453.97	37036.64
454.15	36259.58
454.34	34778.02
454.52	35447.41
454.70	35463.80
454.89	35398.26
455.07	35608.91
455.26	36950.04
455.44	37680.28
455.62	38728.84
455.81	38780.34
455.99	38689.06
456.17	37919.02
456.36	38855.23
456.54	39189.93
456.73	39398.24
456.91	39913.16
457.09	40322.75
457.28	41230.88
457.46	38665.65
457.64	38689.06
457.83	37219.20
458.01	37046.00
458.19	38483.09
458.38	39033.11
458.56	39948.26
458.74	39768.04
458.93	38801.40
459.11	38031.36
459.29	37586.66
459.48	39210.99
459.66	38169.46
459.84	38504.15
460.03	38492.45
460.21	39131.42
460.39	40680.85
460.57	39819.53
460.76	40369.56
460.94	40734.68
461.12	40121.46
461.31	40133.17
461.49	40711.28
461.67	40278.28
461.85	41799.63
462.04	41649.83
462.22	41612.38
462.40	41338.54
462.59	41155.98
462.77	41350.24
462.95	41221.52
463.13	40605.95
463.32	40088.70
463.50	39894.43
463.68	40252.53
463.86	40643.40
464.05	39742.30
464.23	38752.25
464.41	38873.96
464.59	37624.11
464.78	40357.86
464.96	39800.81
465.14	39299.94
465.32	40685.53
465.50	41799.63
465.69	41680.26
465.87	40491.27
466.05	39091.63
466.23	38433.94
466.41	37291.76
466.60	38417.55
466.78	39129.08
466.96	39047.16
467.14	39875.71
467.32	39936.56
467.51	40425.73
467.69	38536.92
467.87	40030.18
468.05	40727.66
468.23	40589.57
468.41	40526.38
468.60	40919.59
468.78	40591.91
468.96	40060.61
469.14	40765.11
469.32	40989.80
469.50	39082.27
469.69	40165.93
469.87	38801.40
470.05	38829.49
470.23	39402.92
470.41	39405.26
470.59	39838.26
470.77	39964.65
470.95	40383.60
471.14	41109.17
471.32	41284.71
471.50	43885.04
471.68	43885.04
471.86	44074.63
472.04	44058.24
472.22	44048.88
472.40	41879.21
472.58	42040.70
472.77	42082.83
472.95	42866.91
473.13	43945.90
473.31	42579.03
473.49	43035.43
473.67	43679.08
473.85	43999.73
474.03	45202.77
474.21	45413.41
474.39	45808.96
474.57	45530.44
474.75	45762.15
474.93	44898.50
475.12	43386.51
475.30	43943.56
475.48	44390.60
475.66	44961.69
475.84	44245.49
476.02	44535.71
476.20	43742.27
476.38	44762.75
476.56	45867.48
476.74	46424.53
476.92	46670.28
477.10	46766.24
477.28	48090.99
477.46	48205.67
477.64	49055.29
477.82	48364.83
478.00	48622.29
478.18	48016.09
478.36	47772.67
478.54	48158.86
478.72	48552.07
478.90	49942.35
479.08	49883.84
479.26	49855.75
479.44	51019.00
479.62	50801.33
479.80	50532.17
479.98	50466.63
480.16	50670.26
480.34	49794.90
480.52	51203.90
480.70	50953.46
480.88	51262.41
481.06	51782.01
481.24	52100.32
481.41	52498.22
481.59	53092.71
481.77	52184.58
481.95	51976.28
482.13	52205.65
482.31	52442.04
482.49	53361.87
482.67	52622.26
482.85	53109.10
483.03	53460.18
483.21	54026.59
483.39	53932.96
483.57	53340.81
483.74	53724.66
483.92	53467.20
484.10	53504.65
484.28	53897.86
484.46	54078.08
484.64	54883.22
484.82	53890.83
485.00	53640.40
485.18	53336.13
485.35	51224.96
485.53	46768.58
485.71	44058.24
485.89	45649.81
486.07	48690.16
486.25	50738.13
486.43	52479.49
486.61	53102.07
486.78	52477.15
486.96	53251.87
487.14	54288.73
487.32	54962.80
487.50	55779.65
487.68	57013.11
487.85	56987.36
488.03	56512.23
488.21	55737.52
488.39	55875.61
488.57	54635.13
488.75	55007.27
488.92	56381.16
489.10	57778.46
489.28	58206.78
489.46	59138.32
489.64	58827.02
489.81	59077.46
489.99	58859.79
490.17	58897.24
490.35	59288.11
490.53	58602.33
490.70	58489.99
490.88	58691.27
491.06	59615.79
491.24	59739.83
491.41	58557.86
491.59	57375.89
491.77	56882.04
491.95	58045.29
492.13	59119.59
492.30	59522.16
492.48	60453.70
492.66	60697.11
492.84	60140.07
493.01	59655.57
493.19	59325.56
493.37	59227.26
493.54	59550.25
493.72	60795.42
493.90	61113.73
494.08	61399.27
494.25	62021.86
494.43	62394.00
494.61	62356.55
494.79	62000.79
494.96	62595.29
495.14	61953.98
495.32	60512.21
495.49	60647.96
495.67	61921.21
495.85	62513.37
496.02	63288.09
496.20	62269.95
496.38	61972.70
496.55	61888.45
496.73	62707.63
496.91	62988.50
497.09	63182.76
497.26	63854.50
497.44	62672.52
497.62	62279.31
497.79	61740.99
497.97	60849.25
498.14	61460.13
498.32	62386.98
498.50	62386.98
498.67	62578.90
498.85	62504.01
499.03	62747.42
499.20	62656.14
499.38	62709.97
499.56	62438.47
499.73	62101.43
499.91	62026.54
500.08	61394.59
500.26	61289.27
500.44	61712.91
500.61	62099.09
500.79	61949.30
500.97	61717.59
501.14	61591.20
501.32	60893.72
501.49	61305.65
501.67	61928.23
501.84	61556.09
502.02	62370.60
502.20	62698.27
502.37	62513.37
502.55	63065.73
502.72	63683.64
502.90	64135.36
503.07	63962.16
503.25	63168.72
503.43	62152.93
503.60	61630.99
503.78	61883.76
503.95	62513.37
504.13	63381.71
504.30	63835.77
504.48	62920.62
504.65	63140.63
504.83	63419.16
505.01	63957.48
505.18	63992.59
505.36	64502.82
505.53	64551.98
505.71	64081.53
505.88	64860.93
506.06	64409.20
506.23	64168.13
506.41	63875.56
506.58	63592.36
506.76	63697.68
506.93	63423.84
507.11	63510.44
507.28	63540.86
507.46	62852.75
507.63	62979.14
507.81	62808.28
507.98	62986.16
508.16	63957.48
508.33	63964.50
508.50	63849.81
508.68	64573.04
508.85	65247.11
509.03	65034.13
509.20	64694.75
509.38	63931.73
509.55	64177.49
509.73	64259.41
509.90	64257.07
510.08	64427.93
510.25	63781.94
510.42	63334.90
510.60	63798.32
510.77	64479.42
510.95	64594.10
511.12	65343.08
511.30	65535.00
511.47	65535.00
511.64	65460.10
511.82	65535.00
511.99	64589.42
512.17	64329.62
512.34	63980.88
512.51	64507.50
512.69	64334.31
512.86	63852.15
513.04	64378.78
513.21	63760.87
513.38	63636.83
513.56	63011.90
513.73	62934.66
513.90	63721.08
514.08	63693.00
514.25	63831.09
514.43	64142.38
514.60	64142.38
514.77	64711.13
514.95	64999.02
515.12	64446.65
515.29	64963.91
515.47	65094.98
515.64	65118.38
515.81	64919.44
515.99	63870.88
516.16	62316.76
516.33	60135.38
516.51	60093.25
516.68	58901.92
516.85	58117.84
517.03	59908.35
517.20	62129.52
517.37	63922.37
517.54	64367.07
517.72	63428.52
517.89	60739.24
518.06	59465.99
518.24	60580.09
518.41	62424.43
518.58	63480.01
518.75	63196.80
518.93	63412.13
519.10	63103.18
519.27	64053.44
519.45	64093.23
519.62	65003.70
519.79	65038.81
519.96	64413.88
520.14	64261.75
520.31	63472.99
520.48	63217.87
520.65	63819.39
520.83	64690.07
521.00	64376.43
521.17	64156.42
521.34	64383.46
521.52	64584.74
521.69	65071.57
521.86	65535.00
522.03	64921.78
522.20	63957.48
522.38	63154.68
522.55	63781.94
522.72	63976.20
522.89	63449.58
523.07	64477.08
523.24	64912.42
523.41	65272.86
523.58	65513.94
523.75	65535.00
523.92	65535.00
524.10	65535.00
524.27	65448.40
524.44	65104.34
524.61	64233.66
524.78	64886.67
524.96	64809.43
525.13	65006.04
525.30	65279.88
525.47	65535.00
525.64	65535.00
525.81	65020.08
525.98	63714.06
526.16	62068.67
526.33	61996.11
526.50	61537.36
526.67	61584.18
526.84	62417.41
527.01	63171.06
527.18	63384.05
527.36	63969.18
527.53	64774.33
527.70	64474.74
527.87	63646.19
528.04	64196.21
528.21	64661.98
528.38	65013.06
528.55	65535.00
528.72	65535.00
528.89	65396.91
529.07	65535.00
529.24	64680.70
529.41	64416.22
529.58	64355.37
529.75	65123.07
529.92	65361.80
530.09	65535.00
530.26	65535.00
530.43	65535.00
530.60	65535.00
530.77	65535.00
530.94	65535.00
531.11	65432.02
531.28	65059.87
531.46	65254.14
531.63	65305.63
531.80	65389.89
531.97	65169.88
532.14	64589.42
532.31	63304.47
532.48	62454.86
532.65	63451.92
532.82	63653.21
532.99	65460.10
533.16	65535.00
533.33	65382.87
533.50	65434.36
533.67	64643.26
533.84	64617.51
534.01	64870.29
534.18	64706.45
534.35	64371.75
534.52	63941.10
534.69	64903.06
534.86	65275.20
535.03	65535.00
535.20	65354.78
535.37	65535.00
535.54	65535.00
535.71	65535.00
535.88	65535.00
536.05	64867.95
536.22	64250.05
536.38	64402.18
536.55	64015.99
536.72	63629.80
536.89	64338.99
537.06	64189.19
537.23	64640.92
537.40	64331.96
537.57	64357.71
537.74	64797.73
537.91	64795.39
538.08	64935.82
538.25	65338.40
538.42	65535.00
538.59	65006.04
538.75	64437.29
538.92	63709.38
539.09	64369.41
539.26	63838.11
539.43	63795.98
539.60	63419.16
539.77	64268.77
539.94	63732.79
540.11	63068.08
540.28	62714.65
540.44	62679.55
540.61	62829.34
540.78	63774.92
540.95	64130.68
541.12	64062.80
541.29	64203.24
541.46	64448.99
541.62	65010.72
541.79	63908.33
541.96	63575.97
542.13	63819.39
542.30	64051.10
542.47	64006.63
542.63	64451.33
542.80	64315.58
542.97	64149.40
543.14	64083.87
543.31	63824.07
543.48	64835.18
543.64	65279.88
543.81	65312.65
543.98	65286.90
544.15	64374.09
544.32	64175.15
544.48	63955.14
544.65	64144.72
544.82	64460.69
544.99	63971.52
545.16	63697.68
545.32	63798.32
545.49	64481.76
545.66	64844.54
545.83	64439.63
546.00	64535.59
546.16	64142.38
546.33	64044.08
546.50	63840.45
546.67	64713.47
546.83	64107.27
547.00	64533.25
547.17	63103.18
547.34	62791.89
547.50	62702.95
547.67	63320.85
547.84	63943.44
548.00	64336.65
548.17	64446.65
548.34	64317.92
548.51	64083.87
548.67	63746.83
548.84	63999.61
549.01	64425.59
549.18	63943.44
549.34	64245.36
549.51	64926.46
549.68	64739.22
549.84	63636.83
550.01	63025.95
550.18	63161.70
550.34	63777.26
550.51	63803.00
550.68	63905.99
550.84	64109.61
551.01	63248.30
551.18	63236.59
551.34	63777.26
551.51	64470.06
551.68	64589.42
551.84	65317.33
552.01	64320.26
552.18	63777.26
552.34	62827.00
552.51	62848.06
552.68	62735.72
552.84	63077.44
553.01	63316.17
553.18	63025.95
553.34	63295.11
553.51	63634.48
553.67	63819.39
553.84	64011.31
554.01	64516.87
554.17	63819.39
554.34	63884.92
554.51	63613.42
554.67	63332.56
554.84	63643.85
555.00	63077.44
555.17	62960.41
555.33	63454.26
555.50	62986.16
555.67	63245.96
555.83	64065.14
556.00	63229.57
556.16	62695.93
556.33	62401.02
556.50	62639.76
556.66	62401.02
556.83	61998.45
556.99	62363.57
557.16	63140.63
557.32	62499.33
557.49	63367.66
557.65	63187.44
557.82	62871.47
557.98	63075.10
558.15	62447.83
558.32	61935.26
558.48	61546.73
558.65	61345.44
558.81	61525.66
558.98	62068.67
559.14	62045.26
559.31	61759.72
559.47	61605.24
559.64	61890.79
559.80	61085.64
559.97	62005.47
560.13	62223.14
560.30	63255.32
560.46	63643.85
560.63	63894.28
560.79	63936.41
560.96	62864.45
561.12	62171.65
561.29	61715.25
561.45	61799.50
561.61	62459.54
561.78	61488.21
561.94	62113.14
562.11	61904.83
562.27	61389.91
562.44	62555.50
562.60	62742.74
562.77	62583.58
562.93	62309.74
563.10	62195.06
563.26	62766.15
563.42	62543.80
563.59	62609.33
563.75	61853.34
563.92	61755.03
564.08	61808.87
564.24	62555.50
564.41	61858.02
564.57	63194.46
564.74	62473.58
564.90	62239.53
565.07	61762.06
565.23	60933.51
565.39	60481.78
565.56	60760.31
565.72	60898.40
565.88	60718.18
566.05	62085.05
566.21	61628.65
566.38	61427.36
566.54	62003.13
566.70	62925.30
566.87	62541.45
567.03	62169.31
567.19	62571.88
567.36	62665.50
567.52	61949.30
567.68	61256.50
567.85	61186.28
568.01	61162.88
568.17	61197.99
568.34	60949.89
568.50	60441.99
568.66	60552.00
568.83	60477.10
568.99	60477.10
569.15	60711.16
569.32	60114.32
569.48	60540.30
569.64	60924.14
569.81	60718.18
569.97	60360.08
570.13	60013.68
570.30	59016.61
570.46	59044.69
570.62	58508.71
570.78	58810.64
570.95	59704.73
571.11	60126.02
571.27	59419.18
571.43	59976.23
571.60	59894.31
571.76	60491.15
571.92	61235.44
572.09	61160.54
572.25	60872.65
572.41	60636.26
572.57	60456.04
572.74	60818.82
572.90	61661.41
573.06	61357.14
573.22	61368.85
573.38	61034.15
573.55	61916.53
573.71	60640.94
573.87	60420.93
574.03	60694.77
574.20	60446.68
574.36	59561.95
574.52	59695.36
574.68	59793.67
574.84	59590.04
575.01	59166.40
575.17	58244.23
575.33	59180.45
575.49	59440.24
575.65	58670.21
575.82	58581.27
575.98	58761.49
576.14	59568.97
576.30	60685.41
576.46	59353.65
576.62	59742.17
576.79	59824.09
576.95	59798.35
577.11	59938.78
577.27	59632.17
577.43	59554.93
577.59	59627.49
577.75	58941.71
577.92	59030.65
578.08	58962.78
578.24	58918.31
578.40	59061.08
578.56	58274.66
578.72	59175.76
578.88	59007.25
579.04	59381.73
579.21	59068.10
579.37	58927.67
579.53	59355.99
579.69	58892.56
579.85	58663.19
580.01	58644.46
580.17	58511.05
580.33	58827.02
580.49	59353.65
580.65	58820.00
580.82	59283.43
580.98	59215.55
581.14	59264.70
581.30	59025.97
581.46	58354.24
581.62	58803.62
581.78	59309.18
581.94	59428.54
582.10	59182.79
582.26	59508.12
582.42	59114.91
582.58	59451.95
582.74	59206.19
582.90	58983.84
583.06	59824.09
583.22	59604.08
583.38	59416.84
583.54	59395.77
583.70	59161.72
583.86	59519.82
584.02	58674.89
584.18	58527.44
584.34	58564.88
584.50	58164.65
584.66	58515.73
584.82	58450.20
584.98	58539.14
585.14	57675.48
585.30	57406.32
