SpectraSuite Data File
++++++++++++++++++++++++++++++++++++
Date: Mon Oct 07 14:53:30 GMT-05:00 2013
User: price-jones
Dark Spectrum Present: No
Reference Spectrum Present: No
Number of Sampled Component Spectra: 1
Spectrometers: USB2+H05261
Integration Time (usec): 100000 (USB2+H05261)
Spectra Averaged: 1 (USB2+H05261)
Boxcar Smoothing: 0 (USB2+H05261)
Correct for Electrical Dark: No (USB2+H05261)
Strobe/Lamp Enabled: No (USB2+H05261)
Correct for Detector Non-linearity: No (USB2+H05261)
Correct for Stray Light: No (USB2+H05261)
Number of Pixels in Processed Spectrum: 2048
>>>>>Begin Processed Spectral Data<<<<<
365.73	0.00
365.92	0.00
366.12	0.00
366.32	0.00
366.52	0.00
366.72	0.00
366.91	0.00
367.11	0.00
367.31	0.00
367.51	0.00
367.70	0.00
367.90	0.00
368.10	0.00
368.30	0.00
368.49	0.00
368.69	0.00
368.89	0.00
369.09	0.00
369.28	0.00
369.48	0.00
369.68	0.00
369.87	0.00
370.07	0.00
370.27	0.00
370.47	587.47
370.66	3187.81
370.86	3735.50
371.06	4081.89
371.25	4035.08
371.45	3791.67
371.65	3389.10
371.84	3141.00
372.04	3204.19
372.24	3728.47
372.44	3819.75
372.63	3702.73
372.83	3576.34
373.03	3098.87
373.22	2939.71
373.42	3061.42
373.62	3513.14
373.81	3845.50
374.01	3688.68
374.21	3414.84
374.40	3204.19
374.60	3293.13
374.79	3740.18
374.99	4337.01
375.19	4660.01
375.38	4767.67
375.58	4404.89
375.78	4411.91
375.97	4299.56
376.17	4519.57
376.37	4500.85
376.56	4746.61
376.76	4856.61
376.95	5324.72
377.15	5701.54
377.35	5860.70
377.54	6139.23
377.74	6310.08
377.93	6396.68
378.13	6242.21
378.33	5804.53
378.52	5221.74
378.72	5188.97
378.91	5095.35
379.11	4901.08
379.31	4720.86
379.50	4720.86
379.70	4985.34
379.89	5582.18
380.09	5959.00
380.28	6171.99
380.48	6265.61
380.68	5954.32
380.87	5935.60
381.07	5390.25
381.26	5102.37
381.46	4606.17
381.65	4547.66
381.85	4404.89
382.04	4170.83
382.24	3946.14
382.43	3882.95
382.63	3772.94
382.83	3606.77
383.02	3616.13
383.22	3557.61
383.41	3796.35
383.61	3906.35
383.80	4346.37
384.00	5261.52
384.19	5760.06
384.39	5996.45
384.58	6204.76
384.78	5989.43
384.97	5818.57
385.17	5509.62
385.36	5238.12
385.56	5071.94
385.75	5261.52
385.95	5781.12
386.14	6232.85
386.34	6366.26
386.53	5975.39
386.72	5696.86
386.92	5673.46
387.11	6024.54
387.31	6403.71
387.50	6090.07
387.70	5970.71
387.89	5942.62
388.09	5951.98
388.28	6022.20
388.48	6094.76
388.67	6420.09
388.86	7358.64
389.06	7716.75
389.25	8063.15
389.45	8280.82
389.64	8002.29
389.84	7964.84
390.03	7908.67
390.22	8191.88
390.42	8072.51
390.61	8669.34
390.81	9238.09
391.00	9650.03
391.19	9305.97
391.39	9142.13
391.58	8748.92
391.78	8063.15
391.97	7700.36
392.16	7358.64
392.36	6684.57
392.55	5355.15
392.75	4177.86
392.94	3473.36
393.13	3475.70
393.33	4032.74
393.52	5053.22
393.71	6394.34
393.91	7124.59
394.10	7894.63
394.29	8407.20
394.49	9273.20
394.68	9900.47
394.88	9743.65
395.07	10326.44
395.26	10097.07
395.46	10068.98
395.65	9369.16
395.84	8236.35
396.04	6867.13
396.23	5479.19
396.42	4566.39
396.62	4470.42
396.81	5128.11
397.00	6607.33
397.19	8524.23
397.39	9839.61
397.58	11234.57
397.77	11932.05
397.97	12358.03
398.16	12578.04
398.35	12713.79
398.55	13217.01
398.74	13685.11
398.93	14218.75
399.12	13935.55
399.32	13167.85
399.51	13884.06
399.70	14689.20
399.90	14406.00
400.09	14677.50
400.28	14443.45
400.47	14448.13
400.67	15077.73
400.86	15541.16
401.05	15466.26
401.24	15616.05
401.44	16145.02
401.63	15871.17
401.82	16161.40
402.01	15817.34
402.21	16264.38
402.40	16201.19
402.59	15861.81
402.78	15328.17
402.97	15035.60
403.17	15087.09
403.36	16011.60
403.55	16882.28
403.74	17174.85
403.93	16226.93
404.13	14799.21
404.32	14513.66
404.51	15286.04
404.70	16601.42
404.89	16690.36
405.09	16388.43
405.28	15922.66
405.47	15602.01
405.66	15597.33
405.85	15454.56
406.05	14846.02
406.24	15016.88
406.43	15655.84
406.62	16299.49
406.81	16592.06
407.00	16058.42
407.20	15611.37
407.39	15672.23
407.58	16269.06
407.77	17020.38
407.96	17345.71
408.15	17729.56
408.34	17715.51
408.54	18754.71
408.73	18705.56
408.92	18635.35
409.11	18050.21
409.30	17029.74
409.49	15981.18
409.68	15262.63
409.87	14539.41
410.07	15641.80
410.26	16423.54
410.45	18045.53
410.64	18298.31
410.83	18600.24
411.02	19309.42
411.21	19779.87
411.40	19871.15
411.59	20058.39
411.78	19768.16
411.98	19302.40
412.17	19943.70
412.36	19225.16
412.55	19527.09
412.74	18972.38
412.93	18420.02
413.12	18630.66
413.31	20280.74
413.50	20257.34
413.69	21006.31
413.88	20173.08
414.07	19613.69
414.26	19983.49
414.45	20847.15
414.64	20601.40
414.83	20858.85
415.02	20322.87
415.22	20393.09
415.41	20830.77
415.60	21729.53
415.79	22106.36
415.98	22771.07
416.17	23040.23
416.36	22216.36
416.55	21654.64
416.74	21261.43
416.93	20456.28
417.12	20496.07
417.31	20725.44
417.50	21364.41
417.69	21741.24
417.88	21614.85
418.07	21738.90
418.26	21120.99
418.45	21797.41
418.64	22087.64
418.83	22939.59
419.02	22501.91
419.21	22501.91
419.39	21469.73
419.58	20669.27
419.77	20357.98
419.96	21322.28
420.15	22642.34
420.34	23173.64
420.53	24151.99
420.72	24795.64
420.91	24238.59
421.10	24173.05
421.29	24238.59
421.48	23363.23
421.67	24566.26
421.86	23644.09
422.05	22199.98
422.24	19641.78
422.43	19360.91
422.61	21270.79
422.80	23388.97
422.99	23353.87
423.18	22064.23
423.37	22312.33
423.56	22164.87
423.75	22546.38
423.94	22981.72
424.13	21696.77
424.32	22113.38
424.50	22115.72
424.69	21797.41
424.88	22017.42
425.07	21844.22
425.26	21649.96
425.45	21621.87
425.64	20793.32
425.83	20903.32
426.01	22443.40
426.20	23000.44
426.39	22890.44
426.58	20884.60
426.77	19487.30
426.96	18485.55
427.15	19328.14
427.33	20900.98
427.52	21876.99
427.71	21944.86
427.90	21745.92
428.09	21570.38
428.28	21256.75
428.46	20308.83
428.65	20168.40
428.84	20308.83
429.03	20954.82
429.22	19733.06
429.40	19002.81
429.59	17242.73
429.78	14888.15
429.97	15330.51
430.16	15164.33
430.34	15463.92
430.53	15110.50
430.72	15508.39
430.91	16966.54
431.10	20163.72
431.28	23793.89
431.47	25940.16
431.66	26335.71
431.85	23772.82
432.03	22092.32
432.22	21142.06
432.41	22113.38
432.60	24247.95
432.79	25659.29
432.97	25678.02
433.16	25366.73
433.35	23288.33
433.54	20819.07
433.72	19449.85
433.91	19861.79
434.10	22394.25
434.28	24210.50
434.47	25458.01
434.66	25174.80
434.85	24676.27
435.03	23789.20
435.22	24624.78
435.41	26291.24
435.59	26403.58
435.78	26775.73
435.97	27283.62
436.16	27810.25
436.34	27098.72
436.53	26831.90
436.72	26815.52
436.90	25050.75
437.09	25078.84
437.28	24559.24
437.46	25649.93
437.65	25530.56
437.84	23931.98
438.02	21865.28
438.21	21596.12
438.40	22820.22
438.58	24875.21
438.77	25348.00
438.96	26342.73
439.14	26785.09
439.33	27534.06
439.52	27735.35
439.70	27590.24
439.89	26569.76
440.08	25935.48
440.26	26197.62
440.45	26663.38
440.63	28247.93
440.82	29914.39
441.01	29867.58
441.19	29242.65
441.38	29333.93
441.57	30815.49
441.75	31548.08
441.94	31447.44
442.12	31325.73
442.31	31896.82
442.50	31627.66
442.68	31461.48
442.87	30871.67
443.05	30623.57
443.24	31040.18
443.43	31489.57
443.61	32414.08
443.80	32884.53
443.98	30295.89
444.17	30590.80
444.35	32390.67
444.54	33233.27
444.73	32704.31
444.91	31129.12
445.10	30176.53
445.28	28945.41
445.47	28332.18
445.65	28423.47
445.84	29193.50
446.02	30188.23
446.21	30511.22
446.39	31175.94
446.58	31075.29
446.77	31800.86
446.95	32287.69
447.14	33497.75
447.32	33415.83
447.51	32959.42
447.69	31864.05
447.88	31344.45
448.06	31622.98
448.25	32554.51
448.43	32720.69
448.62	31772.77
448.80	31721.28
448.99	32519.40
449.17	32334.50
449.36	32540.47
449.54	33544.56
449.73	33841.81
449.91	34277.15
450.10	35168.89
450.28	35548.06
450.46	35044.84
450.65	35505.93
450.83	35304.64
451.02	34359.06
451.20	34103.95
451.39	34368.43
451.57	33888.62
451.76	34455.03
451.94	33848.83
452.13	33371.36
452.31	31489.57
452.49	30396.54
452.68	30967.63
452.86	30635.27
453.05	31054.23
453.23	32175.34
453.42	32957.08
453.60	33839.47
453.78	33827.76
453.97	33593.71
454.15	33846.49
454.34	32753.46
454.52	32917.29
454.70	32470.25
454.89	32952.40
455.07	32910.27
455.26	33797.34
455.44	34396.51
455.62	35274.21
455.81	35222.72
455.99	35075.27
456.17	35056.54
456.36	35218.04
456.54	35882.75
456.73	35447.41
456.91	36070.00
457.09	36327.45
457.28	37277.71
457.46	35826.58
457.64	35295.28
457.83	34614.18
458.01	33839.47
458.19	34579.07
458.38	35047.18
458.56	35857.01
458.74	36004.46
458.93	35086.97
459.11	35342.09
459.29	34806.11
459.48	35278.89
459.66	34553.33
459.84	35297.62
460.03	35892.12
460.21	36065.31
460.39	36397.67
460.57	36196.38
460.76	36961.74
460.94	37031.96
461.12	36690.24
461.31	37006.21
461.49	36732.37
461.67	36580.23
461.85	37553.90
462.04	37177.07
462.22	38260.74
462.40	38064.13
462.59	37525.81
462.77	37654.54
462.95	37556.24
463.13	37116.22
463.32	36629.38
463.50	36503.00
463.68	36416.40
463.86	36620.02
464.05	36194.04
464.23	35697.85
464.41	35068.25
464.59	34361.40
464.78	36327.45
464.96	35976.37
465.14	36020.84
465.32	36772.16
465.50	37689.65
465.69	38029.02
465.87	37301.12
466.05	36692.58
466.23	34726.53
466.41	33893.30
466.60	34951.22
466.78	34459.71
466.96	35667.42
467.14	36170.64
467.32	36587.25
467.51	37003.87
467.69	35058.88
467.87	35571.46
468.05	36563.85
468.23	36442.14
468.41	36240.86
468.60	36542.78
468.78	36835.35
468.96	36467.89
469.14	37202.82
469.32	37013.23
469.50	35805.52
469.69	35798.49
469.87	35218.04
470.05	35271.87
470.23	35428.69
470.41	35601.89
470.59	35519.97
470.77	36311.07
470.95	36767.48
471.14	37324.52
471.32	37001.53
471.50	39131.42
471.68	39461.43
471.86	39625.27
472.04	39714.21
472.22	40327.43
472.40	38309.89
472.58	37570.28
472.77	37296.44
472.95	38087.54
473.13	39105.67
473.31	38284.14
473.49	38078.18
473.67	38946.51
473.85	38754.59
474.03	39941.24
474.21	40287.64
474.39	40598.93
474.57	40477.22
474.75	40636.38
474.93	40495.95
475.12	39431.01
475.30	39826.56
475.48	39611.23
475.66	40191.68
475.84	39817.19
476.02	39482.50
476.20	38574.37
476.38	39789.11
476.56	41029.59
476.74	41471.95
476.92	41401.74
477.10	42312.20
477.28	43384.17
477.46	43145.44
477.64	43665.03
477.82	43540.99
478.00	44137.82
478.18	43388.85
478.36	43356.08
478.54	43143.09
478.72	43625.25
478.90	44264.21
479.08	45392.35
479.26	46045.36
479.44	46295.80
479.62	46131.96
479.80	46036.00
479.98	45979.82
480.16	46600.07
480.34	46005.57
480.52	46555.60
480.70	46403.46
480.88	46515.81
481.06	47274.14
481.24	47349.04
481.41	48058.22
481.59	48945.28
481.77	48449.09
481.95	48002.05
482.13	48140.14
482.31	47831.19
482.49	48722.93
482.67	48339.08
482.85	48519.31
483.03	49296.36
483.21	49701.28
483.39	49404.03
483.57	48797.83
483.74	48804.85
483.92	49038.90
484.10	49167.63
484.28	49996.18
484.46	50239.60
484.64	50637.49
484.82	49851.07
485.00	49132.53
485.18	48793.15
485.35	47498.83
485.53	44790.83
485.71	40781.49
485.89	40194.02
486.07	41982.19
486.25	45696.62
486.43	47648.63
486.61	48402.28
486.78	48678.46
486.96	48467.81
487.14	50377.69
487.32	50953.46
487.50	51751.59
487.68	52615.24
487.85	53160.59
488.03	53174.63
488.21	52811.85
488.39	52060.54
488.57	51370.08
488.75	51206.24
488.92	51831.16
489.10	54181.06
489.28	55285.79
489.46	55824.12
489.64	55760.92
489.81	55908.38
489.99	55508.14
490.17	55466.02
490.35	55906.04
490.53	55505.80
490.70	55037.70
490.88	54820.03
491.06	56100.30
491.24	55868.59
491.41	54969.82
491.59	53460.18
491.77	52781.42
491.95	53731.68
492.13	54653.85
492.30	55870.93
492.48	56788.42
492.66	57134.82
492.84	57118.43
493.01	57085.67
493.19	56589.47
493.37	56245.41
493.54	56102.64
493.72	56507.55
493.90	57455.47
494.08	58258.27
494.25	58323.81
494.43	58754.47
494.61	58925.33
494.79	58995.54
494.96	58787.24
495.14	58244.23
495.32	57413.34
495.49	56598.83
495.67	57654.42
495.85	58843.41
496.02	59393.43
496.20	59128.95
496.38	58597.65
496.55	58590.63
496.73	59302.15
496.91	59367.69
497.09	59793.67
497.26	59999.63
497.44	59550.25
497.62	59000.22
497.79	58431.47
497.97	57256.53
498.14	57242.48
498.32	58220.83
498.50	59161.72
498.67	59545.57
498.85	59416.84
499.03	59924.74
499.20	59920.05
499.38	59845.16
499.56	59817.07
499.73	59229.60
499.91	58852.77
500.08	58609.35
500.26	57890.81
500.44	58328.49
500.61	58986.18
500.79	58827.02
500.97	58379.98
501.14	58106.14
501.32	58169.33
501.49	58277.00
501.67	58379.98
501.84	58834.05
502.02	58951.07
502.20	59564.29
502.37	59751.54
502.55	59463.65
502.72	60170.49
502.90	60615.19
503.07	60278.16
503.25	59728.13
503.43	59150.02
503.60	58295.72
503.78	57776.12
503.95	58302.74
504.13	59540.89
504.30	60147.09
504.48	60126.02
504.65	59718.77
504.83	59725.79
505.01	60313.26
505.18	60743.92
505.36	61158.20
505.53	61256.50
505.71	61436.72
505.88	61598.22
506.06	60973.30
506.23	60718.18
506.41	60191.56
506.58	60654.98
506.76	60467.74
506.93	60694.77
507.11	60147.09
507.28	60083.89
507.46	59922.40
507.63	59531.53
507.81	59313.86
507.98	59473.01
508.16	60074.53
508.33	60575.40
508.50	60879.67
508.68	61181.60
508.85	61551.41
509.03	61626.31
509.20	61551.41
509.38	60781.37
509.55	60156.45
509.73	60282.84
509.90	60643.28
510.08	60907.76
510.25	60872.65
510.42	60797.76
510.60	60818.82
510.77	60811.80
510.95	61244.80
511.12	61698.86
511.30	61647.37
511.47	61811.21
511.64	61984.41
511.82	61710.56
511.99	60921.80
512.17	60802.44
512.34	60135.38
512.51	60446.68
512.69	60523.91
512.86	60662.00
513.04	61073.94
513.21	61141.81
513.38	60673.71
513.56	60149.43
513.73	59566.63
513.90	59821.75
514.08	59959.84
514.25	60210.28
514.43	60505.19
514.60	60587.11
514.77	60519.23
514.95	60701.79
515.12	60631.58
515.29	60830.52
515.47	61162.88
515.64	61516.30
515.81	60973.30
515.99	60575.40
516.16	59276.41
516.33	57312.70
516.51	55875.61
516.68	54990.89
516.85	54941.74
517.03	55180.47
517.20	57448.45
517.37	59931.76
517.54	60849.25
517.72	60219.64
517.89	58131.89
518.06	55810.07
518.24	56282.86
518.41	58258.27
518.58	59510.46
518.75	59674.30
518.93	59749.20
519.10	59671.96
519.27	59994.95
519.45	60294.54
519.62	60935.85
519.79	61013.08
519.96	61010.74
520.14	60793.07
520.31	59915.37
520.48	59875.58
520.65	60240.71
520.83	61099.68
521.00	61261.18
521.17	61209.69
521.34	60774.35
521.52	61017.77
521.69	61471.83
521.86	61932.92
522.03	61652.05
522.20	60622.22
522.38	59653.23
522.55	59643.87
522.72	60205.60
522.89	60257.09
523.07	60439.65
523.24	60772.01
523.41	61539.71
523.58	61860.36
523.75	62248.89
523.92	62103.77
524.10	61970.36
524.27	62080.37
524.44	61862.70
524.61	61584.18
524.78	61408.64
524.96	61338.42
525.13	61537.36
525.30	61656.73
525.47	62042.92
525.64	61900.15
525.81	61305.65
525.98	60074.53
526.16	58574.25
526.33	58148.27
526.50	57848.68
526.67	57612.29
526.84	57914.22
527.01	58866.81
527.18	59763.24
527.36	60474.76
527.53	61448.42
527.70	61532.68
527.87	61144.16
528.04	60516.89
528.21	61029.47
528.38	61565.45
528.55	62295.70
528.72	62564.86
528.89	62616.35
529.07	62419.75
529.24	61623.96
529.41	61174.58
529.58	60533.28
529.75	60619.88
529.92	61095.00
530.09	61623.96
530.26	62021.86
530.43	62171.65
530.60	62370.60
530.77	62335.49
530.94	62525.07
531.11	62145.90
531.28	61790.14
531.46	61378.21
531.63	61818.23
531.80	61684.82
531.97	61137.13
532.14	60615.19
532.31	59583.02
532.48	58976.82
532.65	58976.82
532.82	59894.31
532.99	60844.57
533.16	61141.81
533.33	61813.55
533.50	61539.71
533.67	61059.90
533.84	60629.24
534.01	60760.31
534.18	61031.81
534.35	61148.84
534.52	60970.96
534.69	61380.55
534.86	61623.96
535.03	61759.72
535.20	62028.88
535.37	62426.77
535.54	62323.78
535.71	62300.38
535.88	61977.39
536.05	61347.78
536.22	60846.91
536.38	60779.03
536.55	60214.96
536.72	59803.03
536.89	59758.56
537.06	60612.85
537.23	61155.86
537.40	61490.55
537.57	61605.24
537.74	61343.10
537.91	61062.24
538.08	61174.58
538.25	61265.86
538.42	61352.46
538.59	61139.47
538.75	60669.03
538.92	60264.11
539.09	60392.84
539.26	60130.70
539.43	60041.76
539.60	60041.76
539.77	60226.66
539.94	60069.85
540.11	59540.89
540.28	58777.87
540.44	59089.16
540.61	59278.75
540.78	59547.91
540.95	59854.52
541.12	60388.16
541.29	60465.40
541.46	60732.22
541.62	60795.42
541.79	60692.43
541.96	59856.86
542.13	60037.08
542.30	60381.14
542.47	60715.84
542.63	60179.85
542.80	60018.36
542.97	60177.51
543.14	59819.41
543.31	60037.08
543.48	60451.36
543.64	61286.93
543.81	61537.36
543.98	61235.44
544.15	60772.01
544.32	60161.13
544.48	60310.92
544.65	60807.12
544.82	60949.89
544.99	60734.56
545.16	60413.91
545.32	60130.70
545.49	60839.89
545.66	61207.35
545.83	60605.83
546.00	60624.56
546.16	60238.37
546.33	60343.69
546.50	60568.38
546.67	60818.82
546.83	60467.74
547.00	60161.13
547.17	59627.49
547.34	59440.24
547.50	59110.23
547.67	59592.38
547.84	59671.96
548.00	60072.19
548.17	60341.35
548.34	60238.37
548.51	60315.61
548.67	60404.55
548.84	60346.03
549.01	60477.10
549.18	60221.98
549.34	60313.26
549.51	60324.97
549.68	60184.54
549.84	59835.80
550.01	59908.35
550.18	59583.02
550.34	59812.39
550.51	59985.59
550.68	60048.78
550.84	59470.67
551.01	59758.56
551.18	59611.10
551.34	59756.22
551.51	60097.94
551.68	60203.26
551.84	60547.32
552.01	60079.21
552.18	60158.79
552.34	59386.41
552.51	59098.53
552.68	59007.25
552.84	59449.61
553.01	59480.03
553.18	59545.57
553.34	59468.33
553.51	60170.49
553.67	59770.26
553.84	60140.07
554.01	60060.49
554.17	59772.60
554.34	59875.58
554.51	60039.42
554.67	60353.05
554.84	60273.48
555.00	59817.07
555.17	59545.57
555.33	59505.78
555.50	59503.44
555.67	59690.68
555.83	59426.20
556.00	59152.36
556.16	59161.72
556.33	58834.05
556.50	58674.89
556.66	58791.92
556.83	58684.25
556.99	58464.24
557.16	58695.95
557.32	58869.15
557.49	59185.13
557.65	58965.12
557.82	59245.98
557.98	58688.93
558.15	58520.41
558.32	57715.27
558.48	56800.12
558.65	57052.90
558.81	57497.60
558.98	57925.92
559.14	57935.28
559.31	57977.41
559.47	57993.79
559.64	57982.09
559.80	57298.65
559.97	57439.09
560.13	58066.35
560.30	58717.02
560.46	59297.47
560.63	59290.45
560.79	59290.45
560.96	58946.39
561.12	57932.94
561.29	57446.11
561.45	57279.93
561.61	57944.64
561.78	58183.38
561.94	58110.82
562.11	57944.64
562.27	57862.72
562.44	58302.74
562.60	58468.92
562.77	58609.35
562.93	58370.62
563.10	58396.37
563.26	57888.47
563.42	57916.56
563.59	57755.06
563.75	57787.83
563.92	57694.21
564.08	57834.64
564.24	57921.24
564.41	58080.39
564.57	58148.27
564.74	57855.70
564.90	57867.40
565.07	57614.63
565.23	57155.88
565.39	56687.78
565.56	56769.69
565.72	56495.85
565.88	56678.41
566.05	56811.82
566.21	57043.54
566.38	57158.22
566.54	57125.46
566.70	57696.55
566.87	57710.59
567.03	57689.52
567.19	58073.37
567.36	57703.57
567.52	57326.74
567.68	57263.55
567.85	56802.46
568.01	56542.66
568.17	55884.97
568.34	56275.84
568.50	55973.91
568.66	56093.28
568.83	56671.39
568.99	56505.21
569.15	56942.89
569.32	56863.32
569.48	56238.39
569.64	56378.82
569.81	56168.18
569.97	55943.48
570.13	56039.45
570.30	55442.61
570.46	55138.34
570.62	54365.96
570.78	54546.18
570.95	54653.85
571.11	55313.88
571.27	55725.81
571.43	55704.75
571.60	55901.36
571.76	56294.56
571.92	56465.42
572.09	56479.47
572.25	56563.73
572.41	56591.81
572.57	56252.44
572.74	56577.77
572.90	56156.47
573.06	55941.14
573.22	56198.60
573.38	56123.71
573.55	55980.93
573.71	56275.84
573.87	56053.49
574.03	55723.47
574.20	55938.80
574.36	55763.26
574.52	55590.06
574.68	55327.92
574.84	55138.34
575.01	54747.47
575.17	54506.40
575.33	54920.67
575.49	55147.70
575.65	55007.27
575.82	54869.18
575.98	54733.43
576.14	55309.20
576.30	55442.61
576.46	55372.39
576.62	55140.68
576.79	55119.62
576.95	54873.86
577.11	54901.95
577.27	54843.43
577.43	55206.22
577.59	54838.75
577.75	54391.71
577.92	53888.49
578.08	53759.76
578.24	53628.69
578.40	53991.48
578.56	54370.64
578.72	54244.26
578.88	54314.47
579.04	54506.40
579.21	54466.61
579.37	54717.04
579.53	54813.01
579.69	54810.67
579.85	55002.59
580.01	54553.21
580.17	54403.41
580.33	54087.44
580.49	54075.74
580.65	54553.21
580.82	54623.42
580.98	54464.27
581.14	54504.06
581.30	54616.40
581.46	54450.22
581.62	54415.11
581.78	54670.23
581.94	55004.93
582.10	54791.94
582.26	54604.70
582.42	54639.81
582.58	54869.18
582.74	54873.86
582.90	54892.58
583.06	54841.09
583.22	54583.63
583.38	54408.09
583.54	54368.30
583.70	54232.55
583.86	54578.95
584.02	54253.62
584.18	54653.85
584.34	54365.96
584.50	53991.48
584.66	54211.49
584.82	53649.76
584.98	53841.68
585.14	53017.82
