SpectraSuite Data File
++++++++++++++++++++++++++++++++++++
Date: Mon Oct 07 14:55:00 GMT-05:00 2013
User: price-jones
Dark Spectrum Present: No
Reference Spectrum Present: No
Number of Sampled Component Spectra: 1
Spectrometers: USB2+H05261
Integration Time (usec): 10000 (USB2+H05261)
Spectra Averaged: 1 (USB2+H05261)
Boxcar Smoothing: 0 (USB2+H05261)
Correct for Electrical Dark: No (USB2+H05261)
Strobe/Lamp Enabled: No (USB2+H05261)
Correct for Detector Non-linearity: No (USB2+H05261)
Correct for Stray Light: No (USB2+H05261)
Number of Pixels in Processed Spectrum: 2048
>>>>>Begin Processed Spectral Data<<<<<
365.73	0.00
365.92	0.00
366.12	0.00
366.32	0.00
366.52	0.00
366.72	0.00
366.91	0.00
367.11	0.00
367.31	0.00
367.51	0.00
367.70	0.00
367.90	0.00
368.10	0.00
368.30	0.00
368.49	0.00
368.69	0.00
368.89	0.00
369.09	0.00
369.28	0.00
369.48	0.00
369.68	0.00
369.87	0.00
370.07	0.00
370.27	0.00
370.47	320.65
370.66	2160.31
370.86	2597.99
371.06	2857.79
371.25	2785.24
371.45	2546.50
371.65	2195.42
371.84	2256.28
372.04	2303.09
372.24	2635.44
372.44	2733.75
372.63	2565.23
372.83	2459.90
373.03	2129.89
373.22	2038.61
373.42	2223.51
373.62	2534.80
373.81	2595.65
374.01	2572.25
374.21	2310.11
374.40	2200.10
374.60	2249.25
374.79	2684.59
374.99	3262.71
375.19	3386.76
375.38	3279.09
375.58	3148.02
375.78	2970.14
375.97	3239.30
376.17	3143.34
376.37	3157.38
376.56	3417.18
376.76	3478.04
376.95	3777.62
377.15	4023.38
377.35	4222.33
377.54	4255.09
377.74	4479.79
377.93	4395.53
378.13	4166.15
378.33	3974.23
378.52	3782.31
378.72	3700.39
378.91	3630.17
379.11	3372.71
379.31	3344.63
379.50	3431.23
379.70	3665.28
379.89	4081.89
380.09	4416.59
380.28	4374.46
380.48	4425.95
380.68	4245.73
380.87	4117.00
381.07	3719.11
381.26	3482.72
381.46	3176.11
381.65	3274.41
381.85	3141.00
382.04	2960.78
382.24	2897.58
382.43	2698.64
382.63	2731.41
382.83	2581.61
383.02	2506.71
383.22	2724.38
383.41	2675.23
383.61	2801.62
383.80	3344.63
384.00	3904.01
384.19	4142.75
384.39	4437.66
384.58	4423.61
384.78	4318.29
384.97	4283.18
385.17	3995.29
385.36	3786.99
385.56	3658.26
385.75	3861.88
385.95	4290.20
386.14	4601.49
386.34	4491.49
386.53	4311.27
386.72	4053.81
386.92	4156.79
387.11	4496.17
387.31	4592.13
387.50	4484.47
387.70	4353.40
387.89	4292.54
388.09	4557.02
388.28	4437.66
388.48	4540.64
388.67	4842.57
388.86	5198.33
389.06	5724.95
389.25	6094.76
389.45	5937.94
389.64	5959.00
389.84	5879.43
390.03	5870.06
390.22	5900.49
390.42	6181.35
390.61	6616.69
390.81	6869.47
391.00	6810.96
391.19	6719.68
391.39	6558.18
391.58	6253.91
391.78	5851.34
391.97	5783.46
392.16	5338.76
392.36	4510.21
392.55	3630.17
392.75	2930.35
392.94	2509.05
393.13	2609.70
393.33	3141.00
393.52	4079.55
393.71	4793.42
393.91	5345.78
394.10	5788.14
394.29	6352.21
394.49	7194.81
394.68	7543.55
394.88	7323.54
395.07	7733.13
395.26	7541.21
395.46	7368.01
395.65	6689.25
395.84	5870.06
396.04	4931.51
396.23	3992.95
396.42	3332.92
396.62	3522.51
396.81	4201.26
397.00	5322.38
397.19	6647.12
397.39	7754.19
397.58	8540.61
397.77	9170.22
397.97	9544.70
398.16	9638.33
398.35	9937.91
398.55	10143.88
398.74	10429.43
398.93	10628.37
399.12	10373.25
399.32	10338.15
399.51	10623.69
399.70	11269.68
399.90	11105.84
400.09	10930.30
400.28	10890.51
400.47	10832.00
400.67	11705.02
400.86	11777.58
401.05	11941.41
401.24	11714.38
401.44	12135.68
401.63	12119.29
401.82	12379.09
402.01	12355.69
402.21	12243.34
402.40	12559.31
402.59	11625.44
402.78	11297.77
402.97	11082.44
403.17	11737.79
403.36	12486.76
403.55	12521.87
403.74	12699.75
403.93	12280.79
404.13	11410.11
404.32	11489.69
404.51	12093.55
404.70	12620.17
404.89	12615.49
405.09	12545.27
405.28	12266.75
405.47	12091.21
405.66	12058.44
405.85	11833.75
406.05	11613.74
406.24	11583.31
406.43	12257.39
406.62	12444.63
406.81	12802.73
407.00	12241.00
407.20	12018.65
407.39	12142.70
407.58	13135.09
407.77	13500.21
407.96	13762.35
408.15	13818.52
408.34	14185.99
408.54	14558.13
408.73	14424.72
408.92	13975.34
409.11	13647.66
409.30	12786.35
409.49	12126.32
409.68	11487.35
409.87	11379.68
410.07	12140.36
410.26	13142.11
410.45	13963.64
410.64	14150.88
410.83	14530.05
411.02	15239.23
411.21	15461.58
411.40	15510.73
411.59	15571.58
411.78	15503.71
411.98	15183.06
412.17	15431.15
412.36	15084.75
412.55	14773.46
412.74	14743.03
412.93	14422.38
413.12	14857.72
413.31	16453.97
413.50	16397.79
413.69	16411.84
413.88	15452.22
414.07	15372.64
414.26	15777.55
414.45	16444.60
414.64	16273.74
414.83	15974.16
415.02	15859.47
415.22	16093.52
415.41	16336.94
415.60	17334.01
415.79	17947.23
415.98	17951.91
416.17	17692.11
416.36	17722.54
416.55	17425.29
416.74	16594.40
416.93	16437.58
417.12	16587.38
417.31	16868.24
417.50	16863.56
417.69	17378.48
417.88	17371.46
418.07	17359.75
418.26	16968.88
418.45	17153.79
418.64	17764.67
418.83	18274.90
419.02	18246.82
419.21	17479.12
419.39	17125.70
419.58	16290.13
419.77	16627.17
419.96	17338.69
420.15	18548.75
420.34	18717.26
420.53	19274.31
420.72	19749.44
420.91	19358.57
421.10	19248.57
421.29	19176.01
421.48	18745.35
421.67	19520.07
421.86	18609.60
422.05	16884.62
422.24	15548.18
422.43	15964.79
422.61	17731.90
422.80	18878.76
422.99	18265.54
423.18	17841.90
423.37	17481.46
423.56	18293.63
423.75	18019.78
423.94	18656.41
424.13	17577.42
424.32	17682.75
424.50	18050.21
424.69	17748.28
424.88	17554.02
425.07	17336.35
425.26	17823.18
425.45	17160.81
425.64	16681.00
425.83	17415.93
426.01	18286.61
426.20	18904.51
426.39	18228.09
426.58	16627.17
426.77	15833.72
426.96	15400.72
427.15	16107.57
427.33	17427.63
427.52	17642.96
427.71	17727.22
427.90	17792.75
428.09	17523.59
428.28	16856.54
428.46	16524.18
428.65	16477.37
428.84	16950.16
429.03	16681.00
429.22	15910.96
429.40	14853.04
429.59	13160.83
429.78	12039.72
429.97	12634.21
430.16	12526.55
430.34	12596.76
430.53	12795.71
430.72	13364.46
430.91	14668.14
431.10	17659.34
431.28	20255.00
431.47	21277.81
431.66	21027.37
431.85	18909.19
432.03	17575.08
432.22	17254.43
432.41	18782.80
432.60	20449.26
432.79	20762.89
432.97	21120.99
433.16	20435.22
433.35	18417.68
433.54	16339.28
433.72	15981.18
433.91	17284.86
434.10	19211.12
434.28	20126.27
434.47	21104.61
434.66	20563.95
434.85	20126.27
435.03	20482.03
435.22	20477.35
435.41	21439.31
435.59	22113.38
435.78	22155.51
435.97	22651.70
436.16	22951.29
436.34	22111.04
436.53	21975.29
436.72	21841.88
436.90	20863.54
437.09	20774.60
437.28	20540.54
437.46	21411.22
437.65	20706.72
437.84	19007.49
438.02	18242.14
438.21	18415.34
438.40	19421.77
438.58	20475.01
438.77	20884.60
438.96	21507.18
439.14	22073.59
439.33	22768.73
439.52	23051.94
439.70	22513.61
439.89	22225.73
440.08	21942.52
440.26	21764.64
440.45	22445.74
440.63	24119.22
440.82	25099.90
441.01	24624.78
441.19	24423.49
441.38	24858.83
441.57	25759.94
441.75	26096.97
441.94	26319.32
442.12	26558.06
442.31	26981.70
442.50	27248.52
442.68	26164.85
442.87	25598.44
443.05	25376.09
443.24	26373.16
443.43	26761.69
443.61	26541.68
443.80	26742.96
443.98	26162.51
444.17	26415.29
444.35	27571.51
444.54	28163.67
444.73	26782.75
444.91	26075.91
445.10	25228.63
445.28	24381.36
445.47	23644.09
445.65	24203.48
445.84	24638.82
446.02	25958.88
446.21	26155.49
446.39	25783.34
446.58	26239.75
446.77	27531.72
446.95	27529.38
447.14	28432.83
447.32	28868.17
447.51	27967.06
447.69	27068.30
447.88	26593.17
448.06	27686.20
448.25	27981.10
448.43	28182.39
448.62	27117.45
448.80	27030.85
448.99	27091.70
449.17	27527.04
449.36	27651.09
449.54	28753.48
449.73	29216.91
449.91	29750.55
450.10	30433.99
450.28	30394.20
450.46	30415.26
450.65	30293.55
450.83	30085.25
451.02	29338.62
451.20	29741.19
451.39	29256.70
451.57	28643.48
451.76	28964.13
451.94	28606.03
452.13	27665.13
452.31	26106.34
452.49	24971.18
452.68	26230.38
452.86	26544.02
453.05	26452.73
453.23	27882.80
453.42	28212.82
453.60	29001.58
453.78	29757.57
453.97	29071.79
454.15	28676.24
454.34	28781.57
454.52	28088.77
454.70	27585.55
454.89	27580.87
455.07	28657.52
455.26	28760.50
455.44	29954.18
455.62	30312.28
455.81	30176.53
455.99	29591.39
456.17	29703.74
456.36	29858.21
456.54	31035.50
456.73	30892.73
456.91	31199.34
457.09	31674.47
457.28	31974.06
457.46	30085.25
457.64	29577.35
457.83	28996.90
458.01	28837.74
458.19	29745.87
458.38	30209.29
458.56	30597.82
458.74	30934.86
458.93	30539.31
459.11	30080.56
459.29	29902.68
459.48	29802.04
459.66	29851.19
459.84	30291.21
460.03	30689.10
460.21	30520.59
460.39	31810.22
460.57	32011.51
460.76	31971.72
460.94	31833.63
461.12	31545.74
461.31	31356.16
461.49	31555.10
461.67	31978.74
461.85	32488.98
462.04	32095.77
462.22	32070.02
462.40	32198.75
462.59	32400.04
462.77	32823.67
462.95	32439.82
463.13	32315.78
463.32	31655.75
463.50	31758.73
463.68	31887.46
463.86	31585.53
464.05	31187.64
464.23	30581.44
464.41	30691.44
464.59	31145.51
464.78	32240.88
464.96	31686.17
465.14	30995.71
465.32	32271.31
465.50	32877.51
465.69	33268.37
465.87	32081.72
466.05	30951.24
466.23	29331.59
466.41	29092.86
466.60	30373.13
466.78	30445.69
466.96	30684.42
467.14	31686.17
467.32	31594.89
467.51	32189.39
467.69	30726.55
467.87	31288.28
468.05	31896.82
468.23	31899.16
468.41	31346.79
468.60	31351.48
468.78	32170.66
468.96	30993.37
469.14	32863.46
469.32	32840.06
469.50	31000.40
469.69	31321.05
469.87	30457.39
470.05	30623.57
470.23	31248.49
470.41	31159.55
470.59	31405.31
470.77	31447.44
470.95	31660.43
471.14	32561.53
471.32	33207.52
471.50	34359.06
471.68	33914.36
471.86	34110.97
472.04	34466.73
472.22	34717.17
472.40	33563.28
472.58	32601.32
472.77	32540.47
472.95	33277.74
473.13	33832.44
473.31	33308.16
473.49	33572.64
473.67	34766.32
473.85	34366.09
474.03	35220.38
474.21	35707.21
474.39	35805.52
474.57	35732.96
474.75	35786.79
474.93	34771.00
475.12	34499.50
475.30	35220.38
475.48	35089.31
475.66	35559.76
475.84	35323.36
476.02	34888.03
476.20	34375.45
476.38	35974.03
476.56	36531.08
476.74	37137.28
476.92	37258.99
477.10	36961.74
477.28	37944.76
477.46	37687.31
477.64	38607.14
477.82	38370.74
478.00	38206.90
478.18	37399.42
478.36	37277.71
478.54	37589.00
478.72	38377.76
478.90	39395.90
479.08	40776.81
479.26	40451.48
479.44	40982.78
479.62	40289.98
479.80	40732.34
479.98	40751.07
480.16	41296.41
480.34	40664.47
480.52	41991.55
480.70	42005.59
480.88	41619.41
481.06	41942.40
481.24	42260.71
481.41	42663.28
481.59	43267.14
481.77	43152.46
481.95	42258.37
482.13	42817.76
482.31	43044.79
482.49	43634.61
482.67	43929.51
482.85	43550.35
483.03	44074.63
483.21	44935.95
483.39	44409.32
483.57	44233.78
483.74	43873.34
483.92	43695.46
484.10	44671.46
484.28	45184.04
484.46	45785.56
484.64	46827.10
484.82	45780.88
485.00	44996.80
485.18	43636.95
485.35	41696.64
485.53	37589.00
485.71	35498.91
485.89	35337.41
486.07	37813.70
486.25	40884.48
486.43	42761.59
486.61	43964.62
486.78	44037.18
486.96	44252.51
487.14	45853.44
487.32	46754.54
487.50	47892.04
487.68	48416.32
487.85	49059.97
488.03	48425.68
488.21	48318.02
488.39	47590.11
488.57	46855.18
488.75	47185.20
488.92	48200.99
489.10	50791.97
489.28	50822.39
489.46	51805.42
489.64	52156.50
489.81	52430.34
489.99	52184.58
490.17	52097.98
490.35	52608.22
490.53	51800.74
490.70	51515.19
490.88	51473.06
491.06	53279.96
491.24	52875.04
491.41	50962.82
491.59	49181.68
491.77	49364.24
491.95	50808.35
492.13	52020.75
492.30	52603.54
492.48	53806.58
492.66	54777.90
492.84	53577.20
493.01	53497.62
493.19	53649.76
493.37	52381.19
493.54	52662.05
493.72	53345.49
493.90	54272.34
494.08	55316.22
494.25	55913.06
494.43	55681.34
494.61	55971.57
494.79	55887.31
494.96	55543.25
495.14	55154.72
495.32	54124.89
495.49	54066.38
495.67	54913.65
495.85	55861.57
496.02	56561.39
496.20	56552.02
496.38	56147.11
496.55	56034.77
496.73	56519.26
496.91	56334.35
497.09	56640.96
497.26	56966.30
497.44	56772.03
497.62	55405.16
497.79	54721.72
497.97	54169.36
498.14	55107.91
498.32	56086.26
498.50	56453.72
498.67	57195.67
498.85	56860.97
499.03	57099.71
499.20	57453.13
499.38	56797.78
499.56	56514.58
499.73	56090.94
499.91	55760.92
500.08	55475.38
500.26	55522.19
500.44	56229.03
500.61	55884.97
500.79	55994.98
500.97	56079.24
501.14	55320.90
501.32	54768.54
501.49	54939.39
501.67	55707.09
501.84	55728.16
502.02	56502.87
502.20	56802.46
502.37	57015.45
502.55	57279.93
502.72	58056.99
502.90	58134.23
503.07	57104.39
503.25	56491.17
503.43	55664.96
503.60	55732.84
503.78	55203.88
503.95	56154.13
504.13	57174.61
504.30	57968.05
504.48	57127.80
504.65	57212.06
504.83	57090.35
505.01	57406.32
505.18	57902.51
505.36	58763.83
505.53	58834.05
505.71	59175.76
505.88	59283.43
506.06	58859.79
506.23	58239.55
506.41	57256.53
506.58	57181.63
506.76	58024.22
506.93	57757.40
507.11	57776.12
507.28	57528.03
507.46	56970.98
507.63	56900.76
507.81	57036.51
507.98	57261.21
508.16	57359.51
508.33	57738.68
508.50	58805.96
508.68	59072.78
508.85	59821.75
509.03	59686.00
509.20	59044.69
509.38	58166.99
509.55	57359.51
509.73	57572.50
509.90	58274.66
510.08	58597.65
510.25	58361.26
510.42	57680.16
510.60	57406.32
510.77	57855.70
510.95	58763.83
511.12	58759.15
511.30	59243.64
511.47	59798.35
511.64	59498.76
511.82	59444.93
511.99	58389.34
512.17	58026.56
512.34	57478.88
512.51	58007.84
512.69	58075.71
512.86	57733.99
513.04	58319.13
513.21	58099.12
513.38	57057.58
513.56	56870.34
513.73	57226.10
513.90	56603.52
514.08	57160.56
514.25	57715.27
514.43	57956.35
514.60	57724.63
514.77	58103.80
514.95	59049.38
515.12	59285.77
515.29	59103.21
515.47	58960.44
515.64	59222.58
515.81	58391.68
515.99	57581.86
516.16	55585.38
516.33	53783.17
516.51	53460.18
516.68	51496.47
516.85	50873.88
517.03	52374.17
517.20	55295.16
517.37	57844.00
517.54	58351.90
517.72	57408.66
517.89	54387.03
518.06	53261.23
518.24	54567.25
518.41	56549.68
518.58	57544.41
518.75	56910.13
518.93	57165.24
519.10	56622.24
519.27	57102.05
519.45	57773.78
519.62	58412.75
519.79	58227.85
519.96	57867.40
520.14	58115.50
520.31	57497.60
520.48	57380.57
520.65	57420.36
520.83	58295.72
521.00	58543.82
521.17	57876.77
521.34	58152.95
521.52	59065.76
521.69	59086.82
521.86	59983.25
522.03	59182.79
522.20	57279.93
522.38	56821.19
522.55	57020.13
522.72	57275.25
522.89	57556.11
523.07	58061.67
523.24	58272.32
523.41	59047.04
523.58	59798.35
523.75	59922.40
523.92	59620.47
524.10	60051.12
524.27	59980.91
524.44	58845.75
524.61	58972.14
524.78	59199.17
524.96	59051.72
525.13	59587.70
525.30	59994.95
525.47	60704.13
525.64	60004.31
525.81	59159.38
525.98	57602.92
526.16	55966.89
526.33	55959.87
526.50	55264.73
526.67	55311.54
526.84	55999.66
527.01	56846.93
527.18	57151.20
527.36	58473.60
527.53	59264.70
527.70	59157.04
527.87	58382.32
528.04	58454.88
528.21	59318.54
528.38	59491.74
528.55	60095.60
528.72	60238.37
528.89	60750.94
529.07	60268.79
529.24	58937.03
529.41	58756.81
529.58	58775.53
529.75	58838.73
529.92	59374.71
530.09	59388.75
530.26	59093.85
530.43	59227.26
530.60	60196.24
530.77	59828.77
530.94	59358.33
531.11	59283.43
531.28	59337.26
531.46	59531.53
531.63	59662.60
531.80	58808.30
531.97	58351.90
532.14	57743.36
532.31	56816.50
532.48	56114.34
532.65	56931.19
532.82	57525.69
532.99	59213.21
533.16	59578.34
533.33	59135.98
533.50	59274.07
533.67	58712.34
533.84	58342.53
534.01	58499.35
534.18	58698.30
534.35	58646.80
534.52	58197.42
534.69	59032.99
534.86	58965.12
535.03	59561.95
535.20	60032.40
535.37	60079.21
535.54	60715.84
535.71	60039.42
535.88	59508.12
536.05	58672.55
536.22	58213.80
536.38	58431.47
536.55	57888.47
536.72	57509.30
536.89	57432.07
537.06	58522.76
537.23	59047.04
537.40	59465.99
537.57	60104.96
537.74	59641.53
537.91	59243.64
538.08	59276.41
538.25	59650.89
538.42	59241.30
538.59	58866.81
538.75	58260.62
538.92	58251.25
539.09	58157.63
539.26	58265.30
539.43	58232.53
539.60	57778.46
539.77	58497.01
539.94	57689.52
540.11	56954.60
540.28	56507.55
540.44	56959.28
540.61	57916.56
540.78	57748.04
540.95	57621.65
541.12	57427.38
541.29	58145.93
541.46	58454.88
541.62	58944.05
541.79	57607.61
541.96	57020.13
542.13	57851.02
542.30	58646.80
542.47	58220.83
542.63	57996.13
542.80	57787.83
542.97	58071.03
543.14	57593.56
543.31	57822.93
543.48	58995.54
543.64	59316.20
543.81	59681.32
543.98	59456.63
544.15	58644.46
544.32	58262.96
544.48	58412.75
544.65	58920.65
544.82	59215.55
544.99	58560.20
545.16	58202.10
545.32	57832.30
545.49	58768.51
545.66	58932.35
545.83	58595.31
546.00	58681.91
546.16	58529.78
546.33	58323.81
546.50	57818.25
546.67	58539.14
546.83	59040.01
547.00	58560.20
547.17	57200.35
547.34	57120.77
547.50	56655.01
547.67	57279.93
547.84	57530.37
548.00	58574.25
548.17	58176.36
548.34	58759.15
548.51	58710.00
548.67	58307.43
548.84	58277.00
549.01	58071.03
549.18	58115.50
549.34	57794.85
549.51	58169.33
549.68	57605.26
549.84	57513.98
550.01	56825.87
550.18	57275.25
550.34	57539.73
550.51	58131.89
550.68	57748.04
550.84	57715.27
551.01	58316.79
551.18	57694.21
551.34	57914.22
551.51	57968.05
551.68	57504.62
551.84	57930.60
552.01	57736.34
552.18	57029.49
552.34	56750.97
552.51	57148.86
552.68	57240.14
552.84	57057.58
553.01	57698.89
553.18	56397.55
553.34	57038.86
553.51	57403.98
553.67	57382.91
553.84	57584.20
554.01	57944.64
554.17	56978.00
554.34	57008.43
554.51	57450.79
554.67	57235.46
554.84	57490.58
555.00	57132.48
555.17	56952.26
555.33	57179.29
555.50	57336.10
555.67	58115.50
555.83	57439.09
556.00	56821.19
556.16	56453.72
556.33	57022.47
556.50	56580.11
556.66	57195.67
556.83	56739.27
556.99	56980.34
557.16	56603.52
557.32	57162.90
557.49	57226.10
557.65	57041.20
557.82	57574.84
557.98	57195.67
558.15	56350.74
558.32	55412.18
558.48	55023.65
558.65	55047.06
558.81	55210.90
558.98	55030.68
559.14	54777.90
559.31	55241.32
559.47	56200.94
559.64	55199.19
559.80	54375.33
559.97	55068.12
560.13	56025.40
560.30	56858.63
560.46	57619.31
560.63	57750.38
560.79	58635.10
560.96	56757.99
561.12	56395.21
561.29	56055.83
561.45	54997.91
561.61	56430.32
561.78	56729.90
561.94	56210.31
562.11	55475.38
562.27	55070.46
562.44	55632.19
562.60	55854.54
562.77	56453.72
562.93	55735.18
563.10	56034.77
563.26	56062.85
563.42	56058.17
563.59	55910.72
563.75	55580.70
563.92	55669.64
564.08	56353.08
564.24	56158.81
564.41	55585.38
564.57	56039.45
564.74	55377.08
564.90	55384.10
565.07	55206.22
565.23	55131.32
565.39	54431.50
565.56	54803.64
565.72	54305.11
565.88	54370.64
566.05	55587.72
566.21	54550.87
566.38	54728.75
566.54	55334.95
566.70	54873.86
566.87	55629.85
567.03	55505.80
567.19	55824.12
567.36	55653.26
567.52	55295.16
567.68	55306.86
567.85	54899.61
568.01	54482.99
568.17	54314.47
568.34	54604.70
568.50	54220.85
568.66	53010.79
568.83	53322.08
568.99	53652.10
569.15	54078.08
569.32	54831.73
569.48	54499.37
569.64	54237.23
569.81	54782.58
569.97	54258.30
570.13	53031.86
570.30	53045.90
570.46	52673.76
570.62	51302.20
570.78	52523.96
570.95	53092.71
571.11	53385.28
571.27	52933.56
571.43	53848.71
571.60	54195.10
571.76	53820.62
571.92	54354.26
572.09	54372.99
572.25	54045.31
572.41	55004.93
572.57	54953.44
572.74	54733.43
572.90	53455.50
573.06	54487.67
573.22	54234.89
573.38	54115.53
573.55	54766.20
573.71	54288.73
573.87	54237.23
574.03	54665.55
574.20	54377.67
574.36	53532.73
574.52	53291.66
574.68	52451.41
574.84	51929.47
575.01	51955.21
575.17	53001.43
575.33	53081.01
575.49	54136.59
575.65	53923.60
575.82	53113.78
575.98	52823.55
576.14	53673.16
576.30	53787.85
576.46	53553.80
576.62	53317.40
576.79	52612.90
576.95	52832.91
577.11	52313.31
577.27	52935.90
577.43	52275.87
577.59	52865.68
577.75	52905.47
577.92	51875.63
578.08	51217.94
578.24	51512.85
578.40	51835.84
578.56	51487.10
578.72	52385.87
578.88	52261.82
579.04	52577.79
579.21	52399.91
579.37	51892.02
579.53	51515.19
579.69	51746.90
579.85	52093.30
580.01	52032.45
580.17	51271.78
580.33	53193.36
580.49	52741.63
580.65	52701.84
580.82	52554.39
580.98	52591.84
581.14	52018.41
581.30	52287.57
581.46	52294.59
581.62	52603.54
581.78	52671.42
581.94	52818.87
582.10	52299.27
582.26	51877.97
582.42	51803.08
582.58	52844.62
582.74	52023.09
582.90	52086.28
583.06	53478.90
583.22	52554.39
583.38	52568.43
583.54	52664.39
583.70	52467.79
583.86	51985.64
584.02	52215.01
584.18	52484.17
584.34	52261.82
584.50	51880.31
584.66	51882.66
584.82	51498.81
584.98	51978.62
585.14	51515.19
585.30	50993.25
