SpectraSuite Data File
++++++++++++++++++++++++++++++++++++
Date: Mon Oct 07 14:53:21 GMT-05:00 2013
User: price-jones
Dark Spectrum Present: No
Reference Spectrum Present: No
Number of Sampled Component Spectra: 1
Spectrometers: USB2+H05261
Integration Time (usec): 100000 (USB2+H05261)
Spectra Averaged: 1 (USB2+H05261)
Boxcar Smoothing: 0 (USB2+H05261)
Correct for Electrical Dark: No (USB2+H05261)
Strobe/Lamp Enabled: No (USB2+H05261)
Correct for Detector Non-linearity: No (USB2+H05261)
Correct for Stray Light: No (USB2+H05261)
Number of Pixels in Processed Spectrum: 2048
>>>>>Begin Processed Spectral Data<<<<<
365.73	0.00
365.92	0.00
366.12	0.00
366.32	0.00
366.52	0.00
366.72	0.00
366.91	0.00
367.11	0.00
367.31	0.00
367.51	0.00
367.70	0.00
367.90	0.00
368.10	0.00
368.30	0.00
368.49	0.00
368.69	0.00
368.89	0.00
369.09	0.00
369.28	0.00
369.48	0.00
369.68	0.00
369.87	0.00
370.07	0.00
370.27	0.00
370.47	543.00
370.66	2928.01
370.86	3449.95
371.06	3674.64
371.25	3801.03
371.45	3396.12
371.65	3124.62
371.84	2991.20
372.04	3187.81
372.24	3384.41
372.44	3522.51
372.63	3419.52
372.83	3248.66
373.03	2869.50
373.22	2668.21
373.42	2799.28
373.62	3105.89
373.81	3304.84
374.01	3452.29
374.21	2998.23
374.40	2846.09
374.60	3059.08
374.79	3501.44
374.99	4023.38
375.19	4234.03
375.38	4198.92
375.58	3957.85
375.78	3941.46
375.97	3971.89
376.17	4259.78
376.37	4070.19
376.56	4266.80
376.76	4512.55
376.95	4800.44
377.15	5224.08
377.35	5303.65
377.54	5476.85
377.74	5643.03
377.93	5547.07
378.13	5518.98
378.33	5305.99
378.52	4849.59
378.72	4662.35
378.91	4535.96
379.11	4475.10
379.31	4461.06
379.50	4241.05
379.70	4557.02
379.89	5193.65
380.09	5369.19
380.28	5600.90
380.48	5783.46
380.68	5619.63
380.87	5561.11
381.07	4865.97
381.26	4524.26
381.46	4266.80
381.65	4257.43
381.85	4023.38
382.04	3911.04
382.24	3672.30
382.43	3538.89
382.63	3375.05
382.83	3272.07
383.02	3265.05
383.22	3407.82
383.41	3419.52
383.61	3702.73
383.80	4140.41
384.00	4561.70
384.19	5156.20
384.39	5647.71
384.58	5572.82
384.78	5406.64
384.97	5385.57
385.17	5109.39
385.36	5032.15
385.56	4664.69
385.75	4730.22
385.95	5235.78
386.14	5645.37
386.34	5717.93
386.53	5373.87
386.72	5144.50
386.92	5093.01
387.11	5394.93
387.31	5734.31
387.50	5720.27
387.70	5345.78
387.89	5406.64
388.09	5228.76
388.28	5219.39
388.48	5310.68
388.67	5877.09
388.86	6448.18
389.06	7033.31
389.25	7346.94
389.45	7330.56
389.64	7412.48
389.84	7220.55
390.03	7213.53
390.22	7211.19
390.42	7435.88
390.61	8013.99
390.81	8547.64
391.00	8416.57
391.19	8344.01
391.39	8255.07
391.58	7712.07
391.78	7185.44
391.97	7148.00
392.16	6663.51
392.36	6160.29
392.55	4924.49
392.75	3887.63
392.94	3138.66
393.13	3129.30
393.33	3658.26
393.52	4660.01
393.71	5844.32
393.91	6532.44
394.10	6862.45
394.29	7782.28
394.49	8372.10
394.68	9135.11
394.88	8978.30
395.07	9357.46
395.26	9149.15
395.46	8975.95
395.65	8479.76
395.84	7442.90
396.04	6253.91
396.23	5095.35
396.42	4227.01
396.62	4093.60
396.81	4814.48
397.00	6022.20
397.19	7793.98
397.39	9078.94
397.58	10499.64
397.77	10623.69
397.97	11297.77
398.16	11597.35
398.35	11918.01
398.55	11971.84
398.74	12418.88
398.93	12992.31
399.12	12596.76
399.32	12280.79
399.51	12451.65
399.70	13448.72
399.90	13001.68
400.09	13247.43
400.28	13163.17
400.47	13334.03
400.67	14024.49
400.86	14314.72
401.05	14038.53
401.24	14281.95
401.44	14656.43
401.63	14338.12
401.82	14445.79
402.01	14420.04
402.21	15012.20
402.40	14766.44
402.59	14136.84
402.78	13654.69
402.97	13167.85
403.17	13905.12
403.36	14696.22
403.55	15211.14
403.74	15543.50
403.93	14939.64
404.13	13673.41
404.32	13228.71
404.51	13881.72
404.70	15269.66
404.89	15014.54
405.09	14878.79
405.28	14415.36
405.47	14480.89
405.66	14413.02
405.85	13991.72
406.05	13352.76
406.24	13973.00
406.43	14380.25
406.62	15014.54
406.81	15040.28
407.00	14295.99
407.20	13961.30
407.39	14380.25
407.58	14831.97
407.77	15414.77
407.96	15747.12
408.15	16032.67
408.34	16439.92
408.54	17048.46
408.73	16957.18
408.92	16875.26
409.11	16444.60
409.30	15807.98
409.49	14689.20
409.68	13710.86
409.87	13350.42
410.07	14143.86
410.26	15143.27
410.45	16290.13
410.64	16746.53
410.83	17085.91
411.02	17556.36
411.21	18195.32
411.40	18087.66
411.59	18293.63
411.78	17745.94
411.98	17481.46
412.17	18061.91
412.36	17680.41
412.55	17816.16
412.74	17448.69
412.93	16727.81
413.12	17188.89
413.31	18794.50
413.50	19061.32
413.69	19372.61
413.88	18118.09
414.07	18024.47
414.26	18192.98
414.45	18857.70
414.64	18956.00
414.83	18871.74
415.02	18546.40
415.22	18665.77
415.41	18855.36
415.60	19648.80
415.79	20336.91
415.98	21078.86
416.17	20882.26
416.36	20294.79
416.55	20070.09
416.74	18984.09
416.93	18431.72
417.12	18607.26
417.31	19206.44
417.50	19342.19
417.69	19751.78
417.88	19714.33
418.07	19679.22
418.26	19295.38
418.45	19688.59
418.64	20376.70
418.83	21179.51
419.02	20856.51
419.21	20472.67
419.39	19550.49
419.58	18679.82
419.77	18764.07
419.96	19594.96
420.15	20709.06
420.34	21172.49
420.53	22059.55
420.72	22707.88
420.91	22185.94
421.10	21909.75
421.29	21837.20
421.48	20999.29
421.67	21668.68
421.86	21551.65
422.05	20114.56
422.24	17799.77
422.43	17757.64
422.61	19889.87
422.80	21076.52
422.99	21095.25
423.18	20720.76
423.37	20147.33
423.56	20381.38
423.75	20507.77
423.94	20807.36
424.13	19730.72
424.32	19604.33
424.50	19967.11
424.69	19878.17
424.88	20025.62
425.07	19644.12
425.26	19793.91
425.45	19688.59
425.64	19309.42
425.83	19030.90
426.01	20292.44
426.20	21036.74
426.39	20781.62
426.58	19403.04
426.77	17907.44
426.96	17193.58
427.15	17867.65
427.33	19300.06
427.52	20144.99
427.71	19992.86
427.90	19903.92
428.09	19491.98
428.28	19094.09
428.46	18665.77
428.65	18560.45
428.84	18932.59
429.03	19143.24
429.22	17991.70
429.40	17308.26
429.59	15281.36
429.78	13877.04
429.97	13795.12
430.16	13982.36
430.34	14249.18
430.53	14017.47
430.72	14427.06
430.91	15803.30
431.10	18300.65
431.28	21919.12
431.47	23796.23
431.66	24116.88
431.85	21834.86
432.03	20042.01
432.22	19101.11
432.41	19910.94
432.60	22199.98
432.79	23082.36
432.97	23590.26
433.16	23360.89
433.35	21106.95
433.54	18930.25
433.72	17825.52
433.91	18548.75
434.10	20512.46
434.28	21972.95
434.47	22892.78
434.66	23091.73
434.85	22455.10
435.03	22288.92
435.22	22600.21
435.41	24142.63
435.59	23950.70
435.78	24002.19
435.97	24891.60
436.16	25139.69
436.34	24879.89
436.53	24161.35
436.72	24233.91
436.90	22946.61
437.09	22719.58
437.28	22291.26
437.46	23229.82
437.65	23147.90
437.84	21537.61
438.02	19850.08
438.21	19850.08
438.40	21214.62
438.58	22817.88
438.77	23452.17
438.96	23578.56
439.14	24601.37
439.33	25303.53
439.52	25366.73
439.70	25003.94
439.89	24381.36
440.08	23679.20
440.26	23358.55
440.45	24395.40
440.63	25975.27
440.82	27377.25
441.01	27110.43
441.19	26731.26
441.38	27613.64
441.57	28222.18
441.75	28449.21
441.94	28744.12
442.12	28346.23
442.31	29027.32
442.50	28790.93
442.68	28664.54
442.87	28336.87
443.05	27967.06
443.24	28187.07
443.43	29235.63
443.61	29717.78
443.80	30106.31
443.98	28156.64
444.17	27838.33
444.35	29991.62
444.54	30340.36
444.73	29963.54
444.91	28507.72
445.10	27470.87
445.28	26529.97
445.47	25970.58
445.65	26225.70
445.84	26719.56
446.02	27974.08
446.21	28306.44
446.39	28634.11
446.58	28950.09
446.77	29462.66
446.95	29448.62
447.14	30529.95
447.32	30756.98
447.51	30015.03
447.69	29083.50
447.88	28666.88
448.06	28943.06
448.25	29209.89
448.43	30029.07
448.62	28762.84
448.80	29174.78
448.99	29153.71
449.17	29804.38
449.36	29516.50
449.54	30581.44
449.73	31154.87
449.91	31456.80
450.10	32353.23
450.28	32418.76
450.46	32547.49
450.65	32840.06
450.83	32238.54
451.02	31585.53
451.20	31295.30
451.39	31566.81
451.57	31051.89
451.76	31363.18
451.94	31049.55
452.13	30520.59
452.31	29156.05
452.49	27828.97
452.68	28135.58
452.86	28315.80
453.05	28882.21
453.23	29296.49
453.42	29797.36
453.60	31089.34
453.78	30984.01
453.97	31061.25
454.15	30986.35
454.34	30115.67
454.52	30281.85
454.70	29881.62
454.89	30265.47
455.07	29947.15
455.26	30522.93
455.44	31943.63
455.62	32449.19
455.81	32460.89
455.99	32107.47
456.17	32039.59
456.36	32257.26
456.54	32779.20
456.73	32910.27
456.91	33621.80
457.09	33998.62
457.28	34256.08
457.46	32746.44
457.64	32556.85
457.83	31587.87
458.01	31239.13
458.19	32044.27
458.38	32414.08
458.56	33326.89
458.74	32943.04
458.93	32243.22
459.11	32037.25
459.29	31871.07
459.48	32060.66
459.66	32219.81
459.84	32638.77
460.03	32512.38
460.21	32929.00
460.39	33518.81
460.57	33750.52
460.76	34134.37
460.94	34216.29
461.12	33354.97
461.31	33607.75
461.49	33996.28
461.67	33729.46
461.85	34829.51
462.04	34270.12
462.22	34937.18
462.40	34558.01
462.59	34438.64
462.77	34293.53
462.95	34157.78
463.13	33759.89
463.32	33415.83
463.50	33165.39
463.68	33497.75
463.86	33549.24
464.05	33053.05
464.23	32285.35
464.41	32278.33
464.59	31990.44
464.78	33418.17
464.96	33284.76
465.14	32718.35
465.32	33759.89
465.50	34178.84
465.69	34745.25
465.87	34288.85
466.05	33699.03
466.23	32144.92
466.41	30855.28
466.60	32350.88
466.78	31929.59
466.96	32783.88
467.14	32872.82
467.32	33502.43
467.51	33369.02
467.69	32048.96
467.87	32814.31
468.05	33242.63
468.23	33851.17
468.41	33362.00
468.60	33673.29
468.78	33516.47
468.96	33343.27
469.14	33827.76
469.32	33986.92
469.50	32732.39
469.69	32921.98
469.87	32512.38
470.05	32561.53
470.23	32278.33
470.41	32545.15
470.59	33015.60
470.77	32811.97
470.95	33483.70
471.14	34115.65
471.32	34274.80
471.50	35831.26
471.68	35840.62
471.86	36837.69
472.04	36481.93
472.22	36788.54
472.40	34731.21
472.58	34525.24
472.77	34499.50
472.95	34995.69
473.13	35917.86
473.31	34876.32
473.49	34890.37
473.67	35859.35
473.85	35945.95
474.03	36947.70
474.21	36748.75
474.39	37343.25
474.57	37581.98
474.75	37677.94
474.93	37130.26
475.12	36594.28
475.30	36402.35
475.48	36685.56
475.66	37261.33
475.84	36809.61
476.02	36428.10
476.20	35620.61
476.38	36411.71
476.56	37773.91
476.74	38272.44
476.92	38293.50
477.10	38920.77
477.28	39894.43
477.46	40170.61
477.64	40208.06
477.82	40294.66
478.00	40517.01
478.18	40140.19
478.36	39786.77
478.54	39660.38
478.72	40048.91
478.90	40964.06
479.08	41790.27
479.26	42291.14
479.44	42604.77
479.62	42445.62
479.80	42424.55
479.98	42375.40
480.16	43103.31
480.34	42356.67
480.52	42492.43
480.70	42899.68
480.88	43178.20
481.06	43440.34
481.24	44271.23
481.41	44898.50
481.59	45617.04
481.77	45411.07
481.95	45008.50
482.13	44217.40
482.31	44444.43
482.49	45715.34
482.67	44978.07
482.85	45177.02
483.03	46036.00
483.21	46457.29
483.39	46270.05
483.57	45930.67
483.74	45691.94
483.92	45933.01
484.10	45832.37
484.28	46859.87
484.46	47309.25
484.64	47927.15
484.82	46536.87
485.00	46560.28
485.18	45090.42
485.35	44011.43
485.53	40786.18
485.71	37560.92
485.89	36992.17
486.07	38803.74
486.25	41598.34
486.43	44467.84
486.61	44884.45
486.78	45059.99
486.96	45270.64
487.14	46859.87
487.32	47889.70
487.50	49008.48
487.68	49865.11
487.85	49928.31
488.03	50206.83
488.21	49975.12
488.39	49048.27
488.57	48121.41
488.75	47650.97
488.92	49066.99
489.10	51737.54
489.28	52655.03
489.46	53118.46
489.64	53443.79
489.81	53286.98
489.99	53043.56
490.17	52837.59
490.35	53509.33
490.53	53041.22
490.70	52523.96
490.88	52472.47
491.06	53825.30
491.24	53195.70
491.41	52442.04
491.59	50681.96
491.77	50092.15
491.95	51304.54
492.13	52268.84
492.30	53502.31
492.48	54396.39
492.66	54880.88
492.84	54901.95
493.01	54401.07
493.19	53947.01
493.37	53705.93
493.54	53396.98
493.72	54199.79
493.90	55002.59
494.08	55894.33
494.25	56280.52
494.43	56296.91
494.61	56816.50
494.79	56687.78
494.96	56617.56
495.14	56116.68
495.32	54887.90
495.49	54642.15
495.67	55341.97
495.85	56554.36
496.02	57233.12
496.20	57010.77
496.38	56507.55
496.55	56392.87
496.73	56809.48
496.91	56905.44
497.09	57733.99
497.26	57855.70
497.44	57471.85
497.62	56704.16
497.79	56065.19
497.97	54705.34
498.14	55072.81
498.32	56156.47
498.50	56774.37
498.67	57345.47
498.85	57336.10
499.03	57595.90
499.20	57511.64
499.38	57741.02
499.56	57645.05
499.73	57151.20
499.91	56669.05
500.08	56289.88
500.26	55594.74
500.44	55891.99
500.61	56783.74
500.79	56561.39
500.97	56264.14
501.14	56102.64
501.32	55957.53
501.49	55971.57
501.67	55861.57
501.84	56577.77
502.02	56903.10
502.20	57310.36
502.37	57375.89
502.55	57160.56
502.72	57968.05
502.90	58422.11
503.07	57893.15
503.25	57607.61
503.43	56865.66
503.60	56177.54
503.78	55660.28
503.95	56278.18
504.13	57553.77
504.30	58108.48
504.48	58164.65
504.65	57523.35
504.83	57654.42
505.01	58213.80
505.18	58429.13
505.36	59126.61
505.53	59121.93
505.71	59576.00
505.88	59707.07
506.06	58712.34
506.23	58656.17
506.41	58089.76
506.58	58375.30
506.76	58384.66
506.93	58394.03
507.11	57996.13
507.28	58408.07
507.46	57715.27
507.63	57083.33
507.81	57113.75
507.98	57308.02
508.16	58078.05
508.33	58567.23
508.50	58908.94
508.68	59084.48
508.85	59444.93
509.03	59650.89
509.20	59227.26
509.38	58726.38
509.55	57874.43
509.73	58293.38
509.90	58408.07
510.08	58820.00
510.25	58841.07
510.42	58459.56
510.60	58525.10
510.77	58677.23
510.95	59260.02
511.12	59543.23
511.30	59664.94
511.47	59910.69
511.64	59845.16
511.82	59774.94
511.99	58646.80
512.17	58354.24
512.34	58017.20
512.51	58253.59
512.69	58368.28
512.86	58333.17
513.04	58855.11
513.21	58869.15
513.38	58489.99
513.56	58052.31
513.73	57595.90
513.90	57743.36
514.08	57785.49
514.25	58260.62
514.43	58539.14
514.60	58379.98
514.77	58656.17
514.95	58522.76
515.12	58562.54
515.29	58651.48
515.47	59168.74
515.64	59281.09
515.81	59032.99
515.99	58365.94
516.16	57017.79
516.33	54742.79
516.51	53366.55
516.68	52807.17
516.85	52392.89
517.03	52818.87
517.20	55400.48
517.37	57453.13
517.54	58550.84
517.72	57970.39
517.89	55643.90
518.06	53158.25
518.24	53982.12
518.41	55950.51
518.58	57446.11
518.75	57329.08
518.93	57659.10
519.10	57467.17
519.27	58134.23
519.45	58410.41
519.62	58930.01
519.79	59285.77
519.96	58848.09
520.14	58585.95
520.31	57741.02
520.48	57733.99
520.65	58059.33
520.83	59110.23
521.00	59346.62
521.17	59056.40
521.34	58497.01
521.52	59086.82
521.69	59566.63
521.86	60037.08
522.03	59559.61
522.20	58309.77
522.38	57293.97
522.55	57338.44
522.72	57923.58
522.89	58272.32
523.07	58134.23
523.24	58651.48
523.41	59578.34
523.58	59763.24
523.75	60236.03
523.92	59924.74
524.10	59863.88
524.27	60001.97
524.44	59714.09
524.61	59662.60
524.78	59510.46
524.96	59316.20
525.13	59245.98
525.30	59678.98
525.47	60065.17
525.64	59845.16
525.81	59117.25
525.98	57942.30
526.16	56563.73
526.33	55669.64
526.50	55611.13
526.67	54995.57
526.84	55746.88
527.01	56692.46
527.18	57659.10
527.36	58450.20
527.53	59332.58
527.70	59353.65
527.87	59079.80
528.04	58394.03
528.21	59140.66
528.38	59503.44
528.55	60100.28
528.72	60346.03
528.89	60619.88
529.07	60324.97
529.24	59793.67
529.41	58967.46
529.58	58702.98
529.75	58686.59
529.92	58948.73
530.09	59531.53
530.26	59898.99
530.43	60144.75
530.60	60264.11
530.77	60479.44
530.94	60470.08
531.11	60076.87
531.28	59763.24
531.46	59697.70
531.63	59496.42
531.80	59721.11
531.97	59075.12
532.14	58560.20
532.31	57661.44
532.48	56743.95
532.65	56891.40
532.82	57797.19
532.99	58845.75
533.16	59091.51
533.33	59524.50
533.50	59112.57
533.67	58780.21
533.84	58419.77
534.01	58710.00
534.18	58766.17
534.35	59112.57
534.52	58766.17
534.69	59208.53
534.86	59412.16
535.03	59732.81
535.20	60081.55
535.37	60460.72
535.54	60512.21
535.71	60102.62
535.88	59697.70
536.05	59367.69
536.22	59037.67
536.38	58342.53
536.55	58014.86
536.72	57483.56
536.89	57780.81
537.06	58253.59
537.23	59311.52
537.40	59461.31
537.57	59444.93
537.74	58946.39
537.91	59103.21
538.08	59208.53
538.25	59147.68
538.42	59332.58
538.59	59009.59
538.75	58546.16
538.92	58408.07
539.09	58073.37
539.26	57872.09
539.43	57757.40
539.60	57979.75
539.77	58108.48
539.94	58171.67
540.11	57258.87
540.28	56786.08
540.44	57024.81
540.61	56884.38
540.78	57279.93
540.95	57876.77
541.12	58326.15
541.29	58293.38
541.46	58611.70
541.62	58614.04
541.79	58506.37
541.96	58064.01
542.13	57907.19
542.30	58459.56
542.47	58279.34
542.63	57855.70
542.80	58066.35
542.97	57965.71
543.14	57900.17
543.31	57818.25
543.48	58492.33
543.64	59114.91
543.81	59451.95
543.98	59269.39
544.15	58578.93
544.32	58038.26
544.48	58340.19
544.65	58698.30
544.82	59082.14
544.99	58396.37
545.16	58489.99
545.32	58255.93
545.49	58756.81
545.66	59236.62
545.83	58852.77
546.00	58504.03
546.16	58372.96
546.33	58246.57
546.50	58342.53
546.67	58820.00
546.83	58277.00
547.00	58174.02
547.17	57628.67
547.34	57057.58
547.50	57237.80
547.67	57385.25
547.84	57373.55
548.00	57916.56
548.17	58344.87
548.34	58216.14
548.51	58269.98
548.67	58185.72
548.84	58499.35
549.01	58344.87
549.18	58152.95
549.34	57989.11
549.51	58183.38
549.68	57909.53
549.84	57666.12
550.01	57794.85
550.18	57696.55
550.34	57865.06
550.51	57846.34
550.68	57888.47
550.84	57411.00
551.01	57411.00
551.18	57385.25
551.34	57673.14
551.51	57930.60
551.68	58274.66
551.84	58237.21
552.01	58054.65
552.18	57703.57
552.34	57176.95
552.51	56676.07
552.68	56856.29
552.84	57102.05
553.01	57298.65
553.18	57284.61
553.34	57605.26
553.51	57553.77
553.67	57923.58
553.84	57902.51
554.01	57698.89
554.17	57659.10
554.34	57645.05
554.51	57701.23
554.67	58066.35
554.84	58010.18
555.00	57689.52
555.17	57579.52
555.33	57378.23
555.50	57453.13
555.67	57446.11
555.83	57329.08
556.00	56875.02
556.16	57022.47
556.33	56549.68
556.50	56409.25
556.66	56568.41
556.83	56128.39
556.99	56519.26
557.16	56498.19
557.32	56442.02
557.49	57085.67
557.65	56877.36
557.82	56837.57
557.98	56694.80
558.15	56369.46
558.32	55468.36
558.48	54504.06
558.65	54789.60
558.81	55121.96
558.98	55576.02
559.14	55828.80
559.31	55744.54
559.47	55800.71
559.64	55601.77
559.80	55192.17
559.97	55178.13
560.13	55863.91
560.30	56612.88
560.46	57099.71
560.63	57006.09
560.79	57127.80
560.96	56655.01
561.12	55786.67
561.29	54707.68
561.45	55119.62
561.61	55611.13
561.78	56114.34
561.94	55803.05
562.11	55636.87
562.27	55543.25
562.44	56119.02
562.60	56233.71
562.77	56516.92
562.93	56062.85
563.10	56315.63
563.26	55569.00
563.42	55576.02
563.59	55585.38
563.75	55501.12
563.92	55604.11
564.08	55489.42
564.24	55695.39
564.41	55992.64
564.57	55833.48
564.74	55430.91
564.90	55458.99
565.07	55274.09
565.23	54845.77
565.39	54532.14
565.56	54291.07
565.72	53792.53
565.88	54447.88
566.05	54354.26
566.21	54904.29
566.38	54782.58
566.54	54834.07
566.70	55447.29
566.87	55508.14
567.03	55325.58
567.19	55494.10
567.36	55466.02
567.52	55231.96
567.68	54969.82
567.85	54457.24
568.01	54131.91
568.17	53607.63
568.34	53956.37
568.50	53574.86
568.66	53619.33
568.83	54272.34
568.99	53918.92
569.15	54387.03
569.32	54298.09
569.48	54031.27
569.64	54017.22
569.81	53710.61
569.97	53460.18
570.13	53544.44
570.30	52729.93
570.46	52626.95
570.62	51854.57
570.78	51772.65
570.95	52357.78
571.11	52800.15
571.27	53169.95
571.43	53336.13
571.60	53635.72
571.76	53827.64
571.92	54213.83
572.09	54033.61
572.25	54141.27
572.41	54124.89
572.57	54171.70
572.74	53867.43
572.90	53729.34
573.06	53523.37
573.22	53572.52
573.38	53762.11
573.55	53516.35
573.71	53804.24
573.87	53586.57
574.03	53497.62
574.20	53336.13
574.36	53085.69
574.52	53097.39
574.68	52706.52
574.84	52493.54
575.01	52130.75
575.17	52030.11
575.33	52088.62
575.49	52526.30
575.65	52704.18
575.82	52397.57
575.98	51854.57
576.14	52383.53
576.30	52619.92
576.46	52577.79
576.62	52610.56
576.79	52687.80
576.95	52388.21
577.11	52123.73
577.27	52233.74
577.43	52477.15
577.59	52123.73
577.75	51510.51
577.92	51253.05
578.08	50356.63
578.24	50754.52
578.40	51288.16
578.56	51339.65
578.72	51763.29
578.88	51461.36
579.04	51606.47
579.21	52079.26
579.37	51746.90
579.53	51868.61
579.69	52369.49
579.85	52402.25
580.01	51627.54
580.17	51611.15
580.33	51587.75
580.49	51313.90
580.65	51973.94
580.82	52257.14
580.98	51835.84
581.14	52025.43
581.30	51753.93
581.46	51772.65
581.62	52212.67
581.78	52076.92
581.94	52086.28
582.10	52170.54
582.26	52315.65
582.42	51978.62
582.58	52215.01
582.74	52090.96
582.90	52252.46
583.06	52105.01
583.22	51655.62
583.38	51554.98
583.54	51765.63
583.70	51510.51
583.86	51936.49
584.02	51545.62
584.18	51861.59
584.34	51657.96
584.50	51793.71
584.66	51583.07
584.82	51180.49
584.98	50939.42
585.14	50522.80
585.30	50082.78
