SpectraSuite Data File
++++++++++++++++++++++++++++++++++++
Date: Mon Oct 07 14:52:58 GMT-05:00 2013
User: price-jones
Dark Spectrum Present: No
Reference Spectrum Present: No
Number of Sampled Component Spectra: 1
Spectrometers: USB2+H05261
Integration Time (usec): 100000 (USB2+H05261)
Spectra Averaged: 1 (USB2+H05261)
Boxcar Smoothing: 0 (USB2+H05261)
Correct for Electrical Dark: No (USB2+H05261)
Strobe/Lamp Enabled: No (USB2+H05261)
Correct for Detector Non-linearity: No (USB2+H05261)
Correct for Stray Light: No (USB2+H05261)
Number of Pixels in Processed Spectrum: 2048
>>>>>Begin Processed Spectral Data<<<<<
365.73	0.00
365.92	0.00
366.12	0.00
366.32	0.00
366.52	0.00
366.72	0.00
366.91	0.00
367.11	0.00
367.31	0.00
367.51	0.00
367.70	0.00
367.90	0.00
368.10	0.00
368.30	0.00
368.49	0.00
368.69	0.00
368.89	0.00
369.09	0.00
369.28	0.00
369.48	0.00
369.68	0.00
369.87	0.00
370.07	0.00
370.27	0.00
370.47	454.06
370.66	2850.77
370.86	3262.71
371.06	3686.34
371.25	3693.37
371.45	3145.68
371.65	2974.82
371.84	2668.21
372.04	2970.14
372.24	3272.07
372.44	3489.74
372.63	3243.98
372.83	3112.91
373.03	2810.98
373.22	2499.69
373.42	2597.99
373.62	2998.23
373.81	3342.28
374.01	3234.62
374.21	2937.37
374.40	2736.09
374.60	3026.31
374.79	3323.56
374.99	3892.31
375.19	4105.30
375.38	4210.62
375.58	3925.08
375.78	3737.84
375.97	3880.61
376.17	4105.30
376.37	4046.79
376.56	4072.53
376.76	4386.16
376.95	4660.01
377.15	5048.54
377.35	5221.74
377.54	5313.02
377.74	5427.70
377.93	5427.70
378.13	5179.61
378.33	5090.67
378.52	4671.71
378.72	4409.57
378.91	4533.62
379.11	4301.90
379.31	4259.78
379.50	4088.92
379.70	4463.40
379.89	4940.87
380.09	5245.14
380.28	5305.99
380.48	5406.64
380.68	5231.10
380.87	4964.28
381.07	4784.06
381.26	4411.91
381.46	3992.95
381.65	4042.11
381.85	3969.55
382.04	3747.20
382.24	3581.02
382.43	3368.03
382.63	3300.16
382.83	3138.66
383.02	3358.67
383.22	3300.16
383.41	3283.77
383.61	3529.53
383.80	4023.38
384.00	4681.07
384.19	5144.50
384.39	5465.15
384.58	5249.82
384.78	5235.78
384.97	5100.03
385.17	4880.02
385.36	4608.51
385.56	4409.57
385.75	4554.68
385.95	5121.09
386.14	5439.40
386.34	5383.23
386.53	5322.38
386.72	4915.12
386.92	5093.01
387.11	5231.10
387.31	5411.32
387.50	5469.83
387.70	5308.34
387.89	5174.92
388.09	5308.34
388.28	5338.76
388.48	5327.06
388.67	5790.49
388.86	6296.04
389.06	6782.87
389.25	7080.12
389.45	7171.40
389.64	7255.66
389.84	7016.93
390.03	6963.09
390.22	6930.33
390.42	7246.30
390.61	7613.76
390.81	8070.17
391.00	8475.08
391.19	8255.07
391.39	7880.58
391.58	7461.63
391.78	7068.42
391.97	6930.33
392.16	6384.98
392.36	5872.40
392.55	4559.36
392.75	3749.54
392.94	2981.84
393.13	3042.70
393.33	3566.98
393.52	4615.54
393.71	5724.95
393.91	6619.04
394.10	6841.39
394.29	7559.93
394.49	8292.52
394.68	8734.88
394.88	8762.97
395.07	8819.14
395.26	8849.57
395.46	8671.68
395.65	8013.99
395.84	7234.60
396.04	5989.43
396.23	4894.06
396.42	4161.47
396.62	3899.33
396.81	4608.51
397.00	5783.46
397.19	7379.71
397.39	8870.63
397.58	10001.11
397.77	10284.31
397.97	10794.55
398.16	11019.24
398.35	11442.88
398.55	11758.85
398.74	12222.28
398.93	12798.05
399.12	12086.53
399.32	11737.79
399.51	12266.75
399.70	12964.23
399.90	12720.81
400.09	12723.15
400.28	12594.42
400.47	12863.58
400.67	13385.52
400.86	13867.67
401.05	13605.53
401.24	13748.31
401.44	14094.71
401.63	13923.85
401.82	13839.59
402.01	13893.42
402.21	14413.02
402.40	14092.37
402.59	13771.71
402.78	13329.35
402.97	12987.63
403.17	13373.82
403.36	14448.13
403.55	14661.12
403.74	14810.91
403.93	14047.90
404.13	13235.73
404.32	12919.76
404.51	13542.34
404.70	14530.05
404.89	14494.94
405.09	14328.76
405.28	14085.34
405.47	13991.72
405.66	14101.73
405.85	13334.03
406.05	13418.29
406.24	13476.80
406.43	14209.39
406.62	14604.94
406.81	14490.26
407.00	14361.53
407.20	13853.63
407.39	13673.41
407.58	14221.10
407.77	15044.96
407.96	15529.45
408.15	15571.58
408.34	15854.79
408.54	16453.97
408.73	16346.30
408.92	16231.62
409.11	15882.88
409.30	15257.95
409.49	14204.71
409.68	13256.79
409.87	12643.57
410.07	13600.85
410.26	14892.83
410.45	15744.78
410.64	16100.55
410.83	16407.16
411.02	16828.45
411.21	17759.98
411.40	17444.01
411.59	17539.97
411.78	17324.65
411.98	17198.26
412.17	17158.47
412.36	17165.49
412.55	17025.06
412.74	16814.41
412.93	16395.45
413.12	16561.63
413.31	18366.18
413.50	17858.29
413.69	18780.46
413.88	17757.64
414.07	17273.15
414.26	17525.93
414.45	18448.10
414.64	18134.47
414.83	18141.49
415.02	17951.91
415.22	17752.96
415.41	18188.30
415.60	18979.40
415.79	19606.67
415.98	20140.31
416.17	20460.96
416.36	19403.04
416.55	19356.23
416.74	18672.79
416.93	18274.90
417.12	18139.15
417.31	18712.58
417.50	18794.50
417.69	19826.68
417.88	19360.91
418.07	18956.00
418.26	18703.22
418.45	18897.49
418.64	19763.48
418.83	20624.80
419.02	20280.74
419.21	19775.19
419.39	18876.42
419.58	18312.35
419.77	18532.36
419.96	18948.98
420.15	20109.88
420.34	20592.03
420.53	21326.96
420.72	21678.04
420.91	21675.70
421.10	21387.82
421.29	21355.05
421.48	20285.42
421.67	21626.55
421.86	20615.44
422.05	19339.85
422.24	17453.37
422.43	17554.02
422.61	19234.52
422.80	20596.71
422.99	20613.10
423.18	19735.40
423.37	19381.98
423.56	19737.74
423.75	19915.62
423.94	20320.53
424.13	19489.64
424.32	19339.85
424.50	19398.36
424.69	19129.20
424.88	19302.40
425.07	19225.16
425.26	19234.52
425.45	18867.06
425.64	19016.85
425.83	18796.84
426.01	20051.37
426.20	20287.76
426.39	20313.51
426.58	18806.20
426.77	17226.34
426.96	16477.37
427.15	17312.94
427.33	18829.61
427.52	19594.96
427.71	19510.71
427.90	19154.94
428.09	19051.96
428.28	18974.72
428.46	17923.82
428.65	17968.29
428.84	18298.31
429.03	18633.00
429.22	17717.86
429.40	16620.14
429.59	15124.54
429.78	13486.17
429.97	13673.41
430.16	13661.71
430.34	13666.39
430.53	13591.49
430.72	14045.55
430.91	15492.01
431.10	18366.18
431.28	21518.89
431.47	23477.91
431.66	23498.98
431.85	21282.49
432.03	19506.02
432.22	18941.96
432.41	19676.88
432.60	21895.71
432.79	22380.20
432.97	22867.03
433.16	22284.24
433.35	20524.16
433.54	18380.23
433.72	17537.63
433.91	18017.44
434.10	20187.12
434.28	21467.39
434.47	22789.80
434.66	22544.04
434.85	21764.64
435.03	21483.78
435.22	22204.66
435.41	23456.85
435.59	23365.57
435.78	24053.69
435.97	24414.13
436.16	24545.20
436.34	24102.84
436.53	23360.89
436.72	23758.78
436.90	22349.78
437.09	22403.61
437.28	22099.34
437.46	22834.27
437.65	22417.65
437.84	21254.40
438.02	19550.49
438.21	19211.12
438.40	20613.10
438.58	22274.88
438.77	22494.89
438.96	22913.84
439.14	24217.52
439.33	24533.50
439.52	24802.66
439.70	24210.50
439.89	23740.05
440.08	23119.81
440.26	22965.34
440.45	23950.70
440.63	25549.29
440.82	26600.19
441.01	26340.39
441.19	26101.65
441.38	26874.03
441.57	27190.00
441.75	28072.39
441.94	28332.18
442.12	27819.61
442.31	28566.24
442.50	28126.22
442.68	28411.76
442.87	27527.04
443.05	27431.08
443.24	27864.08
443.43	28367.29
443.61	28919.66
443.80	28933.70
443.98	27377.25
444.17	27854.72
444.35	29219.25
444.54	29614.80
444.73	29254.36
444.91	27936.63
445.10	26902.12
445.28	25788.02
445.47	25876.96
445.65	25797.38
445.84	26602.53
446.02	27433.42
446.21	27976.42
446.39	27503.64
446.58	28374.31
446.77	28613.05
446.95	28919.66
447.14	29940.13
447.32	30096.95
447.51	29249.67
447.69	28247.93
447.88	27866.42
448.06	29001.58
448.25	28727.74
448.43	29137.33
448.62	28765.18
448.80	28393.04
448.99	28655.18
449.17	29111.58
449.36	29205.20
449.54	30160.14
449.73	30616.55
449.91	31381.90
450.10	31381.90
450.28	32336.84
450.46	31948.31
450.65	32055.98
450.83	31983.42
451.02	30895.07
451.20	30817.83
451.39	30871.67
451.57	30623.57
451.76	30906.77
451.94	30431.65
452.13	29806.72
452.31	28760.50
452.49	27292.99
452.68	27740.03
452.86	27871.10
453.05	28102.81
453.23	28919.66
453.42	29902.68
453.60	30373.13
453.78	30754.64
453.97	30450.37
454.15	30267.81
454.34	29448.62
454.52	29755.23
454.70	29233.29
454.89	29247.33
455.07	29841.83
455.26	29928.43
455.44	31304.67
455.62	31646.38
455.81	31995.12
455.99	31625.32
456.17	31402.97
456.36	31784.48
456.54	32385.99
456.73	32259.60
456.91	32875.16
457.09	33378.38
457.28	33631.16
457.46	32287.69
457.64	31952.99
457.83	31318.71
458.01	30850.60
458.19	31555.10
458.38	31482.55
458.56	32945.38
458.74	32521.74
458.93	31812.56
459.11	31791.50
459.29	31426.37
459.48	31985.76
459.66	31281.26
459.84	32046.62
460.03	32374.29
460.21	32591.96
460.39	32854.10
460.57	32907.93
460.76	33457.96
460.94	33263.69
461.12	32980.49
461.31	33237.95
461.49	33029.64
461.67	33486.04
461.85	34321.62
462.04	34096.92
462.22	34522.90
462.40	33963.51
462.59	33919.04
462.77	34174.16
462.95	34043.09
463.13	33446.26
463.32	33352.63
463.50	33184.12
463.68	33181.77
463.86	33322.21
464.05	33179.43
464.23	31924.91
464.41	31885.12
464.59	31393.61
464.78	33130.28
464.96	32968.79
465.14	32369.61
465.32	33181.77
465.50	34211.61
465.69	34899.73
465.87	33647.54
466.05	32694.94
466.23	31466.16
466.41	30829.54
466.60	32016.19
466.78	31611.28
466.96	32449.19
467.14	32875.16
467.32	33237.95
467.51	33364.34
467.69	32048.96
467.87	32226.84
468.05	32648.13
468.23	33174.75
468.41	33113.90
468.60	33156.03
468.78	33394.76
468.96	32816.65
469.14	33841.81
469.32	33881.60
469.50	32224.50
469.69	32776.86
469.87	31969.38
470.05	32154.28
470.23	32224.50
470.41	32140.24
470.59	32493.66
470.77	32989.85
470.95	33610.09
471.14	33687.33
471.32	33783.29
471.50	36006.80
471.68	35878.07
471.86	36100.42
472.04	36128.51
472.22	36292.35
472.40	34253.74
472.58	34396.51
472.77	34209.27
472.95	34782.70
473.13	35440.39
473.31	34562.69
473.49	34656.31
473.67	35274.21
473.85	35732.96
474.03	36404.69
474.21	36687.90
474.39	37099.83
474.57	37263.67
474.75	37376.01
474.93	36648.11
475.12	36170.64
475.30	36112.13
475.48	36084.04
475.66	37006.21
475.84	36444.48
476.02	36105.10
476.20	35573.80
476.38	36168.30
476.56	37436.87
476.74	37928.38
476.92	37965.83
477.10	38560.33
477.28	39697.83
477.46	40041.88
477.64	40278.28
477.82	40205.72
478.00	40627.02
478.18	39454.41
478.36	39723.57
478.54	39793.79
478.72	40076.99
478.90	40872.78
479.08	41949.42
479.26	42335.61
479.44	42249.01
479.62	42337.95
479.80	41928.36
479.98	42466.68
480.16	42649.24
480.34	41986.87
480.52	42691.37
480.70	43037.77
480.88	42609.45
481.06	43473.11
481.24	44194.00
481.41	44701.89
481.59	45485.97
481.77	44907.86
481.95	44425.71
482.13	44086.33
482.31	44231.44
482.49	44802.53
482.67	45090.42
482.85	45240.21
483.03	46150.68
483.21	46192.81
483.39	46199.83
483.57	45258.94
483.74	45013.18
483.92	45668.53
484.10	45408.73
484.28	47037.75
484.46	46775.61
484.64	47295.21
484.82	46431.55
485.00	45783.22
485.18	45118.51
485.35	43833.55
485.53	40800.22
485.71	37104.51
485.89	36781.52
486.07	39318.66
486.25	42227.95
486.43	44432.73
486.61	45375.97
486.78	45333.84
486.96	45397.03
487.14	47138.39
487.32	47973.96
487.50	49003.80
487.68	49631.06
487.85	50419.82
488.03	50342.58
488.21	49715.32
488.39	48809.53
488.57	48142.48
488.75	48030.13
488.92	49291.68
489.10	51391.14
489.28	52746.31
489.46	53382.94
489.64	53198.04
489.81	53373.58
489.99	53006.11
490.17	52879.72
490.35	53205.06
490.53	53022.50
490.70	52633.97
490.88	52271.18
491.06	53291.66
491.24	53357.19
491.41	52329.70
491.59	50578.98
491.77	49942.35
491.95	51175.81
492.13	52154.16
492.30	53401.66
492.48	54340.22
492.66	54883.22
492.84	54710.02
493.01	54815.35
493.19	54082.76
493.37	53581.88
493.54	53619.33
493.72	54131.91
493.90	55405.16
494.08	55943.48
494.25	56257.12
494.43	56219.67
494.61	56612.88
494.79	56816.50
494.96	56669.05
495.14	55618.15
495.32	55257.71
495.49	54468.95
495.67	55648.58
495.85	56633.94
496.02	57167.58
496.20	56905.44
496.38	56559.05
496.55	56353.08
496.73	56886.72
496.91	57052.90
497.09	57808.89
497.26	57619.31
497.44	57221.42
497.62	56559.05
497.79	55887.31
497.97	54876.20
498.14	54946.42
498.32	56154.13
498.50	57097.37
498.67	57553.77
498.85	57305.68
499.03	57513.98
499.20	57750.38
499.38	57694.21
499.56	57661.44
499.73	57064.60
499.91	56788.42
500.08	56172.86
500.26	55655.60
500.44	56259.46
500.61	56683.09
500.79	56622.24
500.97	56119.02
501.14	56100.30
501.32	55866.25
501.49	55887.31
501.67	56046.47
501.84	56856.29
502.02	56956.94
502.20	57315.04
502.37	57495.26
502.55	57272.91
502.72	57907.19
502.90	58412.75
503.07	58028.90
503.25	57787.83
503.43	56914.81
503.60	56072.21
503.78	55622.83
503.95	56048.81
504.13	57593.56
504.30	58291.04
504.48	57932.94
504.65	57811.23
504.83	57778.46
505.01	58321.47
505.18	58787.24
505.36	59318.54
505.53	59285.77
505.71	59564.29
505.88	59676.64
506.06	58946.39
506.23	58602.33
506.41	58225.51
506.58	58300.40
506.76	58506.37
506.93	58384.66
507.11	58157.63
507.28	58625.74
507.46	58035.92
507.63	57432.07
507.81	57176.95
507.98	57502.28
508.16	58197.42
508.33	58677.23
508.50	58864.47
508.68	59203.85
508.85	59667.28
509.03	59433.22
509.20	59234.28
509.38	59007.25
509.55	58075.71
509.73	58309.77
509.90	58796.60
510.08	59070.44
510.25	58827.02
510.42	58721.70
510.60	58726.38
510.77	58908.94
510.95	59529.19
511.12	59578.34
511.30	59772.60
511.47	59987.93
511.64	59985.59
511.82	59735.15
511.99	58894.90
512.17	58578.93
512.34	58398.71
512.51	58681.91
512.69	58384.66
512.86	58738.08
513.04	59093.85
513.21	59185.13
513.38	58717.02
513.56	58253.59
513.73	57544.41
513.90	58040.60
514.08	58000.82
514.25	58372.96
514.43	58518.07
514.60	58649.14
514.77	58504.03
514.95	58878.52
515.12	58658.51
515.29	58824.68
515.47	59348.96
515.64	59711.75
515.81	59061.08
515.99	58702.98
516.16	57113.75
516.33	54908.97
516.51	53593.59
516.68	52793.12
516.85	52509.92
517.03	53076.33
517.20	55634.53
517.37	57862.72
517.54	58812.98
517.72	58216.14
517.89	55655.60
518.06	53954.03
518.24	54120.21
518.41	56175.20
518.58	57521.01
518.75	57673.14
518.93	57822.93
519.10	57862.72
519.27	58199.76
519.45	58288.70
519.62	58979.16
519.79	59400.46
519.96	59075.12
520.14	58901.92
520.31	57851.02
520.48	57839.32
520.65	58281.68
520.83	59316.20
521.00	59671.96
521.17	59133.63
521.34	58876.18
521.52	59173.42
521.69	59730.47
521.86	60037.08
522.03	59702.38
522.20	58459.56
522.38	57769.10
522.55	57790.17
522.72	58504.03
522.89	58419.77
523.07	58677.23
523.24	58962.78
523.41	59620.47
523.58	59945.80
523.75	60432.63
523.92	60399.86
524.10	60170.49
524.27	60221.98
524.44	59943.46
524.61	59955.16
524.78	59585.36
524.96	59613.44
525.13	59601.74
525.30	60072.19
525.47	60306.24
525.64	60243.05
525.81	59517.48
525.98	58059.33
526.16	56844.59
526.33	56439.68
526.50	56013.70
526.67	55557.30
526.84	56327.33
527.01	57022.47
527.18	58000.82
527.36	58953.41
527.53	59482.37
527.70	59831.11
527.87	59372.37
528.04	58798.94
528.21	59458.97
528.38	59906.01
528.55	60528.59
528.72	60727.54
528.89	60893.72
529.07	60587.11
529.24	59763.24
529.41	59227.26
529.58	58850.43
529.75	58904.26
529.92	59082.14
530.09	59877.93
530.26	60266.45
530.43	60364.76
530.60	60449.02
530.77	60678.39
530.94	60676.05
531.11	60259.43
531.28	60121.34
531.46	59791.33
531.63	59891.97
531.80	59723.45
531.97	59510.46
532.14	58775.53
532.31	57827.62
532.48	57380.57
532.65	57537.39
532.82	58108.48
532.99	59215.55
533.16	59430.88
533.33	59901.33
533.50	59779.62
533.67	59201.51
533.84	58688.93
534.01	59138.32
534.18	59257.68
534.35	59316.20
534.52	59171.08
534.69	59536.21
534.86	59533.87
535.03	60114.32
535.20	60306.24
535.37	60884.36
535.54	60893.72
535.71	60584.77
535.88	60154.11
536.05	59496.42
536.22	59187.47
536.38	58876.18
536.55	58323.81
536.72	57785.49
536.89	57961.03
537.06	58714.68
537.23	59604.08
537.40	59788.98
537.57	59866.22
537.74	59634.51
537.91	59416.84
538.08	59568.97
538.25	59561.95
538.42	59632.17
538.59	59447.27
538.75	58702.98
538.92	58794.26
539.09	58632.76
539.26	58286.36
539.43	58056.99
539.60	58506.37
539.77	58623.40
539.94	58068.69
540.11	57640.37
540.28	57116.09
540.44	57422.70
540.61	57682.50
540.78	57752.72
540.95	58129.54
541.12	58557.86
541.29	58656.17
541.46	59091.51
541.62	58990.86
541.79	58939.37
541.96	58202.10
542.13	58085.07
542.30	58618.72
542.47	58834.05
542.63	58417.43
542.80	58368.28
542.97	58677.23
543.14	58497.01
543.31	58506.37
543.48	58887.88
543.64	59519.82
543.81	59913.03
543.98	59723.45
544.15	59072.78
544.32	58681.91
544.48	58796.60
544.65	59100.87
544.82	59257.68
544.99	58944.05
545.16	58763.83
545.32	58553.18
545.49	59159.38
545.66	59625.15
545.83	59124.27
546.00	58796.60
546.16	58698.30
546.33	58665.53
546.50	58534.46
546.67	58953.41
546.83	58567.23
547.00	58630.42
547.17	58103.80
547.34	57628.67
547.50	57396.96
547.67	57762.08
547.84	57759.74
548.00	58550.84
548.17	58885.54
548.34	58782.55
548.51	58702.98
548.67	58534.46
548.84	58773.19
549.01	58805.96
549.18	58511.05
549.34	58504.03
549.51	58660.85
549.68	58604.67
549.84	58274.66
550.01	58131.89
550.18	58202.10
550.34	58216.14
550.51	58342.53
550.68	58253.59
550.84	57752.72
551.01	57930.60
551.18	57750.38
551.34	57979.75
551.51	58141.25
551.68	58649.14
551.84	58873.84
552.01	58475.94
552.18	58265.30
552.34	57675.48
552.51	57441.43
552.68	57345.47
552.84	57642.71
553.01	57909.53
553.18	57928.26
553.34	57844.00
553.51	57946.98
553.67	58431.47
553.84	58361.26
554.01	58576.59
554.17	58211.46
554.34	58269.98
554.51	58183.38
554.67	58805.96
554.84	58628.08
555.00	58110.82
555.17	58082.73
555.33	57855.70
555.50	57851.02
555.67	57914.22
555.83	57771.44
556.00	57432.07
556.16	57689.52
556.33	57212.06
556.50	57242.48
556.66	56952.26
556.83	56626.92
556.99	56828.21
557.16	57036.51
557.32	57347.81
557.49	57481.22
557.65	57521.01
557.82	57382.91
557.98	57268.23
558.15	56790.76
558.32	55945.83
558.48	55070.46
558.65	55508.14
558.81	55971.57
558.98	56107.32
559.14	56397.55
559.31	56322.65
559.47	56481.81
559.64	56060.51
559.80	55711.77
559.97	56002.00
560.13	56502.87
560.30	57013.11
560.46	57544.41
560.63	57942.30
560.79	57771.44
560.96	57425.04
561.12	56282.86
561.29	55756.24
561.45	55639.22
561.61	56395.21
561.78	56638.62
561.94	56292.22
562.11	56306.27
562.27	56420.95
562.44	56556.70
562.60	56734.59
562.77	56896.08
562.93	56781.40
563.10	56746.29
563.26	56261.80
563.42	56107.32
563.59	56025.40
563.75	56147.11
563.92	56259.46
564.08	56222.01
564.24	56383.51
564.41	56446.70
564.57	56385.85
564.74	56507.55
564.90	55971.57
565.07	55779.65
565.23	55508.14
565.39	55025.99
565.56	54965.14
565.72	54653.85
565.88	54997.91
566.05	55229.62
566.21	55288.13
566.38	55367.71
566.54	55583.04
566.70	55901.36
566.87	56240.73
567.03	56149.45
567.19	56605.86
567.36	55985.61
567.52	56034.77
567.68	55587.72
567.85	55182.81
568.01	54684.28
568.17	54206.81
568.34	54213.83
568.50	54337.88
568.66	54375.33
568.83	54873.86
568.99	55037.70
569.15	54979.18
569.32	55236.64
569.48	54906.63
569.64	54763.85
569.81	54347.24
569.97	54087.44
570.13	54019.56
570.30	53544.44
570.46	53572.52
570.62	52680.78
570.78	52505.24
570.95	53062.29
571.11	53815.94
571.27	53820.62
571.43	54340.22
571.60	54541.50
571.76	54740.45
571.92	54728.75
572.09	54911.31
572.25	54965.14
572.41	54967.48
572.57	54876.20
572.74	54733.43
572.90	54431.50
573.06	54410.43
573.22	54422.14
573.38	54513.42
573.55	54618.74
573.71	54412.77
573.87	54501.71
574.03	54286.39
574.20	54574.27
574.36	53890.83
574.52	53631.04
574.68	53670.82
574.84	53312.72
575.01	53031.86
575.17	52949.94
575.33	53137.18
575.49	53586.57
575.65	53411.02
575.82	53249.53
575.98	53127.82
576.14	53471.88
576.30	53511.67
576.46	53504.65
576.62	53663.80
576.79	53635.72
576.95	53324.43
577.11	53394.64
577.27	53350.17
577.43	53221.44
577.59	52900.79
577.75	52479.49
577.92	52069.90
578.08	51707.12
578.24	51751.59
578.40	52065.22
578.56	52273.52
578.72	52245.44
578.88	52713.55
579.04	52966.32
579.21	52851.64
579.37	52589.50
579.53	53207.40
579.69	52743.97
579.85	53022.50
580.01	52856.32
580.17	52449.06
580.33	52133.09
580.49	52453.75
580.65	52786.10
580.82	53066.97
580.98	53069.31
581.14	52921.85
581.30	52973.34
581.46	52666.73
581.62	52828.23
581.78	52907.81
581.94	53537.41
582.10	52975.69
582.26	53113.78
582.42	53010.79
582.58	53205.06
582.74	52903.13
582.90	53183.99
583.06	53010.79
583.22	52786.10
583.38	53167.61
583.54	53010.79
583.70	52769.72
583.86	52758.02
584.02	52622.26
584.18	52645.67
584.34	52566.09
584.50	52673.76
584.66	52442.04
584.82	52193.95
584.98	52310.97
585.14	51686.05
585.30	50658.56
