SpectraSuite Data File
++++++++++++++++++++++++++++++++++++
Date: Mon Oct 07 14:54:56 GMT-05:00 2013
User: price-jones
Dark Spectrum Present: No
Reference Spectrum Present: No
Number of Sampled Component Spectra: 1
Spectrometers: USB2+H05261
Integration Time (usec): 10000 (USB2+H05261)
Spectra Averaged: 1 (USB2+H05261)
Boxcar Smoothing: 0 (USB2+H05261)
Correct for Electrical Dark: No (USB2+H05261)
Strobe/Lamp Enabled: No (USB2+H05261)
Correct for Detector Non-linearity: No (USB2+H05261)
Correct for Stray Light: No (USB2+H05261)
Number of Pixels in Processed Spectrum: 2048
>>>>>Begin Processed Spectral Data<<<<<
365.73	0.00
365.92	0.00
366.12	0.00
366.32	0.00
366.52	0.00
366.72	0.00
366.91	0.00
367.11	0.00
367.31	0.00
367.51	0.00
367.70	0.00
367.90	0.00
368.10	0.00
368.30	0.00
368.49	0.00
368.69	0.00
368.89	0.00
369.09	0.00
369.28	0.00
369.48	0.00
369.68	0.00
369.87	0.00
370.07	0.00
370.27	0.00
370.47	0.00
370.66	224.69
370.86	369.80
371.06	414.27
371.25	360.44
371.45	238.73
371.65	259.80
371.84	283.20
372.04	337.04
372.24	344.06
372.44	311.29
372.63	297.25
372.83	311.29
373.03	163.84
373.22	154.48
373.42	147.45
373.62	297.25
373.81	301.93
374.01	365.12
374.21	341.72
374.40	313.63
374.60	243.42
374.79	339.38
374.99	388.53
375.19	411.93
375.38	472.79
375.58	454.06
375.78	414.27
375.97	428.32
376.17	425.98
376.37	444.70
376.56	568.75
376.76	493.85
376.95	482.15
377.15	648.33
377.35	678.76
377.54	627.26
377.74	781.74
377.93	601.52
378.13	727.91
378.33	606.20
378.52	638.97
378.72	470.45
378.91	449.38
379.11	447.04
379.31	440.02
379.50	435.34
379.70	575.77
379.89	594.50
380.09	578.11
380.28	617.90
380.48	664.71
380.68	606.20
380.87	587.47
381.07	505.56
381.26	451.72
381.46	397.89
381.65	402.57
381.85	374.49
382.04	411.93
382.24	280.86
382.43	318.31
382.63	276.18
382.83	292.57
383.02	238.73
383.22	241.08
383.41	313.63
383.61	348.74
383.80	528.96
384.00	498.53
384.19	582.79
384.39	622.58
384.58	631.94
384.78	503.22
384.97	559.39
385.17	594.50
385.36	547.69
385.56	475.13
385.75	514.92
385.95	526.62
386.14	547.69
386.34	578.11
386.53	641.31
386.72	535.98
386.92	599.18
387.11	512.58
387.31	564.07
387.50	559.39
387.70	564.07
387.89	561.73
388.09	610.88
388.28	571.09
388.48	587.47
388.67	624.92
388.86	798.12
389.06	938.55
389.25	912.81
389.45	891.74
389.64	889.40
389.84	847.27
390.03	917.49
390.22	814.51
390.42	844.93
390.61	952.60
390.81	997.07
391.00	926.85
391.19	976.00
391.39	959.62
391.58	854.30
391.78	908.13
391.97	772.38
392.16	709.18
392.36	674.07
392.55	543.00
392.75	304.27
392.94	222.35
393.13	215.33
393.33	294.91
393.52	444.70
393.71	603.86
393.91	650.67
394.10	851.96
394.29	952.60
394.49	950.26
394.68	1001.75
394.88	1090.69
395.07	1186.65
395.26	1149.20
395.46	938.55
395.65	936.21
395.84	835.57
396.04	650.67
396.23	493.85
396.42	355.76
396.62	358.10
396.81	461.09
397.00	606.20
397.19	763.01
397.39	1071.97
397.58	1282.61
397.77	1324.74
397.97	1280.27
398.16	1329.42
398.35	1369.21
398.55	1397.30
398.74	1598.59
398.93	1544.75
399.12	1458.15
399.32	1455.81
399.51	1404.32
399.70	1462.83
399.90	1519.01
400.09	1636.03
400.28	1614.97
400.47	1591.56
400.67	1650.08
400.86	1727.32
401.05	1603.27
401.24	1650.08
401.44	1717.95
401.63	1682.85
401.82	1717.95
402.01	1727.32
402.21	1785.83
402.40	1856.04
402.59	1636.03
402.78	1699.23
402.97	1521.35
403.17	1685.19
403.36	1769.44
403.55	1802.21
403.74	1839.66
403.93	1774.13
404.13	1589.22
404.32	1561.14
404.51	1727.32
404.70	1853.70
404.89	1902.86
405.09	1778.81
405.28	1661.78
405.47	1678.16
405.66	1631.35
405.85	1570.50
406.05	1584.54
406.24	1694.55
406.43	1640.72
406.62	1703.91
406.81	1687.53
407.00	1680.50
407.20	1732.00
407.39	1624.33
407.58	1774.13
407.77	1839.66
407.96	1879.45
408.15	1895.83
408.34	1923.92
408.54	2069.03
408.73	1956.69
408.92	1956.69
409.11	1799.87
409.30	1839.66
409.49	1757.74
409.68	1633.69
409.87	1486.24
410.07	1617.31
410.26	1809.23
410.45	1781.15
410.64	1839.66
410.83	1879.45
411.02	2090.10
411.21	2066.69
411.40	2090.10
411.59	2064.35
411.78	2062.01
411.98	1963.71
412.17	2052.65
412.36	2160.31
412.55	1996.48
412.74	2129.89
412.93	1842.00
413.12	2040.95
413.31	2279.68
413.50	2174.36
413.69	2193.08
413.88	2134.57
414.07	2094.78
414.26	2087.76
414.45	2244.57
414.64	2296.07
414.83	2186.06
415.02	2183.72
415.22	2197.76
415.41	2165.00
415.60	2256.28
415.79	2455.22
415.98	2340.54
416.17	2401.39
416.36	2354.58
416.55	2221.17
416.74	2143.93
416.93	2080.74
417.12	2153.29
417.31	2094.78
417.50	2193.08
417.69	2265.64
417.88	2289.04
418.07	2214.15
418.26	2204.78
418.45	2340.54
418.64	2361.60
418.83	2396.71
419.02	2413.09
419.21	2382.67
419.39	2193.08
419.58	2115.84
419.77	2134.57
419.96	2221.17
420.15	2312.45
420.34	2382.67
420.53	2436.50
420.72	2544.16
420.91	2502.03
421.10	2534.80
421.29	2499.69
421.48	2462.24
421.67	2445.86
421.86	2312.45
422.05	2181.38
422.24	2003.50
422.43	2008.18
422.61	2216.49
422.80	2466.92
422.99	2399.05
423.18	2209.47
423.37	2408.41
423.56	2256.28
423.75	2303.09
423.94	2380.32
424.13	2235.21
424.32	2197.76
424.50	2104.14
424.69	2120.53
424.88	2253.94
425.07	2218.83
425.26	2136.91
425.45	2141.59
425.64	2076.06
425.83	2040.95
426.01	2200.10
426.20	2305.43
426.39	2260.96
426.58	2172.02
426.77	1895.83
426.96	1912.22
427.15	1975.41
427.33	2111.16
427.52	2272.66
427.71	2272.66
427.90	2127.55
428.09	2181.38
428.28	2146.27
428.46	2157.97
428.65	1961.37
428.84	1982.43
429.03	2155.63
429.22	1973.07
429.40	1870.09
429.59	1605.61
429.78	1451.13
429.97	1497.94
430.16	1509.65
430.34	1418.36
430.53	1371.55
430.72	1483.90
430.91	1612.63
431.10	1970.73
431.28	2424.80
431.47	2637.78
431.66	2502.03
431.85	2307.77
432.03	2101.80
432.22	2010.52
432.41	2165.00
432.60	2497.35
432.79	2452.88
432.97	2616.72
433.16	2574.59
433.35	2307.77
433.54	2040.95
433.72	1844.34
433.91	1989.46
434.10	2174.36
434.28	2349.90
434.47	2483.31
434.66	2541.82
434.85	2588.63
435.03	2326.49
435.22	2471.61
435.41	2588.63
435.59	2490.33
435.78	2642.46
435.97	2700.98
436.16	2715.02
436.34	2698.64
436.53	2588.63
436.72	2661.19
436.90	2420.11
437.09	2555.86
437.28	2450.54
437.46	2492.67
437.65	2375.64
437.84	2326.49
438.02	2202.44
438.21	2127.55
438.40	2284.36
438.58	2459.90
438.77	2380.32
438.96	2450.54
439.14	2675.23
439.33	2579.27
439.52	2815.66
439.70	2806.30
439.89	2635.44
440.08	2691.62
440.26	2555.86
440.45	2525.44
440.63	2995.89
440.82	2928.01
441.01	2881.20
441.19	2885.88
441.38	2841.41
441.57	3005.25
441.75	3021.63
441.94	3176.11
442.12	2911.63
442.31	3068.44
442.50	3124.62
442.68	3112.91
442.87	3066.10
443.05	3070.78
443.24	3094.19
443.43	2944.39
443.61	3178.45
443.80	3150.36
443.98	3094.19
444.17	2988.86
444.35	3162.06
444.54	3178.45
444.73	3192.49
444.91	3075.46
445.10	2988.86
445.28	2708.00
445.47	2846.09
445.65	2712.68
445.84	2911.63
446.02	2874.18
446.21	3035.67
446.39	3023.97
446.58	3061.42
446.77	3028.65
446.95	3126.96
447.14	3225.26
447.32	3211.22
447.51	3150.36
447.69	3124.62
447.88	3129.30
448.06	2855.45
448.25	3119.93
448.43	3253.34
448.62	3082.49
448.80	3030.99
448.99	3087.17
449.17	3138.66
449.36	3166.74
449.54	3234.62
449.73	3435.91
449.91	3335.26
450.10	3510.80
450.28	3461.65
450.46	3398.46
450.65	3361.01
450.83	3372.71
451.02	3290.79
451.20	3480.38
451.39	3393.78
451.57	3358.67
451.76	3297.81
451.94	3368.03
452.13	3131.64
452.31	3077.80
452.49	2810.98
452.68	2869.50
452.86	3087.17
453.05	2970.14
453.23	2928.01
453.42	3131.64
453.60	3279.09
453.78	3173.77
453.97	3159.72
454.15	3267.39
454.34	3152.70
454.52	3276.75
454.70	3084.83
454.89	3110.57
455.07	3052.06
455.26	3101.21
455.44	3344.63
455.62	3335.26
455.81	3375.05
455.99	3377.39
456.17	3234.62
456.36	3391.44
456.54	3386.76
456.73	3468.67
456.91	3527.19
457.09	3653.58
457.28	3581.02
457.46	3440.59
457.64	3283.77
457.83	3185.47
458.01	3246.32
458.19	3222.92
458.38	3379.73
458.56	3433.57
458.74	3435.91
458.93	3321.22
459.11	3405.48
459.29	3222.92
459.48	3386.76
459.66	3218.24
459.84	3234.62
460.03	3332.92
460.21	3239.30
460.39	3358.67
460.57	3508.46
460.76	3412.50
460.94	3461.65
461.12	3569.32
461.31	3396.12
461.49	3440.59
461.67	3365.69
461.85	3538.89
462.04	3588.04
462.22	3630.17
462.40	3581.02
462.59	3478.04
462.77	3641.87
462.95	3473.36
463.13	3503.78
463.32	3332.92
463.50	3363.35
463.68	3379.73
463.86	3361.01
464.05	3454.63
464.23	3328.24
464.41	3246.32
464.59	3180.79
464.78	3346.97
464.96	3321.22
465.14	3293.13
465.32	3368.03
465.50	3543.57
465.69	3548.25
465.87	3541.23
466.05	3194.83
466.23	3286.11
466.41	3091.85
466.60	3162.06
466.78	3094.19
466.96	3342.28
467.14	3302.50
467.32	3251.00
467.51	3389.10
467.69	3281.43
467.87	3246.32
468.05	3321.22
468.23	3389.10
468.41	3471.01
468.60	3330.58
468.78	3456.97
468.96	3428.88
469.14	3562.30
469.32	3442.93
469.50	3286.11
469.69	3325.90
469.87	3279.09
470.05	3122.27
470.23	3382.07
470.41	3234.62
470.59	3311.86
470.77	3372.71
470.95	3337.60
471.14	3487.40
471.32	3438.25
471.50	3566.98
471.68	3686.34
471.86	3719.11
472.04	3562.30
472.22	3719.11
472.40	3442.93
472.58	3452.29
472.77	3382.07
472.95	3445.27
473.13	3471.01
473.31	3445.27
473.49	3485.06
473.67	3611.45
473.85	3660.60
474.03	3674.64
474.21	3644.21
474.39	3749.54
474.57	3786.99
474.75	3758.90
474.93	3852.52
475.12	3737.84
475.30	3676.98
475.48	3684.00
475.66	3730.81
475.84	3646.55
476.02	3693.37
476.20	3564.64
476.38	3679.32
476.56	3845.50
476.74	3885.29
476.92	3779.97
477.10	3911.04
477.28	4121.68
477.46	3985.93
477.64	4107.64
477.82	3974.23
478.00	4166.15
478.18	3978.91
478.36	3978.91
478.54	3918.06
478.72	4119.34
478.90	4011.68
479.08	4215.30
479.26	4255.09
479.44	4308.93
479.62	4334.67
479.80	4187.22
479.98	4301.90
480.16	4273.82
480.34	4322.97
480.52	4318.29
480.70	4252.75
480.88	4369.78
481.06	4355.74
481.24	4428.29
481.41	4449.36
481.59	4678.73
481.77	4517.23
481.95	4390.84
482.13	4463.40
482.31	4432.97
482.49	4491.49
482.67	4573.41
482.85	4461.06
483.03	4603.83
483.21	4676.39
483.39	4648.30
483.57	4552.34
483.74	4493.83
483.92	4470.42
484.10	4507.87
484.28	4662.35
484.46	4713.84
484.64	4718.52
484.82	4784.06
485.00	4683.41
485.18	4606.17
485.35	4489.15
485.53	4011.68
485.71	3571.66
485.89	3716.77
486.07	3829.12
486.25	4135.73
486.43	4409.57
486.61	4601.49
486.78	4404.89
486.96	4650.64
487.14	4748.95
487.32	4718.52
487.50	4931.51
487.68	5130.45
487.85	5280.25
488.03	5050.88
488.21	5200.67
488.39	4997.04
488.57	4997.04
488.75	4821.50
488.92	4903.42
489.10	5334.08
489.28	5551.75
489.46	5661.76
489.64	5652.39
489.81	5750.70
489.99	5533.03
490.17	5591.54
490.35	5666.44
490.53	5689.84
490.70	5671.12
490.88	5462.81
491.06	5846.66
491.24	5696.86
491.41	5558.77
491.59	5039.17
491.77	5060.24
491.95	5277.91
492.13	5284.93
492.30	5680.48
492.48	5827.93
492.66	6010.50
492.84	5959.00
493.01	5809.21
493.19	5687.50
493.37	5694.52
493.54	5820.91
493.72	5792.83
493.90	5973.05
494.08	6129.86
494.25	6181.35
494.43	6326.47
494.61	6146.25
494.79	6328.81
494.96	6436.47
495.14	6038.58
495.32	5851.34
495.49	5998.79
495.67	6176.67
495.85	6314.77
496.02	6410.73
496.20	6338.17
496.38	6377.96
496.55	6291.36
496.73	6436.47
496.91	6516.05
497.09	6473.92
497.26	6649.46
497.44	6499.67
497.62	6256.25
497.79	6108.80
497.97	5820.91
498.14	5767.08
498.32	6160.29
498.50	6349.87
498.67	6370.94
498.85	6190.72
499.03	6604.99
499.20	6553.50
499.38	6593.29
499.56	6368.60
499.73	6518.39
499.91	6394.34
500.08	6473.92
500.26	6057.31
500.44	6090.07
500.61	6317.11
500.79	6296.04
500.97	5959.00
501.14	6092.41
501.32	6136.88
501.49	5968.37
501.67	5954.32
501.84	6120.50
502.02	6153.27
502.20	6427.11
502.37	6544.14
502.55	6305.40
502.72	6747.76
502.90	6686.91
503.07	6499.67
503.25	6473.92
503.43	6286.68
503.60	6333.49
503.78	5970.71
503.95	6200.08
504.13	6450.52
504.30	6551.16
504.48	6588.61
504.65	6457.54
504.83	6436.47
505.01	6682.23
505.18	6537.12
505.36	6871.81
505.53	6869.47
505.71	6970.12
505.88	6993.52
506.06	6839.05
506.23	6614.35
506.41	6600.31
506.58	6703.29
506.76	6642.44
506.93	6590.95
507.11	6654.14
507.28	6696.27
507.46	6525.41
507.63	6202.42
507.81	6260.93
507.98	6424.77
508.16	6642.44
508.33	6656.48
508.50	6825.00
508.68	6817.98
508.85	6974.80
509.03	7037.99
509.20	6958.41
509.38	6569.88
509.55	6471.58
509.73	6663.51
509.90	6658.82
510.08	6635.42
510.25	6787.55
510.42	6705.63
510.60	6693.93
510.77	6761.81
510.95	6930.33
511.12	6782.87
511.30	6864.79
511.47	7007.56
511.64	7047.35
511.82	6899.90
511.99	6733.72
512.17	6523.07
512.34	6558.18
512.51	6656.48
512.69	6640.10
512.86	6583.93
513.04	6665.85
513.21	6649.46
513.38	6766.49
513.56	6675.21
513.73	6176.67
513.90	6239.87
514.08	6331.15
514.25	6478.60
514.43	6600.31
514.60	6710.32
514.77	6691.59
514.95	6586.27
515.12	6609.67
515.29	6516.05
515.47	6836.70
515.64	6878.83
515.81	6670.53
515.99	6520.73
516.16	6352.21
516.33	5912.19
516.51	5390.25
516.68	5352.81
516.85	5233.44
517.03	5437.06
517.20	5844.32
517.37	6485.62
517.54	6726.70
517.72	6452.86
517.89	5795.17
518.06	5448.77
518.24	5320.04
518.41	5951.98
518.58	6274.98
518.75	6296.04
518.93	6223.48
519.10	6282.00
519.27	6359.24
519.45	6389.66
519.62	6764.15
519.79	6782.87
519.96	6677.55
520.14	6682.23
520.31	6246.89
520.48	6136.88
520.65	6298.38
520.83	6675.21
521.00	6759.47
521.17	6394.34
521.34	6560.52
521.52	6658.82
521.69	6752.45
521.86	7007.56
522.03	6855.43
522.20	6434.13
522.38	6324.13
522.55	6143.91
522.72	6272.64
522.89	6347.53
523.07	6525.41
523.24	6509.03
523.41	6836.70
523.58	6918.62
523.75	7089.48
523.92	6895.22
524.10	6637.76
524.27	6775.85
524.44	7019.27
524.61	6874.15
524.78	6839.05
524.96	6623.72
525.13	6689.25
525.30	6885.86
525.47	6796.92
525.64	6846.07
525.81	6782.87
525.98	6300.72
526.16	6050.28
526.33	5818.57
526.50	5769.42
526.67	5863.04
526.84	5888.79
527.01	6029.22
527.18	6183.70
527.36	6427.11
527.53	6553.50
527.70	6768.83
527.87	6487.96
528.04	6480.94
528.21	6565.20
528.38	6822.66
528.55	6967.77
528.72	6792.23
528.89	7098.84
529.07	6974.80
529.24	6668.19
529.41	6567.54
529.58	6553.50
529.75	6562.86
529.92	6775.85
530.09	6761.81
530.26	6640.10
530.43	6829.68
530.60	6895.22
530.77	6988.84
530.94	7026.29
531.11	6899.90
531.28	6682.23
531.46	6855.43
531.63	6834.36
531.80	6736.06
531.97	6689.25
532.14	6532.44
532.31	6106.46
532.48	5994.11
532.65	6183.70
532.82	6333.49
532.99	6466.90
533.16	6633.08
533.33	6628.40
533.50	6654.14
533.67	6422.43
533.84	6328.81
534.01	6415.41
534.18	6609.67
534.35	6677.55
534.52	6480.94
534.69	6417.75
534.86	6731.38
535.03	6743.08
535.20	6956.07
535.37	6855.43
535.54	6935.01
535.71	6885.86
535.88	6686.91
536.05	6644.78
536.22	6600.31
536.38	6298.38
536.55	6256.25
536.72	6176.67
536.89	6045.60
537.06	6406.05
537.23	6619.04
537.40	6436.47
537.57	6616.69
537.74	6431.79
537.91	6480.94
538.08	6518.39
538.25	6569.88
538.42	6628.40
538.59	6586.27
538.75	6267.95
538.92	6443.49
539.09	6221.14
539.26	6193.06
539.43	6136.88
539.60	6190.72
539.77	6174.33
539.94	6319.45
540.11	6026.88
540.28	5905.17
540.44	5994.11
540.61	6026.88
540.78	6071.35
540.95	6179.01
541.12	6225.82
541.29	6457.54
541.46	6279.66
541.62	6422.43
541.79	6473.92
541.96	6221.14
542.13	6094.76
542.30	6410.73
542.47	6134.54
542.63	6244.55
542.80	6164.97
542.97	6246.89
543.14	5991.77
543.31	6284.34
543.48	6422.43
543.64	6520.73
543.81	6562.86
543.98	6649.46
544.15	6333.49
544.32	6310.08
544.48	6282.00
544.65	6469.24
544.82	6424.77
544.99	6291.36
545.16	6310.08
545.32	6174.33
545.49	6576.91
545.66	6588.61
545.83	6256.25
546.00	6312.42
546.16	6120.50
546.33	6427.11
546.50	6235.19
546.67	6305.40
546.83	6160.29
547.00	6352.21
547.17	6122.84
547.34	5991.77
547.50	5909.85
547.67	6167.31
547.84	6012.84
548.00	6249.23
548.17	6237.53
548.34	5963.68
548.51	6406.05
548.67	6155.61
548.84	6307.74
549.01	6312.42
549.18	6174.33
549.34	6267.95
549.51	6253.91
549.68	6340.51
549.84	6167.31
550.01	6080.71
550.18	6071.35
550.34	5994.11
550.51	5954.32
550.68	6120.50
550.84	6043.26
551.01	6040.92
551.18	5994.11
551.34	6047.94
551.51	6221.14
551.68	6349.87
551.84	6200.08
552.01	6253.91
552.18	6080.71
552.34	5991.77
552.51	5853.68
552.68	5832.62
552.84	5996.45
553.01	5914.53
553.18	5977.73
553.34	5926.24
553.51	6129.86
553.67	6291.36
553.84	6167.31
554.01	6139.23
554.17	5987.09
554.34	5898.15
554.51	6193.06
554.67	5954.32
554.84	6064.33
555.00	6045.60
555.17	6012.84
555.33	5935.60
555.50	6127.52
555.67	6090.07
555.83	5919.21
556.00	5949.64
556.16	5710.91
556.33	5778.78
556.50	5741.33
556.66	5757.72
556.83	5607.92
556.99	5764.74
557.16	5696.86
557.32	5760.06
557.49	5933.26
557.65	5970.71
557.82	5905.17
557.98	5783.46
558.15	5741.33
558.32	5544.73
558.48	5404.30
558.65	5537.71
558.81	5406.64
558.98	5582.18
559.14	5549.41
559.31	5603.24
559.47	5636.01
559.64	5561.11
559.80	5357.49
559.97	5540.05
560.13	5640.69
560.30	5652.39
560.46	5853.68
560.63	5757.72
560.79	5916.87
560.96	5844.32
561.12	5504.94
561.29	5336.42
561.45	5544.73
561.61	5404.30
561.78	5666.44
561.94	5631.33
562.11	5558.77
562.27	5582.18
562.44	5511.96
562.60	5755.38
562.77	5575.16
562.93	5591.54
563.10	5617.29
563.26	5558.77
563.42	5537.71
563.59	5483.88
563.75	5507.28
563.92	5542.39
564.08	5518.98
564.24	5556.43
564.41	5507.28
564.57	5518.98
564.74	5406.64
564.90	5500.26
565.07	5348.12
565.23	5184.29
565.39	5200.67
565.56	5217.05
565.72	5186.63
565.88	5200.67
566.05	5320.04
566.21	5245.14
566.38	5177.26
566.54	5397.28
566.70	5362.17
566.87	5607.92
567.03	5451.11
567.19	5474.51
567.36	5495.58
567.52	5439.40
567.68	5406.64
567.85	5383.23
568.01	5088.32
568.17	5205.35
568.34	5114.07
568.50	5259.18
568.66	5170.24
568.83	5242.80
568.99	5245.14
569.15	5210.03
569.32	5308.34
569.48	5203.01
569.64	5123.43
569.81	5135.14
569.97	5130.45
570.13	5116.41
570.30	5078.96
570.46	4983.00
570.62	4713.84
570.78	4868.31
570.95	4805.12
571.11	5039.17
571.27	5078.96
571.43	5132.79
571.60	5090.67
571.76	5149.18
571.92	4994.70
572.09	5130.45
572.25	5078.96
572.41	5125.77
572.57	5224.08
572.74	5160.88
572.90	5233.44
573.06	5170.24
573.22	5053.22
573.38	5142.16
573.55	5128.11
573.71	5088.32
573.87	5095.35
574.03	5153.86
574.20	5104.71
574.36	5029.81
574.52	4947.89
574.68	5027.47
574.84	4950.23
575.01	4884.70
575.17	4812.14
575.33	4896.40
575.49	4884.70
575.65	5055.56
575.82	4912.78
575.98	4858.95
576.14	4854.27
576.30	5039.17
576.46	4994.70
576.62	4903.42
576.79	5011.09
576.95	4931.51
577.11	4931.51
577.27	4833.21
577.43	4800.44
577.59	4858.95
577.75	4865.97
577.92	4636.60
578.08	4542.98
578.24	4652.98
578.40	4664.69
578.56	4610.86
578.72	4648.30
578.88	4697.46
579.04	4662.35
579.21	4865.97
579.37	4833.21
579.53	4954.91
579.69	4774.69
579.85	4898.74
580.01	4814.48
580.17	4643.62
580.33	4669.37
580.49	4793.42
580.65	4704.48
580.82	4681.07
580.98	4779.37
581.14	4849.59
581.30	4849.59
581.46	4674.05
581.62	4851.93
581.78	4774.69
581.94	4755.97
582.10	4739.58
582.26	4896.40
582.42	4678.73
582.58	4805.12
582.74	4798.10
582.90	4788.74
583.06	4891.72
583.22	4629.58
583.38	4823.84
583.54	4805.12
583.70	4697.46
583.86	4589.79
584.02	4636.60
584.18	4732.56
584.34	4709.16
584.50	4662.35
584.66	4566.39
584.82	4557.02
584.98	4608.51
585.14	4627.24
585.30	4388.50
585.46	4540.64
585.62	4409.57
585.78	4545.32
585.94	4409.57
586.10	4524.26
586.26	4458.72
586.42	4470.42
586.58	4482.13
586.74	4526.60
586.90	4505.53
587.06	4414.25
587.22	4711.50
587.38	4432.97
587.54	4418.93
587.70	4561.70
587.86	4341.69
588.02	4290.20
588.18	4365.10
588.34	4046.79
588.49	3861.88
588.65	3566.98
588.81	3749.54
588.97	3684.00
589.13	3667.62
589.29	3646.55
589.45	3707.41
589.61	3896.99
589.77	3992.95
589.93	4222.33
590.08	4163.81
590.24	4376.80
590.40	4229.35
590.56	4287.86
590.72	4376.80
590.88	4334.67
591.04	4128.70
591.20	4180.20
591.35	4238.71
591.51	4294.88
591.67	4102.96
591.83	4201.26
591.99	4032.74
592.15	4159.13
592.31	4290.20
592.46	4084.23
592.62	3999.98
592.78	4266.80
592.94	4147.43
593.10	4112.32
593.26	4135.73
593.41	4215.30
593.57	4219.99
593.73	4044.45
593.89	4032.74
594.05	3988.27
594.20	3904.01
594.36	4014.02
594.52	3920.40
594.68	3920.40
594.84	4070.19
594.99	4007.00
595.15	4093.60
595.31	4145.09
595.47	4208.28
595.62	4109.98
595.78	4107.64
595.94	4205.94
596.10	4166.15
596.25	4109.98
596.41	3971.89
596.57	4011.68
596.73	4124.02
596.88	4117.00
597.04	4135.73
597.20	3974.23
597.36	3829.12
597.51	3904.01
597.67	3981.25
597.83	3911.04
