SpectraSuite Data File
++++++++++++++++++++++++++++++++++++
Date: Mon Oct 07 14:53:03 GMT-05:00 2013
User: price-jones
Dark Spectrum Present: No
Reference Spectrum Present: No
Number of Sampled Component Spectra: 1
Spectrometers: USB2+H05261
Integration Time (usec): 100000 (USB2+H05261)
Spectra Averaged: 1 (USB2+H05261)
Boxcar Smoothing: 0 (USB2+H05261)
Correct for Electrical Dark: No (USB2+H05261)
Strobe/Lamp Enabled: No (USB2+H05261)
Correct for Detector Non-linearity: No (USB2+H05261)
Correct for Stray Light: No (USB2+H05261)
Number of Pixels in Processed Spectrum: 2048
>>>>>Begin Processed Spectral Data<<<<<
365.73	0.00
365.92	0.00
366.12	0.00
366.32	0.00
366.52	0.00
366.72	0.00
366.91	0.00
367.11	0.00
367.31	0.00
367.51	0.00
367.70	0.00
367.90	0.00
368.10	0.00
368.30	0.00
368.49	0.00
368.69	0.00
368.89	0.00
369.09	0.00
369.28	0.00
369.48	0.00
369.68	0.00
369.87	0.00
370.07	0.00
370.27	0.00
370.47	489.17
370.66	2623.74
370.86	3056.74
371.06	3417.18
371.25	3377.39
371.45	3084.83
371.65	2726.72
371.84	2431.82
372.04	2715.02
372.24	2970.14
372.44	3148.02
372.63	3047.38
372.83	2885.88
373.03	2569.91
373.22	2356.92
373.42	2354.58
373.62	2846.09
373.81	3094.19
374.01	3133.98
374.21	2785.24
374.40	2511.39
374.60	2668.21
374.79	3105.89
374.99	3559.95
375.19	3889.97
375.38	3770.60
375.58	3550.59
375.78	3459.31
375.97	3527.19
376.17	3782.31
376.37	3595.06
376.56	3808.05
376.76	4072.53
376.95	4208.28
377.15	4557.02
377.35	4903.42
377.54	5001.72
377.74	5060.24
377.93	5022.79
378.13	4863.63
378.33	4638.94
378.52	4318.29
378.72	4135.73
378.91	4023.38
379.11	3978.91
379.31	3904.01
379.50	3744.86
379.70	4095.94
379.89	4470.42
380.09	4917.47
380.28	5011.09
380.48	4945.55
380.68	4814.48
380.87	4713.84
381.07	4308.93
381.26	4025.72
381.46	3786.99
381.65	3681.66
381.85	3676.98
382.04	3480.38
382.24	3260.37
382.43	2998.23
382.63	2930.35
382.83	3047.38
383.02	3056.74
383.22	3026.31
383.41	3026.31
383.61	3239.30
383.80	3672.30
384.00	4196.58
384.19	4517.23
384.39	4933.85
384.58	4992.36
384.78	4767.67
384.97	4755.97
385.17	4533.62
385.36	4224.67
385.56	4168.49
385.75	4266.80
385.95	4823.84
386.14	5165.56
386.34	5165.56
386.53	4819.16
386.72	4479.79
386.92	4798.10
387.11	4994.70
387.31	4842.57
387.50	5027.47
387.70	4854.27
387.89	4793.42
388.09	5036.83
388.28	4868.31
388.48	4931.51
388.67	5329.40
388.86	5788.14
389.06	6352.21
389.25	6635.42
389.45	6581.59
389.64	6600.31
389.84	6410.73
390.03	6581.59
390.22	6406.05
390.42	6424.77
390.61	6977.14
390.81	7538.87
391.00	7742.49
391.19	7517.80
391.39	7325.88
391.58	7042.67
391.78	6511.37
391.97	6452.86
392.16	5884.11
392.36	5322.38
392.55	4070.19
392.75	3435.91
392.94	2759.49
393.13	2768.85
393.33	3342.28
393.52	4215.30
393.71	5076.62
393.91	5783.46
394.10	6349.87
394.29	7007.56
394.49	7557.59
394.68	7868.88
394.88	8102.93
395.07	8292.52
395.26	8079.53
395.46	7896.97
395.65	7496.74
395.84	6494.99
396.04	5638.35
396.23	4472.76
396.42	3824.44
396.62	3634.85
396.81	4210.62
397.00	5605.58
397.19	6759.47
397.39	8156.77
397.58	9200.65
397.77	9572.79
397.97	9863.02
398.16	10115.80
398.35	10443.47
398.55	10729.02
398.74	11159.67
398.93	11508.41
399.12	11213.51
399.32	10841.36
399.51	10892.85
399.70	11831.41
399.90	11707.36
400.09	11838.43
400.28	11599.70
400.47	11805.66
400.67	12280.79
400.86	12709.11
401.05	12423.56
401.24	12664.64
401.44	13074.23
401.63	12776.98
401.82	12964.23
402.01	12851.88
402.21	13114.02
402.40	13069.55
402.59	12709.11
402.78	12217.60
402.97	11791.62
403.17	12166.10
403.36	12840.18
403.55	13448.72
403.74	13774.05
403.93	13240.41
404.13	11934.39
404.32	11798.64
404.51	12346.33
404.70	13706.18
404.89	13329.35
405.09	13294.24
405.28	12943.16
405.47	12791.03
405.66	12802.73
405.85	12313.56
406.05	12154.40
406.24	12458.67
406.43	12683.36
406.62	13277.86
406.81	13151.47
407.00	12767.62
407.20	12498.46
407.39	12791.03
407.58	13195.94
407.77	13799.80
407.96	14003.43
408.15	14239.82
408.34	14569.83
408.54	14981.77
408.73	15126.88
408.92	14719.63
409.11	14373.23
409.30	13689.79
409.49	12882.31
409.68	12194.19
409.87	11866.52
410.07	12746.56
410.26	13694.47
410.45	14242.16
410.64	14471.53
410.83	15009.86
411.02	15398.38
411.21	16318.22
411.40	15868.83
411.59	16219.91
411.78	15688.61
411.98	15538.82
412.17	15995.22
412.36	15594.99
412.55	15555.20
412.74	15559.88
412.93	14885.81
413.12	15295.40
413.31	16636.53
413.50	16905.69
413.69	16816.75
413.88	16194.17
414.07	15819.68
414.26	16163.74
414.45	16699.72
414.64	16875.26
414.83	16872.92
415.02	16313.53
415.22	16472.69
415.41	16681.00
415.60	17453.37
415.79	17926.16
415.98	18377.89
416.17	18345.12
416.36	17884.03
416.55	17689.77
416.74	17104.64
416.93	16318.22
417.12	16699.72
417.31	16645.89
417.50	17078.89
417.69	17734.24
417.88	17811.48
418.07	17392.52
418.26	17102.29
418.45	17537.63
418.64	17893.40
418.83	18478.53
419.02	18317.03
419.21	18209.37
419.39	17385.50
419.58	16575.67
419.77	16610.78
419.96	17549.34
420.15	18384.91
420.34	18836.63
420.53	19754.12
420.72	20168.40
420.91	19541.13
421.10	19625.39
421.29	19384.32
421.48	18834.29
421.67	19726.04
421.86	19063.66
422.05	17750.62
422.24	15861.81
422.43	15634.78
422.61	17240.39
422.80	18740.67
422.99	18803.86
423.18	18312.35
423.37	17759.98
423.56	17776.37
423.75	18246.82
423.94	18434.06
424.13	17308.26
424.32	17799.77
424.50	17486.14
424.69	17214.64
424.88	17561.04
425.07	17626.57
425.26	17792.75
425.45	17329.33
425.64	16854.20
425.83	16959.52
426.01	18200.01
426.20	18403.63
426.39	18256.18
426.58	16973.56
426.77	15597.33
426.96	15101.14
427.15	15838.41
427.33	17149.11
427.52	17511.89
427.71	17926.16
427.90	17745.94
428.09	17179.53
428.28	16961.86
428.46	16554.61
428.65	16184.80
428.84	16720.79
429.03	17018.04
429.22	16079.48
429.40	15358.60
429.59	13706.18
429.78	12175.47
429.97	12266.75
430.16	12416.54
430.34	12741.88
430.53	12327.60
430.72	12996.99
430.91	14235.14
431.10	16669.30
431.28	19405.38
431.47	21207.59
431.66	20959.50
431.85	19190.05
432.03	17673.39
432.22	16924.41
432.41	17717.86
432.60	20126.27
432.79	20577.99
432.97	20994.61
433.16	20381.38
433.35	18555.77
433.54	16617.80
433.72	15815.00
433.91	16367.37
434.10	18347.46
434.28	19496.66
434.47	20266.70
434.66	20278.40
434.85	19695.61
435.03	19662.84
435.22	20027.96
435.41	21301.22
435.59	21188.87
435.78	21502.50
435.97	22249.13
436.16	22134.45
436.34	22054.87
436.53	21652.30
436.72	21348.03
436.90	20402.45
437.09	20360.32
437.28	19857.10
437.46	20671.61
437.65	20695.02
437.84	18871.74
438.02	17741.26
438.21	17523.59
438.40	18696.20
438.58	20006.90
438.77	20702.04
438.96	21102.27
439.14	21968.27
439.33	22190.62
439.52	22684.47
439.70	21727.19
439.89	21715.49
440.08	20868.22
440.26	20868.22
440.45	21926.14
440.63	23194.71
440.82	24547.54
441.01	23833.68
441.19	23782.18
441.38	24269.01
441.57	25057.78
441.75	25465.03
441.94	25872.28
442.12	25418.22
442.31	26045.48
442.50	25827.81
442.68	25563.33
442.87	25284.81
443.05	24826.06
443.24	25240.34
443.43	25523.54
443.61	26132.08
443.80	26558.06
443.98	25221.61
444.17	24884.58
444.35	26441.03
444.54	26918.50
444.73	26890.41
444.91	25448.64
445.10	24278.38
445.28	23379.61
445.47	23178.33
445.65	23049.60
445.84	24039.64
446.02	24531.15
446.21	25078.84
446.39	25174.80
446.58	25563.33
446.77	25757.60
446.95	26148.46
447.14	26969.99
447.32	27435.76
447.51	26642.32
447.69	25675.68
447.88	25472.05
448.06	25652.27
448.25	26319.32
448.43	26639.98
448.62	26015.05
448.80	25621.84
448.99	25993.99
449.17	26424.65
449.36	26235.06
449.54	27026.17
449.73	27756.41
449.91	28135.58
450.10	28568.58
450.28	29294.14
450.46	28980.51
450.65	28554.54
450.83	28662.20
451.02	28261.97
451.20	28634.11
451.39	27644.07
451.57	27309.37
451.76	27840.67
451.94	27601.94
452.13	27292.99
452.31	25682.70
452.49	24650.52
452.68	25163.10
452.86	25207.57
453.05	25846.54
453.23	26441.03
453.42	27075.32
453.60	27543.42
453.78	27679.18
453.97	27751.73
454.15	27328.10
454.34	26483.16
454.52	26747.64
454.70	26522.95
454.89	26740.62
455.07	26813.18
455.26	27330.44
455.44	28325.16
455.62	28837.74
455.81	29427.56
455.99	28332.18
456.17	28615.39
456.36	28622.41
456.54	29163.08
456.73	29502.45
456.91	29811.40
457.09	29926.09
457.28	30284.19
457.46	29099.88
457.64	28659.86
457.83	28348.57
458.01	27419.38
458.19	28147.28
458.38	28407.08
458.56	29514.16
458.74	29298.83
458.93	28577.94
459.11	28531.13
459.29	28367.29
459.48	28582.62
459.66	28257.29
459.84	28519.43
460.03	29378.40
460.21	28994.56
460.39	30010.35
460.57	30239.72
460.76	30480.80
460.94	30375.47
461.12	29778.64
461.31	29525.86
461.49	30129.72
461.67	29680.33
461.85	30679.74
462.04	30890.39
462.22	30955.93
462.40	30630.59
462.59	30675.06
462.77	30742.94
462.95	30515.90
463.13	30471.43
463.32	30478.46
463.50	29979.92
463.68	30096.95
463.86	29677.99
464.05	29544.58
464.23	29010.94
464.41	29008.60
464.59	28268.99
464.78	30195.25
464.96	29575.01
465.14	29345.64
465.32	30092.27
465.50	30834.22
465.69	30920.82
465.87	30448.03
466.05	30019.71
466.23	28137.92
466.41	27587.89
466.60	28629.43
466.78	28425.81
466.96	29113.92
467.14	29467.34
467.32	29993.97
467.51	29958.86
467.69	28444.53
467.87	29315.21
468.05	29783.32
468.23	29790.34
468.41	29790.34
468.60	29586.71
468.78	30047.80
468.96	29530.54
469.14	30338.02
469.32	30263.13
469.50	29172.44
469.69	29287.12
469.87	28713.69
470.05	28774.55
470.23	28849.44
470.41	28769.86
470.59	29483.73
470.77	29385.43
470.95	30204.61
471.14	30270.15
471.32	30143.76
471.50	32290.03
471.68	32074.70
471.86	32470.25
472.04	32701.96
472.22	32591.96
472.40	30984.01
472.58	30941.88
472.77	30483.14
472.95	31314.03
473.13	32130.87
473.31	31152.53
473.49	31119.76
473.67	31882.78
473.85	32451.53
474.03	32776.86
474.21	33137.30
474.39	33448.60
474.57	33380.72
474.75	33668.61
474.93	33280.08
475.12	32519.40
475.30	32844.74
475.48	32449.19
475.66	33638.18
475.84	32739.41
476.02	32449.19
476.20	32297.05
476.38	32793.25
476.56	33486.04
476.74	34040.75
476.92	33940.11
477.10	34885.68
477.28	35913.18
477.46	36011.48
477.64	36870.46
477.82	36397.67
478.00	36395.33
478.18	35627.63
478.36	35690.83
478.54	35538.69
478.72	35896.80
478.90	36624.70
479.08	37954.13
479.26	38424.57
479.44	38120.31
479.62	37771.57
479.80	38096.90
479.98	38192.86
480.16	38497.13
480.34	37893.27
480.52	38553.30
480.70	38965.24
480.88	38359.04
481.06	39381.85
481.24	39597.18
481.41	40465.52
481.59	41301.09
481.77	40315.73
481.95	40088.70
482.13	40470.20
482.31	40442.12
482.49	40563.82
482.67	40868.09
482.85	41060.02
483.03	41373.65
483.21	41933.04
483.39	41876.86
483.57	41549.19
483.74	41345.56
483.92	41280.03
484.10	41509.40
484.28	42682.01
484.46	42789.67
484.64	43096.28
484.82	42155.39
485.00	41977.51
485.18	40605.95
485.35	39756.34
485.53	36671.51
485.71	33420.51
485.89	33563.28
486.07	35061.22
486.25	38284.14
486.43	39978.69
486.61	40753.41
486.78	40823.62
486.96	40741.71
487.14	42384.76
487.32	43632.27
487.50	44570.82
487.68	45846.41
487.85	46295.80
488.03	46270.05
488.21	45485.97
488.39	45083.40
488.57	44126.12
488.75	43690.78
488.92	45343.20
489.10	47969.28
489.28	49146.57
489.46	49764.47
489.64	49476.58
489.81	49965.76
489.99	49331.47
490.17	49689.57
490.35	49804.26
490.53	49184.02
490.70	48516.96
490.88	48985.07
491.06	49848.73
491.24	50122.57
491.41	48523.99
491.59	46803.69
491.77	45902.59
491.95	47295.21
492.13	48238.44
492.30	49876.82
492.48	51030.70
492.66	51365.40
492.84	51461.36
493.01	51159.43
493.19	50660.90
493.37	50052.36
493.54	50244.28
493.72	50951.12
493.90	51845.21
494.08	52526.30
494.25	53106.76
494.43	53322.08
494.61	53595.93
494.79	53624.01
494.96	53621.67
495.14	52655.03
495.32	51793.71
495.49	51304.54
495.67	52458.43
495.85	53670.82
496.02	54204.47
496.20	53942.33
496.38	53277.61
496.55	53464.86
496.73	53867.43
496.91	53944.67
497.09	54466.61
497.26	54808.32
497.44	54349.58
497.62	53649.76
497.79	52949.94
497.97	51168.79
498.14	51791.37
498.32	53045.90
498.50	53916.58
498.67	54482.99
498.85	54569.59
499.03	54712.36
499.20	54908.97
499.38	55025.99
499.56	54731.09
499.73	54162.34
499.91	53649.76
500.08	52999.09
500.26	52540.35
500.44	53017.82
500.61	53879.13
500.79	53420.39
500.97	53109.10
501.14	53055.26
501.32	52704.18
501.49	52655.03
501.67	53111.44
501.84	53792.53
502.02	54148.29
502.20	54344.90
502.37	54380.01
502.55	54499.37
502.72	55182.81
502.90	55494.10
503.07	55018.97
503.25	54665.55
503.43	53710.61
503.60	53001.43
503.78	52420.98
503.95	53214.42
504.13	54719.38
504.30	55454.31
504.48	55257.71
504.65	54424.48
504.83	54915.99
505.01	55583.04
505.18	55791.35
505.36	56514.58
505.53	56715.86
505.71	56783.74
505.88	56807.14
506.06	56002.00
506.23	55781.99
506.41	55269.41
506.58	55529.21
506.76	55671.98
506.93	55386.44
507.11	55533.89
507.28	55531.55
507.46	54784.92
507.63	54127.23
507.81	54115.53
507.98	54656.19
508.16	55271.75
508.33	55838.16
508.50	56140.09
508.68	56200.94
508.85	57045.88
509.03	56797.78
509.20	56671.39
509.38	55913.06
509.55	55145.36
509.73	55533.89
509.90	55842.84
510.08	56303.93
510.25	56067.53
510.42	55739.86
510.60	55641.56
510.77	56093.28
510.95	56797.78
511.12	56720.54
511.30	57333.76
511.47	57558.45
511.64	57317.38
511.82	56891.40
511.99	55983.27
512.17	55643.90
512.34	55540.91
512.51	55487.08
512.69	56011.36
512.86	55810.07
513.04	56034.77
513.21	56282.86
513.38	55746.88
513.56	55140.68
513.73	54499.37
513.90	55201.53
514.08	55007.27
514.25	55423.89
514.43	55702.41
514.60	55721.13
514.77	55870.93
514.95	55861.57
515.12	56048.81
515.29	56027.74
515.47	56626.92
515.64	57055.24
515.81	56388.19
515.99	55721.13
516.16	54052.33
516.33	51845.21
516.51	50209.17
516.68	49275.30
516.85	48423.34
517.03	49584.25
517.20	52580.13
517.37	54784.92
517.54	55948.17
517.72	55341.97
517.89	52629.29
518.06	50309.82
518.24	50674.94
518.41	53146.54
518.58	54398.73
518.75	54766.20
518.93	54740.45
519.10	54796.62
519.27	55316.22
519.45	55519.85
519.62	56233.71
519.79	56453.72
519.96	56584.79
520.14	55908.38
520.31	54857.48
520.48	55016.63
520.65	55533.89
520.83	56397.55
521.00	56877.36
521.17	56495.85
521.34	55922.42
521.52	56456.06
521.69	56952.26
521.86	57237.80
522.03	56973.32
522.20	55606.45
522.38	54824.71
522.55	54855.14
522.72	55648.58
522.89	55587.72
523.07	55695.39
523.24	56023.06
523.41	56987.36
523.58	57322.06
523.75	57682.50
523.92	57525.69
524.10	57556.11
524.27	57462.49
524.44	57233.12
524.61	57041.20
524.78	56912.47
524.96	56793.10
525.13	56924.17
525.30	57083.33
525.47	57523.35
525.64	57560.79
525.81	56566.07
525.98	55168.77
526.16	53734.02
526.33	53043.56
526.50	52509.92
526.67	52472.47
526.84	53116.12
527.01	54010.20
527.18	55182.81
527.36	55767.94
527.53	56652.67
527.70	57155.88
527.87	56336.69
528.04	56032.42
528.21	56268.82
528.38	57394.62
528.55	57881.45
528.72	57949.32
528.89	58138.91
529.07	57558.45
529.24	57268.23
529.41	56491.17
529.58	55882.63
529.75	56095.62
529.92	56636.28
530.09	57083.33
530.26	57530.37
530.43	57939.96
530.60	57876.77
530.77	58082.73
530.94	58267.64
531.11	57741.02
531.28	57396.96
531.46	56975.66
531.63	57172.27
531.80	57006.09
531.97	56458.40
532.14	56069.87
532.31	54827.05
532.48	54101.48
532.65	54351.92
532.82	55243.66
532.99	56332.01
533.16	56516.92
533.33	57317.38
533.50	56910.13
533.67	56226.69
533.84	55938.80
534.01	56385.85
534.18	56154.13
534.35	56435.00
534.52	56371.80
534.69	56713.52
534.86	56853.95
535.03	57336.10
535.20	57719.95
535.37	57991.45
535.54	57876.77
535.71	57811.23
535.88	57357.17
536.05	56788.42
536.22	56743.95
536.38	56107.32
536.55	55735.18
536.72	55150.04
536.89	55089.19
537.06	56226.69
537.23	56765.01
537.40	56905.44
537.57	57071.62
537.74	56708.84
537.91	56643.30
538.08	56830.55
538.25	57048.22
538.42	56868.00
538.59	56615.22
538.75	55922.42
538.92	55924.76
539.09	55873.27
539.26	55337.29
539.43	55426.23
539.60	55484.74
539.77	55515.17
539.94	55599.43
540.11	54424.48
540.28	54218.51
540.44	54131.91
540.61	54499.37
540.78	54618.74
540.95	55405.16
541.12	55449.63
541.29	56051.15
541.46	56231.37
541.62	56123.71
541.79	55978.59
541.96	55620.49
542.13	55515.17
542.30	55927.10
542.47	55906.04
542.63	55604.11
542.80	55379.42
542.97	55831.14
543.14	55604.11
543.31	55423.89
543.48	56004.34
543.64	56868.00
543.81	57048.22
543.98	56886.72
544.15	55992.64
544.32	55480.06
544.48	55882.63
544.65	56222.01
544.82	56753.31
544.99	56109.66
545.16	55796.03
545.32	55814.76
545.49	56535.64
545.66	56760.33
545.83	56296.91
546.00	55973.91
546.16	55494.10
546.33	55859.23
546.50	56025.40
546.67	56533.30
546.83	55868.59
547.00	55679.00
547.17	55173.45
547.34	54593.00
547.50	54248.94
547.67	55119.62
547.84	55224.94
548.00	55526.87
548.17	55950.51
548.34	55606.45
548.51	55884.97
548.67	55611.13
548.84	55791.35
549.01	55810.07
549.18	55929.44
549.34	55571.34
549.51	55917.74
549.68	55770.28
549.84	55278.77
550.01	55426.23
550.18	55201.53
550.34	55358.35
550.51	55543.25
550.68	55512.83
550.84	54836.41
551.01	55201.53
551.18	55049.40
551.34	55159.41
551.51	55763.26
551.68	55877.95
551.84	55866.25
552.01	55587.72
552.18	55894.33
552.34	54770.88
552.51	54681.94
552.68	54391.71
552.84	54939.39
553.01	55056.42
553.18	54974.50
553.34	55224.94
553.51	55323.24
553.67	55501.12
553.84	55414.52
554.01	55468.36
554.17	55377.08
554.34	55393.46
554.51	55501.12
554.67	55767.94
554.84	55641.56
555.00	55437.93
555.17	55112.59
555.33	54897.27
555.50	55023.65
555.67	55035.36
555.83	55004.93
556.00	54576.61
556.16	54529.80
556.33	54031.27
556.50	53846.36
556.66	54052.33
556.83	53577.20
556.99	54019.56
557.16	53822.96
557.32	54323.83
557.49	54756.83
557.65	54445.54
557.82	54656.19
557.98	54164.68
558.15	54000.84
558.32	53223.78
558.48	52016.07
558.65	52289.91
558.81	53008.45
558.98	53169.95
559.14	53333.79
559.31	53394.64
559.47	53420.39
559.64	53270.59
559.80	52458.43
559.97	52633.97
560.13	53242.51
560.30	54127.23
560.46	54649.17
560.63	54934.71
560.79	54878.54
560.96	54677.25
561.12	53251.87
561.29	52313.31
561.45	52299.27
561.61	53038.88
561.78	53492.94
561.94	53148.88
562.11	53289.32
562.27	53099.73
562.44	53654.44
562.60	53797.21
562.77	54204.47
562.93	53609.97
563.10	53752.74
563.26	53066.97
563.42	53109.10
563.59	53095.05
563.75	52949.94
563.92	53183.99
564.08	52823.55
564.24	53123.14
564.41	53502.31
564.57	53064.63
564.74	52910.15
564.90	53350.17
565.07	52994.41
565.23	52395.23
565.39	51618.17
565.56	51676.69
565.72	51517.53
565.88	51877.97
566.05	52009.04
566.21	51976.28
566.38	52350.76
566.54	52437.36
566.70	52837.59
566.87	53041.22
567.03	53038.88
567.19	53387.62
567.36	52963.98
567.52	52741.63
567.68	52268.84
567.85	51796.06
568.01	51349.01
568.17	51133.68
568.34	50960.48
568.50	51281.14
568.66	51152.41
568.83	51885.00
568.99	51786.69
569.15	51793.71
569.32	52051.17
569.48	51356.03
569.64	51384.12
569.81	50955.80
569.97	50759.20
570.13	50630.47
570.30	50237.26
570.46	49771.49
570.62	49202.74
570.78	49389.98
570.95	49703.62
571.11	50473.65
571.27	50328.54
571.43	50756.86
571.60	51196.88
571.76	51576.04
571.92	51510.51
572.09	51550.30
572.25	51564.34
572.41	51716.48
572.57	51339.65
572.74	51473.06
572.90	51143.05
573.06	50714.73
573.22	51269.43
573.38	50986.23
573.55	50759.20
573.71	51236.67
573.87	50995.59
574.03	51150.07
574.20	51091.55
574.36	50234.92
574.52	50501.74
574.68	50394.07
574.84	49787.88
575.01	49282.32
575.17	49326.79
575.33	49586.59
575.49	50031.29
575.65	49970.44
575.82	49769.15
575.98	49516.37
576.14	49961.08
576.30	49862.77
576.46	50288.75
576.62	49914.26
576.79	50202.15
576.95	49797.24
577.11	49832.35
577.27	49731.70
577.43	49916.61
577.59	49277.64
577.75	48999.12
577.92	48315.68
578.08	47868.64
578.24	48025.45
578.40	48533.35
578.56	48519.31
578.72	48769.74
578.88	48931.24
579.04	49287.00
579.21	49167.63
579.37	49029.54
579.53	49282.32
579.69	49324.45
579.85	49233.17
580.01	49492.97
580.17	48765.06
580.33	48989.75
580.49	48708.89
580.65	49134.87
580.82	49389.98
580.98	49509.35
581.14	49382.96
581.30	49223.81
581.46	48966.35
581.62	49492.97
581.78	49380.62
581.94	49560.84
582.10	49701.28
582.26	49652.12
582.42	49923.63
582.58	49612.34
582.74	49221.47
582.90	49792.56
583.06	49361.90
583.22	49261.26
583.38	49074.01
583.54	49198.06
583.70	49331.47
583.86	49062.31
584.02	49184.02
584.18	48980.39
584.34	49141.89
584.50	49165.29
584.66	48629.31
584.82	48512.28
584.98	48350.79
585.14	47447.34
585.30	46759.22
