SpectraSuite Data File
++++++++++++++++++++++++++++++++++++
Date: Mon Oct 07 14:53:21 GMT-05:00 2013
User: price-jones
Dark Spectrum Present: No
Reference Spectrum Present: No
Number of Sampled Component Spectra: 1
Spectrometers: USB2+H05261
Integration Time (usec): 100000 (USB2+H05261)
Spectra Averaged: 1 (USB2+H05261)
Boxcar Smoothing: 0 (USB2+H05261)
Correct for Electrical Dark: No (USB2+H05261)
Strobe/Lamp Enabled: No (USB2+H05261)
Correct for Detector Non-linearity: No (USB2+H05261)
Correct for Stray Light: No (USB2+H05261)
Number of Pixels in Processed Spectrum: 2048
>>>>>Begin Processed Spectral Data<<<<<
365.73	0.00
365.92	0.00
366.12	0.00
366.32	0.00
366.52	0.00
366.72	0.00
366.91	0.00
367.11	0.00
367.31	0.00
367.51	0.00
367.70	0.00
367.90	0.00
368.10	0.00
368.30	0.00
368.49	0.00
368.69	0.00
368.89	0.00
369.09	0.00
369.28	0.00
369.48	0.00
369.68	0.00
369.87	0.00
370.07	0.00
370.27	0.00
370.47	645.99
370.66	2946.73
370.86	3679.32
371.06	3826.78
371.25	3885.29
371.45	3543.57
371.65	3276.75
371.84	2981.84
372.04	2963.12
372.24	3459.31
372.44	3843.16
372.63	3770.60
372.83	3403.14
373.03	2860.13
373.22	2710.34
373.42	2935.03
373.62	3272.07
373.81	3559.95
374.01	3522.51
374.21	3236.96
374.40	3094.19
374.60	3267.39
374.79	3632.51
374.99	4149.77
375.19	4400.21
375.38	4538.30
375.58	4203.60
375.78	4138.07
375.97	4114.66
376.17	4236.37
376.37	4440.00
376.56	4465.74
376.76	4786.40
376.95	4868.31
377.15	5345.78
377.35	5486.22
377.54	5792.83
377.74	6057.31
377.93	5792.83
378.13	5736.65
378.33	5408.98
378.52	4873.00
378.72	4894.06
378.91	4798.10
379.11	4662.35
379.31	4334.67
379.50	4568.73
379.70	4917.47
379.89	5317.70
380.09	5610.26
380.28	5795.17
380.48	5748.36
380.68	5792.83
380.87	5724.95
381.07	5198.33
381.26	4795.76
381.46	4442.34
381.65	4329.99
381.85	4299.56
382.04	4238.71
382.24	3887.63
382.43	3538.89
382.63	3609.11
382.83	3529.53
383.02	3566.98
383.22	3534.21
383.41	3485.06
383.61	3852.52
383.80	4390.84
384.00	4964.28
384.19	5511.96
384.39	5846.66
384.58	5727.29
384.78	5636.01
384.97	5577.50
385.17	5404.30
385.36	4938.53
385.56	4926.83
385.75	4987.68
385.95	5511.96
386.14	5886.45
386.34	5968.37
386.53	5792.83
386.72	5305.99
386.92	5397.28
387.11	5767.08
387.31	6043.26
387.50	5802.19
387.70	5650.05
387.89	5624.31
388.09	5596.22
388.28	5701.54
388.48	5762.40
388.67	6127.52
388.86	6806.28
389.06	7110.55
389.25	7822.07
389.45	7733.13
389.64	7707.38
389.84	7695.68
390.03	7346.94
390.22	7613.76
390.42	7906.33
390.61	8133.36
390.81	8716.16
391.00	9083.62
391.19	8891.70
391.39	8748.92
391.58	8145.06
391.78	7691.00
391.97	7414.82
392.16	6839.05
392.36	6516.05
392.55	5011.09
392.75	4042.11
392.94	3251.00
393.13	3220.58
393.33	3744.86
393.52	4954.91
393.71	6160.29
393.91	6911.60
394.10	7262.68
394.29	8088.89
394.49	8798.07
394.68	9455.76
394.88	9554.07
395.07	9792.80
395.26	9722.59
395.46	9434.70
395.65	8683.39
395.84	7737.81
396.04	6513.71
396.23	5341.10
396.42	4344.03
396.62	4191.90
396.81	5205.35
397.00	6284.34
397.19	8126.34
397.39	9371.50
397.58	10670.50
397.77	11257.98
397.97	11728.42
398.16	11964.82
398.35	12360.37
398.55	12725.49
398.74	13130.41
398.93	13310.63
399.12	13181.90
399.32	12903.37
399.51	13224.03
399.70	13926.19
399.90	13923.85
400.09	14040.87
400.28	13823.20
400.47	13954.27
400.67	14366.21
400.86	14937.30
401.05	14892.83
401.24	15056.67
401.44	15000.49
401.63	15068.37
401.82	15234.55
402.01	15187.74
402.21	15295.40
402.40	15260.29
402.59	15056.67
402.78	14506.64
402.97	14012.79
403.17	14508.98
403.36	15367.96
403.55	15793.94
403.74	16229.27
403.93	15529.45
404.13	14387.27
404.32	13855.97
404.51	14609.62
404.70	15999.90
404.89	15723.72
405.09	15641.80
405.28	15241.57
405.47	15108.16
405.66	14911.55
405.85	14616.65
406.05	14129.81
406.24	14171.94
406.43	15087.09
406.62	15363.28
406.81	15524.77
407.00	15108.16
407.20	14960.70
407.39	15080.07
407.58	15709.68
407.77	16283.11
407.96	16561.63
408.15	16865.90
408.34	17130.38
408.54	17518.91
408.73	17617.21
408.92	17551.68
409.11	17193.58
409.30	16383.75
409.49	15250.93
409.68	14157.90
409.87	13884.06
410.07	14717.29
410.26	15894.58
410.45	16812.07
410.64	17401.88
410.83	18019.78
411.02	18515.98
411.21	19122.18
411.40	18759.39
411.59	18537.04
411.78	18703.22
411.98	18555.77
412.17	18808.54
412.36	18565.13
412.55	18583.85
412.74	18214.05
412.93	17610.19
413.12	18001.06
413.31	19232.18
413.50	19609.01
413.69	19927.32
413.88	19520.07
414.07	18445.76
414.26	18904.51
414.45	19620.71
414.64	19789.23
414.83	19566.88
415.02	19276.65
415.22	19522.41
415.41	19913.28
415.60	20400.11
415.79	21223.98
415.98	21418.24
416.17	21617.19
416.36	21406.54
416.55	20891.62
416.74	20159.03
416.93	19592.62
417.12	19454.53
417.31	19873.49
417.50	20262.02
417.69	20699.70
417.88	20643.52
418.07	20638.84
418.26	20247.97
418.45	20463.30
418.64	21120.99
418.83	21247.38
419.02	21605.49
419.21	21575.06
419.39	20517.14
419.58	19356.23
419.77	19730.72
419.96	20369.68
420.15	21823.16
420.34	22335.73
420.53	23288.33
420.72	23033.21
420.91	23019.17
421.10	22906.82
421.29	22906.82
421.48	21748.26
421.67	23035.55
421.86	22382.54
422.05	20840.13
422.24	18696.20
422.43	18162.56
422.61	20283.08
422.80	21961.25
422.99	22309.99
423.18	21701.45
423.37	21163.12
423.56	20996.95
423.75	21020.35
423.94	21839.54
424.13	20493.73
424.32	20812.04
424.50	20779.28
424.69	20589.69
424.88	20816.72
425.07	20737.15
425.26	20299.47
425.45	20517.14
425.64	20173.08
425.83	19934.34
426.01	21769.32
426.20	21694.43
426.39	21656.98
426.58	20042.01
426.77	18714.92
426.96	17785.73
427.15	18499.59
427.33	20252.66
427.52	20884.60
427.71	20851.83
427.90	20671.61
428.09	20779.28
428.28	19901.58
428.46	19302.40
428.65	18902.17
428.84	19662.84
429.03	20102.86
429.22	19173.67
429.40	17919.14
429.59	16168.42
429.78	14356.85
429.97	14565.15
430.16	14630.69
430.34	14761.76
430.53	14560.47
430.72	15021.56
430.91	16545.25
431.10	19290.70
431.28	23007.47
431.47	24828.40
431.66	24975.86
431.85	23051.94
432.03	20922.05
432.22	20091.16
432.41	20814.38
432.60	22916.19
432.79	24002.19
432.97	24755.85
433.16	23971.77
433.35	22038.48
433.54	19690.93
433.72	18195.32
433.91	19042.60
434.10	21132.70
434.28	22890.44
434.47	24105.18
434.66	23843.04
434.85	23056.62
435.03	23218.11
435.22	23623.03
435.41	25317.57
435.59	25476.73
435.78	25441.62
435.97	26221.02
436.16	26642.32
436.34	25851.22
436.53	25205.23
436.72	25158.42
436.90	24016.24
437.09	24226.89
437.28	23440.47
437.46	24470.30
437.65	24308.80
437.84	22761.71
438.02	20816.72
438.21	20641.18
438.40	21881.67
438.58	23758.78
438.77	24304.12
438.96	24416.47
439.14	25483.75
439.33	26111.02
439.52	26834.24
439.70	26328.69
439.89	25163.10
440.08	24725.42
440.26	24538.18
440.45	25661.63
440.63	27199.37
440.82	28641.14
441.01	28542.83
441.19	28065.36
441.38	28409.42
441.57	29134.99
441.75	29869.92
441.94	30412.92
442.12	29647.57
442.31	30366.11
442.50	30525.27
442.68	29890.98
442.87	29296.49
443.05	29146.69
443.24	29144.35
443.43	30204.61
443.61	31070.61
443.80	31288.28
443.98	29259.04
444.17	29076.48
444.35	30899.75
444.54	31587.87
444.73	31005.08
444.91	30176.53
445.10	28884.55
445.28	27929.61
445.47	27410.01
445.65	27255.54
445.84	27995.15
446.02	29095.20
446.21	29617.14
446.39	29429.90
446.58	30122.69
446.77	30265.47
446.95	30890.39
447.14	31175.94
447.32	31906.18
447.51	31033.16
447.69	30146.10
447.88	29699.06
448.06	30099.29
448.25	31084.65
448.43	31164.23
448.62	30513.56
448.80	30286.53
448.99	30560.37
449.17	30775.70
449.36	30951.24
449.54	32311.10
449.73	32299.39
449.91	32968.79
450.10	33558.60
450.28	33982.24
450.46	34230.33
450.65	33970.54
450.83	33577.33
451.02	33090.49
451.20	32598.98
451.39	32900.91
451.57	32573.24
451.76	32388.33
451.94	32650.47
452.13	32219.81
452.31	30277.17
452.49	28964.13
452.68	29385.43
452.86	29408.83
453.05	29701.40
453.23	30202.27
453.42	31491.91
453.60	32435.14
453.78	32591.96
453.97	31964.70
454.15	32231.52
454.34	31096.36
454.52	31688.51
454.70	30801.45
454.89	31150.19
455.07	31543.40
455.26	32051.30
455.44	33226.24
455.62	33745.84
455.81	33731.80
455.99	33474.34
456.17	33354.97
456.36	33139.65
456.54	34057.14
456.73	34117.99
456.91	34464.39
457.09	35119.74
457.28	35358.47
457.46	34363.75
457.64	34127.35
457.83	32973.47
458.01	32224.50
458.19	33090.49
458.38	33280.08
458.56	34291.19
458.74	34265.44
458.93	33596.05
459.11	33284.76
459.29	33235.61
459.48	33338.59
459.66	33289.44
459.84	33905.00
460.03	34066.50
460.21	34033.73
460.39	34946.54
460.57	34859.94
460.76	35346.77
460.94	35730.62
461.12	34607.16
461.31	34927.81
461.49	35051.86
461.67	34529.92
461.85	35974.03
462.04	35634.66
462.22	36275.96
462.40	36126.17
462.59	35599.55
462.77	35920.20
462.95	35889.77
463.13	35718.92
463.32	34888.03
463.50	34866.96
463.68	34759.30
463.86	34991.01
464.05	34227.99
464.23	33879.25
464.41	33481.36
464.59	33027.30
464.78	34550.99
464.96	34630.57
465.14	34223.31
465.32	35482.52
465.50	35955.31
465.69	36299.37
465.87	35461.46
466.05	35072.93
466.23	32797.93
466.41	32414.08
466.60	33062.41
466.78	33488.38
466.96	33741.16
467.14	34433.96
467.32	34892.71
467.51	34548.65
467.69	33212.20
467.87	33830.10
468.05	34595.46
468.23	34607.16
468.41	34473.75
468.60	34448.00
468.78	35166.55
468.96	34628.23
469.14	35845.30
469.32	35405.28
469.50	33633.50
469.69	34153.10
469.87	33928.41
470.05	33558.60
470.23	33624.14
470.41	33549.24
470.59	34279.49
470.77	34277.15
470.95	35168.89
471.14	35573.80
471.32	35211.02
471.50	37553.90
471.68	37535.17
471.86	37729.44
472.04	37804.33
472.22	37916.68
472.40	36336.82
472.58	36032.55
472.77	35665.08
472.95	36051.27
473.13	37036.64
473.31	35838.28
473.49	36793.22
473.67	36907.91
473.85	37677.94
474.03	38675.01
474.21	38045.41
474.39	39246.10
474.57	39005.03
474.75	38803.74
474.93	38761.61
475.12	37752.84
475.30	37525.81
475.48	37722.41
475.66	38342.66
475.84	38010.30
476.02	37736.46
476.20	37479.00
476.38	38239.67
476.56	39108.01
476.74	39798.47
476.92	39800.81
477.10	40802.56
477.28	41586.64
477.46	41338.54
477.64	42099.22
477.82	41879.21
478.00	42160.07
478.18	41256.62
478.36	41167.68
478.54	41546.85
478.72	41729.41
478.90	42703.07
479.08	43772.70
479.26	44435.07
479.44	44163.57
479.62	43681.42
479.80	43990.37
479.98	43817.17
480.16	44367.20
480.34	44268.89
480.52	44617.63
480.70	44865.73
480.88	44505.29
481.06	45139.57
481.24	46085.15
481.41	46567.30
481.59	47257.76
481.77	46791.99
481.95	46190.47
482.13	46148.34
482.31	46274.73
482.49	46923.06
482.67	46525.17
482.85	46801.35
483.03	47735.23
483.21	47908.43
483.39	47594.79
483.57	47302.23
483.74	46749.86
483.92	47040.09
484.10	47288.18
484.28	48158.86
484.46	48844.64
484.64	48961.67
484.82	48198.65
485.00	47672.03
485.18	47044.77
485.35	46185.79
485.53	42234.97
485.71	38803.74
485.89	38150.73
486.07	40135.51
486.25	43543.33
486.43	45991.53
486.61	46871.57
486.78	46424.53
486.96	46742.84
487.14	48460.79
487.32	49518.71
487.50	50461.95
487.68	50946.44
487.85	51732.86
488.03	51971.60
488.21	51133.68
488.39	50213.85
488.57	49731.70
488.75	49343.17
488.92	50349.60
489.10	52687.80
489.28	54143.61
489.46	54583.63
489.64	54262.98
489.81	54873.86
489.99	54302.77
490.17	54237.23
490.35	54492.35
490.53	54143.61
490.70	54010.20
490.88	53502.31
491.06	54447.88
491.24	54747.47
491.41	53565.50
491.59	52023.09
491.77	51070.49
491.95	52568.43
492.13	53467.20
492.30	54616.40
492.48	55690.71
492.66	56018.38
492.84	55866.25
493.01	55531.55
493.19	55210.90
493.37	54527.46
493.54	54501.71
493.72	55309.20
493.90	56320.31
494.08	56959.28
494.25	57233.12
494.43	57525.69
494.61	57846.34
494.79	57963.37
494.96	57642.71
495.14	57146.52
495.32	56163.50
495.49	55641.56
495.67	56479.47
495.85	57827.62
496.02	58185.72
496.20	57991.45
496.38	57745.70
496.55	57296.31
496.73	57935.28
496.91	58082.73
497.09	58499.35
497.26	58780.21
497.44	58293.38
497.62	57661.44
497.79	57069.28
497.97	55859.23
498.14	56034.77
498.32	57116.09
498.50	58024.22
498.67	58560.20
498.85	58307.43
499.03	58506.37
499.20	58546.16
499.38	58789.58
499.56	58745.11
499.73	57979.75
499.91	57675.48
500.08	57359.51
500.26	56523.94
500.44	57174.61
500.61	57762.08
500.79	57659.10
500.97	57193.33
501.14	56823.53
501.32	56860.97
501.49	56935.87
501.67	57169.93
501.84	57670.80
502.02	57897.83
502.20	58089.76
502.37	58492.33
502.55	58267.64
502.72	58824.68
502.90	59288.11
503.07	58918.31
503.25	58667.87
503.43	57890.81
503.60	57385.25
503.78	56750.97
503.95	57043.54
504.13	58408.07
504.30	59290.45
504.48	58717.02
504.65	58766.17
504.83	58735.74
505.01	59210.87
505.18	59568.97
505.36	60184.54
505.53	60135.38
505.71	60390.50
505.88	60404.55
506.06	59950.48
506.23	59363.01
506.41	59196.83
506.58	59278.75
506.76	59274.07
506.93	59269.39
507.11	59110.23
507.28	59311.52
507.46	58974.48
507.63	58248.91
507.81	58096.78
507.98	58492.33
508.16	59009.59
508.33	59533.87
508.50	59896.65
508.68	59976.23
508.85	60552.00
509.03	60374.12
509.20	60367.10
509.38	59791.33
509.55	58967.46
509.73	58962.78
509.90	59508.12
510.08	59875.58
510.25	59915.37
510.42	59566.63
510.60	59358.33
510.77	59690.68
510.95	60374.12
511.12	60519.23
511.30	60746.26
511.47	60860.95
511.64	60685.41
511.82	60575.40
511.99	59700.04
512.17	59271.73
512.34	59068.10
512.51	59063.42
512.69	59461.31
512.86	59433.22
513.04	59859.20
513.21	59898.99
513.38	59688.34
513.56	59180.45
513.73	58260.62
513.90	58848.09
514.08	58672.55
514.25	59238.96
514.43	59236.62
514.60	59480.03
514.77	59597.06
514.95	59442.59
515.12	59552.59
515.29	59686.00
515.47	60441.99
515.64	60243.05
515.81	59999.63
515.99	59388.75
516.16	58092.10
516.33	56025.40
516.51	54557.89
516.68	53979.78
516.85	53340.81
517.03	53731.68
517.20	56451.38
517.37	58658.51
517.54	59594.72
517.72	58981.50
517.89	56743.95
518.06	54796.62
518.24	55075.15
518.41	57378.23
518.58	58309.77
518.75	58426.79
518.93	58712.34
519.10	58466.58
519.27	58941.71
519.45	59283.43
519.62	59676.64
519.79	60217.30
519.96	59964.52
520.14	59533.87
520.31	58763.83
520.48	58660.85
520.65	59023.63
520.83	60076.87
521.00	60133.04
521.17	60114.32
521.34	59458.97
521.52	59957.50
521.69	60381.14
521.86	60786.05
522.03	60369.44
522.20	59505.78
522.38	58461.90
522.55	58557.86
522.72	58848.09
522.89	59164.06
523.07	59278.75
523.24	59732.81
523.41	60383.48
523.58	60554.34
523.75	61197.99
523.92	60961.59
524.10	60940.53
524.27	60807.12
524.44	60739.24
524.61	60519.23
524.78	60523.91
524.96	60268.79
525.13	60198.58
525.30	60519.23
525.47	61146.50
525.64	61022.45
525.81	60278.16
525.98	59018.95
526.16	57506.96
526.33	56975.66
526.50	56460.74
526.67	56313.29
526.84	57022.47
527.01	57602.92
527.18	58642.12
527.36	59423.86
527.53	60196.24
527.70	60409.23
527.87	60004.31
528.04	59461.31
528.21	59992.61
528.38	60580.09
528.55	61057.56
528.72	61312.67
528.89	61460.13
529.07	61436.72
529.24	60554.34
529.41	60074.53
529.58	59587.70
529.75	59543.23
529.92	59884.95
530.09	60282.84
530.26	61015.43
530.43	61258.84
530.60	61151.18
530.77	61329.06
530.94	61418.00
531.11	60970.96
531.28	60732.22
531.46	60509.87
531.63	60556.68
531.80	60425.61
531.97	60175.17
532.14	59320.88
532.31	58515.73
532.48	57935.28
532.65	57944.64
532.82	58922.99
532.99	59739.83
533.16	60044.10
533.33	60640.94
533.50	60474.76
533.67	59957.50
533.84	59348.96
534.01	59667.28
534.18	59896.65
534.35	59936.44
534.52	59793.67
534.69	59962.18
534.86	60317.95
535.03	60509.87
535.20	61305.65
535.37	61556.09
535.54	61361.82
535.71	61066.92
535.88	60804.78
536.05	60243.05
536.22	59959.84
536.38	59501.10
536.55	59231.94
536.72	58784.90
536.89	58726.38
537.06	59327.90
537.23	60083.89
537.40	60205.60
537.57	60306.24
537.74	60144.75
537.91	60135.38
538.08	60154.11
538.25	60095.60
538.42	60322.63
538.59	60205.60
538.75	59531.53
538.92	59187.47
539.09	58960.44
539.26	58955.75
539.43	58871.49
539.60	58761.49
539.77	59070.44
539.94	58899.58
540.11	58145.93
540.28	57783.15
540.44	57766.76
540.61	58096.78
540.78	58382.32
540.95	58852.77
541.12	59133.63
541.29	59206.19
541.46	59749.20
541.62	59545.57
541.79	59463.65
541.96	59150.02
542.13	58829.37
542.30	59234.28
542.47	59213.21
542.63	59201.51
542.80	58927.67
542.97	59051.72
543.14	58869.15
543.31	58852.77
543.48	59494.08
543.64	60107.30
543.81	60430.29
543.98	60182.19
544.15	59484.72
544.32	58939.37
544.48	59100.87
544.65	59646.21
544.82	59662.60
544.99	59629.83
545.16	59257.68
545.32	59082.14
545.49	59831.11
545.66	60229.01
545.83	59835.80
546.00	59309.18
546.16	59234.28
546.33	59021.29
546.50	59178.10
546.67	59655.57
546.83	59042.35
547.00	59351.30
547.17	58688.93
547.34	58059.33
547.50	57958.69
547.67	58539.14
547.84	58286.36
548.00	58969.80
548.17	59283.43
548.34	59187.47
548.51	59288.11
548.67	59023.63
548.84	59351.30
549.01	59147.68
549.18	59042.35
549.34	59044.69
549.51	59178.10
549.68	58805.96
549.84	58796.60
550.01	58892.56
550.18	58710.00
550.34	58667.87
550.51	58550.84
550.68	58866.81
550.84	58323.81
551.01	58431.47
551.18	58464.24
551.34	58567.23
551.51	58934.69
551.68	59044.69
551.84	59283.43
552.01	58897.24
552.18	58824.68
552.34	58230.19
552.51	58028.90
552.68	57509.30
552.84	58056.99
553.01	58375.30
553.18	58405.73
553.34	58560.20
553.51	58548.50
553.67	58658.51
553.84	58876.18
554.01	58766.17
554.17	58635.10
554.34	58630.42
554.51	58958.09
554.67	59274.07
554.84	58997.88
555.00	58550.84
555.17	58452.54
555.33	58497.01
555.50	58370.62
555.67	58269.98
555.83	58150.61
556.00	57900.17
556.16	57986.77
556.33	57556.11
556.50	57497.60
556.66	57666.12
556.83	57090.35
556.99	57436.75
557.16	57394.62
557.32	57733.99
557.49	57846.34
557.65	57710.59
557.82	57883.79
557.98	57453.13
558.15	57111.41
558.32	56601.18
558.48	55913.06
558.65	55983.27
558.81	56383.51
558.98	56589.47
559.14	56760.33
559.31	56828.21
559.47	56879.70
559.64	56472.45
559.80	56147.11
559.97	56203.28
560.13	56750.97
560.30	57649.74
560.46	58188.06
560.63	58387.00
560.79	58204.44
560.96	57867.40
561.12	56891.40
561.29	55936.46
561.45	56189.24
561.61	56432.66
561.78	57095.03
561.94	56669.05
562.11	56690.12
562.27	56793.10
562.44	56919.49
562.60	57237.80
562.77	57673.14
562.93	57495.26
563.10	57176.95
563.26	56624.58
563.42	56896.08
563.59	56502.87
563.75	56601.18
563.92	56582.45
564.08	56692.46
564.24	56786.08
564.41	56786.08
564.57	56680.75
564.74	56519.26
564.90	56556.70
565.07	56444.36
565.23	56207.97
565.39	55318.56
565.56	55281.11
565.72	55047.06
565.88	55267.07
566.05	55412.18
566.21	55569.00
566.38	55927.10
566.54	56081.58
566.70	56453.72
566.87	56633.94
567.03	56537.98
567.19	57010.77
567.36	56577.77
567.52	56135.41
567.68	56083.92
567.85	55353.67
568.01	55110.25
568.17	54721.72
568.34	54698.32
568.50	54438.52
568.66	54649.17
568.83	55161.75
568.99	55360.69
569.15	55421.55
569.32	55561.98
569.48	55098.55
569.64	54988.55
569.81	54742.79
569.97	54770.88
570.13	54576.61
570.30	54035.95
570.46	53794.87
570.62	53216.76
570.78	53127.82
570.95	53485.92
571.11	54005.52
571.27	54284.04
571.43	54742.79
571.60	54880.88
571.76	54897.27
571.92	55000.25
572.09	55536.23
572.25	55285.79
572.41	55330.26
572.57	55042.38
572.74	55246.00
572.90	54712.36
573.06	54630.44
573.22	54532.14
573.38	54904.29
573.55	54663.21
573.71	54976.84
573.87	54625.76
574.03	54569.59
574.20	54389.37
574.36	54351.92
574.52	54103.82
574.68	53844.02
574.84	53722.32
575.01	53048.24
575.17	52919.51
575.33	53539.75
575.49	53626.35
575.65	53783.17
575.82	53506.99
575.98	53366.55
576.14	53645.08
576.30	53654.44
576.46	53858.07
576.62	53827.64
576.79	53626.35
576.95	53359.53
577.11	53745.72
577.27	53408.68
577.43	53975.09
577.59	53216.76
577.75	52755.68
577.92	52165.86
578.08	51885.00
578.24	51992.66
578.40	52341.40
578.56	52540.35
578.72	52554.39
578.88	52802.49
579.04	53022.50
579.21	53043.56
579.37	53179.31
579.53	53303.36
579.69	53502.31
579.85	53434.43
580.01	53399.32
580.17	52580.13
580.33	52615.24
580.49	52760.36
580.65	52900.79
580.82	53020.16
580.98	53144.20
581.14	53141.86
581.30	53427.41
581.46	53113.78
581.62	53235.48
581.78	53195.70
581.94	53396.98
582.10	53167.61
582.26	53579.54
582.42	53474.22
582.58	53303.36
582.74	53361.87
582.90	53420.39
583.06	53462.52
583.22	53020.16
583.38	53286.98
583.54	52935.90
583.70	52893.77
583.86	52725.25
584.02	52774.40
584.18	53155.91
584.34	52832.91
584.50	52633.97
584.66	52516.94
584.82	52477.15
584.98	52219.69
585.14	51966.91
585.30	51040.06
