SpectraSuite Data File
++++++++++++++++++++++++++++++++++++
Date: Mon Oct 07 14:55:03 GMT-05:00 2013
User: price-jones
Dark Spectrum Present: No
Reference Spectrum Present: No
Number of Sampled Component Spectra: 1
Spectrometers: USB2+H05261
Integration Time (usec): 10000 (USB2+H05261)
Spectra Averaged: 1 (USB2+H05261)
Boxcar Smoothing: 0 (USB2+H05261)
Correct for Electrical Dark: No (USB2+H05261)
Strobe/Lamp Enabled: No (USB2+H05261)
Correct for Detector Non-linearity: No (USB2+H05261)
Correct for Stray Light: No (USB2+H05261)
Number of Pixels in Processed Spectrum: 2048
>>>>>Begin Processed Spectral Data<<<<<
365.73	0.00
365.92	0.00
366.12	0.00
366.32	0.00
366.52	0.00
366.72	0.00
366.91	0.00
367.11	0.00
367.31	0.00
367.51	0.00
367.70	0.00
367.90	0.00
368.10	0.00
368.30	0.00
368.49	0.00
368.69	0.00
368.89	0.00
369.09	0.00
369.28	0.00
369.48	0.00
369.68	0.00
369.87	0.00
370.07	0.00
370.27	0.00
370.47	458.74
370.66	2705.66
370.86	3218.24
371.06	3379.73
371.25	3330.58
371.45	3066.10
371.65	2808.64
371.84	2609.70
372.04	2913.97
372.24	3192.49
372.44	3419.52
372.63	3101.21
372.83	2993.55
373.03	2509.05
373.22	2478.63
373.42	2724.38
373.62	3126.96
373.81	3236.96
374.01	3101.21
374.21	2951.42
374.40	2635.44
374.60	2799.28
374.79	3328.24
374.99	3758.90
375.19	4042.11
375.38	3861.88
375.58	3782.31
375.78	3833.80
375.97	3548.25
376.17	3775.28
376.37	3763.58
376.56	4072.53
376.76	4365.10
376.95	4709.16
377.15	4821.50
377.35	4983.00
377.54	5301.31
377.74	5383.23
377.93	5313.02
378.13	5083.64
378.33	4858.95
378.52	4456.38
378.72	4304.25
378.91	4301.90
379.11	4112.32
379.31	4053.81
379.50	4046.79
379.70	4327.65
379.89	4954.91
380.09	5263.86
380.28	5455.79
380.48	5259.18
380.68	5123.43
380.87	4961.94
381.07	4528.94
381.26	4217.65
381.46	3974.23
381.65	3819.75
381.85	3669.96
382.04	3555.27
382.24	3358.67
382.43	3342.28
382.63	3251.00
382.83	3281.43
383.02	3164.40
383.22	3124.62
383.41	3112.91
383.61	3503.78
383.80	4030.40
384.00	4690.43
384.19	5022.79
384.39	5205.35
384.58	5298.97
384.78	5053.22
384.97	5048.54
385.17	4835.55
385.36	4484.47
385.56	4355.74
385.75	4746.61
385.95	5060.24
386.14	5455.79
386.34	5184.29
386.53	5081.30
386.72	4884.70
386.92	4917.47
387.11	5287.27
387.31	5451.11
387.50	5233.44
387.70	5210.03
387.89	5053.22
388.09	5217.05
388.28	5181.95
388.48	5221.74
388.67	5767.08
388.86	6345.19
389.06	6665.85
389.25	7159.70
389.45	7276.73
389.64	7159.70
389.84	6977.14
390.03	6712.66
390.22	7016.93
390.42	7279.07
390.61	7805.69
390.81	8283.16
391.00	8320.60
391.19	8224.64
391.39	7829.09
391.58	7391.41
391.78	6911.60
391.97	6904.58
392.16	6499.67
392.36	5509.62
392.55	4322.97
392.75	3449.95
392.94	2986.52
393.13	3063.76
393.33	3920.40
393.52	4833.21
393.71	5680.48
393.91	6476.26
394.10	7005.22
394.29	7679.30
394.49	8397.84
394.68	8891.70
394.88	8805.10
395.07	9200.65
395.26	9004.04
395.46	8922.12
395.65	7908.67
395.84	6789.89
396.04	5706.23
396.23	4578.09
396.42	3913.38
396.62	4138.07
396.81	5011.09
397.00	6333.49
397.19	8002.29
397.39	9345.76
397.58	10289.00
397.77	10672.84
397.97	11367.98
398.16	11370.32
398.35	12077.16
398.55	11992.90
398.74	12524.21
398.93	12727.83
399.12	12463.35
399.32	12044.40
399.51	12554.63
399.70	13364.46
399.90	12980.61
400.09	12844.86
400.28	12959.55
400.47	13212.32
400.67	13710.86
400.86	14040.87
401.05	14218.75
401.24	14221.10
401.44	14258.54
401.63	14567.49
401.82	14670.48
402.01	14387.27
402.21	14590.90
402.40	14817.93
402.59	13820.86
402.78	13394.89
402.97	13537.66
403.17	14071.30
403.36	14988.79
403.55	15070.71
403.74	15190.08
403.93	14373.23
404.13	13345.73
404.32	13467.44
404.51	14038.53
404.70	15047.30
404.89	14834.32
405.09	14497.28
405.28	14263.22
405.47	14377.91
405.66	14099.39
405.85	13699.16
406.05	13308.29
406.24	14015.13
406.43	14623.67
406.62	14974.75
406.81	14963.04
407.00	14480.89
407.20	14445.79
407.39	14429.40
407.58	15466.26
407.77	15770.53
407.96	16297.15
408.15	16538.23
408.34	16776.96
408.54	17165.49
408.73	17057.82
408.92	16615.46
409.11	16058.42
409.30	15173.69
409.49	14466.85
409.68	13722.56
409.87	13364.46
410.07	14551.11
410.26	15854.79
410.45	16379.07
410.64	16858.88
410.83	17640.62
411.02	17837.22
411.21	18108.72
411.40	18176.60
411.59	18347.46
411.78	18499.59
411.98	17935.53
412.17	18345.12
412.36	17994.04
412.55	18176.60
412.74	17385.50
412.93	17172.51
413.12	17895.74
413.31	19571.56
413.50	19250.91
413.69	19176.01
413.88	18537.04
414.07	18623.64
414.26	18836.63
414.45	19255.59
414.64	18970.04
414.83	19035.58
415.02	18604.92
415.22	18927.91
415.41	19924.98
415.60	20198.82
415.79	21256.75
415.98	21111.63
416.17	21109.29
416.36	20851.83
416.55	20315.85
416.74	19751.78
416.93	19227.50
417.12	19538.79
417.31	19367.93
417.50	20072.43
417.69	20489.05
417.88	20255.00
418.07	19789.23
418.26	20144.99
418.45	20140.31
418.64	21053.12
418.83	22118.06
419.02	21132.70
419.21	21062.48
419.39	19976.47
419.58	19234.52
419.77	19868.81
419.96	20924.39
420.15	21912.10
420.34	22111.04
420.53	22775.75
420.72	23091.73
420.91	22803.84
421.10	22312.33
421.29	22333.39
421.48	21558.67
421.67	22848.31
421.86	21706.13
422.05	20016.26
422.24	18429.38
422.43	19075.37
422.61	21507.18
422.80	22312.33
422.99	21593.78
423.18	21149.08
423.37	21177.17
423.56	21149.08
423.75	21682.72
423.94	22068.91
424.13	20868.22
424.32	20463.30
424.50	20683.31
424.69	21027.37
424.88	21050.78
425.07	21231.00
425.26	21282.49
425.45	20554.58
425.64	20144.99
425.83	20489.05
426.01	21434.63
426.20	21755.28
426.39	21764.64
426.58	19974.13
426.77	18743.01
426.96	18459.81
427.15	19192.39
427.33	20528.84
427.52	20987.58
427.71	21549.31
427.90	20912.69
428.09	20666.93
428.28	20159.03
428.46	19346.87
428.65	19201.76
428.84	20388.41
429.03	20070.09
429.22	18813.23
429.40	17427.63
429.59	15910.96
429.78	14146.20
429.97	14626.01
430.16	14684.52
430.34	14518.34
430.53	15054.33
430.72	15864.15
430.91	17689.77
431.10	20622.46
431.28	23583.24
431.47	25151.40
431.66	24893.94
431.85	22237.43
432.03	21003.97
432.22	20695.02
432.41	22214.02
432.60	23864.10
432.79	24683.29
432.97	24781.59
433.16	24004.53
433.35	21331.64
433.54	19496.66
433.72	18881.10
433.91	20044.35
434.10	22544.04
434.28	23468.55
434.47	24786.27
434.66	23658.14
434.85	23054.28
435.03	24238.59
435.22	24531.15
435.41	25476.73
435.59	26141.44
435.78	26281.88
435.97	26764.03
436.16	26899.78
436.34	26455.08
436.53	25518.86
436.72	26001.01
436.90	24671.59
437.09	24535.84
437.28	24004.53
437.46	25039.05
437.65	24238.59
437.84	22347.44
438.02	21317.60
438.21	21507.18
438.40	22691.49
438.58	24252.63
438.77	25245.02
438.96	25240.34
439.14	26174.21
439.33	26600.19
439.52	26642.32
439.70	25958.88
439.89	25263.74
440.08	25340.98
440.26	25792.70
440.45	26841.26
440.63	28772.21
440.82	29282.44
441.01	28280.69
441.19	28355.59
441.38	29708.42
441.57	30323.98
441.75	30277.17
441.94	30242.06
442.12	30089.93
442.31	31728.30
442.50	31040.18
442.68	30569.74
442.87	30483.14
443.05	29518.84
443.24	30684.42
443.43	31164.23
443.61	31639.36
443.80	32004.49
443.98	31075.29
444.17	30497.18
444.35	31527.02
444.54	32266.63
444.73	31421.69
444.91	29935.45
445.10	29223.93
445.28	28329.84
445.47	28105.15
445.65	27995.15
445.84	29022.64
446.02	29455.64
446.21	30232.70
446.39	30705.49
446.58	30899.75
446.77	31861.71
446.95	31789.16
447.14	32790.91
447.32	33553.92
447.51	32713.67
447.69	31129.12
447.88	30836.56
448.06	31971.72
448.25	32119.17
448.43	31669.79
448.62	31543.40
448.80	30965.29
448.99	31861.71
449.17	32137.90
449.36	32318.12
449.54	33457.96
449.73	33914.36
449.91	34567.37
450.10	35445.07
450.28	34991.01
450.46	34848.24
450.65	35133.78
450.83	34607.16
451.02	34476.09
451.20	34267.78
451.39	34499.50
451.57	34265.44
451.76	34307.57
451.94	33647.54
452.13	32510.04
452.31	30958.27
452.49	29619.48
452.68	30642.29
452.86	30958.27
453.05	31374.88
453.23	32769.84
453.42	32833.04
453.60	33916.70
453.78	33909.68
453.97	33668.61
454.15	33261.35
454.34	32165.98
454.52	31929.59
454.70	32102.79
454.89	32900.91
455.07	32648.13
455.26	33809.04
455.44	34539.29
455.62	34890.37
455.81	34630.57
455.99	34953.56
456.17	34550.99
456.36	35185.27
456.54	35997.44
456.73	35489.54
456.91	36088.72
457.09	36055.95
457.28	37521.13
457.46	35168.89
457.64	35171.23
457.83	33825.42
458.01	33556.26
458.19	35269.53
458.38	36006.80
458.56	36058.29
458.74	36105.10
458.93	35119.74
459.11	34761.64
459.29	34829.51
459.48	35072.93
459.66	34735.89
459.84	35548.06
460.03	35491.88
460.21	36301.71
460.39	37057.70
460.57	36275.96
460.76	36540.44
460.94	36875.14
461.12	36570.87
461.31	37069.40
461.49	37343.25
461.67	37024.93
461.85	38197.54
462.04	37603.05
462.22	37411.12
462.40	37251.97
462.59	36872.80
462.77	37422.83
462.95	37294.10
463.13	37467.30
463.32	36369.58
463.50	36236.17
463.68	36416.40
463.86	36765.14
464.05	35683.81
464.23	34965.26
464.41	35466.14
464.59	34944.20
464.78	36079.36
464.96	35445.07
465.14	35267.19
465.32	37127.92
465.50	38431.60
465.69	39126.74
465.87	37383.04
466.05	36594.28
466.23	35196.98
466.41	34384.81
466.60	35318.68
466.78	34897.39
466.96	35171.23
467.14	36294.69
467.32	36362.56
467.51	36514.70
467.69	35089.31
467.87	36060.63
468.05	37148.98
468.23	37036.64
468.41	37090.47
468.60	37446.23
468.78	37024.93
468.96	36950.04
469.14	37633.47
469.32	37673.26
469.50	35768.07
469.69	35819.56
469.87	35927.22
470.05	35428.69
470.23	35131.44
470.41	35864.03
470.59	36425.76
470.77	36116.81
470.95	36531.08
471.14	37830.08
471.32	37841.78
471.50	39716.55
471.68	39328.02
471.86	40336.79
472.04	40076.99
472.22	39672.08
472.40	37977.53
472.58	38082.86
472.77	38188.18
472.95	38902.04
473.13	40011.46
473.31	37958.81
473.49	38876.30
473.67	39241.42
473.85	40018.48
474.03	40638.72
474.21	41837.08
474.39	41879.21
474.57	41476.63
474.75	41872.18
474.93	40804.90
475.12	40109.76
475.30	40182.32
475.48	39938.90
475.66	40629.36
475.84	39828.90
476.02	40741.71
476.20	39875.71
476.38	40044.23
476.56	41504.72
476.74	41979.85
476.92	42286.46
477.10	42749.88
477.28	43856.96
477.46	44224.42
477.64	44886.79
477.82	44786.15
478.00	44755.72
478.18	44126.12
478.36	43744.61
478.54	43709.50
478.72	44439.75
478.90	45970.46
479.08	47140.73
479.26	46693.69
479.44	47636.92
479.62	46923.06
479.80	47168.82
479.98	46754.54
480.16	47194.56
480.34	46532.19
480.52	47555.00
480.70	47360.74
480.88	47107.96
481.06	47585.43
481.24	48268.87
481.41	49647.44
481.59	50199.81
481.77	49083.37
481.95	48498.24
482.13	49153.59
482.31	49429.77
482.49	50244.28
482.67	49265.94
482.85	49523.40
483.03	49478.92
483.21	50930.06
483.39	50326.20
483.57	49958.73
483.74	50089.80
483.92	50195.13
484.10	49954.05
484.28	50302.79
484.46	50667.92
484.64	51491.79
484.82	50930.06
485.00	50181.09
485.18	49532.76
485.35	47917.79
485.53	42691.37
485.71	40203.38
485.89	41130.23
486.07	44210.38
486.25	46195.15
486.43	48905.49
486.61	49191.04
486.78	48374.19
486.96	50035.97
487.14	51262.41
487.32	52332.04
487.50	52629.29
487.68	53523.37
487.85	54113.19
488.03	53813.60
488.21	52818.87
488.39	52528.64
488.57	51650.94
488.75	51150.07
488.92	53031.86
489.10	55021.31
489.28	55302.18
489.46	56486.49
489.64	56023.06
489.81	56392.87
489.99	56163.50
490.17	56006.68
490.35	56470.11
490.53	55994.98
490.70	55962.21
490.88	55622.83
491.06	56853.95
491.24	57059.92
491.41	56067.53
491.59	54321.49
491.77	54326.17
491.95	55119.62
492.13	56591.81
492.30	57050.56
492.48	57820.59
492.66	57886.13
492.84	57261.21
493.01	57249.50
493.19	57205.03
493.37	56926.51
493.54	57064.60
493.72	58024.22
493.90	58623.40
494.08	58993.20
494.25	59320.88
494.43	59470.67
494.61	59676.64
494.79	59393.43
494.96	59697.70
495.14	59519.82
495.32	58024.22
495.49	58253.59
495.67	59283.43
495.85	60271.14
496.02	60376.46
496.20	59849.84
496.38	59444.93
496.55	59592.38
496.73	60212.62
496.91	60530.93
497.09	60645.62
497.26	61284.59
497.44	60212.62
497.62	59465.99
497.79	59152.36
497.97	58199.76
498.14	58794.26
498.32	59746.86
498.50	60016.02
498.67	59966.87
498.85	59807.71
499.03	60502.85
499.20	60659.66
499.38	60236.03
499.56	59318.54
499.73	59704.73
499.91	59531.53
500.08	58904.26
500.26	58501.69
500.44	59260.02
500.61	59908.35
500.79	59077.46
500.97	59243.64
501.14	58759.15
501.32	58148.27
501.49	58478.28
501.67	59400.46
501.84	59421.52
502.02	59786.64
502.20	60388.16
502.37	60203.26
502.55	60615.19
502.72	61516.30
502.90	61670.78
503.07	61207.35
503.25	60275.82
503.43	59304.49
503.60	59154.70
503.78	59105.55
503.95	59709.41
504.13	60713.50
504.30	61432.04
504.48	60449.02
504.65	60769.67
504.83	60858.61
505.01	61401.61
505.18	61663.75
505.36	62419.75
505.53	62223.14
505.71	61794.82
505.88	62475.92
506.06	62003.13
506.23	61638.01
506.41	61235.44
506.58	61593.54
506.76	61354.80
506.93	60919.46
507.11	61111.39
507.28	61062.24
507.46	60404.55
507.63	60704.13
507.81	60172.83
507.98	60477.10
508.16	61403.95
508.33	61696.52
508.50	61797.16
508.68	62298.04
508.85	62536.77
509.03	62747.42
509.20	62408.04
509.38	61694.18
509.55	61633.33
509.73	61483.53
509.90	61544.39
510.08	61710.56
510.25	61099.68
510.42	61207.35
510.60	61237.78
510.77	61858.02
510.95	62113.14
511.12	62274.63
511.30	63185.10
511.47	63428.52
511.64	62934.66
511.82	63149.99
511.99	61818.23
512.17	61855.68
512.34	61333.74
512.51	61787.80
512.69	62078.03
512.86	61361.82
513.04	61630.99
513.21	61361.82
513.38	60921.80
513.56	60273.48
513.73	60135.38
513.90	61270.54
514.08	60996.70
514.25	61001.38
514.43	61240.12
514.60	61584.18
514.77	61715.25
514.95	61888.45
515.12	61858.02
515.29	62164.63
515.47	62574.22
515.64	62529.75
515.81	62251.23
515.99	61137.13
516.16	59473.01
516.33	57242.48
516.51	57298.65
516.68	56044.13
516.85	55271.75
517.03	56975.66
517.20	59171.08
517.37	61043.51
517.54	61813.55
517.72	60671.37
517.89	58019.54
518.06	56481.81
518.24	57469.51
518.41	59372.37
518.58	60662.00
518.75	60931.17
518.93	60495.83
519.10	60299.22
519.27	61116.07
519.45	61759.72
519.62	62398.68
519.79	62197.40
519.96	62054.62
520.14	61820.57
520.31	60683.07
520.48	60587.11
520.65	61511.62
520.83	62541.45
521.00	62129.52
521.17	61483.53
521.34	61989.09
521.52	62433.79
521.69	62609.33
521.86	62960.41
522.03	62382.30
522.20	61095.00
522.38	60502.85
522.55	60952.23
522.72	61141.81
522.89	60594.13
523.07	61652.05
523.24	62525.07
523.41	62637.42
523.58	62983.82
523.75	63007.22
523.92	63290.43
524.10	62897.22
524.27	62440.81
524.44	62148.24
524.61	61656.73
524.78	62272.29
524.96	62344.85
525.13	62375.28
525.30	63145.31
525.47	63089.14
525.64	63112.55
525.81	62033.56
525.98	60615.19
526.16	59529.19
526.33	59470.67
526.50	58913.62
526.67	59159.38
526.84	59760.90
527.01	60498.17
527.18	60982.66
527.36	61495.24
527.53	62405.70
527.70	61888.45
527.87	60947.55
528.04	61698.86
528.21	62092.07
528.38	62651.46
528.55	63629.80
528.72	63255.32
528.89	62988.50
529.07	63061.05
529.24	61895.47
529.41	61755.03
529.58	61677.80
529.75	62438.47
529.92	62819.98
530.09	62649.12
530.26	63227.23
530.43	63716.40
530.60	63164.04
530.77	63372.34
530.94	63552.57
531.11	62911.26
531.28	62756.78
531.46	62843.38
531.63	62829.34
531.80	62681.89
531.97	62199.74
532.14	62075.69
532.31	60711.16
532.48	59882.61
532.65	60463.06
532.82	60863.29
532.99	62663.16
533.16	62564.86
533.33	62712.31
533.50	62822.32
533.67	62363.57
533.84	61956.32
534.01	62588.27
534.18	62204.42
534.35	61907.17
534.52	61600.56
534.69	62106.12
534.86	62632.74
535.03	62850.41
535.20	63168.72
535.37	63632.14
535.54	63847.47
535.71	63220.21
535.88	63157.02
536.05	62054.62
536.22	61574.81
536.38	61755.03
536.55	61366.51
536.72	60837.54
536.89	61396.93
537.06	61406.30
537.23	61958.66
537.40	61579.49
537.57	61661.41
537.74	61982.07
537.91	61968.02
538.08	62085.05
538.25	62307.40
538.42	62878.49
538.59	62438.47
538.75	61724.61
538.92	60959.25
539.09	61483.53
539.26	61268.20
539.43	61141.81
539.60	60764.99
539.77	61591.20
539.94	61076.28
540.11	60678.39
540.28	60282.84
540.44	60170.49
540.61	60250.07
540.78	60416.25
540.95	60844.57
541.12	61352.46
541.29	61663.75
541.46	61558.43
541.62	61949.30
541.79	61165.22
541.96	60928.83
542.13	61155.86
542.30	61148.84
542.47	61443.74
542.63	61244.80
542.80	61272.88
542.97	60533.28
543.14	60722.86
543.31	61298.63
543.48	62073.35
543.64	62253.57
543.81	62726.36
543.98	62550.82
544.15	61612.26
544.32	62007.81
544.48	61347.78
544.65	61247.14
544.82	61944.62
544.99	60807.12
545.16	60662.00
545.32	61010.74
545.49	61616.94
545.66	61698.86
545.83	61668.44
546.00	61953.98
546.16	61282.25
546.33	61087.98
546.50	61214.37
546.67	61900.15
546.83	61375.87
547.00	61553.75
547.17	60243.05
547.34	59870.90
547.50	59669.62
547.67	60516.89
547.84	61286.93
548.00	61687.16
548.17	61460.13
548.34	61670.78
548.51	61453.11
548.67	61289.27
548.84	61181.60
549.01	61525.66
549.18	61130.11
549.34	61240.12
549.51	61565.45
549.68	62066.33
549.84	60933.51
550.01	60444.33
550.18	60535.62
550.34	60685.41
550.51	60961.59
550.68	61422.68
550.84	61520.98
551.01	60378.80
551.18	60612.85
551.34	60456.04
551.51	61408.64
551.68	61446.08
551.84	62169.31
552.01	61249.48
552.18	60907.76
552.34	59990.27
552.51	59887.29
552.68	59662.60
552.84	60299.22
553.01	60299.22
553.18	60245.39
553.34	60589.45
553.51	60734.56
553.67	60774.35
553.84	61176.92
554.01	61469.49
554.17	60914.78
554.34	60753.29
554.51	60837.54
554.67	60140.07
554.84	60392.84
555.00	60055.81
555.17	60151.77
555.33	60023.04
555.50	59873.24
555.67	60296.88
555.83	60147.09
556.00	59948.14
556.16	59594.72
556.33	59461.31
556.50	59849.84
556.66	59821.75
556.83	59047.04
556.99	59007.25
557.16	59938.78
557.32	59381.73
557.49	60030.06
557.65	59578.34
557.82	60250.07
557.98	60266.45
558.15	59236.62
558.32	58768.51
558.48	58457.22
558.65	58021.88
558.81	58436.16
558.98	59444.93
559.14	59253.00
559.31	59234.28
559.47	58958.09
559.64	58941.71
559.80	58159.97
559.97	58969.80
560.13	59414.50
560.30	60411.57
560.46	60821.16
560.63	60893.72
560.79	60669.03
560.96	59884.95
561.12	59274.07
561.29	58967.46
561.45	58894.90
561.61	59950.48
561.78	59114.91
561.94	59353.65
562.11	59154.70
562.27	58684.25
562.44	59477.69
562.60	59852.18
562.77	59913.03
562.93	59428.54
563.10	59412.16
563.26	59384.07
563.42	59608.76
563.59	59288.11
563.75	58962.78
563.92	58700.64
564.08	58932.35
564.24	59714.09
564.41	58684.25
564.57	59880.27
564.74	59234.28
564.90	58789.58
565.07	58426.79
565.23	57787.83
565.39	57200.35
565.56	57722.29
565.72	57975.07
565.88	57371.21
566.05	58958.09
566.21	58567.23
566.38	58525.10
566.54	59309.18
566.70	59819.41
566.87	59318.54
567.03	59091.51
567.19	60273.48
567.36	59959.84
567.52	58787.24
567.68	58192.74
567.85	57888.47
568.01	57904.85
568.17	58031.24
568.34	58082.73
568.50	57553.77
568.66	57219.08
568.83	57420.36
568.99	57137.16
569.15	57382.91
569.32	57216.74
569.48	57420.36
569.64	57467.17
569.81	57418.02
569.97	57144.18
570.13	56353.08
570.30	55686.03
570.46	55536.23
570.62	55250.69
570.78	55877.95
570.95	56062.85
571.11	56594.15
571.27	56467.76
571.43	56802.46
571.60	56692.46
571.76	57464.83
571.92	57408.66
572.09	57958.69
572.25	57165.24
572.41	57179.29
572.57	57474.20
572.74	57886.13
572.90	58567.23
573.06	58422.11
573.22	58391.68
573.38	58255.93
573.55	59035.33
573.71	57745.70
573.87	57549.09
574.03	57553.77
574.20	56978.00
574.36	56662.03
574.52	56521.60
574.68	56509.89
574.84	55789.01
575.01	56102.64
575.17	55559.64
575.33	56495.85
575.49	56591.81
575.65	55655.60
575.82	55585.38
575.98	56418.61
576.14	57113.75
576.30	57757.40
576.46	56418.61
576.62	56177.54
576.79	56594.15
576.95	56559.05
577.11	56872.68
577.27	56268.82
577.43	56685.43
577.59	56404.57
577.75	55899.01
577.92	55632.19
578.08	55332.60
578.24	55728.16
578.40	55702.41
578.56	54782.58
578.72	55112.59
578.88	55306.86
579.04	55770.28
579.21	55220.26
579.37	55302.18
579.53	55866.25
579.69	55283.45
579.85	55281.11
580.01	55327.92
580.17	54955.78
580.33	55884.97
580.49	55903.70
580.65	55400.48
580.82	55789.01
580.98	55676.66
581.14	55620.49
581.30	55622.83
581.46	55011.95
581.62	55569.00
581.78	56210.31
581.94	56364.78
582.10	56383.51
582.26	55997.32
582.42	56254.78
582.58	55613.47
582.74	55313.88
582.90	55487.08
583.06	56243.07
583.22	55597.09
583.38	56100.30
583.54	56062.85
583.70	55971.57
583.86	55943.48
584.02	55086.85
584.18	55318.56
584.34	55103.23
584.50	54974.50
584.66	55128.98
584.82	54906.63
584.98	55077.49
585.14	54005.52
585.30	54080.42
