SpectraSuite Data File
++++++++++++++++++++++++++++++++++++
Date: Mon Oct 07 14:54:59 GMT-05:00 2013
User: price-jones
Dark Spectrum Present: No
Reference Spectrum Present: No
Number of Sampled Component Spectra: 1
Spectrometers: USB2+H05261
Integration Time (usec): 10000 (USB2+H05261)
Spectra Averaged: 1 (USB2+H05261)
Boxcar Smoothing: 0 (USB2+H05261)
Correct for Electrical Dark: No (USB2+H05261)
Strobe/Lamp Enabled: No (USB2+H05261)
Correct for Detector Non-linearity: No (USB2+H05261)
Correct for Stray Light: No (USB2+H05261)
Number of Pixels in Processed Spectrum: 2048
>>>>>Begin Processed Spectral Data<<<<<
365.73	0.00
365.92	0.00
366.12	0.00
366.32	0.00
366.52	0.00
366.72	0.00
366.91	0.00
367.11	0.00
367.31	0.00
367.51	0.00
367.70	0.00
367.90	0.00
368.10	0.00
368.30	0.00
368.49	0.00
368.69	0.00
368.89	0.00
369.09	0.00
369.28	0.00
369.48	0.00
369.68	0.00
369.87	0.00
370.07	0.00
370.27	0.00
370.47	0.00
370.66	849.61
370.86	1074.31
371.06	1137.50
371.25	1057.92
371.45	868.34
371.65	819.19
371.84	779.40
372.04	966.64
372.24	1067.28
372.44	1114.10
372.63	1048.56
372.83	926.85
373.03	837.91
373.22	690.46
373.42	828.55
373.62	1011.11
373.81	1062.60
374.01	1004.09
374.21	833.23
374.40	912.81
374.60	945.58
374.79	990.05
374.99	1303.68
375.19	1280.27
375.38	1289.64
375.58	1177.29
375.78	1203.04
375.97	1268.57
376.17	1179.63
376.37	1228.78
376.56	1359.85
376.76	1394.96
376.95	1404.32
377.15	1636.03
377.35	1668.80
377.54	1708.59
377.74	1778.81
377.93	1858.39
378.13	1692.21
378.33	1523.69
378.52	1465.18
378.72	1392.62
378.91	1523.69
379.11	1348.15
379.31	1313.04
379.50	1263.89
379.70	1488.58
379.89	1647.74
380.09	1699.23
380.28	1713.27
380.48	1701.57
380.68	1710.93
380.87	1614.97
381.07	1488.58
381.26	1343.47
381.46	1299.00
381.65	1219.42
381.85	1067.28
382.04	1083.67
382.24	973.66
382.43	912.81
382.63	950.26
382.83	999.41
383.02	1041.54
383.22	954.94
383.41	999.41
383.61	1074.31
383.80	1406.66
384.00	1533.05
384.19	1617.31
384.39	1804.55
384.58	1680.50
384.78	1584.54
384.97	1661.78
385.17	1584.54
385.36	1467.52
385.56	1486.24
385.75	1427.73
385.95	1586.88
386.14	1645.40
386.34	1724.97
386.53	1650.08
386.72	1462.83
386.92	1619.65
387.11	1699.23
387.31	1720.29
387.50	1708.59
387.70	1570.50
387.89	1596.25
388.09	1638.38
388.28	1556.46
388.48	1640.72
388.67	1846.68
388.86	2094.78
389.06	2277.34
389.25	2310.11
389.45	2310.11
389.64	2265.64
389.84	2270.32
390.03	2284.36
390.22	2267.98
390.42	2335.85
390.61	2445.86
390.81	2693.96
391.00	2672.89
391.19	2537.14
391.39	2448.20
391.58	2448.20
391.78	2265.64
391.97	2101.80
392.16	1930.94
392.36	1739.02
392.55	1331.76
392.75	950.26
392.94	772.38
393.13	931.53
393.33	1123.46
393.52	1507.30
393.71	1811.57
393.91	1998.82
394.10	2253.94
394.29	2445.86
394.49	2555.86
394.68	2853.11
394.88	2789.92
395.07	2944.39
395.26	2813.32
395.46	2675.23
395.65	2539.48
395.84	2094.78
396.04	1764.76
396.23	1401.98
396.42	1249.85
396.62	1203.04
396.81	1570.50
397.00	2017.54
397.19	2502.03
397.39	2888.22
397.58	3080.14
397.77	3454.63
397.97	3550.59
398.16	3623.15
398.35	3735.50
398.55	3812.73
398.74	3873.59
398.93	3857.20
399.12	3871.25
399.32	3875.93
399.51	4042.11
399.70	4283.18
399.90	3990.61
400.09	4046.79
400.28	3992.95
400.47	4187.22
400.67	4362.76
400.86	4505.53
401.05	4463.40
401.24	4524.26
401.44	4528.94
401.63	4491.49
401.82	4463.40
402.01	4531.28
402.21	4681.07
402.40	4596.81
402.59	4318.29
402.78	4250.41
402.97	4086.58
403.17	4358.08
403.36	4449.36
403.55	4685.75
403.74	4681.07
403.93	4440.00
404.13	4131.05
404.32	4280.84
404.51	4479.79
404.70	4711.50
404.89	4695.11
405.09	4475.10
405.28	4547.66
405.47	4421.27
405.66	4432.97
405.85	4140.41
406.05	4306.59
406.24	4416.59
406.43	4491.49
406.62	4493.83
406.81	4765.33
407.00	4435.32
407.20	4407.23
407.39	4477.44
407.58	4692.77
407.77	4781.71
407.96	4919.81
408.15	4966.62
408.34	4966.62
408.54	5156.20
408.73	5118.75
408.92	5062.58
409.11	5015.77
409.30	4711.50
409.49	4372.12
409.68	4121.68
409.87	4168.49
410.07	4489.15
410.26	4821.50
410.45	4929.17
410.64	5221.74
410.83	5451.11
411.02	5401.96
411.21	5521.32
411.40	5462.81
411.59	5755.38
411.78	5591.54
411.98	5343.44
412.17	5579.84
412.36	5329.40
412.55	5425.36
412.74	5275.57
412.93	5282.59
413.12	5336.42
413.31	5809.21
413.50	5746.02
413.69	5633.67
413.88	5467.49
414.07	5472.17
414.26	5603.24
414.45	5895.81
414.64	5596.22
414.83	5710.91
415.02	5654.73
415.22	5572.82
415.41	5851.34
415.60	6190.72
415.79	6246.89
415.98	6352.21
416.17	6375.62
416.36	6183.70
416.55	6033.90
416.74	5647.71
416.93	5526.00
417.12	5687.50
417.31	5959.00
417.50	5884.11
417.69	6251.57
417.88	5996.45
418.07	6108.80
418.26	5977.73
418.45	6033.90
418.64	6284.34
418.83	6443.49
419.02	6356.90
419.21	5923.90
419.39	5860.70
419.58	5584.52
419.77	5755.38
419.96	6033.90
420.15	6375.62
420.34	6504.35
420.53	6682.23
420.72	6661.16
420.91	6546.48
421.10	6553.50
421.29	6502.01
421.48	6377.96
421.67	6801.60
421.86	6171.99
422.05	5757.72
422.24	5390.25
422.43	5692.18
422.61	6111.14
422.80	6265.61
422.99	6422.43
423.18	6087.73
423.37	6230.51
423.56	6155.61
423.75	6197.74
423.94	6464.56
424.13	5921.56
424.32	6064.33
424.50	6059.65
424.69	6069.01
424.88	6045.60
425.07	6001.13
425.26	6033.90
425.45	5568.13
425.64	5837.30
425.83	5912.19
426.01	6225.82
426.20	6298.38
426.39	6087.73
426.58	5736.65
426.77	5305.99
426.96	5252.16
427.15	5322.38
427.33	5650.05
427.52	5966.03
427.71	5856.02
427.90	5795.17
428.09	5888.79
428.28	5607.92
428.46	5542.39
428.65	5490.90
428.84	5591.54
429.03	5483.88
429.22	5294.29
429.40	4922.15
429.59	4638.94
429.78	4060.83
429.97	4156.79
430.16	4044.45
430.34	4060.83
430.53	3976.57
430.72	4414.25
430.91	4882.36
431.10	5820.91
431.28	6803.94
431.47	7138.63
431.66	7002.88
431.85	6080.71
432.03	5682.82
432.22	5661.76
432.41	5961.34
432.60	6806.28
432.79	7030.97
432.97	7037.99
433.16	6698.61
433.35	5914.53
433.54	5350.46
433.72	5181.95
433.91	5298.97
434.10	6139.23
434.28	6661.16
434.47	6841.39
434.66	6665.85
434.85	6544.14
435.03	6572.22
435.22	6572.22
435.41	6949.05
435.59	7208.85
435.78	7225.23
435.97	7452.27
436.16	7300.13
436.34	7349.28
436.53	7180.76
436.72	7016.93
436.90	6684.57
437.09	6853.09
437.28	6480.94
437.46	6860.11
437.65	6801.60
437.84	6197.74
438.02	6038.58
438.21	6001.13
438.40	6167.31
438.58	6494.99
438.77	6822.66
438.96	6885.86
439.14	7211.19
439.33	7407.80
439.52	7293.11
439.70	7157.36
439.89	7045.01
440.08	6768.83
440.26	6967.77
440.45	7066.08
440.63	7688.66
440.82	7894.63
441.01	7957.82
441.19	7810.37
441.38	7978.89
441.57	8292.52
441.75	8119.32
441.94	8402.52
442.12	8250.39
442.31	8336.99
442.50	8561.68
442.68	8451.67
442.87	8109.96
443.05	8114.64
443.24	8446.99
443.43	8491.46
443.61	8545.30
443.80	8627.21
443.98	8243.37
444.17	8334.65
444.35	8566.36
444.54	8589.77
444.73	8362.73
444.91	8248.05
445.10	7871.22
445.28	7480.35
445.47	7274.38
445.65	7309.49
445.84	7648.87
446.02	8032.72
446.21	8231.66
446.39	8257.41
446.58	8416.57
446.77	8243.37
446.95	8182.51
447.14	8805.10
447.32	8807.44
447.51	8381.46
447.69	8198.90
447.88	8315.92
448.06	8198.90
448.25	8189.53
448.43	8273.79
448.62	8395.50
448.80	8402.52
448.99	8234.00
449.17	8407.20
449.36	8542.96
449.54	8627.21
449.73	9057.87
449.91	9172.56
450.10	9130.43
450.28	9502.58
450.46	9062.55
450.65	9188.94
450.83	8950.21
451.02	8629.56
451.20	8924.46
451.39	8872.97
451.57	8980.64
451.76	8849.57
451.94	8837.86
452.13	8418.91
452.31	8191.88
452.49	7967.18
452.68	7932.08
452.86	7843.14
453.05	8135.70
453.23	8493.80
453.42	8711.47
453.60	8828.50
453.78	8833.18
453.97	8636.58
454.15	8615.51
454.34	8344.01
454.52	8283.16
454.70	8290.18
454.89	8360.39
455.07	8507.85
455.26	8655.30
455.44	8987.66
455.62	9125.75
455.81	9074.26
455.99	9034.47
456.17	8990.00
456.36	9071.92
456.54	9181.92
456.73	8954.89
456.91	9331.72
457.09	9198.31
457.28	9521.30
457.46	8964.25
457.64	9128.09
457.83	8585.08
458.01	8669.34
458.19	8966.59
458.38	8788.71
458.56	8987.66
458.74	9081.28
458.93	8894.04
459.11	8947.87
459.29	8961.91
459.48	8828.50
459.66	8645.94
459.84	8908.08
460.03	9027.45
460.21	9121.07
460.39	9320.01
460.57	9371.50
460.76	9291.93
460.94	9322.35
461.12	9090.64
461.31	8994.68
461.49	9179.58
461.67	9114.05
461.85	9317.67
462.04	9252.14
462.22	9184.26
462.40	9242.78
462.59	9149.15
462.77	9357.46
462.95	9385.55
463.13	9207.67
463.32	8908.08
463.50	8985.32
463.68	9062.55
463.86	8975.95
464.05	8947.87
464.23	8571.04
464.41	8929.14
464.59	8795.73
464.78	8933.82
464.96	8887.01
465.14	8784.03
465.32	9228.73
465.50	9254.48
465.69	9268.52
465.87	9280.22
466.05	8851.91
466.23	8449.33
466.41	8304.22
466.60	8774.67
466.78	8669.34
466.96	8854.25
467.14	8774.67
467.32	9317.67
467.51	8985.32
467.69	8500.83
467.87	8678.71
468.05	8973.61
468.23	8760.63
468.41	8826.16
468.60	8744.24
468.78	8802.75
468.96	8849.57
469.14	9156.18
469.32	9224.05
469.50	8648.28
469.69	8421.25
469.87	8454.02
470.05	8416.57
470.23	8725.52
470.41	8699.77
470.59	8695.09
470.77	8809.78
470.95	8898.72
471.14	9104.68
471.32	8875.31
471.50	9528.32
471.68	9628.96
471.86	9621.94
472.04	9504.92
472.22	9811.53
472.40	9071.92
472.58	9081.28
472.77	8997.02
472.95	8940.85
473.13	9371.50
473.31	9029.79
473.49	9408.95
473.67	9301.29
473.85	9373.85
474.03	9682.80
474.21	9521.30
474.39	9783.44
474.57	9797.48
474.75	9596.20
474.93	9643.01
475.12	9441.72
475.30	9298.95
475.48	9610.24
475.66	9582.15
475.84	9380.87
476.02	9366.82
476.20	9156.18
476.38	9231.07
476.56	9870.04
476.74	9930.89
476.92	9795.14
477.10	10223.46
477.28	10377.94
477.46	10239.84
477.64	10267.93
477.82	10167.29
478.00	10420.06
478.18	10118.14
478.36	10104.09
478.54	10239.84
478.72	10506.66
478.90	10637.73
479.08	11154.99
479.26	11082.44
479.44	10998.18
479.62	10860.09
479.80	10635.39
479.98	10864.77
480.16	10548.79
480.34	10684.55
480.52	11049.67
480.70	10778.17
480.88	10913.92
481.06	11431.18
481.24	11309.47
481.41	11604.38
481.59	11714.38
481.77	11052.01
481.95	11279.04
482.13	11389.05
482.31	11761.19
482.49	11625.44
482.67	11695.66
482.85	11637.14
483.03	11882.90
483.21	11669.91
483.39	11623.10
483.57	11730.76
483.74	11477.99
483.92	11480.33
484.10	11735.45
484.28	12081.85
484.46	11822.05
484.64	11847.79
484.82	11592.67
485.00	11466.28
485.18	11344.58
485.35	11227.55
485.53	10106.43
485.71	9205.33
485.89	9352.78
486.07	9701.52
486.25	10242.18
486.43	11424.15
486.61	11309.47
486.78	11112.86
486.96	11332.87
487.14	12030.35
487.32	12133.34
487.50	12395.48
487.68	12425.90
487.85	12587.40
488.03	12858.90
488.21	12589.74
488.39	12393.14
488.57	12325.26
488.75	12372.07
488.92	13139.77
489.10	13563.40
489.28	13905.12
489.46	13797.46
489.64	13731.92
489.81	13907.46
489.99	13549.36
490.17	13713.20
490.35	14410.68
490.53	13544.68
490.70	13488.51
490.88	13816.18
491.06	14211.73
491.24	13802.14
491.41	13289.56
491.59	12676.34
491.77	12587.40
491.95	13011.04
492.13	13275.52
492.30	13654.69
492.48	14499.62
492.66	14775.80
492.84	14693.88
493.01	14377.91
493.19	13860.65
493.37	14125.13
493.54	13949.59
493.72	14518.34
493.90	15005.17
494.08	14829.63
494.25	15218.16
494.43	15309.44
494.61	15901.60
494.79	15679.25
494.96	15590.31
495.14	14731.33
495.32	14429.40
495.49	14272.59
495.67	15094.11
495.85	15676.91
496.02	15557.54
496.20	15267.31
496.38	15115.18
496.55	15002.83
496.73	15768.19
496.91	15616.05
497.09	16016.29
497.26	15393.70
497.44	15557.54
497.62	15208.80
497.79	14829.63
497.97	14260.88
498.14	14675.16
498.32	15147.95
498.50	15194.76
498.67	15552.86
498.85	15908.62
499.03	15463.92
499.20	15786.91
499.38	15342.21
499.56	15578.61
499.73	15346.89
499.91	15424.13
500.08	15094.11
500.26	14736.01
500.44	15157.31
500.61	15206.46
500.79	14850.70
500.97	14567.49
501.14	14691.54
501.32	14586.22
501.49	15012.20
501.67	14977.09
501.84	15222.84
502.02	14890.49
502.20	15171.35
502.37	14972.41
502.55	15234.55
502.72	15353.91
502.90	16177.78
503.07	15616.05
503.25	15103.48
503.43	14728.99
503.60	14338.12
503.78	14263.22
503.95	14200.03
504.13	15152.63
504.30	15812.66
504.48	15728.40
504.65	15159.65
504.83	15323.49
505.01	15943.73
505.18	16306.51
505.36	16355.66
505.53	16542.91
505.71	16393.11
505.88	16320.56
506.06	16210.55
506.23	15896.92
506.41	15482.64
506.58	15613.71
506.76	15733.08
506.93	16049.05
507.11	15967.13
507.28	15576.27
507.46	15264.97
507.63	15066.03
507.81	14923.26
507.98	14958.36
508.16	15503.71
508.33	15508.39
508.50	16135.65
508.68	15796.28
508.85	16219.91
509.03	16299.49
509.20	16128.63
509.38	15243.91
509.55	15176.03
509.73	15255.61
509.90	15690.95
510.08	15639.46
510.25	15185.40
510.42	15030.92
510.60	15831.38
510.77	15786.91
510.95	16175.44
511.12	15580.95
511.30	16058.42
511.47	16093.52
511.64	16215.23
511.82	16032.67
511.99	15309.44
512.17	14972.41
512.34	15171.35
512.51	15037.94
512.69	15009.86
512.86	15117.52
513.04	15721.38
513.21	15257.95
513.38	15342.21
513.56	14778.14
513.73	14604.94
513.90	14736.01
514.08	14663.46
514.25	14834.32
514.43	15150.29
514.60	15445.20
514.77	14953.68
514.95	15342.21
515.12	15262.63
515.29	15286.04
515.47	15414.77
515.64	15669.89
515.81	15765.85
515.99	15129.22
516.16	14120.45
516.33	13188.92
516.51	12496.12
516.68	11889.92
516.85	11639.48
517.03	12236.32
517.20	13078.91
517.37	14527.71
517.54	14796.87
517.72	14230.46
517.89	13067.21
518.06	12257.39
518.24	13027.42
518.41	13666.39
518.58	14059.60
518.75	14099.39
518.93	14389.61
519.10	14335.78
519.27	14829.63
519.45	14998.15
519.62	14829.63
519.79	14956.02
519.96	15075.39
520.14	14398.98
520.31	14061.94
520.48	14071.30
520.65	14258.54
520.83	15108.16
521.00	15314.13
521.17	15126.88
521.34	15009.86
521.52	15115.18
521.69	15374.98
521.86	15260.29
522.03	15286.04
522.20	14249.18
522.38	14167.26
522.55	14310.04
522.72	14516.00
522.89	14164.92
523.07	15119.86
523.24	14850.70
523.41	15143.27
523.58	15140.93
523.75	15351.57
523.92	15494.35
524.10	15866.49
524.27	15693.29
524.44	15594.99
524.61	15140.93
524.78	14864.74
524.96	15061.35
525.13	14953.68
525.30	15353.91
525.47	15281.36
525.64	15035.60
525.81	14689.20
525.98	13652.34
526.16	13158.49
526.33	12882.31
526.50	12791.03
526.67	12662.30
526.84	13121.04
527.01	13607.87
527.18	13994.06
527.36	14342.80
527.53	14963.04
527.70	14644.73
527.87	14487.92
528.04	14590.90
528.21	14565.15
528.38	15229.87
528.55	15499.03
528.72	15279.02
528.89	15183.06
529.07	15173.69
529.24	14820.27
529.41	14450.47
529.58	14478.55
529.75	14286.63
529.92	14569.83
530.09	14609.62
530.26	14717.29
530.43	14808.57
530.60	14731.33
530.77	15496.69
530.94	15199.44
531.11	14967.73
531.28	14628.35
531.46	14581.54
531.63	14719.63
531.80	14808.57
531.97	14443.45
532.14	13851.29
532.31	13364.46
532.48	13008.70
532.65	13296.58
532.82	13722.56
532.99	14396.64
533.16	14347.48
533.33	14686.86
533.50	14448.13
533.67	13956.61
533.84	13942.57
534.01	13790.44
534.18	14174.28
534.35	14263.22
534.52	14162.58
534.69	14590.90
534.86	14614.30
535.03	14953.68
535.20	14979.43
535.37	14839.00
535.54	14773.46
535.71	14363.87
535.88	14834.32
536.05	14569.83
536.22	14150.88
536.38	13844.27
536.55	13537.66
536.72	13642.98
536.89	13762.35
537.06	13783.41
537.23	13788.10
537.40	13989.38
537.57	14319.40
537.74	14073.64
537.91	14033.85
538.08	13930.87
538.25	14064.28
538.42	13980.02
538.59	13825.54
538.75	13720.22
538.92	13415.95
539.09	13025.08
539.26	12877.63
539.43	12828.48
539.60	13020.40
539.77	12903.37
539.94	12940.82
540.11	12798.05
540.28	12432.93
540.44	12613.15
540.61	12765.28
540.78	12669.32
540.95	13537.66
541.12	13188.92
541.29	13053.17
541.46	13186.58
541.62	13308.29
541.79	12996.99
541.96	13114.02
542.13	13245.09
542.30	13380.84
542.47	13207.64
542.63	13055.51
542.80	12826.14
542.97	12947.84
543.14	12999.34
543.31	12858.90
543.48	12982.95
543.64	13565.74
543.81	13287.22
543.98	13406.59
544.15	13191.26
544.32	12842.52
544.48	13247.43
544.65	13238.07
544.82	13146.79
544.99	12842.52
545.16	13118.70
545.32	13069.55
545.49	13146.79
545.66	13497.87
545.83	13640.64
546.00	13214.66
546.16	13036.78
546.33	13287.22
546.50	13074.23
546.67	13357.44
546.83	13268.50
547.00	12957.21
547.17	12493.78
547.34	12732.51
547.50	12608.47
547.67	12779.32
547.84	12814.43
548.00	13053.17
548.17	12699.75
548.34	12835.50
548.51	12798.05
548.67	13137.43
548.84	13315.31
549.01	13429.99
549.18	12805.07
549.34	13118.70
549.51	12936.14
549.68	13013.38
549.84	13298.92
550.01	13116.36
550.18	12706.77
550.34	12540.59
550.51	12386.12
550.68	12720.81
550.84	12222.28
551.01	12538.25
551.18	12531.23
551.34	12540.59
551.51	12835.50
551.68	12774.64
551.84	12987.63
552.01	12713.79
552.18	12486.76
552.34	11892.26
552.51	11981.20
552.68	12142.70
552.84	12170.79
553.01	12425.90
553.18	12287.81
553.34	12250.36
553.51	12336.96
553.67	12484.42
553.84	12376.75
554.01	12472.71
554.17	12526.55
554.34	12666.98
554.51	12657.62
554.67	12800.39
554.84	12299.52
555.00	12222.28
555.17	12407.18
555.33	12854.22
555.50	12746.56
555.67	12437.61
555.83	12250.36
556.00	12201.21
556.16	11772.89
556.33	11728.42
556.50	11646.51
556.66	11328.19
556.83	11445.22
556.99	11651.19
557.16	11859.49
557.32	11934.39
557.49	11899.28
557.65	11822.05
557.82	11885.24
557.98	11573.95
558.15	11583.31
558.32	11108.18
558.48	10937.32
558.65	11005.20
558.81	11096.48
558.98	11126.91
559.14	11321.17
559.31	11496.71
559.47	11367.98
559.64	11360.96
559.80	11035.63
559.97	11131.59
560.13	11543.52
560.30	11782.26
560.46	12390.80
560.63	12374.41
560.79	12241.00
560.96	11847.79
561.12	11482.67
561.29	10843.70
561.45	11080.10
561.61	10965.41
561.78	11059.03
561.94	11119.89
562.11	11297.77
562.27	11527.14
562.44	11641.82
562.60	11255.64
562.77	11480.33
562.93	11644.17
563.10	11552.88
563.26	11520.12
563.42	11026.26
563.59	10993.50
563.75	11009.88
563.92	11232.23
564.08	11119.89
564.24	10942.00
564.41	10850.72
564.57	10883.49
564.74	10958.39
564.90	10719.65
565.07	10647.10
565.23	10593.26
565.39	10789.87
565.56	10555.82
565.72	10310.06
565.88	10787.53
566.05	10855.40
566.21	10553.48
566.38	10441.13
566.54	10860.09
566.70	10703.27
566.87	10619.01
567.03	11138.61
567.19	11248.61
567.36	10689.23
567.52	10759.44
567.68	10633.05
567.85	10457.51
568.01	10202.40
568.17	10132.18
568.34	10038.56
568.50	10097.07
568.66	10125.16
568.83	10499.64
568.99	10279.63
569.15	9846.63
569.32	10181.33
569.48	10504.32
569.64	10462.19
569.81	10361.55
569.97	9909.83
570.13	10303.04
570.30	10157.92
570.46	9650.03
570.62	9577.47
570.78	9535.34
570.95	9563.43
571.11	10024.51
571.27	10076.01
571.43	10148.56
571.60	10094.73
571.76	10122.82
571.92	10193.03
572.09	10193.03
572.25	10057.28
572.41	10263.25
572.57	10272.61
572.74	10174.31
572.90	10010.47
573.06	10317.08
573.22	10232.82
573.38	10349.85
573.55	10167.29
573.71	10382.62
573.87	9949.62
574.03	10043.24
574.20	10068.98
574.36	9755.35
574.52	9673.43
574.68	9727.27
574.84	9451.08
575.01	9425.34
575.17	9397.25
575.33	9240.44
575.49	9371.50
575.65	9336.40
575.82	9472.15
575.98	9504.92
576.14	9493.21
576.30	9745.99
576.46	9444.06
576.62	9261.50
576.79	9638.33
576.95	9462.79
577.11	9607.90
577.27	9474.49
577.43	9612.58
577.59	9671.09
577.75	9427.68
577.92	9282.56
578.08	9219.37
578.24	9224.05
578.40	9067.24
578.56	9078.94
578.72	9001.70
578.88	9219.37
579.04	9282.56
579.21	9217.03
579.37	9327.03
579.53	9535.34
579.69	9137.45
579.85	8997.02
580.01	8990.00
580.17	9261.50
580.33	9596.20
580.49	9334.06
580.65	9212.35
580.82	9303.63
580.98	9008.72
581.14	9043.83
581.30	9212.35
581.46	9404.27
581.62	9212.35
581.78	9530.66
581.94	9689.82
582.10	9207.67
582.26	9305.97
582.42	9256.82
582.58	9710.88
582.74	9282.56
582.90	9507.26
583.06	9879.40
583.22	9535.34
583.38	9275.54
583.54	9287.25
583.70	9385.55
583.86	9273.20
584.02	9357.46
584.18	9427.68
584.34	9404.27
584.50	9521.30
584.66	9338.74
584.82	9210.01
584.98	8947.87
585.14	8826.16
585.30	8423.59
585.46	8685.73
585.62	8674.03
585.78	8945.53
585.94	8908.08
586.10	8760.63
586.26	8922.12
586.42	9186.60
586.58	8966.59
586.74	8627.21
586.90	8830.84
587.06	8699.77
587.22	8524.23
587.38	8671.68
587.54	8463.38
587.70	8507.85
587.86	8304.22
588.02	8215.28
588.18	8086.55
588.34	7974.21
588.49	7445.24
588.65	7180.76
588.81	7019.27
588.97	7063.74
589.13	7346.94
589.29	7201.83
589.45	7503.76
589.61	7833.77
589.77	8028.04
589.93	8107.62
590.08	8100.59
590.24	8381.46
590.40	8128.68
590.56	8287.84
590.72	8198.90
590.88	8091.23
