SpectraSuite Data File
++++++++++++++++++++++++++++++++++++
Date: Mon Oct 07 14:53:09 GMT-05:00 2013
User: price-jones
Dark Spectrum Present: No
Reference Spectrum Present: No
Number of Sampled Component Spectra: 1
Spectrometers: USB2+H05261
Integration Time (usec): 100000 (USB2+H05261)
Spectra Averaged: 1 (USB2+H05261)
Boxcar Smoothing: 0 (USB2+H05261)
Correct for Electrical Dark: No (USB2+H05261)
Strobe/Lamp Enabled: No (USB2+H05261)
Correct for Detector Non-linearity: No (USB2+H05261)
Correct for Stray Light: No (USB2+H05261)
Number of Pixels in Processed Spectrum: 2048
>>>>>Begin Processed Spectral Data<<<<<
365.73	0.00
365.92	0.00
366.12	0.00
366.32	0.00
366.52	0.00
366.72	0.00
366.91	0.00
367.11	0.00
367.31	0.00
367.51	0.00
367.70	0.00
367.90	0.00
368.10	0.00
368.30	0.00
368.49	0.00
368.69	0.00
368.89	0.00
369.09	0.00
369.28	0.00
369.48	0.00
369.68	0.00
369.87	0.00
370.07	0.00
370.27	0.00
370.47	938.55
370.66	4690.43
370.86	5437.06
371.06	5863.04
371.25	5841.98
371.45	5413.66
371.65	4739.58
371.84	4510.21
372.04	4847.25
372.24	5231.10
372.44	5596.22
372.63	5455.79
372.83	5050.88
373.03	4287.86
373.22	4077.21
373.42	4210.62
373.62	4964.28
373.81	5397.28
374.01	5261.52
374.21	4720.86
374.40	4533.62
374.60	4685.75
374.79	5380.89
374.99	6279.66
375.19	6452.86
375.38	6640.10
375.58	6183.70
375.78	6024.54
375.97	6122.84
376.17	6476.26
376.37	6326.47
376.56	6581.59
376.76	6960.75
376.95	7445.24
377.15	7889.95
377.35	8175.49
377.54	8601.47
377.74	8624.87
377.93	8854.25
378.13	8428.27
378.33	8184.85
378.52	7655.89
378.72	7236.94
378.91	7007.56
379.11	6710.32
379.31	6696.27
379.50	6544.14
379.70	7098.84
379.89	7756.54
380.09	8287.84
380.28	8463.38
380.48	8468.06
380.68	8325.29
380.87	7971.86
381.07	7515.46
381.26	6965.43
381.46	6387.32
381.65	6258.59
381.85	6202.42
382.04	6015.18
382.24	5481.53
382.43	5153.86
382.63	5074.28
382.83	5149.18
383.02	5062.58
383.22	5048.54
383.41	5132.79
383.61	5535.37
383.80	6244.55
384.00	7302.47
384.19	7927.39
384.39	8339.33
384.58	8470.40
384.78	8376.78
384.97	7946.12
385.17	7770.58
385.36	7290.77
385.56	6942.03
385.75	7281.41
385.95	7927.39
386.14	8645.94
386.34	8514.87
386.53	8128.68
386.72	7604.40
386.92	7847.82
387.11	8208.26
387.31	8657.64
387.50	8479.76
387.70	8112.30
387.89	8077.19
388.09	8084.21
388.28	8215.28
388.48	8404.86
388.67	9046.17
388.86	9823.23
389.06	10387.30
389.25	11030.94
389.45	11260.32
389.64	11075.42
389.84	10764.12
390.03	10878.81
390.22	10916.26
390.42	11117.54
390.61	11775.24
390.81	12641.23
391.00	12812.09
391.19	12830.82
391.39	11969.50
391.58	11332.87
391.78	10951.37
391.97	10427.09
392.16	9738.97
392.36	8837.86
392.55	7150.34
392.75	5509.62
392.94	4821.50
393.13	4772.35
393.33	5717.93
393.52	7171.40
393.71	8767.65
393.91	9867.70
394.10	10532.41
394.29	11800.98
394.49	12248.02
394.68	13422.97
394.88	13345.73
395.07	13970.66
395.26	13799.80
395.46	13219.35
395.65	12465.69
395.84	10712.63
396.04	9181.92
396.23	7332.90
396.42	6349.87
396.62	6036.24
396.81	7159.70
397.00	9114.05
397.19	11489.69
397.39	13460.42
397.58	15040.28
397.77	16163.74
397.97	16627.17
398.16	16809.73
398.35	17565.72
398.55	18104.04
398.74	18759.39
398.93	18967.70
399.12	18953.66
399.32	18326.39
399.51	18244.48
399.70	19606.67
399.90	19513.05
400.09	19428.79
400.28	19442.83
400.47	19609.01
400.67	20788.64
400.86	21429.94
401.05	20886.94
401.24	20844.81
401.44	21303.56
401.63	21348.03
401.82	21727.19
402.01	21703.79
402.21	21614.85
402.40	21844.22
402.59	21174.83
402.78	20037.33
402.97	19721.35
403.17	20652.89
403.36	21867.63
403.55	22551.06
403.74	22764.05
403.93	21434.63
404.13	20203.50
404.32	19683.91
404.51	20573.31
404.70	22415.31
404.89	22459.78
405.09	21884.01
405.28	20989.92
405.47	21282.49
405.66	21268.45
405.85	20407.13
406.05	20233.93
406.24	20360.32
406.43	21518.89
406.62	22214.02
406.81	22221.05
407.00	21366.75
407.20	20933.75
407.39	20980.56
407.58	22050.19
407.77	23220.45
407.96	23889.85
408.15	24063.05
408.34	24098.16
408.54	25376.09
408.73	24952.45
408.92	24526.47
409.11	24252.63
409.30	22918.53
409.49	21310.58
409.68	19920.30
409.87	19363.25
410.07	21099.93
410.26	22569.79
410.45	24245.61
410.64	24573.28
410.83	25240.34
411.02	26127.40
411.21	26513.59
411.40	26129.74
411.59	26520.61
411.78	26419.97
411.98	25678.02
412.17	26558.06
412.36	25715.47
412.55	25914.41
412.74	25446.30
412.93	24816.70
413.12	25441.62
413.31	28037.28
413.50	27690.88
413.69	28416.44
413.88	27234.47
414.07	26417.63
414.26	26712.53
414.45	27807.90
414.64	27756.41
414.83	27737.69
415.02	27063.61
415.22	26941.91
415.41	27922.59
415.60	28790.93
415.79	29638.20
415.98	30338.02
416.17	30518.25
416.36	29780.98
416.55	29041.37
416.74	28367.29
416.93	27440.44
417.12	27414.69
417.31	27983.44
417.50	28109.83
417.69	29006.26
417.88	29252.02
418.07	28790.93
418.26	28268.99
418.45	28692.63
418.64	29998.65
418.83	30888.05
419.02	30284.19
419.21	30202.27
419.39	28624.75
419.58	27587.89
419.77	27608.96
419.96	28734.76
420.15	30326.32
420.34	31094.02
420.53	32135.56
420.72	32510.04
420.91	32371.95
421.10	32170.66
421.29	31744.69
421.48	31070.61
421.67	32025.55
421.86	31316.37
422.05	29549.26
422.24	26174.21
422.43	26206.98
422.61	28926.68
422.80	30955.93
422.99	31323.39
423.18	29912.05
423.37	29600.76
423.56	29621.82
423.75	30146.10
423.94	30764.00
424.13	28769.86
424.32	29296.49
424.50	29441.60
424.69	29017.96
424.88	29209.89
425.07	29298.83
425.26	29404.15
425.45	28861.15
425.64	28161.33
425.83	28044.30
426.01	29916.73
426.20	30300.58
426.39	30008.01
426.58	27967.06
426.77	26134.42
426.96	25259.06
427.15	26574.44
427.33	28388.36
427.52	29802.04
427.71	29432.24
427.90	28643.48
428.09	28727.74
428.28	28449.21
428.46	27470.87
428.65	26857.65
428.84	27431.08
429.03	27868.76
429.22	26647.00
429.40	25163.10
429.59	22707.88
429.78	20327.55
429.97	20718.42
430.16	20503.09
430.34	20184.78
430.53	20545.22
430.72	21261.43
430.91	23625.37
431.10	27594.92
431.28	32430.46
431.47	34829.51
431.66	35311.66
431.85	31737.66
432.03	29214.57
432.22	27992.81
432.41	29879.28
432.60	32603.66
432.79	34045.43
432.97	34501.84
433.16	33673.29
433.35	31075.29
433.54	27529.38
433.72	26106.34
433.91	27264.90
434.10	30129.72
434.28	32320.46
434.47	33874.57
434.66	33418.17
434.85	32507.70
435.03	32690.26
435.22	33139.65
435.41	34897.39
435.59	35262.51
435.78	36041.91
435.97	36519.38
436.16	37053.02
436.34	36343.84
436.53	35545.72
436.72	35672.10
436.90	33844.15
437.09	33535.20
437.28	33301.14
437.46	34417.58
437.65	34235.02
437.84	32137.90
438.02	29160.73
438.21	29373.72
438.40	31091.68
438.58	33823.08
438.77	34265.44
438.96	34623.54
439.14	36187.02
439.33	36587.25
439.52	37083.45
439.70	36341.50
439.89	35299.96
440.08	34759.30
440.26	34906.75
440.45	36402.35
440.63	37888.59
440.82	40273.60
441.01	39299.94
441.19	39129.08
441.38	40053.59
441.57	41549.19
441.75	41816.01
441.94	41900.27
442.12	41338.54
442.31	42450.30
442.50	42253.69
442.68	41504.72
442.87	40968.74
443.05	40739.36
443.24	41340.88
443.43	42099.22
443.61	42543.92
443.80	43246.08
443.98	41034.27
444.17	41111.51
444.35	43196.93
444.54	43803.13
444.73	43103.31
444.91	41633.45
445.10	40069.97
445.28	38855.23
445.47	37883.91
445.65	37888.59
445.84	39346.75
446.02	40624.68
446.21	41249.60
446.39	41230.88
446.58	41869.84
446.77	42220.92
446.95	42712.44
447.14	43702.48
447.32	44161.23
447.51	43632.27
447.69	42457.32
447.88	41684.94
448.06	42328.59
448.25	43339.70
448.43	43283.53
448.62	42494.77
448.80	42274.76
448.99	42733.50
449.17	42958.19
449.36	43107.99
449.54	44390.60
449.73	44985.10
449.91	45535.12
450.10	46398.78
450.28	47381.80
450.46	46752.20
450.65	47100.94
450.83	46752.20
451.02	45614.70
451.20	45743.43
451.39	45626.40
451.57	45633.42
451.76	45275.32
451.94	44982.76
452.13	43973.98
452.31	42382.42
452.49	40566.16
452.68	41092.79
452.86	41177.04
453.05	41481.31
453.23	43285.87
453.42	43885.04
453.60	44556.78
453.78	44989.78
453.97	44669.12
454.15	44715.93
454.34	43723.55
454.52	44114.42
454.70	43365.45
454.89	44030.16
455.07	44065.27
455.26	44481.88
455.44	46192.81
455.62	46635.17
455.81	47199.24
455.99	46518.15
456.17	46134.30
456.36	46274.73
456.54	47615.86
456.73	47035.41
456.91	47821.83
457.09	48086.31
457.28	48519.31
457.46	47040.09
457.64	46988.60
457.83	45350.22
458.01	44905.52
458.19	45911.95
458.38	46272.39
458.56	47503.51
458.74	47007.32
458.93	46082.81
459.11	46548.57
459.29	46302.82
459.48	46370.69
459.66	45846.41
459.84	46822.42
460.03	46850.50
460.21	46829.44
460.39	48105.03
460.57	48388.24
460.76	48320.36
460.94	48631.65
461.12	47990.34
461.31	48413.98
461.49	48123.75
461.67	48559.09
461.85	49366.58
462.04	48861.02
462.22	49184.02
462.40	49216.78
462.59	48760.38
462.77	49277.64
462.95	49558.50
463.13	48781.45
463.32	48114.39
463.50	47999.71
463.68	47985.66
463.86	47988.00
464.05	47367.76
464.23	46761.56
464.41	46286.43
464.59	46155.36
464.78	48170.57
464.96	47924.81
465.14	47262.44
465.32	48549.73
465.50	49415.73
465.69	49404.03
465.87	48528.67
466.05	47742.25
466.23	45830.03
466.41	45221.49
466.60	47049.45
466.78	46485.38
466.96	47236.69
467.14	47618.20
467.32	48287.59
467.51	48189.29
467.69	46300.48
467.87	47096.26
468.05	47669.69
468.23	48264.19
468.41	47763.31
468.60	47821.83
468.78	48072.26
468.96	47463.72
469.14	48662.08
469.32	48961.67
469.50	47159.45
469.69	47168.82
469.87	46401.12
470.05	46642.20
470.23	46637.51
470.41	47075.19
470.59	47552.66
470.77	47775.02
470.95	48336.74
471.14	48903.15
471.32	48842.30
471.50	50967.51
471.68	50927.72
471.86	51028.36
472.04	51105.60
472.22	51374.76
472.40	49661.49
472.58	49462.54
472.77	48835.28
472.95	49570.21
473.13	50775.58
473.31	49642.76
473.49	49977.46
473.67	50681.96
473.85	50934.74
474.03	51725.84
474.21	51562.00
474.39	52069.90
474.57	52030.11
474.75	52196.29
474.93	51650.94
475.12	50969.85
475.30	51131.34
475.48	51442.63
475.66	51583.07
475.84	51426.25
476.02	51332.63
476.20	50745.15
476.38	51459.02
476.56	52336.72
476.74	52968.66
476.92	52692.48
477.10	53371.24
477.28	54438.52
477.46	54248.94
477.64	54557.89
477.82	54843.43
478.00	54536.82
478.18	54248.94
478.36	54120.21
478.54	54227.87
478.72	54351.92
478.90	55264.73
479.08	55781.99
479.26	56074.55
479.44	55941.14
479.62	55758.58
479.80	55891.99
479.98	55955.19
480.16	56385.85
480.34	55784.33
480.52	56292.22
480.70	56285.20
480.88	56505.21
481.06	56931.19
481.24	57202.69
481.41	57591.22
481.59	58042.95
481.77	58049.97
481.95	57619.31
482.13	57254.18
482.31	57530.37
482.49	58010.18
482.67	57836.98
482.85	58064.01
483.03	58370.62
483.21	58574.25
483.39	58597.65
483.57	58035.92
483.74	57918.90
483.92	58213.80
484.10	58335.51
484.28	58901.92
484.46	59224.92
484.64	59515.14
484.82	58773.19
485.00	58525.10
485.18	57904.85
485.35	57141.84
485.53	54663.21
485.71	51686.05
485.89	51906.06
486.07	53291.66
486.25	55671.98
486.43	57408.66
486.61	57717.61
486.78	57661.44
486.96	57975.07
487.14	59004.91
487.32	59428.54
487.50	60303.90
487.68	60872.65
487.85	61120.75
488.03	61195.65
488.21	60591.79
488.39	60467.74
488.57	59760.90
488.75	59753.88
488.92	60676.05
489.10	62024.20
489.28	63002.54
489.46	63496.39
489.64	63260.00
489.81	63447.24
489.99	63192.12
490.17	63182.76
490.35	63543.20
490.53	63187.44
490.70	63093.82
490.88	62953.39
491.06	63669.59
491.24	63592.36
491.41	62714.65
491.59	61553.75
491.77	60999.04
491.95	61982.07
492.13	62695.93
492.30	63730.45
492.48	64338.99
492.66	64610.49
492.84	64638.57
493.01	64458.35
493.19	63997.27
493.37	63819.39
493.54	63760.87
493.72	64299.20
493.90	64856.24
494.08	65378.18
494.25	65535.00
494.43	65535.00
494.61	65535.00
494.79	65535.00
494.96	65535.00
495.14	65457.76
495.32	64821.14
495.49	64404.52
495.67	65207.32
495.85	65535.00
496.02	65535.00
496.20	65535.00
496.38	65535.00
496.55	65535.00
496.73	65535.00
496.91	65535.00
497.09	65535.00
497.26	65535.00
497.44	65535.00
497.62	65535.00
497.79	65535.00
497.97	64807.09
498.14	64858.59
498.32	65535.00
498.50	65535.00
498.67	65535.00
498.85	65535.00
499.03	65535.00
499.20	65535.00
499.38	65535.00
499.56	65535.00
499.73	65535.00
499.91	65535.00
500.08	65535.00
500.26	65347.76
500.44	65535.00
500.61	65535.00
500.79	65535.00
500.97	65535.00
501.14	65535.00
501.32	65492.87
501.49	65535.00
501.67	65535.00
501.84	65535.00
502.02	65535.00
502.20	65535.00
502.37	65535.00
502.55	65535.00
502.72	65535.00
502.90	65535.00
503.07	65535.00
503.25	65535.00
503.43	65535.00
503.60	65535.00
503.78	65427.34
503.95	65535.00
504.13	65535.00
504.30	65535.00
504.48	65535.00
504.65	65535.00
504.83	65535.00
505.01	65535.00
505.18	65535.00
505.36	65535.00
505.53	65535.00
505.71	65535.00
505.88	65535.00
506.06	65535.00
506.23	65535.00
506.41	65535.00
506.58	65535.00
506.76	65535.00
506.93	65535.00
507.11	65535.00
507.28	65535.00
507.46	65535.00
507.63	65535.00
507.81	65535.00
507.98	65535.00
508.16	65535.00
508.33	65535.00
508.50	65535.00
508.68	65535.00
508.85	65535.00
509.03	65535.00
509.20	65535.00
509.38	65535.00
509.55	65535.00
509.73	65535.00
509.90	65535.00
510.08	65535.00
510.25	65535.00
510.42	65535.00
510.60	65535.00
510.77	65535.00
510.95	65535.00
511.12	65535.00
511.30	65535.00
511.47	65535.00
511.64	65535.00
511.82	65535.00
511.99	65535.00
512.17	65535.00
512.34	65535.00
512.51	65535.00
512.69	65535.00
512.86	65535.00
513.04	65535.00
513.21	65535.00
513.38	65535.00
513.56	65535.00
513.73	65535.00
513.90	65535.00
514.08	65535.00
514.25	65535.00
514.43	65535.00
514.60	65535.00
514.77	65535.00
514.95	65535.00
515.12	65535.00
515.29	65535.00
515.47	65535.00
515.64	65535.00
515.81	65535.00
515.99	65535.00
516.16	65535.00
516.33	65535.00
516.51	63903.65
516.68	63117.23
516.85	62777.85
517.03	63302.13
517.20	65324.35
517.37	65535.00
517.54	65535.00
517.72	65535.00
517.89	65535.00
518.06	64172.81
518.24	64130.68
518.41	65535.00
518.58	65535.00
518.75	65535.00
518.93	65535.00
519.10	65535.00
519.27	65535.00
519.45	65535.00
519.62	65535.00
519.79	65535.00
519.96	65535.00
520.14	65535.00
520.31	65535.00
520.48	65535.00
520.65	65535.00
520.83	65535.00
521.00	65535.00
521.17	65535.00
521.34	65535.00
521.52	65535.00
521.69	65535.00
521.86	65535.00
522.03	65535.00
522.20	65535.00
522.38	65535.00
522.55	65535.00
522.72	65535.00
522.89	65535.00
523.07	65535.00
523.24	65535.00
523.41	65535.00
523.58	65535.00
523.75	65535.00
523.92	65535.00
524.10	65535.00
524.27	65535.00
524.44	65535.00
524.61	65535.00
524.78	65535.00
524.96	65535.00
525.13	65535.00
525.30	65535.00
525.47	65535.00
525.64	65535.00
525.81	65535.00
525.98	65535.00
526.16	65535.00
526.33	65535.00
526.50	65535.00
526.67	65361.80
526.84	65535.00
527.01	65535.00
527.18	65535.00
527.36	65535.00
527.53	65535.00
527.70	65535.00
527.87	65535.00
528.04	65535.00
528.21	65535.00
528.38	65535.00
528.55	65535.00
528.72	65535.00
528.89	65535.00
529.07	65535.00
529.24	65535.00
529.41	65535.00
529.58	65535.00
529.75	65535.00
529.92	65535.00
530.09	65535.00
530.26	65535.00
530.43	65535.00
530.60	65535.00
530.77	65535.00
530.94	65535.00
531.11	65535.00
531.28	65535.00
531.46	65535.00
531.63	65535.00
531.80	65535.00
531.97	65535.00
532.14	65535.00
532.31	65535.00
532.48	65535.00
532.65	65535.00
532.82	65535.00
532.99	65535.00
533.16	65535.00
533.33	65535.00
533.50	65535.00
533.67	65535.00
533.84	65535.00
534.01	65535.00
534.18	65535.00
534.35	65535.00
534.52	65535.00
534.69	65535.00
534.86	65535.00
535.03	65535.00
535.20	65535.00
535.37	65535.00
535.54	65535.00
535.71	65535.00
535.88	65535.00
536.05	65535.00
536.22	65535.00
536.38	65535.00
536.55	65535.00
536.72	65535.00
536.89	65535.00
537.06	65535.00
537.23	65535.00
537.40	65535.00
537.57	65535.00
537.74	65535.00
537.91	65535.00
538.08	65535.00
538.25	65535.00
538.42	65535.00
538.59	65535.00
538.75	65535.00
538.92	65535.00
539.09	65535.00
539.26	65535.00
539.43	65535.00
539.60	65535.00
539.77	65535.00
539.94	65535.00
540.11	65535.00
540.28	65535.00
540.44	65535.00
540.61	65535.00
540.78	65535.00
540.95	65535.00
541.12	65535.00
541.29	65535.00
541.46	65535.00
541.62	65535.00
541.79	65535.00
541.96	65535.00
542.13	65535.00
542.30	65535.00
542.47	65535.00
542.63	65535.00
542.80	65535.00
542.97	65535.00
543.14	65535.00
543.31	65535.00
543.48	65535.00
543.64	65535.00
543.81	65535.00
543.98	65535.00
544.15	65535.00
544.32	65535.00
544.48	65535.00
544.65	65535.00
544.82	65535.00
544.99	65535.00
545.16	65535.00
545.32	65535.00
545.49	65535.00
545.66	65535.00
545.83	65535.00
546.00	65535.00
546.16	65535.00
546.33	65535.00
546.50	65535.00
546.67	65535.00
546.83	65535.00
547.00	65535.00
547.17	65535.00
547.34	65535.00
547.50	65535.00
547.67	65535.00
547.84	65535.00
548.00	65535.00
548.17	65535.00
548.34	65535.00
548.51	65535.00
548.67	65535.00
548.84	65535.00
549.01	65535.00
549.18	65535.00
549.34	65535.00
549.51	65535.00
549.68	65535.00
549.84	65535.00
550.01	65535.00
550.18	65535.00
550.34	65535.00
550.51	65535.00
550.68	65535.00
550.84	65535.00
551.01	65535.00
551.18	65535.00
551.34	65535.00
551.51	65535.00
551.68	65535.00
551.84	65535.00
552.01	65535.00
552.18	65535.00
552.34	65535.00
552.51	65535.00
552.68	65535.00
552.84	65535.00
553.01	65535.00
553.18	65535.00
553.34	65535.00
553.51	65535.00
553.67	65535.00
553.84	65535.00
554.01	65535.00
554.17	65535.00
554.34	65535.00
554.51	65535.00
554.67	65535.00
554.84	65535.00
555.00	65535.00
555.17	65535.00
555.33	65535.00
555.50	65535.00
555.67	65535.00
555.83	65535.00
556.00	65535.00
556.16	65535.00
556.33	65535.00
556.50	65535.00
556.66	65535.00
556.83	65535.00
556.99	65535.00
557.16	65535.00
557.32	65535.00
557.49	65535.00
557.65	65535.00
557.82	65535.00
557.98	65535.00
558.15	65535.00
558.32	65535.00
558.48	65043.49
558.65	65277.54
558.81	65535.00
558.98	65535.00
559.14	65535.00
559.31	65535.00
559.47	65535.00
559.64	65535.00
559.80	65443.72
559.97	65535.00
560.13	65535.00
560.30	65535.00
560.46	65535.00
560.63	65535.00
560.79	65535.00
560.96	65535.00
561.12	65535.00
561.29	65343.08
561.45	65298.61
561.61	65535.00
561.78	65535.00
561.94	65535.00
562.11	65535.00
562.27	65535.00
562.44	65535.00
562.60	65535.00
562.77	65535.00
562.93	65535.00
563.10	65535.00
563.26	65535.00
563.42	65535.00
563.59	65535.00
563.75	65535.00
563.92	65535.00
564.08	65535.00
564.24	65535.00
564.41	65535.00
564.57	65535.00
564.74	65535.00
564.90	65535.00
565.07	65535.00
565.23	65476.49
565.39	64956.89
565.56	64678.36
565.72	64434.95
565.88	64903.06
566.05	64846.88
566.21	65078.60
566.38	65286.90
566.54	65279.88
566.70	65535.00
566.87	65535.00
567.03	65535.00
567.19	65535.00
567.36	65535.00
567.52	65535.00
567.68	65394.57
567.85	64877.31
568.01	64779.01
568.17	64432.61
568.34	64544.95
568.50	64292.18
568.66	64362.39
568.83	64549.63
568.99	64624.53
569.15	65052.85
569.32	64980.29
569.48	64704.11
569.64	64619.85
569.81	64444.31
569.97	64334.31
570.13	64364.73
570.30	63868.54
570.46	63669.59
570.62	63189.78
570.78	63283.40
570.95	63566.61
571.11	63845.13
571.27	63955.14
571.43	64254.73
571.60	64622.19
571.76	64598.79
571.92	64811.77
572.09	64926.46
572.25	64907.74
572.41	64863.27
572.57	64732.20
572.74	64697.09
572.90	64451.33
573.06	64390.48
573.22	64683.04
573.38	64563.68
573.55	64540.27
573.71	64530.91
573.87	64477.08
574.03	64306.22
574.20	64360.05
574.36	64205.58
574.52	64058.12
574.68	63875.56
574.84	63580.65
575.01	62948.71
575.17	63093.82
575.33	63260.00
575.49	63749.17
575.65	63716.40
575.82	63655.55
575.98	63210.85
576.14	63489.37
576.30	63571.29
576.46	63702.36
576.62	63667.25
576.79	63685.98
576.95	63416.82
577.11	63517.46
577.27	63711.72
577.43	63517.46
577.59	63107.86
577.75	62934.66
577.92	62443.15
578.08	62298.04
578.24	62356.55
578.40	62742.74
578.56	62913.60
578.72	62700.61
578.88	62876.15
579.04	62993.18
579.21	63192.12
579.37	63124.25
579.53	63182.76
579.69	63086.80
579.85	63421.50
580.01	63140.63
580.17	62726.36
580.33	62583.58
580.49	62852.75
580.65	63131.27
580.82	63295.11
580.98	63243.62
581.14	63077.44
581.30	63140.63
581.46	63131.27
581.62	63323.19
581.78	63164.04
581.94	63496.39
582.10	63554.91
582.26	63465.97
582.42	63332.56
582.58	63327.87
582.74	63491.71
582.90	63426.18
583.06	63587.67
583.22	63182.76
583.38	63133.61
583.54	63365.32
583.70	62979.14
583.86	63281.06
584.02	63014.24
584.18	63142.97
584.34	63089.14
584.50	62948.71
584.66	62979.14
584.82	62450.17
584.98	62375.28
