SpectraSuite Data File
++++++++++++++++++++++++++++++++++++
Date: Mon Oct 07 14:54:03 GMT-05:00 2013
User: price-jones
Dark Spectrum Present: No
Reference Spectrum Present: No
Number of Sampled Component Spectra: 1
Spectrometers: USB2+H05261
Integration Time (usec): 100000 (USB2+H05261)
Spectra Averaged: 1 (USB2+H05261)
Boxcar Smoothing: 0 (USB2+H05261)
Correct for Electrical Dark: No (USB2+H05261)
Strobe/Lamp Enabled: No (USB2+H05261)
Correct for Detector Non-linearity: No (USB2+H05261)
Correct for Stray Light: No (USB2+H05261)
Number of Pixels in Processed Spectrum: 2048
>>>>>Begin Processed Spectral Data<<<<<
365.73	0.00
365.92	0.00
366.12	0.00
366.32	0.00
366.52	0.00
366.72	0.00
366.91	0.00
367.11	0.00
367.31	0.00
367.51	0.00
367.70	0.00
367.90	0.00
368.10	0.00
368.30	0.00
368.49	0.00
368.69	0.00
368.89	0.00
369.09	0.00
369.28	0.00
369.48	0.00
369.68	0.00
369.87	0.00
370.07	0.00
370.27	0.00
370.47	678.76
370.66	3269.73
370.86	3831.46
371.06	4154.45
371.25	4395.53
371.45	4011.68
371.65	3438.25
371.84	3283.77
372.04	3442.93
372.24	3796.35
372.44	4046.79
372.63	4088.92
372.83	3653.58
373.03	3335.26
373.22	2965.46
373.42	3155.04
373.62	3625.49
373.81	4014.02
374.01	3983.59
374.21	3461.65
374.40	3272.07
374.60	3412.50
374.79	3819.75
374.99	4521.92
375.19	4870.65
375.38	4814.48
375.58	4634.26
375.78	4500.85
375.97	4582.77
376.17	4739.58
376.37	4730.22
376.56	4903.42
376.76	5245.14
376.95	5334.08
377.15	5802.19
377.35	6122.84
377.54	6392.00
377.74	6511.37
377.93	6590.95
378.13	6314.77
378.33	6050.28
378.52	5544.73
378.72	5334.08
378.91	5238.12
379.11	5032.15
379.31	4905.76
379.50	4877.68
379.70	5254.50
379.89	5820.91
380.09	6232.85
380.28	6539.46
380.48	6338.17
380.68	6155.61
380.87	6061.99
381.07	5598.56
381.26	5193.65
381.46	4954.91
381.65	4725.54
381.85	4479.79
382.04	4573.41
382.24	4131.05
382.43	3889.97
382.63	3824.44
382.83	3866.56
383.02	3822.09
383.22	3948.48
383.41	3985.93
383.61	4070.19
383.80	4671.71
384.00	5303.65
384.19	5926.24
384.39	6235.19
384.58	6211.78
384.78	6202.42
384.97	6204.76
385.17	5731.97
385.36	5399.62
385.56	5151.52
385.75	5385.57
385.95	6153.27
386.14	6422.43
386.34	6335.83
386.53	6104.12
386.72	5748.36
386.92	5849.00
387.11	5937.94
387.31	6345.19
387.50	6328.81
387.70	5991.77
387.89	5989.43
388.09	6225.82
388.28	6150.93
388.48	6132.20
388.67	6703.29
388.86	7349.28
389.06	7716.75
389.25	8393.16
389.45	8348.69
389.64	8353.37
389.84	8086.55
390.03	7995.27
390.22	8095.91
390.42	8329.97
390.61	8891.70
390.81	9497.89
391.00	9753.01
391.19	9626.62
391.39	9322.35
391.58	8772.33
391.78	8383.80
391.97	8116.98
392.16	7592.70
392.36	6684.57
392.55	5612.60
392.75	4362.76
392.94	3557.61
393.13	3445.27
393.33	4077.21
393.52	5270.89
393.71	6553.50
393.91	7353.96
394.10	7878.24
394.29	8791.05
394.49	9352.78
394.68	10125.16
394.88	10188.35
395.07	10527.73
395.26	10328.78
395.46	10036.22
395.65	9462.79
395.84	8259.75
396.04	6902.24
396.23	5657.07
396.42	4692.77
396.62	4440.00
396.81	5385.57
397.00	6794.58
397.19	8615.51
397.39	10038.56
397.58	11454.58
397.77	12084.19
397.97	12664.64
398.16	12610.81
398.35	13245.09
398.55	13530.64
398.74	13973.00
398.93	14298.33
399.12	14335.78
399.32	13605.53
399.51	14075.98
399.70	15007.52
399.90	14572.18
400.09	14871.76
400.28	14628.35
400.47	14593.24
400.67	15587.97
400.86	15885.22
401.05	15796.28
401.24	15843.09
401.44	16358.00
401.63	16009.26
401.82	16388.43
402.01	16056.08
402.21	16105.23
402.40	16362.69
402.59	16224.59
402.78	15400.72
402.97	14719.63
403.17	15843.09
403.36	16315.87
403.55	16929.09
403.74	17465.08
403.93	16437.58
404.13	15396.04
404.32	14920.92
404.51	15302.42
404.70	16489.07
404.89	16812.07
405.09	16400.13
405.28	15992.88
405.47	15953.09
405.66	15967.13
405.85	15761.17
406.05	15110.50
406.24	15161.99
406.43	16149.70
406.62	16769.94
406.81	16690.36
407.00	16168.42
407.20	15819.68
407.39	16037.35
407.58	16629.51
407.77	17303.58
407.96	17783.39
408.15	17884.03
408.34	18310.01
408.54	18862.38
408.73	18644.71
408.92	18724.29
409.11	18281.92
409.30	17216.98
409.49	16283.11
409.68	15255.61
409.87	14754.74
410.07	15449.88
410.26	17149.11
410.45	17968.29
410.64	18434.06
410.83	18801.52
411.02	19634.75
411.21	20060.73
411.40	19634.75
411.59	20037.33
411.78	19714.33
411.98	19606.67
412.17	19885.19
412.36	19257.93
412.55	19496.66
412.74	18923.23
412.93	18494.91
413.12	18899.83
413.31	20521.82
413.50	20924.39
413.69	21266.11
413.88	20533.52
414.07	19824.34
414.26	20168.40
414.45	20678.63
414.64	20992.26
414.83	20865.88
415.02	20407.13
415.22	20374.36
415.41	21305.90
415.60	21736.56
415.79	22347.44
415.98	22796.82
416.17	22991.08
416.36	22494.89
416.55	22347.44
416.74	21427.60
416.93	20517.14
417.12	20606.08
417.31	20924.39
417.50	21563.36
417.69	21935.50
417.88	21743.58
418.07	21876.99
418.26	21427.60
418.45	21406.54
418.64	22345.09
418.83	22890.44
419.02	22792.14
419.21	22593.19
419.39	21387.82
419.58	20442.24
419.77	20917.37
419.96	21301.22
420.15	22712.56
420.34	23679.20
420.53	24088.79
420.72	24121.56
420.91	24084.11
421.10	24189.44
421.29	23772.82
421.48	22918.53
421.67	24219.86
421.86	23562.17
422.05	22104.02
422.24	19817.32
422.43	19620.71
422.61	21539.95
422.80	23487.28
422.99	23564.51
423.18	22583.83
423.37	21928.48
423.56	22003.38
423.75	22260.84
423.94	22560.42
424.13	21411.22
424.32	21738.90
424.50	21970.61
424.69	21617.19
424.88	21535.27
425.07	21717.83
425.26	21956.57
425.45	21443.99
425.64	21069.50
425.83	20863.54
426.01	22403.61
426.20	22792.14
426.39	22754.69
426.58	20772.25
426.77	19786.89
426.96	18696.20
427.15	19410.06
427.33	21046.10
427.52	21774.00
427.71	21942.52
427.90	21596.12
428.09	21443.99
428.28	21025.03
428.46	20287.76
428.65	20077.12
428.84	20292.44
429.03	20755.87
429.22	19775.19
429.40	18766.42
429.59	17226.34
429.78	15180.71
429.97	14904.53
430.16	15433.49
430.34	15077.73
430.53	15098.80
430.72	15676.91
430.91	17046.12
431.10	20215.21
431.28	23817.29
431.47	26008.03
431.66	26331.03
431.85	23922.62
432.03	21975.29
432.22	21048.44
432.41	21736.56
432.60	24292.42
432.79	24767.55
432.97	25713.13
433.16	25235.66
433.35	22904.48
433.54	20805.02
433.72	19286.01
433.91	19889.87
434.10	22335.73
434.28	23721.33
434.47	25212.25
434.66	24805.00
434.85	24140.29
435.03	23770.48
435.22	24718.40
435.41	26036.12
435.59	26277.19
435.78	26214.00
435.97	27030.85
436.16	27143.19
436.34	26742.96
436.53	26043.14
436.72	26621.25
436.90	25025.01
437.09	24870.53
437.28	24467.96
437.46	25163.10
437.65	25411.20
437.84	23718.99
438.02	21689.74
438.21	21341.00
438.40	22473.82
438.58	24542.86
438.77	25160.76
438.96	25528.22
439.14	26792.11
439.33	27122.13
439.52	27386.61
439.70	27065.96
439.89	26125.06
440.08	25717.81
440.26	25474.39
440.45	26256.13
440.63	27924.93
440.82	29486.07
441.01	28968.81
441.19	28814.34
441.38	29364.36
441.57	30457.39
441.75	30909.11
441.94	30979.33
442.12	30614.21
442.31	31400.63
442.50	31433.39
442.68	30855.28
442.87	30398.88
443.05	30141.42
443.24	30394.20
443.43	30836.56
443.61	32095.77
443.80	32165.98
443.98	30443.35
444.17	30342.70
444.35	31903.84
444.54	32306.41
444.73	32254.92
444.91	30946.56
445.10	29874.60
445.28	28184.73
445.47	27964.72
445.65	28364.95
445.84	28882.21
446.02	29661.61
446.21	30279.51
446.39	30497.18
446.58	30806.13
446.77	31353.82
446.95	31412.33
447.14	32425.78
447.32	32842.40
447.51	32404.72
447.69	31178.28
447.88	30780.39
448.06	30974.65
448.25	31833.63
448.43	31985.76
448.62	31550.42
448.80	31084.65
448.99	31431.05
449.17	31938.95
449.36	31908.52
449.54	32980.49
449.73	33268.37
449.91	33921.38
450.10	34869.30
450.28	35260.17
450.46	34836.53
450.65	34878.66
450.83	34539.29
451.02	33776.27
451.20	33921.38
451.39	33502.43
451.57	33102.20
451.76	33696.69
451.94	33668.61
452.13	32797.93
452.31	30808.47
452.49	29799.70
452.68	30265.47
452.86	30258.45
453.05	30595.48
453.23	31536.38
453.42	32229.18
453.60	32748.78
453.78	33802.02
453.97	32734.73
454.15	32905.59
454.34	32247.90
454.52	32603.66
454.70	32016.19
454.89	32081.72
455.07	32432.80
455.26	32725.37
455.44	33848.83
455.62	34398.85
455.81	34934.84
455.99	34476.09
456.17	33757.55
456.36	33457.96
456.54	34904.41
456.73	35086.97
456.91	35332.73
457.09	35580.82
457.28	36062.97
457.46	34527.58
457.64	34883.34
457.83	33509.45
458.01	33364.34
458.19	33720.10
458.38	34040.75
458.56	35014.41
458.74	34930.16
458.93	34707.80
459.11	34452.69
459.29	33806.70
459.48	34272.46
459.66	33750.52
459.84	34321.62
460.03	34581.42
460.21	34649.29
460.39	35667.42
460.57	35894.46
460.76	36055.95
460.94	35962.33
461.12	35445.07
461.31	35700.19
461.49	35583.16
461.67	35711.89
461.85	36711.30
462.04	36638.75
462.22	37275.37
462.40	36357.88
462.59	36486.61
462.77	36598.96
462.95	36664.49
463.13	36308.73
463.32	36023.19
463.50	35644.02
463.68	35344.43
463.86	35646.36
464.05	34834.19
464.23	34433.96
464.41	34340.34
464.59	33727.12
464.78	35637.00
464.96	35016.75
465.14	35072.93
465.32	35447.41
465.50	36463.21
465.69	37109.19
465.87	35887.43
466.05	35119.74
466.23	33383.06
466.41	32776.86
466.60	33780.95
466.78	33802.02
466.96	34417.58
467.14	34923.13
467.32	35412.31
467.51	35866.37
467.69	33862.87
467.87	34338.00
468.05	34785.04
468.23	35035.48
468.41	35124.42
468.60	35515.29
468.78	35601.89
468.96	35021.44
469.14	36081.70
469.32	35927.22
469.50	34415.24
469.69	34866.96
469.87	34160.12
470.05	34082.88
470.23	33684.99
470.41	34141.39
470.59	34656.31
470.77	35108.04
470.95	35173.57
471.14	36156.60
471.32	35803.17
471.50	37736.46
471.68	38132.01
471.86	38337.98
472.04	38473.73
472.22	38438.62
472.40	36605.98
472.58	36378.95
472.77	35765.73
472.95	36524.06
473.13	37729.44
473.31	36526.40
473.49	36975.78
473.67	37956.47
473.85	37923.70
474.03	38880.98
474.21	38775.66
474.39	38813.10
474.57	39117.37
474.75	39625.27
474.93	38941.83
475.12	37897.95
475.30	38380.10
475.48	38197.54
475.66	38869.28
475.84	38515.86
476.02	38148.39
476.20	37315.16
476.38	38326.27
476.56	39702.51
476.74	39880.39
476.92	39922.52
477.10	40570.85
477.28	41603.02
477.46	41773.88
477.64	41743.45
477.82	42555.62
478.00	42260.71
478.18	41923.68
478.36	41457.91
478.54	41762.18
478.72	42031.34
478.90	43037.77
479.08	43931.86
479.26	44828.28
479.44	44128.46
479.62	43976.33
479.80	44076.97
479.98	44498.26
480.16	44931.26
480.34	44226.76
480.52	44814.24
480.70	44989.78
480.88	44678.49
481.06	45441.50
481.24	46054.72
481.41	46143.66
481.59	47112.64
481.77	46560.28
481.95	46326.22
482.13	45935.35
482.31	46415.16
482.49	46979.23
482.67	46681.98
482.85	47320.95
483.03	47672.03
483.21	48327.38
483.39	48133.12
483.57	47306.91
483.74	46918.38
483.92	47412.23
484.10	47412.23
484.28	48116.73
484.46	48938.26
484.64	48994.43
484.82	48303.98
485.00	47632.24
485.18	47126.69
485.35	45394.69
485.53	42646.90
485.71	39262.49
485.89	38335.63
486.07	40334.45
486.25	43601.84
486.43	45509.38
486.61	47047.11
486.78	46707.73
486.96	46780.29
487.14	48402.28
487.32	49572.55
487.50	50536.85
487.68	51246.03
487.85	51594.77
488.03	51695.41
488.21	50995.59
488.39	50674.94
488.57	49986.82
488.75	49462.54
488.92	50419.82
489.10	52896.11
489.28	53947.01
489.46	54665.55
489.64	54459.58
489.81	54482.99
489.99	53890.83
490.17	54288.73
490.35	54803.64
490.53	54258.30
490.70	54176.38
490.88	53574.86
491.06	54621.08
491.24	54588.31
491.41	53923.60
491.59	52137.77
491.77	51255.39
491.95	52053.51
492.13	53371.24
492.30	54817.69
492.48	55653.26
492.66	55774.97
492.84	56104.98
493.01	55742.20
493.19	55079.83
493.37	54923.01
493.54	54387.03
493.72	55096.21
493.90	56147.11
494.08	56846.93
494.25	57010.77
494.43	57385.25
494.61	57645.05
494.79	57766.76
494.96	57471.85
495.14	56980.34
495.32	55945.83
495.49	55103.23
495.67	56374.14
495.85	57705.91
496.02	58064.01
496.20	58150.61
496.38	57539.73
496.55	57462.49
496.73	57787.83
496.91	57712.93
497.09	58590.63
497.26	58602.33
497.44	58197.42
497.62	57684.84
497.79	56963.96
497.97	55536.23
498.14	55976.25
498.32	57029.49
498.50	57841.66
498.67	58377.64
498.85	58349.56
499.03	58394.03
499.20	58419.77
499.38	58705.32
499.56	58468.92
499.73	58010.18
499.91	57755.06
500.08	57275.25
500.26	56638.62
500.44	56931.19
500.61	57516.32
500.79	57418.02
500.97	56821.19
501.14	56750.97
501.32	56757.99
501.49	56800.12
501.67	56816.50
501.84	57165.24
502.02	57638.03
502.20	57998.48
502.37	58127.20
502.55	58274.66
502.72	58834.05
502.90	58901.92
503.07	58976.82
503.25	58520.41
503.43	57710.59
503.60	56968.64
503.78	56336.69
503.95	56704.16
504.13	58181.04
504.30	58925.33
504.48	58539.14
504.65	58389.34
504.83	58330.83
505.01	59110.23
505.18	59398.12
505.36	59945.80
505.53	59980.91
505.71	59936.44
505.88	60261.77
506.06	59463.65
506.23	59231.94
506.41	59004.91
506.58	59243.64
506.76	59154.70
506.93	59054.06
507.11	58585.95
507.28	58918.31
507.46	58440.84
507.63	58045.29
507.81	57305.68
507.98	58035.92
508.16	58426.79
508.33	59203.85
508.50	59393.43
508.68	59721.11
508.85	60177.51
509.03	60399.86
509.20	60025.38
509.38	59505.78
509.55	58618.72
509.73	58780.21
509.90	59334.92
510.08	59388.75
510.25	59458.97
510.42	59077.46
510.60	58993.20
510.77	59419.18
510.95	59913.03
511.12	60175.17
511.30	60224.32
511.47	60706.47
511.64	60470.08
511.82	60184.54
511.99	59323.22
512.17	59105.55
512.34	58820.00
512.51	59063.42
512.69	59068.10
512.86	59068.10
513.04	59543.23
513.21	59594.72
513.38	59140.66
513.56	58522.76
513.73	57991.45
513.90	58314.45
514.08	58361.26
514.25	58670.21
514.43	58862.13
514.60	58845.75
514.77	59054.06
514.95	59278.75
515.12	59016.61
515.29	59096.19
515.47	59702.38
515.64	59969.21
515.81	59538.55
515.99	59100.87
516.16	57701.23
516.33	55540.91
516.51	54003.18
516.68	53317.40
516.85	52835.25
517.03	53088.03
517.20	55723.47
517.37	58260.62
517.54	58993.20
517.72	58543.82
517.89	56460.74
518.06	53670.82
518.24	54220.85
518.41	56519.26
518.58	57567.82
518.75	58056.99
518.93	58166.99
519.10	57822.93
519.27	58422.11
519.45	58614.04
519.62	59505.78
519.79	59400.46
519.96	59351.30
520.14	59040.01
520.31	58113.16
520.48	58232.53
520.65	58585.95
520.83	59140.66
521.00	59835.80
521.17	59423.86
521.34	59206.19
521.52	59063.42
521.69	59898.99
521.86	60289.86
522.03	60224.32
522.20	58805.96
522.38	57701.23
522.55	57717.61
522.72	58464.24
522.89	58827.02
523.07	58735.74
523.24	59058.74
523.41	59835.80
523.58	60109.64
523.75	60704.13
523.92	60362.42
524.10	60449.02
524.27	60226.66
524.44	60126.02
524.61	59819.41
524.78	59948.14
524.96	59838.14
525.13	59796.01
525.30	60184.54
525.47	60315.61
525.64	60341.35
525.81	59744.51
525.98	58468.92
526.16	56736.93
526.33	56058.17
526.50	55730.50
526.67	55702.41
526.84	56055.83
527.01	56905.44
527.18	57729.31
527.36	58609.35
527.53	59772.60
527.70	59917.71
527.87	59166.40
528.04	58862.13
528.21	59299.81
528.38	60013.68
528.55	60397.52
528.72	60645.62
528.89	60900.74
529.07	60601.15
529.24	59863.88
529.41	59433.22
529.58	58693.61
529.75	58798.94
529.92	59597.06
530.09	59828.77
530.26	60179.85
530.43	60516.89
530.60	60505.19
530.77	60680.73
530.94	60809.46
531.11	60484.12
531.28	60067.51
531.46	59730.47
531.63	59903.67
531.80	59810.05
531.97	59489.40
532.14	58672.55
532.31	57724.63
532.48	57268.23
532.65	57097.37
532.82	58066.35
532.99	59103.21
533.16	59320.88
533.33	59777.28
533.50	59683.66
533.67	59040.01
533.84	58562.54
534.01	58941.71
534.18	59126.61
534.35	59309.18
534.52	59007.25
534.69	59281.09
534.86	59573.66
535.03	60065.17
535.20	60388.16
535.37	60582.43
535.54	60697.11
535.71	60282.84
535.88	60051.12
536.05	59353.65
536.22	59002.56
536.38	58822.34
536.55	58258.27
536.72	57804.21
536.89	57588.88
537.06	58705.32
537.23	59519.82
537.40	59491.74
537.57	59449.61
537.74	59243.64
537.91	59374.71
538.08	59330.24
538.25	59016.61
538.42	59458.97
538.59	59370.03
538.75	58504.03
538.92	58567.23
539.09	58309.77
539.26	58122.52
539.43	57890.81
539.60	57928.26
539.77	58529.78
539.94	58197.42
540.11	57336.10
540.28	56917.15
540.44	56978.00
540.61	57125.46
540.78	57340.78
540.95	58124.86
541.12	58152.95
541.29	58422.11
541.46	58834.05
541.62	58763.83
541.79	58686.59
541.96	57911.88
542.13	58085.07
542.30	58258.27
542.47	58384.66
542.63	58171.67
542.80	58113.16
542.97	57989.11
543.14	58094.44
543.31	57876.77
543.48	58429.13
543.64	59236.62
543.81	59288.11
543.98	59243.64
544.15	58717.02
544.32	58166.99
544.48	58166.99
544.65	58267.64
544.82	58866.81
544.99	58597.65
545.16	58190.40
545.32	57963.37
545.49	58871.49
545.66	59166.40
545.83	58721.70
546.00	58485.31
546.16	58291.04
546.33	58480.63
546.50	58202.10
546.67	58766.17
546.83	58457.22
547.00	58389.34
547.17	57701.23
547.34	57146.52
547.50	57230.78
547.67	57530.37
547.84	57499.94
548.00	57930.60
548.17	58323.81
548.34	58206.78
548.51	58192.74
548.67	58370.62
548.84	58464.24
549.01	58368.28
549.18	57853.36
549.34	58103.80
549.51	58089.76
549.68	57780.81
549.84	57975.07
550.01	57766.76
550.18	57659.10
550.34	57769.10
550.51	57759.74
550.68	57762.08
550.84	57420.36
551.01	57387.60
551.18	57331.42
551.34	57696.55
551.51	57867.40
551.68	58056.99
551.84	58045.29
552.01	57829.96
552.18	57865.06
552.34	57158.22
552.51	56800.12
552.68	56526.28
552.84	57071.62
553.01	57418.02
553.18	57183.97
553.34	57469.51
553.51	57483.56
553.67	57726.97
553.84	57801.87
554.01	57778.46
554.17	57705.91
554.34	57605.26
554.51	57832.30
554.67	58005.50
554.84	57591.22
555.00	57422.70
555.17	57542.07
555.33	57275.25
555.50	57249.50
555.67	57226.10
555.83	56970.98
556.00	56734.59
556.16	56872.68
556.33	56467.76
556.50	56353.08
556.66	56231.37
556.83	56126.05
556.99	56072.21
557.16	56100.30
557.32	56608.20
557.49	56807.14
557.65	56647.99
557.82	56865.66
557.98	56624.58
558.15	56095.62
558.32	55426.23
558.48	54501.71
558.65	54712.36
558.81	54897.27
558.98	55213.24
559.14	55505.80
559.31	55641.56
559.47	55554.96
559.64	55426.23
559.80	54918.33
559.97	54923.01
560.13	55468.36
560.30	56301.59
560.46	56884.38
560.63	57024.81
560.79	57043.54
560.96	56542.66
561.12	55601.77
561.29	54700.66
561.45	54443.20
561.61	55260.05
561.78	55664.96
561.94	55702.41
562.11	55508.14
562.27	55222.60
562.44	55646.24
562.60	56060.51
562.77	56327.33
562.93	56046.47
563.10	55789.01
563.26	55306.86
563.42	55557.30
563.59	55107.91
563.75	55281.11
563.92	55196.85
564.08	55262.39
564.24	55384.10
564.41	55676.66
564.57	55505.80
564.74	55194.51
564.90	55494.10
565.07	54939.39
565.23	54777.90
565.39	53691.89
565.56	53645.08
565.72	53560.82
565.88	53813.60
566.05	53862.75
566.21	54344.90
566.38	54375.33
566.54	54574.27
566.70	54915.99
566.87	55136.00
567.03	54901.95
567.19	55166.43
567.36	55105.57
567.52	54923.01
567.68	54625.76
567.85	53705.93
568.01	53804.24
568.17	53251.87
568.34	53153.57
568.50	53097.39
568.66	53446.13
568.83	53879.13
568.99	53734.02
569.15	53947.01
569.32	54078.08
569.48	53689.55
569.64	53759.76
569.81	53172.29
569.97	53102.07
570.13	53202.72
570.30	52505.24
570.46	52119.05
570.62	51426.25
570.78	51227.31
570.95	51718.82
571.11	52217.35
571.27	52655.03
571.43	52729.93
571.60	53097.39
571.76	53584.22
571.92	53523.37
572.09	53659.12
572.25	53832.32
572.41	53783.17
572.57	53481.24
572.74	53478.90
572.90	53169.95
573.06	53158.25
573.22	53036.54
573.38	53446.13
573.55	52999.09
573.71	53483.58
573.87	53111.44
574.03	52959.30
574.20	53111.44
574.36	52610.56
574.52	52807.17
574.68	52343.74
574.84	52020.75
575.01	51826.48
575.17	51323.27
575.33	51496.47
575.49	52097.98
575.65	51992.66
575.82	51915.42
575.98	51430.93
576.14	52053.51
576.30	52346.08
576.46	52158.84
576.62	52383.53
576.79	51877.97
576.95	51730.52
577.11	51707.12
577.27	51566.68
577.43	51859.25
577.59	51744.56
577.75	50899.63
577.92	50536.85
578.08	50124.91
578.24	50225.56
578.40	50492.38
578.56	50609.40
578.72	50937.08
578.88	50981.55
579.04	51292.84
579.21	51229.65
579.37	51253.05
579.53	51323.27
579.69	51562.00
579.85	51599.45
580.01	51459.02
580.17	50738.13
580.33	50969.85
580.49	51035.38
580.65	51241.35
580.82	51363.06
580.98	51576.04
581.14	51227.31
581.30	51231.99
581.46	50997.93
581.62	51573.70
581.78	51313.90
581.94	51447.32
582.10	51246.03
582.26	51419.23
582.42	51444.98
582.58	51664.99
582.74	51606.47
582.90	51707.12
583.06	51269.43
583.22	51288.16
583.38	50967.51
583.54	50918.35
583.70	50913.67
583.86	51035.38
584.02	50951.12
584.18	50990.91
584.34	50770.90
584.50	51004.95
584.66	50522.80
584.82	50080.44
584.98	50124.91
585.14	49881.50
