SpectraSuite Data File
++++++++++++++++++++++++++++++++++++
Date: Mon Oct 07 14:53:23 GMT-05:00 2013
User: price-jones
Dark Spectrum Present: No
Reference Spectrum Present: No
Number of Sampled Component Spectra: 1
Spectrometers: USB2+H05261
Integration Time (usec): 100000 (USB2+H05261)
Spectra Averaged: 1 (USB2+H05261)
Boxcar Smoothing: 0 (USB2+H05261)
Correct for Electrical Dark: No (USB2+H05261)
Strobe/Lamp Enabled: No (USB2+H05261)
Correct for Detector Non-linearity: No (USB2+H05261)
Correct for Stray Light: No (USB2+H05261)
Number of Pixels in Processed Spectrum: 2048
>>>>>Begin Processed Spectral Data<<<<<
365.73	0.00
365.92	0.00
366.12	0.00
366.32	0.00
366.52	0.00
366.72	0.00
366.91	0.00
367.11	0.00
367.31	0.00
367.51	0.00
367.70	0.00
367.90	0.00
368.10	0.00
368.30	0.00
368.49	0.00
368.69	0.00
368.89	0.00
369.09	0.00
369.28	0.00
369.48	0.00
369.68	0.00
369.87	0.00
370.07	0.00
370.27	0.00
370.47	603.86
370.66	3028.65
370.86	3384.41
371.06	3595.06
371.25	3775.28
371.45	3468.67
371.65	3197.17
371.84	2825.03
372.04	3098.87
372.24	3335.26
372.44	3585.70
372.63	3365.69
372.83	3122.27
373.03	2864.82
373.22	2672.89
373.42	2935.03
373.62	3262.71
373.81	3321.22
374.01	3445.27
374.21	3152.70
374.40	2925.67
374.60	2958.44
374.79	3433.57
374.99	3971.89
375.19	4236.37
375.38	4266.80
375.58	4035.08
375.78	3962.53
375.97	4128.70
376.17	4255.09
376.37	4189.56
376.56	4444.68
376.76	4475.10
376.95	4812.14
377.15	5254.50
377.35	5261.52
377.54	5437.06
377.74	5645.37
377.93	5650.05
378.13	5650.05
378.33	5327.06
378.52	4908.10
378.72	4732.56
378.91	4753.63
379.11	4547.66
379.31	4496.17
379.50	4365.10
379.70	4517.23
379.89	5153.86
380.09	5394.93
380.28	5561.11
380.48	5633.67
380.68	5486.22
380.87	5355.15
381.07	5062.58
381.26	4592.13
381.46	4297.22
381.65	4198.92
381.85	4039.76
382.04	3925.08
382.24	3566.98
382.43	3506.12
382.63	3368.03
382.83	3384.41
383.02	3466.33
383.22	3503.78
383.41	3412.50
383.61	3634.85
383.80	4156.79
384.00	4786.40
384.19	5270.89
384.39	5455.79
384.58	5401.96
384.78	5446.43
384.97	5582.18
385.17	5104.71
385.36	4919.81
385.56	4571.07
385.75	4748.95
385.95	5406.64
386.14	5650.05
386.34	5837.30
386.53	5497.92
386.72	5174.92
386.92	5165.56
387.11	5373.87
387.31	5659.42
387.50	5746.02
387.70	5401.96
387.89	5385.57
388.09	5420.68
388.28	5717.93
388.48	5570.48
388.67	5944.96
388.86	6616.69
389.06	7129.27
389.25	7503.76
389.45	7288.43
389.64	7344.60
389.84	7222.89
390.03	7052.03
390.22	7192.47
390.42	7410.14
390.61	7939.10
390.81	8428.27
391.00	8730.20
391.19	8585.08
391.39	8322.94
391.58	7735.47
391.78	7274.38
391.97	7082.46
392.16	6464.56
392.36	6122.84
392.55	4877.68
392.75	3995.29
392.94	3171.43
393.13	3124.62
393.33	3719.11
393.52	4760.65
393.71	5825.59
393.91	6544.14
394.10	6967.77
394.29	7672.28
394.49	8334.65
394.68	8973.61
394.88	9004.04
395.07	9132.77
395.26	9022.77
395.46	9027.45
395.65	8575.72
395.84	7391.41
396.04	6181.35
396.23	5252.16
396.42	4339.35
396.62	4093.60
396.81	4681.07
397.00	6246.89
397.19	7719.09
397.39	9078.94
397.58	10136.86
397.77	10817.96
397.97	11372.66
398.16	11506.07
398.35	11997.59
398.55	12210.57
398.74	12613.15
398.93	12908.05
399.12	12631.87
399.32	12180.15
399.51	12486.76
399.70	13291.90
399.90	12933.80
400.09	13329.35
400.28	13055.51
400.47	13151.47
400.67	13867.67
400.86	14303.01
401.05	14059.60
401.24	14036.19
401.44	14576.86
401.63	14506.64
401.82	14600.26
402.01	14757.08
402.21	14839.00
402.40	14796.87
402.59	14534.73
402.78	13820.86
402.97	13324.67
403.17	14026.83
403.36	14946.66
403.55	15302.42
403.74	15543.50
403.93	14747.72
404.13	13694.47
404.32	13273.18
404.51	14001.08
404.70	15173.69
404.89	15169.01
405.09	14813.25
405.28	14647.07
405.47	14225.78
405.66	14260.88
405.85	14017.47
406.05	13820.86
406.24	13774.05
406.43	14417.70
406.62	15438.17
406.81	15073.05
407.00	14366.21
407.20	14347.48
407.39	14200.03
407.58	14754.74
407.77	15730.74
407.96	15880.53
408.15	16423.54
408.34	16343.96
408.54	17228.68
408.73	16905.69
408.92	16849.52
409.11	16152.04
409.30	15599.67
409.49	14525.36
409.68	13771.71
409.87	13249.77
410.07	14314.72
410.26	15147.95
410.45	16390.77
410.64	16510.14
410.83	16992.29
411.02	17439.33
411.21	18249.16
411.40	17980.00
411.59	17818.50
411.78	17818.50
411.98	17495.50
412.17	17848.93
412.36	17764.67
412.55	17528.27
412.74	17413.59
412.93	17081.23
413.12	17348.05
413.31	18656.41
413.50	18703.22
413.69	19307.08
413.88	18665.77
414.07	17694.45
414.26	18031.49
414.45	18801.52
414.64	19108.13
414.83	18984.09
415.02	18363.84
415.22	18436.40
415.41	19185.37
415.60	19559.86
415.79	20301.81
415.98	20854.17
416.17	20922.05
416.36	20585.01
416.55	20011.58
416.74	19440.49
416.93	18614.28
417.12	18977.06
417.31	19161.97
417.50	19197.07
417.69	19948.39
417.88	20191.80
418.07	19618.37
418.26	19531.77
418.45	19807.95
418.64	20355.64
418.83	20931.41
419.02	20896.30
419.21	20594.37
419.39	19442.83
419.58	18794.50
419.77	18761.73
419.96	19847.74
420.15	20835.45
420.34	21233.34
420.53	22054.87
420.72	22405.95
420.91	22480.85
421.10	21792.73
421.29	21774.00
421.48	21172.49
421.67	22073.59
421.86	21439.31
422.05	20109.88
422.24	17954.25
422.43	17476.78
422.61	19747.10
422.80	21137.38
422.99	21352.71
423.18	20601.40
423.37	20226.91
423.56	20299.47
423.75	20699.70
423.94	20608.42
424.13	19929.66
424.32	19941.36
424.50	20503.09
424.69	19838.38
424.88	19859.45
425.07	19941.36
425.26	19793.91
425.45	19356.23
425.64	19513.05
425.83	19302.40
426.01	20498.41
426.20	21226.32
426.39	20421.17
426.58	19243.88
426.77	17729.56
426.96	16987.61
427.15	17717.86
427.33	19044.94
427.52	19735.40
427.71	20133.29
427.90	19807.95
428.09	19613.69
428.28	19433.47
428.46	18661.09
428.65	18071.28
428.84	18686.84
429.03	19363.25
429.22	18129.79
429.40	17242.73
429.59	15681.59
429.78	13881.72
429.97	14019.81
430.16	13802.14
430.34	14057.26
430.53	14038.53
430.72	14300.67
430.91	15901.60
431.10	18663.43
431.28	21736.56
431.47	23990.49
431.66	24137.94
431.85	21652.30
432.03	20247.97
432.22	19524.75
432.41	20294.79
432.60	22242.11
432.79	23138.54
432.97	23803.25
433.16	23124.49
433.35	20929.07
433.54	18764.07
433.72	17556.36
433.91	18448.10
434.10	20577.99
434.28	22181.26
434.47	23255.56
434.66	22717.24
434.85	22064.23
435.03	22036.14
435.22	22511.27
435.41	23992.83
435.59	24212.84
435.78	24620.10
435.97	25249.70
436.16	25184.16
436.34	24603.71
436.53	24091.13
436.72	24219.86
436.90	22829.59
437.09	23183.01
437.28	22483.19
437.46	23386.63
437.65	23023.85
437.84	21888.69
438.02	20088.82
438.21	19814.98
438.40	20910.35
438.58	22658.73
438.77	23328.12
438.96	23491.96
439.14	24386.04
439.33	25177.14
439.52	25537.59
439.70	25069.48
439.89	24519.45
440.08	23510.68
440.26	23915.59
440.45	24828.40
440.63	26040.80
440.82	27152.55
441.01	27030.85
441.19	26944.25
441.38	26742.96
441.57	28245.58
441.75	28559.22
441.94	28926.68
442.12	28304.10
442.31	29357.34
442.50	28886.89
442.68	28966.47
442.87	28121.54
443.05	28065.36
443.24	28205.80
443.43	29062.43
443.61	29621.82
443.80	29736.51
443.98	28053.66
444.17	28114.52
444.35	29469.69
444.54	30099.29
444.73	29816.08
444.91	28531.13
445.10	27627.68
445.28	26562.74
445.47	25834.83
445.65	25982.29
445.84	26904.46
446.02	27693.22
446.21	28231.54
446.39	28156.64
446.58	28458.57
446.77	28978.17
446.95	29600.76
447.14	30162.48
447.32	30890.39
447.51	29961.20
447.69	28774.55
447.88	28559.22
448.06	28978.17
448.25	29692.04
448.43	29589.05
448.62	29343.30
448.80	29179.46
448.99	29352.66
449.17	29766.93
449.36	29624.16
449.54	30754.64
449.73	30817.83
449.91	31473.18
450.10	32322.80
450.28	32760.48
450.46	32924.32
450.65	32528.77
450.83	32580.26
451.02	31690.85
451.20	31732.98
451.39	31330.41
451.57	31405.31
451.76	31295.30
451.94	30939.54
452.13	30441.01
452.31	29289.46
452.49	27672.15
452.68	28100.47
452.86	28175.37
453.05	28575.60
453.23	29392.45
453.42	29799.70
453.60	30532.29
453.78	31124.44
453.97	30621.23
454.15	30822.51
454.34	30429.30
454.52	30396.54
454.70	29645.23
454.89	30059.50
455.07	30017.37
455.26	30581.44
455.44	31583.19
455.62	32608.34
455.81	32720.69
455.99	32123.85
456.17	31796.18
456.36	31917.89
456.54	32823.67
456.73	32877.51
456.91	33687.33
457.09	33598.39
457.28	34171.82
457.46	32903.25
457.64	32290.03
457.83	31903.84
458.01	31131.47
458.19	31903.84
458.38	31864.05
458.56	33031.98
458.74	32615.37
458.93	32032.57
459.11	31952.99
459.29	31990.44
459.48	32341.52
459.66	31751.71
459.84	32123.85
460.03	32545.15
460.21	32439.82
460.39	33692.01
460.57	33406.47
460.76	33935.43
460.94	33734.14
461.12	33109.22
461.31	33535.20
461.49	33748.18
461.67	33233.27
461.85	34316.93
462.04	34167.14
462.22	34808.45
462.40	33912.02
462.59	34122.67
462.77	34499.50
462.95	34199.91
463.13	33837.12
463.32	34157.78
463.50	33450.94
463.68	33102.20
463.86	33439.23
464.05	33366.68
464.23	32283.01
464.41	32018.53
464.59	31716.60
464.78	33256.67
464.96	33055.39
465.14	32645.79
465.32	33935.43
465.50	34733.55
465.69	34696.10
465.87	34176.50
466.05	33427.53
466.23	31976.40
466.41	31140.83
466.60	31868.73
466.78	31960.02
466.96	32301.73
467.14	33095.18
467.32	33273.06
467.51	33677.97
467.69	31917.89
467.87	32755.80
468.05	33317.53
468.23	33209.86
468.41	33186.46
468.60	33535.20
468.78	33460.30
468.96	33029.64
469.14	33825.42
469.32	34281.83
469.50	32844.74
469.69	32343.86
469.87	32285.35
470.05	32074.70
470.23	32268.97
470.41	32364.93
470.59	32833.04
470.77	33010.92
470.95	33888.62
471.14	34099.26
471.32	34096.92
471.50	35669.76
471.68	35899.14
471.86	36144.89
472.04	36570.87
472.22	36739.39
472.40	34616.52
472.58	34717.17
472.77	34162.46
472.95	34888.03
473.13	35658.06
473.31	34464.39
473.49	35154.85
473.67	35665.08
473.85	35828.92
474.03	36809.61
474.21	36821.31
474.39	37156.00
474.57	37455.59
474.75	37331.54
474.93	37069.40
475.12	36121.49
475.30	36713.64
475.48	36392.99
475.66	37226.22
475.84	36540.44
476.02	36488.95
476.20	35800.83
476.38	36177.66
476.56	37986.89
476.74	38359.04
476.92	38300.53
477.10	38946.51
477.28	39604.20
477.46	40002.10
477.64	40411.69
477.82	40091.04
478.00	40474.88
478.18	39477.82
478.36	40107.42
478.54	40072.31
478.72	39901.45
478.90	40928.95
479.08	42462.00
479.26	42689.03
479.44	42794.36
479.62	42110.92
479.80	42260.71
479.98	42096.88
480.16	42401.14
480.34	42169.43
480.52	42632.86
480.70	42892.66
480.88	42857.55
481.06	43723.55
481.24	43969.30
481.41	44814.24
481.59	45467.25
481.77	45134.89
481.95	44538.05
482.13	44753.38
482.31	44432.73
482.49	45354.90
482.67	44985.10
482.85	45338.52
483.03	45654.49
483.21	46366.01
483.39	46326.22
483.57	45340.86
483.74	45378.31
483.92	45350.22
484.10	45277.66
484.28	46560.28
484.46	46902.00
484.64	47332.65
484.82	46391.76
485.00	45975.14
485.18	45242.56
485.35	43789.08
485.53	40882.14
485.71	37420.48
485.89	36767.48
486.07	38557.99
486.25	41792.61
486.43	44336.77
486.61	45560.87
486.78	44804.88
486.96	45488.31
487.14	46513.47
487.32	47379.46
487.50	48580.16
487.68	49450.84
487.85	50284.07
488.03	50031.29
488.21	49822.98
488.39	49020.18
488.57	47971.62
488.75	48175.25
488.92	49104.44
489.10	51330.29
489.28	52420.98
489.46	53279.96
489.64	53034.20
489.81	53160.59
489.99	52992.07
490.17	52954.62
490.35	53343.15
490.53	52907.81
490.70	52561.41
490.88	52451.41
491.06	53333.79
491.24	53083.35
491.41	52254.80
491.59	50504.08
491.77	49846.39
491.95	51091.55
492.13	52437.36
492.30	53488.26
492.48	54321.49
492.66	54747.47
492.84	54768.54
493.01	54443.20
493.19	54089.78
493.37	53801.89
493.54	53305.70
493.72	54073.40
493.90	55154.72
494.08	55709.43
494.25	56142.43
494.43	56254.78
494.61	56542.66
494.79	56692.46
494.96	56554.36
495.14	56018.38
495.32	55126.64
495.49	54291.07
495.67	55278.77
495.85	56793.10
496.02	56891.40
496.20	56856.29
496.38	56624.58
496.55	56341.38
496.73	56612.88
496.91	56921.83
497.09	57352.49
497.26	57698.89
497.44	57230.78
497.62	56594.15
497.79	55749.22
497.97	54665.55
498.14	54927.69
498.32	56041.79
498.50	56652.67
498.67	57371.21
498.85	57242.48
499.03	57476.54
499.20	57694.21
499.38	57513.98
499.56	57537.39
499.73	57090.35
499.91	56556.70
500.08	56217.33
500.26	55304.52
500.44	55997.32
500.61	56587.13
500.79	56364.78
500.97	55936.46
501.14	55697.73
501.32	55924.76
501.49	55716.45
501.67	55908.38
501.84	56411.59
502.02	56664.37
502.20	56956.94
502.37	57031.83
502.55	57277.59
502.72	57822.93
502.90	58192.74
503.07	57876.77
503.25	57567.82
503.43	56783.74
503.60	56233.71
503.78	55297.50
503.95	55978.59
504.13	57371.21
504.30	58052.31
504.48	57979.75
504.65	57579.52
504.83	57640.37
505.01	58157.63
505.18	58412.75
505.36	59112.57
505.53	59180.45
505.71	59058.74
505.88	59334.92
506.06	58642.12
506.23	58518.07
506.41	58080.39
506.58	58295.72
506.76	58356.58
506.93	58377.64
507.11	58075.71
507.28	58358.92
507.46	57764.42
507.63	57221.42
507.81	57052.90
507.98	57076.30
508.16	58040.60
508.33	58398.71
508.50	58777.87
508.68	58915.96
508.85	59409.82
509.03	59311.52
509.20	59292.79
509.38	58838.73
509.55	57977.41
509.73	57975.07
509.90	58546.16
510.08	58789.58
510.25	58719.36
510.42	58532.12
510.60	58529.78
510.77	58560.20
510.95	59292.79
511.12	59444.93
511.30	59695.36
511.47	59856.86
511.64	59798.35
511.82	59360.67
511.99	58728.72
512.17	58403.39
512.34	57897.83
512.51	58150.61
512.69	58291.04
512.86	58328.49
513.04	58822.34
513.21	58660.85
513.38	58602.33
513.56	57939.96
513.73	57432.07
513.90	57626.33
514.08	57787.83
514.25	57979.75
514.43	58267.64
514.60	58354.24
514.77	58494.67
514.95	58431.47
515.12	58471.26
515.29	58461.90
515.47	58880.86
515.64	59393.43
515.81	59049.38
515.99	58356.58
516.16	57165.24
516.33	54468.95
516.51	53373.58
516.68	52507.58
516.85	52083.94
517.03	52428.00
517.20	55561.98
517.37	57687.18
517.54	58639.78
517.72	58162.31
517.89	55517.51
518.06	53179.31
518.24	53696.57
518.41	55735.18
518.58	57270.57
518.75	57340.78
518.93	57743.36
519.10	57354.83
519.27	57846.34
519.45	58197.42
519.62	58672.55
519.79	59119.59
519.96	58892.56
520.14	58541.48
520.31	57556.11
520.48	57691.86
520.65	58064.01
520.83	58829.37
521.00	59599.40
521.17	58941.71
521.34	58621.06
521.52	58822.34
521.69	59131.29
521.86	59746.86
522.03	59372.37
522.20	58328.49
522.38	57174.61
522.55	57282.27
522.72	57951.66
522.89	58202.10
523.07	58176.36
523.24	58637.44
523.41	59299.81
523.58	59561.95
523.75	59906.01
523.92	59873.24
524.10	59891.97
524.27	59821.75
524.44	59688.34
524.61	59405.14
524.78	59304.49
524.96	59250.66
525.13	59346.62
525.30	59662.60
525.47	59969.21
525.64	59978.57
525.81	59096.19
525.98	57902.51
526.16	56568.41
526.33	55814.76
526.50	55267.07
526.67	55210.90
526.84	55772.63
527.01	56603.52
527.18	57333.76
527.36	58227.85
527.53	59255.34
527.70	59540.89
527.87	58663.19
528.04	58464.24
528.21	58913.62
528.38	59615.79
528.55	59994.95
528.72	60179.85
528.89	60402.21
529.07	60055.81
529.24	59503.44
529.41	58965.12
529.58	58482.97
529.75	58309.77
529.92	58965.12
530.09	59318.54
530.26	59742.17
530.43	60114.32
530.60	60245.39
530.77	60257.09
530.94	60500.51
531.11	59882.61
531.28	59531.53
531.46	59311.52
531.63	59461.31
531.80	59447.27
531.97	59140.66
532.14	58429.13
532.31	57378.23
532.48	56949.92
532.65	56856.29
532.82	57492.92
532.99	58672.55
533.16	59051.72
533.33	59568.97
533.50	59348.96
533.67	58735.74
533.84	58258.27
534.01	58307.43
534.18	58644.46
534.35	58939.37
534.52	58686.59
534.69	58974.48
534.86	59180.45
535.03	59554.93
535.20	60074.53
535.37	60397.52
535.54	60219.64
535.71	59999.63
535.88	59676.64
536.05	59138.32
536.22	58585.95
536.38	58443.18
536.55	57958.69
536.72	57415.68
536.89	57588.88
537.06	58166.99
537.23	59243.64
537.40	59224.92
537.57	59388.75
537.74	58988.52
537.91	58855.11
538.08	58869.15
538.25	59143.00
538.42	59302.15
538.59	59098.53
538.75	58389.34
538.92	58075.71
539.09	57883.79
539.26	57860.38
539.43	57703.57
539.60	57773.78
539.77	58052.31
539.94	57916.56
540.11	57205.03
540.28	56640.96
540.44	56704.16
540.61	57057.58
540.78	57216.74
540.95	57584.20
541.12	57977.41
541.29	58082.73
541.46	58387.00
541.62	58506.37
541.79	58370.62
541.96	57647.39
542.13	57691.86
542.30	58251.25
542.47	58461.90
542.63	58003.16
542.80	58099.12
542.97	57893.15
543.14	57607.61
543.31	57914.22
543.48	58174.02
543.64	59231.94
543.81	59468.33
543.98	59201.51
544.15	58623.40
544.32	57844.00
544.48	58073.37
544.65	58564.88
544.82	58876.18
544.99	58497.01
545.16	57986.77
545.32	57968.05
545.49	58857.45
545.66	59103.21
545.83	58569.57
546.00	58494.67
546.16	57991.45
546.33	58078.05
546.50	58085.07
546.67	58356.58
546.83	57982.09
547.00	58014.86
547.17	57551.43
547.34	56933.53
547.50	57066.94
547.67	57251.84
547.84	57315.04
548.00	58129.54
548.17	58122.52
548.34	58143.59
548.51	58134.23
548.67	58220.83
548.84	58272.32
549.01	58019.54
549.18	58108.48
549.34	57867.40
549.51	58026.56
549.68	57867.40
549.84	57771.44
550.01	57602.92
550.18	57455.47
550.34	57345.47
550.51	57635.69
550.68	57790.17
550.84	57268.23
551.01	57284.61
551.18	57399.30
551.34	57661.44
551.51	57874.43
551.68	58038.26
551.84	58274.66
552.01	57970.39
552.18	57539.73
552.34	56868.00
552.51	56713.52
552.68	56662.03
552.84	57132.48
553.01	57261.21
553.18	57315.04
553.34	57368.87
553.51	57467.17
553.67	57769.10
553.84	57844.00
554.01	57631.01
554.17	57574.84
554.34	57591.22
554.51	57989.11
554.67	58300.40
554.84	58024.22
555.00	57567.82
555.17	57324.40
555.33	57343.12
555.50	57045.88
555.67	57326.74
555.83	57076.30
556.00	56961.62
556.16	56846.93
556.33	56423.29
556.50	56404.57
556.66	56460.74
556.83	56247.75
556.99	56109.66
557.16	56280.52
557.32	56474.79
557.49	56980.34
557.65	56690.12
557.82	56720.54
557.98	56563.73
558.15	55866.25
558.32	55215.58
558.48	54642.15
558.65	54756.83
558.81	54915.99
558.98	55454.31
559.14	55559.64
559.31	55842.84
559.47	55601.77
559.64	55341.97
559.80	54986.21
559.97	55217.92
560.13	55510.49
560.30	56664.37
560.46	56870.34
560.63	56896.08
560.79	57310.36
560.96	57008.43
561.12	55601.77
561.29	54894.92
561.45	54885.56
561.61	55278.77
561.78	55777.31
561.94	55781.99
562.11	55451.97
562.27	55515.17
562.44	55414.52
562.60	56086.26
562.77	56135.41
562.93	56048.81
563.10	56093.28
563.26	55466.02
563.42	55363.03
563.59	55358.35
563.75	55512.83
563.92	55356.01
564.08	55304.52
564.24	55700.07
564.41	55774.97
564.57	55529.21
564.74	55458.99
564.90	55332.60
565.07	55194.51
565.23	54653.85
565.39	54321.49
565.56	53996.16
565.72	53741.04
565.88	54106.16
566.05	54167.02
566.21	54499.37
566.38	54532.14
566.54	54908.97
566.70	55257.71
566.87	55337.29
567.03	55274.09
567.19	55573.68
567.36	55187.49
567.52	55110.25
567.68	54871.52
567.85	54035.95
568.01	53834.66
568.17	53422.73
568.34	53581.88
568.50	53310.38
568.66	53490.60
568.83	54031.27
568.99	54302.77
569.15	54440.86
569.32	54298.09
569.48	53881.47
569.64	53815.94
569.81	53448.47
569.97	53380.60
570.13	53263.57
570.30	52823.55
570.46	52474.81
570.62	51948.19
570.78	51721.16
570.95	52027.77
571.11	52538.01
571.27	53038.88
571.43	53275.27
571.60	53649.76
571.76	53584.22
571.92	53949.35
572.09	54169.36
572.25	53813.60
572.41	54010.20
572.57	53998.50
572.74	53862.75
572.90	53240.17
573.06	53282.30
573.22	53368.90
573.38	53429.75
573.55	53844.02
573.71	53539.75
573.87	53411.02
574.03	53017.82
574.20	53310.38
574.36	52919.51
574.52	52783.76
574.68	52521.62
574.84	51971.60
575.01	51894.36
575.17	51819.46
575.33	51924.78
575.49	52467.79
575.65	52659.71
575.82	52133.09
575.98	51995.00
576.14	52357.78
576.30	52493.54
576.46	52701.84
576.62	52580.13
576.79	52786.10
576.95	51999.68
577.11	52020.75
577.27	52278.21
577.43	52292.25
577.59	52102.67
577.75	51428.59
577.92	50745.15
578.08	50738.13
578.24	50375.35
578.40	51250.71
578.56	51105.60
578.72	51323.27
578.88	51459.02
579.04	51306.88
579.21	51856.91
579.37	51594.77
579.53	52158.84
579.69	51957.55
579.85	51969.26
580.01	51779.67
580.17	51262.41
580.33	51042.40
580.49	51299.86
580.65	51545.62
580.82	51870.95
580.98	51615.83
581.14	51877.97
581.30	51971.60
581.46	51564.34
581.62	51931.81
581.78	51873.29
581.94	52135.43
582.10	52191.61
582.26	52135.43
582.42	51852.23
582.58	51749.24
582.74	51978.62
582.90	52039.47
583.06	51765.63
583.22	51896.70
583.38	51606.47
583.54	51587.75
583.70	51313.90
583.86	51803.08
584.02	51351.35
584.18	51531.57
584.34	51267.09
584.50	51632.22
584.66	51206.24
584.82	50382.37
584.98	50820.05
585.14	50454.93
585.30	49724.68
