SpectraSuite Data File
++++++++++++++++++++++++++++++++++++
Date: Mon Oct 07 14:53:22 GMT-05:00 2013
User: price-jones
Dark Spectrum Present: No
Reference Spectrum Present: No
Number of Sampled Component Spectra: 1
Spectrometers: USB2+H05261
Integration Time (usec): 100000 (USB2+H05261)
Spectra Averaged: 1 (USB2+H05261)
Boxcar Smoothing: 0 (USB2+H05261)
Correct for Electrical Dark: No (USB2+H05261)
Strobe/Lamp Enabled: No (USB2+H05261)
Correct for Detector Non-linearity: No (USB2+H05261)
Correct for Stray Light: No (USB2+H05261)
Number of Pixels in Processed Spectrum: 2048
>>>>>Begin Processed Spectral Data<<<<<
365.73	0.00
365.92	0.00
366.12	0.00
366.32	0.00
366.52	0.00
366.72	0.00
366.91	0.00
367.11	0.00
367.31	0.00
367.51	0.00
367.70	0.00
367.90	0.00
368.10	0.00
368.30	0.00
368.49	0.00
368.69	0.00
368.89	0.00
369.09	0.00
369.28	0.00
369.48	0.00
369.68	0.00
369.87	0.00
370.07	0.00
370.27	0.00
370.47	580.45
370.66	2995.89
370.86	3368.03
371.06	3878.27
371.25	3709.75
371.45	3375.05
371.65	3206.53
371.84	2733.75
372.04	2888.22
372.24	3276.75
372.44	3482.72
372.63	3508.46
372.83	3246.32
373.03	2956.10
373.22	2560.55
373.42	2757.15
373.62	3213.56
373.81	3538.89
374.01	3496.76
374.21	3052.06
374.40	2956.10
374.60	3042.70
374.79	3410.16
374.99	4023.38
375.19	4372.12
375.38	4140.41
375.58	4098.28
375.78	3887.63
375.97	4032.74
376.17	4187.22
376.37	4187.22
376.56	4205.94
376.76	4484.47
376.95	4849.59
377.15	5057.90
377.35	5394.93
377.54	5359.83
377.74	5687.50
377.93	5692.18
378.13	5495.58
378.33	5385.57
378.52	4875.34
378.72	4706.82
378.91	4620.22
379.11	4374.46
379.31	4362.76
379.50	4287.86
379.70	4741.93
379.89	5151.52
380.09	5357.49
380.28	5493.24
380.48	5462.81
380.68	5350.46
380.87	5413.66
381.07	5100.03
381.26	4594.47
381.46	4334.67
381.65	4166.15
381.85	4145.09
382.04	3873.59
382.24	3709.75
382.43	3449.95
382.63	3375.05
382.83	3452.29
383.02	3361.01
383.22	3353.99
383.41	3471.01
383.61	3611.45
383.80	4163.81
384.00	4683.41
384.19	5109.39
384.39	5549.41
384.58	5664.10
384.78	5472.17
384.97	5348.12
385.17	5219.39
385.36	4802.78
385.56	4592.13
385.75	4652.98
385.95	5291.95
386.14	5806.87
386.34	5923.90
386.53	5495.58
386.72	5224.08
386.92	5245.14
387.11	5444.09
387.31	5790.49
387.50	5680.48
387.70	5427.70
387.89	5394.93
388.09	5535.37
388.28	5322.38
388.48	5696.86
388.67	5951.98
388.86	6633.08
389.06	7019.27
389.25	7360.98
389.45	7377.37
389.64	7449.93
389.84	7281.41
390.03	7056.72
390.22	7248.64
390.42	7478.01
390.61	7946.12
390.81	8327.63
391.00	8585.08
391.19	8571.04
391.39	8107.62
391.58	7878.24
391.78	7419.50
391.97	7047.35
392.16	6628.40
392.36	6022.20
392.55	4908.10
392.75	3873.59
392.94	3075.46
393.13	3173.77
393.33	3719.11
393.52	4634.26
393.71	5912.19
393.91	6747.76
394.10	6988.84
394.29	7728.45
394.49	8559.34
394.68	9057.87
394.88	9118.73
395.07	9453.42
395.26	9355.12
395.46	8950.21
395.65	8395.50
395.84	7480.35
396.04	6326.47
396.23	5100.03
396.42	4353.40
396.62	4156.79
396.81	4758.31
397.00	6260.93
397.19	7595.04
397.39	9015.74
397.58	10050.26
397.77	11016.90
397.97	11470.97
398.16	11328.19
398.35	12046.74
398.55	12084.19
398.74	12592.08
398.93	13074.23
399.12	12762.94
399.32	12219.94
399.51	12458.67
399.70	13612.56
399.90	13252.11
400.09	13256.79
400.28	13039.12
400.47	13282.54
400.67	13813.84
400.86	14352.16
401.05	14272.59
401.24	14232.80
401.44	14658.78
401.63	14642.39
401.82	14663.46
402.01	14836.66
402.21	14707.93
402.40	14923.26
402.59	14403.66
402.78	13582.13
402.97	13659.37
403.17	14054.92
403.36	14700.90
403.55	15506.05
403.74	15590.31
403.93	14897.51
404.13	13905.12
404.32	13617.24
404.51	14223.44
404.70	15272.00
404.89	15236.89
405.09	14956.02
405.28	14476.21
405.47	14349.82
405.66	14633.03
405.85	14178.97
406.05	13750.65
406.24	13935.55
406.43	14516.00
406.62	15112.84
406.81	15435.83
407.00	14588.56
407.20	14106.41
407.39	14506.64
407.58	14930.28
407.77	15520.09
407.96	16191.83
408.15	16250.34
408.34	16137.99
408.54	17174.85
408.73	17289.54
408.92	16947.82
409.11	16400.13
409.30	15580.95
409.49	14913.89
409.68	13998.74
409.87	13212.32
410.07	14068.96
410.26	15585.63
410.45	16421.20
410.64	16587.38
410.83	17174.85
411.02	17504.87
411.21	18319.37
411.40	17884.03
411.59	18143.83
411.78	18115.75
411.98	17692.11
412.17	17912.12
412.36	17451.03
412.55	17792.75
412.74	17682.75
412.93	17104.64
413.12	17282.52
413.31	18778.12
413.50	18995.79
413.69	19370.27
413.88	18590.88
414.07	18068.94
414.26	18523.00
414.45	19229.84
414.64	19030.90
414.83	19082.39
415.02	19026.21
415.22	18658.75
415.41	19173.67
415.60	19576.24
415.79	20383.73
415.98	20697.36
416.17	20858.85
416.36	20547.56
416.55	20086.48
416.74	19232.18
416.93	18628.32
417.12	18850.67
417.31	19496.66
417.50	19648.80
417.69	20283.08
417.88	20023.28
418.07	19555.18
418.26	19723.69
418.45	19601.99
418.64	20662.25
418.83	21191.21
419.02	20805.02
419.21	20788.64
419.39	19756.46
419.58	18724.29
419.77	18897.49
419.96	19627.73
420.15	20755.87
420.34	21366.75
420.53	22232.75
420.72	22300.62
420.91	22181.26
421.10	22298.28
421.29	21923.80
421.48	21289.51
421.67	22029.12
421.86	21373.77
422.05	20273.72
422.24	17956.59
422.43	17631.26
422.61	19569.22
422.80	21387.82
422.99	21570.38
423.18	20517.14
423.37	20210.53
423.56	20355.64
423.75	20395.43
423.94	20952.48
424.13	19716.67
424.32	20140.31
424.50	19847.74
424.69	19915.62
424.88	20313.51
425.07	19969.45
425.26	19934.34
425.45	19697.95
425.64	19302.40
425.83	19428.79
426.01	20561.61
426.20	20973.54
426.39	20573.31
426.58	19452.19
426.77	17804.46
426.96	17123.36
427.15	17633.60
427.33	19484.96
427.52	20203.50
427.71	20149.67
427.90	20152.01
428.09	19634.75
428.28	19391.34
428.46	18773.44
428.65	18281.92
428.84	19197.07
429.03	19332.82
429.22	18178.94
429.40	17165.49
429.59	15510.73
429.78	13741.29
429.97	14129.81
430.16	14050.24
430.34	14249.18
430.53	14045.55
430.72	14434.08
430.91	15927.35
431.10	18614.28
431.28	21724.85
431.47	23819.63
431.66	24189.44
431.85	21813.79
432.03	20236.27
432.22	19082.39
432.41	20072.43
432.60	22347.44
432.79	23267.27
432.97	23843.04
433.16	23147.90
433.35	21223.98
433.54	18958.34
433.72	17862.97
433.91	18541.72
434.10	20720.76
434.28	21965.93
434.47	23363.23
434.66	23044.91
434.85	22522.98
435.03	22246.79
435.22	22958.31
435.41	24416.47
435.59	24341.57
435.78	24163.69
435.97	25167.78
436.16	25376.09
436.34	24863.51
436.53	24505.41
436.72	24400.08
436.90	23283.65
437.09	23105.77
437.28	22562.76
437.46	23562.17
437.65	23168.96
437.84	21626.55
438.02	20063.07
438.21	19932.00
438.40	21092.91
438.58	22960.66
438.77	23386.63
438.96	23747.08
439.14	24524.13
439.33	24964.15
439.52	25481.41
439.70	24767.55
439.89	24364.98
440.08	23728.35
440.26	23943.68
440.45	24547.54
440.63	26153.15
440.82	27363.20
441.01	27143.19
441.19	26850.63
441.38	26986.38
441.57	28301.76
441.75	28987.53
441.94	28718.37
442.12	28474.96
442.31	29254.36
442.50	28945.41
442.68	28690.29
442.87	28325.16
443.05	28416.44
443.24	28704.33
443.43	29057.75
443.61	29474.37
443.80	30029.07
443.98	28423.47
444.17	28121.54
444.35	29914.39
444.54	30403.56
444.73	29937.79
444.91	28837.74
445.10	27171.28
445.28	26747.64
445.47	25841.85
445.65	26436.35
445.84	26876.37
446.02	27590.24
446.21	28329.84
446.39	28467.94
446.58	29024.98
446.77	29474.37
446.95	29357.34
447.14	30319.30
447.32	30923.16
447.51	30244.40
447.69	29083.50
447.88	28599.01
448.06	28891.57
448.25	29647.57
448.43	29755.23
448.62	29287.12
448.80	28987.53
448.99	29682.67
449.17	29553.94
449.36	29886.30
449.54	30962.95
449.73	31358.50
449.91	32055.98
450.10	32746.44
450.28	32947.72
450.46	32451.53
450.65	33270.72
450.83	32114.49
451.02	31658.09
451.20	31814.90
451.39	31318.71
451.57	30890.39
451.76	31480.21
451.94	31346.79
452.13	30616.55
452.31	29305.85
452.49	27765.78
452.68	28170.69
452.86	28074.73
453.05	28627.09
453.23	29420.53
453.42	30256.11
453.60	30656.34
453.78	31337.43
453.97	31002.74
454.15	30909.11
454.34	30410.58
454.52	30541.65
454.70	29472.03
454.89	30197.59
455.07	30174.19
455.26	30859.96
455.44	31763.41
455.62	32723.03
455.81	32290.03
455.99	32065.34
456.17	32126.19
456.36	31974.06
456.54	32741.75
456.73	32957.08
456.91	33385.40
457.09	33876.91
457.28	34209.27
457.46	32669.20
457.64	32596.64
457.83	31667.45
458.01	31047.21
458.19	31775.11
458.38	32081.72
458.56	33097.52
458.74	33022.62
458.93	32091.09
459.11	32364.93
459.29	32016.19
459.48	32397.70
459.66	31981.08
459.84	32233.86
460.03	32790.91
460.21	32685.58
460.39	33469.66
460.57	33610.09
460.76	33628.82
460.94	34043.09
461.12	33504.77
461.31	33804.36
461.49	33825.42
461.67	33418.17
461.85	35267.19
462.04	33979.90
462.22	35084.63
462.40	34499.50
462.59	34209.27
462.77	34656.31
462.95	34574.39
463.13	34113.31
463.32	33692.01
463.50	33827.76
463.68	33692.01
463.86	33610.09
464.05	33270.72
464.23	32704.31
464.41	32257.26
464.59	31622.98
464.78	33638.18
464.96	33310.50
465.14	32854.10
465.32	33511.79
465.50	34686.74
465.69	34885.68
465.87	34167.14
466.05	33443.91
466.23	32233.86
466.41	31243.81
466.60	32294.71
466.78	32041.93
466.96	32767.50
467.14	33071.77
467.32	33895.64
467.51	33762.23
467.69	31934.27
467.87	32598.98
468.05	33364.34
468.23	33488.38
468.41	33579.67
468.60	33397.10
468.78	33792.65
468.96	32921.98
469.14	34029.05
469.32	34300.55
469.50	32931.34
469.69	32896.23
469.87	32329.82
470.05	32283.01
470.23	32325.14
470.41	32423.44
470.59	32940.70
470.77	33008.58
470.95	33731.80
471.14	34211.61
471.32	34125.01
471.50	36357.88
471.68	36182.34
471.86	36486.61
472.04	36587.25
472.22	36510.02
472.40	34913.77
472.58	34431.62
472.77	34466.73
472.95	35386.56
473.13	35899.14
473.31	34752.27
473.49	35470.82
473.67	35800.83
473.85	35814.88
474.03	36786.20
474.21	36673.85
474.39	37462.61
474.57	37699.01
474.75	37933.06
474.93	37092.81
475.12	36411.71
475.30	36114.47
475.48	36732.37
475.66	37198.13
475.84	36957.06
476.02	35868.71
476.20	35995.10
476.38	36854.08
476.56	37785.61
476.74	38501.81
476.92	38199.88
477.10	39079.92
477.28	39962.31
477.46	40126.14
477.64	40531.06
477.82	40524.04
478.00	40823.62
478.18	40112.10
478.36	39842.94
478.54	39899.11
478.72	40093.38
478.90	40910.22
479.08	42480.72
479.26	42724.14
479.44	42220.92
479.62	42534.56
479.80	42443.27
479.98	42763.93
480.16	43079.90
480.34	42684.35
480.52	42726.48
480.70	42632.86
480.88	43171.18
481.06	43835.89
481.24	43931.86
481.41	44959.35
481.59	45663.85
481.77	45467.25
481.95	44463.16
482.13	44807.22
482.31	44725.30
482.49	45478.95
482.67	45212.13
482.85	45546.82
483.03	46260.69
483.21	46391.76
483.39	46466.66
483.57	45949.40
483.74	45572.57
483.92	45474.27
484.10	45993.87
484.28	46806.03
484.46	47365.42
484.64	47433.30
484.82	46532.19
485.00	46117.92
485.18	45275.32
485.35	43524.60
485.53	40931.29
485.71	37553.90
485.89	36657.47
486.07	38796.72
486.25	42012.62
486.43	44430.39
486.61	45078.72
486.78	45233.19
486.96	45251.92
487.14	46965.19
487.32	47849.91
487.50	48687.82
487.68	49837.03
487.85	50071.08
488.03	49949.37
488.21	49876.82
488.39	49113.80
488.57	48339.08
488.75	48189.29
488.92	49212.10
489.10	51524.55
489.28	53165.27
489.46	53560.82
489.64	53144.20
489.81	53584.22
489.99	52989.73
490.17	52933.56
490.35	53535.07
490.53	53099.73
490.70	52561.41
490.88	52413.96
491.06	53380.60
491.24	53462.52
491.41	52470.13
491.59	50930.06
491.77	50066.40
491.95	51140.71
492.13	52247.78
492.30	53319.74
492.48	54482.99
492.66	54897.27
492.84	54836.41
493.01	54691.30
493.19	53993.82
493.37	53801.89
493.54	53645.08
493.72	53918.92
493.90	55178.13
494.08	56009.02
494.25	56109.66
494.43	56198.60
494.61	56680.75
494.79	56729.90
494.96	56640.96
495.14	56046.47
495.32	54986.21
495.49	54321.49
495.67	55611.13
495.85	56935.87
496.02	57153.54
496.20	57160.56
496.38	56378.82
496.55	56367.12
496.73	56800.12
496.91	56961.62
497.09	57663.78
497.26	57771.44
497.44	57172.27
497.62	56959.28
497.79	56034.77
497.97	54798.96
498.14	55126.64
498.32	55952.85
498.50	57022.47
498.67	57521.01
498.85	57289.29
499.03	57577.18
499.20	57626.33
499.38	57783.15
499.56	57467.17
499.73	57160.56
499.91	56732.25
500.08	56320.31
500.26	55442.61
500.44	56058.17
500.61	56844.59
500.79	56617.56
500.97	56205.62
501.14	55990.30
501.32	55833.48
501.49	56013.70
501.67	56266.48
501.84	56296.91
502.02	56893.74
502.20	57195.67
502.37	57293.97
502.55	57235.46
502.72	57991.45
502.90	58141.25
503.07	58019.54
503.25	57846.34
503.43	56879.70
503.60	56207.97
503.78	55550.27
503.95	56051.15
504.13	57258.87
504.30	58323.81
504.48	57963.37
504.65	57551.43
504.83	57888.47
505.01	58223.17
505.18	58679.57
505.36	59114.91
505.53	58997.88
505.71	59412.16
505.88	59245.98
506.06	58995.54
506.23	58518.07
506.41	58171.67
506.58	58382.32
506.76	58426.79
506.93	58162.31
507.11	58087.42
507.28	58136.57
507.46	57862.72
507.63	57059.92
507.81	57158.22
507.98	57368.87
508.16	58061.67
508.33	58436.16
508.50	58850.43
508.68	58976.82
508.85	59756.22
509.03	59482.37
509.20	59318.54
509.38	58494.67
509.55	57829.96
509.73	58026.56
509.90	58686.59
510.08	58721.70
510.25	58639.78
510.42	58602.33
510.60	58529.78
510.77	59028.31
510.95	59121.93
511.12	59503.44
511.30	59765.58
511.47	59945.80
511.64	59777.28
511.82	59348.96
511.99	58728.72
512.17	58482.97
512.34	58089.76
512.51	58272.32
512.69	58408.07
512.86	58396.37
513.04	59049.38
513.21	58843.41
513.38	58550.84
513.56	57921.24
513.73	57441.43
513.90	57600.58
514.08	57682.50
514.25	58035.92
514.43	58262.96
514.60	58295.72
514.77	58635.10
514.95	58571.91
515.12	58468.92
515.29	58585.95
515.47	59201.51
515.64	59325.56
515.81	59173.42
515.99	58445.52
516.16	57024.81
516.33	54841.09
516.51	53322.08
516.68	52680.78
516.85	52236.08
517.03	52596.52
517.20	55503.46
517.37	57855.70
517.54	58731.06
517.72	58073.37
517.89	55828.80
518.06	53298.68
518.24	53703.59
518.41	55826.46
518.58	57394.62
518.75	57488.24
518.93	57492.92
519.10	57659.10
519.27	57733.99
519.45	58143.59
519.62	58836.39
519.79	59180.45
519.96	58922.99
520.14	58365.94
520.31	57616.97
520.48	57776.12
520.65	58188.06
520.83	58979.16
521.00	59224.92
521.17	58691.27
521.34	58571.91
521.52	59091.51
521.69	59604.08
521.86	59840.48
522.03	59468.33
522.20	58440.84
522.38	57167.58
522.55	57279.93
522.72	57904.85
522.89	58192.74
523.07	58417.43
523.24	58475.94
523.41	59449.61
523.58	59608.76
523.75	60161.13
523.92	60016.02
524.10	59870.90
524.27	59994.95
524.44	59945.80
524.61	59686.00
524.78	59348.96
524.96	59227.26
525.13	59456.63
525.30	59678.98
525.47	59807.71
525.64	59686.00
525.81	59285.77
525.98	57879.11
526.16	56647.99
526.33	55723.47
526.50	55643.90
526.67	55126.64
526.84	55817.10
527.01	56858.63
527.18	57492.92
527.36	58384.66
527.53	59257.68
527.70	59625.15
527.87	58658.51
528.04	58607.01
528.21	58920.65
528.38	59559.61
528.55	60327.31
528.72	60367.10
528.89	60704.13
529.07	60289.86
529.24	59620.47
529.41	59082.14
529.58	58625.74
529.75	58489.99
529.92	59054.06
530.09	59451.95
530.26	59973.89
530.43	60299.22
530.60	60156.45
530.77	60329.65
530.94	60509.87
531.11	59990.27
531.28	59873.24
531.46	59545.57
531.63	59697.70
531.80	59475.35
531.97	59040.01
532.14	58482.97
532.31	57408.66
532.48	56734.59
532.65	56835.23
532.82	57797.19
532.99	58794.26
533.16	59168.74
533.33	59889.63
533.50	59423.86
533.67	58798.94
533.84	58536.80
534.01	58761.49
534.18	58831.71
534.35	59030.65
534.52	58569.57
534.69	59159.38
534.86	59725.79
535.03	59711.75
535.20	60018.36
535.37	60182.19
535.54	60259.43
535.71	60149.43
535.88	59894.31
536.05	59241.30
536.22	58686.59
536.38	58377.64
536.55	58218.49
536.72	57560.79
536.89	57418.02
537.06	58307.43
537.23	59271.73
537.40	59405.14
537.57	59374.71
537.74	59159.38
537.91	59025.97
538.08	58983.84
538.25	59068.10
538.42	59260.02
538.59	59194.49
538.75	58592.97
538.92	58213.80
539.09	58143.59
539.26	57839.32
539.43	57975.07
539.60	57640.37
539.77	58108.48
539.94	57963.37
540.11	57024.81
540.28	56509.89
540.44	56797.78
540.61	57073.96
540.78	57387.60
540.95	57623.99
541.12	58087.42
541.29	58127.20
541.46	58504.03
541.62	58602.33
541.79	58431.47
541.96	57764.42
542.13	57806.55
542.30	58417.43
542.47	58485.31
542.63	58035.92
542.80	57904.85
542.97	57914.22
543.14	57762.08
543.31	57897.83
543.48	58253.59
543.64	59271.73
543.81	59529.19
543.98	59182.79
544.15	58328.49
544.32	58010.18
544.48	58279.34
544.65	58583.61
544.82	58885.54
544.99	58499.35
545.16	58372.96
545.32	58218.49
545.49	58922.99
545.66	59241.30
545.83	58862.13
546.00	58468.92
546.16	58024.22
546.33	58260.62
546.50	58316.79
546.67	58702.98
546.83	58178.70
547.00	58307.43
547.17	57614.63
547.34	57209.71
547.50	56970.98
547.67	57418.02
547.84	57450.79
548.00	57858.04
548.17	58159.97
548.34	58056.99
548.51	58265.30
548.67	58181.04
548.84	58335.51
549.01	58230.19
549.18	58183.38
549.34	57991.45
549.51	58005.50
549.68	57862.72
549.84	57703.57
550.01	58033.58
550.18	57776.12
550.34	57682.50
550.51	57670.80
550.68	57822.93
550.84	57104.39
551.01	57385.25
551.18	57247.16
551.34	57607.61
551.51	57750.38
551.68	58192.74
551.84	58230.19
552.01	58162.31
552.18	57794.85
552.34	57109.07
552.51	56828.21
552.68	56727.56
552.84	57132.48
553.01	57556.11
553.18	57396.96
553.34	57729.31
553.51	57357.17
553.67	57822.93
553.84	57867.40
554.01	57944.64
554.17	57558.45
554.34	57558.45
554.51	57659.10
554.67	58419.77
554.84	57918.90
555.00	57574.84
555.17	57478.88
555.33	57216.74
555.50	57165.24
555.67	57403.98
555.83	57003.75
556.00	56835.23
556.16	57127.80
556.33	56526.28
556.50	56505.21
556.66	56535.64
556.83	56009.02
556.99	56233.71
557.16	56442.02
557.32	56942.89
557.49	56987.36
557.65	56891.40
557.82	56853.95
557.98	56601.18
558.15	56395.21
558.32	55735.18
558.48	54775.56
558.65	55154.72
558.81	54955.78
558.98	55365.37
559.14	55742.20
559.31	55817.10
559.47	55679.00
559.64	55487.08
559.80	54934.71
559.97	55119.62
560.13	55473.04
560.30	56456.06
560.46	56919.49
560.63	57268.23
560.79	57286.95
560.96	56942.89
561.12	55618.15
561.29	54340.22
561.45	54911.31
561.61	55571.34
561.78	55941.14
561.94	55781.99
562.11	55470.70
562.27	55489.42
562.44	55938.80
562.60	55924.76
562.77	56212.65
562.93	56156.47
563.10	56339.04
563.26	55716.45
563.42	55285.79
563.59	55278.77
563.75	55442.61
563.92	55370.05
564.08	55454.31
564.24	55779.65
564.41	55641.56
564.57	55718.79
564.74	55468.36
564.90	55627.51
565.07	55051.74
565.23	54752.15
565.39	54192.76
565.56	54042.97
565.72	53876.79
565.88	54176.38
566.05	54424.48
566.21	54564.91
566.38	54862.16
566.54	54560.23
566.70	55231.96
566.87	55475.38
567.03	55487.08
567.19	55510.49
567.36	55503.46
567.52	55395.80
567.68	54925.35
567.85	54237.23
568.01	53935.30
568.17	53591.25
568.34	53675.51
568.50	53272.93
568.66	53523.37
568.83	54213.83
568.99	53998.50
569.15	54092.12
569.32	54293.41
569.48	53876.79
569.64	53785.51
569.81	53600.61
569.97	53469.54
570.13	53546.78
570.30	52893.77
570.46	52540.35
570.62	51730.52
570.78	51641.58
570.95	51980.96
571.11	52626.95
571.27	53195.70
571.43	53249.53
571.60	53602.95
571.76	53656.78
571.92	53869.77
572.09	54003.18
572.25	54014.88
572.41	53998.50
572.57	53925.94
572.74	53848.71
572.90	53502.31
573.06	53485.92
573.22	53544.44
573.38	53291.66
573.55	53659.12
573.71	53703.59
573.87	53549.12
574.03	53230.80
574.20	52978.03
574.36	52818.87
574.52	52952.28
574.68	52849.30
574.84	52360.12
575.01	51987.98
575.17	51601.79
575.33	52299.27
575.49	52165.86
575.65	52538.01
575.82	52275.87
575.98	51803.08
576.14	52374.17
576.30	52683.12
576.46	52811.85
576.62	52591.84
576.79	52559.07
576.95	52165.86
577.11	52030.11
577.27	52530.98
577.43	52488.85
577.59	51929.47
577.75	51339.65
577.92	51058.79
578.08	50710.05
578.24	50873.88
578.40	51096.24
578.56	51531.57
578.72	51416.89
578.88	51831.16
579.04	51737.54
579.21	51962.23
579.37	52027.77
579.53	51859.25
579.69	51796.06
579.85	52037.13
580.01	51887.34
580.17	51489.45
580.33	51168.79
580.49	51309.22
580.65	51763.29
580.82	51917.76
580.98	51950.53
581.14	51873.29
581.30	51992.66
581.46	51707.12
581.62	52037.13
581.78	51948.19
581.94	51999.68
582.10	51934.15
582.26	52261.82
582.42	52219.69
582.58	52306.29
582.74	51980.96
582.90	51903.72
583.06	52011.38
583.22	51840.53
583.38	51786.69
583.54	51526.89
583.70	51763.29
583.86	51615.83
584.02	51592.43
584.18	51814.78
584.34	51234.33
584.50	51285.82
584.66	51320.93
584.82	50974.53
584.98	50651.53
585.14	50405.78
585.30	49574.89
