SpectraSuite Data File
++++++++++++++++++++++++++++++++++++
Date: Mon Oct 07 14:54:04 GMT-05:00 2013
User: price-jones
Dark Spectrum Present: No
Reference Spectrum Present: No
Number of Sampled Component Spectra: 1
Spectrometers: USB2+H05261
Integration Time (usec): 100000 (USB2+H05261)
Spectra Averaged: 1 (USB2+H05261)
Boxcar Smoothing: 0 (USB2+H05261)
Correct for Electrical Dark: No (USB2+H05261)
Strobe/Lamp Enabled: No (USB2+H05261)
Correct for Detector Non-linearity: No (USB2+H05261)
Correct for Stray Light: No (USB2+H05261)
Number of Pixels in Processed Spectrum: 2048
>>>>>Begin Processed Spectral Data<<<<<
365.73	0.00
365.92	0.00
366.12	0.00
366.32	0.00
366.52	0.00
366.72	0.00
366.91	0.00
367.11	0.00
367.31	0.00
367.51	0.00
367.70	0.00
367.90	0.00
368.10	0.00
368.30	0.00
368.49	0.00
368.69	0.00
368.89	0.00
369.09	0.00
369.28	0.00
369.48	0.00
369.68	0.00
369.87	0.00
370.07	0.00
370.27	0.00
370.47	676.41
370.66	3426.54
370.86	4014.02
371.06	4454.04
371.25	4496.17
371.45	3983.59
371.65	3620.81
371.84	3368.03
372.04	3566.98
372.24	3957.85
372.44	4142.75
372.63	4081.89
372.83	3789.33
373.03	3403.14
373.22	3171.43
373.42	3183.13
373.62	3733.15
373.81	4072.53
374.01	4081.89
374.21	3641.87
374.40	3302.50
374.60	3559.95
374.79	3859.54
374.99	4758.31
375.19	5053.22
375.38	5039.17
375.58	4709.16
375.78	4592.13
375.97	4671.71
376.17	4929.17
376.37	4919.81
376.56	4968.96
376.76	5334.08
376.95	5661.76
377.15	5949.64
377.35	6331.15
377.54	6520.73
377.74	6640.10
377.93	6703.29
378.13	6267.95
378.33	6225.82
378.52	5703.89
378.72	5364.51
378.91	5495.58
379.11	5284.93
379.31	5125.77
379.50	5013.43
379.70	5399.62
379.89	5989.43
380.09	6143.91
380.28	6609.67
380.48	6555.84
380.68	6319.45
380.87	6305.40
381.07	5823.25
381.26	5369.19
381.46	4959.60
381.65	4851.93
381.85	4753.63
382.04	4482.13
382.24	4180.20
382.43	4023.38
382.63	3901.67
382.83	4007.00
383.02	3925.08
383.22	3878.27
383.41	3941.46
383.61	4447.02
383.80	4746.61
384.00	5500.26
384.19	5949.64
384.39	6534.78
384.58	6396.68
384.78	6450.52
384.97	6349.87
385.17	5895.81
385.36	5617.29
385.56	5476.85
385.75	5647.71
385.95	6064.33
386.14	6548.82
386.34	6703.29
386.53	6225.82
386.72	5832.62
386.92	5977.73
387.11	6326.47
387.31	6572.22
387.50	6429.45
387.70	6270.30
387.89	6090.07
388.09	6296.04
388.28	6338.17
388.48	6656.48
388.67	6764.15
388.86	7609.08
389.06	8013.99
389.25	8564.02
389.45	8341.67
389.64	8320.60
389.84	8376.78
390.03	8386.14
390.22	8402.52
390.42	8489.12
390.61	9116.39
390.81	9755.35
391.00	10125.16
391.19	9633.64
391.39	9668.75
391.58	8915.10
391.78	8496.14
391.97	8306.56
392.16	7681.64
392.36	6935.01
392.55	5692.18
392.75	4542.98
392.94	3630.17
393.13	3665.28
393.33	4262.12
393.52	5420.68
393.71	6551.16
393.91	7403.11
394.10	8077.19
394.29	8924.46
394.49	9486.19
394.68	10483.26
394.88	10331.12
395.07	10597.95
395.26	10525.39
395.46	10239.84
395.65	9809.19
395.84	8491.46
396.04	7185.44
396.23	5774.10
396.42	4751.29
396.62	4648.30
396.81	5432.38
397.00	7063.74
397.19	8683.39
397.39	10279.63
397.58	11583.31
397.77	12477.40
397.97	12882.31
398.16	13137.43
398.35	13547.02
398.55	13940.23
398.74	14548.77
398.93	14719.63
399.12	14511.32
399.32	13762.35
399.51	14436.42
399.70	15398.38
399.90	15007.52
400.09	15152.63
400.28	14785.16
400.47	15215.82
400.67	15791.59
400.86	16135.65
401.05	16154.38
401.24	16285.45
401.44	16552.27
401.63	16489.07
401.82	16496.10
402.01	16299.49
402.21	16978.25
402.40	16940.80
402.59	16376.73
402.78	15756.49
402.97	15213.48
403.17	15721.38
403.36	16741.85
403.55	17188.89
403.74	17635.94
403.93	16561.63
404.13	15669.89
404.32	15101.14
404.51	16086.50
404.70	17039.10
404.89	17341.03
405.09	16688.02
405.28	16348.64
405.47	16411.84
405.66	16222.25
405.85	15976.50
406.05	15573.92
406.24	15873.51
406.43	16395.45
406.62	17011.01
406.81	17317.62
407.00	16456.31
407.20	16166.08
407.39	16156.72
407.58	17099.95
407.77	17523.59
407.96	18373.21
408.15	18656.41
408.34	18216.39
408.54	19180.69
408.73	19562.20
408.92	19213.46
409.11	18506.62
409.30	17579.76
409.49	16570.99
409.68	15613.71
409.87	14970.07
410.07	15943.73
410.26	17284.86
410.45	18284.26
410.64	18747.69
410.83	19454.53
411.02	19807.95
411.21	20425.86
411.40	20343.94
411.59	20575.65
411.78	20376.70
411.98	19927.32
412.17	20388.41
412.36	20025.62
412.55	19775.19
412.74	19798.59
412.93	19143.24
413.12	19176.01
413.31	21025.03
413.50	21287.17
413.69	21523.57
413.88	21055.46
414.07	20423.51
414.26	20741.83
414.45	21303.56
414.64	21170.15
414.83	21483.78
415.02	20933.75
415.22	21036.74
415.41	21455.69
415.60	21743.58
415.79	22883.42
415.98	23321.10
416.17	23494.30
416.36	22761.71
416.55	22305.31
416.74	22157.85
416.93	20989.92
417.12	20922.05
417.31	21558.67
417.50	21565.70
417.69	22572.13
417.88	22537.02
418.07	22305.31
418.26	21907.41
418.45	22082.95
418.64	22815.54
418.83	23569.19
419.02	23260.24
419.21	23433.44
419.39	22118.06
419.58	21029.71
419.77	21029.71
419.96	21755.28
420.15	23426.42
420.34	24018.58
420.53	24741.80
420.72	25184.16
420.91	25127.99
421.10	24805.00
421.29	24261.99
421.48	23506.00
421.67	25032.03
421.86	23882.83
422.05	22359.14
422.24	20280.74
422.43	19634.75
422.61	22082.95
422.80	24126.24
422.99	23810.27
423.18	22944.27
423.37	22312.33
423.56	22850.65
423.75	22576.81
423.94	23377.27
424.13	22139.13
424.32	22419.99
424.50	22553.40
424.69	22251.47
424.88	22419.99
425.07	22097.00
425.26	21886.35
425.45	21916.78
425.64	21600.80
425.83	21345.69
426.01	23051.94
426.20	23154.92
426.39	23084.70
426.58	21397.18
426.77	19829.02
426.96	19157.28
427.15	19796.25
427.33	21568.04
427.52	22108.70
427.71	22246.79
427.90	21902.73
428.09	21921.46
428.28	21577.40
428.46	20957.16
428.65	20458.62
428.84	20950.14
429.03	21486.12
429.22	19946.05
429.40	19103.45
429.59	17511.89
429.78	15377.32
429.97	15419.45
430.16	15880.53
430.34	15681.59
430.53	15503.71
430.72	15847.77
430.91	17537.63
431.10	20545.22
431.28	24301.78
431.47	26272.51
431.66	26597.85
431.85	24133.26
432.03	22333.39
432.22	21195.89
432.41	22122.74
432.60	24709.04
432.79	25434.60
432.97	26359.11
433.16	25710.78
433.35	23260.24
433.54	20922.05
433.72	19782.21
433.91	20393.09
434.10	22747.67
434.28	24135.60
434.47	26061.87
434.66	25170.12
434.85	24444.56
435.03	24315.83
435.22	25144.38
435.41	26759.34
435.59	26792.11
435.78	27026.17
435.97	27777.48
436.16	27686.20
436.34	27267.24
436.53	26668.06
436.72	26960.63
436.90	25348.00
437.09	25418.22
437.28	24835.42
437.46	25867.60
437.65	25958.88
437.84	24336.89
438.02	21837.20
438.21	21797.41
438.40	23185.35
438.58	24959.47
438.77	25652.27
438.96	26024.42
439.14	27234.47
439.33	27899.19
439.52	28395.38
439.70	27473.21
439.89	27037.87
440.08	26218.68
440.26	26080.59
440.45	26857.65
440.63	28737.10
440.82	30188.23
441.01	29647.57
441.19	29378.40
441.38	29930.77
441.57	30824.86
441.75	31681.49
441.94	32016.19
442.12	31529.36
442.31	31974.06
442.50	31931.93
442.68	31475.52
442.87	31016.78
443.05	30602.50
443.24	31028.48
443.43	31847.67
443.61	32411.74
443.80	32921.98
443.98	30827.20
444.17	30895.07
444.35	32982.83
444.54	33446.26
444.73	32903.25
444.91	31496.59
445.10	30082.91
445.28	28692.63
445.47	28538.15
445.65	28872.85
445.84	29324.57
446.02	30237.38
446.21	30593.14
446.39	31117.42
446.58	31281.26
446.77	31601.91
446.95	31892.14
447.14	33111.56
447.32	33951.81
447.51	33090.49
447.69	31707.24
447.88	31278.92
448.06	31295.30
448.25	32070.02
448.43	33120.92
448.62	31927.25
448.80	31880.44
448.99	32137.90
449.17	32011.51
449.36	32353.23
449.54	33504.77
449.73	34211.61
449.91	34366.09
450.10	35412.31
450.28	35924.88
450.46	35786.79
450.65	35416.99
450.83	35384.22
451.02	34356.72
451.20	34391.83
451.39	34450.35
451.57	34043.09
451.76	34171.82
451.94	33699.03
452.13	33359.66
452.31	31789.16
452.49	30356.75
452.68	30813.15
452.86	30974.65
453.05	30969.97
453.23	31964.70
453.42	32636.43
453.60	33303.48
453.78	33804.36
453.97	33371.36
454.15	33214.54
454.34	32680.90
454.52	32971.13
454.70	31957.67
454.89	32430.46
455.07	32877.51
455.26	33317.53
455.44	34307.57
455.62	35255.49
455.81	35260.17
455.99	35119.74
456.17	34515.88
456.36	34768.66
456.54	35651.04
456.73	35747.00
456.91	35608.91
457.09	36165.96
457.28	37317.50
457.46	35622.95
457.64	35398.26
457.83	34199.91
458.01	33844.15
458.19	34464.39
458.38	34480.77
458.56	35716.58
458.74	35541.03
458.93	34836.53
459.11	34684.40
459.29	34527.58
459.48	34998.03
459.66	35002.71
459.84	34841.21
460.03	35718.92
460.21	35473.16
460.39	36191.70
460.57	36203.41
460.76	36921.95
460.94	36746.41
461.12	35833.60
461.31	36231.49
461.49	36418.74
461.67	36229.15
461.85	37141.96
462.04	37198.13
462.22	37146.64
462.40	37900.29
462.59	37010.89
462.77	36947.70
462.95	37542.19
463.13	36910.25
463.32	36367.24
463.50	36388.31
463.68	36147.23
463.86	36229.15
464.05	35763.39
464.23	35161.87
464.41	34352.04
464.59	34256.08
464.78	36180.00
464.96	35838.28
465.14	34979.31
465.32	36388.31
465.50	36950.04
465.69	37483.68
465.87	36723.01
466.05	35728.28
466.23	34293.53
466.41	33472.00
466.60	34323.96
466.78	34227.99
466.96	35086.97
467.14	35475.50
467.32	36524.06
467.51	36088.72
467.69	34401.19
467.87	35021.44
468.05	35620.61
468.23	35728.28
468.41	35585.50
468.60	35864.03
468.78	36130.85
468.96	35346.77
469.14	36224.47
469.32	36755.77
469.50	35372.52
469.69	35676.79
469.87	34583.76
470.05	34623.54
470.23	34749.93
470.41	35145.48
470.59	35447.41
470.77	35218.04
470.95	36313.41
471.14	36968.76
471.32	36608.32
471.50	38377.76
471.68	38342.66
471.86	39056.52
472.04	38845.87
472.22	39435.69
472.40	37333.89
472.58	36760.45
472.77	36491.29
472.95	37104.51
473.13	38628.20
473.31	37181.75
473.49	37500.06
473.67	38171.80
473.85	38494.79
474.03	39395.90
474.21	39484.84
474.39	39393.56
474.57	39847.62
474.75	39903.79
474.93	39681.44
475.12	39030.77
475.30	38553.30
475.48	39295.25
475.66	39545.69
475.84	39428.66
476.02	38965.24
476.20	38319.25
476.38	39126.74
476.56	39742.30
476.74	40112.10
476.92	41097.47
477.10	41308.11
477.28	42342.63
477.46	42424.55
477.64	43246.08
477.82	42738.18
478.00	43033.09
478.18	42466.68
478.36	42298.16
478.54	42347.31
478.72	42855.21
478.90	43473.11
479.08	44767.43
479.26	45521.08
479.44	45027.23
479.62	44767.43
479.80	45041.27
479.98	45153.62
480.16	45404.05
480.34	44952.33
480.52	45291.71
480.70	45411.07
480.88	45581.93
481.06	46272.39
481.24	46326.22
481.41	47519.90
481.59	47976.30
481.77	47746.93
481.95	47086.90
482.13	46887.95
482.31	47452.02
482.49	47786.72
482.67	47075.19
482.85	47767.99
483.03	48191.63
483.21	49050.61
483.39	48575.48
483.57	48259.51
483.74	47337.33
483.92	48102.69
484.10	48460.79
484.28	49066.99
484.46	49251.89
484.64	49598.29
484.82	48830.60
485.00	48341.42
485.18	47812.46
485.35	46120.26
485.53	43122.03
485.71	39679.10
485.89	38930.13
486.07	40847.03
486.25	44196.34
486.43	46836.46
486.61	47173.50
486.78	47152.43
486.96	47243.71
487.14	49315.09
487.32	49907.24
487.50	50834.10
487.68	51639.24
487.85	52055.85
488.03	52280.55
488.21	51662.64
488.39	51065.81
488.57	50302.79
488.75	50209.17
488.92	50974.53
489.10	53020.16
489.28	54335.54
489.46	54972.16
489.64	54770.88
489.81	54848.11
489.99	54562.57
490.17	54522.78
490.35	55126.64
490.53	54607.04
490.70	54358.94
490.88	54096.80
491.06	55070.46
491.24	55098.55
491.41	54408.09
491.59	52509.92
491.77	51835.84
491.95	52657.37
492.13	54061.69
492.30	55079.83
492.48	55887.31
492.66	56233.71
492.84	56413.93
493.01	55959.87
493.19	55891.99
493.37	55222.60
493.54	55028.34
493.72	55571.34
493.90	56463.08
494.08	57186.31
494.25	57743.36
494.43	57663.78
494.61	57968.05
494.79	57893.15
494.96	57897.83
495.14	57506.96
495.32	56676.07
495.49	55927.10
495.67	56830.55
495.85	58117.84
496.02	58658.51
496.20	58337.85
496.38	58012.52
496.55	57572.50
496.73	58279.34
496.91	58305.09
497.09	59042.35
497.26	59051.72
497.44	58438.50
497.62	58115.50
497.79	57268.23
497.97	56002.00
498.14	56341.38
498.32	57347.81
498.50	58298.06
498.67	58560.20
498.85	58623.40
499.03	58693.61
499.20	58918.31
499.38	59018.95
499.56	58962.78
499.73	58475.94
499.91	57951.66
500.08	57542.07
500.26	56750.97
500.44	57265.89
500.61	57965.71
500.79	57909.53
500.97	57242.48
501.14	57347.81
501.32	57125.46
501.49	56882.04
501.67	57329.08
501.84	57949.32
502.02	58099.12
502.20	58457.22
502.37	58555.52
502.55	58637.44
502.72	59004.91
502.90	59671.96
503.07	59262.36
503.25	58972.14
503.43	58171.67
503.60	57471.85
503.78	56910.13
503.95	57439.09
504.13	58557.86
504.30	59278.75
504.48	59047.04
504.65	58677.23
504.83	58628.08
505.01	59465.99
505.18	59618.13
505.36	60245.39
505.53	60444.33
505.71	60566.04
505.88	60521.57
506.06	59910.69
506.23	59625.15
506.41	59451.95
506.58	59578.34
506.76	59496.42
506.93	59501.10
507.11	59215.55
507.28	59344.28
507.46	58955.75
507.63	58295.72
507.81	58174.02
507.98	58379.98
508.16	59086.82
508.33	59496.42
508.50	59831.11
508.68	60072.19
508.85	60690.09
509.03	60491.15
509.20	60580.09
509.38	59749.20
509.55	58951.07
509.73	59192.15
509.90	59554.93
510.08	59817.07
510.25	59877.93
510.42	59449.61
510.60	59531.53
510.77	59969.21
510.95	60313.26
511.12	60292.20
511.30	60647.96
511.47	60926.49
511.64	60989.68
511.82	60561.36
511.99	59906.01
512.17	59519.82
512.34	58906.60
512.51	59278.75
512.69	59391.09
512.86	59538.55
513.04	59812.39
513.21	59915.37
513.38	59753.88
513.56	59089.16
513.73	58454.88
513.90	58904.26
514.08	58794.26
514.25	59018.95
514.43	59143.00
514.60	59248.32
514.77	59402.80
514.95	59391.09
515.12	59554.93
515.29	59625.15
515.47	60161.13
515.64	60275.82
515.81	60226.66
515.99	59554.93
516.16	58171.67
516.33	55819.44
516.51	54625.76
516.68	53514.01
516.85	53389.96
517.03	53804.24
517.20	56121.37
517.37	58557.86
517.54	59636.85
517.72	58932.35
517.89	56776.72
518.06	54443.20
518.24	54590.66
518.41	57092.69
518.58	58258.27
518.75	58501.69
518.93	58576.59
519.10	58403.39
519.27	58829.37
519.45	58876.18
519.62	59627.49
519.79	59842.82
519.96	59842.82
520.14	59379.39
520.31	58756.81
520.48	58702.98
520.65	58953.41
520.83	59863.88
521.00	60200.92
521.17	59723.45
521.34	59601.74
521.52	59693.02
521.69	60184.54
521.86	60853.93
522.03	60535.62
522.20	59440.24
522.38	58422.11
522.55	58323.81
522.72	58827.02
522.89	59203.85
523.07	59208.53
523.24	59456.63
523.41	60357.74
523.58	60470.08
523.75	61050.53
523.92	60797.76
524.10	60741.58
524.27	60835.20
524.44	60556.68
524.61	60266.45
524.78	60133.04
524.96	60046.44
525.13	60037.08
525.30	60516.89
525.47	60743.92
525.64	60858.61
525.81	59987.93
525.98	58712.34
526.16	57352.49
526.33	56783.74
526.50	56151.79
526.67	55906.04
526.84	56357.76
527.01	57553.77
527.18	58321.47
527.36	59236.62
527.53	59955.16
527.70	60294.54
527.87	59695.36
528.04	59231.94
528.21	59758.56
528.38	60121.34
528.55	60931.17
528.72	61268.20
528.89	61275.22
529.07	60977.98
529.24	60413.91
529.41	59739.83
529.58	59243.64
529.75	59365.35
529.92	59735.15
530.09	60111.98
530.26	60750.94
530.43	60811.80
530.60	61013.08
530.77	60999.04
530.94	61130.11
531.11	60711.16
531.28	60371.78
531.46	60348.37
531.63	60453.70
531.80	60294.54
531.97	59788.98
532.14	59224.92
532.31	58103.80
532.48	57521.01
532.65	57509.30
532.82	58436.16
532.99	59480.03
533.16	59924.74
533.33	60404.55
533.50	60154.11
533.67	59590.04
533.84	59004.91
534.01	59487.06
534.18	59416.84
534.35	59793.67
534.52	59599.40
534.69	59552.59
534.86	60154.11
535.03	60182.19
535.20	60774.35
535.37	61223.73
535.54	61144.16
535.71	60818.82
535.88	60526.25
536.05	59840.48
536.22	59379.39
536.38	59227.26
536.55	58635.10
536.72	58454.88
536.89	58003.16
537.06	59098.53
537.23	59746.86
537.40	59959.84
537.57	60004.31
537.74	59667.28
537.91	59627.49
538.08	59704.73
538.25	59526.84
538.42	59999.63
538.59	59732.81
538.75	59075.12
538.92	58932.35
539.09	58705.32
539.26	58492.33
539.43	58585.95
539.60	58319.13
539.77	58415.09
539.94	58646.80
540.11	57858.04
540.28	57209.71
540.44	57471.85
540.61	57429.72
540.78	57848.68
540.95	58216.14
541.12	58777.87
541.29	58740.42
541.46	59002.56
541.62	59103.21
541.79	58908.94
541.96	58520.41
542.13	58440.84
542.30	58717.02
542.47	58988.52
542.63	58581.27
542.80	58396.37
542.97	58609.35
543.14	58241.89
543.31	58382.32
543.48	58901.92
543.64	59613.44
543.81	59959.84
543.98	59784.30
544.15	58918.31
544.32	58583.61
544.48	58618.72
544.65	58852.77
544.82	59611.10
544.99	58897.24
545.16	58808.30
545.32	58192.74
545.49	59143.00
545.66	59498.76
545.83	59128.95
546.00	58611.70
546.16	58562.54
546.33	58724.04
546.50	58768.51
546.67	59040.01
546.83	58756.81
547.00	58684.25
547.17	57916.56
547.34	57354.83
547.50	57581.86
547.67	57961.03
547.84	57937.62
548.00	58316.79
548.17	58829.37
548.34	58578.93
548.51	58611.70
548.67	58564.88
548.84	58787.24
549.01	58805.96
549.18	58424.45
549.34	58429.13
549.51	58415.09
549.68	58562.54
549.84	58363.60
550.01	58059.33
550.18	57951.66
550.34	58148.27
550.51	58080.39
550.68	58190.40
550.84	57743.36
551.01	57764.42
551.18	57897.83
551.34	57895.49
551.51	58216.14
551.68	58686.59
551.84	58492.33
552.01	58387.00
552.18	58288.70
552.34	57411.00
552.51	57251.84
552.68	57125.46
552.84	57233.12
553.01	58094.44
553.18	57626.33
553.34	57972.73
553.51	57944.64
553.67	58143.59
553.84	58382.32
554.01	58099.12
554.17	57806.55
554.34	58248.91
554.51	58258.27
554.67	58539.14
554.84	58124.86
555.00	57996.13
555.17	57797.19
555.33	57769.10
555.50	57752.72
555.67	57663.78
555.83	57546.75
556.00	56989.70
556.16	57148.86
556.33	56917.15
556.50	56722.88
556.66	56837.57
556.83	56376.48
556.99	56584.79
557.16	56554.36
557.32	56947.57
557.49	57151.20
557.65	57118.43
557.82	57034.17
557.98	57130.14
558.15	56355.42
558.32	55887.31
558.48	54803.64
558.65	54997.91
558.81	55634.53
558.98	55704.75
559.14	56006.68
559.31	56069.87
559.47	56025.40
559.64	55667.30
559.80	55341.97
559.97	55501.12
560.13	55796.03
560.30	56680.75
560.46	57190.99
560.63	57240.14
560.79	57434.41
560.96	57036.51
561.12	56032.42
561.29	55070.46
561.45	54981.52
561.61	55917.74
561.78	56102.64
561.94	56055.83
562.11	55910.72
562.27	55599.43
562.44	56030.08
562.60	56343.72
562.77	56645.65
562.93	56533.30
563.10	56610.54
563.26	55950.51
563.42	55807.73
563.59	55667.30
563.75	55480.06
563.92	55826.46
564.08	55737.52
564.24	55796.03
564.41	56041.79
564.57	55817.10
564.74	55576.02
564.90	55697.73
565.07	55386.44
565.23	55023.65
565.39	54653.85
565.56	54272.34
565.72	53811.26
565.88	54174.04
566.05	54377.67
566.21	54843.43
566.38	54930.03
566.54	54934.71
566.70	55466.02
566.87	55491.76
567.03	55477.72
567.19	55753.90
567.36	55632.19
567.52	55370.05
567.68	54953.44
567.85	54471.29
568.01	54143.61
568.17	53773.81
568.34	53881.47
568.50	53633.38
568.66	53815.94
568.83	54241.92
568.99	54314.47
569.15	54487.67
569.32	54293.41
569.48	54057.01
569.64	54143.61
569.81	53371.24
569.97	53221.44
570.13	53446.13
570.30	53031.86
570.46	52542.69
570.62	52009.04
570.78	51826.48
570.95	52083.94
571.11	52783.76
571.27	53167.61
571.43	53579.54
571.60	53584.22
571.76	54010.20
571.92	54230.21
572.09	54199.79
572.25	54398.73
572.41	54267.66
572.57	53928.28
572.74	53876.79
572.90	53457.84
573.06	53570.18
573.22	53691.89
573.38	53815.94
573.55	53656.78
573.71	53815.94
573.87	53705.93
574.03	53066.97
574.20	53408.68
574.36	53141.86
574.52	53155.91
574.68	52891.43
574.84	52449.06
575.01	52142.45
575.17	51870.95
575.33	52212.67
575.49	52332.04
575.65	52444.38
575.82	52161.18
575.98	52018.41
576.14	52346.08
576.30	52638.65
576.46	52816.53
576.62	52643.33
576.79	52549.71
576.95	51840.53
577.11	52378.85
577.27	52308.63
577.43	52636.31
577.59	52072.24
577.75	51540.94
577.92	50932.40
578.08	50721.75
578.24	50876.22
578.40	51131.34
578.56	51430.93
578.72	51444.98
578.88	51782.01
579.04	51515.19
579.21	51817.12
579.37	51728.18
579.53	52193.95
579.69	51847.55
579.85	52156.50
580.01	52090.96
580.17	51452.00
580.33	51187.52
580.49	51278.80
580.65	51756.27
580.82	51625.20
580.98	51870.95
581.14	51828.82
581.30	52112.03
581.46	51440.29
581.62	51700.09
581.78	51861.59
581.94	52294.59
582.10	51800.74
582.26	51690.73
582.42	51810.10
582.58	52011.38
582.74	51763.29
582.90	51763.29
583.06	51592.43
583.22	51550.30
583.38	51742.22
583.54	51423.91
583.70	51519.87
583.86	51496.47
584.02	51470.72
584.18	51686.05
584.34	51503.49
584.50	51459.02
584.66	51299.86
584.82	51021.34
584.98	50740.47
585.14	50241.94
