SpectraSuite Data File
++++++++++++++++++++++++++++++++++++
Date: Mon Oct 07 14:53:43 GMT-05:00 2013
User: price-jones
Dark Spectrum Present: No
Reference Spectrum Present: No
Number of Sampled Component Spectra: 1
Spectrometers: USB2+H05261
Integration Time (usec): 100000 (USB2+H05261)
Spectra Averaged: 1 (USB2+H05261)
Boxcar Smoothing: 0 (USB2+H05261)
Correct for Electrical Dark: No (USB2+H05261)
Strobe/Lamp Enabled: No (USB2+H05261)
Correct for Detector Non-linearity: No (USB2+H05261)
Correct for Stray Light: No (USB2+H05261)
Number of Pixels in Processed Spectrum: 2048
>>>>>Begin Processed Spectral Data<<<<<
365.73	0.00
365.92	0.00
366.12	0.00
366.32	0.00
366.52	0.00
366.72	0.00
366.91	0.00
367.11	0.00
367.31	0.00
367.51	0.00
367.70	0.00
367.90	0.00
368.10	0.00
368.30	0.00
368.49	0.00
368.69	0.00
368.89	0.00
369.09	0.00
369.28	0.00
369.48	0.00
369.68	0.00
369.87	0.00
370.07	0.00
370.27	0.00
370.47	716.20
370.66	3569.32
370.86	4212.96
371.06	4573.41
371.25	4573.41
371.45	4189.56
371.65	3845.50
371.84	3653.58
372.04	3698.05
372.24	4184.88
372.44	4386.16
372.63	4344.03
372.83	4046.79
373.03	3606.77
373.22	3290.79
373.42	3318.88
373.62	3929.76
373.81	4215.30
374.01	4257.43
374.21	3871.25
374.40	3576.34
374.60	3726.13
374.79	4266.80
374.99	4919.81
375.19	5352.81
375.38	5322.38
375.58	5041.51
375.78	4645.96
375.97	4968.96
376.17	5078.96
376.37	5266.21
376.56	5387.91
376.76	5551.75
376.95	6157.95
377.15	6164.97
377.35	6534.78
377.54	7138.63
377.74	7119.91
377.93	7037.99
378.13	6733.72
378.33	6469.24
378.52	6179.01
378.72	5696.86
378.91	5806.87
379.11	5600.90
379.31	5366.85
379.50	5259.18
379.70	5708.57
379.89	6291.36
380.09	6682.23
380.28	6890.54
380.48	6913.94
380.68	6738.40
380.87	6860.11
381.07	6232.85
381.26	5666.44
381.46	5366.85
381.65	5125.77
381.85	5413.66
382.04	4887.04
382.24	4550.00
382.43	4308.93
382.63	4133.39
382.83	4259.78
383.02	4269.14
383.22	4161.47
383.41	4285.52
383.61	4484.47
383.80	5022.79
384.00	5799.85
384.19	6553.50
384.39	6827.34
384.58	6780.53
384.78	6832.02
384.97	6808.62
385.17	6506.69
385.36	6087.73
385.56	5921.56
385.75	5940.28
385.95	6586.27
386.14	7288.43
386.34	7225.23
386.53	6839.05
386.72	6164.97
386.92	6445.84
387.11	6951.39
387.31	7052.03
387.50	7110.55
387.70	6860.11
387.89	6747.76
388.09	6745.42
388.28	6806.28
388.48	6878.83
388.67	7302.47
388.86	7969.52
389.06	8727.86
389.25	9158.52
389.45	9137.45
389.64	9170.22
389.84	8954.89
390.03	9097.66
390.22	9062.55
390.42	9303.63
390.61	9902.81
390.81	10546.45
391.00	10677.52
391.19	10583.90
391.39	10202.40
391.58	9755.35
391.78	8954.89
391.97	8954.89
392.16	8379.12
392.36	7534.18
392.55	5996.45
392.75	4863.63
392.94	3985.93
393.13	3850.18
393.33	4550.00
393.52	5886.45
393.71	7222.89
393.91	8208.26
394.10	8779.35
394.29	9619.60
394.49	10319.42
394.68	11290.74
394.88	11096.48
395.07	11695.66
395.26	11620.76
395.46	11241.59
395.65	10675.18
395.84	9397.25
396.04	7803.35
396.23	6284.34
396.42	5387.91
396.62	5160.88
396.81	5886.45
397.00	7667.60
397.19	9516.62
397.39	11019.24
397.58	12425.90
397.77	13603.19
397.97	14026.83
398.16	14483.24
398.35	14635.37
398.55	15098.80
398.74	16051.39
398.93	16098.20
399.12	15824.36
399.32	15178.37
399.51	15609.03
399.70	16816.75
399.90	16559.29
400.09	16524.18
400.28	16278.43
400.47	16393.11
400.67	17247.41
400.86	17991.70
401.05	17664.02
401.24	17830.20
401.44	17991.70
401.63	18338.10
401.82	18272.56
402.01	18129.79
402.21	18471.51
402.40	18403.63
402.59	18017.44
402.78	17226.34
402.97	16662.27
403.17	17322.30
403.36	17912.12
403.55	18808.54
403.74	19679.22
403.93	18609.60
404.13	16999.31
404.32	16730.15
404.51	17591.47
404.70	18492.57
404.89	18670.45
405.09	18314.69
405.28	18160.22
405.47	18125.11
405.66	17699.13
405.85	17467.42
406.05	16889.31
406.24	17153.79
406.43	17944.89
406.62	18642.37
406.81	19016.85
407.00	18066.60
407.20	17401.88
407.39	17839.56
407.58	18452.78
407.77	19330.48
407.96	20032.65
408.15	20285.42
408.34	20369.68
408.54	21165.46
408.73	21383.13
408.92	21261.43
409.11	20444.58
409.30	19358.57
409.49	18408.31
409.68	17252.09
409.87	16711.42
410.07	17727.22
410.26	19330.48
410.45	20432.88
410.64	20746.51
410.83	21350.37
411.02	21785.71
411.21	22724.26
411.40	22532.34
411.59	22567.45
411.78	22427.01
411.98	22148.49
412.17	22581.49
412.36	21804.43
412.55	22462.12
412.74	21626.55
412.93	21209.93
413.12	21362.07
413.31	23543.45
413.50	23344.50
413.69	23866.44
413.88	23496.64
414.07	22171.89
414.26	22703.20
414.45	23723.67
414.64	23700.26
414.83	23796.23
415.02	23398.34
415.22	23073.00
415.41	24137.94
415.60	24580.31
415.79	25692.06
415.98	25795.04
416.17	25956.54
416.36	25270.76
416.55	24823.72
416.74	24283.06
416.93	23403.02
417.12	23234.50
417.31	24299.44
417.50	24112.20
417.69	25177.14
417.88	24917.34
418.07	24636.48
418.26	24465.62
418.45	24486.68
418.64	25113.95
418.83	26127.40
419.02	26113.36
419.21	25937.82
419.39	24528.81
419.58	23243.86
419.77	23608.98
419.96	24149.65
420.15	25795.04
420.34	26677.43
420.53	27332.78
420.72	28046.64
420.91	28056.00
421.10	27136.17
421.29	27065.96
421.48	26113.36
421.67	27704.92
421.86	27108.08
422.05	25242.68
422.24	22937.25
422.43	22295.94
422.61	24367.32
422.80	26553.38
422.99	26518.27
423.18	25656.95
423.37	25238.00
423.56	25184.16
423.75	25832.49
423.94	26291.24
424.13	24889.26
424.32	24758.19
424.50	24870.53
424.69	24840.11
424.88	24882.24
425.07	24584.99
425.26	24926.71
425.45	24556.90
425.64	24147.31
425.83	24095.82
426.01	25348.00
426.20	26199.96
426.39	25717.81
426.58	23896.87
426.77	22045.51
426.96	21633.57
427.15	22452.76
427.33	24236.25
427.52	25078.84
427.71	25488.43
427.90	24739.46
428.09	24875.21
428.28	23971.77
428.46	23339.82
428.65	22977.04
428.84	23627.71
429.03	23655.79
429.22	22436.38
429.40	21673.36
429.59	20009.24
429.78	17053.14
429.97	17467.42
430.16	17926.16
430.34	17645.30
430.53	17390.18
430.72	18038.51
430.91	19962.43
431.10	23136.20
431.28	27264.90
431.47	29631.18
431.66	30202.27
431.85	27594.92
432.03	25345.66
432.22	24088.79
432.41	25095.22
432.60	27915.57
432.79	29123.29
432.97	29642.88
433.16	29118.60
433.35	26586.15
433.54	23632.39
433.72	22082.95
433.91	22834.27
434.10	25710.78
434.28	27330.44
434.47	29046.05
434.66	28692.63
434.85	28147.28
435.03	27651.09
435.22	28418.78
435.41	30012.69
435.59	29820.77
435.78	30188.23
435.97	31152.53
436.16	31655.75
436.34	30817.83
436.53	30656.34
436.72	30438.67
436.90	28540.49
437.09	28587.30
437.28	28158.99
437.46	29127.97
437.65	29240.31
437.84	27777.48
438.02	25179.48
438.21	24577.97
438.40	26232.72
438.58	28339.21
438.77	29132.65
438.96	29701.40
439.14	30567.40
439.33	31445.10
439.52	32039.59
439.70	31246.15
439.89	30450.37
440.08	29488.41
440.26	29476.71
440.45	30202.27
440.63	32549.83
440.82	34726.53
441.01	33486.04
441.19	33319.87
441.38	33773.93
441.57	34876.32
441.75	35632.32
441.94	35842.96
442.12	35473.16
442.31	36474.91
442.50	35576.14
442.68	35716.58
442.87	35152.51
443.05	34691.42
443.24	35304.64
443.43	36020.84
443.61	36636.41
443.80	37296.44
443.98	35316.34
444.17	34679.72
444.35	37551.56
444.54	37490.70
444.73	37015.57
444.91	35791.47
445.10	34199.91
445.28	32924.32
445.47	32762.82
445.65	32699.62
445.84	33436.89
446.02	34656.31
446.21	35098.67
446.39	35426.35
446.58	35339.75
446.77	36491.29
446.95	36444.48
447.14	37867.53
447.32	38319.25
447.51	37308.14
447.69	35660.40
447.88	35557.42
448.06	36334.48
448.25	37043.66
448.43	37174.73
448.62	36055.95
448.80	36320.43
448.99	36641.09
449.17	36652.79
449.36	36961.74
449.54	38064.13
449.73	38785.02
449.91	39150.14
450.10	40273.60
450.28	40769.79
450.46	40460.84
450.65	40217.43
450.83	40128.48
451.02	39796.13
451.20	38972.26
451.39	39086.95
451.57	38623.52
451.76	38951.20
451.94	38675.01
452.13	38611.82
452.31	36006.80
452.49	34277.15
452.68	35510.61
452.86	35138.46
453.05	35688.49
453.23	36493.63
453.42	37427.51
453.60	38754.59
453.78	39014.39
453.97	38588.41
454.15	39079.92
454.34	37647.52
454.52	37310.48
454.70	37249.63
454.89	37539.85
455.07	37645.18
455.26	37804.33
455.44	39283.55
455.62	39725.91
455.81	39941.24
455.99	40215.08
456.17	39571.44
456.36	39309.30
456.54	40989.80
456.73	40849.37
456.91	41361.95
457.09	41504.72
457.28	42136.66
457.46	40783.83
457.64	40596.59
457.83	39510.58
458.01	38274.78
458.19	39290.57
458.38	39353.77
458.56	40423.39
458.74	40828.30
458.93	40486.59
459.11	40189.34
459.29	39732.93
459.48	39775.06
459.66	39669.74
459.84	40318.07
460.03	40737.02
460.21	40598.93
460.39	41860.48
460.57	41682.60
460.76	41776.22
460.94	42340.29
461.12	42005.59
461.31	42141.35
461.49	41687.28
461.67	41743.45
461.85	43026.07
462.04	42628.18
462.22	42834.14
462.40	42597.75
462.59	42185.82
462.77	42876.27
462.95	42621.16
463.13	41989.21
463.32	41834.74
463.50	41921.34
463.68	41493.02
463.86	41443.87
464.05	40767.45
464.23	40495.95
464.41	39978.69
464.59	39562.08
464.78	41460.25
464.96	41158.32
465.14	40634.04
465.32	41649.83
465.50	42848.19
465.69	43215.65
465.87	42150.71
466.05	41312.80
466.23	39407.60
466.41	38443.30
466.60	39999.76
466.78	40030.18
466.96	40542.76
467.14	40996.82
467.32	41542.17
467.51	41359.61
467.69	39798.47
467.87	40547.44
468.05	41457.91
468.23	41577.28
468.41	41177.04
468.60	41359.61
468.78	41684.94
468.96	40870.43
469.14	42120.28
469.32	42045.38
469.50	40526.38
469.69	41090.44
469.87	40301.68
470.05	40458.50
470.23	40289.98
470.41	40697.24
470.59	40655.11
470.77	40952.35
470.95	41741.11
471.14	42370.72
471.32	42286.46
471.50	44374.22
471.68	44535.71
471.86	44596.57
472.04	45162.98
472.22	44952.33
472.40	43115.01
472.58	42911.38
472.77	42466.68
472.95	43044.79
473.13	44095.69
473.31	42941.81
473.49	43491.83
473.67	43821.85
473.85	44596.57
474.03	45212.13
474.21	45429.80
474.39	46298.14
474.57	45883.86
474.75	46000.89
474.93	45666.19
475.12	44832.96
475.30	44994.46
475.48	44882.11
475.66	45813.65
475.84	45216.81
476.02	44842.32
476.20	44205.70
476.38	45031.91
476.56	46581.34
476.74	46906.68
476.92	46967.53
477.10	47470.75
477.28	48758.04
477.46	48519.31
477.64	49385.30
477.82	48994.43
478.00	49177.00
478.18	48849.32
478.36	48797.83
478.54	48381.21
478.72	49013.16
478.90	49602.97
479.08	50731.11
479.26	51103.26
479.44	51124.32
479.62	50857.50
479.80	51063.47
479.98	51178.15
480.16	51119.64
480.34	50590.68
480.52	51370.08
480.70	51356.03
480.88	51330.29
481.06	52114.37
481.24	52158.84
481.41	53275.27
481.59	53289.32
481.77	53272.93
481.95	52619.92
482.13	52484.17
482.31	52711.20
482.49	53420.39
482.67	52996.75
482.85	53404.00
483.03	53844.02
483.21	54080.42
483.39	54019.56
483.57	53183.99
483.74	53151.23
483.92	53511.67
484.10	53586.57
484.28	54461.93
484.46	54721.72
484.64	54717.04
484.82	54485.33
485.00	53860.41
485.18	53373.58
485.35	52243.10
485.53	49607.65
485.71	46071.10
485.89	45579.59
486.07	47089.24
486.25	50632.81
486.43	52325.02
486.61	53165.27
486.78	53127.82
486.96	53392.30
487.14	54468.95
487.32	54887.90
487.50	55742.20
487.68	56598.83
487.85	57034.17
488.03	56954.60
488.21	56699.48
488.39	56034.77
488.57	55554.96
488.75	55243.66
488.92	56072.21
489.10	57902.51
489.28	58922.99
489.46	59377.05
489.64	59222.58
489.81	59641.53
489.99	59234.28
490.17	59126.61
490.35	59583.02
490.53	59313.86
490.70	58862.13
490.88	58770.85
491.06	59545.57
491.24	59475.35
491.41	58642.12
491.59	57457.81
491.77	56552.02
491.95	57567.82
492.13	58564.88
492.30	59512.80
492.48	60439.65
492.66	60594.13
492.84	60664.35
493.01	60456.04
493.19	59964.52
493.37	59686.00
493.54	59725.79
493.72	60144.75
493.90	60762.65
494.08	61619.28
494.25	61712.91
494.43	61855.68
494.61	62181.01
494.79	62307.40
494.96	62003.13
495.14	61565.45
495.32	60814.14
495.49	60257.09
495.67	61212.03
495.85	62356.55
496.02	62714.65
496.20	62555.50
496.38	61972.70
496.55	61993.77
496.73	62436.13
496.91	62426.77
497.09	63194.46
497.26	63135.95
497.44	62616.35
497.62	62337.83
497.79	61820.57
497.97	60540.30
498.14	60584.77
498.32	61574.81
498.50	62361.23
498.67	63028.29
498.85	62885.51
499.03	62932.32
499.20	63213.19
499.38	63257.66
499.56	62988.50
499.73	62555.50
499.91	62337.83
500.08	61872.06
500.26	61385.23
500.44	61745.67
500.61	62169.31
500.79	62269.95
500.97	61815.89
501.14	61530.34
501.32	61528.00
501.49	61530.34
501.67	61696.52
501.84	62209.10
502.02	62363.57
502.20	62841.04
502.37	62838.70
502.55	62908.92
502.72	63309.15
502.90	63744.49
503.07	63367.66
503.25	63039.99
503.43	62422.09
503.60	61694.18
503.78	61268.20
503.95	61453.11
504.13	62979.14
504.30	63721.08
504.48	63419.16
504.65	63192.12
504.83	63126.59
505.01	63695.34
505.18	63971.52
505.36	64654.96
505.53	64502.82
505.71	64678.36
505.88	64739.22
506.06	64140.04
506.23	63934.07
506.41	63487.03
506.58	63693.00
506.76	63758.53
506.93	63753.85
507.11	63545.54
507.28	63594.70
507.46	63341.92
507.63	62759.12
507.81	62555.50
507.98	62812.96
508.16	63348.94
508.33	63917.69
508.50	64252.39
508.68	64427.93
508.85	64786.03
509.03	64771.99
509.20	64814.12
509.38	64151.74
509.55	63470.65
509.73	63470.65
509.90	64018.33
510.08	64163.45
510.25	63985.57
510.42	63962.16
510.60	63784.28
510.77	64224.30
510.95	64502.82
511.12	64718.15
511.30	65029.44
511.47	65226.05
511.64	65216.69
511.82	64874.97
511.99	64189.19
512.17	63943.44
512.34	63575.97
512.51	63709.38
512.69	63758.53
512.86	63917.69
513.04	64280.47
513.21	64175.15
513.38	63955.14
513.56	63400.43
513.73	62988.50
513.90	63227.23
514.08	63299.79
514.25	63582.99
514.43	63683.64
514.60	63643.85
514.77	63859.18
514.95	64123.66
515.12	63905.99
515.29	64086.21
515.47	64568.36
515.64	64690.07
515.81	64399.84
515.99	63842.79
516.16	62457.20
516.33	60896.06
516.51	59423.86
516.68	58805.96
516.85	58548.50
517.03	58665.53
517.20	61017.77
517.37	62990.84
517.54	64004.29
517.72	63606.40
517.89	61572.47
518.06	59440.24
518.24	59653.23
518.41	61642.69
518.58	62691.25
518.75	63002.54
518.93	63025.95
519.10	62927.64
519.27	63341.92
519.45	63524.48
519.62	64301.54
519.79	64516.87
519.96	64374.09
520.14	63903.65
520.31	63316.17
520.48	63044.67
520.65	63426.18
520.83	64425.59
521.00	64678.36
521.17	64224.30
521.34	63905.99
521.52	64062.80
521.69	64835.18
521.86	65041.15
522.03	64928.80
522.20	63905.99
522.38	62873.81
522.55	63004.88
522.72	63475.33
522.89	63501.07
523.07	63831.09
523.24	64219.62
523.41	64832.84
523.58	64989.66
523.75	65410.95
523.92	65256.48
524.10	65214.35
524.27	65256.48
524.44	65111.36
524.61	64816.46
524.78	64678.36
524.96	64624.53
525.13	64788.37
525.30	64863.27
525.47	65401.59
525.64	65202.64
525.81	64718.15
525.98	63372.34
526.16	62176.33
526.33	61441.40
526.50	61169.90
526.67	60987.34
526.84	61670.78
527.01	62316.76
527.18	63023.61
527.36	63683.64
527.53	64521.55
527.70	64823.48
527.87	64439.63
528.04	63934.07
528.21	64381.12
528.38	64914.76
528.55	65499.89
528.72	65535.00
528.89	65535.00
529.07	65535.00
529.24	65106.68
529.41	64418.56
529.58	63898.97
529.75	63856.84
529.92	64343.67
530.09	64830.50
530.26	65197.96
530.43	65352.44
530.60	65535.00
530.77	65535.00
530.94	65535.00
531.11	65310.31
531.28	64940.50
531.46	64725.17
531.63	65052.85
531.80	64975.61
531.97	64580.06
532.14	63976.20
532.31	62979.14
532.48	62358.89
532.65	62522.73
532.82	63056.37
532.99	64179.83
533.16	64444.31
533.33	64910.08
533.50	64734.54
533.67	64203.24
533.84	63742.15
534.01	63973.86
534.18	64065.14
534.35	64406.86
534.52	64257.07
534.69	64467.72
534.86	64680.70
535.03	64865.61
535.20	65392.23
535.37	65535.00
535.54	65535.00
535.71	65331.37
535.88	65221.37
536.05	64521.55
536.22	64343.67
536.38	63894.28
536.55	63423.84
536.72	63149.99
536.89	63030.63
537.06	63917.69
537.23	64434.95
537.40	64715.81
537.57	64690.07
537.74	64437.29
537.91	64357.71
538.08	64322.60
538.25	64371.75
538.42	64512.19
538.59	64631.55
538.75	63945.78
538.92	63803.00
539.09	63573.63
539.26	63547.89
539.43	63215.53
539.60	63217.87
539.77	63664.91
539.94	63419.16
540.11	62944.03
540.28	62274.63
540.44	62604.65
540.61	62721.68
540.78	62801.25
540.95	63327.87
541.12	63557.25
541.29	63812.37
541.46	63955.14
541.62	64023.01
541.79	63969.18
541.96	63552.57
542.13	63311.49
542.30	63568.95
542.47	63805.34
542.63	63793.64
542.80	63444.90
542.97	63437.88
543.14	63416.82
543.31	63370.00
543.48	63943.44
543.64	64514.53
543.81	64924.12
543.98	64699.43
544.15	64250.05
544.32	63379.37
544.48	63632.14
544.65	63927.05
544.82	64343.67
544.99	64060.46
545.16	63678.96
545.32	63372.34
545.49	64163.45
545.66	64484.10
545.83	64069.82
546.00	63917.69
546.16	63458.94
546.33	63634.48
546.50	63639.17
546.67	63955.14
546.83	63671.93
547.00	63693.00
547.17	63117.23
547.34	62475.92
547.50	62518.05
547.67	62925.30
547.84	63119.57
548.00	63344.26
548.17	63817.05
548.34	63487.03
548.51	63772.58
548.67	63660.23
548.84	63905.99
549.01	63592.36
549.18	63585.33
549.34	63657.89
549.51	63440.22
549.68	63522.14
549.84	63231.91
550.01	63110.20
550.18	63021.26
550.34	63096.16
550.51	63072.76
550.68	63348.94
550.84	62803.59
551.01	63002.54
551.18	62834.02
551.34	63011.90
551.51	63421.50
551.68	63611.08
551.84	63716.40
552.01	63449.58
552.18	63437.88
552.34	62588.27
552.51	62553.16
552.68	62124.84
552.84	62691.25
553.01	62899.56
553.18	62962.75
553.34	62913.60
553.51	63054.03
553.67	63208.51
553.84	63550.23
554.01	63316.17
554.17	63121.91
554.34	63164.04
554.51	63306.81
554.67	63557.25
554.84	63313.83
555.00	63206.17
555.17	62876.15
555.33	62819.98
555.50	63072.76
555.67	62944.03
555.83	62892.54
556.00	62588.27
556.16	62452.51
556.33	62152.93
556.50	62012.49
556.66	62021.86
556.83	61724.61
556.99	62078.03
557.16	62073.35
557.32	62312.08
557.49	62525.07
557.65	62344.85
557.82	62468.90
557.98	62314.42
558.15	62017.17
558.32	61289.27
558.48	60495.83
558.65	60874.99
558.81	61027.13
558.98	61361.82
559.14	61427.36
559.31	61476.51
559.47	61291.61
559.64	61286.93
559.80	60860.95
559.97	60788.39
560.13	61268.20
560.30	61949.30
560.46	62487.62
560.63	62665.50
560.79	62709.97
560.96	62464.22
561.12	61546.73
561.29	60666.69
561.45	60654.98
561.61	61153.52
561.78	61427.36
561.94	61467.15
562.11	61347.78
562.27	61373.53
562.44	61544.39
562.60	61698.86
562.77	62063.99
562.93	61886.10
563.10	61755.03
563.26	61200.33
563.42	61464.81
563.59	61223.73
563.75	61139.47
563.92	61296.29
564.08	61174.58
564.24	61450.77
564.41	61497.58
564.57	61366.51
564.74	61298.63
564.90	61254.16
565.07	61188.63
565.23	60617.53
565.39	60441.99
565.56	60238.37
565.72	59718.77
565.88	60236.03
566.05	60219.64
566.21	60619.88
566.38	60449.02
566.54	60823.50
566.70	61057.56
566.87	61139.47
567.03	61118.41
567.19	61422.68
567.36	61015.43
567.52	61090.32
567.68	60743.92
567.85	60261.77
568.01	60006.65
568.17	59503.44
568.34	59671.96
568.50	59419.18
568.66	59578.34
568.83	59934.10
568.99	60133.04
569.15	60170.49
569.32	60357.74
569.48	60100.28
569.64	59859.20
569.81	59805.37
569.97	59489.40
570.13	59557.27
570.30	59189.81
570.46	58773.19
570.62	58314.45
570.78	58300.40
570.95	58417.43
571.11	59262.36
571.27	59262.36
571.43	59426.20
571.60	59849.84
571.76	59718.77
571.92	60102.62
572.09	60126.02
572.25	60044.10
572.41	59950.48
572.57	60004.31
572.74	60009.00
572.90	59634.51
573.06	59746.86
573.22	59793.67
573.38	59681.32
573.55	59772.60
573.71	59779.62
573.87	59606.42
574.03	59547.91
574.20	59604.08
574.36	59430.88
574.52	59309.18
574.68	58894.90
574.84	58815.32
575.01	58314.45
575.17	58103.80
575.33	58625.74
575.49	58688.93
575.65	58934.69
575.82	58632.76
575.98	58447.86
576.14	58639.78
576.30	58850.43
576.46	59194.49
576.62	58986.18
576.79	58908.94
576.95	58656.17
577.11	58539.14
577.27	58794.26
577.43	58815.32
577.59	58300.40
577.75	58056.99
577.92	57492.92
578.08	57282.27
578.24	57504.62
578.40	57902.51
578.56	57748.04
578.72	57932.94
578.88	58211.46
579.04	58225.51
579.21	58515.73
579.37	58246.57
579.53	58382.32
579.69	58326.15
579.85	58712.34
580.01	58391.68
580.17	58049.97
580.33	58082.73
580.49	57883.79
580.65	58148.27
580.82	58248.91
580.98	58225.51
581.14	58349.56
581.30	58379.98
581.46	58171.67
581.62	58403.39
581.78	58328.49
581.94	58445.52
582.10	58466.58
582.26	58396.37
582.42	58251.25
582.58	58520.41
582.74	58461.90
582.90	58599.99
583.06	58344.87
583.22	58555.52
583.38	58319.13
583.54	58431.47
583.70	58274.66
583.86	58096.78
584.02	58204.44
584.18	58272.32
584.34	58101.46
584.50	57982.09
584.66	57930.60
584.82	57570.16
584.98	57453.13
585.14	57347.81
