SpectraSuite Data File
++++++++++++++++++++++++++++++++++++
Date: Mon Oct 07 14:53:29 GMT-05:00 2013
User: price-jones
Dark Spectrum Present: No
Reference Spectrum Present: No
Number of Sampled Component Spectra: 1
Spectrometers: USB2+H05261
Integration Time (usec): 100000 (USB2+H05261)
Spectra Averaged: 1 (USB2+H05261)
Boxcar Smoothing: 0 (USB2+H05261)
Correct for Electrical Dark: No (USB2+H05261)
Strobe/Lamp Enabled: No (USB2+H05261)
Correct for Detector Non-linearity: No (USB2+H05261)
Correct for Stray Light: No (USB2+H05261)
Number of Pixels in Processed Spectrum: 2048
>>>>>Begin Processed Spectral Data<<<<<
365.73	0.00
365.92	0.00
366.12	0.00
366.32	0.00
366.52	0.00
366.72	0.00
366.91	0.00
367.11	0.00
367.31	0.00
367.51	0.00
367.70	0.00
367.90	0.00
368.10	0.00
368.30	0.00
368.49	0.00
368.69	0.00
368.89	0.00
369.09	0.00
369.28	0.00
369.48	0.00
369.68	0.00
369.87	0.00
370.07	0.00
370.27	0.00
370.47	578.11
370.66	3061.42
370.86	3686.34
371.06	4182.54
371.25	4044.45
371.45	3681.66
371.65	3480.38
371.84	2998.23
372.04	3204.19
372.24	3576.34
372.44	3749.54
372.63	3831.46
372.83	3548.25
373.03	3066.10
373.22	2768.85
373.42	3028.65
373.62	3363.35
373.81	3667.62
374.01	3564.64
374.21	3337.60
374.40	3236.96
374.60	3279.09
374.79	3684.00
374.99	4138.07
375.19	4753.63
375.38	4685.75
375.58	4348.72
375.78	4362.76
375.97	4262.12
376.17	4519.57
376.37	4458.72
376.56	4702.14
376.76	4802.78
376.95	5128.11
377.15	5561.11
377.35	5633.67
377.54	5956.66
377.74	6291.36
377.93	6370.94
378.13	5982.41
378.33	5827.93
378.52	5284.93
378.72	5114.07
378.91	4964.28
379.11	4809.80
379.31	4723.20
379.50	4585.11
379.70	5013.43
379.89	5479.19
380.09	5792.83
380.28	6085.39
380.48	5951.98
380.68	6033.90
380.87	5949.64
381.07	5521.32
381.26	4917.47
381.46	4664.69
381.65	4571.07
381.85	4404.89
382.04	4182.54
382.24	3866.56
382.43	3740.18
382.63	3499.10
382.83	3744.86
383.02	3733.15
383.22	3581.02
383.41	3606.77
383.61	3885.29
383.80	4575.75
384.00	5130.45
384.19	5802.19
384.39	6040.92
384.58	5888.79
384.78	5813.89
384.97	5914.53
385.17	5593.88
385.36	5324.72
385.56	4971.30
385.75	5130.45
385.95	5521.32
386.14	6024.54
386.34	6106.46
386.53	6026.88
386.72	5636.01
386.92	5593.88
387.11	5769.42
387.31	6076.03
387.50	6150.93
387.70	6057.31
387.89	5858.36
388.09	5837.30
388.28	5951.98
388.48	5942.62
388.67	6366.26
388.86	6930.33
389.06	7637.17
389.25	7798.66
389.45	8053.78
389.64	8051.44
389.84	7960.16
390.03	7962.50
390.22	7789.30
390.42	7974.21
390.61	8678.71
390.81	9179.58
391.00	9294.27
391.19	9298.95
391.39	9015.74
391.58	8365.07
391.78	7864.20
391.97	7559.93
392.16	7129.27
392.36	6534.78
392.55	5362.17
392.75	4320.63
392.94	3555.27
393.13	3396.12
393.33	3878.27
393.52	5076.62
393.71	6200.08
393.91	6960.75
394.10	7674.62
394.29	8461.04
394.49	9050.85
394.68	9734.29
394.88	9598.54
395.07	10015.15
395.26	10052.60
395.46	9650.03
395.65	9327.03
395.84	8180.17
396.04	7000.54
396.23	5652.39
396.42	4554.68
396.62	4498.51
396.81	5198.33
397.00	6572.22
397.19	8360.39
397.39	9661.73
397.58	10995.84
397.77	11676.93
397.97	12320.58
398.16	12409.52
398.35	12769.96
398.55	12982.95
398.74	13511.91
398.93	13855.97
399.12	13858.31
399.32	13132.75
399.51	13738.94
399.70	14401.32
399.90	14375.57
400.09	14106.41
400.28	13944.91
400.47	14342.80
400.67	14986.45
400.86	15220.50
401.05	15236.89
401.24	15552.86
401.44	15850.11
401.63	15587.97
401.82	15953.09
402.01	15953.09
402.21	16072.46
402.40	16051.39
402.59	15358.60
402.78	14867.08
402.97	14246.84
403.17	15059.01
403.36	15920.32
403.55	16725.47
403.74	16781.64
403.93	16114.59
404.13	14869.42
404.32	14354.51
404.51	14831.97
404.70	16350.98
404.89	16187.14
405.09	16046.71
405.28	15262.63
405.47	15594.99
405.66	15646.48
405.85	14927.94
406.05	14848.36
406.24	14820.27
406.43	15576.27
406.62	16168.42
406.81	16393.11
407.00	15676.91
407.20	15555.20
407.39	15332.85
407.58	16051.39
407.77	16776.96
407.96	17287.20
408.15	17453.37
408.34	17621.89
408.54	18235.11
408.73	18036.17
408.92	18361.50
409.11	17764.67
409.30	16641.21
409.49	15632.44
409.68	14714.95
409.87	14284.29
410.07	15040.28
410.26	16336.94
410.45	17722.54
410.64	18038.51
410.83	18412.99
411.02	18867.06
411.21	19777.53
411.40	19424.11
411.59	19662.84
411.78	19283.67
411.98	19417.08
412.17	19660.50
412.36	18897.49
412.55	19154.94
412.74	18927.91
412.93	18267.88
413.12	18553.43
413.31	19866.47
413.50	20201.16
413.69	20526.50
413.88	20208.19
414.07	19491.98
414.26	19531.77
414.45	20702.04
414.64	20573.31
414.83	20788.64
415.02	19807.95
415.22	20166.06
415.41	20608.42
415.60	21158.44
415.79	21970.61
415.98	22483.19
416.17	22497.23
416.36	21687.40
416.55	21591.44
416.74	21032.05
416.93	20168.40
417.12	20144.99
417.31	20224.57
417.50	20776.94
417.69	21834.86
417.88	21317.60
418.07	21163.12
418.26	20837.79
418.45	21032.05
418.64	21816.13
418.83	22665.75
419.02	22558.08
419.21	22127.42
419.39	21118.65
419.58	20107.54
419.77	20442.24
419.96	21352.71
420.15	22501.91
420.34	23138.54
420.53	24067.73
420.72	24596.69
420.91	23751.76
421.10	23672.18
421.29	23618.35
421.48	22588.51
421.67	24023.26
421.86	22958.31
422.05	21675.70
422.24	19374.95
422.43	18754.71
422.61	21158.44
422.80	22974.70
422.99	23285.99
423.18	22391.91
423.37	21507.18
423.56	21764.64
423.75	22347.44
423.94	22658.73
424.13	21525.91
424.32	21326.96
424.50	21521.23
424.69	21282.49
424.88	21425.26
425.07	21315.26
425.26	21795.07
425.45	21397.18
425.64	20954.82
425.83	21092.91
426.01	22099.34
426.20	22532.34
426.39	22417.65
426.58	20793.32
426.77	19321.12
426.96	18501.93
427.15	19204.10
427.33	20695.02
427.52	21525.91
427.71	21827.84
427.90	21371.43
428.09	21252.06
428.28	20978.22
428.46	20304.15
428.65	19569.22
428.84	20369.68
429.03	20744.17
429.22	19601.99
429.40	18504.28
429.59	16617.80
429.78	14707.93
429.97	14792.19
430.16	15171.35
430.34	15267.31
430.53	15101.14
430.72	15393.70
430.91	17116.34
431.10	20205.84
431.28	23520.04
431.47	25448.64
431.66	26225.70
431.85	23747.08
432.03	21846.56
432.22	20734.81
432.41	21696.77
432.60	23885.17
432.79	24905.64
432.97	25614.82
433.16	25160.76
433.35	22665.75
433.54	20556.93
433.72	18993.45
433.91	19749.44
434.10	22155.51
434.28	23421.74
434.47	24847.13
434.66	24779.25
434.85	23943.68
435.03	23592.60
435.22	24482.00
435.41	26195.28
435.59	25647.59
435.78	26106.34
435.97	27049.57
436.16	27110.43
436.34	26953.61
436.53	26150.81
436.72	26249.11
436.90	25287.15
437.09	24723.08
437.28	24315.83
437.46	25362.04
437.65	25249.70
437.84	23396.00
438.02	21586.76
438.21	21219.30
438.40	22572.13
438.58	24451.58
438.77	25266.08
438.96	25420.56
439.14	26593.17
439.33	26991.06
439.52	27522.36
439.70	26845.94
439.89	26225.70
440.08	25832.49
440.26	25373.75
440.45	26073.57
440.63	28084.09
440.82	30052.48
441.01	29310.53
441.19	28737.10
441.38	29198.18
441.57	30426.96
441.75	31040.18
441.94	30946.56
442.12	30529.95
442.31	31175.94
442.50	30850.60
442.68	30487.82
442.87	30401.22
443.05	29949.50
443.24	30361.43
443.43	31005.08
443.61	31857.03
443.80	32102.79
443.98	30707.83
444.17	30101.63
444.35	32013.85
444.54	32617.71
444.73	32006.83
444.91	30937.20
445.10	29425.22
445.28	28451.55
445.47	28121.54
445.65	28437.51
445.84	29184.14
446.02	30043.12
446.21	30684.42
446.39	30675.06
446.58	30948.90
446.77	31524.68
446.95	32170.66
447.14	32624.73
447.32	33062.41
447.51	32322.80
447.69	30614.21
447.88	30719.53
448.06	30862.30
448.25	32046.62
448.43	32315.78
448.62	31409.99
448.80	31456.80
448.99	31426.37
449.17	32091.09
449.36	31922.57
449.54	32746.44
449.73	33516.47
449.91	33535.20
450.10	34499.50
450.28	35070.59
450.46	35068.25
450.65	35260.17
450.83	35023.78
451.02	33727.12
451.20	33787.97
451.39	34045.43
451.57	34012.66
451.76	33710.74
451.94	33514.13
452.13	32952.40
452.31	31321.05
452.49	29972.90
452.68	30457.39
452.86	30445.69
453.05	31143.17
453.23	31534.04
453.42	32517.06
453.60	32872.82
453.78	33680.31
453.97	33067.09
454.15	33235.61
454.34	32058.32
454.52	32526.42
454.70	32034.91
454.89	32500.68
455.07	32624.73
455.26	33366.68
455.44	34085.22
455.62	34735.89
455.81	35161.87
455.99	34677.38
456.17	34185.86
456.36	34323.96
456.54	35274.21
456.73	35622.95
456.91	36229.15
457.09	35660.40
457.28	36996.85
457.46	34850.58
457.64	34920.79
457.83	33790.31
458.01	33230.93
458.19	33996.28
458.38	34366.09
458.56	35550.40
458.74	35510.61
458.93	34586.10
459.11	34550.99
459.29	34349.70
459.48	34728.87
459.66	34370.77
459.84	35072.93
460.03	35407.62
460.21	35023.78
460.39	36465.55
460.57	36062.97
460.76	36858.76
460.94	36507.68
461.12	36030.21
461.31	36374.27
461.49	36486.61
461.67	36086.38
461.85	37020.25
462.04	37277.71
462.22	38040.73
462.40	37305.80
462.59	37280.05
462.77	37186.43
462.95	37151.32
463.13	36800.24
463.32	36580.23
463.50	35917.86
463.68	35978.72
463.86	36444.48
464.05	35915.52
464.23	35512.95
464.41	34890.37
464.59	34071.18
464.78	36037.23
464.96	35704.87
465.14	35360.81
465.32	36201.07
465.50	37010.89
465.69	37223.88
465.87	36589.59
466.05	36053.61
466.23	34181.18
466.41	33635.84
466.60	34670.36
466.78	34536.94
466.96	35058.88
467.14	35271.87
467.32	35999.78
467.51	36477.25
467.69	34366.09
467.87	35285.92
468.05	36133.19
468.23	35880.41
468.41	35683.81
468.60	35985.74
468.78	36463.21
468.96	35419.33
469.14	36725.35
469.32	36765.14
469.50	35566.78
469.69	35253.15
469.87	34831.85
470.05	34672.70
470.23	34738.23
470.41	35007.39
470.59	35185.27
470.77	35419.33
470.95	36273.62
471.14	36655.13
471.32	36959.40
471.50	39042.48
471.68	38965.24
471.86	39271.85
472.04	38923.11
472.22	39379.51
472.40	37869.87
472.58	37195.79
472.77	37053.02
472.95	37350.27
473.13	38455.00
473.31	37638.15
473.49	37752.84
473.67	38899.70
473.85	38796.72
474.03	39068.22
474.21	39978.69
474.39	39936.56
474.57	40350.84
474.75	40638.72
474.93	39941.24
475.12	38597.77
475.30	39023.75
475.48	39674.42
475.66	39798.47
475.84	39358.45
476.02	38925.45
476.20	38375.42
476.38	39248.44
476.56	40456.16
476.74	40954.69
476.92	40917.25
477.10	41588.98
477.28	42443.27
477.46	42962.87
477.64	42986.28
477.82	43363.11
478.00	43363.11
478.18	43021.39
478.36	42604.77
478.54	42611.79
478.72	42763.93
478.90	43739.93
479.08	45008.50
479.26	45343.20
479.44	45432.14
479.62	45212.13
479.80	45162.98
479.98	45244.90
480.16	45560.87
480.34	45188.72
480.52	45469.59
480.70	45612.36
480.88	45727.05
481.06	46862.21
481.24	46960.51
481.41	48055.88
481.59	48531.01
481.77	48311.00
481.95	47702.46
482.13	47290.52
482.31	47498.83
482.49	47665.01
482.67	48013.75
482.85	47955.24
483.03	48825.92
483.21	49357.22
483.39	49230.83
483.57	48254.82
483.74	48329.72
483.92	48458.45
484.10	48678.46
484.28	49698.94
484.46	49914.26
484.64	50115.55
484.82	49481.27
485.00	48907.83
485.18	48037.16
485.35	47082.22
485.53	43903.77
485.71	39791.45
485.89	39379.51
486.07	41750.48
486.25	45104.46
486.43	47084.56
486.61	48004.39
486.78	47665.01
486.96	48193.97
487.14	49867.45
487.32	50703.03
487.50	51306.88
487.68	52215.01
487.85	52648.01
488.03	52708.86
488.21	52500.56
488.39	51714.14
488.57	51150.07
488.75	50550.89
488.92	51653.28
489.10	53324.43
489.28	54822.37
489.46	55519.85
489.64	55337.29
489.81	55435.59
489.99	55325.58
490.17	55313.88
490.35	55611.13
490.53	55065.78
490.70	54953.44
490.88	54649.17
491.06	55482.40
491.24	55515.17
491.41	54508.74
491.59	53219.10
491.77	52334.38
491.95	53284.64
492.13	54365.96
492.30	55798.37
492.48	56437.34
492.66	56973.32
492.84	56959.28
493.01	56626.92
493.19	56158.81
493.37	55868.59
493.54	55632.19
493.72	56184.56
493.90	57041.20
494.08	57766.76
494.25	58103.80
494.43	58260.62
494.61	58511.05
494.79	58887.88
494.96	58459.56
495.14	57942.30
495.32	56882.04
495.49	56193.92
495.67	57607.61
495.85	58560.20
496.02	58941.71
496.20	58815.32
496.38	58501.69
496.55	58356.58
496.73	58834.05
496.91	58997.88
497.09	59531.53
497.26	59664.94
497.44	59269.39
497.62	58564.88
497.79	57956.35
497.97	56952.26
498.14	56966.30
498.32	57944.64
498.50	58791.92
498.67	59367.69
498.85	59276.41
499.03	59238.96
499.20	59540.89
499.38	59723.45
499.56	59419.18
499.73	58925.33
499.91	58534.46
500.08	58340.19
500.26	57525.69
500.44	58014.86
500.61	58663.19
500.79	58424.45
500.97	58197.42
501.14	57979.75
501.32	57972.73
501.49	57769.10
501.67	57965.71
501.84	58412.75
502.02	58756.81
502.20	59222.58
502.37	59138.32
502.55	59096.19
502.72	59657.91
502.90	59978.57
503.07	60025.38
503.25	59480.03
503.43	58670.21
503.60	58094.44
503.78	57513.98
503.95	58033.58
504.13	59355.99
504.30	60018.36
504.48	59826.43
504.65	59540.89
504.83	59587.70
505.01	60041.76
505.18	60308.58
505.36	60994.36
505.53	60830.52
505.71	61197.99
505.88	61359.48
506.06	60498.17
506.23	60456.04
506.41	60097.94
506.58	60324.97
506.76	60217.30
506.93	60046.44
507.11	59882.61
507.28	60177.51
507.46	59632.17
507.63	58969.80
507.81	58850.43
507.98	59145.34
508.16	59693.02
508.33	60339.01
508.50	60594.13
508.68	60907.76
508.85	61378.21
509.03	61415.66
509.20	61118.41
509.38	60502.85
509.55	59936.44
509.73	59931.76
509.90	60301.56
510.08	60535.62
510.25	60451.36
510.42	60540.30
510.60	60243.05
510.77	60568.38
510.95	61132.45
511.12	61357.14
511.30	61549.07
511.47	61673.12
511.64	61478.85
511.82	61406.30
511.99	60697.11
512.17	60191.56
512.34	60114.32
512.51	60055.81
512.69	60177.51
512.86	60236.03
513.04	60509.87
513.21	60683.07
513.38	60437.31
513.56	59854.52
513.73	59313.86
513.90	59463.65
514.08	59568.97
514.25	59971.55
514.43	60107.30
514.60	60282.84
514.77	60231.35
514.95	60456.04
515.12	60331.99
515.29	60650.30
515.47	60818.82
515.64	61111.39
515.81	60830.52
515.99	60186.88
516.16	58937.03
516.33	56835.23
516.51	55393.46
516.68	54735.77
516.85	54387.03
517.03	54791.94
517.20	57272.91
517.37	59611.10
517.54	60449.02
517.72	60130.70
517.89	57726.97
518.06	55288.13
518.24	55725.81
518.41	57790.17
518.58	58981.50
518.75	59192.15
518.93	59470.67
519.10	59372.37
519.27	59681.32
519.45	59957.50
519.62	60486.46
519.79	60945.21
519.96	60729.88
520.14	60205.60
520.31	59646.21
520.48	59608.76
520.65	59833.46
520.83	60757.97
521.00	61080.96
521.17	60800.10
521.34	60467.74
521.52	60657.32
521.69	61090.32
521.86	61619.28
522.03	61303.31
522.20	60397.52
522.38	59260.02
522.55	59138.32
522.72	59657.91
522.89	60095.60
523.07	60259.43
523.24	60355.39
523.41	61317.35
523.58	61485.87
523.75	61827.59
523.92	61591.20
524.10	61752.69
524.27	61750.35
524.44	61483.53
524.61	61338.42
524.78	61336.08
524.96	61179.26
525.13	61188.63
525.30	61401.61
525.47	62049.94
525.64	61731.63
525.81	61031.81
525.98	59643.87
526.16	58485.31
526.33	57771.44
526.50	57546.75
526.67	56999.07
526.84	57631.01
527.01	58564.88
527.18	59320.88
527.36	59997.29
527.53	60968.61
527.70	61249.48
527.87	60781.37
528.04	60257.09
528.21	60781.37
528.38	61429.70
528.55	61893.13
528.72	62124.84
528.89	62305.06
529.07	61921.21
529.24	61544.39
529.41	60779.03
529.58	60369.44
529.75	60411.57
529.92	60835.20
530.09	61017.77
530.26	61595.88
530.43	61970.36
530.60	61853.34
530.77	62035.90
530.94	62438.47
531.11	61858.02
531.28	61357.14
531.46	61183.94
531.63	61495.24
531.80	61277.57
531.97	61132.45
532.14	60289.86
532.31	59416.84
532.48	58614.04
532.65	58642.12
532.82	59636.85
532.99	60774.35
533.16	60877.33
533.33	61385.23
533.50	61090.32
533.67	60767.33
533.84	60275.82
534.01	60512.21
534.18	60556.68
534.35	60842.23
534.52	60570.72
534.69	60821.16
534.86	61230.75
535.03	61263.52
535.20	61825.25
535.37	62181.01
535.54	62248.89
535.71	61951.64
535.88	61726.95
536.05	61010.74
536.22	60573.06
536.38	60404.55
536.55	60051.12
536.72	59454.29
536.89	59344.28
537.06	60327.31
537.23	61104.37
537.40	61095.00
537.57	61373.53
537.74	61066.92
537.91	60844.57
538.08	60725.20
538.25	60912.44
538.42	61221.39
538.59	61020.11
538.75	60411.57
538.92	60191.56
539.09	60034.74
539.26	59814.73
539.43	59664.94
539.60	59625.15
539.77	59927.08
539.94	59779.62
540.11	59051.72
540.28	58695.95
540.44	58777.87
540.61	59075.12
540.78	59065.76
540.95	59578.34
541.12	59781.96
541.29	60072.19
541.46	60388.16
541.62	60598.81
541.79	60268.79
541.96	59828.77
542.13	59749.20
542.30	60147.09
542.47	60168.15
542.63	59924.74
542.80	59772.60
542.97	59746.86
543.14	59763.24
543.31	59845.16
543.48	60186.88
543.64	61038.83
543.81	61382.89
543.98	60977.98
544.15	60540.30
544.32	60004.31
544.48	59847.50
544.65	60324.97
544.82	60945.21
544.99	60432.63
545.16	60081.55
545.32	60090.91
545.49	60533.28
545.66	60994.36
545.83	60481.78
546.00	60207.94
546.16	59901.33
546.33	60081.55
546.50	60102.62
546.67	60669.03
546.83	59936.44
547.00	60046.44
547.17	59627.49
547.34	58763.83
547.50	59037.67
547.67	59435.56
547.84	59304.49
548.00	59753.88
548.17	60109.64
548.34	60013.68
548.51	59842.82
548.67	59739.83
548.84	60182.19
549.01	60198.58
549.18	60044.10
549.34	59964.52
549.51	59774.94
549.68	59924.74
549.84	59770.26
550.01	59451.95
550.18	59344.28
550.34	59365.35
550.51	59407.48
550.68	59648.55
550.84	59161.72
551.01	59370.03
551.18	59220.23
551.34	59470.67
551.51	59948.14
551.68	60161.13
551.84	60030.06
552.01	59889.63
552.18	59779.62
552.34	59271.73
552.51	58934.69
552.68	58745.11
552.84	59121.93
553.01	59269.39
553.18	59105.55
553.34	59187.47
553.51	59522.16
553.67	59765.58
553.84	59819.41
554.01	59828.77
554.17	59367.69
554.34	59599.40
554.51	59770.26
554.67	60083.89
554.84	59803.03
555.00	59543.23
555.17	59267.05
555.33	59215.55
555.50	59320.88
555.67	59465.99
555.83	58979.16
556.00	58932.35
556.16	58812.98
556.33	58333.17
556.50	58454.88
556.66	58468.92
556.83	58056.99
556.99	58527.44
557.16	58436.16
557.32	58726.38
557.49	59032.99
557.65	58763.83
557.82	58728.72
557.98	58787.24
558.15	58176.36
558.32	57474.20
558.48	56739.27
558.65	56676.07
558.81	57265.89
558.98	57378.23
559.14	57759.74
559.31	57640.37
559.47	57642.71
559.64	57469.51
559.80	57088.01
559.97	57279.93
560.13	57385.25
560.30	58459.56
560.46	58862.13
560.63	59126.61
560.79	59089.16
560.96	58958.09
561.12	57558.45
561.29	56900.76
561.45	56900.76
561.61	57462.49
561.78	57785.49
561.94	57836.98
562.11	57703.57
562.27	57502.28
562.44	57879.11
562.60	58335.51
562.77	58309.77
562.93	58099.12
563.10	58087.42
563.26	57621.65
563.42	57633.35
563.59	57251.84
563.75	57396.96
563.92	57523.35
564.08	57572.50
564.24	57748.04
564.41	57659.10
564.57	57806.55
564.74	57488.24
564.90	57511.64
565.07	57198.01
565.23	56900.76
565.39	56360.10
565.56	56404.57
565.72	55927.10
565.88	56236.05
566.05	56537.98
566.21	56865.66
566.38	56973.32
566.54	56912.47
566.70	57158.22
566.87	57380.57
567.03	57455.47
567.19	57495.26
567.36	57378.23
567.52	57240.14
567.68	56994.39
567.85	56285.20
568.01	56170.52
568.17	55660.28
568.34	55737.52
568.50	55470.70
568.66	55852.20
568.83	56175.20
568.99	56392.87
569.15	56465.42
569.32	56353.08
569.48	56245.41
569.64	56065.19
569.81	55735.18
569.97	55753.90
570.13	55473.04
570.30	54726.41
570.46	54660.87
570.62	54227.87
570.78	54443.20
570.95	54295.75
571.11	54965.14
571.27	55351.33
571.43	55543.25
571.60	55711.77
571.76	55969.23
571.92	56032.42
572.09	56399.89
572.25	56245.41
572.41	56121.37
572.57	56144.77
572.74	56205.62
572.90	55590.06
573.06	55833.48
573.22	55863.91
573.38	55697.73
573.55	55821.78
573.71	55924.76
573.87	55679.00
574.03	55536.23
574.20	55693.05
574.36	55463.67
574.52	55316.22
574.68	55105.57
574.84	54782.58
575.01	54136.59
575.17	54040.63
575.33	54349.58
575.49	54728.75
575.65	54904.29
575.82	54422.14
575.98	54382.35
576.14	54777.90
576.30	55065.78
576.46	55042.38
576.62	54932.37
576.79	54710.02
576.95	54436.18
577.11	54550.87
577.27	54595.34
577.43	54873.86
577.59	54440.86
577.75	53963.39
577.92	53233.14
578.08	53247.19
578.24	53097.39
578.40	53394.64
578.56	53722.32
578.72	53701.25
578.88	54302.77
579.04	54274.68
579.21	54220.85
579.37	54174.04
579.53	54614.06
579.69	53968.07
579.85	54152.97
580.01	54234.89
580.17	53961.05
580.33	53558.48
580.49	53914.24
580.65	53827.64
580.82	54255.96
580.98	54349.58
581.14	54295.75
581.30	54099.14
581.46	54227.87
581.62	54223.19
581.78	54387.03
581.94	54461.93
582.10	54401.07
582.26	54501.71
582.42	54445.54
582.58	54593.00
582.74	54337.88
582.90	54691.30
583.06	54298.09
583.22	54351.92
583.38	54234.89
583.54	53944.67
583.70	53944.67
583.86	54209.15
584.02	53928.28
584.18	53886.15
584.34	53963.39
584.50	54007.86
584.66	53822.96
584.82	53254.21
584.98	53563.16
585.14	53022.50
