SpectraSuite Data File
++++++++++++++++++++++++++++++++++++
Date: Mon Oct 07 14:55:01 GMT-05:00 2013
User: price-jones
Dark Spectrum Present: No
Reference Spectrum Present: No
Number of Sampled Component Spectra: 1
Spectrometers: USB2+H05261
Integration Time (usec): 10000 (USB2+H05261)
Spectra Averaged: 1 (USB2+H05261)
Boxcar Smoothing: 0 (USB2+H05261)
Correct for Electrical Dark: No (USB2+H05261)
Strobe/Lamp Enabled: No (USB2+H05261)
Correct for Detector Non-linearity: No (USB2+H05261)
Correct for Stray Light: No (USB2+H05261)
Number of Pixels in Processed Spectrum: 2048
>>>>>Begin Processed Spectral Data<<<<<
365.73	0.00
365.92	0.00
366.12	0.00
366.32	0.00
366.52	0.00
366.72	0.00
366.91	0.00
367.11	0.00
367.31	0.00
367.51	0.00
367.70	0.00
367.90	0.00
368.10	0.00
368.30	0.00
368.49	0.00
368.69	0.00
368.89	0.00
369.09	0.00
369.28	0.00
369.48	0.00
369.68	0.00
369.87	0.00
370.07	0.00
370.27	0.00
370.47	404.91
370.66	2373.30
370.86	2885.88
371.06	3131.64
371.25	2986.52
371.45	2740.77
371.65	2445.86
371.84	2176.70
372.04	2548.84
372.24	2796.94
372.44	2855.45
372.63	2682.25
372.83	2429.48
373.03	2228.19
373.22	2169.68
373.42	2296.07
373.62	2661.19
373.81	2864.82
374.01	2771.19
374.21	2408.41
374.40	2265.64
374.60	2450.54
374.79	2984.18
374.99	3262.71
375.19	3485.06
375.38	3442.93
375.58	3328.24
375.78	3094.19
375.97	3236.96
376.17	3272.07
376.37	3522.51
376.56	3634.85
376.76	3669.96
376.95	4004.66
377.15	4205.94
377.35	4360.42
377.54	4507.87
377.74	4767.67
377.93	4535.96
378.13	4290.20
378.33	4212.96
378.52	3974.23
378.72	3859.54
378.91	3730.81
379.11	3641.87
379.31	3272.07
379.50	3541.23
379.70	3880.61
379.89	4201.26
380.09	4470.42
380.28	4758.31
380.48	4550.00
380.68	4489.15
380.87	4318.29
381.07	3964.87
381.26	3480.38
381.46	3386.76
381.65	3255.69
381.85	3248.66
382.04	2993.55
382.24	2834.39
382.43	2841.41
382.63	2766.51
382.83	2677.57
383.02	2691.62
383.22	2881.20
383.41	2928.01
383.61	3110.57
383.80	3517.83
384.00	3988.27
384.19	4484.47
384.39	4346.37
384.58	4519.57
384.78	4308.93
384.97	4334.67
385.17	4058.49
385.36	3873.59
385.56	3847.84
385.75	4039.76
385.95	4435.32
386.14	4826.18
386.34	4545.32
386.53	4418.93
386.72	4229.35
386.92	4437.66
387.11	4678.73
387.31	4636.60
387.50	4833.21
387.70	4521.92
387.89	4517.23
388.09	4503.19
388.28	4545.32
388.48	4692.77
388.67	5172.58
388.86	5561.11
389.06	6040.92
389.25	6361.58
389.45	6150.93
389.64	6214.12
389.84	6071.35
390.03	5935.60
390.22	6176.67
390.42	6399.02
390.61	6626.06
390.81	7269.70
391.00	7365.67
391.19	7260.34
391.39	6832.02
391.58	6396.68
391.78	6118.16
391.97	5781.12
392.16	5507.28
392.36	4854.27
392.55	3758.90
392.75	3063.76
392.94	2452.88
393.13	2698.64
393.33	3321.22
393.52	4353.40
393.71	4929.17
393.91	5685.16
394.10	6312.42
394.29	6902.24
394.49	7213.53
394.68	7812.71
394.88	7971.86
395.07	7903.99
395.26	7847.82
395.46	7463.97
395.65	6925.65
395.84	5902.83
396.04	5027.47
396.23	3878.27
396.42	3449.95
396.62	3691.02
396.81	4299.56
397.00	5451.11
397.19	6885.86
397.39	8194.22
397.58	8905.74
397.77	9322.35
397.97	9830.25
398.16	9797.48
398.35	10193.03
398.55	10370.91
398.74	10843.70
398.93	10988.82
399.12	10841.36
399.32	10284.31
399.51	10733.70
399.70	11412.45
399.90	11309.47
400.09	11253.30
400.28	11056.69
400.47	11550.54
400.67	11782.26
400.86	12093.55
401.05	12226.96
401.24	12138.02
401.44	12273.77
401.63	12395.48
401.82	12545.27
402.01	12704.43
402.21	12629.53
402.40	12545.27
402.59	12154.40
402.78	11690.98
402.97	11751.83
403.17	12521.87
403.36	12924.44
403.55	13165.51
403.74	13540.00
403.93	12601.44
404.13	11595.01
404.32	11653.53
404.51	12343.99
404.70	12725.49
404.89	12898.69
405.09	12610.81
405.28	12098.23
405.47	12393.14
405.66	12524.21
405.85	11871.20
406.05	11840.77
406.24	12154.40
406.43	12517.18
406.62	12975.93
406.81	13062.53
407.00	12615.49
407.20	12175.47
407.39	12521.87
407.58	13151.47
407.77	13525.96
407.96	13661.71
408.15	14321.74
408.34	14359.19
408.54	14757.08
408.73	14888.15
408.92	14429.40
409.11	13912.14
409.30	13532.98
409.49	12432.93
409.68	11639.48
409.87	11936.73
410.07	12519.53
410.26	13497.87
410.45	14193.01
410.64	14443.45
410.83	14752.40
411.02	15194.76
411.21	15948.41
411.40	15761.17
411.59	16079.48
411.78	15683.93
411.98	15733.08
412.17	15693.29
412.36	15784.57
412.55	15321.15
412.74	15183.06
412.93	14841.34
413.12	15302.42
413.31	17076.55
413.50	16704.40
413.69	16779.30
413.88	15990.54
414.07	15707.34
414.26	16554.61
414.45	16666.95
414.64	16737.17
414.83	16802.71
415.02	16575.67
415.22	16400.13
415.41	16786.32
415.60	17369.12
415.79	18012.76
415.98	18139.15
416.17	18375.55
416.36	17902.76
416.55	17577.42
416.74	16755.90
416.93	16446.94
417.12	16992.29
417.31	16844.84
417.50	17242.73
417.69	17837.22
417.88	17525.93
418.07	17144.42
418.26	17041.44
418.45	17841.90
418.64	18134.47
418.83	18991.11
419.02	18082.98
419.21	18059.57
419.39	17184.21
419.58	16475.03
419.77	16697.38
419.96	17949.57
420.15	18551.09
420.34	19311.76
420.53	19667.52
420.72	20383.73
420.91	19601.99
421.10	19311.76
421.29	19433.47
421.48	18843.65
421.67	19805.61
421.86	18483.21
422.05	17008.67
422.24	15798.62
422.43	16456.31
422.61	18319.37
422.80	19154.94
422.99	18944.30
423.18	18080.64
423.37	17736.58
423.56	18232.77
423.75	18728.97
423.94	18876.42
424.13	18022.12
424.32	17942.55
424.50	17654.66
424.69	18167.24
424.88	18033.83
425.07	18146.17
425.26	17987.02
425.45	17224.00
425.64	17291.88
425.83	17710.83
426.01	18506.62
426.20	18663.43
426.39	18038.51
426.58	17453.37
426.77	15981.18
426.96	15768.19
427.15	16563.97
427.33	17806.80
427.52	18160.22
427.71	18312.35
427.90	17764.67
428.09	17769.35
428.28	17359.75
428.46	16568.65
428.65	16229.27
428.84	17055.48
429.03	17156.13
429.22	16308.85
429.40	15080.07
429.59	13614.90
429.78	12233.98
429.97	12468.03
430.16	12393.14
430.34	12622.51
430.53	12940.82
430.72	13706.18
430.91	15272.00
431.10	17767.01
431.28	20624.80
431.47	22195.30
431.66	21542.29
431.85	19117.50
432.03	17895.74
432.22	17895.74
432.41	18698.54
432.60	20154.35
432.79	21216.96
432.97	21607.83
433.16	20690.34
433.35	18373.21
433.54	16659.93
433.72	16381.41
433.91	17439.33
434.10	19672.20
434.28	20585.01
434.47	21261.43
434.66	20589.69
434.85	19999.88
435.03	20592.03
435.22	20994.61
435.41	21720.17
435.59	22157.85
435.78	22005.72
435.97	23009.81
436.16	22778.09
436.34	22380.20
436.53	22424.67
436.72	22047.85
436.90	21001.63
437.09	20837.79
437.28	20882.26
437.46	21509.52
437.65	20903.32
437.84	19154.94
438.02	18295.97
438.21	18721.95
438.40	19339.85
438.58	20517.14
438.77	21429.94
438.96	21689.74
439.14	22644.68
439.33	23391.31
439.52	23344.50
439.70	22209.34
439.89	21635.91
440.08	21331.64
440.26	21673.36
440.45	22307.65
440.63	24107.52
440.82	25055.43
441.01	24638.82
441.19	24451.58
441.38	25376.09
441.57	26412.95
441.75	25809.09
441.94	26321.66
442.12	26607.21
442.31	26813.18
442.50	26398.90
442.68	26174.21
442.87	25874.62
443.05	26022.08
443.24	26536.99
443.43	26384.86
443.61	26623.59
443.80	27136.17
443.98	26312.30
444.17	25729.51
444.35	27477.89
444.54	27835.99
444.73	27370.22
444.91	25965.90
445.10	24905.64
445.28	24217.52
445.47	23814.95
445.65	24140.29
445.84	25256.72
446.02	25888.67
446.21	26384.86
446.39	26244.43
446.58	26693.81
446.77	27285.97
446.95	27412.35
447.14	28264.31
447.32	28322.82
447.51	27356.18
447.69	26450.39
447.88	26630.62
448.06	27101.06
448.25	27260.22
448.43	27117.45
448.62	27000.42
448.80	26696.15
448.99	26773.39
449.17	27618.32
449.36	28158.99
449.54	28283.03
449.73	28837.74
449.91	28957.11
450.10	29441.60
450.28	30096.95
450.46	30415.26
450.65	30167.16
450.83	29832.47
451.02	29013.28
451.20	29343.30
451.39	29352.66
451.57	29415.85
451.76	29125.63
451.94	28919.66
452.13	27709.60
452.31	26300.60
452.49	25256.72
452.68	26211.66
452.86	26396.56
453.05	26820.20
453.23	28210.48
453.42	28219.84
453.60	29528.20
453.78	28863.49
453.97	28554.54
454.15	28182.39
454.34	27168.94
454.52	27637.05
454.70	27316.39
454.89	28130.90
455.07	28210.48
455.26	28711.35
455.44	29759.91
455.62	30333.34
455.81	29968.22
455.99	29785.66
456.17	29853.53
456.36	30352.07
456.54	30656.34
456.73	30546.33
456.91	30504.20
457.09	31042.53
457.28	31765.75
457.46	29830.13
457.64	29546.92
457.83	29259.04
458.01	28966.47
458.19	29883.96
458.38	30888.05
458.56	31101.04
458.74	30689.10
458.93	29855.87
459.11	29844.17
459.29	29357.34
459.48	29881.62
459.66	30113.33
459.84	30054.82
460.03	30265.47
460.21	30984.01
460.39	31360.84
460.57	31292.96
460.76	31428.71
460.94	31491.91
461.12	31529.36
461.31	31508.29
461.49	31868.73
461.67	31449.78
461.85	32212.79
462.04	31981.08
462.22	32034.91
462.40	31583.19
462.59	31512.97
462.77	31864.05
462.95	31615.96
463.13	31374.88
463.32	31463.82
463.50	30766.34
463.68	30986.35
463.86	31285.94
464.05	30363.77
464.23	30106.31
464.41	30597.82
464.59	30045.46
464.78	31166.57
464.96	31096.36
465.14	30305.26
465.32	31515.31
465.50	32573.24
465.69	32821.33
465.87	31754.05
466.05	30906.77
466.23	29528.20
466.41	29118.60
466.60	29951.84
466.78	30061.84
466.96	30646.97
467.14	31365.52
467.32	31082.31
467.51	31274.24
467.69	30120.35
467.87	30632.93
468.05	31374.88
468.23	31311.69
468.41	31049.55
468.60	31007.42
468.78	31840.65
468.96	31435.74
469.14	31405.31
469.32	32191.73
469.50	30080.56
469.69	30831.88
469.87	30302.92
470.05	30129.72
470.23	30361.43
470.41	30361.43
470.59	30799.11
470.77	30462.07
470.95	32137.90
471.14	32802.61
471.32	32350.88
471.50	33771.59
471.68	33996.28
471.86	34256.08
472.04	33666.27
472.22	34047.77
472.40	32561.53
472.58	32655.15
472.77	32250.24
472.95	32807.29
473.13	33909.68
473.31	32275.99
473.49	32327.48
473.67	33635.84
473.85	33905.00
474.03	35445.07
474.21	35440.39
474.39	35569.12
474.57	35756.36
474.75	35955.31
474.93	35271.87
475.12	34679.72
475.30	34639.93
475.48	34506.52
475.66	34106.29
475.84	33610.09
476.02	33858.19
476.20	34068.84
476.38	34583.76
476.56	35180.59
476.74	36449.16
476.92	36273.62
477.10	36582.57
477.28	37584.32
477.46	37216.86
477.64	37947.11
477.82	38092.22
478.00	38410.53
478.18	37226.22
478.36	36851.73
478.54	37668.58
478.72	38277.12
478.90	39508.24
479.08	41186.41
479.26	40788.52
479.44	40975.76
479.62	39824.22
479.80	41099.81
479.98	40320.41
480.16	40933.63
480.34	40318.07
480.52	41212.15
480.70	41553.87
480.88	41113.85
481.06	41301.09
481.24	41750.48
481.41	42782.65
481.59	44535.71
481.77	42700.73
481.95	42101.56
482.13	42054.75
482.31	43028.41
482.49	43133.73
482.67	42719.46
482.85	42864.57
483.03	43227.35
483.21	44299.32
483.39	43583.12
483.57	42579.03
483.74	43241.40
483.92	44147.18
484.10	43721.21
484.28	43709.50
484.46	43707.16
484.64	45808.96
484.82	44194.00
485.00	43859.30
485.18	43147.78
485.35	40814.26
485.53	36397.67
485.71	34419.92
485.89	34405.88
486.07	36924.29
486.25	40027.84
486.43	42532.22
486.61	42050.06
486.78	42007.94
486.96	43337.36
487.14	45191.06
487.32	45418.10
487.50	46171.75
487.68	47777.36
487.85	48919.54
488.03	47643.94
488.21	47278.82
488.39	47021.36
488.57	45921.31
488.75	45701.30
488.92	47585.43
489.10	49851.07
489.28	50548.55
489.46	51987.98
489.64	51597.11
489.81	51594.77
489.99	50784.94
490.17	50941.76
490.35	51072.83
490.53	50925.38
490.70	50623.45
490.88	50267.69
491.06	51723.50
491.24	52065.22
491.41	50059.38
491.59	48643.35
491.77	48308.66
491.95	50295.77
492.13	51526.89
492.30	51922.44
492.48	52999.09
492.66	53453.15
492.84	53041.22
493.01	52769.72
493.19	52472.47
493.37	51847.55
493.54	52463.11
493.72	53455.50
493.90	53387.62
494.08	53939.99
494.25	54284.04
494.43	54616.40
494.61	55213.24
494.79	55105.57
494.96	55428.57
495.14	55072.81
495.32	53404.00
495.49	53961.05
495.67	54789.60
495.85	55758.58
496.02	56210.31
496.20	55863.91
496.38	55522.19
496.55	55419.20
496.73	56140.09
496.91	56193.92
497.09	55987.95
497.26	56435.00
497.44	55969.23
497.62	55154.72
497.79	54232.55
497.97	53396.98
498.14	54195.10
498.32	55552.62
498.50	55458.99
498.67	55592.40
498.85	56137.75
499.03	56741.61
499.20	57097.37
499.38	55941.14
499.56	55505.80
499.73	55606.45
499.91	54885.56
500.08	54532.14
500.26	53939.99
500.44	54817.69
500.61	55587.72
500.79	54890.24
500.97	55264.73
501.14	54258.30
501.32	53937.65
501.49	53991.48
501.67	54447.88
501.84	54965.14
502.02	55484.74
502.20	56278.18
502.37	56404.57
502.55	56470.11
502.72	56715.86
502.90	57209.71
503.07	56940.55
503.25	55674.32
503.43	54658.53
503.60	54108.50
503.78	54621.08
503.95	54527.46
504.13	55959.87
504.30	56442.02
504.48	56067.53
504.65	56109.66
504.83	56425.64
505.01	57176.95
505.18	57361.85
505.36	57443.77
505.53	57932.94
505.71	57956.35
505.88	58298.06
506.06	57591.22
506.23	57104.39
506.41	56907.79
506.58	57378.23
506.76	57429.72
506.93	56484.15
507.11	56729.90
507.28	56898.42
507.46	56264.14
507.63	56123.71
507.81	55444.95
507.98	56156.47
508.16	57286.95
508.33	57396.96
508.50	57544.41
508.68	57996.13
508.85	58459.56
509.03	58555.52
509.20	57869.75
509.38	56765.01
509.55	56736.93
509.73	56947.57
509.90	57542.07
510.08	57301.00
510.25	57066.94
510.42	56973.32
510.60	57471.85
510.77	57703.57
510.95	57790.17
511.12	58078.05
511.30	58681.91
511.47	58735.74
511.64	58808.30
511.82	58784.90
511.99	57626.33
512.17	57872.09
512.34	56940.55
512.51	57111.41
512.69	57499.94
512.86	57293.97
513.04	57666.12
513.21	56877.36
513.38	56266.48
513.56	56191.58
513.73	55819.44
513.90	56491.17
514.08	56465.42
514.25	56158.81
514.43	57097.37
514.60	57088.01
514.77	57308.02
514.95	57380.57
515.12	57429.72
515.29	57872.09
515.47	58211.46
515.64	58145.93
515.81	57598.24
515.99	56601.18
516.16	54658.53
516.33	52196.29
516.51	52341.40
516.68	50623.45
516.85	50321.52
517.03	52123.73
517.20	54557.89
517.37	56624.58
517.54	57490.58
517.72	56289.88
517.89	53062.29
518.06	51540.94
518.24	52966.32
518.41	55178.13
518.58	55800.71
518.75	55924.76
518.93	56112.00
519.10	55391.12
519.27	56530.96
519.45	57024.81
519.62	57621.65
519.79	57750.38
519.96	57242.48
520.14	56851.61
520.31	55428.57
520.48	56051.15
520.65	56779.06
520.83	57790.17
521.00	57841.66
521.17	57125.46
521.34	57368.87
521.52	57694.21
521.69	57909.53
521.86	58550.84
522.03	58101.46
522.20	56463.08
522.38	55987.95
522.55	56327.33
522.72	57055.24
522.89	56512.23
523.07	57418.02
523.24	57764.42
523.41	58721.70
523.58	59112.57
523.75	59400.46
523.92	58939.37
524.10	58375.30
524.27	58255.93
524.44	58089.76
524.61	57902.51
524.78	58298.06
524.96	58099.12
525.13	58216.14
525.30	58869.15
525.47	58681.91
525.64	58560.20
525.81	57900.17
525.98	55817.10
526.16	54733.43
526.33	54981.52
526.50	54279.36
526.67	54337.88
526.84	54979.18
527.01	55945.83
527.18	56659.69
527.36	57460.15
527.53	58337.85
527.70	57673.14
527.87	56191.58
528.04	57579.52
528.21	58328.49
528.38	58670.21
528.55	59323.22
528.72	59040.01
528.89	58810.64
529.07	58557.86
529.24	57513.98
529.41	56999.07
529.58	57104.39
529.75	57970.39
529.92	58237.21
530.09	57975.07
530.26	58698.30
530.43	59580.68
530.60	58293.38
530.77	58953.41
530.94	59360.67
531.11	58379.98
531.28	58637.44
531.46	58747.45
531.63	58548.50
531.80	57827.62
531.97	57474.20
532.14	57453.13
532.31	55908.38
532.48	55299.84
532.65	55653.26
532.82	56364.78
532.99	57785.49
533.16	58080.39
533.33	58148.27
533.50	58513.39
533.67	58335.51
533.84	57457.81
534.01	57876.77
534.18	58166.99
534.35	57729.31
534.52	56994.39
534.69	57801.87
534.86	58379.98
535.03	58468.92
535.20	58218.49
535.37	59236.62
535.54	59566.63
535.71	59147.68
535.88	59545.57
536.05	58049.97
536.22	57130.14
536.38	57212.06
536.55	56041.79
536.72	55927.10
536.89	56963.96
537.06	56975.66
537.23	57649.74
537.40	57783.15
537.57	57373.55
537.74	57822.93
537.91	57893.15
538.08	57434.41
538.25	57577.18
538.42	58468.92
538.59	57563.14
538.75	56769.69
538.92	56222.01
539.09	56416.27
539.26	56498.19
539.43	56470.11
539.60	56940.55
539.77	57254.18
539.94	56692.46
540.11	56051.15
540.28	55770.28
540.44	55065.78
540.61	55494.10
540.78	56023.06
540.95	56797.78
541.12	56748.63
541.29	57588.88
541.46	57698.89
541.62	57467.17
541.79	56720.54
541.96	55828.80
542.13	56027.74
542.30	56395.21
542.47	56949.92
542.63	56294.56
542.80	56619.90
542.97	55941.14
543.14	55859.23
543.31	55906.04
543.48	57312.70
543.64	57467.17
543.81	58815.32
543.98	58026.56
544.15	56655.01
544.32	57427.38
544.48	56617.56
544.65	56830.55
544.82	57542.07
544.99	55770.28
545.16	55634.53
545.32	56069.87
545.49	56846.93
545.66	56809.48
545.83	56692.46
546.00	57043.54
546.16	56884.38
546.33	56776.72
546.50	56860.97
546.67	57598.24
546.83	56603.52
547.00	57083.33
547.17	55522.19
547.34	54866.84
547.50	55145.36
547.67	56210.31
547.84	57261.21
548.00	57003.75
548.17	56711.18
548.34	56851.61
548.51	56987.36
548.67	57722.29
548.84	57347.81
549.01	57279.93
549.18	56479.47
549.34	56800.12
549.51	56692.46
549.68	56875.02
549.84	56177.54
550.01	56179.88
550.18	55695.39
550.34	55950.51
550.51	56395.21
550.68	56743.95
550.84	56533.30
551.01	55777.31
551.18	55700.07
551.34	55187.49
551.51	56413.93
551.68	56320.31
551.84	56055.83
552.01	56219.67
552.18	55917.74
552.34	55161.75
552.51	55238.98
552.68	54810.67
552.84	54965.14
553.01	55231.96
553.18	56278.18
553.34	56523.94
553.51	56444.36
553.67	56053.49
553.84	55826.46
554.01	56177.54
554.17	55524.53
554.34	56030.08
554.51	56123.71
554.67	55213.24
554.84	55358.35
555.00	55271.75
555.17	55487.08
555.33	55065.78
555.50	54368.30
555.67	55468.36
555.83	55463.67
556.00	55341.97
556.16	54719.38
556.33	54239.57
556.50	55140.68
556.66	55175.79
556.83	54862.16
556.99	54471.29
557.16	54789.60
557.32	54333.20
557.49	54635.13
557.65	54302.77
557.82	54983.86
557.98	55257.71
558.15	54337.88
558.32	53471.88
558.48	52559.07
558.65	53022.50
558.81	53537.41
558.98	54230.21
559.14	54461.93
559.31	54251.28
559.47	53764.45
559.64	53345.49
559.80	53015.47
559.97	53867.43
560.13	54564.91
560.30	55583.04
560.46	56200.94
560.63	56273.50
560.79	56189.24
560.96	55533.89
561.12	54000.84
561.29	53104.41
561.45	53254.21
561.61	55056.42
561.78	54293.41
561.94	54724.07
562.11	54782.58
562.27	54005.52
562.44	54717.04
562.60	54878.54
562.77	54862.16
562.93	53719.98
563.10	53743.38
563.26	54103.82
563.42	54726.41
563.59	53642.74
563.75	53694.23
563.92	53689.55
564.08	53062.29
564.24	54019.56
564.41	53404.00
564.57	54078.08
564.74	53869.77
564.90	53155.91
565.07	53050.58
565.23	52402.25
565.39	52193.95
565.56	52306.29
565.72	52540.35
565.88	51395.82
566.05	53422.73
566.21	54160.00
566.38	53476.56
566.54	53296.34
566.70	53942.33
566.87	53719.98
567.03	52973.34
567.19	54431.50
567.36	54810.67
567.52	53401.66
567.68	52793.12
567.85	51711.80
568.01	52034.79
568.17	52484.17
568.34	53066.97
568.50	52732.27
568.66	52713.55
568.83	52006.70
568.99	51374.76
569.15	51929.47
569.32	52442.04
569.48	51950.53
569.64	51353.69
569.81	51929.47
569.97	51084.53
570.13	50756.86
570.30	50466.63
570.46	49764.47
570.62	48783.79
570.78	49406.37
570.95	50468.97
571.11	49715.32
571.27	49820.64
571.43	50061.72
571.60	49757.45
571.76	51721.16
571.92	51648.60
572.09	51983.30
572.25	52123.73
572.41	52598.86
572.57	52325.02
572.74	52598.86
572.90	53331.45
573.06	52474.81
573.22	52933.56
573.38	52451.41
573.55	54038.29
573.71	52074.58
573.87	52423.32
574.03	52327.36
574.20	51812.44
574.36	51564.34
574.52	50684.30
574.68	50885.59
574.84	49968.10
575.01	49811.28
575.17	50555.57
575.33	50834.10
575.49	51002.61
575.65	49691.91
575.82	50553.23
575.98	50145.98
576.14	51243.69
576.30	51653.28
576.46	50274.71
576.62	50342.58
576.79	49991.50
576.95	50370.67
577.11	50855.16
577.27	50553.23
577.43	50932.40
577.59	49935.33
577.75	48566.12
577.92	48680.80
578.08	49195.72
578.24	49975.12
578.40	49612.34
578.56	49055.29
578.72	48968.69
578.88	49132.53
579.04	49469.56
579.21	48919.54
579.37	49574.89
579.53	49989.16
579.69	49436.80
579.85	49230.83
580.01	49404.03
580.17	48622.29
580.33	50174.06
580.49	50164.70
580.65	47887.36
580.82	49296.36
580.98	50122.57
581.14	50335.56
581.30	49944.69
581.46	49228.49
581.62	49462.54
581.78	50700.68
581.94	50319.18
582.10	50471.31
582.26	50705.37
582.42	50342.58
582.58	48549.73
582.74	48575.48
582.90	49052.95
583.06	49205.08
583.22	49602.97
583.38	49750.43
583.54	49968.10
583.70	50361.31
583.86	49537.44
584.02	49364.24
584.18	49027.20
584.34	48397.60
584.50	48147.16
584.66	48413.98
584.82	48919.54
584.98	48671.44
585.14	48341.42
585.30	48460.79
