SpectraSuite Data File
++++++++++++++++++++++++++++++++++++
Date: Mon Oct 07 14:53:18 GMT-05:00 2013
User: price-jones
Dark Spectrum Present: No
Reference Spectrum Present: No
Number of Sampled Component Spectra: 1
Spectrometers: USB2+H05261
Integration Time (usec): 100000 (USB2+H05261)
Spectra Averaged: 1 (USB2+H05261)
Boxcar Smoothing: 0 (USB2+H05261)
Correct for Electrical Dark: No (USB2+H05261)
Strobe/Lamp Enabled: No (USB2+H05261)
Correct for Detector Non-linearity: No (USB2+H05261)
Correct for Stray Light: No (USB2+H05261)
Number of Pixels in Processed Spectrum: 2048
>>>>>Begin Processed Spectral Data<<<<<
365.73	0.00
365.92	0.00
366.12	0.00
366.32	0.00
366.52	0.00
366.72	0.00
366.91	0.00
367.11	0.00
367.31	0.00
367.51	0.00
367.70	0.00
367.90	0.00
368.10	0.00
368.30	0.00
368.49	0.00
368.69	0.00
368.89	0.00
369.09	0.00
369.28	0.00
369.48	0.00
369.68	0.00
369.87	0.00
370.07	0.00
370.27	0.00
370.47	798.12
370.66	4025.72
370.86	4704.48
371.06	5081.30
371.25	5142.16
371.45	4606.17
371.65	4332.33
371.84	3964.87
372.04	4208.28
372.24	4505.53
372.44	4814.48
372.63	4718.52
372.83	4430.63
373.03	3906.35
373.22	3524.85
373.42	3735.50
373.62	4262.12
373.81	4552.34
374.01	4580.43
374.21	4262.12
374.40	3878.27
374.60	3985.93
374.79	4587.45
374.99	5231.10
375.19	5746.02
375.38	5692.18
375.58	5275.57
375.78	5490.90
375.97	5406.64
376.17	5530.69
376.37	5509.62
376.56	5748.36
376.76	6118.16
376.95	6502.01
377.15	6850.75
377.35	7169.06
377.54	7365.67
377.74	7510.78
377.93	7791.64
378.13	7239.28
378.33	7138.63
378.52	6551.16
378.72	6382.64
378.91	6188.38
379.11	6036.24
379.31	5902.83
379.50	5607.92
379.70	6099.44
379.89	6956.07
380.09	7215.87
380.28	7363.33
380.48	7470.99
380.68	7162.04
380.87	6869.47
381.07	6621.38
381.26	6043.26
381.46	5657.07
381.65	5570.48
381.85	5441.75
382.04	5085.98
382.24	4863.63
382.43	4512.55
382.63	4542.98
382.83	4491.49
383.02	4528.94
383.22	4550.00
383.41	4533.62
383.61	4833.21
383.80	5612.60
384.00	6403.71
384.19	6836.70
384.39	7431.20
384.58	7206.51
384.78	7302.47
384.97	7103.53
385.17	6768.83
385.36	6469.24
385.56	6188.38
385.75	6389.66
385.95	7012.24
386.14	7295.45
386.34	7342.26
386.53	7098.84
386.72	6759.47
386.92	6881.18
387.11	7023.95
387.31	7550.57
387.50	7414.82
387.70	7229.91
387.89	7028.63
388.09	7208.85
388.28	7166.72
388.48	7407.80
388.67	7712.07
388.86	8709.13
389.06	9198.31
389.25	9661.73
389.45	9685.14
389.64	9891.10
389.84	9563.43
390.03	9399.59
390.22	9575.13
390.42	9823.23
390.61	10382.62
390.81	11052.01
391.00	11438.20
391.19	11222.87
391.39	10778.17
391.58	9996.43
391.78	9624.28
391.97	9406.61
392.16	8709.13
392.36	7978.89
392.55	6289.02
392.75	5107.05
392.94	4198.92
393.13	4138.07
393.33	4723.20
393.52	6246.89
393.71	7662.91
393.91	8681.05
394.10	9256.82
394.29	10314.74
394.49	10857.75
394.68	11819.71
394.88	11777.58
395.07	12315.90
395.26	12212.92
395.46	11660.55
395.65	11096.48
395.84	9659.39
396.04	8154.43
396.23	6466.90
396.42	5593.88
396.62	5448.77
396.81	6345.19
397.00	8133.36
397.19	10024.51
397.39	11929.71
397.58	13366.80
397.77	14277.27
397.97	14644.73
398.16	15068.37
398.35	15398.38
398.55	16198.85
398.74	16718.45
398.93	16776.96
399.12	16645.89
399.32	15599.67
399.51	16456.31
399.70	17671.04
399.90	17252.09
400.09	17142.08
400.28	17130.38
400.47	17200.60
400.67	17949.57
400.86	18576.83
401.05	18611.94
401.24	18902.17
401.44	18988.77
401.63	19103.45
401.82	19047.28
402.01	19166.65
402.21	19257.93
402.40	19218.14
402.59	18911.53
402.78	18155.54
402.97	17436.99
403.17	18277.24
403.36	19232.18
403.55	20201.16
403.74	20259.68
403.93	19374.95
404.13	18043.19
404.32	17668.70
404.51	18342.78
404.70	19749.44
404.89	19669.86
405.09	19344.53
405.28	18796.84
405.47	18757.05
405.66	18707.90
405.85	18127.45
406.05	17940.21
406.24	18022.12
406.43	18773.44
406.62	19491.98
406.81	19578.58
407.00	18665.77
407.20	18462.15
407.39	18939.62
407.58	19271.97
407.77	20294.79
407.96	20996.95
408.15	21209.93
408.34	21219.30
408.54	22429.35
408.73	22195.30
408.92	22022.10
409.11	21216.96
409.30	20348.62
409.49	19208.78
409.68	17797.43
409.87	17565.72
410.07	18462.15
410.26	19847.74
410.45	20900.98
410.64	21675.70
410.83	22068.91
411.02	22988.74
411.21	23868.78
411.40	23620.69
411.59	23557.49
411.78	23035.55
411.98	22948.95
412.17	23367.91
412.36	22977.04
412.55	23269.61
412.74	22473.82
412.93	22073.59
413.12	22637.66
413.31	24503.07
413.50	24233.91
413.69	24987.56
413.88	24041.98
414.07	23124.49
414.26	24049.00
414.45	24554.56
414.64	24676.27
414.83	24690.31
415.02	24180.07
415.22	24247.95
415.41	24561.58
415.60	25797.38
415.79	26593.17
415.98	26930.20
416.17	27026.17
416.36	26183.57
416.55	25968.24
416.74	25315.23
416.93	24500.73
417.12	24486.68
417.31	24856.49
417.50	25282.47
417.69	26071.23
417.88	25951.86
418.07	25764.62
418.26	25221.61
418.45	25315.23
418.64	26340.39
418.83	27143.19
419.02	27040.21
419.21	26726.58
419.39	25635.89
419.58	24690.31
419.77	24079.43
419.96	25631.21
420.15	26850.63
420.34	27625.34
420.53	28877.53
420.72	29237.97
420.91	29235.63
421.10	28393.04
421.29	28704.33
421.48	27461.51
421.67	28882.21
421.86	27833.65
422.05	26017.40
422.24	23285.99
422.43	23473.23
422.61	25837.17
422.80	27761.09
422.99	27974.08
423.18	26967.65
423.37	26211.66
423.56	26426.99
423.75	26803.82
423.94	27274.26
424.13	25727.17
424.32	26324.01
424.50	25958.88
424.69	25701.42
424.88	26092.29
425.07	25811.43
425.26	25865.26
425.45	25621.84
425.64	24947.77
425.83	25242.68
426.01	26838.92
426.20	27515.34
426.39	27190.00
426.58	24966.49
426.77	23122.15
426.96	22277.22
427.15	23185.35
427.33	25291.83
427.52	26085.27
427.71	26160.17
427.90	26064.21
428.09	26111.02
428.28	25317.57
428.46	24507.75
428.65	24341.57
428.84	24755.85
429.03	24723.08
429.22	23889.85
429.40	22331.05
429.59	20320.53
429.78	17947.23
429.97	17809.14
430.16	18600.24
430.34	18527.68
430.53	18429.38
430.72	18799.18
430.91	21308.24
431.10	24868.19
431.28	28776.89
431.47	31189.98
431.66	31271.90
431.85	28456.23
432.03	26192.94
432.22	25268.42
432.41	26324.01
432.60	29329.25
432.79	30127.38
432.97	31131.47
433.16	30155.46
433.35	27587.89
433.54	24786.27
433.72	23323.44
433.91	24510.09
434.10	26899.78
434.28	28999.24
434.47	30398.88
434.66	29752.89
434.85	29406.49
435.03	29205.20
435.22	29930.77
435.41	31388.92
435.59	31372.54
435.78	31831.29
435.97	32514.72
436.16	32985.17
436.34	32002.14
436.53	31524.68
436.72	31763.41
436.90	30115.67
437.09	29930.77
437.28	29479.05
437.46	30918.48
437.65	30579.10
437.84	28428.15
438.02	25839.51
438.21	26120.38
438.40	27725.99
438.58	29865.24
438.77	30665.70
438.96	30665.70
439.14	32451.53
439.33	32879.85
439.52	33294.12
439.70	32573.24
439.89	32060.66
440.08	30869.33
440.26	30899.75
440.45	31873.42
440.63	34181.18
440.82	35622.95
441.01	35583.16
441.19	35185.27
441.38	35672.10
441.57	36816.63
441.75	36510.02
441.94	37443.89
442.12	37528.15
442.31	38117.96
442.50	37675.60
442.68	37177.07
442.87	36877.48
443.05	36032.55
443.24	36891.52
443.43	37820.72
443.61	38380.10
443.80	38927.79
443.98	36802.58
444.17	36723.01
444.35	38855.23
444.54	39225.04
444.73	38803.74
444.91	37696.67
445.10	36077.02
445.28	34630.57
445.47	34071.18
445.65	34405.88
445.84	35318.68
446.02	36301.71
446.21	36945.36
446.39	36882.16
446.58	37509.43
446.77	38007.96
446.95	38260.74
447.14	39255.46
447.32	40430.41
447.51	38862.26
447.69	37783.27
447.88	37570.28
448.06	37750.50
448.25	38550.96
448.43	39131.42
448.62	37979.87
448.80	38143.71
448.99	38600.12
449.17	38515.86
449.36	38330.95
449.54	39791.45
449.73	40449.14
449.91	40701.92
450.10	42162.41
450.28	42506.47
450.46	42326.25
450.65	42429.23
450.83	42057.09
451.02	41478.97
451.20	41392.37
451.39	41020.23
451.57	40678.51
451.76	41074.06
451.94	40252.53
452.13	39798.47
452.31	38124.99
452.49	36425.76
452.68	37340.91
452.86	37104.51
453.05	37663.90
453.23	38455.00
453.42	39423.98
453.60	40589.57
453.78	40378.92
453.97	40264.24
454.15	40004.44
454.34	39398.24
454.52	39739.96
454.70	38890.34
454.89	39290.57
455.07	39274.19
455.26	39985.71
455.44	41219.17
455.62	42267.73
455.81	42237.31
455.99	41972.83
456.17	41570.25
456.36	41844.10
456.54	42988.62
456.73	43058.84
456.91	43229.69
457.09	43302.25
457.28	44182.29
457.46	42394.12
457.64	42532.22
457.83	41340.88
458.01	40268.92
458.19	41560.89
458.38	42012.62
458.56	43063.52
458.74	42480.72
458.93	42169.43
459.11	42127.30
459.29	41684.94
459.48	42361.36
459.66	42131.98
459.84	42246.67
460.03	42923.08
460.21	42541.58
460.39	43688.44
460.57	43625.25
460.76	43894.41
460.94	44306.34
461.12	43459.07
461.31	43784.40
461.49	43758.66
461.67	43313.95
461.85	44980.42
462.04	44612.95
462.22	45195.74
462.40	44896.16
462.59	44498.26
462.77	44240.81
462.95	45219.15
463.13	44266.55
463.32	44186.97
463.50	43564.39
463.68	43835.89
463.86	43805.47
464.05	43192.25
464.23	42157.73
464.41	42426.89
464.59	42029.00
464.78	43744.61
464.96	43360.76
465.14	42724.14
465.32	44006.75
465.50	45137.23
465.69	45436.82
465.87	44659.76
466.05	43625.25
466.23	41607.70
466.41	40739.36
466.60	42131.98
466.78	41883.89
466.96	42667.97
467.14	43320.98
467.32	44074.63
467.51	43501.20
467.69	42174.11
467.87	42614.13
468.05	43498.86
468.23	43145.44
468.41	43274.16
468.60	43468.43
468.78	44194.00
468.96	43194.59
469.14	44418.69
469.32	44460.82
469.50	42703.07
469.69	42873.93
469.87	42501.79
470.05	42047.72
470.23	42747.54
470.41	42405.83
470.59	42817.76
470.77	43264.80
470.95	43903.77
471.14	44540.39
471.32	44346.13
471.50	46880.93
471.68	46855.18
471.86	47056.47
472.04	47395.85
472.22	47096.26
472.40	45352.56
472.58	44636.36
472.77	44737.00
472.95	45207.45
473.13	46410.48
473.31	45635.77
473.49	45729.39
473.67	46380.06
473.85	46749.86
474.03	47917.79
474.21	47709.48
474.39	48046.52
474.57	48271.21
474.75	48355.47
474.93	47943.53
475.12	47122.01
475.30	47250.74
475.48	47332.65
475.66	47863.96
475.84	47136.05
476.02	46913.70
476.20	46529.85
476.38	47402.87
476.56	48406.96
476.74	48832.94
476.92	49031.88
477.10	49588.93
477.28	50438.54
477.46	50768.56
477.64	51072.83
477.82	50911.33
478.00	51381.78
478.18	50775.58
478.36	50644.51
478.54	50815.37
478.72	50918.35
478.90	51894.36
479.08	52388.21
479.26	53069.31
479.44	52861.00
479.62	52451.41
479.80	52659.71
479.98	52521.62
480.16	53106.76
480.34	52837.59
480.52	53031.86
480.70	53153.57
480.88	53305.70
481.06	53528.05
481.24	53698.91
481.41	54745.13
481.59	55175.79
481.77	54937.05
481.95	54365.96
482.13	54415.11
482.31	54443.20
482.49	54855.14
482.67	54623.42
482.85	54990.89
483.03	55686.03
483.21	55877.95
483.39	55833.48
483.57	55084.51
483.74	54805.98
483.92	55402.82
484.10	55227.28
484.28	55915.40
484.46	56222.01
484.64	56566.07
484.82	55807.73
485.00	55739.86
485.18	55210.90
485.35	54248.94
485.53	51868.61
485.71	48350.79
485.89	48226.74
486.07	49762.13
486.25	52704.18
486.43	54398.73
486.61	54878.54
486.78	54494.69
486.96	54735.77
487.14	55957.53
487.32	56706.50
487.50	57495.26
487.68	58174.02
487.85	58433.81
488.03	58408.07
488.21	58148.27
488.39	57460.15
488.57	57013.11
488.75	56872.68
488.92	57752.72
489.10	59311.52
489.28	60280.50
489.46	61083.30
489.64	60589.45
489.81	60865.63
489.99	60671.37
490.17	60647.96
490.35	60933.51
490.53	60507.53
490.70	60264.11
490.88	60191.56
491.06	60858.61
491.24	60764.99
491.41	59973.89
491.59	58932.35
491.77	58216.14
491.95	59302.15
492.13	60142.41
492.30	61144.16
492.48	61675.46
492.66	62103.77
492.84	62171.65
493.01	61867.38
493.19	61399.27
493.37	61038.83
493.54	60975.64
493.72	61724.61
493.90	62450.17
494.08	62838.70
494.25	63182.76
494.43	63337.24
494.61	63604.06
494.79	63725.77
494.96	63423.84
495.14	63082.12
495.32	62269.95
495.49	61771.42
495.67	62515.71
495.85	63739.81
496.02	64252.39
496.20	64046.42
496.38	63632.14
496.55	63426.18
496.73	64030.04
496.91	64018.33
497.09	64399.84
497.26	64615.17
497.44	63889.60
497.62	63814.71
497.79	63037.65
497.97	62183.35
498.14	62101.43
498.32	63023.61
498.50	63849.81
498.67	64355.37
498.85	64233.66
499.03	64465.38
499.20	64481.76
499.38	64678.36
499.56	64409.20
499.73	64008.97
499.91	63786.62
500.08	63292.77
500.26	62862.11
500.44	63042.33
500.61	63667.25
500.79	63465.97
500.97	63196.80
501.14	63023.61
501.32	62969.77
501.49	63077.44
501.67	63091.48
501.84	63646.19
502.02	63884.92
502.20	64207.92
502.37	64266.43
502.55	64348.35
502.72	64727.52
502.90	65181.58
503.07	64968.59
503.25	64544.95
503.43	63721.08
503.60	63180.42
503.78	62962.75
503.95	63168.72
504.13	64446.65
504.30	65123.07
504.48	64889.01
504.65	64540.27
504.83	64474.74
505.01	65134.77
505.18	65354.78
505.36	65535.00
505.53	65535.00
505.71	65535.00
505.88	65535.00
506.06	65535.00
506.23	65258.82
506.41	65141.79
506.58	65331.37
506.76	65289.24
506.93	65371.16
507.11	65013.06
507.28	65090.30
507.46	64669.00
507.63	64109.61
507.81	64296.86
507.98	64327.28
508.16	65055.19
508.33	65460.10
508.50	65535.00
508.68	65535.00
508.85	65535.00
509.03	65535.00
509.20	65535.00
509.38	65535.00
509.55	64912.42
509.73	65183.92
509.90	65481.17
510.08	65535.00
510.25	65535.00
510.42	65535.00
510.60	65417.97
510.77	65535.00
510.95	65535.00
511.12	65535.00
511.30	65535.00
511.47	65535.00
511.64	65535.00
511.82	65535.00
511.99	65535.00
512.17	65279.88
512.34	64977.95
512.51	65193.28
512.69	65209.67
512.86	65385.21
513.04	65535.00
513.21	65535.00
513.38	65336.05
513.56	64987.31
513.73	64528.57
513.90	64818.80
514.08	64704.11
514.25	64992.00
514.43	65305.63
514.60	65317.33
514.77	65469.46
514.95	65499.89
515.12	65415.63
515.29	65535.00
515.47	65535.00
515.64	65535.00
515.81	65535.00
515.99	65436.70
516.16	64252.39
516.33	62291.02
516.51	61123.09
516.68	60507.53
516.85	60051.12
517.03	60514.55
517.20	62777.85
517.37	64654.96
517.54	65535.00
517.72	65137.11
517.89	63032.97
518.06	61055.21
518.24	61382.89
518.41	63178.08
518.58	64334.31
518.75	64598.79
518.93	64713.47
519.10	64594.10
519.27	64933.48
519.45	65071.57
519.62	65535.00
519.79	65535.00
519.96	65535.00
520.14	65535.00
520.31	64865.61
520.48	64734.54
520.65	65116.04
520.83	65535.00
521.00	65535.00
521.17	65535.00
521.34	65403.93
521.52	65535.00
521.69	65535.00
521.86	65535.00
522.03	65535.00
522.20	65474.15
522.38	64418.56
522.55	64697.09
522.72	65017.74
522.89	65181.58
523.07	65422.65
523.24	65535.00
523.41	65535.00
523.58	65535.00
523.75	65535.00
523.92	65535.00
524.10	65535.00
524.27	65535.00
524.44	65535.00
524.61	65535.00
524.78	65535.00
524.96	65535.00
525.13	65535.00
525.30	65535.00
525.47	65535.00
525.64	65535.00
525.81	65535.00
525.98	65066.89
526.16	63625.12
526.33	63351.28
526.50	62864.45
526.67	62475.92
526.84	63086.80
527.01	63931.73
527.18	64725.17
527.36	65394.57
527.53	65535.00
527.70	65535.00
527.87	65535.00
528.04	65448.40
528.21	65535.00
528.38	65535.00
528.55	65535.00
528.72	65535.00
528.89	65535.00
529.07	65535.00
529.24	65535.00
529.41	65535.00
529.58	65527.98
529.75	65535.00
529.92	65535.00
530.09	65535.00
530.26	65535.00
530.43	65535.00
530.60	65535.00
530.77	65535.00
530.94	65535.00
531.11	65535.00
531.28	65535.00
531.46	65535.00
531.63	65535.00
531.80	65535.00
531.97	65535.00
532.14	65535.00
532.31	64537.93
532.48	63971.52
532.65	64186.85
532.82	64893.69
532.99	65535.00
533.16	65535.00
533.33	65535.00
533.50	65535.00
533.67	65535.00
533.84	65535.00
534.01	65535.00
534.18	65535.00
534.35	65535.00
534.52	65535.00
534.69	65535.00
534.86	65535.00
535.03	65535.00
535.20	65535.00
535.37	65535.00
535.54	65535.00
535.71	65535.00
535.88	65535.00
536.05	65535.00
536.22	65535.00
536.38	65535.00
536.55	65286.90
536.72	64858.59
536.89	64608.15
537.06	65483.51
537.23	65535.00
537.40	65535.00
537.57	65535.00
537.74	65535.00
537.91	65535.00
538.08	65535.00
538.25	65535.00
538.42	65535.00
538.59	65535.00
538.75	65410.95
538.92	65317.33
539.09	65347.76
539.26	65265.84
539.43	64870.29
539.60	65141.79
539.77	65207.32
539.94	65013.06
540.11	64411.54
540.28	64081.53
540.44	64128.34
540.61	64250.05
540.78	64577.72
540.95	65003.70
541.12	65303.29
541.29	65401.59
541.46	65535.00
541.62	65535.00
541.79	65535.00
541.96	65141.79
542.13	65038.81
542.30	65401.59
542.47	65535.00
542.63	65298.61
542.80	65034.13
542.97	65261.16
543.14	65017.74
543.31	65125.41
543.48	65535.00
543.64	65535.00
543.81	65535.00
543.98	65535.00
544.15	65535.00
544.32	65237.75
544.48	65310.31
544.65	65535.00
544.82	65535.00
544.99	65535.00
545.16	65485.85
545.32	65193.28
545.49	65535.00
545.66	65535.00
545.83	65535.00
546.00	65535.00
546.16	65233.07
546.33	65300.95
546.50	65436.70
546.67	65535.00
546.83	65406.27
547.00	65535.00
547.17	64753.26
547.34	64196.21
547.50	64322.60
547.67	64729.86
547.84	64741.56
548.00	65237.75
548.17	65464.78
548.34	65504.57
548.51	65268.18
548.67	65333.71
548.84	65446.06
549.01	65448.40
549.18	65535.00
549.34	65186.26
549.51	65347.76
549.68	65282.22
549.84	64914.76
550.01	65050.51
550.18	64828.16
550.34	64992.00
550.51	64975.61
550.68	65031.78
550.84	64615.17
551.01	64877.31
551.18	64746.24
551.34	64807.09
551.51	65071.57
551.68	65284.56
551.84	65357.12
552.01	65141.79
552.18	65069.23
552.34	64416.22
552.51	64409.20
552.68	64175.15
552.84	64636.23
553.01	64928.80
553.18	64769.64
553.34	64835.18
553.51	64893.69
553.67	65181.58
553.84	65193.28
554.01	65153.49
554.17	64884.33
554.34	64940.50
554.51	65216.69
554.67	65420.31
554.84	65310.31
555.00	64846.88
555.17	64746.24
555.33	64786.03
555.50	64725.17
555.67	64779.01
555.83	64732.20
556.00	64254.73
556.16	64472.40
556.33	64095.57
556.50	63835.77
556.66	63910.67
556.83	63681.30
556.99	63877.90
557.16	63957.48
557.32	64170.47
557.49	64540.27
557.65	64245.36
557.82	64327.28
557.98	64074.51
558.15	63803.00
558.32	63063.39
558.48	62426.77
558.65	62707.63
558.81	62908.92
558.98	63131.27
559.14	63391.07
559.31	63274.04
559.47	63346.60
559.64	63154.68
559.80	62719.34
559.97	62857.43
560.13	63318.51
560.30	63896.62
560.46	64430.27
560.63	64626.87
560.79	64573.04
560.96	64338.99
561.12	63379.37
561.29	62408.04
561.45	62644.44
561.61	63054.03
561.78	63765.56
561.94	63472.99
562.11	63278.72
562.27	63358.30
562.44	63587.67
562.60	63676.61
562.77	63973.86
562.93	63875.56
563.10	63690.66
563.26	63128.93
563.42	63281.06
563.59	63292.77
563.75	63114.89
563.92	63147.65
564.08	63000.20
564.24	63461.29
564.41	63494.05
564.57	63430.86
564.74	63257.66
564.90	63133.61
565.07	62929.98
565.23	62768.49
565.39	62192.72
565.56	62066.33
565.72	61846.32
565.88	62152.93
566.05	62333.15
566.21	62560.18
566.38	62536.77
566.54	62606.99
566.70	62819.98
566.87	63112.55
567.03	63271.70
567.19	63435.54
567.36	63119.57
567.52	62983.82
567.68	62677.21
567.85	62166.97
568.01	62017.17
568.17	61708.22
568.34	61797.16
568.50	61387.57
568.66	61872.06
568.83	62063.99
568.99	61991.43
569.15	62340.17
569.32	62145.90
569.48	62021.86
569.64	61925.89
569.81	61729.29
569.97	61535.02
570.13	61616.94
570.30	61155.86
570.46	60905.42
570.62	60388.16
570.78	60519.23
570.95	60673.71
571.11	61006.06
571.27	61141.81
571.43	61265.86
571.60	61722.27
571.76	61843.98
571.92	62382.30
572.09	62230.16
572.25	62101.43
572.41	62059.30
572.57	61902.49
572.74	62085.05
572.90	61649.71
573.06	61752.69
573.22	61565.45
573.38	61619.28
573.55	61705.88
573.71	61731.63
573.87	61682.48
574.03	61544.39
574.20	61731.63
574.36	61382.89
574.52	61354.80
574.68	60910.10
574.84	60624.56
575.01	60402.21
575.17	60320.29
575.33	60631.58
575.49	60800.10
575.65	61017.77
575.82	60718.18
575.98	60605.83
576.14	60654.98
576.30	61029.47
576.46	60999.04
576.62	60963.93
576.79	60942.87
576.95	60729.88
577.11	60673.71
577.27	60636.26
577.43	60945.21
577.59	60374.12
577.75	60170.49
577.92	59625.15
578.08	59774.94
578.24	59590.04
578.40	59945.80
578.56	60051.12
578.72	59920.05
578.88	60306.24
579.04	60357.74
579.21	60449.02
579.37	60575.40
579.53	60664.35
579.69	60444.33
579.85	60671.37
580.01	60521.57
580.17	60097.94
580.33	59702.38
580.49	60076.87
580.65	60449.02
580.82	60554.34
580.98	60357.74
581.14	60313.26
581.30	60404.55
581.46	60273.48
581.62	60570.72
581.78	60603.49
581.94	60846.91
582.10	60547.32
582.26	60734.56
582.42	60636.26
582.58	60521.57
582.74	60570.72
582.90	60664.35
583.06	60729.88
583.22	60392.84
583.38	60395.18
583.54	60453.70
583.70	60430.29
583.86	60350.71
584.02	60322.63
584.18	60404.55
584.34	60334.33
584.50	60133.04
584.66	60044.10
584.82	59714.09
584.98	59597.06
585.14	59332.58
