SpectraSuite Data File
++++++++++++++++++++++++++++++++++++
Date: Mon Oct 07 14:55:01 GMT-05:00 2013
User: price-jones
Dark Spectrum Present: No
Reference Spectrum Present: No
Number of Sampled Component Spectra: 1
Spectrometers: USB2+H05261
Integration Time (usec): 10000 (USB2+H05261)
Spectra Averaged: 1 (USB2+H05261)
Boxcar Smoothing: 0 (USB2+H05261)
Correct for Electrical Dark: No (USB2+H05261)
Strobe/Lamp Enabled: No (USB2+H05261)
Correct for Detector Non-linearity: No (USB2+H05261)
Correct for Stray Light: No (USB2+H05261)
Number of Pixels in Processed Spectrum: 2048
>>>>>Begin Processed Spectral Data<<<<<
365.73	0.00
365.92	0.00
366.12	0.00
366.32	0.00
366.52	0.00
366.72	0.00
366.91	0.00
367.11	0.00
367.31	0.00
367.51	0.00
367.70	0.00
367.90	0.00
368.10	0.00
368.30	0.00
368.49	0.00
368.69	0.00
368.89	0.00
369.09	0.00
369.28	0.00
369.48	0.00
369.68	0.00
369.87	0.00
370.07	0.00
370.27	0.00
370.47	411.93
370.66	2394.37
370.86	2796.94
371.06	2993.55
371.25	2928.01
371.45	2567.57
371.65	2298.41
371.84	2314.79
372.04	2530.12
372.24	2661.19
372.44	2853.11
372.63	2813.32
372.83	2335.85
373.03	2165.00
373.22	2176.70
373.42	2202.44
373.62	2628.42
373.81	2766.51
374.01	2731.41
374.21	2394.37
374.40	2333.51
374.60	2485.65
374.79	2881.20
374.99	3438.25
375.19	3428.88
375.38	3258.03
375.58	3094.19
375.78	3183.13
375.97	3178.45
376.17	3293.13
376.37	3375.05
376.56	3527.19
376.76	3798.69
376.95	3992.95
377.15	4084.23
377.35	4194.24
377.54	4718.52
377.74	4692.77
377.93	4603.83
378.13	4414.25
378.33	4030.40
378.52	3932.10
378.72	3686.34
378.91	3641.87
379.11	3604.42
379.31	3311.86
379.50	3459.31
379.70	3915.72
379.89	4212.96
380.09	4425.95
380.28	4711.50
380.48	4603.83
380.68	4554.68
380.87	4318.29
381.07	3920.40
381.26	3604.42
381.46	3438.25
381.65	3293.13
381.85	3258.03
382.04	3005.25
382.24	2869.50
382.43	2799.28
382.63	2677.57
382.83	2708.00
383.02	2703.32
383.22	2689.28
383.41	2752.47
383.61	3091.85
383.80	3431.23
384.00	4063.17
384.19	4294.88
384.39	4578.09
384.58	4564.04
384.78	4362.76
384.97	4344.03
385.17	4063.17
385.36	3847.84
385.56	3831.46
385.75	4107.64
385.95	4540.64
386.14	4812.14
386.34	4627.24
386.53	4421.27
386.72	4234.03
386.92	4147.43
387.11	4624.90
387.31	4610.86
387.50	4650.64
387.70	4486.81
387.89	4374.46
388.09	4306.59
388.28	4381.48
388.48	4564.04
388.67	4973.64
388.86	5760.06
389.06	5830.27
389.25	6127.52
389.45	6209.44
389.64	6101.78
389.84	5872.40
390.03	6001.13
390.22	6008.16
390.42	6328.81
390.61	6649.46
390.81	6871.81
391.00	7250.98
391.19	7035.65
391.39	6658.82
391.58	6413.07
391.78	6094.76
391.97	5771.76
392.16	5411.32
392.36	4760.65
392.55	3700.39
392.75	2986.52
392.94	2635.44
393.13	2621.40
393.33	3211.22
393.52	4159.13
393.71	4987.68
393.91	5680.48
394.10	6150.93
394.29	6651.80
394.49	7119.91
394.68	7775.26
394.88	7557.59
395.07	7803.35
395.26	7585.68
395.46	7456.95
395.65	6832.02
395.84	5968.37
396.04	4910.44
396.23	3950.82
396.42	3431.23
396.62	3510.80
396.81	4203.60
397.00	5533.03
397.19	6825.00
397.39	7999.95
397.58	8915.10
397.77	9320.01
397.97	9839.61
398.16	9785.78
398.35	10171.97
398.55	10476.24
398.74	10792.21
398.93	10785.19
399.12	10885.83
399.32	10251.55
399.51	10710.29
399.70	11276.70
399.90	11138.61
400.09	10963.07
400.28	11309.47
400.47	11159.67
400.67	11681.61
400.86	11957.80
401.05	12189.51
401.24	12152.06
401.44	12479.74
401.63	12564.00
401.82	12290.15
402.01	12266.75
402.21	12676.34
402.40	12521.87
402.59	12067.80
402.78	11272.02
402.97	11360.96
403.17	12156.74
403.36	12631.87
403.55	12903.37
403.74	13083.59
403.93	12547.61
404.13	11475.65
404.32	11562.25
404.51	11889.92
404.70	13013.38
404.89	12741.88
405.09	12517.18
405.28	11939.07
405.47	12379.09
405.66	12334.62
405.85	12098.23
406.05	11763.53
406.24	12121.63
406.43	12819.11
406.62	13032.10
406.81	12842.52
407.00	12538.25
407.20	12226.96
407.39	12311.22
407.58	13102.32
407.77	13645.32
407.96	13813.84
408.15	14494.94
408.34	14546.43
408.54	14792.19
408.73	14682.18
408.92	14190.67
409.11	13734.26
409.30	13277.86
409.49	12564.00
409.68	11639.48
409.87	11817.36
410.07	12666.98
410.26	13708.52
410.45	14185.99
410.64	14408.34
410.83	14946.66
411.02	15417.11
411.21	15683.93
411.40	15470.94
411.59	15667.55
411.78	15557.54
411.98	15564.56
412.17	15770.53
412.36	15470.94
412.55	15290.72
412.74	14958.36
412.93	14703.25
413.12	15283.70
413.31	16847.18
413.50	16718.45
413.69	16477.37
413.88	16039.69
414.07	15807.98
414.26	16311.19
414.45	16470.35
414.64	16004.58
414.83	16236.30
415.02	16231.62
415.22	16308.85
415.41	16826.11
415.60	17233.36
415.79	18298.31
415.98	18239.79
416.17	18134.47
416.36	17839.56
416.55	17584.44
416.74	16732.49
416.93	16706.74
417.12	16659.93
417.31	16673.98
417.50	16966.54
417.69	17947.23
417.88	17584.44
418.07	17362.09
418.26	17165.49
418.45	17252.09
418.64	17961.27
418.83	19014.51
419.02	18349.80
419.21	17764.67
419.39	17106.98
419.58	16767.60
419.77	16947.82
419.96	18310.01
420.15	18501.93
420.34	19168.99
420.53	19800.93
420.72	20023.28
420.91	19346.87
421.10	19241.54
421.29	19094.09
421.48	18494.91
421.67	19590.28
421.86	18834.29
422.05	17076.55
422.24	15833.72
422.43	16311.19
422.61	18106.38
422.80	18925.57
422.99	18817.91
423.18	17963.61
423.37	17998.72
423.56	18214.05
423.75	18525.34
423.94	19021.53
424.13	17987.02
424.32	17607.85
424.50	17776.37
424.69	17862.97
424.88	17930.84
425.07	17865.31
425.26	17809.14
425.45	17392.52
425.64	17329.33
425.83	17493.16
426.01	18651.73
426.20	18721.95
426.39	18642.37
426.58	16996.97
426.77	16044.37
426.96	15829.04
427.15	16671.64
427.33	17860.63
427.52	18078.30
427.71	18183.62
427.90	18008.08
428.09	17516.57
428.28	17212.30
428.46	16180.12
428.65	16109.91
428.84	17298.90
429.03	17137.40
429.22	16100.55
429.40	14897.51
429.59	13680.43
429.78	12416.54
429.97	12486.76
430.16	12449.31
430.34	12514.84
430.53	12589.74
430.72	13509.57
430.91	15105.82
431.10	17895.74
431.28	20336.91
431.47	21708.47
431.66	21135.04
431.85	19049.62
432.03	17825.52
432.22	17774.03
432.41	18979.40
432.60	20458.62
432.79	21656.98
432.97	21298.88
433.16	20187.12
433.35	18176.60
433.54	16947.82
433.72	16283.11
433.91	17303.58
434.10	19344.53
434.28	20428.20
434.47	21020.35
434.66	20372.02
434.85	19948.39
435.03	20365.00
435.22	20727.78
435.41	21888.69
435.59	22469.14
435.78	22338.07
435.97	22993.42
436.16	22621.28
436.34	22370.84
436.53	21654.64
436.72	22396.59
436.90	20753.53
437.09	21064.82
437.28	20755.87
437.46	21331.64
437.65	20720.76
437.84	18703.22
438.02	18295.97
438.21	18455.12
438.40	19049.62
438.58	20547.56
438.77	21490.80
438.96	21607.83
439.14	23035.55
439.33	23213.43
439.52	23414.72
439.70	22431.69
439.89	21881.67
440.08	21661.66
440.26	21722.51
440.45	22672.77
440.63	24496.05
440.82	25057.78
441.01	24198.80
441.19	24449.24
441.38	25371.41
441.57	26127.40
441.75	25895.69
441.94	26230.38
442.12	25734.19
442.31	26707.85
442.50	26738.28
442.68	26150.81
442.87	26024.42
443.05	25284.81
443.24	26190.59
443.43	26607.21
443.61	27213.41
443.80	27175.96
443.98	26541.68
444.17	25937.82
444.35	27145.53
444.54	27864.08
444.73	26946.59
444.91	25858.24
445.10	24893.94
445.28	24114.54
445.47	23709.63
445.65	23616.01
445.84	24837.76
446.02	25289.49
446.21	25881.64
446.39	25778.66
446.58	26347.41
446.77	26902.12
446.95	27009.78
447.14	28196.43
447.32	28432.83
447.51	27922.59
447.69	26501.89
447.88	26525.29
448.06	26845.94
448.25	27377.25
448.43	27292.99
448.62	26974.67
448.80	27072.98
448.99	27143.19
449.17	26972.33
449.36	27821.95
449.54	28692.63
449.73	29399.47
449.91	29385.43
450.10	29820.77
450.28	30558.03
450.46	30314.62
450.65	30473.78
450.83	29673.31
451.02	29347.98
451.20	29560.97
451.39	29563.31
451.57	29146.69
451.76	29586.71
451.94	28790.93
452.13	27955.36
452.31	26452.73
452.49	25275.45
452.68	25958.88
452.86	26441.03
453.05	26199.96
453.23	27889.82
453.42	28177.71
453.60	29132.65
453.78	28746.46
453.97	28797.95
454.15	28425.81
454.34	27229.79
454.52	27576.19
454.70	27426.40
454.89	27831.31
455.07	27974.08
455.26	29123.29
455.44	29572.67
455.62	29872.26
455.81	29799.70
455.99	29919.07
456.17	29366.70
456.36	30319.30
456.54	30466.75
456.73	30162.48
456.91	31002.74
457.09	31019.12
457.28	31641.70
457.46	30141.42
457.64	29771.61
457.83	29029.66
458.01	28870.51
458.19	30164.82
458.38	30497.18
458.56	31321.05
458.74	30712.51
458.93	30082.91
459.11	29579.69
459.29	29780.98
459.48	30373.13
459.66	29666.29
459.84	30033.75
460.03	30127.38
460.21	30658.68
460.39	31655.75
460.57	30710.17
460.76	31559.78
460.94	31686.17
461.12	31576.17
461.31	31459.14
461.49	32016.19
461.67	31550.42
461.85	32760.48
462.04	32147.26
462.22	32360.25
462.40	32219.81
462.59	31784.48
462.77	32320.46
462.95	32428.12
463.13	31868.73
463.32	31091.68
463.50	31391.26
463.68	31548.08
463.86	31468.50
464.05	30581.44
464.23	30169.51
464.41	30148.44
464.59	29879.28
464.78	31079.97
464.96	30218.66
465.14	29799.70
465.32	31702.56
465.50	32414.08
465.69	33102.20
465.87	31681.49
466.05	31019.12
466.23	29724.80
466.41	29397.13
466.60	30017.37
466.78	29502.45
466.96	30038.44
467.14	30787.41
467.32	31000.40
467.51	31314.03
467.69	29851.19
467.87	31002.74
468.05	31154.87
468.23	31337.43
468.41	31573.83
468.60	31489.57
468.78	31447.44
468.96	31721.28
469.14	32140.24
469.32	32119.17
469.50	30312.28
469.69	30955.93
469.87	30373.13
470.05	29699.06
470.23	30623.57
470.41	30794.43
470.59	30815.49
470.77	30642.29
470.95	31281.26
471.14	32261.94
471.32	32325.14
471.50	33862.87
471.68	33860.53
471.86	34078.20
472.04	33816.06
472.22	33919.04
472.40	32535.79
472.58	32725.37
472.77	32589.62
472.95	33113.90
473.13	33830.10
473.31	32615.37
473.49	33277.74
473.67	33834.78
473.85	34300.55
474.03	35590.19
474.21	35512.95
474.39	35402.94
474.57	35674.45
474.75	36226.81
474.93	35101.01
475.12	34440.98
475.30	34235.02
475.48	33593.71
475.66	34665.67
475.84	33680.31
476.02	34448.00
476.20	33696.69
476.38	34389.49
476.56	35370.18
476.74	36018.50
476.92	36601.30
477.10	36533.42
477.28	37460.27
477.46	38082.86
477.64	38286.48
477.82	38068.81
478.00	37769.22
478.18	37862.85
478.36	37799.65
478.54	37944.76
478.72	38258.40
478.90	39526.97
479.08	40411.69
479.26	40514.67
479.44	41343.22
479.62	40399.99
479.80	40692.55
479.98	40545.10
480.16	41029.59
480.34	40165.93
480.52	41027.25
480.70	40636.38
480.88	40620.00
481.06	41507.06
481.24	42073.47
481.41	43070.54
481.59	43716.53
481.77	42686.69
481.95	42649.24
482.13	42422.21
482.31	42979.26
482.49	44051.22
482.67	43306.93
482.85	42913.72
483.03	43662.69
483.21	44615.29
483.39	44694.87
483.57	43866.32
483.74	43798.44
483.92	43599.50
484.10	43330.34
484.28	44294.64
484.46	44531.03
484.64	45659.17
484.82	44589.55
485.00	43847.60
485.18	43040.11
485.35	41291.73
485.53	36329.80
485.71	33872.23
485.89	34824.83
486.07	37710.71
486.25	39798.47
486.43	42253.69
486.61	42859.89
486.78	42124.96
486.96	43950.58
487.14	44790.83
487.32	46387.08
487.50	47012.00
487.68	47784.38
487.85	48758.04
488.03	47990.34
488.21	47466.06
488.39	46995.62
488.57	45415.76
488.75	45673.21
488.92	47290.52
489.10	49705.96
489.28	50429.18
489.46	51508.17
489.64	51040.06
489.81	51681.37
489.99	51082.19
490.17	50946.44
490.35	51826.48
490.53	51009.64
490.70	51154.75
490.88	50843.46
491.06	51941.17
491.24	52259.48
491.41	50663.24
491.59	48793.15
491.77	48650.38
491.95	49855.75
492.13	51821.80
492.30	52341.40
492.48	53483.58
492.66	52989.73
492.84	52495.88
493.01	52587.16
493.19	52545.03
493.37	52083.94
493.54	52149.48
493.72	53469.54
493.90	54082.76
494.08	54527.46
494.25	54672.57
494.43	55091.53
494.61	55536.23
494.79	55353.67
494.96	55470.70
495.14	54817.69
495.32	53511.67
495.49	53593.59
495.67	54707.68
495.85	55807.73
496.02	56315.63
496.20	55437.93
496.38	55234.30
496.55	55356.01
496.73	55866.25
496.91	56200.94
497.09	56516.92
497.26	57214.40
497.44	56093.28
497.62	54983.86
497.79	54827.05
497.97	53448.47
498.14	54349.58
498.32	55072.81
498.50	55508.14
498.67	55571.34
498.85	55721.13
499.03	56179.88
499.20	56514.58
499.38	55863.91
499.56	54951.10
499.73	54967.48
499.91	55505.80
500.08	54258.30
500.26	54314.47
500.44	54878.54
500.61	55866.25
500.79	55386.44
500.97	54845.77
501.14	54305.11
501.32	53570.18
501.49	54375.33
501.67	55009.61
501.84	55267.07
502.02	55681.34
502.20	56112.00
502.37	55990.30
502.55	56463.08
502.72	57352.49
502.90	57544.41
503.07	56947.57
503.25	56299.25
503.43	54869.18
503.60	54880.88
503.78	54700.66
503.95	55311.54
504.13	56229.03
504.30	57167.58
504.48	56549.68
504.65	56725.22
504.83	56399.89
505.01	57366.53
505.18	57623.99
505.36	58337.85
505.53	58061.67
505.71	57911.88
505.88	58265.30
506.06	57771.44
506.23	57247.16
506.41	56783.74
506.58	57291.63
506.76	57298.65
506.93	56807.14
507.11	56622.24
507.28	56732.25
507.46	55990.30
507.63	56406.91
507.81	55763.26
507.98	56205.62
508.16	57326.74
508.33	57668.46
508.50	57668.46
508.68	58031.24
508.85	58056.99
509.03	58890.22
509.20	58422.11
509.38	57616.97
509.55	57537.39
509.73	57563.14
509.90	57357.17
510.08	57504.62
510.25	57532.71
510.42	57118.43
510.60	57284.61
510.77	57996.13
510.95	58230.19
511.12	58412.75
511.30	59121.93
511.47	59234.28
511.64	58997.88
511.82	58752.13
511.99	57605.26
512.17	57619.31
512.34	57041.20
512.51	57684.84
512.69	57581.86
512.86	57202.69
513.04	57425.04
513.21	57167.58
513.38	56725.22
513.56	56072.21
513.73	55854.54
513.90	57088.01
514.08	56926.51
514.25	56879.70
514.43	57329.08
514.60	57249.50
514.77	57579.52
514.95	57886.13
515.12	57542.07
515.29	58138.91
515.47	58646.80
515.64	58396.37
515.81	57993.79
515.99	56765.01
516.16	55208.56
516.33	52694.82
516.51	52465.45
516.68	51285.82
516.85	50258.32
517.03	51943.51
517.20	54391.71
517.37	56760.33
517.54	57689.52
517.72	56694.80
517.89	53303.36
518.06	51653.28
518.24	53003.77
518.41	54925.35
518.58	56765.01
518.75	56416.27
518.93	56378.82
519.10	55767.94
519.27	56999.07
519.45	57626.33
519.62	58244.23
519.79	58251.25
519.96	57619.31
520.14	57312.70
520.31	56420.95
520.48	56339.04
520.65	57373.55
520.83	58452.54
521.00	57961.03
521.17	57331.42
521.34	57738.68
521.52	58677.23
521.69	58450.20
521.86	59004.91
522.03	58365.94
522.20	56750.97
522.38	56058.17
522.55	56528.62
522.72	56624.58
522.89	56535.64
523.07	57652.08
523.24	58101.46
523.41	58398.71
523.58	58906.60
523.75	58913.62
523.92	59147.68
524.10	58747.45
524.27	58340.19
524.44	57757.40
524.61	57291.63
524.78	58101.46
524.96	57989.11
525.13	58363.60
525.30	58812.98
525.47	59098.53
525.64	59224.92
525.81	57822.93
525.98	56147.11
526.16	54703.00
526.33	54742.79
526.50	54344.90
526.67	54609.38
526.84	55222.60
527.01	56390.53
527.18	56947.57
527.36	57439.09
527.53	58262.96
527.70	57813.57
527.87	56647.99
528.04	57382.91
528.21	58005.50
528.38	58382.32
528.55	59767.92
528.72	59402.80
528.89	58906.60
529.07	58777.87
529.24	57483.56
529.41	57434.41
529.58	57443.77
529.75	57972.73
529.92	58590.63
530.09	58447.86
530.26	59114.91
530.43	59664.94
530.60	58918.31
530.77	59515.14
530.94	59473.01
531.11	58756.81
531.28	58532.12
531.46	58475.94
531.63	58548.50
531.80	58300.40
531.97	58087.42
532.14	57757.40
532.31	56317.97
532.48	55831.14
532.65	56193.92
532.82	56521.60
532.99	58618.72
533.16	58639.78
533.33	58614.04
533.50	58906.60
533.67	58017.20
533.84	58138.91
534.01	58450.20
534.18	57991.45
534.35	58007.84
534.52	57354.83
534.69	57715.27
534.86	58534.46
535.03	58922.99
535.20	59320.88
535.37	59718.77
535.54	59828.77
535.71	59054.06
535.88	58887.88
536.05	57972.73
536.22	57593.56
536.38	57441.43
536.55	56982.68
536.72	56549.68
536.89	57092.69
537.06	57427.38
537.23	57759.74
537.40	57460.15
537.57	57485.90
537.74	57691.86
537.91	57708.25
538.08	57455.47
538.25	58042.95
538.42	58642.12
538.59	58487.65
538.75	57425.04
538.92	56514.58
539.09	56961.62
539.26	57102.05
539.43	56938.21
539.60	56547.34
539.77	57516.32
539.94	56570.75
540.11	56406.91
540.28	55772.63
540.44	56030.08
540.61	55927.10
540.78	56425.64
540.95	56676.07
541.12	56947.57
541.29	57249.50
541.46	57034.17
541.62	57525.69
541.79	56846.93
541.96	56369.46
542.13	57003.75
542.30	57022.47
542.47	57113.75
542.63	56982.68
542.80	56657.35
542.97	56027.74
543.14	56545.00
543.31	56961.62
543.48	57607.61
543.64	58092.10
543.81	58274.66
543.98	58557.86
544.15	57432.07
544.32	57741.02
544.48	57631.01
544.65	56776.72
544.82	57848.68
544.99	56397.55
545.16	56289.88
545.32	56779.06
545.49	57275.25
545.66	57687.18
545.83	57439.09
546.00	57324.40
546.16	56849.27
546.33	56601.18
546.50	56715.86
546.67	57521.01
546.83	57399.30
547.00	57303.34
547.17	55777.31
547.34	55407.50
547.50	55290.48
547.67	56196.26
547.84	56802.46
548.00	57303.34
548.17	57020.13
548.34	57368.87
548.51	57371.21
548.67	57099.71
548.84	56982.68
549.01	57289.29
549.18	56830.55
549.34	56961.62
549.51	57322.06
549.68	57818.25
549.84	56891.40
550.01	56114.34
550.18	56413.93
550.34	56310.95
550.51	56226.69
550.68	56835.23
550.84	57483.56
551.01	56388.19
551.18	56210.31
551.34	56392.87
551.51	56963.96
551.68	57090.35
551.84	57989.11
552.01	56928.85
552.18	56402.23
552.34	55700.07
552.51	55576.02
552.68	55292.82
552.84	56268.82
553.01	56114.34
553.18	55842.84
553.34	56032.42
553.51	56549.68
553.67	56928.85
553.84	56910.13
554.01	57216.74
554.17	56559.05
554.34	56243.07
554.51	56303.93
554.67	55901.36
554.84	56109.66
555.00	55526.87
555.17	55763.26
555.33	55667.30
555.50	55311.54
555.67	55779.65
555.83	55880.29
556.00	55133.66
556.16	55435.59
556.33	55236.64
556.50	55781.99
556.66	55379.42
556.83	54616.40
556.99	54618.74
557.16	55398.14
557.32	54995.57
557.49	55779.65
557.65	55264.73
557.82	55793.69
557.98	55824.12
558.15	54611.72
558.32	54120.21
558.48	53635.72
558.65	53228.46
558.81	53588.91
558.98	54866.84
559.14	54637.47
559.31	54714.70
559.47	54382.35
559.64	54431.50
559.80	53371.24
559.97	54326.17
560.13	54873.86
560.30	55730.50
560.46	56322.65
560.63	56327.33
560.79	56521.60
560.96	55679.00
561.12	54384.69
561.29	54461.93
561.45	54759.17
561.61	55365.37
561.78	54354.26
561.94	54583.63
562.11	54389.37
562.27	53626.35
562.44	55192.17
562.60	55339.63
562.77	55515.17
562.93	54822.37
563.10	55323.24
563.26	54649.17
563.42	55238.98
563.59	55042.38
563.75	54637.47
563.92	54262.98
564.08	54354.26
564.24	55210.90
564.41	53916.58
564.57	55231.96
564.74	54630.44
564.90	54148.29
565.07	53532.73
565.23	52954.62
565.39	52285.23
565.56	52580.13
565.72	53666.14
565.88	52481.83
566.05	54646.83
566.21	54138.93
566.38	54124.89
566.54	54663.21
566.70	54974.50
566.87	54911.31
567.03	54789.60
567.19	55547.93
567.36	55531.55
567.52	54220.85
567.68	53359.53
567.85	52720.57
568.01	53343.15
568.17	53219.10
568.34	53478.90
568.50	52863.34
568.66	52533.32
568.83	52549.71
568.99	52086.28
569.15	52846.96
569.32	52493.54
569.48	52617.58
569.64	52428.00
569.81	52369.49
569.97	52608.22
570.13	51189.86
570.30	50653.87
570.46	50628.13
570.62	50141.30
570.78	50714.73
570.95	50660.90
571.11	51711.80
571.27	51313.90
571.43	51753.93
571.60	51606.47
571.76	52491.19
571.92	52589.50
572.09	52856.32
572.25	52236.08
572.41	52413.96
572.57	52439.70
572.74	53186.33
572.90	53895.52
573.06	53560.82
573.22	53666.14
573.38	53485.92
573.55	54405.75
573.71	53219.10
573.87	52823.55
574.03	52861.00
574.20	52030.11
574.36	51971.60
574.52	51522.21
574.68	51728.18
574.84	50597.70
575.01	50586.00
575.17	50609.40
575.33	51058.79
575.49	51246.03
575.65	50593.02
575.82	50576.64
575.98	51559.66
576.14	51789.03
576.30	53083.35
576.46	51496.47
576.62	50880.91
576.79	51217.94
576.95	51725.84
577.11	52006.70
577.27	51299.86
577.43	51283.48
577.59	51278.80
577.75	50419.82
577.92	50162.36
578.08	50440.89
578.24	50328.54
578.40	50145.98
578.56	49069.33
578.72	49815.96
578.88	49530.42
579.04	50160.02
579.21	49879.16
579.37	49745.75
579.53	50312.16
579.69	50059.38
579.85	49673.19
580.01	49897.88
580.17	49308.07
580.33	50756.86
580.49	50614.08
580.65	49937.67
580.82	50686.64
580.98	50555.57
581.14	50255.98
581.30	49822.98
581.46	49418.07
581.62	50532.17
581.78	51091.55
581.94	51573.70
582.10	51014.32
582.26	50696.00
582.42	51009.64
582.58	50164.70
582.74	50087.46
582.90	49670.85
583.06	51264.75
583.22	50314.50
583.38	50705.37
583.54	50894.95
583.70	50600.04
583.86	50637.49
584.02	49205.08
584.18	49698.94
584.34	49556.16
584.50	49233.17
584.66	49612.34
584.82	49357.22
584.98	49785.54
585.14	48458.45
585.30	48144.82
