SpectraSuite Data File
++++++++++++++++++++++++++++++++++++
Date: Mon Oct 07 14:52:57 GMT-05:00 2013
User: price-jones
Dark Spectrum Present: No
Reference Spectrum Present: No
Number of Sampled Component Spectra: 1
Spectrometers: USB2+H05261
Integration Time (usec): 100000 (USB2+H05261)
Spectra Averaged: 1 (USB2+H05261)
Boxcar Smoothing: 0 (USB2+H05261)
Correct for Electrical Dark: No (USB2+H05261)
Strobe/Lamp Enabled: No (USB2+H05261)
Correct for Detector Non-linearity: No (USB2+H05261)
Correct for Stray Light: No (USB2+H05261)
Number of Pixels in Processed Spectrum: 2048
>>>>>Begin Processed Spectral Data<<<<<
365.73	0.00
365.92	0.00
366.12	0.00
366.32	0.00
366.52	0.00
366.72	0.00
366.91	0.00
367.11	0.00
367.31	0.00
367.51	0.00
367.70	0.00
367.90	0.00
368.10	0.00
368.30	0.00
368.49	0.00
368.69	0.00
368.89	0.00
369.09	0.00
369.28	0.00
369.48	0.00
369.68	0.00
369.87	0.00
370.07	0.00
370.27	0.00
370.47	566.41
370.66	2637.78
370.86	3386.76
371.06	3513.14
371.25	3529.53
371.45	3251.00
371.65	2932.69
371.84	2743.11
372.04	2745.45
372.24	3152.70
372.44	3187.81
372.63	3087.17
372.83	2958.44
373.03	2609.70
373.22	2373.30
373.42	2548.84
373.62	2939.71
373.81	3185.47
374.01	3269.73
374.21	2928.01
374.40	2708.00
374.60	2841.41
374.79	3101.21
374.99	3721.45
375.19	4014.02
375.38	3950.82
375.58	3815.07
375.78	3534.21
375.97	3779.97
376.17	3934.44
376.37	3857.20
376.56	3882.95
376.76	4074.87
376.95	4531.28
377.15	4730.22
377.35	4908.10
377.54	5301.31
377.74	5416.00
377.93	5259.18
378.13	5247.48
378.33	4945.55
378.52	4592.13
378.72	4351.06
378.91	4418.93
379.11	4009.34
379.31	3983.59
379.50	4114.66
379.70	4252.75
379.89	4816.82
380.09	5111.73
380.28	5331.74
380.48	5259.18
380.68	5043.85
380.87	5041.51
381.07	4674.05
381.26	4236.37
381.46	4044.45
381.65	3801.03
381.85	3871.25
382.04	3639.53
382.24	3386.76
382.43	3133.98
382.63	3180.79
382.83	3194.83
383.02	3194.83
383.22	3059.08
383.41	3171.43
383.61	3410.16
383.80	3822.09
384.00	4360.42
384.19	4891.72
384.39	5083.64
384.58	5334.08
384.78	4992.36
384.97	5139.82
385.17	4676.39
385.36	4531.28
385.56	4248.07
385.75	4484.47
385.95	4873.00
386.14	5392.59
386.34	5135.14
386.53	5125.77
386.72	4816.82
386.92	4910.44
387.11	5247.48
387.31	5270.89
387.50	5233.44
387.70	4994.70
387.89	4985.34
388.09	5048.54
388.28	4968.96
388.48	5055.56
388.67	5687.50
388.86	6019.86
389.06	6600.31
389.25	6649.46
389.45	6815.64
389.64	6902.24
389.84	6754.79
390.03	6888.20
390.22	6595.63
390.42	6932.67
390.61	7428.86
390.81	7997.61
391.00	8086.55
391.19	7796.32
391.39	7625.47
391.58	7236.94
391.78	6906.92
391.97	6649.46
392.16	6209.44
392.36	5579.84
392.55	4482.13
392.75	3590.38
392.94	2993.55
393.13	2871.84
393.33	3475.70
393.52	4484.47
393.71	5490.90
393.91	6207.10
394.10	6485.62
394.29	7194.81
394.49	7789.30
394.68	8549.98
394.88	8418.91
395.07	8819.14
395.26	8833.18
395.46	8273.79
395.65	7817.39
395.84	6855.43
396.04	5832.62
396.23	4697.46
396.42	4044.45
396.62	3880.61
396.81	4568.73
397.00	5680.48
397.19	7007.56
397.39	8526.57
397.58	9509.60
397.77	10132.18
397.97	10721.99
398.16	10574.54
398.35	10583.90
398.55	11363.30
398.74	11662.89
398.93	12042.06
399.12	11854.81
399.32	11358.62
399.51	11543.52
399.70	12554.63
399.90	12224.62
400.09	12589.74
400.28	12245.68
400.47	12278.45
400.67	12954.87
400.86	13195.94
401.05	13294.24
401.24	13240.41
401.44	13596.17
401.63	13769.37
401.82	13675.75
402.01	13441.70
402.21	13902.78
402.40	13951.93
402.59	13490.85
402.78	13142.11
402.97	12730.17
403.17	12732.51
403.36	13825.54
403.55	14291.31
403.74	14455.15
403.93	13886.40
404.13	12788.69
404.32	12325.26
404.51	13046.15
404.70	14164.92
404.89	14321.74
405.09	13982.36
405.28	13406.59
405.47	13327.01
405.66	13521.27
405.85	13170.19
406.05	12896.35
406.24	12917.42
406.43	13455.74
406.62	14293.65
406.81	14073.64
407.00	13469.78
407.20	13123.38
407.39	13296.58
407.58	13769.37
407.77	14487.92
407.96	15110.50
408.15	15042.62
408.34	15218.16
408.54	15817.34
408.73	16126.29
408.92	15719.04
409.11	15452.22
409.30	14516.00
409.49	13657.03
409.68	12901.03
409.87	12627.19
410.07	13254.45
410.26	14232.80
410.45	15232.21
410.64	15873.51
410.83	16046.71
411.02	16528.86
411.21	17022.72
411.40	16901.01
411.59	17146.76
411.78	16826.11
411.98	16226.93
412.17	17228.68
412.36	16690.36
412.55	16608.44
412.74	16332.26
412.93	15786.91
413.12	16049.05
413.31	17554.02
413.50	17886.37
413.69	17738.92
413.88	17280.18
414.07	16765.26
414.26	17233.36
414.45	17764.67
414.64	17907.44
414.83	17638.28
415.02	17420.61
415.22	17692.11
415.41	18207.03
415.60	18520.66
415.79	19389.00
415.98	19501.34
416.17	19473.26
416.36	19133.88
416.55	18698.54
416.74	18141.49
416.93	17769.35
417.12	17570.40
417.31	17912.12
417.50	18277.24
417.69	18984.09
417.88	18944.30
418.07	18417.68
418.26	18260.86
418.45	18202.35
418.64	19140.90
418.83	19861.79
419.02	19445.17
419.21	19550.49
419.39	18382.57
419.58	17537.63
419.77	17905.10
419.96	18448.10
420.15	19480.28
420.34	20189.46
420.53	20819.07
420.72	21242.70
420.91	20889.28
421.10	20666.93
421.29	20774.60
421.48	19824.34
421.67	20840.13
421.86	20121.59
422.05	18700.88
422.24	17008.67
422.43	16826.11
422.61	18707.90
422.80	19817.32
422.99	20149.67
423.18	19323.46
423.37	18960.68
423.56	18794.50
423.75	19381.98
423.94	19639.44
424.13	18625.98
424.32	19000.47
424.50	18918.55
424.69	18527.68
424.88	18951.32
425.07	18778.12
425.26	18733.65
425.45	18258.52
425.64	18153.20
425.83	17998.72
426.01	19468.58
426.20	19749.44
426.39	19253.25
426.58	18106.38
426.77	16737.17
426.96	16013.95
427.15	16702.06
427.33	18209.37
427.52	19105.79
427.71	18883.44
427.90	18836.63
428.09	18558.11
428.28	18146.17
428.46	17596.15
428.65	17294.22
428.84	17668.70
429.03	18005.74
429.22	16938.46
429.40	16065.44
429.59	14857.72
429.78	13006.36
429.97	13465.10
430.16	13511.91
430.34	13418.29
430.53	13348.08
430.72	13664.05
430.91	15105.82
431.10	17593.81
431.28	20999.29
431.47	22544.04
431.66	22443.40
431.85	20592.03
432.03	18986.43
432.22	17907.44
432.41	19056.64
432.60	20978.22
432.79	22153.17
432.97	22445.74
433.16	21876.99
433.35	19957.75
433.54	17961.27
433.72	16938.46
433.91	17762.33
434.10	19906.26
434.28	21120.99
434.47	21909.75
434.66	21357.39
434.85	21371.43
435.03	21090.57
435.22	21467.39
435.41	22848.31
435.59	22637.66
435.78	23269.61
435.97	23967.09
436.16	23889.85
436.34	23786.86
436.53	23218.11
436.72	22838.95
436.90	21930.82
437.09	21865.28
437.28	21668.68
437.46	21991.67
437.65	21891.03
437.84	20563.95
438.02	19119.84
438.21	18897.49
438.40	19749.44
438.58	21493.14
438.77	22197.64
438.96	22614.26
439.14	23412.38
439.33	23590.26
439.52	24535.84
439.70	23964.75
439.89	23171.30
440.08	22576.81
440.26	22223.39
440.45	23503.66
440.63	24793.29
440.82	26382.52
441.01	26136.76
441.19	25692.06
441.38	25837.17
441.57	26738.28
441.75	27243.84
441.94	27543.42
442.12	27290.65
442.31	27665.13
442.50	27510.66
442.68	27236.81
442.87	26789.77
443.05	26504.23
443.24	27131.49
443.43	27477.89
443.61	27948.34
443.80	28414.10
443.98	27030.85
444.17	26574.44
444.35	28467.94
444.54	28657.52
444.73	28418.78
444.91	27143.19
445.10	26352.09
445.28	25308.21
445.47	24924.36
445.65	25144.38
445.84	25785.68
446.02	26504.23
446.21	26939.57
446.39	26937.23
446.58	27606.62
446.77	27690.88
446.95	28060.68
447.14	29167.76
447.32	29710.76
447.51	28481.98
447.69	27981.10
447.88	27349.16
448.06	27775.14
448.25	28638.80
448.43	28510.07
448.62	27740.03
448.80	27672.15
448.99	27955.36
449.17	28404.74
449.36	28327.50
449.54	29481.39
449.73	29673.31
449.91	30157.80
450.10	31068.27
450.28	31353.82
450.46	30920.82
450.65	30838.90
450.83	30972.31
451.02	30316.96
451.20	30024.39
451.39	29912.05
451.57	30057.16
451.76	29998.65
451.94	29851.19
452.13	29453.30
452.31	27871.10
452.49	26712.53
452.68	27133.83
452.86	27126.81
453.05	27215.75
453.23	28634.11
453.42	29034.35
453.60	29509.47
453.78	29677.99
453.97	29549.26
454.15	29593.73
454.34	28641.14
454.52	29125.63
454.70	28591.98
454.89	28975.83
455.07	29013.28
455.26	29518.84
455.44	30536.97
455.62	30719.53
455.81	31171.25
455.99	30888.05
456.17	30543.99
456.36	30485.48
456.54	31672.13
456.73	31779.79
456.91	32278.33
457.09	32250.24
457.28	32989.85
457.46	31805.54
457.64	31185.30
457.83	30431.65
458.01	29876.94
458.19	30480.80
458.38	30635.27
458.56	31456.80
458.74	31470.84
458.93	30944.22
459.11	30822.51
459.29	30534.63
459.48	31075.29
459.66	30532.29
459.84	31257.85
460.03	31805.54
460.21	31728.30
460.39	32266.63
460.57	32072.36
460.76	32818.99
460.94	32596.64
461.12	32334.50
461.31	32538.13
461.49	32474.93
461.67	32112.15
461.85	33607.75
462.04	32690.26
462.22	33701.37
462.40	33149.01
462.59	33151.35
462.77	33280.08
462.95	33127.94
463.13	32636.43
463.32	32343.86
463.50	32411.74
463.68	32453.87
463.86	32519.40
464.05	31587.87
464.23	31473.18
464.41	31309.35
464.59	30532.29
464.78	32088.74
464.96	31810.22
465.14	31597.23
465.32	32746.44
465.50	33291.78
465.69	33312.84
465.87	32767.50
466.05	32261.94
466.23	30300.58
466.41	30017.37
466.60	30946.56
466.78	30764.00
466.96	31482.55
467.14	31899.16
467.32	32620.05
467.51	32311.10
467.69	30595.48
467.87	31751.71
468.05	32294.71
468.23	32201.09
468.41	31857.03
468.60	32226.84
468.78	32339.18
468.96	32196.41
469.14	32636.43
469.32	32938.36
469.50	31222.75
469.69	31515.31
469.87	30785.07
470.05	30717.19
470.23	31103.38
470.41	31468.50
470.59	31814.90
470.77	31789.16
470.95	32500.68
471.14	32872.82
471.32	32943.04
471.50	35035.48
471.68	34574.39
471.86	35304.64
472.04	35316.34
472.22	35440.39
472.40	33841.81
472.58	33511.79
472.77	32917.29
472.95	33914.36
473.13	34799.08
473.31	33689.67
473.49	33993.94
473.67	34232.68
473.85	34644.61
474.03	35775.09
474.21	35828.92
474.39	36091.06
474.57	35889.77
474.75	36453.84
474.93	35737.64
475.12	35199.32
475.30	35241.45
475.48	35370.18
475.66	35789.13
475.84	35091.65
476.02	35068.25
476.20	34415.24
476.38	35517.63
476.56	36495.97
476.74	36795.56
476.92	37038.98
477.10	38103.92
477.28	38504.15
477.46	38543.94
477.64	39201.63
477.82	39058.86
478.00	39548.03
478.18	38682.03
478.36	38565.01
478.54	38614.16
478.72	39194.61
478.90	40168.27
479.08	40786.18
479.26	41399.40
479.44	40964.06
479.62	41139.60
479.80	40811.92
479.98	41645.15
480.16	41532.81
480.34	41364.29
480.52	41897.93
480.70	41680.26
480.88	42050.06
481.06	42443.27
481.24	43012.02
481.41	44329.75
481.59	44720.62
481.77	43901.43
481.95	43159.48
482.13	43662.69
482.31	43129.05
482.49	44296.98
482.67	43772.70
482.85	44273.57
483.03	44992.12
483.21	45092.76
483.39	44835.30
483.57	44498.26
483.74	44004.41
483.92	44535.71
484.10	44954.67
484.28	45617.04
484.46	46204.52
484.64	46171.75
484.82	45621.72
485.00	44765.09
485.18	44378.90
485.35	42665.63
485.53	39819.53
485.71	36268.94
485.89	35838.28
486.07	38260.74
486.25	41116.19
486.43	43540.99
486.61	43952.92
486.78	43770.36
486.96	44144.84
487.14	45750.45
487.32	46927.74
487.50	47941.19
487.68	48589.52
487.85	49146.57
488.03	48996.77
488.21	48610.59
488.39	48058.22
488.57	47110.30
488.75	46953.49
488.92	48472.49
489.10	50630.47
489.28	51971.60
489.46	52624.60
489.64	52247.78
489.81	52563.75
489.99	52154.16
490.17	52048.83
490.35	52523.96
490.53	51927.13
490.70	51664.99
490.88	51615.83
491.06	52643.33
491.24	52573.11
491.41	51079.85
491.59	49712.98
491.77	49207.42
491.95	50375.35
492.13	51693.07
492.30	52823.55
492.48	53574.86
492.66	53890.83
492.84	54052.33
493.01	53979.78
493.19	53310.38
493.37	52868.02
493.54	52474.81
493.72	53347.83
493.90	54255.96
494.08	55018.97
494.25	55442.61
494.43	55758.58
494.61	55803.05
494.79	55917.74
494.96	55945.83
495.14	55077.49
495.32	54262.98
495.49	53879.13
495.67	54852.80
495.85	56097.96
496.02	56554.36
496.20	56238.39
496.38	55884.97
496.55	55856.88
496.73	56273.50
496.91	56292.22
497.09	57029.49
497.26	57088.01
497.44	56488.83
497.62	56002.00
497.79	55386.44
497.97	54185.74
498.14	54370.64
498.32	55405.16
498.50	56385.85
498.67	56610.54
498.85	56664.37
499.03	56910.13
499.20	57251.84
499.38	57076.30
499.56	56978.00
499.73	56411.59
499.91	56182.22
500.08	55664.96
500.26	55107.91
500.44	55512.83
500.61	56226.69
500.79	55821.78
500.97	55756.24
501.14	55330.26
501.32	55185.15
501.49	55210.90
501.67	55405.16
501.84	56046.47
502.02	56107.32
502.20	56516.92
502.37	56516.92
502.55	57073.96
502.72	57382.91
502.90	57776.12
503.07	57296.31
503.25	57031.83
503.43	56093.28
503.60	55358.35
503.78	54698.32
503.95	55505.80
504.13	56872.68
504.30	57689.52
504.48	57726.97
504.65	57190.99
504.83	57181.63
505.01	57811.23
505.18	58302.74
505.36	58644.46
505.53	58316.79
505.71	58988.52
505.88	58766.17
506.06	58286.36
506.23	58014.86
506.41	57616.97
506.58	57958.69
506.76	57766.76
506.93	57996.13
507.11	57626.33
507.28	57705.91
507.46	57221.42
507.63	56811.82
507.81	56362.44
507.98	57034.17
508.16	57551.43
508.33	58078.05
508.50	58185.72
508.68	58515.73
508.85	59007.25
509.03	58845.75
509.20	59007.25
509.38	58232.53
509.55	57577.18
509.73	57530.37
509.90	58155.29
510.08	58410.41
510.25	58363.60
510.42	57942.30
510.60	58019.54
510.77	58387.00
510.95	58812.98
511.12	58944.05
511.30	59320.88
511.47	59465.99
511.64	59304.49
511.82	59037.67
511.99	58108.48
512.17	57712.93
512.34	57703.57
512.51	57815.91
512.69	57989.11
512.86	58061.67
513.04	58277.00
513.21	58410.41
513.38	57951.66
513.56	57425.04
513.73	56954.60
513.90	57195.67
514.08	57378.23
514.25	57654.42
514.43	58073.37
514.60	58021.88
514.77	58129.54
514.95	58096.78
515.12	57858.04
515.29	58171.67
515.47	58791.92
515.64	58915.96
515.81	58408.07
515.99	57848.68
516.16	56584.79
516.33	54209.15
516.51	53015.47
516.68	51690.73
516.85	51550.30
517.03	52329.70
517.20	54899.61
517.37	57556.11
517.54	58262.96
517.72	57537.39
517.89	55281.11
518.06	52795.46
518.24	53406.34
518.41	55796.03
518.58	56860.97
518.75	57123.11
518.93	57251.84
519.10	57254.18
519.27	57609.95
519.45	57836.98
519.62	58557.86
519.79	58862.13
519.96	58604.67
520.14	58195.08
520.31	57228.44
520.48	57296.31
520.65	57626.33
520.83	58525.10
521.00	58918.31
521.17	58492.33
521.34	58377.64
521.52	58738.08
521.69	58946.39
521.86	59451.95
522.03	59011.93
522.20	57949.32
522.38	56966.30
522.55	57071.62
522.72	57743.36
522.89	57832.30
523.07	57949.32
523.24	58206.78
523.41	59072.78
523.58	59229.60
523.75	59819.41
523.92	59559.61
524.10	59505.78
524.27	59711.75
524.44	59564.29
524.61	59243.64
524.78	59058.74
524.96	59014.27
525.13	59164.06
525.30	59341.94
525.47	59859.20
525.64	59540.89
525.81	58796.60
525.98	57481.22
526.16	56034.77
526.33	55620.49
526.50	55028.34
526.67	54665.55
526.84	55714.11
527.01	56444.36
527.18	57378.23
527.36	57986.77
527.53	58920.65
527.70	59290.45
527.87	58560.20
528.04	58223.17
528.21	58756.81
528.38	59297.47
528.55	59901.33
528.72	59964.52
528.89	60402.21
529.07	59861.54
529.24	59341.94
529.41	58548.50
529.58	58234.87
529.75	58616.38
529.92	58831.71
530.09	59281.09
530.26	59491.74
530.43	59861.54
530.60	59934.10
530.77	60130.70
530.94	60252.41
531.11	59884.95
531.28	59185.13
531.46	59231.94
531.63	59372.37
531.80	59330.24
531.97	58728.72
532.14	58223.17
532.31	57200.35
532.48	56533.30
532.65	56650.33
532.82	57490.58
532.99	58471.26
533.16	58920.65
533.33	59423.86
533.50	59126.61
533.67	58543.82
533.84	58122.52
534.01	58424.45
534.18	58590.63
534.35	58543.82
534.52	58504.03
534.69	58815.32
534.86	59110.23
535.03	59564.29
535.20	59906.01
535.37	60313.26
535.54	60261.77
535.71	59976.23
535.88	59653.23
536.05	58883.20
536.22	58646.80
536.38	58171.67
536.55	57659.10
536.72	57354.83
536.89	57593.56
537.06	58085.07
537.23	58974.48
537.40	59077.46
537.57	59353.65
537.74	58951.07
537.91	58752.13
538.08	59021.29
538.25	58965.12
538.42	59192.15
538.59	58892.56
538.75	58192.74
538.92	58094.44
539.09	58145.93
539.26	57902.51
539.43	57645.05
539.60	57853.36
539.77	57963.37
539.94	57750.38
540.11	56975.66
540.28	56264.14
540.44	56596.49
540.61	56896.08
540.78	56954.60
540.95	57350.15
541.12	57970.39
541.29	58141.25
541.46	58415.09
541.62	58443.18
541.79	58475.94
541.96	57492.92
542.13	57577.18
542.30	58108.48
542.47	58089.76
542.63	58078.05
542.80	57661.44
542.97	57834.64
543.14	57729.31
543.31	57844.00
543.48	58080.39
543.64	58941.71
543.81	59419.18
543.98	58958.09
544.15	58436.16
544.32	58014.86
544.48	58061.67
544.65	58515.73
544.82	58632.76
544.99	58401.05
545.16	58211.46
545.32	58117.84
545.49	58859.79
545.66	59103.21
545.83	58649.14
546.00	58305.09
546.16	58169.33
546.33	57846.34
546.50	58000.82
546.67	58628.08
546.83	57832.30
547.00	58124.86
547.17	57418.02
547.34	56903.10
547.50	56921.83
547.67	57303.34
547.84	57305.68
548.00	57689.52
548.17	58279.34
548.34	58068.69
548.51	58092.10
548.67	58251.25
548.84	58124.86
549.01	58326.15
549.18	57893.15
549.34	57846.34
549.51	58047.63
549.68	57921.24
549.84	57733.99
550.01	57668.46
550.18	57261.21
550.34	57691.86
550.51	57659.10
550.68	57556.11
550.84	57265.89
551.01	57408.66
551.18	57226.10
551.34	57570.16
551.51	57752.72
551.68	58031.24
551.84	58162.31
552.01	57970.39
552.18	57750.38
552.34	56928.85
552.51	56765.01
552.68	56640.96
552.84	57193.33
553.01	57361.85
553.18	57256.53
553.34	57516.32
553.51	57591.22
553.67	57853.36
553.84	57785.49
554.01	57820.59
554.17	57776.12
554.34	57530.37
554.51	57794.85
554.67	58251.25
554.84	57865.06
555.00	57535.05
555.17	57214.40
555.33	57399.30
555.50	57429.72
555.67	57188.65
555.83	57230.78
556.00	57020.13
556.16	56783.74
556.33	56385.85
556.50	56526.28
556.66	56479.47
556.83	55908.38
556.99	56423.29
557.16	56219.67
557.32	56631.60
557.49	56891.40
557.65	57235.46
557.82	56842.25
557.98	56690.12
558.15	56032.42
558.32	55325.58
558.48	54653.85
558.65	54824.71
558.81	55091.53
558.98	55730.50
559.14	55899.01
559.31	55650.92
559.47	55833.48
559.64	55487.08
559.80	55023.65
559.97	55199.19
560.13	55760.92
560.30	56547.34
560.46	57008.43
560.63	57151.20
560.79	57312.70
560.96	56732.25
561.12	55732.84
561.29	55063.44
561.45	55103.23
561.61	55517.51
561.78	55859.23
561.94	55866.25
562.11	55707.09
562.27	55697.73
562.44	55798.37
562.60	56123.71
562.77	56217.33
562.93	56207.97
563.10	56198.60
563.26	55709.43
563.42	55669.64
563.59	55302.18
563.75	55564.32
563.92	55700.07
564.08	55468.36
564.24	55709.43
564.41	55742.20
564.57	55746.88
564.74	55934.12
564.90	55384.10
565.07	55313.88
565.23	55119.62
565.39	54354.26
565.56	54124.89
565.72	53914.24
565.88	54485.33
566.05	54255.96
566.21	54775.56
566.38	54782.58
566.54	54983.86
566.70	55220.26
566.87	55421.55
567.03	55356.01
567.19	55510.49
567.36	55522.19
567.52	55210.90
567.68	54925.35
567.85	54466.61
568.01	53986.80
568.17	53762.11
568.34	53352.51
568.50	53579.54
568.66	53635.72
568.83	54078.08
568.99	54031.27
569.15	54450.22
569.32	54522.78
569.48	54124.89
569.64	54049.99
569.81	53366.55
569.97	53593.59
570.13	53755.08
570.30	52919.51
570.46	52545.03
570.62	51789.03
570.78	51611.15
570.95	52451.41
571.11	52935.90
571.27	53352.51
571.43	53439.11
571.60	53883.81
571.76	54094.46
571.92	54277.02
572.09	54487.67
572.25	54475.97
572.41	54225.53
572.57	54108.50
572.74	54321.49
572.90	53888.49
573.06	53743.38
573.22	53708.27
573.38	53602.95
573.55	53888.49
573.71	53909.56
573.87	53612.31
574.03	53727.00
574.20	53394.64
574.36	53176.97
574.52	52889.09
574.68	53317.40
574.84	52315.65
575.01	51728.18
575.17	51901.38
575.33	52793.12
575.49	52772.06
575.65	53003.77
575.82	52615.24
575.98	52413.96
576.14	52708.86
576.30	52781.42
576.46	52994.41
576.62	53036.54
576.79	52926.53
576.95	52418.64
577.11	52346.08
577.27	52587.16
577.43	52484.17
577.59	52046.49
577.75	51889.68
577.92	51239.01
578.08	50981.55
578.24	50806.01
578.40	51271.78
578.56	51409.87
578.72	51601.79
578.88	51877.97
579.04	52086.28
579.21	52069.90
579.37	52004.36
579.53	52341.40
579.69	52388.21
579.85	52573.11
580.01	52060.54
580.17	51887.34
580.33	51641.58
580.49	51674.35
580.65	51957.55
580.82	52123.73
580.98	52226.71
581.14	51964.57
581.30	52315.65
581.46	52259.48
581.62	52285.23
581.78	52261.82
581.94	52587.16
582.10	51992.66
582.26	52500.56
582.42	52404.59
582.58	52273.52
582.74	52336.72
582.90	52596.52
583.06	52390.55
583.22	52156.50
583.38	52226.71
583.54	52107.35
583.70	51758.61
583.86	51910.74
584.02	51838.18
584.18	52296.93
584.34	52121.39
584.50	51943.51
584.66	51796.06
584.82	51014.32
584.98	51384.12
585.14	50749.84
585.30	49916.61
