SpectraSuite Data File
++++++++++++++++++++++++++++++++++++
Date: Mon Oct 07 14:53:38 GMT-05:00 2013
User: price-jones
Dark Spectrum Present: No
Reference Spectrum Present: No
Number of Sampled Component Spectra: 1
Spectrometers: USB2+H05261
Integration Time (usec): 100000 (USB2+H05261)
Spectra Averaged: 1 (USB2+H05261)
Boxcar Smoothing: 0 (USB2+H05261)
Correct for Electrical Dark: No (USB2+H05261)
Strobe/Lamp Enabled: No (USB2+H05261)
Correct for Detector Non-linearity: No (USB2+H05261)
Correct for Stray Light: No (USB2+H05261)
Number of Pixels in Processed Spectrum: 2048
>>>>>Begin Processed Spectral Data<<<<<
365.73	0.00
365.92	0.00
366.12	0.00
366.32	0.00
366.52	0.00
366.72	0.00
366.91	0.00
367.11	0.00
367.31	0.00
367.51	0.00
367.70	0.00
367.90	0.00
368.10	0.00
368.30	0.00
368.49	0.00
368.69	0.00
368.89	0.00
369.09	0.00
369.28	0.00
369.48	0.00
369.68	0.00
369.87	0.00
370.07	0.00
370.27	0.00
370.47	360.44
370.66	1818.60
370.86	2251.60
371.06	2548.84
371.25	2558.21
371.45	2253.94
371.65	2066.69
371.84	1874.77
372.04	2069.03
372.24	2200.10
372.44	2380.32
372.63	2349.90
372.83	2165.00
373.03	1853.70
373.22	1675.82
373.42	1767.10
373.62	2043.29
373.81	2342.88
374.01	2225.85
374.21	2085.42
374.40	1827.96
374.60	2031.58
374.79	2354.58
374.99	2590.97
375.19	2855.45
375.38	2764.17
375.58	2619.06
375.78	2619.06
375.97	2619.06
376.17	2750.13
376.37	2782.90
376.56	2806.30
376.76	3082.49
376.95	3220.58
377.15	3302.50
377.35	3564.64
377.54	3786.99
377.74	3810.39
377.93	3730.81
378.13	3784.65
378.33	3522.51
378.52	3269.73
378.72	3136.32
378.91	3052.06
379.11	2883.54
379.31	2871.84
379.50	2796.94
379.70	3159.72
379.89	3613.79
380.09	3651.24
380.28	3712.09
380.48	3637.19
380.68	3756.56
380.87	3604.42
381.07	3400.80
381.26	3089.51
381.46	2925.67
381.65	2768.85
381.85	2827.37
382.04	2541.82
382.24	2396.71
382.43	2272.66
382.63	2111.16
382.83	2347.56
383.02	2305.43
383.22	2221.17
383.41	2307.77
383.61	2382.67
383.80	2712.68
384.00	3236.96
384.19	3564.64
384.39	3721.45
384.58	3653.58
384.78	3646.55
384.97	3658.26
385.17	3318.88
385.36	3297.81
385.56	3201.85
385.75	3251.00
385.95	3578.68
386.14	3896.99
386.34	3920.40
386.53	3632.51
386.72	3407.82
386.92	3510.80
387.11	3634.85
387.31	3896.99
387.50	3801.03
387.70	3611.45
387.89	3566.98
388.09	3595.06
388.28	3529.53
388.48	3714.43
388.67	4030.40
388.86	4432.97
389.06	4678.73
389.25	4917.47
389.45	5020.45
389.64	4898.74
389.84	4938.53
390.03	5060.24
390.22	4856.61
390.42	5128.11
390.61	5406.64
390.81	5556.43
391.00	5956.66
391.19	5778.78
391.39	5591.54
391.58	5313.02
391.78	4800.44
391.97	4770.01
392.16	4528.94
392.36	4051.47
392.55	3304.84
392.75	2579.27
392.94	2005.84
393.13	2157.97
393.33	2396.71
393.52	3038.02
393.71	3960.19
393.91	4451.70
394.10	4746.61
394.29	5191.31
394.49	5636.01
394.68	6008.16
394.88	6279.66
395.07	6286.68
395.26	6155.61
395.46	6015.18
395.65	5729.63
395.84	4980.66
396.04	4198.92
396.23	3478.04
396.42	2832.05
396.62	2810.98
396.81	3220.58
397.00	4184.88
397.19	5158.54
397.39	6228.17
397.58	6953.73
397.77	7339.92
397.97	7707.38
398.16	7822.07
398.35	8205.92
398.55	8259.75
398.74	8603.81
398.93	8968.93
399.12	8528.91
399.32	8236.35
399.51	8533.59
399.70	9268.52
399.90	8959.57
400.09	9020.42
400.28	9060.21
400.47	9074.26
400.67	9399.59
400.86	9706.20
401.05	9640.67
401.24	9830.25
401.44	9947.28
401.63	9975.36
401.82	10071.33
402.01	9961.32
402.21	9958.98
402.40	10324.10
402.59	9926.21
402.78	9472.15
402.97	9064.89
403.17	9530.66
403.36	10139.20
403.55	10260.91
403.74	10668.16
403.93	10242.18
404.13	9376.19
404.32	9160.86
404.51	9558.75
404.70	10310.06
404.89	10462.19
405.09	10099.41
405.28	9902.81
405.47	9912.17
405.66	10026.86
405.85	9657.05
406.05	9348.10
406.24	9357.46
406.43	9820.89
406.62	10253.89
406.81	10298.36
407.00	9991.75
407.20	9799.82
407.39	9888.76
407.58	10253.89
407.77	10747.74
407.96	10944.34
408.15	10998.18
408.34	11236.91
408.54	11803.32
408.73	11449.90
408.92	11630.12
409.11	11456.92
409.30	10583.90
409.49	10122.82
409.68	9434.70
409.87	9198.31
410.07	9666.41
410.26	10513.69
410.45	11283.72
410.64	11403.09
410.83	11747.15
411.02	12063.12
411.21	12514.84
411.40	12421.22
411.59	12395.48
411.78	12451.65
411.98	12182.49
412.17	12400.16
412.36	11978.86
412.55	12407.18
412.74	11840.77
412.93	11623.10
413.12	11784.60
413.31	12886.99
413.50	12966.57
413.69	13343.39
413.88	12802.73
414.07	12243.34
414.26	12664.64
414.45	12945.50
414.64	13327.01
414.83	13217.01
415.02	13011.04
415.22	12851.88
415.41	13249.77
415.60	13568.09
415.79	14094.71
415.98	14232.80
416.17	14270.25
416.36	13886.40
416.55	13722.56
416.74	13366.80
416.93	13022.74
417.12	13099.98
417.31	13062.53
417.50	13179.56
417.69	13830.23
417.88	13771.71
418.07	13420.63
418.26	13561.06
418.45	13406.59
418.64	13848.95
418.83	14686.86
419.02	14485.58
419.21	14317.06
419.39	13570.43
419.58	12751.24
419.77	12978.27
419.96	13509.57
420.15	14356.85
420.34	14424.72
420.53	15342.21
420.72	15623.08
420.91	15641.80
421.10	15117.52
421.29	15129.22
421.48	14560.47
421.67	15398.38
421.86	14916.23
422.05	13874.70
422.24	12596.76
422.43	12224.62
422.61	13785.76
422.80	14780.48
422.99	14937.30
423.18	14288.97
423.37	13916.83
423.56	13893.42
423.75	13998.74
423.94	14553.45
424.13	13816.18
424.32	13781.07
424.50	14005.77
424.69	13444.04
424.88	13867.67
425.07	13724.90
425.26	13907.46
425.45	13771.71
425.64	13273.18
425.83	13301.26
426.01	14183.65
426.20	14436.42
426.39	14260.88
426.58	13408.93
426.77	12212.92
426.96	11943.75
427.15	12444.63
427.33	13369.14
427.52	13860.65
427.71	14019.81
427.90	13696.82
428.09	13671.07
428.28	13369.14
428.46	13090.62
428.65	12549.95
428.84	13046.15
429.03	13217.01
429.22	12503.14
429.40	11810.34
429.59	10906.90
429.78	9600.88
429.97	9806.84
430.16	9729.61
430.34	9811.53
430.53	9753.01
430.72	10012.81
430.91	10897.53
431.10	12943.16
431.28	14941.98
431.47	16800.37
431.66	17149.11
431.85	15297.74
432.03	14169.60
432.22	13331.69
432.41	14050.24
432.60	15358.60
432.79	15868.83
432.97	16547.59
433.16	16114.59
433.35	14810.91
433.54	13338.71
433.72	12472.71
433.91	12659.96
434.10	14141.52
434.28	15407.75
434.47	16063.10
434.66	15751.81
434.85	15396.04
435.03	15424.13
435.22	15770.53
435.41	17128.04
435.59	16812.07
435.78	17373.80
435.97	17436.99
436.16	17338.69
436.34	17338.69
436.53	16781.64
436.72	17200.60
436.90	16248.00
437.09	16067.78
437.28	15915.64
437.46	16184.80
437.65	16219.91
437.84	15161.99
438.02	14066.62
438.21	13774.05
438.40	14581.54
438.58	15901.60
438.77	16233.96
438.96	16355.66
439.14	17385.50
439.33	17338.69
439.52	17846.58
439.70	17633.60
439.89	17057.82
440.08	16748.87
440.26	16552.27
440.45	17268.47
440.63	18434.06
440.82	19176.01
441.01	18869.40
441.19	18876.42
441.38	19246.23
441.57	20067.75
441.75	20006.90
441.94	20189.46
442.12	20170.74
442.31	20112.22
442.50	20395.43
442.68	20205.84
442.87	19604.33
443.05	19660.50
443.24	19924.98
443.43	20304.15
443.61	20755.87
443.80	21216.96
443.98	19885.19
444.17	19733.06
444.35	20900.98
444.54	21198.23
444.73	20971.20
444.91	20285.42
445.10	19351.55
445.28	18429.38
445.47	18405.97
445.65	18307.67
445.84	19115.16
446.02	19534.11
446.21	20091.16
446.39	19728.38
446.58	20453.94
446.77	20549.90
446.95	20463.30
447.14	21432.29
447.32	21752.94
447.51	21319.94
447.69	20257.34
447.88	20067.75
448.06	20198.82
448.25	20879.92
448.43	20989.92
448.62	20812.04
448.80	20439.90
448.99	20463.30
449.17	20898.64
449.36	20884.60
449.54	21685.06
449.73	21614.85
449.91	22155.51
450.10	23438.12
450.28	22867.03
450.46	23084.70
450.65	22913.84
450.83	22583.83
451.02	22218.71
451.20	22232.75
451.39	22431.69
451.57	22190.62
451.76	22129.77
451.94	21958.91
452.13	21462.71
452.31	20711.40
452.49	19585.60
452.68	19957.75
452.86	19885.19
453.05	20133.29
453.23	20758.21
453.42	20931.41
453.60	21638.25
453.78	22094.66
453.97	21778.68
454.15	21982.31
454.34	21184.19
454.52	21584.42
454.70	20884.60
454.89	21207.59
455.07	21266.11
455.26	21671.02
455.44	22267.86
455.62	22483.19
455.81	22974.70
455.99	22948.95
456.17	22822.56
456.36	22457.44
456.54	23206.41
456.73	23293.01
456.91	23473.23
457.09	23473.23
457.28	24304.12
457.46	23360.89
457.64	23110.45
457.83	22707.88
458.01	21757.62
458.19	22391.91
458.38	22775.75
458.56	22885.76
458.74	23290.67
458.93	22417.65
459.11	22714.90
459.29	22590.85
459.48	22836.61
459.66	22352.12
459.84	22998.10
460.03	23274.29
460.21	23449.83
460.39	23723.67
460.57	23433.44
460.76	24142.63
460.94	24025.60
461.12	23674.52
461.31	23810.27
461.49	23557.49
461.67	23665.16
461.85	24123.90
462.04	24166.03
462.22	24879.89
462.40	24507.75
462.59	24154.33
462.77	24364.98
462.95	24400.08
463.13	24065.39
463.32	23880.49
463.50	23627.71
463.68	23828.99
463.86	23700.26
464.05	23302.37
464.23	22993.42
464.41	22836.61
464.59	22396.59
464.78	23440.47
464.96	23550.47
465.14	23349.18
465.32	23960.06
465.50	24273.70
465.69	24800.32
465.87	24215.18
466.05	23473.23
466.23	22508.93
466.41	22087.64
466.60	22494.89
466.78	22815.54
466.96	23037.89
467.14	23208.75
467.32	23646.43
467.51	23674.52
467.69	22766.39
467.87	22939.59
468.05	23475.57
468.23	23594.94
468.41	23819.63
468.60	23840.70
468.78	23648.77
468.96	23367.91
469.14	23924.96
469.32	24063.05
469.50	23154.92
469.69	22951.29
469.87	22927.89
470.05	22862.35
470.23	22771.07
470.41	23068.32
470.59	23407.70
470.77	23274.29
470.95	24049.00
471.14	24269.01
471.32	24254.97
471.50	25397.15
471.68	25736.53
471.86	25902.71
472.04	25869.94
472.22	26111.02
472.40	24669.25
472.58	24568.60
472.77	24283.06
472.95	25048.41
473.13	25663.97
473.31	24538.18
473.49	24987.56
473.67	25528.22
473.85	25518.86
474.03	26204.64
474.21	26223.36
474.39	26181.23
474.57	26541.68
474.75	26855.31
474.93	26312.30
475.12	25713.13
475.30	25848.88
475.48	26108.68
475.66	26328.69
475.84	26305.28
476.02	26008.03
476.20	25500.14
476.38	25986.97
476.56	26937.23
476.74	27037.87
476.92	27417.04
477.10	28074.73
477.28	28264.31
477.46	28746.46
477.64	29067.11
477.82	28952.43
478.00	29212.23
478.18	28545.17
478.36	28400.06
478.54	28259.63
478.72	28718.37
478.90	29392.45
479.08	30508.88
479.26	30536.97
479.44	30345.05
479.62	30075.88
479.80	30450.37
479.98	30375.47
480.16	30506.54
480.34	30375.47
480.52	30529.95
480.70	30738.26
480.88	31304.67
481.06	31512.97
481.24	31915.54
481.41	32397.70
481.59	32779.20
481.77	32507.70
481.95	32002.14
482.13	32348.54
482.31	32067.68
482.49	32517.06
482.67	32217.47
482.85	32657.49
483.03	33626.48
483.21	33839.47
483.39	33715.42
483.57	32701.96
483.74	33060.07
483.92	33090.49
484.10	32952.40
484.28	34026.71
484.46	34607.16
484.64	34604.82
484.82	34127.35
485.00	33443.91
485.18	32872.82
485.35	31543.40
485.53	29514.16
485.71	26874.03
485.89	26555.72
486.07	27470.87
486.25	29844.17
486.43	32189.39
486.61	32680.90
486.78	32423.44
486.96	32961.76
487.14	34188.21
487.32	34983.99
487.50	35786.79
487.68	36378.95
487.85	37509.43
488.03	37062.38
488.21	37139.62
488.39	35845.30
488.57	35335.07
488.75	34998.03
488.92	36655.13
489.10	38637.56
489.28	39627.61
489.46	40692.55
489.64	40308.71
489.81	40760.43
489.99	40563.82
490.17	40751.07
490.35	40989.80
490.53	40280.62
490.70	39845.28
490.88	39765.70
491.06	40734.68
491.24	41076.40
491.41	39599.52
491.59	37734.12
491.77	36781.52
491.95	38064.13
492.13	39267.17
492.30	41186.41
492.48	42190.50
492.66	42979.26
492.84	43070.54
493.01	42590.73
493.19	41654.51
493.37	41390.03
493.54	41106.83
493.72	41663.88
493.90	43365.45
494.08	44261.87
494.25	44692.53
494.43	44870.41
494.61	45617.04
494.79	45446.18
494.96	45003.82
495.14	44346.13
495.32	43049.47
495.49	42525.19
495.67	43557.37
495.85	45675.55
496.02	45986.85
496.20	45874.50
496.38	45251.92
496.55	45261.28
496.73	45928.33
496.91	46066.42
497.09	46738.16
497.26	47196.90
497.44	46534.53
497.62	45492.99
497.79	44765.09
497.97	43213.31
498.14	43217.99
498.32	44877.43
498.50	46101.53
498.67	46937.10
498.85	46237.28
499.03	46689.01
499.20	47058.81
499.38	47131.37
499.56	47208.61
499.73	46480.70
499.91	45118.51
500.08	45013.18
500.26	44154.21
500.44	44538.05
500.61	45560.87
500.79	45174.68
500.97	45029.57
501.14	44470.18
501.32	44313.36
501.49	44552.10
501.67	44893.82
501.84	45406.39
502.02	45432.14
502.20	46461.97
502.37	46635.17
502.55	46497.08
502.72	47456.70
502.90	47700.12
503.07	47676.71
503.25	46532.19
503.43	45696.62
503.60	44964.03
503.78	44004.41
503.95	44718.28
504.13	46649.22
504.30	48121.41
504.48	47767.99
504.65	46946.47
504.83	47454.36
505.01	47835.87
505.18	48521.65
505.36	49343.17
505.53	49287.00
505.71	49579.57
505.88	49993.84
506.06	48966.35
506.23	48421.00
506.41	47672.03
506.58	48516.96
506.76	48100.35
506.93	48179.93
507.11	48114.39
507.28	47950.56
507.46	47283.50
507.63	46436.23
507.81	46277.07
507.98	46628.15
508.16	47447.34
508.33	48437.39
508.50	48783.79
508.68	49151.25
508.85	49825.32
509.03	49855.75
509.20	49897.88
509.38	48673.78
509.55	47538.62
509.73	47540.96
509.90	48308.66
510.08	49319.77
510.25	48933.58
510.42	48315.68
510.60	48355.47
510.77	48788.47
510.95	49696.59
511.12	49998.52
511.30	50377.69
511.47	50714.73
511.64	50740.47
511.82	49970.44
511.99	48610.59
512.17	48399.94
512.34	47522.24
512.51	48177.59
512.69	48266.53
512.86	48531.01
513.04	48865.70
513.21	49074.01
513.38	48350.79
513.56	47964.60
513.73	46951.15
513.90	47030.72
514.08	47182.86
514.25	47863.96
514.43	48079.28
514.60	48313.34
514.77	48842.30
514.95	48680.80
515.12	48435.05
515.29	48856.34
515.47	49223.81
515.64	49757.45
515.81	49291.68
515.99	48397.60
516.16	46150.68
516.33	42909.04
516.51	41273.01
516.68	40196.36
516.85	39569.10
517.03	40128.48
517.20	43529.28
517.37	47494.15
517.54	48549.73
517.72	47564.37
517.89	44264.21
518.06	41074.06
518.24	41684.94
518.41	44205.70
518.58	46440.91
518.75	46904.34
518.93	47337.33
519.10	46806.03
519.27	47803.10
519.45	47669.69
519.62	49069.33
519.79	49565.52
519.96	49069.33
520.14	48456.11
520.31	47147.75
520.48	47334.99
520.65	47662.67
520.83	49263.60
521.00	49404.03
521.17	49244.87
521.34	48360.15
521.52	49485.95
521.69	49947.03
521.86	50621.11
522.03	50248.96
522.20	48212.70
522.38	46979.23
522.55	46625.81
522.72	47484.79
522.89	48175.25
523.07	48233.76
523.24	48322.70
523.41	49874.48
523.58	50225.56
523.75	50953.46
523.92	51051.76
524.10	50623.45
524.27	50679.62
524.44	50443.23
524.61	50323.86
524.78	50057.04
524.96	49808.94
525.13	49712.98
525.30	50461.95
525.47	50939.42
525.64	50529.83
525.81	49736.38
525.98	47442.66
526.16	45855.78
526.33	45041.27
526.50	44217.40
526.67	43660.35
526.84	44566.14
527.01	46164.73
527.18	47185.20
527.36	48226.74
527.53	49418.07
527.70	49970.44
527.87	48851.66
528.04	48673.78
528.21	49586.59
528.38	49954.05
528.55	51026.02
528.72	51430.93
528.89	51639.24
529.07	50969.85
529.24	50539.19
529.41	49523.40
529.58	48514.62
529.75	48846.98
529.92	49109.12
530.09	50260.66
530.26	50653.87
530.43	50808.35
530.60	50997.93
530.77	51019.00
530.94	51564.34
531.11	50806.01
531.28	50319.18
531.46	50459.61
531.63	50382.37
531.80	50185.77
531.97	49464.88
532.14	48439.73
532.31	47220.31
532.48	46181.11
532.65	45937.69
532.82	47540.96
532.99	48854.00
533.16	49624.04
533.33	50319.18
533.50	50014.91
533.67	48961.67
533.84	48776.76
534.01	48924.22
534.18	49357.22
534.35	49832.35
534.52	49235.51
534.69	49469.56
534.86	50000.86
535.03	50323.86
535.20	50822.39
535.37	51349.01
535.54	51459.02
535.71	50948.78
535.88	50607.06
536.05	49841.71
536.22	49195.72
536.38	48603.56
536.55	48303.98
536.72	47604.16
536.89	47210.95
537.06	48477.18
537.23	49514.03
537.40	50054.70
537.57	50117.89
537.74	49591.27
537.91	49724.68
538.08	49497.65
538.25	49694.25
538.42	49867.45
538.59	49696.59
538.75	48758.04
538.92	48388.24
539.09	48488.88
539.26	47770.33
539.43	47803.10
539.60	47735.23
539.77	48210.35
539.94	47887.36
540.11	46808.37
540.28	46064.08
540.44	46595.38
540.61	46370.69
540.78	46953.49
540.95	47770.33
541.12	48275.89
541.29	48523.99
541.46	48739.32
541.62	49172.31
541.79	48655.06
541.96	47744.59
542.13	48200.99
542.30	48411.64
542.47	48629.31
542.63	48133.12
542.80	47564.37
542.97	47892.04
543.14	47859.27
543.31	47800.76
543.48	48428.02
543.64	50031.29
543.81	50445.57
543.98	50127.25
544.15	49050.61
544.32	47819.49
544.48	48257.17
544.65	49130.19
544.82	49478.92
544.99	48985.07
545.16	48512.28
545.32	48514.62
545.49	49333.81
545.66	50078.10
545.83	49638.08
546.00	48629.31
546.16	47887.36
546.33	48275.89
546.50	48430.36
546.67	49074.01
546.83	48229.08
547.00	48240.78
547.17	47421.59
547.34	46665.60
547.50	46712.41
547.67	47428.62
547.84	47365.42
548.00	48257.17
548.17	48402.28
548.34	48266.53
548.51	48215.04
548.67	48570.80
548.84	48212.70
549.01	48425.68
549.18	48137.80
549.34	48378.87
549.51	48009.07
549.68	47899.06
549.84	47931.83
550.01	47782.04
550.18	47393.51
550.34	47571.39
550.51	47679.05
550.68	48053.54
550.84	47058.81
551.01	47416.91
551.18	47253.08
551.34	47480.11
551.51	48250.14
551.68	48208.01
551.84	48516.96
552.01	48058.22
552.18	47870.98
552.34	46986.25
552.51	46171.75
552.68	45687.26
552.84	46422.19
553.01	47227.33
553.18	46995.62
553.34	47384.15
553.51	47227.33
553.67	47936.51
553.84	48191.63
554.01	47922.47
554.17	47363.08
554.34	47487.13
554.51	47873.32
554.67	48568.46
554.84	48076.94
555.00	47496.49
555.17	47250.74
555.33	47234.35
555.50	46841.14
555.67	47210.95
555.83	47028.38
556.00	46784.97
556.16	46555.60
556.33	45883.86
556.50	45579.59
556.66	45525.76
556.83	45415.76
556.99	45488.31
557.16	45696.62
557.32	46525.17
557.49	46244.30
557.65	46700.71
557.82	46134.30
557.98	46155.36
558.15	45577.25
558.32	44456.14
558.48	43386.51
558.65	43578.43
558.81	43826.53
558.98	44769.77
559.14	45010.84
559.31	45052.97
559.47	44811.90
559.64	44348.47
559.80	43826.53
559.97	44268.89
560.13	44603.59
560.30	45923.65
560.46	46747.52
560.63	46686.67
560.79	46843.48
560.96	46595.38
561.12	45003.82
561.29	43550.35
561.45	43604.18
561.61	44325.07
561.78	44980.42
561.94	45251.92
562.11	45064.67
562.27	44701.89
562.44	44783.81
562.60	45371.28
562.77	45698.96
562.93	45743.43
563.10	45509.38
563.26	44444.43
563.42	44467.84
563.59	43941.22
563.75	44191.65
563.92	44222.08
564.08	44236.12
564.24	44751.04
564.41	44458.48
564.57	44624.65
564.74	44748.70
564.90	44348.47
565.07	44198.68
565.23	43498.86
565.39	42527.53
565.56	42581.37
565.72	42597.75
565.88	42806.06
566.05	43079.90
566.21	42902.02
566.38	43723.55
566.54	43716.53
566.70	44311.02
566.87	44664.44
567.03	44559.12
567.19	44041.86
567.36	44142.50
567.52	44369.54
567.68	43545.67
567.85	42806.06
568.01	42478.38
568.17	41773.88
568.34	41993.89
568.50	41750.48
568.66	41855.80
568.83	42359.02
568.99	42623.50
569.15	42824.78
569.32	43047.13
569.48	42422.21
569.64	42167.09
569.81	42036.02
569.97	41731.75
570.13	42101.56
570.30	41043.63
570.46	40552.12
570.62	39943.58
570.78	39875.71
570.95	40371.90
571.11	41092.79
571.27	41029.59
571.43	41769.20
571.60	42415.19
571.76	42073.47
571.92	42356.67
572.09	42845.85
572.25	42749.88
572.41	42548.60
572.57	42511.15
572.74	42817.76
572.90	41596.00
573.06	42206.88
573.22	41893.25
573.38	42174.11
573.55	42047.72
573.71	42492.43
573.87	41869.84
574.03	41799.63
574.20	41731.75
574.36	40989.80
574.52	41111.51
574.68	40809.58
574.84	40687.87
575.01	40252.53
575.17	39864.00
575.33	40285.30
575.49	40350.84
575.65	40418.71
575.82	40364.88
575.98	40231.47
576.14	41017.89
576.30	40652.76
576.46	41179.39
576.62	41200.45
576.79	40811.92
576.95	40308.71
577.11	40329.77
577.27	40781.49
577.43	40449.14
577.59	40112.10
577.75	39512.92
577.92	39117.37
578.08	38581.39
578.24	38234.99
578.40	39196.95
578.56	39342.06
578.72	39281.21
578.88	39559.73
579.04	39999.76
579.21	39901.45
579.37	40128.48
579.53	40151.89
579.69	39978.69
579.85	40601.27
580.01	40493.61
580.17	39510.58
580.33	39346.75
580.49	39601.86
580.65	39679.10
580.82	40032.52
580.98	40334.45
581.14	39988.05
581.30	40121.46
581.46	39679.10
581.62	40383.60
581.78	39817.19
581.94	40526.38
582.10	40011.46
582.26	40481.91
582.42	40137.85
582.58	40318.07
582.74	40224.45
582.90	40437.44
583.06	40217.43
583.22	40018.48
583.38	39842.94
583.54	39775.06
583.70	39646.33
583.86	40100.40
584.02	39683.78
584.18	39599.52
584.34	39536.33
584.50	39704.85
584.66	39407.60
584.82	39098.65
584.98	38485.43
585.14	38644.59
585.30	37801.99
585.46	37235.58
585.62	37500.06
585.78	37298.78
