SpectraSuite Data File
++++++++++++++++++++++++++++++++++++
Date: Mon Oct 07 14:53:31 GMT-05:00 2013
User: price-jones
Dark Spectrum Present: No
Reference Spectrum Present: No
Number of Sampled Component Spectra: 1
Spectrometers: USB2+H05261
Integration Time (usec): 100000 (USB2+H05261)
Spectra Averaged: 1 (USB2+H05261)
Boxcar Smoothing: 0 (USB2+H05261)
Correct for Electrical Dark: No (USB2+H05261)
Strobe/Lamp Enabled: No (USB2+H05261)
Correct for Detector Non-linearity: No (USB2+H05261)
Correct for Stray Light: No (USB2+H05261)
Number of Pixels in Processed Spectrum: 2048
>>>>>Begin Processed Spectral Data<<<<<
365.73	0.00
365.92	0.00
366.12	0.00
366.32	0.00
366.52	0.00
366.72	0.00
366.91	0.00
367.11	0.00
367.31	0.00
367.51	0.00
367.70	0.00
367.90	0.00
368.10	0.00
368.30	0.00
368.49	0.00
368.69	0.00
368.89	0.00
369.09	0.00
369.28	0.00
369.48	0.00
369.68	0.00
369.87	0.00
370.07	0.00
370.27	0.00
370.47	613.22
370.66	3080.14
370.86	3611.45
371.06	3990.61
371.25	3955.51
371.45	3417.18
371.65	3194.83
371.84	3026.31
372.04	3077.80
372.24	3620.81
372.44	3684.00
372.63	3599.74
372.83	3316.54
373.03	2878.86
373.22	2810.98
373.42	2874.18
373.62	3311.86
373.81	3585.70
374.01	3700.39
374.21	3295.47
374.40	2949.08
374.60	3166.74
374.79	3599.74
374.99	4044.45
375.19	4524.26
375.38	4388.50
375.58	4273.82
375.78	4294.88
375.97	4175.52
376.17	4353.40
376.37	4269.14
376.56	4484.47
376.76	4615.54
376.95	5071.94
377.15	5453.45
377.35	5593.88
377.54	6038.58
377.74	5984.75
377.93	5968.37
378.13	5542.39
378.33	5504.94
378.52	5238.12
378.72	5067.26
378.91	4821.50
379.11	4730.22
379.31	4655.33
379.50	4465.74
379.70	4856.61
379.89	5465.15
380.09	5722.61
380.28	5877.09
380.48	5893.47
380.68	5827.93
380.87	5678.14
381.07	5170.24
381.26	4779.37
381.46	4550.00
381.65	4428.29
381.85	4156.79
382.04	4107.64
382.24	3838.48
382.43	3590.38
382.63	3581.02
382.83	3508.46
383.02	3480.38
383.22	3562.30
383.41	3543.57
383.61	3866.56
383.80	4376.80
384.00	4947.89
384.19	5481.53
384.39	5865.38
384.58	5935.60
384.78	5813.89
384.97	5659.42
385.17	5327.06
385.36	5238.12
385.56	4830.87
385.75	5083.64
385.95	5689.84
386.14	6106.46
386.34	5998.79
386.53	5753.04
386.72	5371.53
386.92	5528.35
387.11	5748.36
387.31	5966.03
387.50	6015.18
387.70	5584.52
387.89	5640.69
388.09	5619.63
388.28	5652.39
388.48	5919.21
388.67	6312.42
388.86	6796.92
389.06	7609.08
389.25	7786.96
389.45	7709.72
389.64	7719.09
389.84	7620.78
390.03	7440.56
390.22	7428.86
390.42	7854.84
390.61	8297.20
390.81	8997.02
391.00	8945.53
391.19	8975.95
391.39	8540.61
391.58	8266.77
391.78	7770.58
391.97	7360.98
392.16	7108.21
392.36	6321.79
392.55	5277.91
392.75	4180.20
392.94	3267.39
393.13	3358.67
393.33	3850.18
393.52	5029.81
393.71	6033.90
393.91	6792.23
394.10	7360.98
394.29	8180.17
394.49	8854.25
394.68	9516.62
394.88	9657.05
395.07	9860.68
395.26	9626.62
395.46	9338.74
395.65	8872.97
395.84	8067.83
396.04	6712.66
396.23	5331.74
396.42	4517.23
396.62	4259.78
396.81	5107.05
397.00	6506.69
397.19	7887.61
397.39	9537.68
397.58	10569.86
397.77	11538.84
397.97	12006.95
398.16	12133.34
398.35	12528.89
398.55	12634.21
398.74	13310.63
398.93	13420.63
399.12	13198.28
399.32	12690.38
399.51	13006.36
399.70	13900.44
399.90	13764.69
400.09	13921.51
400.28	13872.36
400.47	13832.57
400.67	14754.74
400.86	15070.71
401.05	14853.04
401.24	15159.65
401.44	15321.15
401.63	15662.86
401.82	15433.49
402.01	15204.12
402.21	15330.51
402.40	15576.27
402.59	15363.28
402.78	14586.22
402.97	14043.21
403.17	14663.46
403.36	15206.46
403.55	15892.24
403.74	16313.53
403.93	15405.41
404.13	14211.73
404.32	13947.25
404.51	14902.19
404.70	15850.11
404.89	15946.07
405.09	15580.95
405.28	15049.64
405.47	15236.89
405.66	14972.41
405.85	14841.34
406.05	14377.91
406.24	14375.57
406.43	15005.17
406.62	15714.36
406.81	15894.58
407.00	15185.40
407.20	14766.44
407.39	15164.33
407.58	15653.50
407.77	16449.28
407.96	16706.74
408.15	17142.08
408.34	17106.98
408.54	18181.28
408.73	17947.23
408.92	17706.15
409.11	17455.72
409.30	16521.84
409.49	15527.11
409.68	14403.66
409.87	13935.55
410.07	14743.03
410.26	16156.72
410.45	17245.07
410.64	17802.11
410.83	18312.35
411.02	18237.45
411.21	19187.71
411.40	18764.07
411.59	19080.05
411.78	18991.11
411.98	18508.96
412.17	18794.50
412.36	18743.01
412.55	18417.68
412.74	18331.08
412.93	17968.29
413.12	17563.38
413.31	19524.75
413.50	19814.98
413.69	20126.27
413.88	19241.54
414.07	18817.91
414.26	19000.47
414.45	19873.49
414.64	19936.68
414.83	20184.78
415.02	19531.77
415.22	19520.07
415.41	20243.29
415.60	20507.77
415.79	21357.39
415.98	21916.78
416.17	22160.19
416.36	21415.90
416.55	21036.74
416.74	20528.84
416.93	19719.01
417.12	19569.22
417.31	19864.13
417.50	20503.09
417.69	20922.05
417.88	21226.32
418.07	20741.83
418.26	20379.04
418.45	20596.71
418.64	21226.32
418.83	22169.55
419.02	22054.87
419.21	21621.87
419.39	20608.42
419.58	19658.16
419.77	19646.46
419.96	20683.31
420.15	21685.06
420.34	22207.00
420.53	22904.48
420.72	23344.50
420.91	23426.42
421.10	23159.60
421.29	22897.46
421.48	22038.48
421.67	23253.22
421.86	22773.41
422.05	21043.76
422.24	19042.60
422.43	18527.68
422.61	20414.15
422.80	22422.33
422.99	22342.75
423.18	21570.38
423.37	21315.26
423.56	21198.23
423.75	21336.32
423.94	22181.26
424.13	20634.16
424.32	20802.68
424.50	21039.08
424.69	20624.80
424.88	20989.92
425.07	20968.86
425.26	20704.38
425.45	20725.44
425.64	20086.48
425.83	20123.93
426.01	21656.98
426.20	22092.32
426.39	21830.18
426.58	20343.94
426.77	18841.31
426.96	18176.60
427.15	18541.72
427.33	20027.96
427.52	21256.75
427.71	21076.52
427.90	20933.75
428.09	20587.35
428.28	20397.77
428.46	19735.40
428.65	19307.08
428.84	19737.74
429.03	20161.37
429.22	19206.44
429.40	18335.76
429.59	16435.24
429.78	14267.91
429.97	14511.32
430.16	14897.51
430.34	14736.01
430.53	14633.03
430.72	15117.52
430.91	16805.05
431.10	19548.15
431.28	22785.12
431.47	25003.94
431.66	25387.79
431.85	23159.60
432.03	21326.96
432.22	20367.34
432.41	20842.47
432.60	23206.41
432.79	24514.77
432.97	24940.75
433.16	24034.96
433.35	22270.20
433.54	20105.20
433.72	18794.50
433.91	19314.10
434.10	21720.17
434.28	23164.28
434.47	24224.54
434.66	23805.59
434.85	23276.63
435.03	23145.56
435.22	23796.23
435.41	25359.70
435.59	25556.31
435.78	25523.54
435.97	26438.69
436.16	26513.59
436.34	25764.62
436.53	25591.42
436.72	25731.85
436.90	24353.27
437.09	24215.18
437.28	23506.00
437.46	24556.90
437.65	24350.93
437.84	22824.90
438.02	21223.98
438.21	20500.75
438.40	22071.25
438.58	24170.71
438.77	24657.54
438.96	24636.48
439.14	25759.94
439.33	26291.24
439.52	26520.61
439.70	26024.42
439.89	25736.53
440.08	25013.31
440.26	24943.09
440.45	25605.46
440.63	27496.61
440.82	29200.52
441.01	28905.62
441.19	28390.70
441.38	28479.64
441.57	29790.34
441.75	30457.39
441.94	30382.49
442.12	29935.45
442.31	30373.13
442.50	30221.00
442.68	30096.95
442.87	29633.52
443.05	29207.55
443.24	29888.64
443.43	30632.93
443.61	30824.86
443.80	31737.66
443.98	29474.37
444.17	29670.97
444.35	31349.14
444.54	31864.05
444.73	31220.41
444.91	29951.84
445.10	28828.38
445.28	27524.70
445.47	27344.48
445.65	27700.24
445.84	28180.05
446.02	28837.74
446.21	29600.76
446.39	29500.11
446.58	30630.59
446.77	30719.53
446.95	30829.54
447.14	31632.34
447.32	32297.05
447.51	31232.11
447.69	30466.75
447.88	29972.90
448.06	30359.09
448.25	31370.20
448.43	31405.31
448.62	30965.29
448.80	30508.88
448.99	30941.88
449.17	31346.79
449.36	30998.06
449.54	32229.18
449.73	32594.30
449.91	33048.36
450.10	34265.44
450.28	34792.06
450.46	34223.31
450.65	33940.11
450.83	34267.78
451.02	33347.95
451.20	33235.61
451.39	33256.67
451.57	32828.35
451.76	33287.10
451.94	32924.32
452.13	31985.76
452.31	30749.96
452.49	29219.25
452.68	29577.35
452.86	29757.57
453.05	30284.19
453.23	31180.62
453.42	31417.01
453.60	32657.49
453.78	32938.36
453.97	32472.59
454.15	32381.31
454.34	31555.10
454.52	31653.40
454.70	31164.23
454.89	31527.02
455.07	31552.76
455.26	31999.80
455.44	33081.13
455.62	33888.62
455.81	33596.05
455.99	33464.98
456.17	33553.92
456.36	33610.09
456.54	34450.35
456.73	34263.10
456.91	35147.82
457.09	35360.81
457.28	36339.16
457.46	34565.03
457.64	34483.11
457.83	33209.86
458.01	32575.58
458.19	33752.87
458.38	33385.40
458.56	34838.87
458.74	34129.69
458.93	33778.61
459.11	34043.09
459.29	33450.94
459.48	33823.08
459.66	33287.10
459.84	34099.26
460.03	34232.68
460.21	34176.50
460.39	35299.96
460.57	35419.33
460.76	35377.20
460.94	35426.35
461.12	34998.03
461.31	35302.30
461.49	35213.36
461.67	35012.07
461.85	36144.89
462.04	36196.38
462.22	36825.99
462.40	36016.16
462.59	35985.74
462.77	35814.88
462.95	35728.28
463.13	35798.49
463.32	35302.30
463.50	35117.40
463.68	35117.40
463.86	35765.73
464.05	34937.18
464.23	34110.97
464.41	33621.80
464.59	33340.93
464.78	35222.72
464.96	35047.18
465.14	34504.18
465.32	35409.96
465.50	36212.77
465.69	36692.58
465.87	35576.14
466.05	34895.05
466.23	33507.11
466.41	32404.72
466.60	33106.88
466.78	33572.64
466.96	34504.18
467.14	34536.94
467.32	35028.46
467.51	35367.84
467.69	33762.23
467.87	34340.34
468.05	34881.00
468.23	34728.87
468.41	35033.14
468.60	34937.18
468.78	35463.80
468.96	34749.93
469.14	35442.73
469.32	35831.26
469.50	34375.45
469.69	34483.11
469.87	34052.45
470.05	33734.14
470.23	33549.24
470.41	34031.39
470.59	34419.92
470.77	34925.47
470.95	35435.71
471.14	35847.64
471.32	36123.83
471.50	37811.35
471.68	38155.41
471.86	38036.05
472.04	38068.81
472.22	38644.59
472.40	36858.76
472.58	36172.98
472.77	35789.13
472.95	36404.69
473.13	37551.56
473.31	36596.62
473.49	36737.05
473.67	37722.41
473.85	37530.49
474.03	38628.20
474.21	39164.18
474.39	39580.80
474.57	39545.69
474.75	38972.26
474.93	38796.72
475.12	37998.60
475.30	38321.59
475.48	38529.90
475.66	39255.46
475.84	38375.42
476.02	38192.86
476.20	37530.49
476.38	38150.73
476.56	39321.00
476.74	39868.69
476.92	40215.08
477.10	40870.43
477.28	41640.47
477.46	41570.25
477.64	42251.35
477.82	41991.55
478.00	42569.66
478.18	42143.69
478.36	41879.21
478.54	41610.04
478.72	42096.88
478.90	42841.17
479.08	43597.16
479.26	45013.18
479.44	44172.93
479.62	43969.30
479.80	43821.85
479.98	44673.81
480.16	44425.71
480.34	44243.15
480.52	44561.46
480.70	44729.98
480.88	44800.19
481.06	46071.10
481.24	45979.82
481.41	46965.19
481.59	47536.28
481.77	47260.10
481.95	46642.20
482.13	46438.57
482.31	46461.97
482.49	47084.56
482.67	46789.65
482.85	47222.65
483.03	47952.90
483.21	48011.41
483.39	48182.27
483.57	47281.16
483.74	47325.63
483.92	47327.97
484.10	47861.61
484.28	48531.01
484.46	48999.12
484.64	49216.78
484.82	48334.40
485.00	47798.42
485.18	47641.60
485.35	45808.96
485.53	42705.41
485.71	39477.82
485.89	38710.12
486.07	40636.38
486.25	44067.61
486.43	46131.96
486.61	47157.11
486.78	47124.35
486.96	46913.70
487.14	48509.94
487.32	49544.46
487.50	50389.39
487.68	51526.89
487.85	51955.21
488.03	51840.53
488.21	51569.02
488.39	50894.95
488.57	50075.76
488.75	49956.39
488.92	50784.94
489.10	53041.22
489.28	53928.28
489.46	54660.87
489.64	54735.77
489.81	54876.20
489.99	54284.04
490.17	54541.50
490.35	55145.36
490.53	54461.93
490.70	53837.00
490.88	53986.80
491.06	54974.50
491.24	54925.35
491.41	53970.41
491.59	52399.91
491.77	51409.87
491.95	52648.01
492.13	53736.36
492.30	54747.47
492.48	55749.22
492.66	56240.73
492.84	56020.72
493.01	56102.64
493.19	55311.54
493.37	55084.51
493.54	54908.97
493.72	55480.06
493.90	56413.93
494.08	57195.67
494.25	57340.78
494.43	57532.71
494.61	57886.13
494.79	58033.58
494.96	57607.61
495.14	57270.57
495.32	56303.93
495.49	55784.33
495.67	56573.09
495.85	57949.32
496.02	58356.58
496.20	58377.64
496.38	57890.81
496.55	57535.05
496.73	58176.36
496.91	58080.39
497.09	58660.85
497.26	58787.24
497.44	58450.20
497.62	57911.88
497.79	57167.58
497.97	56175.20
498.14	56060.51
498.32	57315.04
498.50	58017.20
498.67	58763.83
498.85	58574.25
499.03	58855.11
499.20	59030.65
499.38	59040.01
499.56	58794.26
499.73	58274.66
499.91	57872.09
500.08	57581.86
500.26	56725.22
500.44	57221.42
500.61	57844.00
500.79	57844.00
500.97	57471.85
501.14	57235.46
501.32	57375.89
501.49	57233.12
501.67	57453.13
501.84	57790.17
502.02	58024.22
502.20	58401.05
502.37	58567.23
502.55	58775.53
502.72	59016.61
502.90	59468.33
503.07	59344.28
503.25	58808.30
503.43	58131.89
503.60	57633.35
503.78	56907.79
503.95	57162.90
504.13	58501.69
504.30	59274.07
504.48	59353.65
504.65	58745.11
504.83	58848.09
505.01	59421.52
505.18	59571.32
505.36	60299.22
505.53	60392.84
505.71	60336.67
505.88	60505.19
506.06	59945.80
506.23	59803.03
506.41	59430.88
506.58	59597.06
506.76	59657.91
506.93	59859.20
507.11	59330.24
507.28	59416.84
507.46	59290.45
507.63	58391.68
507.81	58244.23
507.98	58518.07
508.16	59302.15
508.33	59779.62
508.50	59964.52
508.68	60233.69
508.85	60732.22
509.03	60640.94
509.20	60603.49
509.38	59887.29
509.55	59267.05
509.73	59236.62
509.90	59688.34
510.08	60158.79
510.25	59854.52
510.42	59840.48
510.60	59664.94
510.77	59943.46
510.95	60383.48
511.12	60657.32
511.30	60839.89
511.47	61200.33
511.64	60872.65
511.82	60830.52
511.99	60004.31
512.17	59664.94
512.34	59367.69
512.51	59309.18
512.69	59494.08
512.86	59693.02
513.04	60062.83
513.21	60023.04
513.38	59674.30
513.56	59302.15
513.73	58880.86
513.90	58974.48
514.08	59004.91
514.25	59203.85
514.43	59573.66
514.60	59695.36
514.77	59803.03
514.95	59891.97
515.12	59707.07
515.29	59931.76
515.47	60409.23
515.64	60502.85
515.81	60072.19
515.99	59730.47
516.16	58267.64
516.33	56287.54
516.51	54892.58
516.68	53932.96
516.85	53727.00
517.03	53911.90
517.20	56549.68
517.37	58745.11
517.54	59618.13
517.72	59405.14
517.89	56961.62
518.06	55037.70
518.24	54944.08
518.41	57219.08
518.58	58543.82
518.75	58745.11
518.93	58717.02
519.10	58946.39
519.27	59157.04
519.45	59309.18
519.62	60004.31
519.79	60292.20
519.96	60081.55
520.14	59728.13
520.31	59018.95
520.48	58997.88
520.65	59255.34
520.83	60032.40
521.00	60498.17
521.17	60109.64
521.34	59931.76
521.52	60032.40
521.69	60516.89
521.86	61020.11
522.03	60720.52
522.20	59866.22
522.38	58422.11
522.55	58473.60
522.72	59292.79
522.89	59526.84
523.07	59529.19
523.24	59798.35
523.41	60481.78
523.58	61010.74
523.75	61401.61
523.92	61113.73
524.10	61144.16
524.27	61024.79
524.44	60816.48
524.61	60851.59
524.78	60479.44
524.96	60376.46
525.13	60783.71
525.30	60526.25
525.47	61165.22
525.64	61001.38
525.81	60343.69
525.98	59250.66
526.16	57829.96
526.33	57043.54
526.50	56580.11
526.67	56243.07
526.84	56767.35
527.01	58024.22
527.18	58625.74
527.36	59700.04
527.53	60437.31
527.70	60514.55
527.87	60051.12
528.04	59526.84
528.21	60093.25
528.38	60968.61
528.55	61275.22
528.72	61511.62
528.89	61663.75
529.07	61392.25
529.24	60846.91
529.41	60224.32
529.58	59662.60
529.75	59994.95
529.92	60058.15
530.09	60547.32
530.26	61230.75
530.43	61254.16
530.60	61202.67
530.77	61694.18
530.94	61588.86
531.11	61190.97
531.28	60800.10
531.46	60736.90
531.63	60713.50
531.80	60725.20
531.97	60381.14
532.14	59620.47
532.31	58937.03
532.48	58183.38
532.65	57942.30
532.82	58831.71
532.99	59863.88
533.16	60420.93
533.33	60914.78
533.50	60699.45
533.67	60163.47
533.84	59540.89
534.01	59868.56
534.18	60053.47
534.35	60252.41
534.52	60067.51
534.69	60041.76
534.86	60601.15
535.03	60715.84
535.20	61174.58
535.37	61642.69
535.54	61460.13
535.71	61216.71
535.88	60945.21
536.05	60172.83
536.22	59910.69
536.38	59613.44
536.55	59379.39
536.72	58990.86
536.89	58981.50
537.06	59231.94
537.23	60170.49
537.40	60591.79
537.57	60612.85
537.74	60320.29
537.91	60324.97
538.08	60294.54
538.25	60207.94
538.42	60430.29
538.59	60018.36
538.75	59625.15
538.92	59519.82
539.09	59168.74
539.26	59161.72
539.43	58873.84
539.60	59238.96
539.77	59217.89
539.94	59049.38
540.11	58370.62
540.28	57773.78
540.44	58000.82
540.61	58312.11
540.78	58515.73
540.95	58944.05
541.12	59316.20
541.29	59454.29
541.46	59826.43
541.62	59819.41
541.79	59526.84
541.96	59199.17
542.13	58930.01
542.30	59482.37
542.47	59526.84
542.63	59461.31
542.80	59138.32
542.97	59143.00
543.14	58939.37
543.31	59077.46
543.48	59458.97
543.64	60474.76
543.81	60748.60
543.98	60346.03
544.15	59884.95
544.32	59360.67
544.48	59255.34
544.65	59690.68
544.82	59997.29
544.99	59643.87
545.16	59508.12
545.32	59035.33
545.49	60086.23
545.66	60226.66
545.83	59945.80
546.00	59702.38
546.16	59379.39
546.33	59217.89
546.50	59578.34
546.67	59739.83
546.83	59248.32
547.00	59421.52
547.17	58602.33
547.34	58174.02
547.50	58174.02
547.67	58595.31
547.84	58906.60
548.00	58983.84
548.17	59419.18
548.34	59440.24
548.51	59433.22
548.67	59386.41
548.84	59496.42
549.01	59454.29
549.18	59283.43
549.34	59292.79
549.51	59117.25
549.68	59302.15
549.84	58897.24
550.01	58688.93
550.18	58848.09
550.34	58843.41
550.51	59000.22
550.68	59182.79
550.84	58492.33
551.01	58623.40
551.18	58684.25
551.34	59028.31
551.51	59032.99
551.68	59348.96
551.84	59257.68
552.01	59150.02
552.18	59121.93
552.34	58396.37
552.51	58080.39
552.68	57794.85
552.84	58436.16
553.01	58693.61
553.18	58527.44
553.34	58578.93
553.51	58628.08
553.67	58913.62
553.84	59152.36
554.01	59091.51
554.17	58817.66
554.34	58850.43
554.51	59058.74
554.67	59501.10
554.84	59131.29
555.00	58883.20
555.17	58614.04
555.33	58506.37
555.50	58569.57
555.67	58513.39
555.83	58330.83
556.00	58223.17
556.16	58129.54
556.33	57741.02
556.50	57626.33
556.66	57731.65
556.83	57570.16
556.99	57286.95
557.16	57719.95
557.32	58087.42
557.49	58298.06
557.65	58038.26
557.82	58101.46
557.98	57776.12
558.15	57345.47
558.32	56830.55
558.48	56165.84
558.65	55969.23
558.81	56582.45
558.98	56877.36
559.14	56886.72
559.31	57064.60
559.47	57282.27
559.64	56835.23
559.80	56442.02
559.97	56432.66
560.13	56860.97
560.30	57710.59
560.46	58143.59
560.63	58251.25
560.79	58438.50
560.96	58155.29
561.12	56926.51
561.29	56353.08
561.45	56200.94
561.61	56772.03
561.78	57076.30
561.94	57057.58
562.11	57066.94
562.27	57064.60
562.44	57148.86
562.60	57352.49
562.77	57553.77
562.93	57633.35
563.10	57389.94
563.26	56797.78
563.42	57088.01
563.59	56519.26
563.75	56659.69
563.92	56992.04
564.08	56533.30
564.24	56945.23
564.41	57015.45
564.57	56924.17
564.74	56797.78
564.90	56776.72
565.07	56619.90
565.23	56044.13
565.39	55793.69
565.56	55337.29
565.72	55348.99
565.88	55660.28
566.05	55671.98
566.21	55910.72
566.38	56161.15
566.54	55957.53
566.70	56313.29
566.87	56814.16
567.03	56662.03
567.19	56769.69
567.36	56779.06
567.52	56769.69
567.68	56207.97
567.85	55615.81
568.01	55131.32
568.17	54700.66
568.34	54770.88
568.50	54777.90
568.66	54988.55
568.83	55386.44
568.99	55592.40
569.15	55545.59
569.32	55590.06
569.48	55428.57
569.64	55105.57
569.81	54794.28
569.97	54843.43
570.13	54827.05
570.30	54401.07
570.46	53661.46
570.62	53394.64
570.78	53085.69
570.95	53504.65
571.11	54534.48
571.27	54719.38
571.43	54993.23
571.60	54810.67
571.76	54988.55
571.92	55372.39
572.09	55714.11
572.25	55517.51
572.41	55327.92
572.57	55295.16
572.74	55325.58
572.90	55035.36
573.06	54798.96
573.22	54981.52
573.38	54983.86
573.55	54892.58
573.71	55189.83
573.87	54948.76
574.03	54738.11
574.20	54876.20
574.36	54333.20
574.52	54185.74
574.68	54117.87
574.84	53991.48
575.01	53265.91
575.17	53532.73
575.33	53450.81
575.49	53982.12
575.65	54115.53
575.82	53820.62
575.98	53727.00
576.14	53607.63
576.30	54515.76
576.46	54113.19
576.62	54092.12
576.79	54038.29
576.95	53719.98
577.11	53553.80
577.27	53785.51
577.43	53649.76
577.59	53427.41
577.75	53242.51
577.92	52657.37
578.08	52362.46
578.24	52229.05
578.40	52741.63
578.56	52956.96
578.72	53092.71
578.88	53130.16
579.04	53193.36
579.21	53483.58
579.37	53514.01
579.53	53535.07
579.69	53420.39
579.85	53647.42
580.01	53577.20
580.17	53069.31
580.33	52996.75
580.49	52935.90
580.65	53345.49
580.82	53645.08
580.98	53221.44
581.14	53453.15
581.30	53333.79
581.46	53265.91
581.62	53448.47
581.78	53574.86
581.94	53668.48
582.10	53652.10
582.26	53516.35
582.42	53680.19
582.58	53532.73
582.74	53525.71
582.90	53698.91
583.06	53773.81
583.22	53205.06
583.38	53429.75
583.54	53261.23
583.70	52884.40
583.86	53132.50
584.02	53191.01
584.18	53275.27
584.34	52992.07
584.50	52903.13
584.66	52769.72
584.82	52570.77
584.98	52395.23
585.14	52002.02
585.30	51100.92
