SpectraSuite Data File
++++++++++++++++++++++++++++++++++++
Date: Mon Oct 07 14:53:32 GMT-05:00 2013
User: price-jones
Dark Spectrum Present: No
Reference Spectrum Present: No
Number of Sampled Component Spectra: 1
Spectrometers: USB2+H05261
Integration Time (usec): 100000 (USB2+H05261)
Spectra Averaged: 1 (USB2+H05261)
Boxcar Smoothing: 0 (USB2+H05261)
Correct for Electrical Dark: No (USB2+H05261)
Strobe/Lamp Enabled: No (USB2+H05261)
Correct for Detector Non-linearity: No (USB2+H05261)
Correct for Stray Light: No (USB2+H05261)
Number of Pixels in Processed Spectrum: 2048
>>>>>Begin Processed Spectral Data<<<<<
365.73	0.00
365.92	0.00
366.12	0.00
366.32	0.00
366.52	0.00
366.72	0.00
366.91	0.00
367.11	0.00
367.31	0.00
367.51	0.00
367.70	0.00
367.90	0.00
368.10	0.00
368.30	0.00
368.49	0.00
368.69	0.00
368.89	0.00
369.09	0.00
369.28	0.00
369.48	0.00
369.68	0.00
369.87	0.00
370.07	0.00
370.27	0.00
370.47	622.58
370.66	3005.25
370.86	3644.21
371.06	3758.90
371.25	3974.23
371.45	3599.74
371.65	3302.50
371.84	3122.27
372.04	3094.19
372.24	3599.74
372.44	3777.62
372.63	3747.20
372.83	3463.99
373.03	3023.97
373.22	2712.68
373.42	2918.65
373.62	3321.22
373.81	3676.98
374.01	3726.13
374.21	3426.54
374.40	2981.84
374.60	3066.10
374.79	3550.59
374.99	4224.67
375.19	4596.81
375.38	4631.92
375.58	4365.10
375.78	4159.13
375.97	4255.09
376.17	4432.97
376.37	4444.68
376.56	4540.64
376.76	4650.64
376.95	5064.92
377.15	5172.58
377.35	5715.59
377.54	5657.07
377.74	6073.69
377.93	6164.97
378.13	5919.21
378.33	5650.05
378.52	5184.29
378.72	4819.16
378.91	4812.14
379.11	4688.09
379.31	4634.26
379.50	4533.62
379.70	4987.68
379.89	5427.70
380.09	5675.80
380.28	5963.68
380.48	5834.96
380.68	5907.51
380.87	5729.63
381.07	5252.16
381.26	4884.70
381.46	4484.47
381.65	4353.40
381.85	4308.93
382.04	4133.39
382.24	3911.04
382.43	3798.69
382.63	3543.57
382.83	3597.40
383.02	3503.78
383.22	3508.46
383.41	3461.65
383.61	3779.97
383.80	4344.03
384.00	5100.03
384.19	5731.97
384.39	6033.90
384.58	5940.28
384.78	5628.99
384.97	5610.26
385.17	5313.02
385.36	5266.21
385.56	4947.89
385.75	5163.22
385.95	5563.45
386.14	6036.24
386.34	6143.91
386.53	5856.02
386.72	5355.15
386.92	5439.40
387.11	5760.06
387.31	6017.52
387.50	5930.92
387.70	5858.36
387.89	5715.59
388.09	5636.01
388.28	5703.89
388.48	5804.53
388.67	6080.71
388.86	6904.58
389.06	7337.58
389.25	7784.62
389.45	8013.99
389.64	7948.46
389.84	7843.14
390.03	7592.70
390.22	7719.09
390.42	7700.36
390.61	8313.58
390.81	8858.93
391.00	8999.36
391.19	9104.68
391.39	8760.63
391.58	8416.57
391.78	7698.02
391.97	7253.32
392.16	7019.27
392.36	6534.78
392.55	4952.57
392.75	4114.66
392.94	3328.24
393.13	3190.15
393.33	3840.82
393.52	5006.41
393.71	6246.89
393.91	6815.64
394.10	7276.73
394.29	8131.02
394.49	8737.22
394.68	9483.85
394.88	9420.66
395.07	10029.20
395.26	9743.65
395.46	9544.70
395.65	8933.82
395.84	7929.74
396.04	6654.14
396.23	5427.70
396.42	4484.47
396.62	4327.65
396.81	5097.69
397.00	6541.80
397.19	7873.56
397.39	9554.07
397.58	10635.39
397.77	11449.90
397.97	12035.03
398.16	12100.57
398.35	12549.95
398.55	12945.50
398.74	13399.57
398.93	13741.29
399.12	13481.49
399.32	12884.65
399.51	13238.07
399.70	14099.39
399.90	14068.96
400.09	14106.41
400.28	13907.46
400.47	13944.91
400.67	14792.19
400.86	14977.09
401.05	15241.57
401.24	15117.52
401.44	15424.13
401.63	15297.74
401.82	15391.36
402.01	15435.83
402.21	15407.75
402.40	15728.40
402.59	15424.13
402.78	14441.11
402.97	14230.46
403.17	14626.01
403.36	15384.34
403.55	16170.76
403.74	16582.70
403.93	15676.91
404.13	14677.50
404.32	14281.95
404.51	14902.19
404.70	16020.97
404.89	15793.94
405.09	15829.04
405.28	15222.84
405.47	15236.89
405.66	15115.18
405.85	14918.57
406.05	14387.27
406.24	14796.87
406.43	15033.26
406.62	15789.25
406.81	15920.32
407.00	15300.08
407.20	15030.92
407.39	15094.11
407.58	15967.13
407.77	16493.76
407.96	16989.95
408.15	17198.26
408.34	17146.76
408.54	17830.20
408.73	18047.87
408.92	17771.69
409.11	17216.98
409.30	16322.90
409.49	15576.27
409.68	14700.90
409.87	14036.19
410.07	15012.20
410.26	16091.18
410.45	17198.26
410.64	17809.14
410.83	18174.26
411.02	18565.13
411.21	19073.03
411.40	19068.34
411.59	19157.28
411.78	18874.08
411.98	18679.82
412.17	19293.04
412.36	18410.65
412.55	18958.34
412.74	18232.77
412.93	18033.83
413.12	17823.18
413.31	19697.95
413.50	20079.46
413.69	20245.63
413.88	19709.65
414.07	19014.51
414.26	19407.72
414.45	19838.38
414.64	20257.34
414.83	20063.07
415.02	19665.18
415.22	19494.32
415.41	20198.82
415.60	20772.25
415.79	21532.93
415.98	21956.57
416.17	22150.83
416.36	21467.39
416.55	21343.35
416.74	20610.76
416.93	19442.83
417.12	19997.54
417.31	20198.82
417.50	20535.86
417.69	21064.82
417.88	21034.39
418.07	20917.37
418.26	20596.71
418.45	20580.33
418.64	21514.20
418.83	22211.68
419.02	22010.40
419.21	21757.62
419.39	20486.71
419.58	19431.13
419.77	20056.05
419.96	20720.76
420.15	21942.52
420.34	22326.37
420.53	23548.13
420.72	24011.56
420.91	23665.16
421.10	23073.00
421.29	23044.91
421.48	22108.70
421.67	23428.76
421.86	22738.30
422.05	21523.57
422.24	19183.03
422.43	18494.91
422.61	20732.47
422.80	22555.74
422.99	22625.96
423.18	21947.20
423.37	21111.63
423.56	21331.64
423.75	21699.11
423.94	22146.15
424.13	20709.06
424.32	21233.34
424.50	21172.49
424.69	20788.64
424.88	20989.92
425.07	21146.74
425.26	21135.04
425.45	20987.58
425.64	20795.66
425.83	20262.02
426.01	21149.08
426.20	22001.04
426.39	21853.58
426.58	20500.75
426.77	18588.53
426.96	18443.42
427.15	18792.16
427.33	20109.88
427.52	21188.87
427.71	21280.15
427.90	20856.51
428.09	20709.06
428.28	20112.22
428.46	19779.87
428.65	19440.49
428.84	19695.61
429.03	20414.15
429.22	19026.21
429.40	18420.02
429.59	16498.44
429.78	14794.53
429.97	14862.40
430.16	15140.93
430.34	15030.92
430.53	14930.28
430.72	15185.40
430.91	16741.85
431.10	19763.48
431.28	23445.15
431.47	25207.57
431.66	25785.68
431.85	23363.23
432.03	21483.78
432.22	20278.40
432.41	21376.11
432.60	23384.29
432.79	24283.06
432.97	24851.81
433.16	24676.27
433.35	22167.21
433.54	20210.53
433.72	19126.86
433.91	19227.50
434.10	21532.93
434.28	23342.16
434.47	24467.96
434.66	24343.91
434.85	23328.12
435.03	23513.02
435.22	24011.56
435.41	25448.64
435.59	25434.60
435.78	25617.16
435.97	26684.45
436.16	26693.81
436.34	26504.23
436.53	25781.00
436.72	25872.28
436.90	24393.06
437.09	24250.29
437.28	23962.40
437.46	24748.82
437.65	24680.95
437.84	23260.24
438.02	20769.91
438.21	20760.55
438.40	22366.16
438.58	24056.03
438.77	24793.29
438.96	24982.88
439.14	25933.14
439.33	26426.99
439.52	26780.41
439.70	26607.21
439.89	25699.08
440.08	24971.18
440.26	25223.95
440.45	25862.92
440.63	27548.11
440.82	29226.27
441.01	28568.58
441.19	28615.39
441.38	29069.45
441.57	29500.11
441.75	30345.05
441.94	30553.35
442.12	29865.24
442.31	30946.56
442.50	30635.27
442.68	30066.52
442.87	29776.30
443.05	29186.48
443.24	30225.68
443.43	30328.66
443.61	31384.24
443.80	31332.75
443.98	29457.98
444.17	29715.44
444.35	31241.47
444.54	32409.40
444.73	31498.93
444.91	30548.67
445.10	29090.52
445.28	28063.02
445.47	27641.73
445.65	27583.21
445.84	28397.72
446.02	29345.64
446.21	29717.78
446.39	29717.78
446.58	30438.67
446.77	30881.03
446.95	30904.43
447.14	31906.18
447.32	32446.85
447.51	31716.60
447.69	30408.24
447.88	30321.64
448.06	30459.73
448.25	31578.51
448.43	31592.55
448.62	30602.50
448.80	30822.51
448.99	31056.57
449.17	31681.49
449.36	31105.72
449.54	32561.53
449.73	32828.35
449.91	33198.16
450.10	34157.78
450.28	34391.83
450.46	34506.52
450.65	34403.53
450.83	34436.30
451.02	33823.08
451.20	33434.55
451.39	33364.34
451.57	33146.67
451.76	33205.18
451.94	32556.85
452.13	32346.20
452.31	31515.31
452.49	29521.18
452.68	29778.64
452.86	29734.17
453.05	30125.04
453.23	30827.20
453.42	32044.27
453.60	32451.53
453.78	32823.67
453.97	32339.18
454.15	32730.05
454.34	31824.26
454.52	32201.09
454.70	31466.16
454.89	31754.05
455.07	32072.36
455.26	32397.70
455.44	33542.22
455.62	33928.41
455.81	34356.72
455.99	34150.76
456.17	33720.10
456.36	34017.35
456.54	34607.16
456.73	34562.69
456.91	35154.85
457.09	35627.63
457.28	35873.39
457.46	34857.60
457.64	34480.77
457.83	33156.03
458.01	32769.84
458.19	33441.57
458.38	33841.81
458.56	34902.07
458.74	34553.33
458.93	33977.56
459.11	33598.39
459.29	33687.33
459.48	33825.42
459.66	33598.39
459.84	34749.93
460.03	34710.14
460.21	34719.51
460.39	35227.40
460.57	35894.46
460.76	35901.48
460.94	35903.82
461.12	35578.48
461.31	35651.04
461.49	35578.48
461.67	35480.18
461.85	36825.99
462.04	36388.31
462.22	36790.88
462.40	36261.92
462.59	36037.23
462.77	36610.66
462.95	36416.40
463.13	35885.09
463.32	35618.27
463.50	35421.67
463.68	35475.50
463.86	35316.34
464.05	34656.31
464.23	34490.13
464.41	34309.91
464.59	33511.79
464.78	35126.76
464.96	34934.84
465.14	34433.96
465.32	35480.18
465.50	36500.65
465.69	36662.15
465.87	36032.55
466.05	34820.15
466.23	33738.82
466.41	32760.48
466.60	33582.01
466.78	33755.21
466.96	33897.98
467.14	34703.12
467.32	35583.16
467.51	35353.79
467.69	33834.78
467.87	34199.91
468.05	35332.73
468.23	34906.75
468.41	35072.93
468.60	35346.77
468.78	35814.88
468.96	35129.10
469.14	35969.35
469.32	35704.87
469.50	34412.90
469.69	35044.84
469.87	34679.72
470.05	34366.09
470.23	34345.02
470.41	34225.65
470.59	34752.27
470.77	35063.57
470.95	35496.56
471.14	36428.10
471.32	35992.76
471.50	37954.13
471.68	38639.90
471.86	38670.33
472.04	38705.44
472.22	38480.75
472.40	36514.70
472.58	36421.08
472.77	35637.00
472.95	36624.70
473.13	37762.20
473.31	36243.20
473.49	37230.90
473.67	37766.88
473.85	37649.86
474.03	39225.04
474.21	38902.04
474.39	39213.34
474.57	39388.88
474.75	39578.46
474.93	39468.45
475.12	37965.83
475.30	38401.17
475.48	38667.99
475.66	39126.74
475.84	38492.45
476.02	38321.59
476.20	37823.06
476.38	38038.39
476.56	39632.29
476.74	40418.71
476.92	40313.39
477.10	41406.42
477.28	41481.31
477.46	42129.64
477.64	42665.63
477.82	42859.89
478.00	42677.33
478.18	41790.27
478.36	42099.22
478.54	41827.71
478.72	42005.59
478.90	42895.00
479.08	44135.48
479.26	44767.43
479.44	44671.46
479.62	44694.87
479.80	44444.43
479.98	44917.22
480.16	44811.90
480.34	44797.85
480.52	44711.25
480.70	45270.64
480.88	44921.90
481.06	45949.40
481.24	46373.03
481.41	46918.38
481.59	47344.36
481.77	47592.45
481.95	46611.77
482.13	46796.67
482.31	46848.16
482.49	47765.65
482.67	47222.65
482.85	47442.66
483.03	48100.35
483.21	48339.08
483.39	48406.96
483.57	47641.60
483.74	47320.95
483.92	47536.28
484.10	47318.61
484.28	48854.00
484.46	49535.10
484.64	49825.32
484.82	48554.41
485.00	48318.02
485.18	47681.39
485.35	46450.27
485.53	42909.04
485.71	39445.05
485.89	39070.56
486.07	40589.57
486.25	44201.02
486.43	46527.51
486.61	47356.06
486.78	47164.14
486.96	47290.52
487.14	49191.04
487.32	49801.92
487.50	50836.44
487.68	51466.04
487.85	52144.80
488.03	51807.76
488.21	51845.21
488.39	50810.69
488.57	50204.49
488.75	50122.57
488.92	50920.70
489.10	53095.05
489.28	54499.37
489.46	55086.85
489.64	54855.14
489.81	54939.39
489.99	54520.44
490.17	54869.18
490.35	55187.49
490.53	54670.23
490.70	54068.72
490.88	54047.65
491.06	55061.10
491.24	55105.57
491.41	54270.00
491.59	52727.59
491.77	51772.65
491.95	52596.52
492.13	53806.58
492.30	55112.59
492.48	56025.40
492.66	56367.12
492.84	56186.90
493.01	56142.43
493.19	55437.93
493.37	55313.88
493.54	54901.95
493.72	55576.02
493.90	56636.28
494.08	57478.88
494.25	57537.39
494.43	57715.27
494.61	58024.22
494.79	58218.49
494.96	57989.11
495.14	57296.31
495.32	56662.03
495.49	56147.11
495.67	57008.43
495.85	58199.76
496.02	58578.93
496.20	58468.92
496.38	58045.29
496.55	57909.53
496.73	58171.67
496.91	58389.34
497.09	58967.46
497.26	59161.72
497.44	58766.17
497.62	58258.27
497.79	57450.79
497.97	56133.07
498.14	56416.27
498.32	57607.61
498.50	58190.40
498.67	58766.17
498.85	58707.66
499.03	58803.62
499.20	59091.51
499.38	59135.98
499.56	58941.71
499.73	58532.12
499.91	58054.65
500.08	57977.41
500.26	56802.46
500.44	57331.42
500.61	58248.91
500.79	58068.69
500.97	57490.58
501.14	57506.96
501.32	57289.29
501.49	57261.21
501.67	57403.98
501.84	58031.24
502.02	58262.96
502.20	58623.40
502.37	58506.37
502.55	58604.67
502.72	59042.35
502.90	59721.11
503.07	59402.80
503.25	58880.86
503.43	58302.74
503.60	57869.75
503.78	56870.34
503.95	57326.74
504.13	58852.77
504.30	59381.73
504.48	59435.56
504.65	58873.84
504.83	58983.84
505.01	59494.08
505.18	59962.18
505.36	60537.96
505.53	60451.36
505.71	60626.90
505.88	60835.20
506.06	60324.97
506.23	59873.24
506.41	59594.72
506.58	59704.73
506.76	59573.66
506.93	59639.19
507.11	59400.46
507.28	59573.66
507.46	59213.21
507.63	58581.27
507.81	58408.07
507.98	58564.88
508.16	59243.64
508.33	59737.49
508.50	60177.51
508.68	60556.68
508.85	60942.87
509.03	60779.03
509.20	60739.24
509.38	60135.38
509.55	59374.71
509.73	59339.60
509.90	59931.76
510.08	60186.88
510.25	60116.66
510.42	59898.99
510.60	59976.23
510.77	60149.43
510.95	60746.26
511.12	60636.26
511.30	61020.11
511.47	61282.25
511.64	61188.63
511.82	61015.43
511.99	60203.26
512.17	59777.28
512.34	59353.65
512.51	59463.65
512.69	59697.70
512.86	59767.92
513.04	60163.47
513.21	60013.68
513.38	59966.87
513.56	59412.16
513.73	59028.31
513.90	59023.63
514.08	58913.62
514.25	59381.73
514.43	59681.32
514.60	59751.54
514.77	59870.90
514.95	60032.40
515.12	59870.90
515.29	60074.53
515.47	60458.38
515.64	60720.52
515.81	60250.07
515.99	59913.03
516.16	58583.61
516.33	56626.92
516.51	54967.48
516.68	54042.97
516.85	53996.16
517.03	54396.39
517.20	56568.41
517.37	58983.84
517.54	60086.23
517.72	59594.72
517.89	57181.63
518.06	55042.38
518.24	55133.66
518.41	57310.36
518.58	58553.18
518.75	58754.47
518.93	58953.41
519.10	58967.46
519.27	59171.08
519.45	59510.46
519.62	60048.78
519.79	60622.22
519.96	60243.05
520.14	59791.33
520.31	59306.83
520.48	59047.04
520.65	59302.15
520.83	60275.82
521.00	60526.25
521.17	60413.91
521.34	59842.82
521.52	60252.41
521.69	60727.54
521.86	61197.99
522.03	61003.72
522.20	59812.39
522.38	58677.23
522.55	58752.13
522.72	59348.96
522.89	59465.99
523.07	59667.28
523.24	60058.15
523.41	60802.44
523.58	61158.20
523.75	61570.13
523.92	61298.63
524.10	61200.33
524.27	61396.93
524.44	61148.84
524.61	60811.80
524.78	60711.16
524.96	60687.75
525.13	60804.78
525.30	60839.89
525.47	61464.81
525.64	61174.58
525.81	60526.25
525.98	59276.41
526.16	57893.15
526.33	57190.99
526.50	56832.89
526.67	56608.20
526.84	57261.21
527.01	58344.87
527.18	58920.65
527.36	59877.93
527.53	60502.85
527.70	60790.73
527.87	60107.30
528.04	59831.11
528.21	60135.38
528.38	60874.99
528.55	61366.51
528.72	61628.65
528.89	61736.31
529.07	61666.09
529.24	61111.39
529.41	60453.70
529.58	59910.69
529.75	59716.43
529.92	60467.74
530.09	60753.29
530.26	61043.51
530.43	61513.96
530.60	61506.94
530.77	61659.07
530.94	61799.50
531.11	61506.94
531.28	60928.83
531.46	60985.00
531.63	60963.93
531.80	60776.69
531.97	60500.51
532.14	59798.35
532.31	58859.79
532.48	58253.59
532.65	58314.45
532.82	59182.79
532.99	59938.78
533.16	60512.21
533.33	60889.04
533.50	60795.42
533.67	60175.17
533.84	59788.98
534.01	59894.31
534.18	60034.74
534.35	60245.39
534.52	60186.88
534.69	60299.22
534.86	60879.67
535.03	60935.85
535.20	61270.54
535.37	61666.09
535.54	61806.53
535.71	61338.42
535.88	61226.07
536.05	60493.49
536.22	60184.54
536.38	59826.43
536.55	59437.90
536.72	59009.59
536.89	58972.14
537.06	59746.86
537.23	60582.43
537.40	60779.03
537.57	60589.45
537.74	60339.01
537.91	60444.33
538.08	60467.74
538.25	60437.31
538.42	60732.22
538.59	60331.99
538.75	59863.88
538.92	59742.17
539.09	59442.59
539.26	59498.76
539.43	59178.10
539.60	59217.89
539.77	59281.09
539.94	59325.56
540.11	58564.88
540.28	58136.57
540.44	57996.13
540.61	58438.50
540.78	58426.79
540.95	59011.93
541.12	59435.56
541.29	59552.59
541.46	59751.54
541.62	59945.80
541.79	59730.47
541.96	59264.70
542.13	59220.23
542.30	59231.94
542.47	59753.88
542.63	59374.71
542.80	59269.39
542.97	59337.26
543.14	59337.26
543.31	59157.04
543.48	59962.18
543.64	60388.16
543.81	60865.63
543.98	60439.65
544.15	59901.33
544.32	59470.67
544.48	59545.57
544.65	59917.71
544.82	60079.21
544.99	59906.01
545.16	59435.56
545.32	59363.01
545.49	60111.98
545.66	60383.48
545.83	60191.56
546.00	59817.07
546.16	59269.39
546.33	59487.06
546.50	59526.84
546.67	59877.93
546.83	59604.08
547.00	59554.93
547.17	58995.54
547.34	58417.43
547.50	58389.34
547.67	58951.07
547.84	58803.62
548.00	59077.46
548.17	59526.84
548.34	59463.65
548.51	59470.67
548.67	59363.01
548.84	59796.01
549.01	59767.92
549.18	59454.29
549.34	59454.29
549.51	59351.30
549.68	59363.01
549.84	59283.43
550.01	59058.74
550.18	58815.32
550.34	58899.58
550.51	59114.91
550.68	59196.83
550.84	58775.53
551.01	58801.28
551.18	58812.98
551.34	59009.59
551.51	59241.30
551.68	59325.56
551.84	59526.84
552.01	59365.35
552.18	59348.96
552.34	58450.20
552.51	58103.80
552.68	58110.82
552.84	58571.91
553.01	58731.06
553.18	58698.30
553.34	58539.14
553.51	58820.00
553.67	59161.72
553.84	59274.07
554.01	59332.58
554.17	59021.29
554.34	59114.91
554.51	59157.04
554.67	59395.77
554.84	59231.94
555.00	59058.74
555.17	58574.25
555.33	58724.04
555.50	58717.02
555.67	58480.63
555.83	58611.70
556.00	58295.72
556.16	58447.86
556.33	57769.10
556.50	57467.17
556.66	58064.01
556.83	57726.97
556.99	57722.29
557.16	57799.53
557.32	57925.92
557.49	58333.17
557.65	58265.30
557.82	58298.06
557.98	58073.37
558.15	57572.50
558.32	57069.28
558.48	55985.61
558.65	56502.87
558.81	56807.14
558.98	56797.78
559.14	57162.90
559.31	57249.50
559.47	57116.09
559.64	56830.55
559.80	56442.02
559.97	56505.21
560.13	56924.17
560.30	57797.19
560.46	58234.87
560.63	58494.67
560.79	58637.44
560.96	58356.58
561.12	57118.43
561.29	56442.02
561.45	56327.33
561.61	56809.48
561.78	57045.88
561.94	57139.50
562.11	57034.17
562.27	56882.04
562.44	57263.55
562.60	57251.84
562.77	57682.50
562.93	57420.36
563.10	57506.96
563.26	56720.54
563.42	56994.39
563.59	56793.10
563.75	56736.93
563.92	57013.11
564.08	56886.72
564.24	57176.95
564.41	57333.76
564.57	56900.76
564.74	56914.81
564.90	56959.28
565.07	56701.82
565.23	56324.99
565.39	55620.49
565.56	55526.87
565.72	55360.69
565.88	55880.29
566.05	55739.86
566.21	55957.53
566.38	56027.74
566.54	56261.80
566.70	56582.45
566.87	56825.87
567.03	56963.96
567.19	57066.94
567.36	56846.93
567.52	56711.18
567.68	56463.08
567.85	55849.86
568.01	55484.74
568.17	55082.17
568.34	55056.42
568.50	55033.02
568.66	55121.96
568.83	55400.48
568.99	55636.87
569.15	55606.45
569.32	55671.98
569.48	55458.99
569.64	55510.49
569.81	55121.96
569.97	54855.14
570.13	55229.62
570.30	54497.03
570.46	54026.59
570.62	53506.99
570.78	53345.49
570.95	53935.30
571.11	54267.66
571.27	54803.64
571.43	54955.78
571.60	55246.00
571.76	55306.86
571.92	55515.17
572.09	55606.45
572.25	55870.93
572.41	55873.27
572.57	55285.79
572.74	55608.79
572.90	55119.62
573.06	55002.59
573.22	55384.10
573.38	54958.12
573.55	55121.96
573.71	55351.33
573.87	55061.10
574.03	54962.80
574.20	55147.70
574.36	54733.43
574.52	54482.99
574.68	54611.72
574.84	54035.95
575.01	53628.69
575.17	53354.85
575.33	53663.80
575.49	53832.32
575.65	54220.85
575.82	54188.08
575.98	53635.72
576.14	54024.25
576.30	54244.26
576.46	54389.37
576.62	54328.52
576.79	54202.13
576.95	54035.95
577.11	53691.89
577.27	53844.02
577.43	54244.26
577.59	53743.38
577.75	53476.56
577.92	52622.26
578.08	52470.13
578.24	52353.10
578.40	52828.23
578.56	53076.33
578.72	53137.18
578.88	52978.03
579.04	53769.13
579.21	53626.35
579.37	53542.10
579.53	53649.76
579.69	53471.88
579.85	53921.26
580.01	53734.02
580.17	53359.53
580.33	53052.92
580.49	53071.65
580.65	53408.68
580.82	53476.56
580.98	53516.35
581.14	53448.47
581.30	53609.97
581.46	53556.14
581.62	53776.15
581.78	53755.08
581.94	53825.30
582.10	53778.49
582.26	53757.42
582.42	53719.98
582.58	53799.55
582.74	53682.53
582.90	53785.51
583.06	53979.78
583.22	53272.93
583.38	53422.73
583.54	53263.57
583.70	53233.14
583.86	53387.62
584.02	53202.72
584.18	53382.94
584.34	53345.49
584.50	53371.24
584.66	53181.65
584.82	52786.10
584.98	52748.65
585.14	51971.60
