SpectraSuite Data File
++++++++++++++++++++++++++++++++++++
Date: Mon Oct 07 14:55:01 GMT-05:00 2013
User: price-jones
Dark Spectrum Present: No
Reference Spectrum Present: No
Number of Sampled Component Spectra: 1
Spectrometers: USB2+H05261
Integration Time (usec): 10000 (USB2+H05261)
Spectra Averaged: 1 (USB2+H05261)
Boxcar Smoothing: 0 (USB2+H05261)
Correct for Electrical Dark: No (USB2+H05261)
Strobe/Lamp Enabled: No (USB2+H05261)
Correct for Detector Non-linearity: No (USB2+H05261)
Correct for Stray Light: No (USB2+H05261)
Number of Pixels in Processed Spectrum: 2048
>>>>>Begin Processed Spectral Data<<<<<
365.73	0.00
365.92	0.00
366.12	0.00
366.32	0.00
366.52	0.00
366.72	0.00
366.91	0.00
367.11	0.00
367.31	0.00
367.51	0.00
367.70	0.00
367.90	0.00
368.10	0.00
368.30	0.00
368.49	0.00
368.69	0.00
368.89	0.00
369.09	0.00
369.28	0.00
369.48	0.00
369.68	0.00
369.87	0.00
370.07	0.00
370.27	0.00
370.47	273.84
370.66	2338.20
370.86	2752.47
371.06	2946.73
371.25	2846.09
371.45	2483.31
371.65	2333.51
371.84	2239.89
372.04	2452.88
372.24	2691.62
372.44	2700.98
372.63	2752.47
372.83	2434.16
373.03	2062.01
373.22	1989.46
373.42	2305.43
373.62	2637.78
373.81	2846.09
374.01	2722.04
374.21	2361.60
374.40	2282.02
374.60	2359.26
374.79	2836.73
374.99	3173.77
375.19	3419.52
375.38	3307.18
375.58	3094.19
375.78	3150.36
375.97	3183.13
376.17	3187.81
376.37	3302.50
376.56	3346.97
376.76	3772.94
376.95	3843.16
377.15	3918.06
377.35	4140.41
377.54	4344.03
377.74	4400.21
377.93	4645.96
378.13	4320.63
378.33	3995.29
378.52	3904.01
378.72	3702.73
378.91	3686.34
379.11	3592.72
379.31	3297.81
379.50	3379.73
379.70	3887.63
379.89	4180.20
380.09	4304.25
380.28	4393.19
380.48	4533.62
380.68	4255.09
380.87	4177.86
381.07	3798.69
381.26	3487.40
381.46	3356.33
381.65	3241.64
381.85	3045.04
382.04	3023.97
382.24	2789.92
382.43	2621.40
382.63	2630.76
382.83	2569.91
383.02	2654.17
383.22	2696.30
383.41	2689.28
383.61	2815.66
383.80	3503.78
384.00	3838.48
384.19	4231.69
384.39	4477.44
384.58	4407.23
384.78	4259.78
384.97	4358.08
385.17	3983.59
385.36	3761.24
385.56	3646.55
385.75	3969.55
385.95	4278.50
386.14	4451.70
386.34	4643.62
386.53	4276.16
386.72	4142.75
386.92	4133.39
387.11	4505.53
387.31	4585.11
387.50	4461.06
387.70	4241.05
387.89	4301.90
388.09	4358.08
388.28	4482.13
388.48	4404.89
388.67	4957.25
388.86	5259.18
389.06	5795.17
389.25	6047.94
389.45	6001.13
389.64	5909.85
389.84	5900.49
390.03	5673.46
390.22	5788.14
390.42	6363.92
390.61	6558.18
390.81	7059.06
391.00	7052.03
391.19	7016.93
391.39	6462.22
391.58	6181.35
391.78	6162.63
391.97	5673.46
392.16	5432.38
392.36	4669.37
392.55	3719.11
392.75	2956.10
392.94	2427.14
393.13	2628.42
393.33	3215.90
393.52	4007.00
393.71	4870.65
393.91	5350.46
394.10	5930.92
394.29	6551.16
394.49	6909.26
394.68	7478.01
394.88	7449.93
395.07	7667.60
395.26	7676.96
395.46	7360.98
395.65	6740.74
395.84	5467.49
396.04	4781.71
396.23	3784.65
396.42	3267.39
396.62	3372.71
396.81	4163.81
397.00	5516.64
397.19	6644.78
397.39	7730.79
397.58	8697.43
397.77	8990.00
397.97	9273.20
398.16	9589.17
398.35	10073.67
398.55	10157.92
398.74	10492.62
398.93	10509.01
399.12	10506.66
399.32	9975.36
399.51	10579.22
399.70	11047.33
399.90	10696.25
400.09	10787.53
400.28	10427.09
400.47	11199.46
400.67	11470.97
400.86	11918.01
401.05	11681.61
401.24	11723.74
401.44	12037.38
401.63	11985.88
401.82	12049.08
402.01	12067.80
402.21	12107.59
402.40	12451.65
402.59	11487.35
402.78	11026.26
402.97	11365.64
403.17	11723.74
403.36	12409.52
403.55	12512.50
403.74	12891.67
403.93	11925.03
404.13	11075.42
404.32	11075.42
404.51	11871.20
404.70	12432.93
404.89	12329.94
405.09	12351.01
405.28	11967.16
405.47	12187.17
405.66	12072.48
405.85	11667.57
406.05	11250.96
406.24	11676.93
406.43	12084.19
406.62	12140.36
406.81	12587.40
407.00	12191.85
407.20	11857.15
407.39	12112.27
407.58	12666.98
407.77	13209.98
407.96	13401.91
408.15	13650.00
408.34	14029.17
408.54	14183.65
408.73	14127.47
408.92	14239.82
409.11	13474.46
409.30	12779.32
409.49	12163.76
409.68	11234.57
409.87	11363.30
410.07	12116.95
410.26	13118.70
410.45	13495.53
410.64	13750.65
410.83	14450.47
411.02	14546.43
411.21	15288.38
411.40	15108.16
411.59	15321.15
411.78	15147.95
411.98	15297.74
412.17	15838.41
412.36	14867.08
412.55	14771.12
412.74	14429.40
412.93	14169.60
413.12	14925.60
413.31	16320.56
413.50	16189.49
413.69	16362.69
413.88	15611.37
414.07	15632.44
414.26	15761.17
414.45	16184.80
414.64	16341.62
414.83	15683.93
415.02	15861.81
415.22	16042.03
415.41	16425.88
415.60	16730.15
415.79	17539.97
415.98	17488.48
416.17	17603.17
416.36	17235.70
416.55	16978.25
416.74	15786.91
416.93	16051.39
417.12	16210.55
417.31	16236.30
417.50	16484.39
417.69	16973.56
417.88	16931.44
418.07	16397.79
418.26	16587.38
418.45	16631.85
418.64	17399.54
418.83	18008.08
419.02	17554.02
419.21	17207.62
419.39	16374.39
419.58	16283.11
419.77	16154.38
419.96	17235.70
420.15	17905.10
420.34	18487.89
420.53	18895.14
420.72	19199.41
420.91	18764.07
421.10	18768.76
421.29	18420.02
421.48	18106.38
421.67	19229.84
421.86	18008.08
422.05	16709.08
422.24	15557.54
422.43	16133.31
422.61	17516.57
422.80	18218.73
422.99	17633.60
423.18	17219.32
423.37	17462.74
423.56	17497.84
423.75	17820.84
423.94	18270.22
424.13	17280.18
424.32	17432.31
424.50	17528.27
424.69	17614.87
424.88	17640.62
425.07	17500.19
425.26	17158.47
425.45	16788.66
425.64	16760.58
425.83	16936.12
426.01	17872.33
426.20	17996.38
426.39	17675.73
426.58	16360.34
426.77	15482.64
426.96	15534.14
427.15	15920.32
427.33	17034.42
427.52	17083.57
427.71	17783.39
427.90	17415.93
428.09	17048.46
428.28	16727.81
428.46	15920.32
428.65	15967.13
428.84	16425.88
429.03	16453.97
429.22	15559.88
429.40	14532.39
429.59	13355.10
429.78	11861.84
429.97	12133.34
430.16	11969.50
430.34	12039.72
430.53	12662.30
430.72	13090.62
430.91	14857.72
431.10	17413.59
431.28	19896.89
431.47	21109.29
431.66	20545.22
431.85	18555.77
432.03	16760.58
432.22	17032.08
432.41	18181.28
432.60	19786.89
432.79	20746.51
432.97	20772.25
433.16	19803.27
433.35	17607.85
433.54	16425.88
433.72	15946.07
433.91	16521.84
434.10	18560.45
434.28	19260.27
434.47	20343.94
434.66	19822.00
434.85	19421.77
435.03	19648.80
435.22	19903.92
435.41	20819.07
435.59	21231.00
435.78	21359.73
435.97	22279.56
436.16	21783.37
436.34	21614.85
436.53	21465.05
436.72	21514.20
436.90	20259.68
437.09	20243.29
437.28	19779.87
437.46	20662.25
437.65	20231.59
437.84	18511.30
438.02	17474.44
438.21	18125.11
438.40	18427.04
438.58	19857.10
438.77	20556.93
438.96	20798.00
439.14	22040.82
439.33	22162.53
439.52	22394.25
439.70	21827.84
439.89	21223.98
440.08	20709.06
440.26	20982.90
440.45	21867.63
440.63	23405.36
440.82	24318.17
441.01	23714.31
441.19	23487.28
441.38	24287.74
441.57	24919.68
441.75	24917.34
441.94	25591.42
442.12	25282.47
442.31	25907.39
442.50	25240.34
442.68	24861.17
442.87	24924.36
443.05	24826.06
443.24	25085.86
443.43	25518.86
443.61	25804.41
443.80	26642.32
443.98	24992.24
444.17	24987.56
444.35	26298.26
444.54	27080.00
444.73	26284.22
444.91	24889.26
445.10	24016.24
445.28	23147.90
445.47	23023.85
445.65	23246.20
445.84	24109.86
446.02	24521.79
446.21	25160.76
446.39	24987.56
446.58	25521.20
446.77	25982.29
446.95	26054.84
447.14	26567.42
447.32	27260.22
447.51	26710.19
447.69	25678.02
447.88	25544.61
448.06	26246.77
448.25	26422.31
448.43	25888.67
448.62	25795.04
448.80	25841.85
448.99	25888.67
449.17	26630.62
449.36	26586.15
449.54	26972.33
449.73	27618.32
449.91	27826.63
450.10	28889.23
450.28	28458.57
450.46	29097.54
450.65	29132.65
450.83	28615.39
451.02	28023.23
451.20	28233.88
451.39	27962.38
451.57	28004.51
451.76	28107.49
451.94	27428.74
452.13	27035.53
452.31	25336.30
452.49	24219.86
452.68	25022.67
452.86	25127.99
453.05	25811.43
453.23	27054.25
453.42	27159.58
453.60	27955.36
453.78	28095.79
453.97	27337.46
454.15	27098.72
454.34	26431.67
454.52	26253.79
454.70	26349.75
454.89	26693.81
455.07	26958.29
455.26	27321.07
455.44	28065.36
455.62	28538.15
455.81	28601.35
455.99	28437.51
456.17	28952.43
456.36	29457.98
456.54	29593.73
456.73	29275.42
456.91	29558.63
457.09	29139.67
457.28	30782.73
457.46	28978.17
457.64	28617.73
457.83	27826.63
458.01	27791.52
458.19	28896.25
458.38	29331.59
458.56	29804.38
458.74	29235.63
458.93	28783.91
459.11	28662.20
459.29	27903.87
459.48	29029.66
459.66	28594.32
459.84	28872.85
460.03	29443.94
460.21	29764.59
460.39	30370.79
460.57	29567.99
460.76	30204.61
460.94	30164.82
461.12	30387.18
461.31	30494.84
461.49	30698.47
461.67	30506.54
461.85	30780.39
462.04	30658.68
462.22	30752.30
462.40	30705.49
462.59	30092.27
462.77	30855.28
462.95	30586.12
463.13	30190.57
463.32	29916.73
463.50	29860.55
463.68	29872.26
463.86	30345.05
464.05	29289.46
464.23	28720.71
464.41	28788.59
464.59	28671.56
464.78	30108.65
464.96	29731.83
465.14	29282.44
465.32	30932.52
465.50	31571.49
465.69	31805.54
465.87	30644.63
466.05	29642.88
466.23	28278.35
466.41	28032.60
466.60	28987.53
466.78	28657.52
466.96	29184.14
467.14	29982.26
467.32	30169.51
467.51	30064.18
467.69	28779.23
467.87	29373.72
468.05	30045.46
468.23	29820.77
468.41	29888.64
468.60	29881.62
468.78	30948.90
468.96	30146.10
469.14	30422.28
469.32	30473.78
469.50	28793.27
469.69	29472.03
469.87	29450.96
470.05	29039.03
470.23	28905.62
470.41	29062.43
470.59	29619.48
470.77	29963.54
470.95	30665.70
471.14	31044.87
471.32	31267.22
471.50	32320.46
471.68	32488.98
471.86	32872.82
472.04	32060.66
472.22	32414.08
472.40	31461.48
472.58	31185.30
472.77	31124.44
472.95	31648.72
473.13	32746.44
473.31	31005.08
473.49	31028.48
473.67	32063.00
473.85	32538.13
474.03	33958.83
474.21	34162.46
474.39	34232.68
474.57	33883.94
474.75	34593.12
474.93	33944.79
475.12	32788.56
475.30	33523.49
475.48	32828.35
475.66	32678.56
475.84	32093.43
476.02	32870.48
476.20	32348.54
476.38	32957.08
476.56	33972.88
476.74	35037.82
476.92	35079.95
477.10	35042.50
477.28	36280.64
477.46	36362.56
477.64	36772.16
477.82	36886.84
478.00	36945.36
478.18	35356.13
478.36	35302.30
478.54	35857.01
478.72	36753.43
478.90	37984.55
479.08	39428.66
479.26	39695.49
479.44	39407.60
479.62	38192.86
479.80	39215.68
479.98	39051.84
480.16	39400.58
480.34	38799.06
480.52	39386.54
480.70	39955.29
480.88	39871.03
481.06	40535.74
481.24	40643.40
481.41	41378.33
481.59	42600.09
481.77	40921.93
481.95	40587.23
482.13	40238.49
482.31	40900.86
482.49	41586.64
482.67	41392.37
482.85	41478.97
483.03	41031.93
483.21	42682.01
483.39	41893.25
483.57	41530.47
483.74	41893.25
483.92	42419.87
484.10	42110.92
484.28	42220.92
484.46	42021.98
484.64	43821.85
484.82	42850.53
485.00	41549.19
485.18	41549.19
485.35	39550.37
485.53	34742.91
485.71	33083.47
485.89	33277.74
486.07	35714.23
486.25	38693.74
486.43	40933.63
486.61	40676.17
486.78	40734.68
486.96	42160.07
487.14	43569.07
487.32	43154.80
487.50	44767.43
487.68	46136.64
487.85	47145.41
488.03	45958.76
488.21	45546.82
488.39	45474.27
488.57	44154.21
488.75	44041.86
488.92	45972.80
489.10	47924.81
489.28	49095.08
489.46	50836.44
489.64	49820.64
489.81	50478.33
489.99	49165.29
490.17	49722.34
490.35	50160.02
490.53	49275.30
490.70	48837.62
490.88	48739.32
491.06	50251.30
491.24	50621.11
491.41	48495.90
491.59	47021.36
491.77	47154.77
491.95	48643.35
492.13	50305.13
492.30	50536.85
492.48	51559.66
492.66	52011.38
492.84	51817.12
493.01	51484.76
493.19	51250.71
493.37	50632.81
493.54	51409.87
493.72	52067.56
493.90	52406.94
494.08	52746.31
494.25	52903.13
494.43	53537.41
494.61	54232.55
494.79	54244.26
494.96	53977.43
495.14	53841.68
495.32	52165.86
495.49	52640.99
495.67	53570.18
495.85	54761.51
496.02	54953.44
496.20	54663.21
496.38	54206.81
496.55	54080.42
496.73	55079.83
496.91	55236.64
497.09	54894.92
497.26	55203.88
497.44	54714.70
497.62	53815.94
497.79	52884.40
497.97	51985.64
498.14	52807.17
498.32	54588.31
498.50	54176.38
498.67	54181.06
498.85	54583.63
499.03	55466.02
499.20	55737.52
499.38	54845.77
499.56	54298.09
499.73	54220.85
499.91	53897.86
500.08	53492.94
500.26	52900.79
500.44	53530.39
500.61	54049.99
500.79	53738.70
500.97	54171.70
501.14	52814.19
501.32	52615.24
501.49	53010.79
501.67	53111.44
501.84	53872.11
502.02	54349.58
502.20	54836.41
502.37	55267.07
502.55	55224.94
502.72	55959.87
502.90	56025.40
503.07	55931.78
503.25	54199.79
503.43	53687.21
503.60	53097.39
503.78	53095.05
503.95	53502.31
504.13	54908.97
504.30	55377.08
504.48	54932.37
504.65	55084.51
504.83	55248.35
505.01	56212.65
505.18	56346.06
505.36	56453.72
505.53	56573.09
505.71	57148.86
505.88	57158.22
506.06	56484.15
506.23	55831.14
506.41	55906.04
506.58	56198.60
506.76	56273.50
506.93	55529.21
507.11	55285.79
507.28	55793.69
507.46	55175.79
507.63	54979.18
507.81	54429.16
507.98	55023.65
508.16	56268.82
508.33	56240.73
508.50	56376.48
508.68	56853.95
508.85	57151.20
509.03	57406.32
509.20	56725.22
509.38	55786.67
509.55	55454.31
509.73	55739.86
509.90	55938.80
510.08	56591.81
510.25	55540.91
510.42	55861.57
510.60	56493.51
510.77	56652.67
510.95	56465.42
511.12	56807.14
511.30	57621.65
511.47	57916.56
511.64	58110.82
511.82	57556.11
511.99	56449.04
512.17	56502.87
512.34	56067.53
512.51	55657.94
512.69	56425.64
512.86	55908.38
513.04	56427.98
513.21	55842.84
513.38	55124.30
513.56	54915.99
513.73	54178.72
513.90	55302.18
514.08	55435.59
514.25	54897.27
514.43	55473.04
514.60	56065.19
514.77	56140.09
514.95	56339.04
515.12	56165.84
515.29	56750.97
515.47	57160.56
515.64	56842.25
515.81	56479.47
515.99	55358.35
516.16	53401.66
516.33	51239.01
516.51	50997.93
516.68	49251.89
516.85	48484.20
517.03	50806.01
517.20	53223.78
517.37	55676.66
517.54	56603.52
517.72	54850.45
517.89	51894.36
518.06	50319.18
518.24	51573.70
518.41	53895.52
518.58	54614.06
518.75	54707.68
518.93	54878.54
519.10	54073.40
519.27	55437.93
519.45	55817.10
519.62	56392.87
519.79	56463.08
519.96	56025.40
520.14	55704.75
520.31	54567.25
520.48	54796.62
520.65	55882.63
520.83	56425.64
521.00	56680.75
521.17	56191.58
521.34	55917.74
521.52	56814.16
521.69	56828.21
521.86	57352.49
522.03	57174.61
522.20	55468.36
522.38	54791.94
522.55	55386.44
522.72	55980.93
522.89	55538.57
523.07	56065.19
523.24	56610.54
523.41	57762.08
523.58	58087.42
523.75	58099.12
523.92	57626.33
524.10	57457.81
524.27	57134.82
524.44	56912.47
524.61	56765.01
524.78	57176.95
524.96	56942.89
525.13	56762.67
525.30	57801.87
525.47	57778.46
525.64	57593.56
525.81	56835.23
525.98	54546.18
526.16	53406.34
526.33	54028.93
526.50	52931.22
526.67	53329.11
526.84	53584.22
527.01	54686.62
527.18	55356.01
527.36	56231.37
527.53	57305.68
527.70	56147.11
527.87	55061.10
528.04	56559.05
528.21	56910.13
528.38	57202.69
528.55	58433.81
528.72	58017.20
528.89	57757.40
529.07	57111.41
529.24	56041.79
529.41	55749.22
529.58	56004.34
529.75	57073.96
529.92	57270.57
530.09	56788.42
530.26	57577.18
530.43	58365.94
530.60	57181.63
530.77	57743.36
530.94	58174.02
531.11	57528.03
531.28	57593.56
531.46	57687.18
531.63	57354.83
531.80	56732.25
531.97	56369.46
532.14	56149.45
532.31	54628.10
532.48	54115.53
532.65	54485.33
532.82	55016.63
532.99	56666.71
533.16	57059.92
533.33	56896.08
533.50	57394.62
533.67	57310.36
533.84	56458.40
534.01	56502.87
534.18	56673.73
534.35	56446.70
534.52	55849.86
534.69	56472.45
534.86	57326.74
535.03	57439.09
535.20	57113.75
535.37	58155.29
535.54	58436.16
535.71	57993.79
535.88	58424.45
536.05	56615.22
536.22	56257.12
536.38	55737.52
536.55	54525.12
536.72	54873.86
536.89	55636.87
537.06	55800.71
537.23	56598.83
537.40	56449.04
537.57	56114.34
537.74	56582.45
537.91	56577.77
538.08	56364.78
538.25	56292.22
538.42	57340.78
538.59	56137.75
538.75	55625.17
538.92	55091.53
539.09	55234.30
539.26	55320.90
539.43	55313.88
539.60	55704.75
539.77	56067.53
539.94	55517.51
540.11	54805.98
540.28	54646.83
540.44	53780.83
540.61	54073.40
540.78	54953.44
540.95	55636.87
541.12	55473.04
541.29	56207.97
541.46	56622.24
541.62	56385.85
541.79	55632.19
541.96	54791.94
542.13	54997.91
542.30	55370.05
542.47	55559.64
542.63	55405.16
542.80	55351.33
542.97	54667.89
543.14	54642.15
543.31	54621.08
543.48	56315.63
543.64	56605.86
543.81	57710.59
543.98	57279.93
544.15	55557.30
544.32	55964.55
544.48	55760.92
544.65	55714.11
544.82	56296.91
544.99	54419.80
545.16	54330.86
545.32	54578.95
545.49	55608.79
545.66	55693.05
545.83	55306.86
546.00	56062.85
546.16	55997.32
546.33	55786.67
546.50	55599.43
546.67	56322.65
546.83	55152.38
547.00	55805.39
547.17	54724.07
547.34	53600.61
547.50	53832.32
547.67	55002.59
547.84	55814.76
548.00	55629.85
548.17	55325.58
548.34	55847.52
548.51	56207.97
548.67	56374.14
548.84	56308.61
549.01	56163.50
549.18	55393.46
549.34	55536.23
549.51	55676.66
549.68	55618.15
549.84	55316.22
550.01	54756.83
550.18	54571.93
550.34	54955.78
550.51	55344.31
550.68	55657.94
550.84	55405.16
551.01	54684.28
551.18	54244.26
551.34	54106.16
551.51	55318.56
551.68	55061.10
551.84	55040.04
552.01	55016.63
552.18	54700.66
552.34	54026.59
552.51	53888.49
552.68	53790.19
552.84	53942.33
553.01	54157.66
553.18	55466.02
553.34	55302.18
553.51	55147.70
553.67	54876.20
553.84	54415.11
554.01	54892.58
554.17	54391.71
554.34	54581.29
554.51	54768.54
554.67	53923.60
554.84	54040.63
555.00	53970.41
555.17	54117.87
555.33	53825.30
555.50	53352.51
555.67	53998.50
555.83	53958.71
556.00	53844.02
556.16	53284.64
556.33	53141.86
556.50	53446.13
556.66	53813.60
556.83	53235.48
556.99	52821.21
557.16	53308.04
557.32	52928.87
557.49	53530.39
557.65	52832.91
557.82	53982.12
557.98	54330.86
558.15	52942.92
558.32	51770.31
558.48	51426.25
558.65	51386.46
558.81	52006.70
558.98	52736.95
559.14	53354.85
559.31	52807.17
559.47	52289.91
559.64	51662.64
559.80	51370.08
559.97	52217.35
560.13	53366.55
560.30	54415.11
560.46	54705.34
560.63	55098.55
560.79	54801.30
560.96	53911.90
561.12	52545.03
561.29	52037.13
561.45	51840.53
561.61	53757.42
561.78	52743.97
561.94	53822.96
562.11	53474.22
562.27	52727.59
562.44	53174.63
562.60	53509.33
562.77	53684.87
562.93	52561.41
563.10	52648.01
563.26	52451.41
563.42	53265.91
563.59	52268.84
563.75	52545.03
563.92	52456.09
564.08	51597.11
564.24	52676.10
564.41	52002.02
564.57	52975.69
564.74	52697.16
564.90	51543.28
565.07	51648.60
565.23	50567.27
565.39	50693.66
565.56	50939.42
565.72	51444.98
565.88	49446.16
566.05	52257.14
566.21	53064.63
566.38	51831.16
566.54	52051.17
566.70	52655.03
566.87	52395.23
567.03	51723.50
567.19	52736.95
567.36	53476.56
567.52	51510.51
567.68	51803.08
567.85	50422.16
568.01	50574.30
568.17	50817.71
568.34	51494.13
568.50	51381.78
568.66	51718.82
568.83	50775.58
568.99	49965.76
569.15	50728.77
569.32	50623.45
569.48	49911.92
569.64	49720.00
569.81	50340.24
569.97	49738.72
570.13	49214.44
570.30	48966.35
570.46	47753.95
570.62	47129.03
570.78	47842.89
570.95	48900.81
571.11	48477.18
571.27	48303.98
571.43	48694.85
571.60	48376.53
571.76	49954.05
571.92	50150.66
572.09	50719.41
572.25	50511.10
572.41	51337.31
572.57	51075.17
572.74	51037.72
572.90	52039.47
573.06	51091.55
573.22	51327.95
573.38	50901.97
573.55	52437.36
573.71	50691.32
573.87	51147.73
574.03	50763.88
574.20	50007.89
574.36	50747.50
574.52	49397.01
574.68	49394.67
574.84	48624.63
575.01	48289.93
575.17	49546.80
575.33	49069.33
575.49	49619.36
575.65	48013.75
575.82	49045.93
575.98	48463.13
576.14	49710.64
576.30	50010.23
576.46	48533.35
576.62	49146.57
576.79	49022.52
576.95	48870.39
577.11	49378.28
577.27	49291.68
577.43	49457.86
577.59	48390.58
577.75	46911.36
577.92	47154.77
578.08	47683.73
578.24	48112.05
578.40	47931.83
578.56	47342.02
578.72	47735.23
578.88	47154.77
579.04	47447.34
579.21	47283.50
579.37	47807.78
579.53	48636.33
579.69	47482.45
579.85	47508.19
580.01	47672.03
580.17	47110.30
580.33	48495.90
580.49	48776.76
580.65	46590.70
580.82	47316.27
580.98	48591.86
581.14	48603.56
581.30	48608.25
581.46	47962.26
581.62	48046.52
581.78	49008.48
581.94	48940.60
582.10	48804.85
582.26	49097.42
582.42	48877.41
582.58	46894.97
582.74	47290.52
582.90	46923.06
583.06	47718.84
583.22	48100.35
583.38	48009.07
583.54	48388.24
583.70	48877.41
583.86	47779.70
584.02	47807.78
584.18	47473.09
584.34	46780.29
584.50	46939.44
584.66	46677.30
584.82	46873.91
584.98	47295.21
585.14	46363.67
585.30	46944.12
