SpectraSuite Data File
++++++++++++++++++++++++++++++++++++
Date: Mon Oct 07 14:53:25 GMT-05:00 2013
User: price-jones
Dark Spectrum Present: No
Reference Spectrum Present: No
Number of Sampled Component Spectra: 1
Spectrometers: USB2+H05261
Integration Time (usec): 100000 (USB2+H05261)
Spectra Averaged: 1 (USB2+H05261)
Boxcar Smoothing: 0 (USB2+H05261)
Correct for Electrical Dark: No (USB2+H05261)
Strobe/Lamp Enabled: No (USB2+H05261)
Correct for Detector Non-linearity: No (USB2+H05261)
Correct for Stray Light: No (USB2+H05261)
Number of Pixels in Processed Spectrum: 2048
>>>>>Begin Processed Spectral Data<<<<<
365.73	0.00
365.92	0.00
366.12	0.00
366.32	0.00
366.52	0.00
366.72	0.00
366.91	0.00
367.11	0.00
367.31	0.00
367.51	0.00
367.70	0.00
367.90	0.00
368.10	0.00
368.30	0.00
368.49	0.00
368.69	0.00
368.89	0.00
369.09	0.00
369.28	0.00
369.48	0.00
369.68	0.00
369.87	0.00
370.07	0.00
370.27	0.00
370.47	578.11
370.66	2686.94
370.86	3466.33
371.06	3756.56
371.25	3616.13
371.45	3473.36
371.65	3089.51
371.84	2822.69
372.04	3094.19
372.24	3260.37
372.44	3566.98
372.63	3524.85
372.83	3339.94
373.03	2780.56
373.22	2637.78
373.42	2813.32
373.62	3297.81
373.81	3550.59
374.01	3471.01
374.21	3101.21
374.40	2902.26
374.60	3038.02
374.79	3412.50
374.99	4079.55
375.19	4168.49
375.38	4337.01
375.58	4060.83
375.78	4007.00
375.97	3995.29
376.17	4203.60
376.37	4210.62
376.56	4257.43
376.76	4496.17
376.95	4793.42
377.15	5114.07
377.35	5228.76
377.54	5664.10
377.74	5832.62
377.93	5657.07
378.13	5490.90
378.33	5193.65
378.52	5020.45
378.72	4582.77
378.91	4573.41
379.11	4465.74
379.31	4311.27
379.50	4346.37
379.70	4645.96
379.89	5160.88
380.09	5500.26
380.28	5561.11
380.48	5621.97
380.68	5490.90
380.87	5345.78
381.07	4978.32
381.26	4692.77
381.46	4290.20
381.65	4135.73
381.85	4107.64
382.04	3871.25
382.24	3709.75
382.43	3536.55
382.63	3417.18
382.83	3482.72
383.02	3279.09
383.22	3454.63
383.41	3323.56
383.61	3686.34
383.80	4243.39
384.00	4727.88
384.19	5149.18
384.39	5497.92
384.58	5444.09
384.78	5563.45
384.97	5345.78
385.17	5050.88
385.36	4903.42
385.56	4599.15
385.75	4784.06
385.95	5296.63
386.14	5680.48
386.34	5624.31
386.53	5439.40
386.72	5071.94
386.92	5207.69
387.11	5453.45
387.31	5856.02
387.50	5631.33
387.70	5413.66
387.89	5322.38
388.09	5413.66
388.28	5460.47
388.48	5589.20
388.67	6066.67
388.86	6513.71
389.06	7045.01
389.25	7349.28
389.45	7517.80
389.64	7323.54
389.84	7363.33
390.03	7293.11
390.22	7110.55
390.42	7489.71
390.61	7957.82
390.81	8526.57
391.00	8674.03
391.19	8594.45
391.39	8320.60
391.58	7847.82
391.78	7286.09
391.97	7019.27
392.16	6555.84
392.36	6179.01
392.55	4938.53
392.75	3845.50
392.94	3201.85
393.13	3019.29
393.33	3613.79
393.52	4931.51
393.71	5804.53
393.91	6319.45
394.10	6984.16
394.29	7840.79
394.49	8386.14
394.68	8826.16
394.88	9050.85
395.07	9390.23
395.26	9188.94
395.46	8938.51
395.65	8489.12
395.84	7414.82
396.04	6221.14
396.23	4917.47
396.42	4156.79
396.62	4067.85
396.81	4702.14
397.00	6160.29
397.19	7545.89
397.39	9142.13
397.58	10469.22
397.77	10789.87
397.97	11098.82
398.16	11370.32
398.35	11662.89
398.55	12250.36
398.74	12526.55
398.93	12966.57
399.12	12615.49
399.32	12285.47
399.51	12554.63
399.70	13334.03
399.90	13221.69
400.09	13235.73
400.28	12802.73
400.47	13242.75
400.67	13743.63
400.86	14356.85
401.05	13860.65
401.24	14256.20
401.44	14380.25
401.63	14441.11
401.82	14710.27
402.01	14647.07
402.21	14551.11
402.40	14899.85
402.59	14504.30
402.78	13811.50
402.97	13488.51
403.17	13799.80
403.36	14457.49
403.55	15147.95
403.74	15548.18
403.93	14993.47
404.13	13886.40
404.32	13310.63
404.51	13872.36
404.70	15044.96
404.89	15054.33
405.09	15089.43
405.28	14380.25
405.47	14291.31
405.66	14155.56
405.85	14054.92
406.05	13783.41
406.24	13680.43
406.43	14169.60
406.62	14789.85
406.81	15129.22
407.00	14656.43
407.20	14073.64
407.39	14256.20
407.58	14850.70
407.77	15321.15
407.96	16049.05
408.15	16255.02
408.34	16219.91
408.54	16999.31
408.73	17109.32
408.92	16889.31
409.11	16142.67
409.30	15541.16
409.49	14707.93
409.68	13678.09
409.87	13319.99
410.07	14211.73
410.26	15288.38
410.45	16229.27
410.64	16652.91
410.83	16929.09
411.02	17547.00
411.21	18391.93
411.40	18024.47
411.59	17888.71
411.78	17584.44
411.98	17509.55
412.17	18483.21
412.36	17413.59
412.55	17659.34
412.74	17179.53
412.93	17076.55
413.12	16697.38
413.31	18904.51
413.50	18916.21
413.69	19321.12
413.88	18618.96
414.07	17767.01
414.26	18239.79
414.45	18703.22
414.64	18761.73
414.83	18902.17
415.02	18773.44
415.22	18541.72
415.41	19084.73
415.60	19616.03
415.79	20266.70
415.98	20620.12
416.17	20662.25
416.36	20383.73
416.55	19920.30
416.74	19475.60
416.93	18782.80
417.12	18424.70
417.31	18878.76
417.50	18963.02
417.69	20163.72
417.88	20081.80
418.07	19475.60
418.26	19309.42
418.45	19845.40
418.64	19999.88
418.83	20959.50
419.02	20650.55
419.21	20280.74
419.39	19646.46
419.58	18623.64
419.77	18565.13
419.96	19573.90
420.15	20788.64
420.34	21343.35
420.53	22272.54
420.72	22459.78
420.91	22085.30
421.10	21774.00
421.29	21605.49
421.48	20865.88
421.67	21884.01
421.86	21762.30
422.05	19990.52
422.24	17640.62
422.43	17703.81
422.61	19576.24
422.80	21198.23
422.99	21373.77
423.18	20704.38
423.37	19997.54
423.56	20184.78
423.75	20524.16
423.94	21167.80
424.13	19985.83
424.32	19964.77
424.50	19957.75
424.69	19922.64
424.88	19784.55
425.07	19800.93
425.26	19770.51
425.45	19812.63
425.64	19264.95
425.83	19049.62
426.01	20315.85
426.20	20758.21
426.39	20870.56
426.58	19204.10
426.77	17640.62
426.96	17151.45
427.15	17455.72
427.33	19082.39
427.52	19695.61
427.71	20107.54
427.90	19562.20
428.09	19896.89
428.28	19377.30
428.46	18764.07
428.65	18548.75
428.84	18668.11
429.03	18857.70
429.22	18200.01
429.40	17411.25
429.59	15630.10
429.78	13446.38
429.97	13692.13
430.16	13879.38
430.34	14265.57
430.53	13870.01
430.72	14321.74
430.91	15871.17
431.10	18801.52
431.28	21806.77
431.47	23328.12
431.66	23770.48
431.85	21937.84
432.03	20240.95
432.22	19044.94
432.41	20135.63
432.60	22129.77
432.79	22904.48
432.97	23761.12
433.16	23192.37
433.35	20929.07
433.54	19084.73
433.72	17710.83
433.91	18183.62
434.10	20472.67
434.28	22167.21
434.47	23194.71
434.66	22675.11
434.85	22057.21
435.03	22160.19
435.22	22494.89
435.41	24081.77
435.59	23924.96
435.78	24292.42
435.97	24711.38
436.16	25263.74
436.34	24702.01
436.53	24240.93
436.72	24229.23
436.90	23028.53
437.09	23133.86
437.28	22455.10
437.46	23194.71
437.65	23166.62
437.84	21380.79
438.02	19880.51
438.21	19880.51
438.40	20847.15
438.58	22813.20
438.77	23005.13
438.96	23555.15
439.14	24287.74
439.33	24854.15
439.52	25149.06
439.70	24840.11
439.89	24149.65
440.08	23571.54
440.26	23513.02
440.45	24472.64
440.63	25525.88
440.82	27592.58
441.01	27089.36
441.19	26703.17
441.38	27115.11
441.57	28077.07
441.75	28744.12
441.94	28638.80
442.12	28177.71
442.31	28914.98
442.50	28584.96
442.68	28477.30
442.87	27859.40
443.05	27740.03
443.24	28414.10
443.43	28926.68
443.61	29242.65
443.80	29909.71
443.98	27999.83
444.17	27672.15
444.35	29530.54
444.54	29837.15
444.73	30125.04
444.91	28449.21
445.10	27049.57
445.28	26185.91
445.47	25790.36
445.65	25986.97
445.84	26897.44
446.02	27681.52
446.21	27906.21
446.39	28299.42
446.58	28678.58
446.77	28793.27
446.95	28957.11
447.14	29991.62
447.32	30558.03
447.51	29694.38
447.69	28891.57
447.88	28240.90
448.06	28599.01
448.25	29455.64
448.43	29816.08
448.62	28943.06
448.80	28891.57
448.99	29298.83
449.17	29392.45
449.36	29163.08
449.54	30185.89
449.73	31206.36
449.91	31276.58
450.10	32205.77
450.28	32788.56
450.46	32280.67
450.65	32217.47
450.83	32112.15
451.02	31606.59
451.20	31384.24
451.39	30831.88
451.57	30913.80
451.76	30967.63
451.94	31019.12
452.13	30359.09
452.31	29041.37
452.49	27718.96
452.68	27845.35
452.86	28158.99
453.05	28458.57
453.23	29769.27
453.42	30349.73
453.60	30817.83
453.78	30766.34
453.97	31103.38
454.15	30558.03
454.34	30043.12
454.52	30291.21
454.70	29881.62
454.89	30031.41
455.07	29795.02
455.26	30211.64
455.44	31290.62
455.62	32322.80
455.81	32561.53
455.99	31826.60
456.17	31728.30
456.36	32154.28
456.54	32568.55
456.73	32547.49
456.91	33319.87
457.09	33200.50
457.28	34050.11
457.46	32821.33
457.64	32121.51
457.83	31477.86
458.01	30555.69
458.19	31606.59
458.38	32198.75
458.56	33013.26
458.74	32882.19
458.93	32381.31
459.11	31828.95
459.29	31534.04
459.48	31957.67
459.66	31583.19
459.84	32194.07
460.03	32428.12
460.21	32327.48
460.39	33287.10
460.57	33376.04
460.76	33773.93
460.94	33937.77
461.12	33549.24
461.31	33212.20
461.49	33165.39
461.67	33439.23
461.85	34359.06
462.04	33998.62
462.22	34534.60
462.40	34122.67
462.59	34176.50
462.77	33977.56
462.95	34036.07
463.13	33282.42
463.32	33336.25
463.50	33230.93
463.68	33661.58
463.86	33818.40
464.05	32912.61
464.23	32304.07
464.41	31835.97
464.59	31363.18
464.78	33095.18
464.96	32921.98
465.14	32587.28
465.32	33464.98
465.50	33979.90
465.69	34448.00
465.87	33811.38
466.05	33404.13
466.23	31402.97
466.41	31000.40
466.60	31892.14
466.78	31667.45
466.96	31807.88
467.14	33003.89
467.32	33380.72
467.51	33378.38
467.69	32205.77
467.87	32442.17
468.05	32957.08
468.23	32865.80
468.41	33385.40
468.60	33074.11
468.78	33481.36
468.96	32678.56
469.14	34029.05
469.32	33855.85
469.50	32105.13
469.69	32678.56
469.87	32194.07
470.05	31873.42
470.23	32084.06
470.41	32322.80
470.59	32755.80
470.77	33008.58
470.95	33731.80
471.14	33638.18
471.32	33551.58
471.50	35519.97
471.68	35744.66
471.86	36142.55
472.04	36266.60
472.22	36418.74
472.40	34939.52
472.58	34073.52
472.77	33734.14
472.95	34923.13
473.13	35131.44
473.31	34909.09
473.49	34775.68
473.67	35555.08
473.85	35515.29
474.03	36528.74
474.21	36463.21
474.39	36781.52
474.57	37366.65
474.75	36896.20
474.93	36943.02
475.12	36130.85
475.30	35796.15
475.48	36135.53
475.66	36811.95
475.84	36484.27
476.02	35878.07
476.20	35470.82
476.38	36304.05
476.56	37179.41
476.74	38115.62
476.92	38494.79
477.10	38115.62
477.28	39501.22
477.46	39431.01
477.64	40011.46
477.82	40189.34
478.00	40357.86
478.18	40133.17
478.36	39445.05
478.54	39576.12
478.72	39864.00
478.90	40575.53
479.08	41848.78
479.26	42253.69
479.44	42000.91
479.62	41855.80
479.80	41834.74
479.98	42342.63
480.16	42508.81
480.34	41752.82
480.52	42153.05
480.70	42857.55
480.88	43304.59
481.06	43328.00
481.24	44058.24
481.41	44900.84
481.59	45160.64
481.77	44961.69
481.95	44596.57
482.13	43978.67
482.31	44362.51
482.49	45069.36
482.67	44734.66
482.85	45502.35
483.03	45153.62
483.21	45783.22
483.39	46153.02
483.57	44933.60
483.74	44877.43
483.92	45462.57
484.10	45378.31
484.28	46485.38
484.46	46759.22
484.64	46878.59
484.82	46045.36
485.00	45918.97
485.18	45270.64
485.35	44006.75
485.53	40362.54
485.71	36996.85
485.89	36627.04
486.07	38356.70
486.25	41771.54
486.43	44053.56
486.61	44699.55
486.78	44519.33
486.96	44617.63
487.14	46380.06
487.32	47473.09
487.50	48587.18
487.68	49607.65
487.85	49790.22
488.03	49687.23
488.21	49052.95
488.39	48538.03
488.57	47798.42
488.75	47538.62
488.92	48755.70
489.10	51082.19
489.28	52547.37
489.46	53010.79
489.64	52940.58
489.81	53186.33
489.99	52657.37
490.17	52507.58
490.35	53256.55
490.53	52739.29
490.70	52058.20
490.88	52114.37
491.06	53041.22
491.24	53301.02
491.41	52083.94
491.59	50241.94
491.77	49226.15
491.95	50717.07
492.13	51934.15
492.30	53387.62
492.48	53970.41
492.66	54632.78
492.84	54532.14
493.01	54328.52
493.19	53719.98
493.37	53511.67
493.54	52996.75
493.72	54012.54
493.90	54749.81
494.08	55604.11
494.25	56018.38
494.43	56027.74
494.61	56245.41
494.79	56488.83
494.96	56336.69
495.14	55709.43
495.32	54925.35
495.49	54150.63
495.67	55047.06
495.85	56385.85
496.02	56811.82
496.20	56860.97
496.38	56219.67
496.55	56016.04
496.73	56772.03
496.91	56481.81
497.09	57221.42
497.26	57570.16
497.44	56863.32
497.62	56425.64
497.79	55763.26
497.97	54450.22
498.14	54471.29
498.32	55838.16
498.50	56514.58
498.67	57130.14
498.85	56966.30
499.03	57282.27
499.20	57378.23
499.38	57401.64
499.56	57015.45
499.73	56949.92
499.91	56397.55
500.08	55964.55
500.26	55152.38
500.44	55772.63
500.61	56442.02
500.79	56243.07
500.97	55875.61
501.14	55620.49
501.32	55421.55
501.49	55463.67
501.67	55707.09
501.84	56360.10
502.02	56605.86
502.20	56872.68
502.37	57228.44
502.55	57146.52
502.72	57703.57
502.90	58028.90
503.07	57710.59
503.25	57331.42
503.43	56402.23
503.60	55896.67
503.78	55110.25
503.95	55669.64
504.13	57071.62
504.30	57890.81
504.48	57855.70
504.65	57471.85
504.83	57127.80
505.01	58087.42
505.18	58274.66
505.36	58812.98
505.53	58805.96
505.71	58946.39
505.88	59145.34
506.06	58550.84
506.23	58012.52
506.41	57769.10
506.58	58082.73
506.76	58206.78
506.93	58176.36
507.11	57729.31
507.28	57989.11
507.46	57542.07
507.63	56858.63
507.81	56811.82
507.98	56839.91
508.16	57745.70
508.33	58152.95
508.50	58520.41
508.68	58829.37
508.85	59147.68
509.03	59351.30
509.20	59068.10
509.38	58431.47
509.55	57670.80
509.73	57822.93
509.90	58248.91
510.08	58419.77
510.25	58511.05
510.42	58340.19
510.60	58206.78
510.77	58599.99
510.95	58944.05
511.12	59105.55
511.30	59379.39
511.47	59700.04
511.64	59444.93
511.82	59267.05
511.99	58527.44
512.17	58291.04
512.34	57741.02
512.51	57916.56
512.69	57949.32
512.86	58099.12
513.04	58602.33
513.21	58536.80
513.38	58279.34
513.56	57932.94
513.73	57043.54
513.90	57509.30
514.08	57544.41
514.25	57827.62
514.43	58003.16
514.60	58080.39
514.77	58246.57
514.95	58461.90
515.12	58188.06
515.29	58143.59
515.47	58979.16
515.64	58995.54
515.81	58674.89
515.99	58031.24
516.16	56680.75
516.33	54471.29
516.51	53221.44
516.68	52069.90
516.85	52137.77
517.03	52332.04
517.20	54880.88
517.37	57371.21
517.54	58251.25
517.72	57813.57
517.89	55538.57
518.06	53041.22
518.24	53450.81
518.41	55604.11
518.58	56933.53
518.75	56886.72
518.93	57176.95
519.10	57120.77
519.27	57848.68
519.45	58066.35
519.62	58482.97
519.79	58969.80
519.96	58564.88
520.14	58178.70
520.31	57364.19
520.48	57277.59
520.65	57993.79
520.83	58567.23
521.00	59000.22
521.17	58754.47
521.34	58258.27
521.52	58630.42
521.69	59110.23
521.86	59601.74
522.03	59206.19
522.20	57961.03
522.38	56961.62
522.55	57099.71
522.72	57663.78
522.89	57776.12
523.07	57804.21
523.24	58220.83
523.41	59014.27
523.58	59381.73
523.75	59877.93
523.92	59695.36
524.10	59732.81
524.27	59597.06
524.44	59358.33
524.61	59257.68
524.78	58997.88
524.96	58967.46
525.13	59150.02
525.30	59262.36
525.47	59477.69
525.64	59634.51
525.81	58941.71
525.98	57350.15
526.16	56350.74
526.33	55458.99
526.50	55077.49
526.67	54529.80
526.84	55498.78
527.01	56177.54
527.18	57052.90
527.36	58202.10
527.53	58857.45
527.70	59234.28
527.87	58674.89
528.04	58188.06
528.21	58576.59
528.38	59173.42
528.55	59814.73
528.72	60060.49
528.89	60182.19
529.07	60016.02
529.24	59353.65
529.41	58756.81
529.58	58185.72
529.75	58344.87
529.92	58754.47
530.09	59023.63
530.26	59796.01
530.43	59707.07
530.60	59817.07
530.77	60135.38
530.94	60245.39
531.11	59709.41
531.28	59339.60
531.46	59164.06
531.63	59316.20
531.80	59194.49
531.97	58630.42
532.14	58141.25
532.31	56952.26
532.48	56423.29
532.65	56647.99
532.82	57198.01
532.99	58277.00
533.16	58688.93
533.33	59337.26
533.50	59030.65
533.67	58557.86
533.84	58047.63
534.01	58197.42
534.18	58471.26
534.35	58810.64
534.52	58672.55
534.69	58637.44
534.86	58920.65
535.03	59325.56
535.20	59587.70
535.37	60198.58
535.54	60238.37
535.71	59877.93
535.88	59566.63
536.05	58805.96
536.22	58354.24
536.38	58124.86
536.55	57764.42
536.72	57167.58
536.89	57244.82
537.06	58024.22
537.23	58925.33
537.40	58897.24
537.57	59107.89
537.74	58862.13
537.91	58836.39
538.08	58754.47
538.25	58803.62
538.42	59011.93
538.59	58913.62
538.75	58169.33
538.92	57886.13
539.09	57785.49
539.26	57633.35
539.43	57499.94
539.60	57499.94
539.77	57530.37
539.94	57724.63
540.11	56968.64
540.28	56151.79
540.44	56502.87
540.61	56559.05
540.78	56821.19
540.95	57654.42
541.12	57811.23
541.29	57851.02
541.46	58433.81
541.62	58213.80
541.79	58024.22
541.96	57450.79
542.13	57528.03
542.30	57869.75
542.47	58127.20
542.63	57717.61
542.80	57581.86
542.97	57661.44
543.14	57602.92
543.31	57481.22
543.48	58103.80
543.64	58822.34
543.81	59175.76
543.98	58878.52
544.15	58216.14
544.32	57703.57
544.48	57848.68
544.65	58148.27
544.82	58410.41
544.99	58316.79
545.16	57916.56
545.32	57703.57
545.49	58684.25
545.66	58915.96
545.83	58358.92
546.00	58162.31
546.16	57832.30
546.33	57638.03
546.50	57949.32
546.67	58223.17
546.83	57666.12
547.00	57874.43
547.17	57265.89
547.34	56584.79
547.50	56369.46
547.67	57022.47
547.84	57277.59
548.00	57478.88
548.17	57942.30
548.34	57944.64
548.51	57822.93
548.67	57858.04
548.84	57972.73
549.01	57808.89
549.18	57860.38
549.34	57724.63
549.51	57741.02
549.68	57626.33
549.84	57322.06
550.01	57537.39
550.18	57158.22
550.34	57411.00
550.51	57139.50
550.68	57513.98
550.84	57088.01
551.01	56963.96
551.18	57059.92
551.34	57270.57
551.51	57509.30
551.68	57858.04
551.84	57659.10
552.01	57532.71
552.18	57584.20
552.34	56729.90
552.51	56214.99
552.68	56332.01
552.84	56816.50
553.01	57148.86
553.18	56882.04
553.34	57027.15
553.51	57282.27
553.67	57378.23
553.84	57499.94
554.01	57570.16
554.17	57205.03
554.34	57216.74
554.51	57380.57
554.67	57939.96
554.84	57462.49
555.00	57188.65
555.17	56872.68
555.33	57116.09
555.50	56849.27
555.67	57216.74
555.83	56652.67
556.00	56776.72
556.16	56591.81
556.33	56198.60
556.50	56184.56
556.66	56236.05
556.83	55789.01
556.99	55842.84
557.16	55861.57
557.32	56413.93
557.49	56561.39
557.65	56676.07
557.82	56493.51
557.98	56212.65
558.15	55934.12
558.32	55065.78
558.48	54312.13
558.65	54520.44
558.81	54738.11
558.98	55103.23
559.14	55215.58
559.31	55334.95
559.47	55035.36
559.64	54927.69
559.80	54536.82
559.97	54951.10
560.13	55260.05
560.30	56280.52
560.46	56523.94
560.63	56905.44
560.79	56851.61
560.96	56271.16
561.12	55398.14
561.29	54677.25
561.45	54375.33
561.61	54955.78
561.78	55681.34
561.94	55569.00
562.11	55124.30
562.27	54824.71
562.44	55561.98
562.60	55941.14
562.77	55784.33
562.93	55941.14
563.10	55833.48
563.26	55377.08
563.42	55143.02
563.59	55133.66
563.75	55075.15
563.92	54997.91
564.08	54918.33
564.24	55416.86
564.41	55393.46
564.57	55393.46
564.74	55000.25
564.90	54913.65
565.07	54958.12
565.23	54485.33
565.39	54134.25
565.56	53731.68
565.72	53497.62
565.88	53748.06
566.05	54024.25
566.21	54181.06
566.38	54501.71
566.54	54335.54
566.70	54953.44
566.87	54976.84
567.03	55009.61
567.19	55213.24
567.36	55037.70
567.52	54859.82
567.68	54389.37
567.85	53804.24
568.01	53560.82
568.17	52945.26
568.34	53378.26
568.50	52959.30
568.66	53315.06
568.83	53712.95
568.99	53357.19
569.15	54066.38
569.32	53890.83
569.48	53394.64
569.64	53329.11
569.81	53113.78
569.97	52823.55
570.13	52961.64
570.30	52282.89
570.46	51660.30
570.62	51501.15
570.78	51178.15
570.95	51461.36
571.11	52608.22
571.27	52619.92
571.43	52870.36
571.60	53102.07
571.76	53198.04
571.92	53645.08
572.09	53616.99
572.25	53881.47
572.41	53581.88
572.57	53448.47
572.74	53333.79
572.90	52921.85
573.06	52968.66
573.22	53174.63
573.38	53216.76
573.55	53226.12
573.71	53497.62
573.87	53158.25
574.03	52968.66
574.20	52772.06
574.36	52666.73
574.52	52488.85
574.68	52388.21
574.84	51913.08
575.01	51515.19
575.17	51377.10
575.33	51639.24
575.49	52069.90
575.65	51999.68
575.82	52067.56
575.98	51578.39
576.14	51578.39
576.30	52343.74
576.46	52404.59
576.62	52137.77
576.79	52275.87
576.95	51674.35
577.11	51744.56
577.27	51966.91
577.43	51835.84
577.59	51657.96
577.75	50939.42
577.92	50602.38
578.08	50328.54
578.24	50195.13
578.40	50473.65
578.56	50918.35
578.72	50686.64
578.88	51119.64
579.04	51260.07
579.21	51594.77
579.37	51337.31
579.53	51480.08
579.69	51728.18
579.85	51454.34
580.01	51531.57
580.17	51161.77
580.33	51007.29
580.49	50988.57
580.65	51349.01
580.82	51381.78
580.98	50934.74
581.14	51264.75
581.30	51327.95
581.46	50990.91
581.62	51077.51
581.78	51641.58
581.94	51725.84
582.10	51423.91
582.26	51779.67
582.42	51702.43
582.58	51604.13
582.74	51629.88
582.90	51531.57
583.06	51452.00
583.22	51409.87
583.38	51341.99
583.54	51407.53
583.70	51007.29
583.86	51468.38
584.02	51014.32
584.18	51264.75
584.34	50960.48
584.50	51285.82
584.66	50810.69
584.82	50141.30
584.98	50237.26
585.14	49762.13
585.30	49219.13
