SpectraSuite Data File
++++++++++++++++++++++++++++++++++++
Date: Mon Oct 07 14:53:46 GMT-05:00 2013
User: price-jones
Dark Spectrum Present: No
Reference Spectrum Present: No
Number of Sampled Component Spectra: 1
Spectrometers: USB2+H05261
Integration Time (usec): 100000 (USB2+H05261)
Spectra Averaged: 1 (USB2+H05261)
Boxcar Smoothing: 0 (USB2+H05261)
Correct for Electrical Dark: No (USB2+H05261)
Strobe/Lamp Enabled: No (USB2+H05261)
Correct for Detector Non-linearity: No (USB2+H05261)
Correct for Stray Light: No (USB2+H05261)
Number of Pixels in Processed Spectrum: 2048
>>>>>Begin Processed Spectral Data<<<<<
365.73	0.00
365.92	0.00
366.12	0.00
366.32	0.00
366.52	0.00
366.72	0.00
366.91	0.00
367.11	0.00
367.31	0.00
367.51	0.00
367.70	0.00
367.90	0.00
368.10	0.00
368.30	0.00
368.49	0.00
368.69	0.00
368.89	0.00
369.09	0.00
369.28	0.00
369.48	0.00
369.68	0.00
369.87	0.00
370.07	0.00
370.27	0.00
370.47	482.15
370.66	2722.04
370.86	3536.55
371.06	3655.92
371.25	3742.52
371.45	3440.59
371.65	3080.14
371.84	2897.58
372.04	2925.67
372.24	3215.90
372.44	3536.55
372.63	3513.14
372.83	3220.58
373.03	2909.29
373.22	2684.59
373.42	2839.07
373.62	3087.17
373.81	3513.14
374.01	3433.57
374.21	3077.80
374.40	2930.35
374.60	2916.31
374.79	3424.20
374.99	3831.46
375.19	4266.80
375.38	4140.41
375.58	4107.64
375.78	4025.72
375.97	4002.32
376.17	4058.49
376.37	4208.28
376.56	4332.33
376.76	4461.06
376.95	4760.65
377.15	5231.10
377.35	5406.64
377.54	5610.26
377.74	5797.51
377.93	5902.83
378.13	5568.13
378.33	5399.62
378.52	5064.92
378.72	4674.05
378.91	4674.05
379.11	4484.47
379.31	4397.87
379.50	4341.69
379.70	4748.95
379.89	5275.57
380.09	5514.30
380.28	5673.46
380.48	5392.59
380.68	5500.26
380.87	5430.04
381.07	4987.68
381.26	4652.98
381.46	4372.12
381.65	4168.49
381.85	4135.73
382.04	3843.16
382.24	3543.57
382.43	3555.27
382.63	3353.99
382.83	3337.60
383.02	3501.44
383.22	3391.44
383.41	3389.10
383.61	3641.87
383.80	4189.56
384.00	4823.84
384.19	5355.15
384.39	5628.99
384.58	5689.84
384.78	5516.64
384.97	5544.73
385.17	5118.75
385.36	4947.89
385.56	4709.16
385.75	4798.10
385.95	5294.29
386.14	5750.70
386.34	5778.78
386.53	5554.09
386.72	5100.03
386.92	5298.97
387.11	5572.82
387.31	5823.25
387.50	5591.54
387.70	5408.98
387.89	5310.68
388.09	5310.68
388.28	5373.87
388.48	5575.16
388.67	5940.28
388.86	6492.65
389.06	7030.97
389.25	7342.26
389.45	7506.10
389.64	7290.77
389.84	7403.11
390.03	7059.06
390.22	7283.75
390.42	7382.05
390.61	8187.19
390.81	8409.54
391.00	8741.90
391.19	8669.34
391.39	8510.19
391.58	7831.43
391.78	7496.74
391.97	7112.89
392.16	6567.54
392.36	6120.50
392.55	4861.29
392.75	3915.72
392.94	3290.79
393.13	3054.40
393.33	3705.07
393.52	4681.07
393.71	5921.56
393.91	6590.95
394.10	6998.20
394.29	7751.85
394.49	8423.59
394.68	9022.77
394.88	9259.16
395.07	9261.50
395.26	9207.67
395.46	8889.35
395.65	8566.36
395.84	7541.21
396.04	6532.44
396.23	5118.75
396.42	4454.04
396.62	4219.99
396.81	4863.63
397.00	6389.66
397.19	7805.69
397.39	9310.65
397.58	10516.03
397.77	10789.87
397.97	11487.35
398.16	11461.60
398.35	11934.39
398.55	12252.70
398.74	12769.96
398.93	12980.61
399.12	12961.89
399.32	12549.95
399.51	12685.70
399.70	13298.92
399.90	13214.66
400.09	13376.16
400.28	13132.75
400.47	13275.52
400.67	13781.07
400.86	14389.61
401.05	14349.82
401.24	14420.04
401.44	14853.04
401.63	14602.60
401.82	14785.16
402.01	14679.84
402.21	15026.24
402.40	14916.23
402.59	14553.45
402.78	13811.50
402.97	13544.68
403.17	14099.39
403.36	14974.75
403.55	15417.11
403.74	15733.08
403.93	14789.85
404.13	13687.45
404.32	13673.41
404.51	14008.11
404.70	15227.53
404.89	15169.01
405.09	15070.71
405.28	14672.82
405.47	14614.30
405.66	14609.62
405.85	14214.07
406.05	13788.10
406.24	13788.10
406.43	14384.93
406.62	15077.73
406.81	15475.62
407.00	14778.14
407.20	14499.62
407.39	14387.27
407.58	14941.98
407.77	15960.11
407.96	16063.10
408.15	16608.44
408.34	16334.60
408.54	17151.45
408.73	17256.77
408.92	16952.50
409.11	16381.41
409.30	15824.36
409.49	14743.03
409.68	14075.98
409.87	13612.56
410.07	14265.57
410.26	15374.98
410.45	16358.00
410.64	16943.14
410.83	17247.41
411.02	17654.66
411.21	18668.11
411.40	18232.77
411.59	18160.22
411.78	18047.87
411.98	18031.49
412.17	18118.09
412.36	17759.98
412.55	18207.03
412.74	17455.72
412.93	17289.54
413.12	17156.13
413.31	18953.66
413.50	19276.65
413.69	19452.19
413.88	19033.24
414.07	18171.92
414.26	18600.24
414.45	19077.71
414.64	19143.24
414.83	19103.45
415.02	18553.43
415.22	18618.96
415.41	19243.88
415.60	19822.00
415.79	20769.91
415.98	21106.95
416.17	21195.89
416.36	20276.06
416.55	20624.80
416.74	19793.91
416.93	19044.94
417.12	19225.16
417.31	19246.23
417.50	19510.71
417.69	20233.93
417.88	20095.84
418.07	20109.88
418.26	20023.28
418.45	19941.36
418.64	20882.26
418.83	21654.64
419.02	21111.63
419.21	21106.95
419.39	19988.18
419.58	18796.84
419.77	18703.22
419.96	19885.19
420.15	20957.16
420.34	21703.79
420.53	22232.75
420.72	22799.16
420.91	22810.86
421.10	22192.96
421.29	21879.33
421.48	20882.26
421.67	22328.71
421.86	21771.66
422.05	20465.64
422.24	18403.63
422.43	17781.05
422.61	20056.05
422.80	21762.30
422.99	21556.33
423.18	20652.89
423.37	20369.68
423.56	20587.35
423.75	20727.78
423.94	21163.12
424.13	19786.89
424.32	20585.01
424.50	20355.64
424.69	19927.32
424.88	20119.24
425.07	20126.27
425.26	20159.03
425.45	20112.22
425.64	19496.66
425.83	19580.92
426.01	20702.04
426.20	21022.69
426.39	21357.39
426.58	19700.29
426.77	18111.07
426.96	17322.30
427.15	17963.61
427.33	19777.53
427.52	20449.26
427.71	20814.38
427.90	20079.46
428.09	20180.10
428.28	19606.67
428.46	19033.24
428.65	18719.60
428.84	19400.70
429.03	19499.00
429.22	18347.46
429.40	17624.23
429.59	15967.13
429.78	13928.53
429.97	14026.83
430.16	14101.73
430.34	14508.98
430.53	14148.54
430.72	14743.03
430.91	16156.72
431.10	18611.94
431.28	22150.83
431.47	24027.94
431.66	24381.36
431.85	22050.19
432.03	20222.23
432.22	19140.90
432.41	20175.42
432.60	22597.87
432.79	23403.02
432.97	24119.22
433.16	23463.87
433.35	21418.24
433.54	19412.40
433.72	18258.52
433.91	18478.53
434.10	21006.31
434.28	22527.66
434.47	23587.92
434.66	23157.26
434.85	22668.09
435.03	22677.45
435.22	23087.04
435.41	24474.98
435.59	24416.47
435.78	24854.15
435.97	25764.62
436.16	25820.79
436.34	25139.69
436.53	24318.17
436.72	24748.82
436.90	23314.08
437.09	23679.20
437.28	22965.34
437.46	23796.23
437.65	23625.37
437.84	22111.04
438.02	20428.20
438.21	20053.71
438.40	21291.85
438.58	23063.64
438.77	23681.54
438.96	23920.28
439.14	25411.20
439.33	25518.86
439.52	26017.40
439.70	25263.74
439.89	24870.53
440.08	24304.12
440.26	23948.36
440.45	25071.82
440.63	26565.08
440.82	28170.69
441.01	27826.63
441.19	27124.47
441.38	27463.85
441.57	28680.92
441.75	28875.19
441.94	29074.13
442.12	28994.56
442.31	29773.95
442.50	29254.36
442.68	28950.09
442.87	28840.08
443.05	28058.34
443.24	28903.28
443.43	29362.02
443.61	30256.11
443.80	30281.85
443.98	28512.41
444.17	28533.47
444.35	30003.33
444.54	30848.26
444.73	29890.98
444.91	29048.39
445.10	28203.46
445.28	26679.77
445.47	26270.17
445.65	26623.59
445.84	27435.76
446.02	28411.76
446.21	28615.39
446.39	28573.26
446.58	29043.71
446.77	29591.39
446.95	29450.96
447.14	30771.02
447.32	30993.37
447.51	30389.52
447.69	29041.37
447.88	28709.01
448.06	29237.97
448.25	30321.64
448.43	30452.71
448.62	29504.79
448.80	29670.97
448.99	29923.75
449.17	30253.76
449.36	30024.39
449.54	31314.03
449.73	31295.30
449.91	31737.66
450.10	32854.10
450.28	33141.99
450.46	33074.11
450.65	33095.18
450.83	33050.70
451.02	32074.70
451.20	32250.24
451.39	31498.93
451.57	31864.05
451.76	31924.91
451.94	31878.10
452.13	30948.90
452.31	29509.47
452.49	28512.41
452.68	28737.10
452.86	28886.89
453.05	28992.22
453.23	30106.31
453.42	30352.07
453.60	31466.16
453.78	31611.28
453.97	31414.67
454.15	31709.58
454.34	30321.64
454.52	30504.20
454.70	30019.71
454.89	30335.68
455.07	30363.77
455.26	31129.12
455.44	32472.59
455.62	32734.73
455.81	33029.64
455.99	32950.06
456.17	32320.46
456.36	32142.58
456.54	33354.97
456.73	33596.05
456.91	34195.23
457.09	33832.44
457.28	34717.17
457.46	33666.27
457.64	33085.81
457.83	32187.05
458.01	31222.75
458.19	32165.98
458.38	32701.96
458.56	33359.66
458.74	33413.49
458.93	32491.32
459.11	32879.85
459.29	32432.80
459.48	32676.22
459.66	32271.31
459.84	32514.72
460.03	33177.09
460.21	32950.06
460.39	33975.22
460.57	33713.08
460.76	34153.10
460.94	34356.72
461.12	34157.78
461.31	33930.75
461.49	34029.05
461.67	33551.58
461.85	34892.71
462.04	34925.47
462.22	35178.25
462.40	35061.22
462.59	34930.16
462.77	35105.70
462.95	34995.69
463.13	34333.32
463.32	34146.08
463.50	33837.12
463.68	33830.10
463.86	34398.85
464.05	33762.23
464.23	32886.87
464.41	33008.58
464.59	32596.64
464.78	34026.71
464.96	33617.11
465.14	33240.29
465.32	34443.32
465.50	34852.92
465.69	35295.28
465.87	34473.75
466.05	33897.98
466.23	32383.65
466.41	30918.48
466.60	32283.01
466.78	32184.71
466.96	33024.96
467.14	33582.01
467.32	34211.61
467.51	34295.87
467.69	32723.03
467.87	33132.62
468.05	33507.11
468.23	33514.13
468.41	33989.26
468.60	34106.29
468.78	34188.21
468.96	33762.23
469.14	34506.52
469.32	34824.83
469.50	33209.86
469.69	33256.67
469.87	32737.07
470.05	32711.33
470.23	32823.67
470.41	33078.79
470.59	33226.24
470.77	33551.58
470.95	34501.84
471.14	34689.08
471.32	34621.20
471.50	36552.15
471.68	36835.35
471.86	36910.25
472.04	37263.67
472.22	37188.77
472.40	35225.06
472.58	34986.33
472.77	34492.47
472.95	35196.98
473.13	36318.09
473.31	35557.42
473.49	35672.10
473.67	36369.58
473.85	36149.57
474.03	37586.66
474.21	37137.28
474.39	38012.64
474.57	37848.80
474.75	37986.89
474.93	37893.27
475.12	36669.17
475.30	36697.26
475.48	36975.78
475.66	37581.98
475.84	37310.48
476.02	36706.62
476.20	36322.77
476.38	36779.18
476.56	37881.57
476.74	38756.93
476.92	38504.15
477.10	39154.82
477.28	40507.65
477.46	40491.27
477.64	41043.63
477.82	40973.42
478.00	41125.55
478.18	40950.01
478.36	40273.60
478.54	40402.33
478.72	40781.49
478.90	41331.52
479.08	42621.16
479.26	43000.32
479.44	42763.93
479.62	42534.56
479.80	43405.23
479.98	43180.54
480.16	43318.64
480.34	43082.24
480.52	43529.28
480.70	43435.66
480.88	43840.57
481.06	44360.17
481.24	44601.25
481.41	45511.72
481.59	45895.56
481.77	46028.98
481.95	45078.72
482.13	45099.78
482.31	45202.77
482.49	45933.01
482.67	45537.46
482.85	45670.87
483.03	46625.81
483.21	47189.88
483.39	46679.64
483.57	46026.63
483.74	45584.27
483.92	46267.71
484.10	46403.46
484.28	47552.66
484.46	47283.50
484.64	48093.33
484.82	47054.13
485.00	46520.49
485.18	46005.57
485.35	44914.88
485.53	41532.81
485.71	37947.11
485.89	37516.45
486.07	39370.15
486.25	42644.56
486.43	45429.80
486.61	45720.02
486.78	45378.31
486.96	45778.54
487.14	47264.78
487.32	48238.44
487.50	49492.97
487.68	50181.09
487.85	50906.65
488.03	50829.41
488.21	50286.41
488.39	49350.20
488.57	49102.10
488.75	48582.50
488.92	49773.83
489.10	51863.93
489.28	53172.29
489.46	53661.46
489.64	53425.07
489.81	53762.11
489.99	53413.37
490.17	53305.70
490.35	54059.35
490.53	53549.12
490.70	52947.60
490.88	52612.90
491.06	53846.36
491.24	53979.78
491.41	52891.43
491.59	51416.89
491.77	50284.07
491.95	51543.28
492.13	52736.95
492.30	53890.83
492.48	54773.22
492.66	55267.07
492.84	55147.70
493.01	54859.82
493.19	54609.38
493.37	54171.70
493.54	54213.83
493.72	54426.82
493.90	55482.40
494.08	56294.56
494.25	56566.07
494.43	56605.86
494.61	57017.79
494.79	57155.88
494.96	56973.32
495.14	56086.26
495.32	55508.14
495.49	54805.98
495.67	55840.50
495.85	57006.09
496.02	57387.60
496.20	57441.43
496.38	57080.98
496.55	56734.59
496.73	57347.81
496.91	57151.20
497.09	58206.78
497.26	58178.70
497.44	57654.42
497.62	57162.90
497.79	56282.86
497.97	55381.76
498.14	55210.90
498.32	56395.21
498.50	57188.65
498.67	57633.35
498.85	57733.99
499.03	57946.98
499.20	58237.21
499.38	58171.67
499.56	58094.44
499.73	57642.71
499.91	56956.94
500.08	56722.88
500.26	55950.51
500.44	56343.72
500.61	57073.96
500.79	56903.10
500.97	56423.29
501.14	56350.74
501.32	56112.00
501.49	56268.82
501.67	56484.15
501.84	57076.30
502.02	57167.58
502.20	57595.90
502.37	57705.91
502.55	57677.82
502.72	58127.20
502.90	58585.95
503.07	58354.24
503.25	57909.53
503.43	57151.20
503.60	56559.05
503.78	55852.20
503.95	56210.31
504.13	57705.91
504.30	58426.79
504.48	58326.15
504.65	57977.41
504.83	57956.35
505.01	58585.95
505.18	58925.33
505.36	59491.74
505.53	59428.54
505.71	59700.04
505.88	59770.26
506.06	59311.52
506.23	58812.98
506.41	58585.95
506.58	58869.15
506.76	58452.54
506.93	58592.97
507.11	58335.51
507.28	58492.33
507.46	58108.48
507.63	57635.69
507.81	57418.02
507.98	57745.70
508.16	58237.21
508.33	58766.17
508.50	59320.88
508.68	59384.07
508.85	59906.01
509.03	59856.86
509.20	59695.36
509.38	59030.65
509.55	58108.48
509.73	58307.43
509.90	58960.44
510.08	59086.82
510.25	59093.85
510.42	58859.79
510.60	58616.38
510.77	59138.32
510.95	59587.70
511.12	59824.09
511.30	59814.73
511.47	60385.82
511.64	60259.43
511.82	60006.65
511.99	59091.51
512.17	58890.22
512.34	58468.92
512.51	58581.27
512.69	58497.01
512.86	58862.13
513.04	59311.52
513.21	59213.21
513.38	58869.15
513.56	58286.36
513.73	57829.96
513.90	58141.25
514.08	57993.79
514.25	58337.85
514.43	58475.94
514.60	58576.59
514.77	58892.56
514.95	58953.41
515.12	58768.51
515.29	59002.56
515.47	59526.84
515.64	59852.18
515.81	59393.43
515.99	58761.49
516.16	57759.74
516.33	55526.87
516.51	53708.27
516.68	53036.54
516.85	52783.76
517.03	53006.11
517.20	55543.25
517.37	57954.00
517.54	59075.12
517.72	58548.50
517.89	56285.20
518.06	53738.70
518.24	53954.03
518.41	56287.54
518.58	57558.45
518.75	57551.43
518.93	57806.55
519.10	57783.15
519.27	58162.31
519.45	58461.90
519.62	59133.63
519.79	59428.54
519.96	59306.83
520.14	58775.53
520.31	58000.82
520.48	58120.18
520.65	58092.10
520.83	59285.77
521.00	59695.36
521.17	59267.05
521.34	58958.09
521.52	59110.23
521.69	59681.32
521.86	60229.01
522.03	59938.78
522.20	58976.82
522.38	57549.09
522.55	57687.18
522.72	58204.44
522.89	58539.14
523.07	58536.80
523.24	58791.92
523.41	59615.79
523.58	59980.91
523.75	60453.70
523.92	60416.25
524.10	60245.39
524.27	60397.52
524.44	60140.07
524.61	59831.11
524.78	59824.09
524.96	59767.92
525.13	59604.08
525.30	59704.73
525.47	60271.14
525.64	60072.19
525.81	59484.72
525.98	58281.68
526.16	56856.29
526.33	56130.73
526.50	55920.08
526.67	55365.37
526.84	56224.35
527.01	57097.37
527.18	57827.62
527.36	58578.93
527.53	59580.68
527.70	59887.29
527.87	59180.45
528.04	58756.81
528.21	59068.10
528.38	59840.48
528.55	60411.57
528.72	60741.58
528.89	60783.71
529.07	60530.93
529.24	59817.07
529.41	59524.50
529.58	58592.97
529.75	58728.72
529.92	59566.63
530.09	59674.30
530.26	60278.16
530.43	60519.23
530.60	60683.07
530.77	60741.58
530.94	60835.20
531.11	60402.21
531.28	59999.63
531.46	59697.70
531.63	59969.21
531.80	59889.63
531.97	59662.60
532.14	58918.31
532.31	57822.93
532.48	57254.18
532.65	57216.74
532.82	58059.33
532.99	59093.85
533.16	59522.16
533.33	59948.14
533.50	59746.86
533.67	59243.64
533.84	58983.84
534.01	59028.31
534.18	59201.51
534.35	59236.62
534.52	58953.41
534.69	59288.11
534.86	59709.41
535.03	60067.51
535.20	60168.15
535.37	60931.17
535.54	60818.82
535.71	60495.83
535.88	60126.02
536.05	59379.39
536.22	59276.41
536.38	58754.47
536.55	58408.07
536.72	57764.42
536.89	57682.50
537.06	58693.61
537.23	59465.99
537.40	59660.26
537.57	59814.73
537.74	59592.38
537.91	59388.75
538.08	59423.86
538.25	59351.30
538.42	59508.12
538.59	59473.01
538.75	58897.24
538.92	58550.84
539.09	58440.84
539.26	58087.42
539.43	58159.97
539.60	58064.01
539.77	58389.34
539.94	58255.93
540.11	57418.02
540.28	56954.60
540.44	57057.58
540.61	57408.66
540.78	57602.92
540.95	57904.85
541.12	58468.92
541.29	58461.90
541.46	58899.58
541.62	58754.47
541.79	58667.87
541.96	58150.61
542.13	58117.84
542.30	58466.58
542.47	58805.96
542.63	58419.77
542.80	58220.83
542.97	58454.88
543.14	58145.93
543.31	58192.74
543.48	58780.21
543.64	59526.84
543.81	59875.58
543.98	59552.59
544.15	59032.99
544.32	58284.02
544.48	58258.27
544.65	58796.60
544.82	59257.68
544.99	58948.73
545.16	58623.40
545.32	58417.43
545.49	59107.89
545.66	59381.73
545.83	59194.49
546.00	58745.11
546.16	58251.25
546.33	58333.17
546.50	58459.56
546.67	59072.78
546.83	58541.48
547.00	58468.92
547.17	57794.85
547.34	57464.83
547.50	57460.15
547.67	57642.71
547.84	57855.70
548.00	58166.99
548.17	58592.97
548.34	58485.31
548.51	58487.65
548.67	58330.83
548.84	58681.91
549.01	58660.85
549.18	58576.59
549.34	58300.40
549.51	58361.26
549.68	58148.27
549.84	58117.84
550.01	57897.83
550.18	57860.38
550.34	58143.59
550.51	57951.66
550.68	58024.22
550.84	57673.14
551.01	57719.95
551.18	57827.62
551.34	57893.15
551.51	58211.46
551.68	58405.73
551.84	58684.25
552.01	58408.07
552.18	58164.65
552.34	57474.20
552.51	57052.90
552.68	56917.15
552.84	57579.52
553.01	57628.67
553.18	57825.28
553.34	57860.38
553.51	57780.81
553.67	58169.33
553.84	58436.16
554.01	58220.83
554.17	57858.04
554.34	58000.82
554.51	58056.99
554.67	58391.68
554.84	58265.30
555.00	57993.79
555.17	57537.39
555.33	57560.79
555.50	57780.81
555.67	57673.14
555.83	57396.96
556.00	57329.08
556.16	57144.18
556.33	56921.83
556.50	56776.72
556.66	56830.55
556.83	56439.68
556.99	56650.33
557.16	56591.81
557.32	57137.16
557.49	57378.23
557.65	57062.26
557.82	57048.22
557.98	56940.55
558.15	56542.66
558.32	55739.86
558.48	55061.10
558.65	55215.58
558.81	55482.40
558.98	55758.58
559.14	55992.64
559.31	56186.90
559.47	56308.61
559.64	55803.05
559.80	55213.24
559.97	55395.80
560.13	56072.21
560.30	56875.02
560.46	57455.47
560.63	57455.47
560.79	57659.10
560.96	56893.74
561.12	55929.44
561.29	55304.52
561.45	55320.90
561.61	55901.36
561.78	56217.33
561.94	56107.32
562.11	56006.68
562.27	55693.05
562.44	56402.23
562.60	56694.80
562.77	56858.63
562.93	56690.12
563.10	56535.64
563.26	55955.19
563.42	56030.08
563.59	55571.34
563.75	55739.86
563.92	55786.67
564.08	55632.19
564.24	56135.41
564.41	56158.81
564.57	55863.91
564.74	55903.70
564.90	55784.33
565.07	55484.74
565.23	55133.66
565.39	54740.45
565.56	54216.17
565.72	54080.42
565.88	54611.72
566.05	54691.30
566.21	54871.52
566.38	55042.38
566.54	55084.51
566.70	55627.51
566.87	55784.33
567.03	55618.15
567.19	56088.60
567.36	55758.58
567.52	55753.90
567.68	55295.16
567.85	54724.07
568.01	54365.96
568.17	54106.16
568.34	54040.63
568.50	54092.12
568.66	53794.87
568.83	54621.08
568.99	54246.60
569.15	54686.62
569.32	54616.40
569.48	54223.19
569.64	54415.11
569.81	53951.69
569.97	53588.91
570.13	54134.25
570.30	53380.60
570.46	53015.47
570.62	52165.86
570.78	52254.80
570.95	52435.02
571.11	53432.09
571.27	53525.71
571.43	53865.09
571.60	54141.27
571.76	54255.96
571.92	54426.82
572.09	54291.07
572.25	54499.37
572.41	54600.02
572.57	54525.12
572.74	54391.71
572.90	53755.08
573.06	53827.64
573.22	54138.93
573.38	53918.92
573.55	54042.97
573.71	54057.01
573.87	53876.79
574.03	53551.46
574.20	53907.22
574.36	53530.39
574.52	53488.26
574.68	53167.61
574.84	52664.39
575.01	52285.23
575.17	52182.24
575.33	52655.03
575.49	52734.61
575.65	52781.42
575.82	52839.93
575.98	52442.04
576.14	53090.37
576.30	53109.10
576.46	53034.20
576.62	53120.80
576.79	53195.70
576.95	52463.11
577.11	52648.01
577.27	52823.55
577.43	52552.05
577.59	52428.00
577.75	51978.62
577.92	51470.72
578.08	51192.20
578.24	51196.88
578.40	51690.73
578.56	52168.20
578.72	51697.75
578.88	52004.36
579.04	52126.07
579.21	52196.29
579.37	52516.94
579.53	52339.06
579.69	52250.12
579.85	52530.98
580.01	52264.16
580.17	52079.26
580.33	51826.48
580.49	51892.02
580.65	52360.12
580.82	52453.75
580.98	52633.97
581.14	51980.96
581.30	52126.07
581.46	52121.39
581.62	52547.37
581.78	52325.02
581.94	52755.68
582.10	52233.74
582.26	52573.11
582.42	52523.96
582.58	52514.60
582.74	52542.69
582.90	52413.96
583.06	52100.32
583.22	52388.21
583.38	52149.48
583.54	51924.78
583.70	52011.38
583.86	52126.07
584.02	51725.84
584.18	52011.38
584.34	52030.11
584.50	51950.53
584.66	51887.34
584.82	51334.97
584.98	51285.82
585.14	50679.62
585.30	50204.49
