SpectraSuite Data File
++++++++++++++++++++++++++++++++++++
Date: Mon Oct 07 14:55:00 GMT-05:00 2013
User: price-jones
Dark Spectrum Present: No
Reference Spectrum Present: No
Number of Sampled Component Spectra: 1
Spectrometers: USB2+H05261
Integration Time (usec): 10000 (USB2+H05261)
Spectra Averaged: 1 (USB2+H05261)
Boxcar Smoothing: 0 (USB2+H05261)
Correct for Electrical Dark: No (USB2+H05261)
Strobe/Lamp Enabled: No (USB2+H05261)
Correct for Detector Non-linearity: No (USB2+H05261)
Correct for Stray Light: No (USB2+H05261)
Number of Pixels in Processed Spectrum: 2048
>>>>>Begin Processed Spectral Data<<<<<
365.73	0.00
365.92	0.00
366.12	0.00
366.32	0.00
366.52	0.00
366.72	0.00
366.91	0.00
367.11	0.00
367.31	0.00
367.51	0.00
367.70	0.00
367.90	0.00
368.10	0.00
368.30	0.00
368.49	0.00
368.69	0.00
368.89	0.00
369.09	0.00
369.28	0.00
369.48	0.00
369.68	0.00
369.87	0.00
370.07	0.00
370.27	0.00
370.47	88.94
370.66	1455.81
370.86	1661.78
371.06	1853.70
371.25	1727.32
371.45	1568.16
371.65	1392.62
371.84	1355.17
372.04	1458.15
372.24	1678.16
372.44	1783.49
372.63	1692.21
372.83	1533.05
373.03	1322.40
373.22	1212.40
373.42	1453.47
373.62	1717.95
373.81	1727.32
374.01	1659.44
374.21	1612.63
374.40	1366.87
374.60	1584.54
374.79	1715.61
374.99	2193.08
375.19	2099.46
375.38	2118.18
375.58	2054.99
375.78	1881.79
375.97	1968.39
376.17	2118.18
376.37	2047.97
376.56	2129.89
376.76	2235.21
376.95	2466.92
377.15	2677.57
377.35	2754.81
377.54	2855.45
377.74	2937.37
377.93	2862.48
378.13	2743.11
378.33	2504.37
378.52	2452.88
378.72	2340.54
378.91	2324.15
379.11	2118.18
379.31	2179.04
379.50	2188.40
379.70	2443.52
379.89	2700.98
380.09	2750.13
380.28	2754.81
380.48	2726.72
380.68	2785.24
380.87	2635.44
381.07	2513.74
381.26	2342.88
381.46	2062.01
381.65	2062.01
381.85	2015.20
382.04	1907.54
382.24	1804.55
382.43	1680.50
382.63	1582.20
382.83	1533.05
383.02	1692.21
383.22	1612.63
383.41	1638.38
383.61	1832.64
383.80	2024.56
384.00	2450.54
384.19	2768.85
384.39	2822.69
384.58	2895.24
384.78	2722.04
384.97	2733.75
385.17	2548.84
385.36	2434.16
385.56	2375.64
385.75	2537.14
385.95	2754.81
386.14	3000.57
386.34	2913.97
386.53	2656.51
386.72	2586.29
386.92	2530.12
387.11	2761.83
387.31	2895.24
387.50	2818.00
387.70	2740.77
387.89	2801.62
388.09	2715.02
388.28	2818.00
388.48	2829.71
388.67	3155.04
388.86	3611.45
389.06	3796.35
389.25	3641.87
389.45	3803.37
389.64	3772.94
389.84	3688.68
390.03	3559.95
390.22	3779.97
390.42	3913.38
390.61	4271.48
390.81	4447.02
391.00	4456.38
391.19	4219.99
391.39	4201.26
391.58	3948.48
391.78	3791.67
391.97	3702.73
392.16	3520.17
392.36	2979.50
392.55	2282.02
392.75	1802.21
392.94	1495.60
393.13	1661.78
393.33	2022.22
393.52	2630.76
393.71	3052.06
393.91	3456.97
394.10	3686.34
394.29	4159.13
394.49	4533.62
394.68	4744.27
394.88	4791.08
395.07	4943.21
395.26	4842.57
395.46	4472.76
395.65	4203.60
395.84	3641.87
396.04	2981.84
396.23	2450.54
396.42	2111.16
396.62	2069.03
396.81	2661.19
397.00	3386.76
397.19	4315.95
397.39	5006.41
397.58	5502.60
397.77	5809.21
397.97	6043.26
398.16	6043.26
398.35	6260.93
398.55	6342.85
398.74	6724.36
398.93	6651.80
399.12	6780.53
399.32	6607.33
399.51	6619.04
399.70	7110.55
399.90	6932.67
400.09	6965.43
400.28	6806.28
400.47	7002.88
400.67	7410.14
400.86	7522.48
401.05	7573.97
401.24	7557.59
401.44	7728.45
401.63	7618.44
401.82	7679.30
402.01	7749.51
402.21	7562.27
402.40	7716.75
402.59	7588.02
402.78	7063.74
402.97	7082.46
403.17	7396.09
403.36	7838.45
403.55	8002.29
403.74	7999.95
403.93	7496.74
404.13	7030.97
404.32	7531.84
404.51	7623.12
404.70	8009.31
404.89	7929.74
405.09	7925.05
405.28	7665.25
405.47	7571.63
405.66	7606.74
405.85	7267.36
406.05	7143.32
406.24	7370.35
406.43	7459.29
406.62	8035.06
406.81	8006.97
407.00	7604.40
407.20	7314.17
407.39	7538.87
407.58	8091.23
407.77	8276.13
407.96	8779.35
408.15	8723.18
408.34	8615.51
408.54	9046.17
408.73	8990.00
408.92	9076.60
409.11	8638.92
409.30	8294.86
409.49	7517.80
409.68	7239.28
409.87	7178.42
410.07	7838.45
410.26	8175.49
410.45	8655.30
410.64	9032.13
410.83	9158.52
411.02	9472.15
411.21	9355.12
411.40	9476.83
411.59	9554.07
411.78	9589.17
411.98	9748.33
412.17	9483.85
412.36	9565.77
412.55	9596.20
412.74	9259.16
412.93	9179.58
413.12	9455.76
413.31	10106.43
413.50	10136.86
413.69	10223.46
413.88	9554.07
414.07	9795.14
414.26	9809.19
414.45	10022.17
414.64	10043.24
414.83	10221.12
415.02	9930.89
415.22	9750.67
415.41	10438.79
415.60	10630.71
415.79	11094.14
415.98	11012.22
416.17	11171.38
416.36	10820.30
416.55	10492.62
416.74	10476.24
416.93	9998.77
417.12	10047.92
417.31	10174.31
417.50	10583.90
417.69	10855.40
417.88	10691.57
418.07	10595.61
418.26	10422.41
418.45	10611.99
418.64	11360.96
418.83	11648.85
419.02	11122.23
419.21	10736.04
419.39	10413.04
419.58	10171.97
419.77	10317.08
419.96	10719.65
420.15	11164.36
420.34	11735.45
420.53	11850.13
420.72	11948.43
420.91	11669.91
421.10	11461.60
421.29	11857.15
421.48	11522.46
421.67	12100.57
421.86	11087.12
422.05	10462.19
422.24	9776.42
422.43	9975.36
422.61	11082.44
422.80	11627.78
422.99	11400.75
423.18	11014.56
423.37	10834.34
423.56	11037.97
423.75	11063.71
423.94	11452.24
424.13	10546.45
424.32	10712.63
424.50	10860.09
424.69	10918.60
424.88	10642.42
425.07	10864.77
425.26	10813.28
425.45	10595.61
425.64	10296.02
425.83	10836.68
426.01	11077.76
426.20	11367.98
426.39	11379.68
426.58	10092.39
426.77	9561.09
426.96	9493.21
427.15	9844.29
427.33	10782.85
427.52	10537.09
427.71	10918.60
427.90	11033.29
428.09	10574.54
428.28	10434.11
428.46	9951.96
428.65	10139.20
428.84	10427.09
429.03	10338.15
429.22	9921.53
429.40	9153.84
429.59	8386.14
429.78	7541.21
429.97	7646.53
430.16	7426.52
430.34	7494.40
430.53	7772.92
430.72	8168.47
430.91	9071.92
431.10	10672.84
431.28	12470.37
431.47	13135.09
431.66	12975.93
431.85	11648.85
432.03	10785.19
432.22	10658.80
432.41	11162.01
432.60	12343.99
432.79	12692.73
432.97	12746.56
433.16	12182.49
433.35	11108.18
433.54	9778.76
433.72	9848.97
433.91	10237.50
434.10	11599.70
434.28	12341.64
434.47	12648.26
434.66	12411.86
434.85	12273.77
435.03	12238.66
435.22	12379.09
435.41	13097.64
435.59	13355.10
435.78	13221.69
435.97	13825.54
436.16	13764.69
436.34	13327.01
436.53	13465.10
436.72	13591.49
436.90	12573.36
437.09	12758.26
437.28	12556.97
437.46	12973.59
437.65	12599.10
437.84	11389.05
438.02	11115.20
438.21	11183.08
438.40	11403.09
438.58	12713.79
438.77	13011.04
438.96	12924.44
439.14	13568.09
439.33	13579.79
439.52	13717.88
439.70	13481.49
439.89	13020.40
440.08	12943.16
440.26	13179.56
440.45	13902.78
440.63	14824.95
440.82	15222.84
441.01	14658.78
441.19	14675.16
441.38	15187.74
441.57	15515.41
441.75	15655.84
441.94	15793.94
442.12	15660.52
442.31	16105.23
442.50	16060.76
442.68	15672.23
442.87	15719.04
443.05	15337.53
443.24	15536.48
443.43	16067.78
443.61	16329.92
443.80	16409.50
443.98	15459.24
444.17	15641.80
444.35	16444.60
444.54	16819.09
444.73	16334.60
444.91	15674.57
445.10	14941.98
445.28	14284.29
445.47	14281.95
445.65	14586.22
445.84	14834.32
446.02	15536.48
446.21	15866.49
446.39	15487.32
446.58	15826.70
446.77	16142.67
446.95	16135.65
447.14	16741.85
447.32	17085.91
447.51	16355.66
447.69	16081.82
447.88	15894.58
448.06	16610.78
448.25	16423.54
448.43	16634.19
448.62	16613.12
448.80	16285.45
448.99	16208.21
449.17	16306.51
449.36	16505.46
449.54	16901.01
449.73	17350.39
449.91	17767.01
450.10	17958.93
450.28	18036.17
450.46	18244.48
450.65	18146.17
450.83	17685.09
451.02	17572.74
451.20	17476.78
451.39	17692.11
451.57	17465.08
451.76	17172.51
451.94	17441.67
452.13	16896.33
452.31	15719.04
452.49	14951.34
452.68	15716.70
452.86	15396.04
453.05	16098.20
453.23	16982.93
453.42	17055.48
453.60	16882.28
453.78	17151.45
453.97	16648.23
454.15	16905.69
454.34	16095.86
454.52	16659.93
454.70	16512.48
454.89	16348.64
455.07	16706.74
455.26	17357.41
455.44	17610.19
455.62	17778.71
455.81	17916.80
455.99	17734.24
456.17	17884.03
456.36	18251.50
456.54	18448.10
456.73	18211.71
456.91	18515.98
457.09	18703.22
457.28	19433.47
457.46	18324.05
457.64	17860.63
457.83	17341.03
458.01	17315.28
458.19	18127.45
458.38	17907.44
458.56	18272.56
458.74	18295.97
458.93	17947.23
459.11	17769.35
459.29	17853.61
459.48	17809.14
459.66	17366.78
459.84	17937.87
460.03	18354.48
460.21	18686.84
460.39	19047.28
460.57	18635.35
460.76	18724.29
460.94	18703.22
461.12	18637.69
461.31	18560.45
461.49	19012.17
461.67	18785.14
461.85	19117.50
462.04	19353.89
462.22	19396.02
462.40	19351.55
462.59	19323.46
462.77	19066.00
462.95	19037.92
463.13	18724.29
463.32	18750.03
463.50	18698.54
463.68	18867.06
463.86	18663.43
464.05	18494.91
464.23	17881.69
464.41	17919.14
464.59	17586.79
464.78	18984.09
464.96	18647.05
465.14	18518.32
465.32	18897.49
465.50	19222.82
465.69	19548.15
465.87	19417.08
466.05	18469.17
466.23	17429.97
466.41	17336.35
466.60	18368.52
466.78	17886.37
466.96	18387.25
467.14	18129.79
467.32	18487.89
467.51	18743.01
467.69	17729.56
467.87	18150.85
468.05	18958.34
468.23	18824.93
468.41	18759.39
468.60	18588.53
468.78	18878.76
468.96	18558.11
469.14	18932.59
469.32	19105.79
469.50	18075.96
469.69	18075.96
469.87	17748.28
470.05	17830.20
470.23	18099.36
470.41	18466.83
470.59	18333.42
470.77	18279.58
470.95	19154.94
471.14	19157.28
471.32	19112.81
471.50	19974.13
471.68	19946.05
471.86	20177.76
472.04	20692.68
472.22	20102.86
472.40	18981.74
472.58	19070.68
472.77	19309.42
472.95	19510.71
473.13	19927.32
473.31	19688.59
473.49	19702.63
473.67	20077.12
473.85	19899.23
474.03	20737.15
474.21	21041.42
474.39	20964.18
474.57	20814.38
474.75	21043.76
474.93	20945.45
475.12	20542.88
475.30	20180.10
475.48	19976.47
475.66	20570.97
475.84	20189.46
476.02	20133.29
476.20	19594.96
476.38	20573.31
476.56	21156.10
476.74	21521.23
476.92	21315.26
477.10	21869.97
477.28	22431.69
477.46	22309.99
477.64	22366.16
477.82	22998.10
478.00	23335.14
478.18	22286.58
478.36	22277.22
478.54	22757.03
478.72	23105.77
478.90	23836.02
479.08	24215.18
479.26	24088.79
479.44	24276.04
479.62	23517.70
479.80	23482.59
479.98	23892.19
480.16	24290.08
480.34	23718.99
480.52	24629.46
480.70	24673.93
480.88	24650.52
481.06	25284.81
481.24	24566.26
481.41	25453.33
481.59	25839.51
481.77	25539.93
481.95	25933.14
482.13	25558.65
482.31	25589.08
482.49	26106.34
482.67	26199.96
482.85	26272.51
483.03	26775.73
483.21	26906.80
483.39	26986.38
483.57	25525.88
483.74	25532.90
483.92	26012.71
484.10	25965.90
484.28	26527.63
484.46	27040.21
484.64	26515.93
484.82	26614.23
485.00	26462.10
485.18	25439.28
485.35	24627.12
485.53	22410.63
485.71	20264.36
485.89	20837.79
486.07	22080.61
486.25	24416.47
486.43	25532.90
486.61	25649.93
486.78	26019.74
486.96	26525.29
487.14	27295.33
487.32	27550.45
487.50	28217.50
487.68	28758.16
487.85	29628.84
488.03	29827.79
488.21	29273.08
488.39	28535.81
488.57	28056.00
488.75	27901.53
488.92	29406.49
489.10	30969.97
489.28	31583.19
489.46	32575.58
489.64	31847.67
489.81	32559.19
489.99	32060.66
490.17	32339.18
490.35	32512.38
490.53	31400.63
490.70	31131.47
490.88	30916.14
491.06	32313.44
491.24	32128.53
491.41	30466.75
491.59	28973.49
491.77	28741.78
491.95	30352.07
492.13	31665.11
492.30	32673.88
492.48	34127.35
492.66	34312.25
492.84	33502.43
493.01	33720.10
493.19	32917.29
493.37	33163.05
493.54	33570.30
493.72	34579.07
493.90	34602.48
494.08	34691.42
494.25	35604.23
494.43	35775.09
494.61	36320.43
494.79	36039.57
494.96	36493.63
495.14	34761.64
495.32	34103.95
495.49	34522.90
495.67	35590.19
495.85	36671.51
496.02	37558.58
496.20	36196.38
496.38	35819.56
496.55	36039.57
496.73	36512.36
496.91	36655.13
497.09	38143.71
497.26	37500.06
497.44	37090.47
497.62	36322.77
497.79	35440.39
497.97	34370.77
498.14	34778.02
498.32	36961.74
498.50	37528.15
498.67	37200.47
498.85	37890.93
499.03	37415.80
499.20	37806.67
499.38	38068.81
499.56	37457.93
499.73	36388.31
499.91	35880.41
500.08	35204.00
500.26	34632.91
500.44	35456.78
500.61	36456.18
500.79	36336.82
500.97	34841.21
501.14	34881.00
501.32	34773.34
501.49	35463.80
501.67	36168.30
501.84	36318.09
502.02	36568.53
502.20	37282.39
502.37	37542.19
502.55	37476.66
502.72	37687.31
502.90	38281.80
503.07	37345.59
503.25	36825.99
503.43	35981.06
503.60	35269.53
503.78	34637.59
503.95	35861.69
504.13	37390.06
504.30	38553.30
504.48	37907.32
504.65	37160.69
504.83	37209.84
505.01	38213.93
505.18	38305.21
505.36	38815.44
505.53	39559.73
505.71	40135.51
505.88	40821.28
506.06	39859.32
506.23	39271.85
506.41	38796.72
506.58	38841.19
506.76	38246.69
506.93	38478.41
507.11	37516.45
507.28	38232.65
507.46	37998.60
507.63	37457.93
507.81	36339.16
507.98	37069.40
508.16	38080.52
508.33	39463.77
508.50	39250.78
508.68	39854.64
508.85	40594.25
509.03	40191.68
509.20	40009.12
509.38	38134.35
509.55	37895.61
509.73	38878.64
509.90	38698.42
510.08	37935.40
510.25	38464.36
510.42	37727.10
510.60	38850.55
510.77	39725.91
510.95	41081.08
511.12	40116.78
511.30	41607.70
511.47	40058.27
511.64	40247.85
511.82	39414.62
511.99	38892.68
512.17	38813.10
512.34	38557.99
512.51	38227.97
512.69	37783.27
512.86	38143.71
513.04	39653.36
513.21	39098.65
513.38	37708.37
513.56	36327.45
513.73	36135.53
513.90	37022.59
514.08	36767.48
514.25	37663.90
514.43	38197.54
514.60	38099.24
514.77	37249.63
514.95	39154.82
515.12	38651.61
515.29	38789.70
515.47	38876.30
515.64	40172.96
515.81	39360.79
515.99	37816.04
516.16	35147.82
516.33	32472.59
516.51	32613.02
516.68	30778.04
516.85	30843.58
517.03	32177.68
517.20	35131.44
517.37	37654.54
517.54	38359.04
517.72	36659.81
517.89	33755.21
518.06	32929.00
518.24	33397.10
518.41	35384.22
518.58	38108.60
518.75	37970.51
518.93	36783.86
519.10	37551.56
519.27	37464.96
519.45	38398.83
519.62	38508.83
519.79	39093.97
519.96	39398.24
520.14	38223.29
520.31	36856.42
520.48	37647.52
520.65	38195.20
520.83	39700.17
521.00	39936.56
521.17	39082.27
521.34	39356.11
521.52	39559.73
521.69	39215.68
521.86	39597.18
522.03	39484.84
522.20	37972.85
522.38	36957.06
522.55	37816.04
522.72	37809.01
522.89	37394.74
523.07	37839.44
523.24	38408.19
523.41	40128.48
523.58	39449.73
523.75	39913.16
523.92	40765.11
524.10	40360.20
524.27	40072.31
524.44	40268.92
524.61	39592.50
524.78	39098.65
524.96	38895.02
525.13	38562.67
525.30	39316.32
525.47	40259.55
525.64	40725.32
525.81	38955.88
525.98	36442.14
526.16	36247.88
526.33	34040.75
526.50	33273.06
526.67	33186.46
526.84	34562.69
527.01	36353.20
527.18	37397.08
527.36	38611.82
527.53	38820.13
527.70	38646.93
527.87	37855.82
528.04	38810.76
528.21	38866.94
528.38	40910.22
528.55	41659.20
528.72	41914.31
528.89	41865.16
529.07	41174.70
529.24	38733.53
529.41	38480.75
529.58	39000.35
529.75	38742.89
529.92	39871.03
530.09	39880.39
530.26	40816.60
530.43	41193.43
530.60	41081.08
530.77	40648.08
530.94	40945.33
531.11	39651.02
531.28	39325.68
531.46	38749.91
531.63	39126.74
531.80	38944.17
531.97	37694.33
532.14	37092.81
532.31	35920.20
532.48	37008.55
532.65	36376.61
532.82	36943.02
532.99	38967.58
533.16	39508.24
533.33	39452.07
533.50	37743.48
533.67	38356.70
533.84	38515.86
534.01	38204.56
534.18	38738.21
534.35	39250.78
534.52	38490.11
534.69	39470.79
534.86	40076.99
535.03	39126.74
535.20	40177.64
535.37	40636.38
535.54	40662.13
535.71	40921.93
535.88	39981.03
536.05	38967.58
536.22	38284.14
536.38	37965.83
536.55	36282.98
536.72	36732.37
536.89	36950.04
537.06	37584.32
537.23	39133.76
537.40	39917.84
537.57	39669.74
537.74	39122.05
537.91	39496.54
538.08	38810.76
538.25	38307.55
538.42	39220.36
538.59	38740.55
538.75	37535.17
538.92	37296.44
539.09	38309.89
539.26	37860.51
539.43	37139.62
539.60	37221.54
539.77	38794.38
539.94	37507.08
540.11	35906.16
540.28	35498.91
540.44	35145.48
540.61	36587.25
540.78	37586.66
540.95	38705.44
541.12	37750.50
541.29	37855.82
541.46	38202.22
541.62	38469.04
541.79	39498.88
541.96	38068.81
542.13	36598.96
542.30	36414.05
542.47	37230.90
542.63	36879.82
542.80	37118.56
542.97	37750.50
543.14	36900.89
543.31	37146.64
543.48	38106.26
543.64	38218.61
543.81	39002.69
543.98	39014.39
544.15	37830.08
544.32	37127.92
544.48	37668.58
544.65	38438.62
544.82	38794.38
544.99	37422.83
545.16	37600.71
545.32	36893.86
545.49	38810.76
545.66	37897.95
545.83	36816.63
546.00	36844.71
546.16	37258.99
546.33	37530.49
546.50	37191.11
546.67	38602.46
546.83	37420.48
547.00	37603.05
547.17	36521.72
547.34	35803.17
547.50	36285.33
547.67	37174.73
547.84	36638.75
548.00	37544.53
548.17	37324.52
548.34	37104.51
548.51	37308.14
548.67	38337.98
548.84	38373.08
549.01	38504.15
549.18	37666.24
549.34	37544.53
549.51	37198.13
549.68	38426.92
549.84	37624.11
550.01	36512.36
550.18	36825.99
550.34	36814.29
550.51	36549.81
550.68	36788.54
550.84	36861.10
551.01	36407.03
551.18	37001.53
551.34	37563.26
551.51	36598.96
551.68	37647.52
551.84	38256.06
552.01	37729.44
552.18	36954.72
552.34	36577.89
552.51	36552.15
552.68	36781.52
552.84	37113.87
553.01	36545.12
553.18	36175.32
553.34	36444.48
553.51	36818.97
553.67	36582.57
553.84	36215.11
554.01	36896.20
554.17	36636.41
554.34	37174.73
554.51	36095.74
554.67	36030.21
554.84	37036.64
555.00	36666.83
555.17	36865.78
555.33	36158.94
555.50	36652.79
555.67	35920.20
555.83	34841.21
556.00	34323.96
556.16	35086.97
556.33	34677.38
556.50	35875.73
556.66	35473.16
556.83	35917.86
556.99	35639.34
557.16	35175.91
557.32	35747.00
557.49	36121.49
557.65	36151.91
557.82	36271.28
557.98	35730.62
558.15	35639.34
558.32	34525.24
558.48	33326.89
558.65	33376.04
558.81	32456.21
558.98	33134.96
559.14	34560.35
559.31	35260.17
559.47	34218.63
559.64	32840.06
559.80	32390.67
559.97	33699.03
560.13	34876.32
560.30	35161.87
560.46	35969.35
560.63	36580.23
560.79	36823.65
560.96	34878.66
561.12	33729.46
561.29	33137.30
561.45	32779.20
561.61	33130.28
561.78	33411.15
561.94	34153.10
562.11	34361.40
562.27	34991.01
562.44	34946.54
562.60	35229.74
562.77	35775.09
562.93	34995.69
563.10	33783.29
563.26	33823.08
563.42	34106.29
563.59	33186.46
563.75	33039.00
563.92	33687.33
564.08	34054.79
564.24	33509.45
564.41	33270.72
564.57	34539.29
564.74	33275.40
564.90	33125.60
565.07	33493.07
565.23	32414.08
565.39	31821.92
565.56	32142.58
565.72	31592.55
565.88	31529.36
566.05	32713.67
566.21	33598.39
566.38	32390.67
566.54	32889.21
566.70	33532.86
566.87	33970.54
567.03	33001.55
567.19	32826.01
567.36	33387.74
567.52	32711.33
567.68	32980.49
567.85	32044.27
568.01	31147.85
568.17	32027.89
568.34	32760.48
568.50	32402.38
568.66	33277.74
568.83	32488.98
568.99	32355.57
569.15	32713.67
569.32	33329.23
569.48	32287.69
569.64	31213.38
569.81	32084.06
569.97	31716.60
570.13	32512.38
570.30	31534.04
570.46	30944.22
570.62	30125.04
570.78	30354.41
570.95	31761.07
571.11	31952.99
571.27	32091.09
571.43	31761.07
571.60	31606.59
571.76	32189.39
571.92	32311.10
572.09	31995.12
572.25	32521.74
572.41	33642.86
572.57	33532.86
572.74	33783.29
572.90	32940.70
573.06	32367.27
573.22	31035.50
573.38	30895.07
573.55	31775.11
573.71	30663.36
573.87	31206.36
574.03	31461.48
574.20	31618.30
574.36	31445.10
574.52	32861.12
574.68	30703.15
574.84	30230.36
575.01	30349.73
575.17	30394.20
575.33	30799.11
575.49	30157.80
575.65	30845.92
575.82	31260.20
575.98	30321.64
576.14	30476.12
576.30	30335.68
576.46	30672.72
576.62	31157.21
576.79	31117.42
576.95	30431.65
577.11	29404.15
577.27	30574.42
577.43	30995.71
577.59	30258.45
577.75	30291.21
577.92	28929.02
578.08	28961.79
578.24	29589.05
578.40	29371.38
578.56	29619.48
578.72	30000.99
578.88	29647.57
579.04	30143.76
579.21	30293.55
579.37	30141.42
579.53	30684.42
579.69	31789.16
579.85	30651.66
580.01	29844.17
580.17	29914.39
580.33	30148.44
580.49	30312.28
580.65	29010.94
580.82	29771.61
580.98	30221.00
581.14	30522.93
581.30	30267.81
581.46	29766.93
581.62	29886.30
581.78	29532.88
581.94	30520.59
582.10	30918.48
582.26	30742.94
582.42	30169.51
582.58	30038.44
582.74	30352.07
582.90	30885.71
583.06	30663.36
583.22	29998.65
583.38	31192.32
583.54	30005.67
583.70	30321.64
583.86	30017.37
584.02	30347.39
584.18	30696.13
584.34	30155.46
584.50	29692.04
584.66	29546.92
584.82	29425.22
584.98	29834.81
585.14	28814.34
585.30	29275.42
585.46	28643.48
585.62	28297.08
585.78	29209.89
585.94	29081.16
586.10	28011.53
586.26	28489.00
