SpectraSuite Data File
++++++++++++++++++++++++++++++++++++
Date: Mon Oct 07 14:53:46 GMT-05:00 2013
User: price-jones
Dark Spectrum Present: No
Reference Spectrum Present: No
Number of Sampled Component Spectra: 1
Spectrometers: USB2+H05261
Integration Time (usec): 100000 (USB2+H05261)
Spectra Averaged: 1 (USB2+H05261)
Boxcar Smoothing: 0 (USB2+H05261)
Correct for Electrical Dark: No (USB2+H05261)
Strobe/Lamp Enabled: No (USB2+H05261)
Correct for Detector Non-linearity: No (USB2+H05261)
Correct for Stray Light: No (USB2+H05261)
Number of Pixels in Processed Spectrum: 2048
>>>>>Begin Processed Spectral Data<<<<<
365.73	0.00
365.92	0.00
366.12	0.00
366.32	0.00
366.52	0.00
366.72	0.00
366.91	0.00
367.11	0.00
367.31	0.00
367.51	0.00
367.70	0.00
367.90	0.00
368.10	0.00
368.30	0.00
368.49	0.00
368.69	0.00
368.89	0.00
369.09	0.00
369.28	0.00
369.48	0.00
369.68	0.00
369.87	0.00
370.07	0.00
370.27	0.00
370.47	678.76
370.66	2946.73
370.86	3454.63
371.06	3803.37
371.25	3932.10
371.45	3538.89
371.65	3035.67
371.84	2848.43
372.04	2946.73
372.24	3356.33
372.44	3482.72
372.63	3501.44
372.83	3405.48
373.03	2850.77
373.22	2658.85
373.42	2818.00
373.62	3288.45
373.81	3456.97
374.01	3503.78
374.21	3222.92
374.40	2967.80
374.60	3021.63
374.79	3625.49
374.99	4063.17
375.19	4376.80
375.38	4358.08
375.58	3971.89
375.78	4016.36
375.97	3990.61
376.17	4107.64
376.37	4159.13
376.56	4304.25
376.76	4699.80
376.95	4786.40
377.15	5137.48
377.35	5561.11
377.54	5813.89
377.74	5685.16
377.93	5832.62
378.13	5643.03
378.33	5404.30
378.52	4891.72
378.72	4926.83
378.91	4755.97
379.11	4718.52
379.31	4365.10
379.50	4334.67
379.70	4716.18
379.89	5296.63
380.09	5600.90
380.28	5650.05
380.48	5701.54
380.68	5533.03
380.87	5509.62
381.07	5006.41
381.26	4746.61
381.46	4493.83
381.65	4437.66
381.85	4124.02
382.04	3922.74
382.24	3707.41
382.43	3489.74
382.63	3372.71
382.83	3520.17
383.02	3494.42
383.22	3466.33
383.41	3552.93
383.61	3850.18
383.80	4243.39
384.00	4896.40
384.19	5551.75
384.39	5643.03
384.58	5612.60
384.78	5572.82
384.97	5542.39
385.17	5411.32
385.36	5018.11
385.56	4702.14
385.75	4828.53
385.95	5390.25
386.14	5874.74
386.34	5790.49
386.53	5703.89
386.72	5203.01
386.92	5401.96
387.11	5579.84
387.31	5785.80
387.50	5851.34
387.70	5586.86
387.89	5638.35
388.09	5474.51
388.28	5614.95
388.48	5568.13
388.67	5973.05
388.86	6799.26
389.06	7124.59
389.25	7641.85
389.45	7641.85
389.64	7531.84
389.84	7531.84
390.03	7407.80
390.22	7290.77
390.42	7644.19
390.61	8236.35
390.81	8650.62
391.00	8922.12
391.19	8655.30
391.39	8465.72
391.58	8011.65
391.78	7468.65
391.97	7222.89
392.16	6853.09
392.36	6214.12
392.55	4978.32
392.75	4042.11
392.94	3258.03
393.13	3155.04
393.33	3691.02
393.52	4652.98
393.71	5940.28
393.91	6827.34
394.10	7412.48
394.29	8046.76
394.49	8507.85
394.68	9362.14
394.88	9231.07
395.07	9706.20
395.26	9380.87
395.46	9263.84
395.65	8744.24
395.84	7672.28
396.04	6576.91
396.23	5158.54
396.42	4411.91
396.62	4245.73
396.81	4889.38
397.00	6157.95
397.19	7475.67
397.39	9322.35
397.58	10553.48
397.77	11302.45
397.97	11452.24
398.16	11700.34
398.35	12210.57
398.55	12329.94
398.74	13139.77
398.93	13301.26
399.12	12947.84
399.32	12517.18
399.51	13048.49
399.70	13752.99
399.90	13572.77
400.09	13673.41
400.28	13350.42
400.47	13696.82
400.67	14310.04
400.86	14815.59
401.05	14443.45
401.24	14881.13
401.44	14897.51
401.63	15220.50
401.82	14949.00
402.01	15023.90
402.21	15351.57
402.40	15309.44
402.59	14595.58
402.78	13905.12
402.97	13490.85
403.17	14073.64
403.36	15016.88
403.55	15817.34
403.74	16245.66
403.93	15206.46
404.13	14218.75
404.32	13806.82
404.51	14508.98
404.70	15733.08
404.89	15700.31
405.09	15166.67
405.28	14824.95
405.47	14848.36
405.66	14855.38
405.85	14298.33
406.05	13839.59
406.24	14272.59
406.43	14724.31
406.62	15396.04
406.81	15723.72
407.00	14958.36
407.20	14520.68
407.39	14560.47
407.58	15386.68
407.77	15922.66
407.96	16552.27
408.15	16610.78
408.34	16592.06
408.54	17820.84
408.73	17668.70
408.92	17558.70
409.11	16938.46
409.30	16063.10
409.49	15192.42
409.68	14230.46
409.87	13802.14
410.07	14494.94
410.26	15653.50
410.45	16629.51
410.64	17156.13
410.83	17444.01
411.02	18066.60
411.21	18860.04
411.40	18455.12
411.59	18518.32
411.78	18457.46
411.98	18508.96
412.17	18663.43
412.36	18307.67
412.55	18265.54
412.74	17919.14
412.93	17448.69
413.12	17860.63
413.31	19248.57
413.50	19520.07
413.69	19932.00
413.88	18951.32
414.07	18443.42
414.26	18944.30
414.45	19473.26
414.64	19428.79
414.83	19641.78
415.02	18939.62
415.22	18853.02
415.41	19325.80
415.60	20215.21
415.79	21001.63
415.98	21270.79
416.17	21577.40
416.36	20769.91
416.55	20439.90
416.74	20191.80
416.93	19559.86
417.12	19550.49
417.31	19513.05
417.50	19751.78
417.69	20538.20
417.88	20741.83
418.07	20294.79
418.26	20016.26
418.45	20238.61
418.64	20870.56
418.83	21720.17
419.02	21378.45
419.21	21326.96
419.39	20278.40
419.58	18958.34
419.77	19412.40
419.96	20126.27
420.15	21511.86
420.34	21778.68
420.53	22703.20
420.72	23180.67
420.91	22829.59
421.10	22513.61
421.29	22771.07
421.48	21514.20
421.67	22948.95
421.86	22356.80
422.05	20915.03
422.24	18471.51
422.43	18459.81
422.61	20283.08
422.80	21673.36
422.99	22171.89
423.18	21245.04
423.37	20580.33
423.56	20800.34
423.75	21226.32
423.94	21469.73
424.13	20063.07
424.32	20617.78
424.50	20966.52
424.69	20325.21
424.88	20561.61
425.07	20472.67
425.26	20428.20
425.45	20208.19
425.64	19878.17
425.83	19807.95
426.01	21160.78
426.20	21476.76
426.39	21228.66
426.58	19747.10
426.77	18207.03
426.96	17635.94
427.15	18258.52
427.33	19992.86
427.52	20444.58
427.71	20720.76
427.90	20788.64
428.09	20327.55
428.28	19908.60
428.46	19318.78
428.65	18764.07
428.84	19461.55
429.03	19438.15
429.22	18501.93
429.40	17867.65
429.59	16142.67
429.78	14064.28
429.97	14253.86
430.16	14532.39
430.34	14700.90
430.53	14635.37
430.72	14977.09
430.91	16673.98
431.10	19213.46
431.28	22658.73
431.47	24304.12
431.66	24856.49
431.85	22546.38
432.03	20933.75
432.22	19901.58
432.41	20847.15
432.60	22815.54
432.79	23548.13
432.97	24709.04
433.16	23852.40
433.35	21816.13
433.54	19576.24
433.72	18382.57
433.91	18874.08
434.10	21071.84
434.28	22494.89
434.47	23983.47
434.66	23461.53
434.85	23290.67
435.03	22899.80
435.22	23192.37
435.41	24704.35
435.59	24945.43
435.78	25048.41
435.97	25900.37
436.16	26031.44
436.34	25635.89
436.53	25291.83
436.72	25198.21
436.90	23674.52
437.09	23793.89
437.28	23461.53
437.46	24276.04
437.65	24397.74
437.84	22427.01
438.02	20788.64
438.21	20418.83
438.40	21481.44
438.58	23527.06
438.77	24369.66
438.96	24568.60
439.14	25200.55
439.33	25935.48
439.52	26253.79
439.70	25795.04
439.89	25048.41
440.08	24418.81
440.26	24233.91
440.45	25118.63
440.63	27117.45
440.82	28606.03
441.01	28034.94
441.19	27421.72
441.38	28077.07
441.57	28945.41
441.75	29771.61
441.94	29886.30
442.12	29638.20
442.31	30349.73
442.50	29947.15
442.68	29593.73
442.87	29256.70
443.05	28634.11
443.24	29205.20
443.43	29837.15
443.61	30387.18
443.80	30696.13
443.98	29296.49
444.17	29034.35
444.35	30817.83
444.54	31456.80
444.73	30939.54
444.91	29516.50
445.10	28669.22
445.28	27332.78
445.47	26595.51
445.65	27101.06
445.84	27845.35
446.02	28723.05
446.21	28802.63
446.39	29359.68
446.58	29757.57
446.77	30101.63
446.95	30534.63
447.14	31250.83
447.32	31838.31
447.51	31278.92
447.69	29876.94
447.88	29216.91
448.06	29745.87
448.25	30504.20
448.43	30773.36
448.62	29841.83
448.80	29764.59
448.99	30555.69
449.17	30520.59
449.36	30707.83
449.54	31463.82
449.73	32418.76
449.91	32460.89
450.10	33326.89
450.28	33549.24
450.46	33570.30
450.65	33343.27
450.83	33043.68
451.02	32409.40
451.20	32355.57
451.39	32385.99
451.57	31985.76
451.76	32177.68
451.94	32325.14
452.13	31622.98
452.31	30396.54
452.49	28980.51
452.68	28994.56
452.86	28823.70
453.05	29369.04
453.23	30356.75
453.42	31056.57
453.60	31704.90
453.78	32212.79
453.97	31800.86
454.15	31988.10
454.34	31344.45
454.52	31388.92
454.70	30862.30
454.89	31072.95
455.07	31409.99
455.26	31707.24
455.44	32823.67
455.62	33144.33
455.81	33596.05
455.99	33507.11
456.17	32919.63
456.36	33280.08
456.54	34022.03
456.73	34249.06
456.91	34766.32
457.09	34508.86
457.28	35351.45
457.46	33546.90
457.64	33914.36
457.83	32662.18
458.01	32077.04
458.19	32362.59
458.38	32598.98
458.56	33998.62
458.74	34108.63
458.93	33270.72
459.11	33532.86
459.29	33118.58
459.48	33429.87
459.66	32833.04
459.84	33584.35
460.03	33366.68
460.21	33497.75
460.39	34780.36
460.57	34338.00
460.76	35117.40
460.94	35023.78
461.12	34174.16
461.31	34572.05
461.49	34583.76
461.67	34710.14
461.85	35335.07
462.04	35419.33
462.22	35861.69
462.40	35585.50
462.59	35267.19
462.77	35646.36
462.95	35889.77
463.13	35154.85
463.32	34953.56
463.50	34801.43
463.68	34394.17
463.86	34668.02
464.05	34043.09
464.23	33542.22
464.41	33296.46
464.59	32598.98
464.78	34054.79
464.96	34455.03
465.14	33748.18
465.32	34698.44
465.50	35639.34
465.69	36133.19
465.87	35206.34
466.05	34249.06
466.23	33034.32
466.41	31852.35
466.60	33120.92
466.78	32994.53
466.96	33563.28
467.14	34394.17
467.32	34651.63
467.51	34864.62
467.69	33043.68
467.87	33294.12
468.05	34745.25
468.23	34689.08
468.41	34188.21
468.60	34609.50
468.78	34712.49
468.96	34270.12
469.14	35079.95
469.32	35297.62
469.50	33385.40
469.69	33982.24
469.87	33738.82
470.05	32987.51
470.23	33579.67
470.41	33390.08
470.59	34150.76
470.77	33710.74
470.95	34628.23
471.14	35204.00
471.32	35344.43
471.50	37205.16
471.68	37184.09
471.86	37916.68
472.04	37886.25
472.22	38436.28
472.40	36046.59
472.58	35857.01
472.77	35655.72
472.95	35859.35
473.13	36856.42
473.31	35868.71
473.49	35747.00
473.67	37193.45
473.85	37315.16
474.03	38022.00
474.21	37820.72
474.39	38576.71
474.57	38866.94
474.75	38792.04
474.93	38789.70
475.12	37359.63
475.30	37633.47
475.48	37982.21
475.66	37961.15
475.84	37766.88
476.02	37270.69
476.20	36774.50
476.38	37745.82
476.56	38990.98
476.74	39295.25
476.92	39517.60
477.10	40179.98
477.28	40978.10
477.46	41151.30
477.64	41975.17
477.82	41450.89
478.00	41951.76
478.18	40947.67
478.36	40823.62
478.54	40968.74
478.72	41493.02
478.90	42234.97
479.08	43543.33
479.26	43955.26
479.44	43878.02
479.62	43253.10
479.80	43873.34
479.98	43924.83
480.16	44149.53
480.34	43555.03
480.52	44538.05
480.70	44472.52
480.88	44451.45
481.06	44903.18
481.24	45375.97
481.41	46440.91
481.59	46932.42
481.77	46621.13
481.95	45961.10
482.13	45806.62
482.31	46199.83
482.49	46579.00
482.67	46567.30
482.85	46628.15
483.03	47526.92
483.21	47592.45
483.39	47515.22
483.57	46759.22
483.74	46483.04
483.92	46838.80
484.10	46958.17
484.28	48175.25
484.46	48514.62
484.64	48818.89
484.82	47613.52
485.00	47409.89
485.18	46775.61
485.35	45624.06
485.53	42096.88
485.71	38672.67
485.89	38216.27
486.07	40105.08
486.25	43012.02
486.43	45511.72
486.61	46649.22
486.78	46539.21
486.96	46944.12
487.14	48175.25
487.32	48830.60
487.50	50031.29
487.68	50735.79
487.85	51086.87
488.03	51583.07
488.21	51000.27
488.39	49963.42
488.57	49177.00
488.75	48968.69
488.92	50234.92
489.10	52158.84
489.28	53542.10
489.46	54145.95
489.64	53879.13
489.81	54178.72
489.99	53991.48
490.17	53841.68
490.35	54347.24
490.53	53701.25
490.70	53399.32
490.88	53469.54
491.06	54532.14
491.24	54534.48
491.41	53429.75
491.59	51824.14
491.77	51114.96
491.95	52067.56
492.13	53511.67
492.30	54333.20
492.48	55302.18
492.66	55697.73
492.84	55817.10
493.01	55613.47
493.19	55016.63
493.37	54717.04
493.54	54431.50
493.72	54986.21
493.90	55884.97
494.08	56647.99
494.25	57066.94
494.43	57230.78
494.61	57509.30
494.79	57602.92
494.96	57446.11
495.14	56865.66
495.32	55992.64
495.49	55283.45
495.67	56222.01
495.85	57413.34
496.02	57991.45
496.20	58019.54
496.38	57535.05
496.55	57436.75
496.73	57724.63
496.91	57846.34
497.09	58363.60
497.26	58518.07
497.44	57944.64
497.62	57668.46
497.79	56743.95
497.97	55749.22
498.14	55777.31
498.32	56851.61
498.50	57705.91
498.67	58497.01
498.85	58234.87
499.03	58370.62
499.20	58520.41
499.38	58480.63
499.56	58443.18
499.73	57764.42
499.91	57556.11
500.08	57214.40
500.26	56399.89
500.44	56753.31
500.61	57591.22
500.79	57324.40
500.97	56978.00
501.14	56795.44
501.32	56734.59
501.49	56760.33
501.67	56992.04
501.84	57478.88
502.02	57731.65
502.20	58003.16
502.37	58251.25
502.55	58176.36
502.72	58827.02
502.90	58958.09
503.07	58911.28
503.25	58525.10
503.43	57502.28
503.60	57090.35
503.78	56498.19
503.95	56905.44
504.13	58195.08
504.30	59025.97
504.48	58927.67
504.65	58269.98
504.83	58438.50
505.01	59004.91
505.18	59138.32
505.36	59908.35
505.53	59927.08
505.71	60140.07
505.88	60280.50
506.06	59643.87
506.23	59374.71
506.41	58988.52
506.58	59327.90
506.76	59203.85
506.93	59128.95
507.11	58890.22
507.28	59150.02
507.46	58693.61
507.63	58220.83
507.81	57736.34
507.98	58330.83
508.16	58974.48
508.33	59231.94
508.50	59784.30
508.68	59983.25
508.85	60331.99
509.03	60346.03
509.20	60226.66
509.38	59538.55
509.55	58920.65
509.73	58915.96
509.90	59365.35
510.08	59781.96
510.25	59550.25
510.42	59564.29
510.60	59253.00
510.77	59496.42
510.95	60229.01
511.12	60177.51
511.30	60596.47
511.47	60678.39
511.64	60676.05
511.82	60427.95
511.99	59793.67
512.17	59234.28
512.34	58894.90
512.51	59032.99
512.69	59332.58
512.86	59473.01
513.04	59756.22
513.21	59536.21
513.38	59526.84
513.56	58812.98
513.73	58471.26
513.90	58726.38
514.08	58592.97
514.25	58890.22
514.43	59079.80
514.60	59236.62
514.77	59395.77
514.95	59501.10
515.12	59236.62
515.29	59526.84
515.47	60140.07
515.64	60238.37
515.81	59945.80
515.99	59430.88
516.16	57996.13
516.33	55721.13
516.51	54260.64
516.68	53698.91
516.85	53291.66
517.03	53532.73
517.20	56032.42
517.37	58401.05
517.54	59423.86
517.72	59217.89
517.89	56797.78
518.06	54412.77
518.24	54569.59
518.41	56811.82
518.58	58082.73
518.75	58277.00
518.93	58532.12
519.10	58258.27
519.27	58855.11
519.45	59021.29
519.62	59686.00
519.79	59959.84
519.96	59648.55
520.14	59203.85
520.31	58450.20
520.48	58588.29
520.65	58941.71
520.83	59660.26
521.00	60301.56
521.17	59814.73
521.34	59512.80
521.52	59641.53
521.69	60282.84
521.86	60556.68
522.03	60341.35
522.20	59238.96
522.38	57925.92
522.55	58190.40
522.72	58623.40
522.89	59114.91
523.07	59091.51
523.24	59480.03
523.41	60175.17
523.58	60310.92
523.75	60977.98
523.92	60615.19
524.10	60809.46
524.27	60842.23
524.44	60493.49
524.61	60212.62
524.78	60376.46
524.96	60069.85
525.13	60142.41
525.30	60449.02
525.47	60666.69
525.64	60622.22
525.81	60041.76
525.98	58848.09
526.16	57296.31
526.33	56612.88
526.50	56355.42
526.67	56210.31
526.84	56636.28
527.01	57600.58
527.18	58415.09
527.36	59112.57
527.53	60060.49
527.70	60320.29
527.87	59697.70
528.04	59292.79
528.21	59746.86
528.38	60343.69
528.55	60994.36
528.72	61190.97
528.89	61446.08
529.07	61102.03
529.24	60619.88
529.41	59896.65
529.58	59334.92
529.75	59339.60
529.92	59882.61
530.09	60168.15
530.26	60947.55
530.43	60842.23
530.60	60938.19
530.77	61247.14
530.94	61359.48
531.11	60919.46
531.28	60470.08
531.46	60343.69
531.63	60633.92
531.80	60514.55
531.97	59898.99
532.14	59437.90
532.31	58349.56
532.48	57563.14
532.65	57689.52
532.82	58328.49
532.99	59693.02
533.16	59943.46
533.33	60378.80
533.50	60214.96
533.67	59714.09
533.84	59278.75
534.01	59363.01
534.18	59554.93
534.35	59833.46
534.52	59632.17
534.69	59868.56
534.86	60212.62
535.03	60704.13
535.20	60837.54
535.37	61291.61
535.54	61209.69
535.71	60814.14
535.88	60678.39
536.05	60114.32
536.22	59948.14
536.38	59503.44
536.55	58831.71
536.72	58431.47
536.89	58232.53
537.06	59077.46
537.23	60027.72
537.40	60093.25
537.57	59908.35
537.74	59821.75
537.91	60058.15
538.08	59669.62
538.25	59875.58
538.42	59868.56
538.59	59906.01
538.75	59325.56
538.92	59161.72
539.09	58777.87
539.26	58789.58
539.43	58773.19
539.60	58609.35
539.77	58883.20
539.94	58686.59
540.11	58134.23
540.28	57399.30
540.44	57631.01
540.61	57970.39
540.78	58071.03
540.95	58408.07
541.12	58969.80
541.29	59035.33
541.46	59339.60
541.62	59274.07
541.79	59374.71
541.96	58749.79
542.13	58857.45
542.30	58960.44
542.47	59231.94
542.63	58915.96
542.80	58735.74
542.97	59089.16
543.14	58801.28
543.31	58827.02
543.48	59311.52
543.64	59983.25
543.81	60512.21
543.98	59835.80
544.15	59323.22
544.32	58855.11
544.48	58864.47
544.65	59363.01
544.82	59763.24
544.99	59559.61
545.16	59128.95
545.32	58714.68
545.49	59791.33
545.66	59973.89
545.83	59517.48
546.00	59241.30
546.16	58794.26
546.33	58960.44
546.50	58852.77
546.67	59573.66
546.83	59049.38
547.00	58965.12
547.17	58485.31
547.34	58068.69
547.50	57733.99
547.67	58328.49
547.84	58319.13
548.00	58644.46
548.17	59339.60
548.34	58869.15
548.51	58948.73
548.67	58925.33
548.84	59032.99
549.01	59091.51
549.18	58997.88
549.34	58883.20
549.51	58890.22
549.68	58850.43
549.84	58677.23
550.01	58592.97
550.18	58363.60
550.34	58370.62
550.51	58539.14
550.68	58798.94
550.84	58092.10
551.01	58274.66
551.18	58199.76
551.34	58688.93
551.51	58864.47
551.68	58934.69
551.84	59079.80
552.01	58829.37
552.18	58798.94
552.34	58061.67
552.51	57675.48
552.68	57499.94
552.84	57965.71
553.01	58190.40
553.18	58277.00
553.34	58190.40
553.51	58262.96
553.67	58731.06
553.84	59016.61
554.01	58714.68
554.17	58590.63
554.34	58567.23
554.51	58585.95
554.67	59082.14
554.84	58829.37
555.00	58630.42
555.17	58415.09
555.33	58239.55
555.50	58272.32
555.67	58152.95
555.83	58113.16
556.00	57759.74
556.16	57804.21
556.33	57244.82
556.50	57167.58
556.66	57467.17
556.83	57116.09
556.99	57212.06
557.16	57406.32
557.32	57602.92
557.49	57883.79
557.65	57932.94
557.82	57628.67
557.98	57687.18
558.15	57219.08
558.32	56411.59
558.48	55606.45
558.65	55419.20
558.81	56231.37
558.98	56343.72
559.14	56725.22
559.31	56647.99
559.47	56664.37
559.64	56343.72
559.80	56140.09
559.97	56182.22
560.13	56498.19
560.30	57413.34
560.46	57741.02
560.63	57963.37
560.79	58010.18
560.96	57733.99
561.12	56678.41
561.29	55798.37
561.45	55774.97
561.61	56341.38
561.78	56725.22
561.94	56947.57
562.11	56519.26
562.27	56502.87
562.44	56626.92
562.60	57036.51
562.77	57387.60
562.93	56900.76
563.10	57041.20
563.26	56367.12
563.42	56402.23
563.59	56289.88
563.75	56130.73
563.92	56416.27
564.08	56369.46
564.24	56353.08
564.41	56666.71
564.57	56608.20
564.74	56451.38
564.90	56320.31
565.07	56128.39
565.23	55744.54
565.39	55009.61
565.56	54972.16
565.72	54784.92
565.88	55260.05
566.05	55173.45
566.21	55550.27
566.38	55781.99
566.54	55608.79
566.70	55980.93
566.87	56413.93
567.03	56196.26
567.19	56683.09
567.36	56334.35
567.52	56121.37
567.68	55674.32
567.85	55161.75
568.01	54651.51
568.17	54574.27
568.34	54560.23
568.50	54703.00
568.66	54653.85
568.83	54810.67
568.99	55309.20
569.15	55215.58
569.32	55199.19
569.48	54908.97
569.64	54766.20
569.81	54293.41
569.97	54471.29
570.13	54450.22
570.30	53869.77
570.46	53560.82
570.62	53024.84
570.78	52924.19
570.95	53137.18
571.11	53930.62
571.27	54204.47
571.43	54347.24
571.60	54511.08
571.76	54827.05
571.92	54768.54
572.09	55262.39
572.25	55290.48
572.41	55381.76
572.57	54993.23
572.74	54967.48
572.90	54438.52
573.06	54590.66
573.22	54665.55
573.38	54595.34
573.55	54562.57
573.71	54457.24
573.87	54642.15
574.03	54450.22
574.20	54314.47
574.36	54220.85
574.52	53979.78
574.68	53949.35
574.84	53514.01
575.01	53200.38
575.17	52762.70
575.33	53308.04
575.49	53411.02
575.65	53570.18
575.82	53331.45
575.98	53263.57
576.14	53703.59
576.30	53560.82
576.46	53722.32
576.62	53656.78
576.79	53888.49
576.95	53251.87
577.11	53247.19
577.27	53284.64
577.43	53439.11
577.59	53183.99
577.75	52526.30
577.92	52020.75
578.08	51639.24
578.24	51950.53
578.40	52325.02
578.56	52231.40
578.72	52432.68
578.88	52779.08
579.04	52601.20
579.21	52776.74
579.37	52896.11
579.53	53176.97
579.69	53146.54
579.85	53214.42
580.01	53176.97
580.17	52952.28
580.33	52582.48
580.49	52685.46
580.65	52732.27
580.82	52835.25
580.98	52905.47
581.14	52973.34
581.30	53069.31
581.46	53034.20
581.62	53191.01
581.78	53146.54
581.94	53097.39
582.10	53474.22
582.26	53113.78
582.42	53162.93
582.58	53242.51
582.74	53088.03
582.90	53078.67
583.06	53331.45
583.22	52945.26
583.38	53022.50
583.54	52783.76
583.70	52563.75
583.86	52711.20
584.02	52561.41
584.18	53048.24
584.34	52397.57
584.50	52671.42
584.66	52673.76
584.82	51997.34
584.98	52215.01
585.14	51529.23
585.30	50958.14
