SpectraSuite Data File
++++++++++++++++++++++++++++++++++++
Date: Mon Oct 07 14:53:33 GMT-05:00 2013
User: price-jones
Dark Spectrum Present: No
Reference Spectrum Present: No
Number of Sampled Component Spectra: 1
Spectrometers: USB2+H05261
Integration Time (usec): 100000 (USB2+H05261)
Spectra Averaged: 1 (USB2+H05261)
Boxcar Smoothing: 0 (USB2+H05261)
Correct for Electrical Dark: No (USB2+H05261)
Strobe/Lamp Enabled: No (USB2+H05261)
Correct for Detector Non-linearity: No (USB2+H05261)
Correct for Stray Light: No (USB2+H05261)
Number of Pixels in Processed Spectrum: 2048
>>>>>Begin Processed Spectral Data<<<<<
365.73	0.00
365.92	0.00
366.12	0.00
366.32	0.00
366.52	0.00
366.72	0.00
366.91	0.00
367.11	0.00
367.31	0.00
367.51	0.00
367.70	0.00
367.90	0.00
368.10	0.00
368.30	0.00
368.49	0.00
368.69	0.00
368.89	0.00
369.09	0.00
369.28	0.00
369.48	0.00
369.68	0.00
369.87	0.00
370.07	0.00
370.27	0.00
370.47	624.92
370.66	3026.31
370.86	3499.10
371.06	3744.86
371.25	3922.74
371.45	3487.40
371.65	3141.00
371.84	2897.58
372.04	2925.67
372.24	3330.58
372.44	3676.98
372.63	3672.30
372.83	3281.43
373.03	2904.60
373.22	2546.50
373.42	2864.82
373.62	3218.24
373.81	3634.85
374.01	3534.21
374.21	3185.47
374.40	2862.48
374.60	3000.57
374.79	3536.55
374.99	3957.85
375.19	4397.87
375.38	4381.48
375.58	4011.68
375.78	4074.87
375.97	3929.76
376.17	4173.18
376.37	4215.30
376.56	4217.65
376.76	4662.35
376.95	4716.18
377.15	5310.68
377.35	5238.12
377.54	5654.73
377.74	5682.82
377.93	5785.80
378.13	5771.76
378.33	5331.74
378.52	4800.44
378.72	4727.88
378.91	4732.56
379.11	4521.92
379.31	4358.08
379.50	4388.50
379.70	4753.63
379.89	5177.26
380.09	5561.11
380.28	5785.80
380.48	5748.36
380.68	5591.54
380.87	5462.81
381.07	5069.60
381.26	4779.37
381.46	4245.73
381.65	4191.90
381.85	4107.64
382.04	3915.72
382.24	3618.47
382.43	3471.01
382.63	3424.20
382.83	3386.76
383.02	3370.37
383.22	3482.72
383.41	3440.59
383.61	3674.64
383.80	4198.92
384.00	4765.33
384.19	5418.34
384.39	5680.48
384.58	5832.62
384.78	5715.59
384.97	5472.17
385.17	5231.10
385.36	5078.96
385.56	4727.88
385.75	4884.70
385.95	5502.60
386.14	5909.85
386.34	5970.71
386.53	5530.69
386.72	5348.12
386.92	5455.79
387.11	5589.20
387.31	5713.25
387.50	5715.59
387.70	5544.73
387.89	5383.23
388.09	5465.15
388.28	5497.92
388.48	5575.16
388.67	5921.56
388.86	6803.94
389.06	7194.81
389.25	7454.61
389.45	7566.95
389.64	7452.27
389.84	7531.84
390.03	7246.30
390.22	7293.11
390.42	7707.38
390.61	8098.25
390.81	8578.06
391.00	8769.99
391.19	8821.48
391.39	8526.57
391.58	8013.99
391.78	7431.20
391.97	7152.68
392.16	6743.08
392.36	6293.70
392.55	5071.94
392.75	3892.31
392.94	3176.11
393.13	3126.96
393.33	3653.58
393.52	4905.76
393.71	5996.45
393.91	6899.90
394.10	7105.87
394.29	8039.74
394.49	8463.38
394.68	9212.35
394.88	9291.93
395.07	9631.30
395.26	9341.08
395.46	9020.42
395.65	8741.90
395.84	7651.21
396.04	6572.22
396.23	5160.88
396.42	4344.03
396.62	4138.07
396.81	4931.51
397.00	6373.28
397.19	7789.30
397.39	9357.46
397.58	10480.92
397.77	11117.54
397.97	11403.09
398.16	11672.25
398.35	11992.90
398.55	12411.86
398.74	12840.18
398.93	13551.70
399.12	12863.58
399.32	12395.48
399.51	12793.37
399.70	13640.64
399.90	13640.64
400.09	13516.59
400.28	13317.65
400.47	13448.72
400.67	14356.85
400.86	14583.88
401.05	14473.87
401.24	14757.08
401.44	14998.15
401.63	14981.77
401.82	15082.41
402.01	14967.73
402.21	15197.10
402.40	15019.22
402.59	14586.22
402.78	14047.90
402.97	13816.18
403.17	14190.67
403.36	15033.26
403.55	15651.16
403.74	16046.71
403.93	14925.60
404.13	13825.54
404.32	13954.27
404.51	14136.84
404.70	15463.92
404.89	15281.36
405.09	15239.23
405.28	14862.40
405.47	14937.30
405.66	14792.19
405.85	14225.78
406.05	14120.45
406.24	13783.41
406.43	14370.89
406.62	15651.16
406.81	15262.63
407.00	14892.83
407.20	14473.87
407.39	14679.84
407.58	15311.78
407.77	16208.21
407.96	16313.53
408.15	16423.54
408.34	16732.49
408.54	17467.42
408.73	17254.43
408.92	17235.70
409.11	16716.11
409.30	16145.02
409.49	14988.79
409.68	14047.90
409.87	13598.51
410.07	14597.92
410.26	15681.59
410.45	16573.33
410.64	17172.51
410.83	17390.18
411.02	17813.82
411.21	18602.58
411.40	18544.06
411.59	18698.54
411.78	18270.22
411.98	18302.99
412.17	18848.33
412.36	17905.10
412.55	18141.49
412.74	18026.81
412.93	17282.52
413.12	17624.23
413.31	19250.91
413.50	19527.09
413.69	19845.40
413.88	19211.12
414.07	18412.99
414.26	18553.43
414.45	19536.45
414.64	19517.73
414.83	19473.26
415.02	19007.49
415.22	19115.16
415.41	19597.31
415.60	20238.61
415.79	20973.54
415.98	21539.95
416.17	21422.92
416.36	21125.68
416.55	20512.46
416.74	19803.27
416.93	18977.06
417.12	19140.90
417.31	19950.73
417.50	20074.77
417.69	20369.68
417.88	20856.51
418.07	20432.88
418.26	19990.52
418.45	19957.75
418.64	21249.72
418.83	21528.25
419.02	21289.51
419.21	21256.75
419.39	20100.52
419.58	19330.48
419.77	19262.61
419.96	20102.86
420.15	21333.98
420.34	21858.26
420.53	22822.56
420.72	22869.37
420.91	22574.47
421.10	22436.38
421.29	22415.31
421.48	21755.28
421.67	22693.83
421.86	22029.12
422.05	20521.82
422.24	18195.32
422.43	18272.56
422.61	20210.53
422.80	21874.65
422.99	21736.56
423.18	21046.10
423.37	20798.00
423.56	20648.21
423.75	21074.18
423.94	21788.05
424.13	20353.30
424.32	20683.31
424.50	20798.00
424.69	20304.15
424.88	20666.93
425.07	20411.81
425.26	20156.69
425.45	20067.75
425.64	19962.43
425.83	19833.70
426.01	20865.88
426.20	21582.08
426.39	21188.87
426.58	20002.22
426.77	18160.22
426.96	17680.41
427.15	18113.41
427.33	19620.71
427.52	20695.02
427.71	20840.13
427.90	20652.89
428.09	20365.00
428.28	19932.00
428.46	18958.34
428.65	18768.76
428.84	19405.38
429.03	19721.35
429.22	18572.15
429.40	17830.20
429.59	16044.37
429.78	13998.74
429.97	14207.05
430.16	14293.65
430.34	14523.02
430.53	14469.19
430.72	14602.60
430.91	16210.55
431.10	19325.80
431.28	22429.35
431.47	24301.78
431.66	24746.48
431.85	22588.51
432.03	20613.10
432.22	19585.60
432.41	20245.63
432.60	22810.86
432.79	23903.89
432.97	24631.80
433.16	24020.92
433.35	22015.08
433.54	19807.95
433.72	18441.08
433.91	18916.21
434.10	20985.24
434.28	22668.09
434.47	23777.50
434.66	23543.45
434.85	22906.82
435.03	22782.77
435.22	23784.52
435.41	24411.79
435.59	24545.20
435.78	25308.21
435.97	25406.52
436.16	26103.99
436.34	25944.84
436.53	24795.64
436.72	25312.89
436.90	23812.61
437.09	23779.84
437.28	23157.26
437.46	24320.51
437.65	24034.96
437.84	22434.03
438.02	20823.75
438.21	20688.00
438.40	21551.65
438.58	23344.50
438.77	24077.09
438.96	24034.96
439.14	25439.28
439.33	26157.83
439.52	26209.32
439.70	25970.58
439.89	24954.79
440.08	24524.13
440.26	24231.57
440.45	25151.40
440.63	26988.72
440.82	28226.86
441.01	28182.39
441.19	27803.22
441.38	28065.36
441.57	29298.83
441.75	29537.56
441.94	29713.10
442.12	29193.50
442.31	30071.20
442.50	30132.06
442.68	29497.77
442.87	29191.16
443.05	28538.15
443.24	29017.96
443.43	29685.01
443.61	30485.48
443.80	30609.53
443.98	29111.58
444.17	28987.53
444.35	30462.07
444.54	31178.28
444.73	30824.86
444.91	29619.48
445.10	28308.78
445.28	27358.52
445.47	27009.78
445.65	26897.44
445.84	27613.64
446.02	28472.62
446.21	29301.17
446.39	29373.72
446.58	29514.16
446.77	30143.76
446.95	30499.52
447.14	31087.00
447.32	31639.36
447.51	30539.31
447.69	29680.33
447.88	29172.44
448.06	29942.47
448.25	30761.66
448.43	30974.65
448.62	30291.21
448.80	29549.26
448.99	30258.45
449.17	30602.50
449.36	30487.82
449.54	31658.09
449.73	32329.82
449.91	32877.51
450.10	33682.65
450.28	33860.53
450.46	33572.64
450.65	33802.02
450.83	33373.70
451.02	32591.96
451.20	32444.51
451.39	32144.92
451.57	31976.40
451.76	32304.07
451.94	32088.74
452.13	31166.57
452.31	30008.01
452.49	28718.37
452.68	29085.84
452.86	29326.91
453.05	29467.34
453.23	30572.08
453.42	31012.10
453.60	31976.40
453.78	32208.11
453.97	31936.61
454.15	31754.05
454.34	31140.83
454.52	31110.40
454.70	30487.82
454.89	30906.77
455.07	31297.64
455.26	31557.44
455.44	32886.87
455.62	33549.24
455.81	33778.61
455.99	33247.31
456.17	33062.41
456.36	32872.82
456.54	34033.73
456.73	33993.94
456.91	34415.24
457.09	34930.16
457.28	35318.68
457.46	33975.22
457.64	33626.48
457.83	32360.25
458.01	32275.99
458.19	32884.53
458.38	33041.34
458.56	34312.25
458.74	34066.50
458.93	32655.15
459.11	33209.86
459.29	32889.21
459.48	33216.88
459.66	32994.53
459.84	33322.21
460.03	33977.56
460.21	33560.94
460.39	34658.65
460.57	34726.53
460.76	35112.72
460.94	35215.70
461.12	34974.63
461.31	34679.72
461.49	34845.90
461.67	34899.73
461.85	35599.55
462.04	35419.33
462.22	36353.20
462.40	35908.50
462.59	35220.38
462.77	35409.96
462.95	35805.52
463.13	34902.07
463.32	34740.57
463.50	34953.56
463.68	34686.74
463.86	34714.83
464.05	34253.74
464.23	33509.45
464.41	33170.07
464.59	32355.57
464.78	34345.02
464.96	34204.59
465.14	33750.52
465.32	34508.86
465.50	35253.15
465.69	36212.77
465.87	35555.08
466.05	34178.84
466.23	32613.02
466.41	32451.53
466.60	32886.87
466.78	32910.27
466.96	33624.14
467.14	34396.51
467.32	34913.77
467.51	34686.74
467.69	33024.96
467.87	33692.01
468.05	34433.96
468.23	34213.95
468.41	34642.27
468.60	34487.79
468.78	34916.11
468.96	34230.33
469.14	35000.37
469.32	35360.81
469.50	33692.01
469.69	34057.14
469.87	33387.74
470.05	33462.64
470.23	33289.44
470.41	33235.61
470.59	33855.85
470.77	34066.50
470.95	34778.02
471.14	35129.10
471.32	35306.98
471.50	37469.64
471.68	37352.61
471.86	37408.78
472.04	37972.85
472.22	37717.73
472.40	36212.77
472.58	35749.34
472.77	35175.91
472.95	36367.24
473.13	37064.72
473.31	36128.51
473.49	36287.67
473.67	37053.02
473.85	37200.47
474.03	38209.25
474.21	38279.46
474.39	38457.34
474.57	39232.06
474.75	38588.41
474.93	38323.93
475.12	37687.31
475.30	37502.40
475.48	37816.04
475.66	38497.13
475.84	38059.45
476.02	37490.70
476.20	37172.39
476.38	37773.91
476.56	39042.48
476.74	39227.38
476.92	39599.52
477.10	40395.31
477.28	41256.62
477.46	41336.20
477.64	41670.90
477.82	41780.90
478.00	41766.86
478.18	41378.33
478.36	41057.68
478.54	41048.32
478.72	41511.74
478.90	42279.44
479.08	43615.88
479.26	44449.11
479.44	44009.09
479.62	43941.22
479.80	43627.59
479.98	43796.10
480.16	43718.87
480.34	43590.14
480.52	44268.89
480.70	44334.43
480.88	44144.84
481.06	44875.09
481.24	45003.82
481.41	46206.86
481.59	47112.64
481.77	46670.28
481.95	46101.53
482.13	45776.20
482.31	46031.32
482.49	46616.45
482.67	46562.62
482.85	46384.74
483.03	47372.44
483.21	47454.36
483.39	47547.98
483.57	46799.01
483.74	46623.47
483.92	47168.82
484.10	46862.21
484.28	47880.34
484.46	48821.23
484.64	48893.79
484.82	47665.01
485.00	47704.80
485.18	46981.57
485.35	45354.90
485.53	42476.04
485.71	39098.65
485.89	37919.02
486.07	39751.66
486.25	43320.98
486.43	45792.58
486.61	46333.24
486.78	46653.90
486.96	46412.82
487.14	48058.22
487.32	49029.54
487.50	50033.63
487.68	50990.91
487.85	51124.32
488.03	51138.36
488.21	50866.86
488.39	50244.28
488.57	49834.69
488.75	49055.29
488.92	50260.66
489.10	52451.41
489.28	53579.54
489.46	54600.02
489.64	54300.43
489.81	54485.33
489.99	54073.40
490.17	54192.76
490.35	54274.68
490.53	54300.43
490.70	53794.87
490.88	53375.92
491.06	54616.40
491.24	54511.08
491.41	53588.91
491.59	51934.15
491.77	50738.13
491.95	52229.05
492.13	53272.93
492.30	54508.74
492.48	55395.80
492.66	56184.56
492.84	55569.00
493.01	55796.03
493.19	55084.51
493.37	54834.07
493.54	54529.80
493.72	55089.19
493.90	56006.68
494.08	56676.07
494.25	56949.92
494.43	57120.77
494.61	57497.60
494.79	57687.18
494.96	57422.70
495.14	57099.71
495.32	56030.08
495.49	55463.67
495.67	56172.86
495.85	57558.45
496.02	57996.13
496.20	58115.50
496.38	57563.14
496.55	57324.40
496.73	57963.37
496.91	57780.81
497.09	58487.65
497.26	58698.30
497.44	58155.29
497.62	57558.45
497.79	57102.05
497.97	55821.78
498.14	55990.30
498.32	56975.66
498.50	57855.70
498.67	58302.74
498.85	58092.10
499.03	58333.17
499.20	58454.88
499.38	58548.50
499.56	58473.60
499.73	58148.27
499.91	57689.52
500.08	57148.86
500.26	56575.43
500.44	56839.91
500.61	57499.94
500.79	57336.10
500.97	57347.81
501.14	56872.68
501.32	56729.90
501.49	56612.88
501.67	57193.33
501.84	57535.05
502.02	57792.51
502.20	58028.90
502.37	58197.42
502.55	58239.55
502.72	58901.92
502.90	59047.04
503.07	58688.93
503.25	58681.91
503.43	57652.08
503.60	57176.95
503.78	56444.36
503.95	56643.30
504.13	58286.36
504.30	59051.72
504.48	58885.54
504.65	58319.13
504.83	58504.03
505.01	59128.95
505.18	59634.51
505.36	60147.09
505.53	60107.30
505.71	60355.39
505.88	60399.86
506.06	59716.43
506.23	59468.33
506.41	59100.87
506.58	59332.58
506.76	59299.81
506.93	59384.07
507.11	59121.93
507.28	59309.18
507.46	58562.54
507.63	58295.72
507.81	57811.23
507.98	58277.00
508.16	58794.26
508.33	59400.46
508.50	59583.02
508.68	60023.04
508.85	60327.31
509.03	60327.31
509.20	60221.98
509.38	59587.70
509.55	58871.49
509.73	58777.87
509.90	59587.70
510.08	59824.09
510.25	59690.68
510.42	59522.16
510.60	59278.75
510.77	59732.81
510.95	60198.58
511.12	60205.60
511.30	60772.01
511.47	60587.11
511.64	60818.82
511.82	60416.25
511.99	59625.15
512.17	59248.32
512.34	59117.25
512.51	59072.78
512.69	59388.75
512.86	59330.24
513.04	59896.65
513.21	59758.56
513.38	59594.72
513.56	59007.25
513.73	58422.11
513.90	58625.74
514.08	58609.35
514.25	59009.59
514.43	59152.36
514.60	59281.09
514.77	59648.55
514.95	59702.38
515.12	59318.54
515.29	59592.38
515.47	59913.03
515.64	60268.79
515.81	59973.89
515.99	59051.72
516.16	58155.29
516.33	55861.57
516.51	54499.37
516.68	53745.72
516.85	53151.23
517.03	53256.55
517.20	56182.22
517.37	58576.59
517.54	59435.56
517.72	59121.93
517.89	56933.53
518.06	54550.87
518.24	54777.90
518.41	56814.16
518.58	58176.36
518.75	58195.08
518.93	58539.14
519.10	58574.25
519.27	58911.28
519.45	58993.20
519.62	59807.71
519.79	60032.40
519.96	59891.97
520.14	59323.22
520.31	58518.07
520.48	58796.60
520.65	58965.12
520.83	59779.62
521.00	60395.18
521.17	60041.76
521.34	59561.95
521.52	59709.41
521.69	60364.76
521.86	60573.06
522.03	60514.55
522.20	59597.06
522.38	58113.16
522.55	58244.23
522.72	58789.58
522.89	59187.47
523.07	59297.47
523.24	59662.60
523.41	60348.37
523.58	60664.35
523.75	61038.83
523.92	61050.53
524.10	60830.52
524.27	60856.27
524.44	60554.34
524.61	60406.89
524.78	60107.30
524.96	60275.82
525.13	60250.07
525.30	60584.77
525.47	60769.67
525.64	60783.71
525.81	60327.31
525.98	59084.48
526.16	57492.92
526.33	56830.55
526.50	56507.55
526.67	56222.01
526.84	56811.82
527.01	57729.31
527.18	58525.10
527.36	59299.81
527.53	60264.11
527.70	60446.68
527.87	59639.19
528.04	59367.69
528.21	59606.42
528.38	60523.91
528.55	60949.89
528.72	61137.13
528.89	61497.58
529.07	61202.67
529.24	60519.23
529.41	60137.72
529.58	59260.02
529.75	59374.71
529.92	59929.42
530.09	60238.37
530.26	60711.16
530.43	61125.43
530.60	61123.09
530.77	61141.81
530.94	61279.91
531.11	60779.03
531.28	60678.39
531.46	60441.99
531.63	60465.40
531.80	60523.91
531.97	60051.12
532.14	59428.54
532.31	58422.11
532.48	57921.24
532.65	57673.14
532.82	58539.14
532.99	59678.98
533.16	60072.19
533.33	60367.10
533.50	60346.03
533.67	59840.48
533.84	59222.58
534.01	59524.50
534.18	59671.96
534.35	59868.56
534.52	59788.98
534.69	60030.06
534.86	60530.93
535.03	60619.88
535.20	60839.89
535.37	61441.40
535.54	61275.22
535.71	61055.21
535.88	60914.78
536.05	60126.02
536.22	59753.88
536.38	59358.33
536.55	59009.59
536.72	58808.30
536.89	58384.66
537.06	59313.86
537.23	60126.02
537.40	60257.09
537.57	60261.77
537.74	60081.55
537.91	60126.02
538.08	59842.82
538.25	59945.80
538.42	60231.35
538.59	60013.68
538.75	59416.84
538.92	59391.09
539.09	59077.46
539.26	58841.07
539.43	58731.06
539.60	58988.52
539.77	58946.39
539.94	58993.20
540.11	58005.50
540.28	57661.44
540.44	57586.54
540.61	58103.80
540.78	58384.66
540.95	58693.61
541.12	58997.88
541.29	59426.20
541.46	59690.68
541.62	59578.34
541.79	59435.56
541.96	58930.01
542.13	58791.92
542.30	59283.43
542.47	59487.06
542.63	59114.91
542.80	58822.34
542.97	59037.67
543.14	58904.26
543.31	58981.50
543.48	59220.23
543.64	60168.15
543.81	60212.62
543.98	60009.00
544.15	59426.20
544.32	58894.90
544.48	59091.51
544.65	59629.83
544.82	59887.29
544.99	59384.07
545.16	59292.79
545.32	58937.03
545.49	59564.29
545.66	60027.72
545.83	59817.07
546.00	59428.54
546.16	58995.54
546.33	59004.91
546.50	59023.63
546.67	59442.59
546.83	58857.45
547.00	59348.96
547.17	58665.53
547.34	58101.46
547.50	57874.43
547.67	58457.22
547.84	58497.01
548.00	58850.43
548.17	59238.96
548.34	59063.42
548.51	59075.12
548.67	59250.66
548.84	59327.90
549.01	59419.18
549.18	58941.71
549.34	59082.14
549.51	58848.09
549.68	58827.02
549.84	58548.50
550.01	58883.20
550.18	58450.20
550.34	58742.77
550.51	58693.61
550.68	58955.75
550.84	58358.92
551.01	58426.79
551.18	58429.13
551.34	58639.78
551.51	58941.71
551.68	59267.05
551.84	59210.87
552.01	59028.31
552.18	58812.98
552.34	58337.85
552.51	57890.81
552.68	57738.68
552.84	58159.97
553.01	58494.67
553.18	58426.79
553.34	58335.51
553.51	58667.87
553.67	58876.18
553.84	58897.24
554.01	58789.58
554.17	58658.51
554.34	58691.27
554.51	58775.53
554.67	59199.17
554.84	58897.24
555.00	58644.46
555.17	58293.38
555.33	58611.70
555.50	58370.62
555.67	58335.51
555.83	58171.67
556.00	57982.09
556.16	57975.07
556.33	57530.37
556.50	57198.01
556.66	57462.49
556.83	57261.21
556.99	57474.20
557.16	57343.12
557.32	57834.64
557.49	57963.37
557.65	57890.81
557.82	57680.16
557.98	57921.24
558.15	57226.10
558.32	56456.06
558.48	55613.47
558.65	56053.49
558.81	56247.75
558.98	56423.29
559.14	56783.74
559.31	56858.63
559.47	56589.47
559.64	56435.00
559.80	56184.56
559.97	56044.13
560.13	56594.15
560.30	57652.08
560.46	58092.10
560.63	58225.51
560.79	58227.85
560.96	57918.90
561.12	56919.49
561.29	55899.01
561.45	55957.53
561.61	56516.92
561.78	56963.96
561.94	56896.08
562.11	56891.40
562.27	56502.87
562.44	56851.61
562.60	57235.46
562.77	57502.28
562.93	57162.90
563.10	57331.42
563.26	56505.21
563.42	56868.00
563.59	56577.77
563.75	56418.61
563.92	56547.34
564.08	56561.39
564.24	56734.59
564.41	57013.11
564.57	56760.33
564.74	56470.11
564.90	56584.79
565.07	56011.36
565.23	55969.23
565.39	55454.31
565.56	55351.33
565.72	54923.01
565.88	55435.59
566.05	55360.69
566.21	55796.03
566.38	55952.85
566.54	55889.65
566.70	56259.46
566.87	56491.17
567.03	56687.78
567.19	56781.40
567.36	56451.38
567.52	56161.15
567.68	56086.26
567.85	55444.95
568.01	55119.62
568.17	54808.32
568.34	54794.28
568.50	54878.54
568.66	54527.46
568.83	55075.15
568.99	55274.09
569.15	55356.01
569.32	55641.56
569.48	55096.21
569.64	55009.61
569.81	54780.24
569.97	54602.36
570.13	54691.30
570.30	54092.12
570.46	53970.41
570.62	53015.47
570.78	52933.56
570.95	53312.72
571.11	54096.80
571.27	54122.55
571.43	54534.48
571.60	54855.14
571.76	55283.45
571.92	55182.81
572.09	55449.63
572.25	55344.31
572.41	55386.44
572.57	55154.72
572.74	54983.86
572.90	54621.08
573.06	54656.19
573.22	54604.70
573.38	54798.96
573.55	54719.38
573.71	54911.31
573.87	54679.60
574.03	54550.87
574.20	54667.89
574.36	54387.03
574.52	54089.78
574.68	54092.12
574.84	53759.76
575.01	53483.58
575.17	52985.05
575.33	53258.89
575.49	53549.12
575.65	53841.68
575.82	53656.78
575.98	53193.36
576.14	53670.82
576.30	54042.97
576.46	54045.31
576.62	53893.18
576.79	53778.49
576.95	53450.81
577.11	53563.16
577.27	53336.13
577.43	53645.08
577.59	53399.32
577.75	53041.22
577.92	52247.78
578.08	52172.88
578.24	52083.94
578.40	52713.55
578.56	52633.97
578.72	52727.59
578.88	52966.32
579.04	52748.65
579.21	53415.71
579.37	53286.98
579.53	52980.37
579.69	53095.05
579.85	53659.12
580.01	53315.06
580.17	52945.26
580.33	52615.24
580.49	52655.03
580.65	53038.88
580.82	53162.93
580.98	53228.46
581.14	53095.05
581.30	53200.38
581.46	53052.92
581.62	53242.51
581.78	53305.70
581.94	53727.00
582.10	53516.35
582.26	53528.05
582.42	53359.53
582.58	53350.17
582.74	53083.35
582.90	53436.77
583.06	53523.37
583.22	53198.04
583.38	53038.88
583.54	53193.36
583.70	52823.55
583.86	53158.25
584.02	52928.87
584.18	52896.11
584.34	52765.04
584.50	52673.76
584.66	52390.55
584.82	52067.56
584.98	51976.28
585.14	52011.38
585.30	51215.60
