SpectraSuite Data File
++++++++++++++++++++++++++++++++++++
Date: Mon Oct 07 14:52:56 GMT-05:00 2013
User: price-jones
Dark Spectrum Present: No
Reference Spectrum Present: No
Number of Sampled Component Spectra: 1
Spectrometers: USB2+H05261
Integration Time (usec): 100000 (USB2+H05261)
Spectra Averaged: 1 (USB2+H05261)
Boxcar Smoothing: 0 (USB2+H05261)
Correct for Electrical Dark: No (USB2+H05261)
Strobe/Lamp Enabled: No (USB2+H05261)
Correct for Detector Non-linearity: No (USB2+H05261)
Correct for Stray Light: No (USB2+H05261)
Number of Pixels in Processed Spectrum: 2048
>>>>>Begin Processed Spectral Data<<<<<
365.73	0.00
365.92	0.00
366.12	0.00
366.32	0.00
366.52	0.00
366.72	0.00
366.91	0.00
367.11	0.00
367.31	0.00
367.51	0.00
367.70	0.00
367.90	0.00
368.10	0.00
368.30	0.00
368.49	0.00
368.69	0.00
368.89	0.00
369.09	0.00
369.28	0.00
369.48	0.00
369.68	0.00
369.87	0.00
370.07	0.00
370.27	0.00
370.47	395.55
370.66	2445.86
370.86	2846.09
371.06	3070.78
371.25	3119.93
371.45	2698.64
371.65	2504.37
371.84	2298.41
372.04	2612.04
372.24	2771.19
372.44	2953.76
372.63	2768.85
372.83	2581.61
373.03	2450.54
373.22	2150.95
373.42	2214.15
373.62	2712.68
373.81	2818.00
374.01	2789.92
374.21	2609.70
374.40	2267.98
374.60	2523.10
374.79	2792.26
374.99	3255.69
375.19	3454.63
375.38	3473.36
375.58	3272.07
375.78	3232.28
375.97	3410.16
376.17	3473.36
376.37	3403.14
376.56	3632.51
376.76	3906.35
376.95	3875.93
377.15	4208.28
377.35	4304.25
377.54	4697.46
377.74	4755.97
377.93	4582.77
378.13	4500.85
378.33	4308.93
378.52	4016.36
378.72	3740.18
378.91	3868.91
379.11	3707.41
379.31	3611.45
379.50	3543.57
379.70	3784.65
379.89	4255.09
380.09	4505.53
380.28	4538.30
380.48	4638.94
380.68	4484.47
380.87	4353.40
381.07	4028.06
381.26	3723.79
381.46	3543.57
381.65	3456.97
381.85	3372.71
382.04	3183.13
382.24	2956.10
382.43	2759.49
382.63	2780.56
382.83	2850.77
383.02	2724.38
383.22	2853.11
383.41	2782.90
383.61	3063.76
383.80	3545.91
384.00	3915.72
384.19	4411.91
384.39	4606.17
384.58	4596.81
384.78	4388.50
384.97	4416.59
385.17	4119.34
385.36	3932.10
385.56	3861.88
385.75	4018.70
385.95	4329.99
386.14	4730.22
386.34	4725.54
386.53	4564.04
386.72	4276.16
386.92	4273.82
387.11	4533.62
387.31	4833.21
387.50	4620.22
387.70	4636.60
387.89	4409.57
388.09	4447.02
388.28	4489.15
388.48	4571.07
388.67	4931.51
388.86	5514.30
389.06	5895.81
389.25	6038.58
389.45	6284.34
389.64	6080.71
389.84	6047.94
390.03	5987.09
390.22	6019.86
390.42	6164.97
390.61	6569.88
390.81	7059.06
391.00	7124.59
391.19	6991.18
391.39	6834.36
391.58	6401.37
391.78	6127.52
391.97	6005.81
392.16	5460.47
392.36	5041.51
392.55	4173.18
392.75	3141.00
392.94	2623.74
393.13	2663.53
393.33	3007.59
393.52	3976.57
393.71	4997.04
393.91	5547.07
394.10	5898.15
394.29	6310.08
394.49	7129.27
394.68	7433.54
394.88	7293.11
395.07	7805.69
395.26	7623.12
395.46	7623.12
395.65	6930.33
395.84	6298.38
396.04	5233.44
396.23	4124.02
396.42	3559.95
396.62	3400.80
396.81	4117.00
397.00	5174.92
397.19	6534.78
397.39	7641.85
397.58	8400.18
397.77	9174.90
397.97	9411.29
398.16	9504.92
398.35	9891.10
398.55	10242.18
398.74	10724.33
398.93	10771.15
399.12	10806.25
399.32	10195.37
399.51	10567.52
399.70	11262.66
399.90	10871.79
400.09	10981.79
400.28	10836.68
400.47	11236.91
400.67	11506.07
400.86	11779.92
401.05	11798.64
401.24	11791.62
401.44	12147.38
401.63	12250.36
401.82	12238.66
402.01	11929.71
402.21	12407.18
402.40	12238.66
402.59	12065.46
402.78	11566.93
402.97	11274.36
403.17	11812.68
403.36	12100.57
403.55	12858.90
403.74	12922.10
403.93	12325.26
404.13	11510.75
404.32	11323.51
404.51	11786.94
404.70	12484.42
404.89	12809.75
405.09	12322.92
405.28	11960.14
405.47	12156.74
405.66	11800.98
405.85	11918.01
406.05	11566.93
406.24	11686.29
406.43	12266.75
406.62	12697.41
406.81	12533.57
407.00	12056.10
407.20	11908.65
407.39	12004.61
407.58	12510.16
407.77	13048.49
407.96	13394.89
408.15	13673.41
408.34	13734.26
408.54	14473.87
408.73	14256.20
408.92	14190.67
409.11	13633.62
409.30	13048.49
409.49	12561.66
409.68	11634.80
409.87	11337.56
410.07	11817.36
410.26	12868.27
410.45	13703.84
410.64	13790.44
410.83	14438.76
411.02	14740.69
411.21	14977.09
411.40	15044.96
411.59	15197.10
411.78	15208.80
411.98	14740.69
412.17	15227.53
412.36	14626.01
412.55	14902.19
412.74	14616.65
412.93	14595.58
413.12	14523.02
413.31	15925.00
413.50	15927.35
413.69	16290.13
413.88	15421.79
414.07	15096.46
414.26	15616.05
414.45	16013.95
414.64	15899.26
414.83	16035.01
415.02	15719.04
415.22	15672.23
415.41	16123.95
415.60	16404.81
415.79	17071.87
415.98	17462.74
416.17	17245.07
416.36	17125.70
416.55	17025.06
416.74	15957.77
416.93	15758.83
417.12	15782.23
417.31	16205.87
417.50	16524.18
417.69	17128.04
417.88	16486.73
418.07	16479.71
418.26	16386.09
418.45	16737.17
418.64	17195.92
418.83	17767.01
419.02	17535.29
419.21	17343.37
419.39	16362.69
419.58	15686.27
419.77	16056.08
419.96	16444.60
420.15	17399.54
420.34	18232.77
420.53	18656.41
420.72	19082.39
420.91	19145.58
421.10	18499.59
421.29	18490.23
421.48	17579.76
421.67	18541.72
421.86	18188.30
422.05	16924.41
422.24	15002.83
422.43	14984.11
422.61	16709.08
422.80	18462.15
422.99	17923.82
423.18	17057.82
423.37	16692.70
423.56	17259.11
423.75	17188.89
423.94	17547.00
424.13	16992.29
424.32	16709.08
424.50	17006.33
424.69	16884.62
424.88	16849.52
425.07	16933.78
425.26	16723.13
425.45	16641.21
425.64	16458.65
425.83	16442.26
426.01	17434.65
426.20	17610.19
426.39	17706.15
426.58	16313.53
426.77	15002.83
426.96	14572.18
427.15	15302.42
427.33	16697.38
427.52	17170.17
427.71	17296.56
427.90	16989.95
428.09	16615.46
428.28	16645.89
428.46	15674.57
428.65	15576.27
428.84	16002.24
429.03	16130.97
429.22	15421.79
429.40	14317.06
429.59	13107.00
429.78	11714.38
429.97	11550.54
430.16	11669.91
430.34	11829.07
430.53	12032.69
430.72	12381.43
430.91	13682.77
431.10	15747.12
431.28	18843.65
431.47	20318.19
431.66	20449.26
431.85	18497.25
432.03	17209.96
432.22	16276.09
432.41	17205.28
432.60	18991.11
432.79	19761.14
432.97	20027.96
433.16	19903.92
433.35	17956.59
433.54	16308.85
433.72	15225.18
433.91	15934.37
434.10	17666.36
434.28	18604.92
434.47	19899.23
434.66	19604.33
434.85	18808.54
435.03	19147.92
435.22	19447.51
435.41	20596.71
435.59	20688.00
435.78	20933.75
435.97	21640.59
436.16	21589.10
436.34	21212.28
436.53	20577.99
436.72	20624.80
436.90	19810.29
437.09	19683.91
437.28	19517.73
437.46	19999.88
437.65	19742.42
437.84	18422.36
438.02	16699.72
438.21	17191.23
438.40	18001.06
438.58	19751.78
438.77	19793.91
438.96	20147.33
439.14	21090.57
439.33	21427.60
439.52	21638.25
439.70	21565.70
439.89	20996.95
440.08	20421.17
440.26	19990.52
440.45	21006.31
440.63	22277.22
440.82	23597.28
441.01	23206.41
441.19	22951.29
441.38	23723.67
441.57	24224.54
441.75	24432.85
441.94	24790.95
442.12	24521.79
442.31	24952.45
442.50	25029.69
442.68	24769.89
442.87	24538.18
443.05	24102.84
443.24	24648.18
443.43	24886.92
443.61	25069.48
443.80	25453.33
443.98	24320.51
444.17	24168.37
444.35	25530.56
444.54	25933.14
444.73	25605.46
444.91	24716.06
445.10	23744.73
445.28	22698.52
445.47	22249.13
445.65	22628.30
445.84	23482.59
446.02	24049.00
446.21	24297.10
446.39	24350.93
446.58	24575.62
446.77	25303.53
446.95	25696.74
447.14	25844.20
447.32	26345.07
447.51	25806.75
447.69	24884.58
447.88	24617.75
448.06	25001.60
448.25	25378.43
448.43	26092.29
448.62	25329.28
448.80	24971.18
448.99	25219.27
449.17	25392.47
449.36	25132.67
449.54	26544.02
449.73	27056.59
449.91	27449.80
450.10	27704.92
450.28	28173.03
450.46	28278.35
450.65	28189.41
450.83	28121.54
451.02	27353.84
451.20	27150.21
451.39	27133.83
451.57	27058.93
451.76	26986.38
451.94	26490.18
452.13	26443.37
452.31	25170.12
452.49	24107.52
452.68	24205.82
452.86	24168.37
453.05	24531.15
453.23	25490.77
453.42	26071.23
453.60	26272.51
453.78	27262.56
453.97	26551.04
454.15	26565.08
454.34	25923.77
454.52	26349.75
454.70	25706.10
454.89	26136.76
455.07	25921.43
455.26	26941.91
455.44	27435.76
455.62	27924.93
455.81	28011.53
455.99	27838.33
456.17	27517.68
456.36	27903.87
456.54	28641.14
456.73	28837.74
456.91	29048.39
457.09	29104.56
457.28	29710.76
457.46	28418.78
457.64	28268.99
457.83	27775.14
458.01	26639.98
458.19	27711.94
458.38	27946.00
458.56	28678.58
458.74	28994.56
458.93	27983.44
459.11	27742.37
459.29	27882.80
459.48	28393.04
459.66	27681.52
459.84	28048.98
460.03	28273.67
460.21	28657.52
460.39	29177.12
460.57	29345.64
460.76	29799.70
460.94	29553.94
461.12	29294.14
461.31	29090.52
461.49	29008.60
461.67	28961.79
461.85	30071.20
462.04	29832.47
462.22	30443.35
462.40	29862.90
462.59	29755.23
462.77	29837.15
462.95	30008.01
463.13	29507.13
463.32	29359.68
463.50	29198.18
463.68	28954.77
463.86	29308.19
464.05	28769.86
464.23	28147.28
464.41	28084.09
464.59	27789.18
464.78	29090.52
464.96	29076.48
465.14	28666.88
465.32	29228.61
465.50	30066.52
465.69	30057.16
465.87	29780.98
466.05	28706.67
466.23	27314.05
466.41	26787.43
466.60	28002.17
466.78	27920.25
466.96	28257.29
467.14	28994.56
467.32	29340.96
467.51	29347.98
467.69	27936.63
467.87	28802.63
468.05	28996.90
468.23	29032.00
468.41	28973.49
468.60	28769.86
468.78	29097.54
468.96	28889.23
469.14	29750.55
469.32	29472.03
469.50	28580.28
469.69	28833.06
469.87	27962.38
470.05	28147.28
470.23	28123.88
470.41	28233.88
470.59	28819.02
470.77	28678.58
470.95	29273.08
471.14	29778.64
471.32	29832.47
471.50	31587.87
471.68	31730.64
471.86	31800.86
472.04	31660.43
472.22	31917.89
472.40	30270.15
472.58	30321.64
472.77	29905.02
472.95	30555.69
473.13	31381.90
473.31	30483.14
473.49	30815.49
473.67	31033.16
473.85	31505.95
474.03	32257.26
474.21	32142.58
474.39	32947.72
474.57	33109.22
474.75	32814.31
474.93	32561.53
475.12	31606.59
475.30	31772.77
475.48	31997.46
475.66	32776.86
475.84	32107.47
476.02	31611.28
476.20	30998.06
476.38	31880.44
476.56	33354.97
476.74	33291.78
476.92	33773.93
477.10	34007.98
477.28	34820.15
477.46	35363.15
477.64	35040.16
477.82	35604.23
478.00	35676.79
478.18	35007.39
478.36	35208.68
478.54	34902.07
478.72	34899.73
478.90	36299.37
479.08	37581.98
479.26	37642.84
479.44	37635.81
479.62	37277.71
479.80	37408.78
479.98	37631.13
480.16	37809.01
480.34	37060.04
480.52	37284.73
480.70	37940.08
480.88	37727.10
481.06	38621.18
481.24	39321.00
481.41	39812.51
481.59	40641.06
481.77	40079.33
481.95	39339.72
482.13	39126.74
482.31	39751.66
482.49	40142.53
482.67	39496.54
482.85	40140.19
483.03	40751.07
483.21	40793.20
483.39	41287.05
483.57	40467.86
483.74	40154.23
483.92	40566.16
484.10	40933.63
484.28	41373.65
484.46	41902.61
484.64	42197.52
484.82	41659.20
485.00	40882.14
485.18	39873.37
485.35	39028.43
485.53	36004.46
485.71	32900.91
485.89	32290.03
486.07	34064.16
486.25	37160.69
486.43	39201.63
486.61	40236.15
486.78	39976.35
486.96	40395.31
487.14	41771.54
487.32	42887.98
487.50	43714.19
487.68	44622.31
487.85	45661.51
488.03	45462.57
488.21	44580.18
488.39	44144.84
488.57	43395.87
488.75	43028.41
488.92	44285.28
489.10	46768.58
489.28	48184.61
489.46	48952.30
489.64	48807.19
489.81	49378.28
489.99	48652.72
490.17	48397.60
490.35	49329.13
490.53	48582.50
490.70	47936.51
490.88	48034.81
491.06	49034.22
491.24	48942.94
491.41	47578.41
491.59	45668.53
491.77	45308.09
491.95	46218.56
492.13	48217.38
492.30	49387.64
492.48	50480.67
492.66	51185.18
492.84	50770.90
493.01	50370.67
493.19	49429.77
493.37	49450.84
493.54	48978.05
493.72	50295.77
493.90	51416.89
494.08	52306.29
494.25	52404.59
494.43	52383.53
494.61	52985.05
494.79	53289.32
494.96	53055.26
495.14	51983.30
495.32	50988.57
495.49	50518.12
495.67	51814.78
495.85	52886.74
496.02	53635.72
496.20	53439.11
496.38	53083.35
496.55	52952.28
496.73	53191.01
496.91	53425.07
497.09	54054.67
497.26	54122.55
497.44	54014.88
497.62	53020.16
497.79	52009.04
497.97	51056.45
498.14	50831.75
498.32	52542.69
498.50	53254.21
498.67	53991.48
498.85	53862.75
499.03	53930.62
499.20	54244.26
499.38	54274.68
499.56	53979.78
499.73	53382.94
499.91	52725.25
500.08	52645.67
500.26	51840.53
500.44	52212.67
500.61	53228.46
500.79	53148.88
500.97	52528.64
501.14	52449.06
501.32	52275.87
501.49	52215.01
501.67	52655.03
501.84	53102.07
502.02	53422.73
502.20	53633.38
502.37	53677.85
502.55	53851.05
502.72	54639.81
502.90	55065.78
503.07	54611.72
503.25	54270.00
503.43	53324.43
503.60	52591.84
503.78	51770.31
503.95	52367.15
504.13	54108.50
504.30	54653.85
504.48	54473.63
504.65	54129.57
504.83	54307.45
505.01	55133.66
505.18	55192.17
505.36	56048.81
505.53	55962.21
505.71	56172.86
505.88	56519.26
506.06	55770.28
506.23	55358.35
506.41	54703.00
506.58	55159.41
506.76	55093.87
506.93	55016.63
507.11	54801.30
507.28	54925.35
507.46	54150.63
507.63	53860.41
507.81	53556.14
507.98	53853.39
508.16	54852.80
508.33	55217.92
508.50	55461.33
508.68	55894.33
508.85	56341.38
509.03	56666.71
509.20	56369.46
509.38	55458.99
509.55	54663.21
509.73	54944.08
509.90	55351.33
510.08	55683.69
510.25	55489.42
510.42	55171.11
510.60	55381.76
510.77	55604.11
510.95	56299.25
511.12	56264.14
511.30	56554.36
511.47	56952.26
511.64	56772.03
511.82	56568.41
511.99	55693.05
512.17	55360.69
512.34	54480.65
512.51	54759.17
512.69	55103.23
512.86	55288.13
513.04	55969.23
513.21	55646.24
513.38	55112.59
513.56	54574.27
513.73	54082.76
513.90	54307.45
514.08	54513.42
514.25	54733.43
514.43	55105.57
514.60	55166.43
514.77	55377.08
514.95	55419.20
515.12	55098.55
515.29	55379.42
515.47	56135.41
515.64	56156.47
515.81	56168.18
515.99	55166.43
516.16	53350.17
516.33	50901.97
516.51	49595.95
516.68	48493.56
516.85	48142.48
517.03	48605.91
517.20	51929.47
517.37	54794.28
517.54	55344.31
517.72	54728.75
517.89	52044.15
518.06	49780.85
518.24	50356.63
518.41	52432.68
518.58	54096.80
518.75	54120.21
518.93	54452.56
519.10	54569.59
519.27	54745.13
519.45	55077.49
519.62	55625.17
519.79	56128.39
519.96	55763.26
520.14	55494.10
520.31	54546.18
520.48	54482.99
520.65	55014.29
520.83	55924.76
521.00	56296.91
521.17	55707.09
521.34	55622.83
521.52	55854.54
521.69	56460.74
521.86	56889.06
522.03	56500.53
522.20	55084.51
522.38	54206.81
522.55	54494.69
522.72	55021.31
522.89	54834.07
523.07	55070.46
523.24	55730.50
523.41	56395.21
523.58	56718.20
523.75	57036.51
523.92	57001.41
524.10	57181.63
524.27	57059.92
524.44	56832.89
524.61	56671.39
524.78	56294.56
524.96	56161.15
525.13	56247.75
525.30	56547.34
525.47	57020.13
525.64	56903.10
525.81	56151.79
525.98	54726.41
526.16	53279.96
526.33	52449.06
526.50	52088.62
526.67	51980.96
526.84	52673.76
527.01	53418.05
527.18	54248.94
527.36	55299.84
527.53	56163.50
527.70	56395.21
527.87	55859.23
528.04	55341.97
528.21	55997.32
528.38	56849.27
528.55	57296.31
528.72	57513.98
528.89	57595.90
529.07	57394.62
529.24	56755.65
529.41	55962.21
529.58	55341.97
529.75	55732.84
529.92	56013.70
530.09	56580.11
530.26	57059.92
530.43	57200.35
530.60	57235.46
530.77	57448.45
530.94	57588.88
531.11	57088.01
531.28	56816.50
531.46	56615.22
531.63	56750.97
531.80	56617.56
531.97	56165.84
532.14	55318.56
532.31	53942.33
532.48	53485.92
532.65	54047.65
532.82	54602.36
532.99	55969.23
533.16	56266.48
533.33	56779.06
533.50	56577.77
533.67	55971.57
533.84	55557.30
534.01	55683.69
534.18	55842.84
534.35	56140.09
534.52	55894.33
534.69	56184.56
534.86	56493.51
535.03	56680.75
535.20	57413.34
535.37	57504.62
535.54	57635.69
535.71	57104.39
535.88	56706.50
536.05	56294.56
536.22	55814.76
536.38	55622.83
536.55	55009.61
536.72	54564.91
536.89	54482.99
537.06	55395.80
537.23	56229.03
537.40	56640.96
537.57	56554.36
537.74	56275.84
537.91	56163.50
538.08	56058.17
538.25	56275.84
538.42	56512.23
538.59	56046.47
538.75	55473.04
538.92	55189.83
539.09	55171.11
539.26	55157.06
539.43	54962.80
539.60	55192.17
539.77	55164.09
539.94	54838.75
540.11	54162.34
540.28	53616.99
540.44	53675.51
540.61	54005.52
540.78	54302.77
540.95	54862.16
541.12	55227.28
541.29	55311.54
541.46	55805.39
541.62	55709.43
541.79	55454.31
541.96	54749.81
542.13	54941.74
542.30	55210.90
542.47	55524.53
542.63	55182.81
542.80	54864.50
542.97	55091.53
543.14	55178.13
543.31	54972.16
543.48	55554.96
543.64	56343.72
543.81	56456.06
543.98	56313.29
544.15	55592.40
544.32	55086.85
544.48	55473.04
544.65	55945.83
544.82	56154.13
544.99	55585.38
545.16	55529.21
545.32	54988.55
545.49	55924.76
545.66	56418.61
545.83	56037.11
546.00	55583.04
546.16	55313.88
546.33	55318.56
546.50	55175.79
546.67	55831.14
546.83	54953.44
547.00	55210.90
547.17	54316.81
547.34	54071.06
547.50	54281.70
547.67	54330.86
547.84	54548.53
548.00	55126.64
548.17	55498.78
548.34	55332.60
548.51	55173.45
548.67	55229.62
548.84	55538.57
549.01	55529.21
549.18	55117.28
549.34	55208.56
549.51	55131.32
549.68	54801.30
549.84	54841.09
550.01	54541.50
550.18	54574.27
550.34	54824.71
550.51	54614.06
550.68	54911.31
550.84	54450.22
551.01	54288.73
551.18	54801.30
551.34	54780.24
551.51	55182.81
551.68	55274.09
551.84	55257.71
552.01	55037.70
552.18	54901.95
552.34	54199.79
552.51	54019.56
552.68	53654.44
552.84	54113.19
553.01	54372.99
553.18	54358.94
553.34	54550.87
553.51	54571.93
553.67	54911.31
553.84	54990.89
554.01	54827.05
554.17	54754.49
554.34	54967.48
554.51	55007.27
554.67	55363.03
554.84	55159.41
555.00	54593.00
555.17	54424.48
555.33	54457.24
555.50	54300.43
555.67	54562.57
555.83	54185.74
556.00	53724.66
556.16	54047.65
556.33	53593.59
556.50	53539.75
556.66	53450.81
556.83	53006.11
556.99	53073.99
557.16	53399.32
557.32	53848.71
557.49	54092.12
557.65	53640.40
557.82	53834.66
557.98	53727.00
558.15	52935.90
558.32	52278.21
558.48	51161.77
558.65	51810.10
558.81	51737.54
558.98	52353.10
559.14	52460.77
559.31	52509.92
559.47	52528.64
559.64	52357.78
559.80	52093.30
559.97	52065.22
560.13	53017.82
560.30	53511.67
560.46	54028.93
560.63	54398.73
560.79	54124.89
560.96	53785.51
561.12	52605.88
561.29	51604.13
561.45	51615.83
561.61	52640.99
561.78	53076.33
561.94	52750.99
562.11	52317.99
562.27	52535.66
562.44	52758.02
562.60	53308.04
562.77	53441.45
562.93	53291.66
563.10	53333.79
563.26	52617.58
563.42	52528.64
563.59	51969.26
563.75	52266.50
563.92	52322.68
564.08	52222.03
564.24	53034.20
564.41	52786.10
564.57	52711.20
564.74	52320.34
564.90	52348.42
565.07	51955.21
565.23	51779.67
565.39	50911.33
565.56	50831.75
565.72	50890.27
565.88	51058.79
566.05	51063.47
566.21	51400.50
566.38	51650.94
566.54	51620.52
566.70	52278.21
566.87	52222.03
567.03	52303.95
567.19	52570.77
567.36	52051.17
567.52	51995.00
567.68	51985.64
567.85	50944.10
568.01	50564.93
568.17	50120.23
568.34	49928.31
568.50	50394.07
568.66	50520.46
568.83	50630.47
568.99	50586.00
569.15	50946.44
569.32	51065.81
569.48	50618.77
569.64	50440.89
569.81	50143.64
569.97	49874.48
570.13	49851.07
570.30	49326.79
570.46	48786.13
570.62	48229.08
570.78	48376.53
570.95	48481.86
571.11	49432.11
571.27	49654.47
571.43	50136.62
571.60	50529.83
571.76	50663.24
571.92	50937.08
572.09	51264.75
572.25	51187.52
572.41	51152.41
572.57	50536.85
572.74	50649.19
572.90	50127.25
573.06	50382.37
573.22	50096.83
573.38	50089.80
573.55	50286.41
573.71	50698.34
573.87	50220.87
574.03	50050.02
574.20	50314.50
574.36	49455.52
574.52	49654.47
574.68	49490.63
574.84	48563.78
575.01	48161.20
575.17	48385.89
575.33	48676.12
575.49	48877.41
575.65	49092.74
575.82	48839.96
575.98	48633.99
576.14	48793.15
576.30	49429.77
576.46	48910.17
576.62	49242.53
576.79	49198.06
576.95	48542.71
577.11	48699.53
577.27	49111.46
577.43	48568.46
577.59	48507.60
577.75	47655.65
577.92	47398.19
578.08	47267.12
578.24	46960.51
578.40	47529.26
578.56	47538.62
578.72	47662.67
578.88	48254.82
579.04	48198.65
579.21	48240.78
579.37	48531.01
579.53	48694.85
579.69	48538.03
579.85	48774.42
580.01	48437.39
580.17	48013.75
580.33	48072.26
580.49	48179.93
580.65	48374.19
580.82	48722.93
580.98	48390.58
581.14	48299.30
581.30	48542.71
581.46	48355.47
581.62	48680.80
581.78	48612.93
581.94	48736.98
582.10	48493.56
582.26	49158.27
582.42	48706.55
582.58	48678.46
582.74	48594.20
582.90	48795.49
583.06	48713.57
583.22	48322.70
583.38	48191.63
583.54	48280.57
583.70	48292.27
583.86	48062.90
584.02	47817.14
584.18	47775.02
584.34	48100.35
584.50	47753.95
584.66	47798.42
584.82	47323.29
584.98	47445.00
585.14	46354.31
585.30	46096.85
