SpectraSuite Data File
++++++++++++++++++++++++++++++++++++
Date: Mon Oct 07 14:55:45 GMT-05:00 2013
User: price-jones
Dark Spectrum Present: No
Reference Spectrum Present: No
Number of Sampled Component Spectra: 1
Spectrometers: USB2+H05261
Integration Time (usec): 1000000 (USB2+H05261)
Spectra Averaged: 1 (USB2+H05261)
Boxcar Smoothing: 0 (USB2+H05261)
Correct for Electrical Dark: No (USB2+H05261)
Strobe/Lamp Enabled: No (USB2+H05261)
Correct for Detector Non-linearity: No (USB2+H05261)
Correct for Stray Light: No (USB2+H05261)
Number of Pixels in Processed Spectrum: 2048
>>>>>Begin Processed Spectral Data<<<<<
365.73	0.00
365.92	0.00
366.12	0.00
366.32	0.00
366.52	0.00
366.72	124.05
366.91	0.00
367.11	173.20
367.31	53.83
367.51	128.73
367.70	173.20
367.90	510.24
368.10	184.90
368.30	198.95
368.49	0.00
368.69	355.76
368.89	210.65
369.09	0.00
369.28	203.63
369.48	0.00
369.68	79.58
369.87	184.90
370.07	53.83
370.27	489.17
370.47	1207.72
370.66	3489.74
370.86	4313.61
371.06	4746.61
371.25	5053.22
371.45	3782.31
371.65	3826.78
371.84	3459.31
372.04	3550.59
372.24	4016.36
372.44	4042.11
372.63	4126.36
372.83	4093.60
373.03	3248.66
373.22	2986.52
373.42	3304.84
373.62	3801.03
373.81	4044.45
374.01	4154.45
374.21	3899.33
374.40	3227.60
374.60	3906.35
374.79	3929.76
374.99	4554.68
375.19	4861.29
375.38	4861.29
375.58	4428.29
375.78	4692.77
375.97	4643.62
376.17	5177.26
376.37	4613.20
376.56	4901.08
376.76	4884.70
376.95	5125.77
377.15	5853.68
377.35	5921.56
377.54	6190.72
377.74	5905.17
377.93	5867.72
378.13	5886.45
378.33	5767.08
378.52	5221.74
378.72	5359.83
378.91	5174.92
379.11	4739.58
379.31	4599.15
379.50	4507.87
379.70	5238.12
379.89	5678.14
380.09	5521.32
380.28	5858.36
380.48	5813.89
380.68	5750.70
380.87	5331.74
381.07	5132.79
381.26	5224.08
381.46	4699.80
381.65	4526.60
381.85	4383.82
382.04	4306.59
382.24	3995.29
382.43	3660.60
382.63	3400.80
382.83	3658.26
383.02	4053.81
383.22	4224.67
383.41	3550.59
383.61	3997.64
383.80	4858.95
384.00	5097.69
384.19	5441.75
384.39	5884.11
384.58	5750.70
384.78	5823.25
384.97	5708.57
385.17	5203.01
385.36	4882.36
385.56	5109.39
385.75	5006.41
385.95	5455.79
386.14	5956.66
386.34	5760.06
386.53	5671.12
386.72	5167.90
386.92	5614.95
387.11	5750.70
387.31	5933.26
387.50	5521.32
387.70	5427.70
387.89	5540.05
388.09	5451.11
388.28	5266.21
388.48	5462.81
388.67	6204.76
388.86	6487.96
389.06	6946.71
389.25	7377.37
389.45	7272.04
389.64	7351.62
389.84	7459.29
390.03	7236.94
390.22	7255.66
390.42	7400.77
390.61	7550.57
390.81	8105.28
391.00	8379.12
391.19	8360.39
391.39	7866.54
391.58	7522.48
391.78	7096.50
391.97	7007.56
392.16	6155.61
392.36	6071.35
392.55	4983.00
392.75	3826.78
392.94	3215.90
393.13	3676.98
393.33	3913.38
393.52	4973.64
393.71	6253.91
393.91	6483.28
394.10	6843.73
394.29	7286.09
394.49	7939.10
394.68	8542.96
394.88	8842.54
395.07	9069.58
395.26	8905.74
395.46	8409.54
395.65	8212.94
395.84	6977.14
396.04	6616.69
396.23	5109.39
396.42	4301.90
396.62	4458.72
396.81	5001.72
397.00	6221.14
397.19	7679.30
397.39	8779.35
397.58	9783.44
397.77	10122.82
397.97	10583.90
398.16	10647.10
398.35	11201.80
398.55	10853.06
398.74	11489.69
398.93	12053.76
399.12	11494.37
399.32	11492.03
399.51	11515.44
399.70	12414.20
399.90	12343.99
400.09	12063.12
400.28	12367.39
400.47	12212.92
400.67	12964.23
400.86	12858.90
401.05	13287.22
401.24	13336.37
401.44	13481.49
401.63	13591.49
401.82	13507.23
402.01	13195.94
402.21	13483.83
402.40	13540.00
402.59	12805.07
402.78	12266.75
402.97	12046.74
403.17	12938.48
403.36	13500.21
403.55	14113.43
403.74	14115.77
403.93	13305.95
404.13	12959.55
404.32	12781.67
404.51	13453.40
404.70	14363.87
404.89	13652.34
405.09	14029.17
405.28	13095.30
405.47	12723.15
405.66	13032.10
405.85	12903.37
406.05	12290.15
406.24	12573.36
406.43	13165.51
406.62	13551.70
406.81	14008.11
407.00	13245.09
407.20	13055.51
407.39	12769.96
407.58	13549.36
407.77	14171.94
407.96	14628.35
408.15	14586.22
408.34	14633.03
408.54	15264.97
408.73	15218.16
408.92	14537.07
409.11	14848.36
409.30	14169.60
409.49	12973.59
409.68	12283.13
409.87	12049.08
410.07	12776.98
410.26	13811.50
410.45	14513.66
410.64	14815.59
410.83	15126.88
411.02	15735.42
411.21	16325.24
411.40	15751.81
411.59	15852.45
411.78	15496.69
411.98	15702.65
412.17	15836.06
412.36	15492.01
412.55	15712.02
412.74	15150.29
412.93	15412.43
413.12	15143.27
413.31	16781.64
413.50	16439.92
413.69	16751.21
413.88	16636.53
414.07	15709.68
414.26	16056.08
414.45	16367.37
414.64	16650.57
414.83	16805.05
415.02	16460.99
415.22	16355.66
415.41	16858.88
415.60	16975.91
415.79	17511.89
415.98	18691.52
416.17	17820.84
416.36	17205.28
416.55	17153.79
416.74	16634.19
416.93	16830.79
417.12	16145.02
417.31	16369.71
417.50	16720.79
417.69	17783.39
417.88	17198.26
418.07	16620.14
418.26	16432.90
418.45	16973.56
418.64	17825.52
418.83	18026.81
419.02	17759.98
419.21	17334.01
419.39	16594.40
419.58	16035.01
419.77	16009.26
419.96	17163.15
420.15	18258.52
420.34	17982.34
420.53	18801.52
420.72	19318.78
420.91	18862.38
421.10	18515.98
421.29	18403.63
421.48	17984.68
421.67	18946.64
421.86	17980.00
422.05	16760.58
422.24	15197.10
422.43	15410.09
422.61	17036.76
422.80	17970.63
422.99	18052.55
423.18	17551.68
423.37	17579.76
423.56	17392.52
423.75	17687.43
423.94	17427.63
424.13	16685.68
424.32	16645.89
424.50	16816.75
424.69	16751.21
424.88	17174.85
425.07	16566.31
425.26	17132.72
425.45	16652.91
425.64	16084.16
425.83	16430.56
426.01	17336.35
426.20	17455.72
426.39	17020.38
426.58	16093.52
426.77	14679.84
426.96	14927.94
427.15	15456.90
427.33	16058.42
427.52	16819.09
427.71	16718.45
427.90	16730.15
428.09	16074.80
428.28	16203.53
428.46	15239.23
428.65	15417.11
428.84	15651.16
429.03	16397.79
429.22	14897.51
429.40	13893.42
429.59	12840.18
429.78	12004.61
429.97	11873.54
430.16	11651.19
430.34	11503.73
430.53	11871.20
430.72	12329.94
430.91	13816.18
431.10	15885.22
431.28	18410.65
431.47	20046.69
431.66	19594.96
431.85	17312.94
432.03	16152.04
432.22	16491.41
432.41	16842.50
432.60	18733.65
432.79	18740.67
432.97	19550.49
433.16	18684.50
433.35	16809.73
433.54	15515.41
433.72	15173.69
433.91	15363.28
434.10	17158.47
434.28	18295.97
434.47	19098.77
434.66	18836.63
434.85	18075.96
435.03	19049.62
435.22	21905.07
435.41	24393.06
435.59	24790.95
435.78	22726.60
435.97	21465.05
436.16	20879.92
436.34	20018.60
436.53	19908.60
436.72	19660.50
436.90	18937.27
437.09	18904.51
437.28	18532.36
437.46	18871.74
437.65	18775.78
437.84	17806.80
438.02	16140.33
438.21	16791.00
438.40	16966.54
438.58	18387.25
438.77	18759.39
438.96	19054.30
439.14	19833.70
439.33	20608.42
439.52	20353.30
439.70	19922.64
439.89	19988.18
440.08	19173.67
440.26	19257.93
440.45	20208.19
440.63	20982.90
440.82	21745.92
441.01	21177.17
441.19	21076.52
441.38	21617.19
441.57	22345.09
441.75	22944.27
441.94	23012.15
442.12	22476.16
442.31	22937.25
442.50	22808.52
442.68	22862.35
442.87	22335.73
443.05	22029.12
443.24	22462.12
443.43	23173.64
443.61	23520.04
443.80	23407.70
443.98	22281.90
444.17	22218.71
444.35	23578.56
444.54	23843.04
444.73	22843.63
444.91	22530.00
445.10	21200.57
445.28	20638.84
445.47	20486.71
445.65	20877.58
445.84	21022.69
446.02	22064.23
446.21	22150.83
446.39	22150.83
446.58	22181.26
446.77	22389.56
446.95	22974.70
447.14	23468.55
447.32	24095.82
447.51	23410.04
447.69	22354.46
447.88	22541.70
448.06	23278.97
448.25	23152.58
448.43	23374.93
448.62	22335.73
448.80	22806.18
448.99	22913.84
449.17	22771.07
449.36	22782.77
449.54	23875.80
449.73	23751.76
449.91	24711.38
450.10	24622.44
450.28	25748.23
450.46	25717.81
450.65	25345.66
450.83	24737.12
451.02	24093.47
451.20	24180.07
451.39	24404.77
451.57	23747.08
451.76	23807.93
451.94	23646.43
452.13	23374.93
452.31	22670.43
452.49	21504.84
452.68	21544.63
452.86	22202.32
453.05	22647.02
453.23	22457.44
453.42	23087.04
453.60	23391.31
453.78	23885.17
453.97	23274.29
454.15	23288.33
454.34	22417.65
454.52	22565.10
454.70	22930.23
454.89	23213.43
455.07	22656.39
455.26	23356.21
455.44	24247.95
455.62	24760.53
455.81	24610.73
455.99	24400.08
456.17	24173.05
456.36	24418.81
456.54	24566.26
456.73	24699.67
456.91	25202.89
457.09	25460.35
457.28	25986.97
457.46	24830.74
457.64	24659.88
457.83	24023.26
458.01	23309.40
458.19	23756.44
458.38	23651.11
458.56	24973.52
458.74	24212.84
458.93	24173.05
459.11	24210.50
459.29	23931.98
459.48	24175.39
459.66	24374.34
459.84	24489.03
460.03	25970.58
460.21	24741.80
460.39	25179.48
460.57	25188.85
460.76	25074.16
460.94	25158.42
461.12	25443.96
461.31	25488.43
461.49	24982.88
461.67	24966.49
461.85	25666.31
462.04	25369.07
462.22	32524.08
462.40	25392.47
462.59	26270.17
462.77	25331.62
462.95	25685.04
463.13	24971.18
463.32	24980.54
463.50	24971.18
463.68	24912.66
463.86	24957.13
464.05	24278.38
464.23	24077.09
464.41	24077.09
464.59	23520.04
464.78	24561.58
464.96	24339.23
465.14	24514.77
465.32	24622.44
465.50	25556.31
465.69	25539.93
465.87	24891.60
466.05	24126.24
466.23	23250.88
466.41	22869.37
466.60	23281.31
466.78	23393.65
466.96	24259.65
467.14	24332.21
467.32	24973.52
467.51	24519.45
467.69	23545.79
467.87	24397.74
468.05	24184.76
468.23	24746.48
468.41	24453.92
468.60	24156.67
468.78	24819.04
468.96	24655.20
469.14	25076.50
469.32	24238.59
469.50	23527.06
469.69	24070.07
469.87	23311.74
470.05	23243.86
470.23	23597.28
470.41	23260.24
470.59	24156.67
470.77	23789.20
470.95	24180.07
471.14	25247.36
471.32	24629.46
471.50	26424.65
471.68	25715.47
471.86	26199.96
472.04	26019.74
472.22	26483.16
472.40	24713.72
472.58	24233.91
472.77	24458.60
472.95	24978.20
473.13	26396.56
473.31	25390.13
473.49	24889.26
473.67	25486.09
473.85	25830.15
474.03	26698.49
474.21	26281.88
474.39	27051.91
474.57	27154.90
474.75	26787.43
474.93	26298.26
475.12	25326.94
475.30	25862.92
475.48	25806.75
475.66	26265.49
475.84	26008.03
476.02	25783.34
476.20	25785.68
476.38	26265.49
476.56	27402.99
476.74	26841.26
476.92	27030.85
477.10	27576.19
477.28	28383.68
477.46	28245.58
477.64	28566.24
477.82	28460.91
478.00	28652.84
478.18	28037.28
478.36	27960.04
478.54	28034.94
478.72	28479.64
478.90	28804.97
479.08	30398.88
479.26	29806.72
479.44	29865.24
479.62	29631.18
479.80	29699.06
479.98	29783.32
480.16	30312.28
480.34	30015.03
480.52	30125.04
480.70	30712.51
480.88	29930.77
481.06	31365.52
481.24	31077.63
481.41	31688.51
481.59	32465.57
481.77	31627.66
481.95	31519.99
482.13	31728.30
482.31	31728.30
482.49	31676.81
482.67	32044.27
482.85	32348.54
483.03	32730.05
483.21	32945.38
483.39	33078.79
483.57	31952.99
483.74	32416.42
483.92	32477.27
484.10	31978.74
484.28	33818.40
484.46	34450.35
484.64	33989.26
484.82	32528.77
485.00	32407.06
485.18	31791.50
485.35	31185.30
485.53	28032.60
485.71	26593.17
485.89	25951.86
486.07	28058.34
486.25	30632.93
486.43	31861.71
486.61	32013.85
486.78	32114.49
486.96	31501.27
487.14	33390.08
487.32	34227.99
487.50	34581.42
487.68	36041.91
487.85	35859.35
488.03	36444.48
488.21	36341.50
488.39	35065.91
488.57	33977.56
488.75	34239.70
488.92	38590.75
489.10	37483.68
489.28	39374.83
489.46	39063.54
489.64	39168.87
489.81	39199.29
489.99	39124.40
490.17	39229.72
490.35	39945.92
490.53	38436.28
490.70	37727.10
490.88	38623.52
491.06	39562.08
491.24	39599.52
491.41	38274.78
491.59	36271.28
491.77	35693.17
491.95	36400.01
492.13	37834.76
492.30	39533.99
492.48	40350.84
492.66	41209.81
492.84	40306.37
493.01	40315.73
493.19	39583.14
493.37	39594.84
493.54	39206.31
493.72	40247.85
493.90	40535.74
494.08	42197.52
494.25	42679.67
494.43	42438.59
494.61	43012.02
494.79	42834.14
494.96	42700.73
495.14	42010.28
495.32	40208.06
495.49	39966.99
495.67	41673.24
495.85	43047.13
496.02	43173.52
496.20	43562.05
496.38	42632.86
496.55	42616.47
496.73	43306.93
496.91	43185.22
497.09	44362.51
497.26	43901.43
497.44	43054.15
497.62	43145.44
497.79	41380.67
497.97	40294.66
498.14	41008.53
498.32	41900.27
498.50	42885.64
498.67	43873.34
498.85	43152.46
499.03	43910.79
499.20	44353.15
499.38	43791.42
499.56	43751.63
499.73	43274.16
499.91	43007.34
500.08	41984.53
500.26	41235.56
500.44	41553.87
500.61	42667.97
500.79	41598.34
500.97	41785.58
501.14	41598.34
501.32	40844.69
501.49	41265.99
501.67	41521.10
501.84	42518.17
502.02	42672.65
502.20	43274.16
502.37	43302.25
502.55	43037.77
502.72	43653.33
502.90	44266.55
503.07	43882.70
503.25	43482.47
503.43	41823.03
503.60	40928.95
503.78	40350.84
503.95	41310.46
504.13	43255.44
504.30	44418.69
504.48	43531.62
504.65	43454.39
504.83	43428.64
505.01	44158.89
505.18	44245.49
505.36	45647.47
505.53	45394.69
505.71	45296.39
505.88	46490.06
506.06	45050.63
506.23	44477.20
506.41	43931.86
506.58	44360.17
506.76	43952.92
506.93	44062.93
507.11	44095.69
507.28	43730.57
507.46	42939.47
507.63	42349.65
507.81	42122.62
507.98	42614.13
508.16	43323.32
508.33	44271.23
508.50	44605.93
508.68	45123.19
508.85	45661.51
509.03	45837.05
509.20	45507.04
509.38	44783.81
509.55	43702.48
509.73	44041.86
509.90	44411.67
510.08	44615.29
510.25	44863.39
510.42	44280.60
510.60	44009.09
510.77	44715.93
510.95	45918.97
511.12	45509.38
511.30	45860.46
511.47	46078.13
511.64	46525.17
511.82	45542.14
511.99	44446.77
512.17	43777.38
512.34	42979.26
512.51	43871.00
512.69	43744.61
512.86	44252.51
513.04	44369.54
513.21	44105.06
513.38	43622.90
513.56	43040.11
513.73	42263.05
513.90	42728.82
514.08	42787.33
514.25	43281.19
514.43	43803.13
514.60	43669.72
514.77	43821.85
514.95	44165.91
515.12	43594.82
515.29	44603.59
515.47	44732.32
515.64	45155.96
515.81	45078.72
515.99	43983.35
516.16	41813.67
516.33	38813.10
516.51	37163.03
516.68	36074.68
516.85	35571.46
517.03	36769.82
517.20	39880.39
517.37	42546.26
517.54	43812.49
517.72	42679.67
517.89	39037.80
518.06	36620.02
518.24	38487.77
518.41	41193.43
518.58	42267.73
518.75	42071.13
518.93	42691.37
519.10	42291.14
519.27	42642.22
519.45	43257.78
519.62	44023.14
519.79	44996.80
519.96	44687.85
520.14	43494.18
520.31	42316.89
520.48	42426.89
520.65	43100.97
520.83	44406.98
521.00	45317.45
521.17	44839.98
521.34	43910.79
521.52	44491.24
521.69	45031.91
521.86	45851.09
522.03	45544.48
522.20	43768.02
522.38	41883.89
522.55	42506.47
522.72	42742.86
522.89	42836.48
523.07	43711.84
523.24	44292.30
523.41	45343.20
523.58	45511.72
523.75	46417.50
523.92	45553.85
524.10	46263.03
524.27	45734.07
524.44	45155.96
524.61	45504.70
524.78	44839.98
524.96	45085.74
525.13	44924.24
525.30	45549.17
525.47	46227.92
525.64	45729.39
525.81	44376.56
525.98	42014.96
526.16	40172.96
526.33	39889.75
526.50	38717.14
526.67	38646.93
526.84	39627.61
527.01	40748.73
527.18	42045.38
527.36	43386.51
527.53	44533.37
527.70	45258.94
527.87	43711.84
528.04	43573.75
528.21	44362.51
528.38	45387.67
528.55	46398.78
528.72	46843.48
528.89	46829.44
529.07	45776.20
529.24	44746.36
529.41	44545.08
529.58	43271.82
529.75	43318.64
529.92	44451.45
530.09	44624.65
530.26	45790.24
530.43	46213.88
530.60	46115.58
530.77	46571.98
530.94	46410.48
531.11	45717.68
531.28	45462.57
531.46	45074.04
531.63	45270.64
531.80	45052.97
531.97	44425.71
532.14	43253.10
532.31	41832.39
532.48	41148.96
532.65	41752.82
532.82	42333.27
532.99	43835.89
533.16	44584.86
533.33	45193.40
533.50	45123.19
533.67	43395.87
533.84	43423.96
534.01	43477.79
534.18	44058.24
534.35	44130.80
534.52	44020.80
534.69	44865.73
534.86	44807.22
535.03	44912.54
535.20	45755.13
535.37	46983.91
535.54	46590.70
535.71	45813.65
535.88	45635.77
536.05	44893.82
536.22	44182.29
536.38	43676.74
536.55	43161.82
536.72	42635.20
536.89	42340.29
537.06	43681.42
537.23	44531.03
537.40	44547.42
537.57	44968.71
537.74	45074.04
537.91	44896.16
538.08	44769.77
538.25	45195.74
538.42	45263.62
538.59	44844.66
538.75	43597.16
538.92	43695.46
539.09	43913.13
539.26	43477.79
539.43	43695.46
539.60	44032.50
539.77	44505.29
539.94	44240.81
540.11	43236.72
540.28	43501.20
540.44	43730.57
540.61	43828.87
540.78	44376.56
540.95	45610.02
541.12	47133.71
541.29	47613.52
541.46	48451.43
541.62	48399.94
541.79	48051.20
541.96	47285.84
542.13	47147.75
542.30	47716.50
542.47	47351.38
542.63	46646.88
542.80	46930.08
542.97	46689.01
543.14	46532.19
543.31	46391.76
543.48	47236.69
543.64	48451.43
543.81	48912.52
543.98	47824.17
544.15	47454.36
544.32	46380.06
544.48	46731.14
544.65	47145.41
544.82	47576.07
544.99	46782.63
545.16	46801.35
545.32	46719.43
545.49	51374.76
545.66	54017.22
545.83	54433.84
546.00	52538.01
546.16	48956.99
546.33	47430.96
546.50	46124.94
546.67	46586.02
546.83	45195.74
547.00	45570.23
547.17	43704.82
547.34	43372.47
547.50	43697.80
547.67	44016.11
547.84	43887.39
548.00	44615.29
548.17	44725.30
548.34	44545.08
548.51	44680.83
548.67	44949.99
548.84	44790.83
549.01	44507.63
549.18	44144.84
549.34	44638.70
549.51	44294.64
549.68	44184.63
549.84	43328.00
550.01	42777.97
550.18	44404.64
550.34	44069.95
550.51	42752.23
550.68	43447.36
550.84	42389.44
551.01	42101.56
551.18	42246.67
551.34	42703.07
551.51	43075.22
551.68	43276.51
551.84	43913.13
552.01	42178.79
552.18	42756.91
552.34	41392.37
552.51	41237.90
552.68	41102.15
552.84	41275.35
553.01	41837.08
553.18	41706.01
553.34	41495.36
553.51	41902.61
553.67	42419.87
553.84	42602.43
554.01	42115.60
554.17	42139.00
554.34	41567.91
554.51	41853.46
554.67	42337.95
554.84	41930.70
555.00	41551.53
555.17	41247.26
555.33	41668.56
555.50	40776.81
555.67	41174.70
555.83	40835.33
556.00	40451.48
556.16	42506.47
556.33	39864.00
556.50	39594.84
556.66	39814.85
556.83	39042.48
556.99	39449.73
557.16	39728.25
557.32	39812.51
557.49	39988.05
557.65	39995.07
557.82	39723.57
557.98	39775.06
558.15	39196.95
558.32	38279.46
558.48	36772.16
558.65	37787.95
558.81	37982.21
558.98	38403.51
559.14	38471.39
559.31	38440.96
559.47	38412.87
559.64	37539.85
559.80	37745.82
559.97	37706.03
560.13	38637.56
560.30	39051.84
560.46	39768.04
560.63	40055.93
560.79	40275.94
560.96	39262.49
561.12	37528.15
561.29	36718.32
561.45	36987.49
561.61	37766.88
561.78	39409.94
561.94	38632.88
562.11	38457.34
562.27	38279.46
562.44	38452.66
562.60	38920.77
562.77	38986.30
562.93	39100.99
563.10	38803.74
563.26	37780.93
563.42	38522.88
563.59	37237.92
563.75	37205.16
563.92	38251.38
564.08	37720.07
564.24	38309.89
564.41	38508.83
564.57	37940.08
564.74	37596.03
564.90	37378.36
565.07	37708.37
565.23	37104.51
565.39	36322.77
565.56	35735.30
565.72	35491.88
565.88	36458.52
566.05	36360.22
566.21	36306.39
566.38	36655.13
566.54	36652.79
566.70	37340.91
566.87	37284.73
567.03	37273.03
567.19	37563.26
567.36	37717.73
567.52	37060.04
567.68	36591.94
567.85	35971.69
568.01	35866.37
568.17	34930.16
568.34	35211.02
568.50	35615.93
568.66	35002.71
568.83	36601.30
568.99	35569.12
569.15	36112.13
569.32	35985.74
569.48	35257.83
569.64	34993.35
569.81	35037.82
569.97	34651.63
570.13	35180.59
570.30	34141.39
570.46	33912.02
570.62	32910.27
570.78	33228.59
570.95	33408.81
571.11	34904.41
571.27	34658.65
571.43	34518.22
571.60	35356.13
571.76	34962.92
571.92	35349.11
572.09	35449.75
572.25	35587.85
572.41	35555.08
572.57	34782.70
572.74	36048.93
572.90	35353.79
573.06	34653.97
573.22	35101.01
573.38	35325.71
573.55	35084.63
573.71	35178.25
573.87	34834.19
574.03	34457.37
574.20	35077.61
574.36	34885.68
574.52	34375.45
574.68	34050.11
574.84	34064.16
575.01	32879.85
575.17	33209.86
575.33	33530.51
575.49	34440.98
575.65	34134.37
575.82	34071.18
575.98	34483.11
576.14	33649.88
576.30	34796.74
576.46	36058.29
576.62	36865.78
576.79	36407.03
576.95	35250.81
577.11	34235.02
577.27	34045.43
577.43	33731.80
577.59	33610.09
577.75	33036.66
577.92	32194.07
578.08	32315.78
578.24	32065.34
578.40	33460.30
578.56	34773.34
578.72	35463.80
578.88	35496.56
579.04	34614.18
579.21	33890.96
579.37	33170.07
579.53	33762.23
579.69	34352.04
579.85	34054.79
580.01	34422.26
580.17	33647.54
580.33	33006.23
580.49	33158.37
580.65	33717.76
580.82	33991.60
580.98	33130.28
581.14	32992.19
581.30	33518.81
581.46	33556.26
581.62	34153.10
581.78	33394.76
581.94	34190.55
582.10	33809.04
582.26	33996.28
582.42	33764.57
582.58	34213.95
582.74	33729.46
582.90	33923.72
583.06	34075.86
583.22	33544.56
583.38	33993.94
583.54	33897.98
583.70	34508.86
583.86	34330.98
584.02	33912.02
584.18	34609.50
584.34	33853.51
584.50	33432.21
584.66	33163.05
584.82	32613.02
584.98	33120.92
