SpectraSuite Data File
++++++++++++++++++++++++++++++++++++
Date: Mon Oct 07 14:54:56 GMT-05:00 2013
User: price-jones
Dark Spectrum Present: No
Reference Spectrum Present: No
Number of Sampled Component Spectra: 1
Spectrometers: USB2+H05261
Integration Time (usec): 10000 (USB2+H05261)
Spectra Averaged: 1 (USB2+H05261)
Boxcar Smoothing: 0 (USB2+H05261)
Correct for Electrical Dark: No (USB2+H05261)
Strobe/Lamp Enabled: No (USB2+H05261)
Correct for Detector Non-linearity: No (USB2+H05261)
Correct for Stray Light: No (USB2+H05261)
Number of Pixels in Processed Spectrum: 2048
>>>>>Begin Processed Spectral Data<<<<<
365.73	0.00
365.92	0.00
366.12	0.00
366.32	0.00
366.52	0.00
366.72	0.00
366.91	0.00
367.11	0.00
367.31	0.00
367.51	0.00
367.70	0.00
367.90	0.00
368.10	0.00
368.30	0.00
368.49	0.00
368.69	0.00
368.89	0.00
369.09	0.00
369.28	0.00
369.48	0.00
369.68	0.00
369.87	0.00
370.07	0.00
370.27	0.00
370.47	245.76
370.66	1977.75
370.86	2370.96
371.06	2516.08
371.25	2401.39
371.45	2239.89
371.65	2036.27
371.84	1914.56
372.04	2029.24
372.24	2307.77
372.44	2420.11
372.63	2256.28
372.83	2104.14
373.03	1856.04
373.22	1729.66
373.42	1879.45
373.62	2204.78
373.81	2380.32
374.01	2200.10
374.21	2019.88
374.40	1870.09
374.60	2092.44
374.79	2345.22
374.99	2827.37
375.19	2850.77
375.38	2937.37
375.58	2787.58
375.78	2682.25
375.97	2768.85
376.17	2813.32
376.37	2799.28
376.56	2958.44
376.76	3173.77
376.95	3307.18
377.15	3501.44
377.35	3559.95
377.54	3911.04
377.74	3901.67
377.93	3803.37
378.13	3686.34
378.33	3508.46
378.52	3276.75
378.72	3080.14
378.91	3157.38
379.11	2981.84
379.31	2944.39
379.50	3084.83
379.70	3213.56
379.89	3566.98
380.09	3691.02
380.28	3864.22
380.48	3990.61
380.68	3648.90
380.87	3651.24
381.07	3337.60
381.26	3038.02
381.46	2930.35
381.65	2820.35
381.85	2696.30
382.04	2520.76
382.24	2415.43
382.43	2244.57
382.63	2211.81
382.83	2162.66
383.02	2202.44
383.22	2211.81
383.41	2293.72
383.61	2483.31
383.80	2981.84
384.00	3391.44
384.19	3737.84
384.39	3714.43
384.58	3655.92
384.78	3536.55
384.97	3669.96
385.17	3393.78
385.36	3239.30
385.56	3075.46
385.75	3445.27
385.95	3555.27
386.14	3899.33
386.34	3901.67
386.53	3655.92
386.72	3412.50
386.92	3534.21
387.11	3751.88
387.31	3899.33
387.50	3779.97
387.70	3728.47
387.89	3618.47
388.09	3700.39
388.28	3602.08
388.48	3808.05
388.67	4051.47
388.86	4762.99
389.06	4826.18
389.25	5008.75
389.45	5046.20
389.64	5104.71
389.84	5020.45
390.03	5008.75
390.22	5001.72
390.42	5081.30
390.61	5572.82
390.81	5738.99
391.00	5886.45
391.19	5788.14
391.39	5455.79
391.58	5467.49
391.78	4945.55
391.97	4833.21
392.16	4374.46
392.36	3957.85
392.55	3091.85
392.75	2361.60
392.94	1919.24
393.13	2174.36
393.33	2846.09
393.52	3384.41
393.71	4227.01
393.91	4414.25
394.10	4994.70
394.29	5535.37
394.49	5977.73
394.68	6396.68
394.88	6106.46
395.07	6502.01
395.26	6361.58
395.46	5961.34
395.65	5465.15
395.84	4781.71
396.04	3936.78
396.23	3274.41
396.42	2754.81
396.62	2953.76
396.81	3709.75
397.00	4762.99
397.19	5928.58
397.39	6703.29
397.58	7204.17
397.77	7590.36
397.97	7903.99
398.16	7833.77
398.35	8311.24
398.55	8652.96
398.74	8746.58
398.93	8903.40
399.12	8723.18
399.32	8348.69
399.51	8786.37
399.70	9357.46
399.90	9067.24
400.09	9092.98
400.28	9144.47
400.47	9163.20
400.67	9902.81
400.86	9788.12
401.05	9856.00
401.24	9760.03
401.44	10073.67
401.63	10127.50
401.82	10342.83
402.01	10047.92
402.21	10005.79
402.40	10312.40
402.59	9734.29
402.78	9238.09
402.97	9221.71
403.17	9982.38
403.36	10408.36
403.55	10602.63
403.74	10548.79
403.93	9661.73
404.13	9198.31
404.32	9413.63
404.51	10120.48
404.70	10375.59
404.89	10328.78
405.09	9919.19
405.28	9823.23
405.47	9949.62
405.66	9827.91
405.85	9591.52
406.05	9338.74
406.24	9699.18
406.43	10181.33
406.62	10368.57
406.81	10434.11
407.00	10050.26
407.20	9760.03
407.39	10061.96
407.58	10644.76
407.77	10623.69
407.96	10855.40
408.15	11492.03
408.34	11534.16
408.54	11730.76
408.73	11850.13
408.92	11618.42
409.11	11222.87
409.30	10583.90
409.49	9919.19
409.68	9523.64
409.87	9500.23
410.07	10382.62
410.26	10778.17
410.45	11398.41
410.64	11789.28
410.83	12060.78
411.02	12486.76
411.21	12681.02
411.40	12074.82
411.59	12236.32
411.78	12528.89
411.98	12336.96
412.17	12479.74
412.36	12159.08
412.55	12411.86
412.74	12020.99
412.93	12037.38
413.12	12395.48
413.31	13240.41
413.50	13116.36
413.69	13121.04
413.88	12662.30
414.07	12788.69
414.26	13092.96
414.45	13331.69
414.64	13186.58
414.83	12931.46
415.02	13078.91
415.22	12835.50
415.41	13474.46
415.60	13867.67
415.79	14281.95
415.98	14684.52
416.17	14380.25
416.36	14068.96
416.55	13902.78
416.74	13621.92
416.93	13043.81
417.12	13500.21
417.31	13392.55
417.50	13453.40
417.69	13823.20
417.88	13837.25
418.07	13603.19
418.26	13521.27
418.45	13570.43
418.64	14469.19
418.83	14532.39
419.02	14340.46
419.21	13722.56
419.39	13455.74
419.58	13142.11
419.77	13205.30
419.96	14125.13
420.15	14267.91
420.34	15257.95
420.53	15669.89
420.72	15789.25
420.91	15513.07
421.10	15433.49
421.29	15042.62
421.48	14853.04
421.67	15358.60
421.86	14668.14
422.05	13348.08
422.24	12210.57
422.43	12744.22
422.61	14319.40
422.80	14806.23
422.99	14476.21
423.18	14139.18
423.37	14204.71
423.56	14319.40
423.75	14436.42
423.94	14850.70
424.13	14136.84
424.32	13706.18
424.50	13827.88
424.69	14185.99
424.88	13998.74
425.07	14115.77
425.26	14066.62
425.45	13687.45
425.64	13731.92
425.83	13872.36
426.01	14415.36
426.20	14544.09
426.39	14033.85
426.58	13090.62
426.77	12402.50
426.96	12252.70
427.15	13090.62
427.33	14029.17
427.52	14125.13
427.71	14195.35
427.90	13963.64
428.09	13586.81
428.28	13631.28
428.46	12952.52
428.65	12957.21
428.84	13287.22
429.03	13207.64
429.22	12343.99
429.40	11709.70
429.59	10726.68
429.78	9579.81
429.97	9678.12
430.16	9521.30
430.34	9561.09
430.53	9781.10
430.72	10492.62
430.91	12145.04
431.10	14061.94
431.28	16248.00
431.47	16734.83
431.66	16613.12
431.85	14448.13
432.03	13888.74
432.22	13713.20
432.41	14747.72
432.60	15836.06
432.79	16271.40
432.97	16617.80
433.16	15831.38
433.35	14473.87
433.54	12940.82
433.72	12615.49
433.91	13392.55
434.10	14883.47
434.28	16016.29
434.47	16730.15
434.66	16042.03
434.85	15597.33
435.03	15609.03
435.22	15946.07
435.41	16404.81
435.59	16545.25
435.78	17245.07
435.97	17586.79
436.16	17429.97
436.34	17034.42
436.53	16727.81
436.72	16943.14
436.90	16119.27
437.09	16465.67
437.28	16145.02
437.46	16727.81
437.65	16205.87
437.84	14899.85
438.02	13958.96
438.21	14232.80
438.40	15147.95
438.58	16276.09
438.77	16194.17
438.96	16559.29
439.14	17483.80
439.33	17818.50
439.52	17872.33
439.70	17022.72
439.89	16664.61
440.08	16629.51
440.26	16748.87
440.45	17731.90
440.63	18869.40
440.82	19566.88
441.01	18836.63
441.19	18778.12
441.38	19206.44
441.57	20095.84
441.75	19875.83
441.94	20070.09
442.12	20011.58
442.31	20819.07
442.50	20570.97
442.68	20058.39
442.87	19709.65
443.05	18979.40
443.24	19899.23
443.43	20460.96
443.61	20479.69
443.80	21163.12
443.98	20290.10
444.17	20006.90
444.35	20819.07
444.54	21479.10
444.73	20966.52
444.91	19798.59
445.10	19342.19
445.28	18899.83
445.47	18567.47
445.65	18108.72
445.84	18700.88
446.02	19522.41
446.21	20130.95
446.39	20388.41
446.58	20875.24
446.77	20783.96
446.95	21067.16
447.14	21385.47
447.32	21617.19
447.51	20772.25
447.69	20276.06
447.88	20346.28
448.06	20460.96
448.25	20814.38
448.43	20779.28
448.62	20648.21
448.80	20451.60
448.99	20748.85
449.17	21195.89
449.36	20676.29
449.54	21965.93
449.73	21965.93
449.91	22618.94
450.10	23084.70
450.28	23309.40
450.46	22993.42
450.65	23215.77
450.83	22628.30
451.02	21823.16
451.20	21991.67
451.39	22178.92
451.57	21886.35
451.76	21928.48
451.94	21907.41
452.13	21163.12
452.31	20032.65
452.49	19845.40
452.68	20166.06
452.86	20191.80
453.05	20322.87
453.23	21263.77
453.42	21907.41
453.60	21668.68
453.78	21832.52
453.97	21631.23
454.15	21680.38
454.34	21022.69
454.52	21186.53
454.70	20592.03
454.89	20931.41
455.07	20648.21
455.26	21523.57
455.44	22476.16
455.62	22747.67
455.81	23215.77
455.99	22520.63
456.17	22338.07
456.36	22506.59
456.54	22822.56
456.73	23129.17
456.91	23742.39
457.09	23541.11
457.28	23599.62
457.46	22974.70
457.64	22785.12
457.83	22520.63
458.01	21916.78
458.19	22560.42
458.38	22731.28
458.56	23351.52
458.74	22864.69
458.93	22567.45
459.11	22384.88
459.29	21532.93
459.48	22178.92
459.66	21687.40
459.84	22347.44
460.03	23218.11
460.21	23332.80
460.39	23637.07
460.57	23625.37
460.76	23665.16
460.94	23871.12
461.12	23318.76
461.31	23211.09
461.49	23550.47
461.67	23145.56
461.85	23957.72
462.04	24283.06
462.22	24013.90
462.40	24180.07
462.59	24023.26
462.77	23721.33
462.95	24519.45
463.13	24444.56
463.32	23543.45
463.50	23089.38
463.68	23098.75
463.86	23679.20
464.05	22787.46
464.23	22490.21
464.41	22155.51
464.59	22040.82
464.78	23264.92
464.96	22939.59
465.14	22752.35
465.32	23564.51
465.50	24313.48
465.69	24404.77
465.87	23868.78
466.05	22714.90
466.23	22106.36
466.41	22211.68
466.60	23129.17
466.78	22464.46
466.96	22665.75
467.14	24060.71
467.32	23360.89
467.51	23452.17
467.69	22382.54
467.87	23208.75
468.05	23651.11
468.23	23353.87
468.41	23503.66
468.60	23314.08
468.78	23527.06
468.96	22761.71
469.14	23550.47
469.32	23880.49
469.50	22466.80
469.69	22284.24
469.87	22473.82
470.05	22431.69
470.23	22317.01
470.41	22569.79
470.59	23131.51
470.77	23028.53
470.95	23442.81
471.14	23491.96
471.32	23765.80
471.50	25401.83
471.68	25472.05
471.86	25972.92
472.04	25617.16
472.22	25404.17
472.40	23847.72
472.58	24140.29
472.77	24189.44
472.95	24479.66
473.13	24596.69
473.31	24348.59
473.49	24364.98
473.67	24999.26
473.85	25425.24
474.03	25626.53
474.21	25764.62
474.39	26099.31
474.57	25905.05
474.75	26001.01
474.93	25806.75
475.12	24828.40
475.30	25270.76
475.48	25333.96
475.66	25401.83
475.84	24807.34
476.02	25509.50
476.20	24999.26
476.38	25521.20
476.56	26644.66
476.74	26162.51
476.92	27096.38
477.10	27402.99
477.28	28142.60
477.46	28226.86
477.64	28243.24
477.82	28772.21
478.00	28259.63
478.18	27297.67
478.36	28287.71
478.54	27292.99
478.72	28135.58
478.90	29834.81
479.08	30967.63
479.26	29998.65
479.44	29668.63
479.62	29525.86
479.80	29443.94
479.98	29109.24
480.16	29778.64
480.34	29507.13
480.52	30171.85
480.70	30387.18
480.88	29790.34
481.06	30462.07
481.24	30700.81
481.41	32037.25
481.59	31735.32
481.77	30979.33
481.95	30572.08
482.13	31044.87
482.31	31281.26
482.49	31608.93
482.67	31681.49
482.85	31978.74
483.03	32381.31
483.21	32517.06
483.39	32526.42
483.57	31995.12
483.74	31674.47
483.92	31866.39
484.10	32816.65
484.28	32608.34
484.46	33120.92
484.64	33031.98
484.82	33130.28
485.00	31393.61
485.18	30895.07
485.35	29668.63
485.53	27065.96
485.71	25001.60
485.89	25921.43
486.07	27150.21
486.25	29905.02
486.43	31548.08
486.61	31119.76
486.78	31009.76
486.96	31697.88
487.14	33787.97
487.32	33766.91
487.50	33869.89
487.68	34871.64
487.85	35711.89
488.03	34930.16
488.21	35688.49
488.39	34120.33
488.57	33469.66
488.75	33542.22
488.92	35196.98
489.10	37329.20
489.28	38305.21
489.46	38651.61
489.64	38515.86
489.81	40020.82
489.99	39459.09
490.17	39524.63
490.35	40076.99
490.53	39433.35
490.70	38576.71
490.88	38787.36
491.06	39859.32
491.24	38534.58
491.41	37146.64
491.59	36261.92
491.77	35952.97
491.95	37729.44
492.13	38873.96
492.30	40392.97
492.48	41432.16
492.66	41308.11
492.84	40016.14
493.01	40259.55
493.19	39629.95
493.37	39959.97
493.54	39679.10
493.72	42019.64
493.90	42555.62
494.08	42445.62
494.25	42199.86
494.43	43016.71
494.61	43145.44
494.79	42815.42
494.96	43047.13
495.14	41961.12
495.32	40453.82
495.49	40652.76
495.67	42728.82
495.85	43407.58
496.02	44360.17
496.20	44037.18
496.38	43412.26
496.55	43150.12
496.73	44547.42
496.91	45333.84
497.09	46043.02
497.26	44121.44
497.44	43924.83
497.62	43150.12
497.79	41612.38
497.97	39824.22
498.14	41500.04
498.32	42693.71
498.50	43533.96
498.67	43271.82
498.85	43924.83
499.03	43445.02
499.20	44626.99
499.38	45284.68
499.56	44240.81
499.73	42733.50
499.91	43456.73
500.08	41970.49
500.26	41434.50
500.44	41933.04
500.61	43005.00
500.79	42202.20
500.97	42656.26
501.14	42333.27
501.32	41883.89
501.49	42181.13
501.67	42387.10
501.84	43346.72
502.02	43440.34
502.20	43784.40
502.37	45226.17
502.55	44875.09
502.72	44952.33
502.90	45394.69
503.07	45242.56
503.25	43906.11
503.43	43070.54
503.60	42443.27
503.78	42878.61
503.95	43498.86
504.13	45925.99
504.30	45090.42
504.48	44821.26
504.65	45724.71
504.83	45228.51
505.01	45310.43
505.18	45741.09
505.36	46218.56
505.53	46920.72
505.71	47859.27
505.88	47428.62
506.06	46068.76
506.23	46256.01
506.41	45139.57
506.58	45525.76
506.76	45724.71
506.93	45638.11
507.11	45542.14
507.28	46389.42
507.46	45467.25
507.63	43536.30
507.81	42979.26
507.98	44282.94
508.16	45310.43
508.33	45944.72
508.50	46354.31
508.68	47725.86
508.85	48318.02
509.03	47966.94
509.20	46548.57
509.38	44650.40
509.55	45619.38
509.73	45483.63
509.90	48076.94
510.08	47288.18
510.25	46483.04
510.42	45933.01
510.60	46146.00
510.77	45787.90
510.95	46658.58
511.12	46209.20
511.30	47292.86
511.47	46756.88
511.64	47145.41
511.82	46562.62
511.99	45031.91
512.17	45242.56
512.34	44626.99
512.51	44797.85
512.69	46700.71
512.86	46562.62
513.04	46443.25
513.21	46487.72
513.38	45226.17
513.56	45469.59
513.73	44744.02
513.90	43627.59
514.08	43283.53
514.25	44051.22
514.43	45668.53
514.60	44432.73
514.77	44788.49
514.95	46309.84
515.12	46117.92
515.29	46761.56
515.47	47232.01
515.64	47323.29
515.81	46270.05
515.99	43707.16
516.16	41556.21
516.33	39199.29
516.51	39531.65
516.68	36435.12
516.85	35887.43
517.03	38431.60
517.20	42092.19
517.37	44339.11
517.54	45256.60
517.72	42913.72
517.89	40285.30
518.06	37914.34
518.24	40463.18
518.41	43784.40
518.58	44238.47
518.75	44275.91
518.93	43828.87
519.10	44540.39
519.27	45045.95
519.45	45134.89
519.62	45787.90
519.79	45031.91
519.96	45387.67
520.14	44549.76
520.31	44102.71
520.48	44631.68
520.65	44144.84
520.83	46997.96
521.00	46616.45
521.17	45329.16
521.34	45375.97
521.52	44814.24
521.69	46930.08
521.86	47311.59
522.03	45808.96
522.20	44091.01
522.38	43203.95
522.55	43854.62
522.72	44273.57
522.89	44779.13
523.07	42777.97
523.24	44481.88
523.41	45492.99
523.58	45895.56
523.75	47154.77
523.92	47014.34
524.10	46614.11
524.27	47786.72
524.44	46911.36
524.61	46986.25
524.78	47606.50
524.96	46705.39
525.13	46120.26
525.30	45492.99
525.47	46366.01
525.64	46492.40
525.81	44264.21
525.98	42990.96
526.16	42143.69
526.33	40631.70
526.50	40711.28
526.67	40500.63
526.84	42110.92
527.01	43604.18
527.18	45305.75
527.36	45694.28
527.53	45734.07
527.70	44968.71
527.87	44954.67
528.04	45581.93
528.21	45528.10
528.38	46504.10
528.55	47732.89
528.72	48076.94
528.89	48107.37
529.07	46433.89
529.24	46670.28
529.41	45984.51
529.58	46391.76
529.75	45052.97
529.92	46256.01
530.09	47552.66
530.26	46438.57
530.43	47515.22
530.60	47416.91
530.77	47533.94
530.94	47643.94
531.11	46094.51
531.28	46096.85
531.46	46583.68
531.63	46920.72
531.80	46927.74
531.97	45530.44
532.14	45280.00
532.31	43292.89
532.48	42176.45
532.65	42094.53
532.82	44355.49
532.99	45198.09
533.16	45778.54
533.33	45521.08
533.50	44383.58
533.67	44648.06
533.84	45085.74
534.01	45537.46
534.18	45207.45
534.35	45198.09
534.52	45027.23
534.69	45207.45
534.86	45654.49
535.03	44825.94
535.20	46473.68
535.37	48053.54
535.54	48669.10
535.71	47510.53
535.88	46941.78
536.05	44685.51
536.22	44987.44
536.38	44198.68
536.55	43707.16
536.72	43896.75
536.89	44060.58
537.06	45296.39
537.23	45638.11
537.40	45518.74
537.57	44818.92
537.74	44727.64
537.91	45338.52
538.08	44549.76
538.25	45574.91
538.42	46380.06
538.59	43906.11
538.75	43430.98
538.92	43882.70
539.09	43887.39
539.26	43592.48
539.43	43449.70
539.60	43335.02
539.77	43791.42
539.94	42586.05
540.11	40868.09
540.28	40418.71
540.44	40666.81
540.61	42143.69
540.78	43957.60
540.95	44236.12
541.12	43793.76
541.29	44877.43
541.46	44486.56
541.62	44947.65
541.79	43384.17
541.96	43379.49
542.13	43988.03
542.30	43969.30
542.47	43667.37
542.63	43927.17
542.80	42478.38
542.97	42300.50
543.14	43199.27
543.31	44168.25
543.48	45165.32
543.64	47042.43
543.81	46483.04
543.98	46667.94
544.15	44729.98
544.32	43592.48
544.48	44079.31
544.65	43885.04
544.82	43878.02
544.99	44095.69
545.16	44685.51
545.32	44041.86
545.49	45844.07
545.66	44683.17
545.83	44524.01
546.00	44622.31
546.16	44278.25
546.33	43316.29
546.50	42941.81
546.67	43555.03
546.83	42349.65
547.00	42983.94
547.17	42649.24
547.34	41897.93
547.50	41794.95
547.67	42518.17
547.84	42560.30
548.00	43810.15
548.17	43840.57
548.34	43227.35
548.51	44488.90
548.67	42726.48
548.84	44622.31
549.01	43679.08
549.18	43461.41
549.34	43409.92
549.51	43328.00
549.68	44289.96
549.84	43386.51
550.01	42717.12
550.18	41640.47
550.34	42747.54
550.51	42181.13
550.68	40980.44
550.84	40903.20
551.01	41596.00
551.18	40069.97
551.34	43119.69
551.51	42422.21
551.68	42057.09
551.84	42394.12
552.01	42288.80
552.18	42349.65
552.34	41160.66
552.51	41256.62
552.68	40762.77
552.84	40952.35
553.01	42918.40
553.18	43236.72
553.34	41350.24
553.51	42391.78
553.67	42548.60
553.84	41645.15
554.01	41715.37
554.17	41390.03
554.34	42328.59
554.51	43054.15
554.67	43501.20
554.84	42773.29
555.00	40931.29
555.17	40821.28
555.33	41221.52
555.50	41677.92
555.67	41392.37
555.83	41394.71
556.00	40704.26
556.16	39180.57
556.33	39695.49
556.50	39648.68
556.66	40683.19
556.83	39494.20
556.99	39161.84
557.16	38981.62
557.32	40935.97
557.49	41188.75
557.65	41258.96
557.82	41832.39
557.98	41305.77
558.15	39510.58
558.32	38363.72
558.48	39463.77
558.65	40222.11
558.81	39325.68
558.98	40690.21
559.14	39988.05
559.31	39288.23
559.47	39639.31
559.64	38927.79
559.80	39583.14
559.97	39040.14
560.13	40327.43
560.30	40598.93
560.46	42246.67
560.63	41502.38
560.79	40720.64
560.96	38885.66
561.12	38447.98
561.29	38026.68
561.45	38518.20
561.61	38455.00
561.78	38742.89
561.94	37570.28
562.11	38267.76
562.27	37963.49
562.44	38761.61
562.60	38806.08
562.77	39929.54
562.93	40407.01
563.10	38696.08
563.26	37837.10
563.42	37212.18
563.59	38426.92
563.75	40004.44
563.92	38368.40
564.08	38113.28
564.24	39447.39
564.41	40357.86
564.57	40720.64
564.74	39550.37
564.90	38265.42
565.07	37993.92
565.23	37361.97
565.39	37031.96
565.56	36865.78
565.72	37371.33
565.88	38735.87
566.05	38401.17
566.21	38345.00
566.38	38778.00
566.54	37633.47
566.70	37890.93
566.87	37287.07
567.03	36952.38
567.19	37720.07
567.36	37579.64
567.52	37429.85
567.68	36678.54
567.85	36704.28
568.01	35901.48
568.17	34752.27
568.34	36744.07
568.50	35718.92
568.66	36301.71
568.83	37741.14
568.99	37261.33
569.15	36226.81
569.32	37844.12
569.48	35828.92
569.64	36421.08
569.81	36245.54
569.97	36423.42
570.13	37116.22
570.30	35887.43
570.46	34780.36
570.62	33919.04
570.78	34092.24
570.95	34658.65
571.11	34869.30
571.27	35388.90
571.43	36009.14
571.60	35311.66
571.76	36044.25
571.92	36301.71
572.09	36835.35
572.25	37268.35
572.41	37631.13
572.57	35948.29
572.74	35351.45
572.90	36046.59
573.06	37975.19
573.22	36781.52
573.38	37057.70
573.55	36327.45
573.71	36875.14
573.87	36390.65
574.03	35491.88
574.20	35241.45
574.36	34677.38
574.52	34660.99
574.68	34897.39
574.84	35416.99
575.01	33961.17
575.17	33928.41
575.33	34099.26
575.49	33579.67
575.65	34220.97
575.82	33551.58
575.98	33839.47
576.14	33773.93
576.30	34270.12
576.46	34763.98
576.62	34433.96
576.79	33640.52
576.95	34951.22
577.11	34670.36
577.27	35695.51
577.43	33450.94
577.59	34003.30
577.75	34225.65
577.92	34588.44
578.08	33780.95
578.24	33722.44
578.40	33743.50
578.56	33198.16
578.72	32194.07
578.88	34132.03
579.04	34899.73
579.21	35859.35
579.37	35365.49
579.53	35508.27
579.69	33993.94
579.85	34122.67
580.01	34169.48
580.17	33228.59
580.33	33488.38
580.49	34171.82
580.65	33502.43
580.82	33970.54
580.98	32992.19
581.14	33144.33
581.30	33708.40
581.46	33736.48
581.62	34410.56
581.78	33605.41
581.94	33427.53
582.10	33755.21
582.26	33752.87
582.42	33605.41
582.58	33895.64
582.74	34473.75
582.90	33483.70
583.06	34429.28
583.22	33862.87
583.38	33813.72
583.54	34686.74
583.70	33621.80
583.86	34291.19
584.02	32622.39
584.18	33347.95
584.34	33324.55
584.50	33909.68
584.66	33425.19
584.82	32542.81
584.98	32184.71
585.14	32055.98
585.30	30642.29
585.46	30181.21
585.62	30649.32
