SpectraSuite Data File
++++++++++++++++++++++++++++++++++++
Date: Mon Oct 07 14:53:10 GMT-05:00 2013
User: price-jones
Dark Spectrum Present: No
Reference Spectrum Present: No
Number of Sampled Component Spectra: 1
Spectrometers: USB2+H05261
Integration Time (usec): 100000 (USB2+H05261)
Spectra Averaged: 1 (USB2+H05261)
Boxcar Smoothing: 0 (USB2+H05261)
Correct for Electrical Dark: No (USB2+H05261)
Strobe/Lamp Enabled: No (USB2+H05261)
Correct for Detector Non-linearity: No (USB2+H05261)
Correct for Stray Light: No (USB2+H05261)
Number of Pixels in Processed Spectrum: 2048
>>>>>Begin Processed Spectral Data<<<<<
365.73	0.00
365.92	0.00
366.12	0.00
366.32	0.00
366.52	0.00
366.72	0.00
366.91	0.00
367.11	0.00
367.31	0.00
367.51	0.00
367.70	0.00
367.90	0.00
368.10	0.00
368.30	0.00
368.49	0.00
368.69	0.00
368.89	0.00
369.09	0.00
369.28	0.00
369.48	0.00
369.68	0.00
369.87	0.00
370.07	0.00
370.27	0.00
370.47	667.05
370.66	3543.57
370.86	4189.56
371.06	4550.00
371.25	4573.41
371.45	4177.86
371.65	3707.41
371.84	3421.86
372.04	3674.64
372.24	4163.81
372.44	4297.22
372.63	4088.92
372.83	3861.88
373.03	3351.65
373.22	3021.63
373.42	3382.07
373.62	3782.31
373.81	4100.62
374.01	4203.60
374.21	3665.28
374.40	3475.70
374.60	3843.16
374.79	4060.83
374.99	4929.17
375.19	5184.29
375.38	5163.22
375.58	4819.16
375.78	4744.27
375.97	4826.18
376.17	4929.17
376.37	4880.02
376.56	5100.03
376.76	5392.59
376.95	5673.46
377.15	6183.70
377.35	6377.96
377.54	6700.95
377.74	6792.23
377.93	6951.39
378.13	6626.06
378.33	6312.42
378.52	5746.02
378.72	5547.07
378.91	5504.94
379.11	5401.96
379.31	5238.12
379.50	5188.97
379.70	5586.86
379.89	6104.12
380.09	6487.96
380.28	6502.01
380.48	6670.53
380.68	6509.03
380.87	6368.60
381.07	5832.62
381.26	5387.91
381.46	5078.96
381.65	4889.38
381.85	4861.29
382.04	4542.98
382.24	4255.09
382.43	4065.51
382.63	3960.19
382.83	3920.40
383.02	4011.68
383.22	4114.66
383.41	4109.98
383.61	4236.37
383.80	4931.51
384.00	5636.01
384.19	6319.45
384.39	6715.00
384.58	6373.28
384.78	6392.00
384.97	6530.09
385.17	6174.33
385.36	5694.52
385.56	5619.63
385.75	5640.69
385.95	6120.50
386.14	6775.85
386.34	6930.33
386.53	6487.96
386.72	6050.28
386.92	6078.37
387.11	6457.54
387.31	6677.55
387.50	6747.76
387.70	6370.94
387.89	6464.56
388.09	6417.75
388.28	6441.15
388.48	6548.82
388.67	7126.93
388.86	7716.75
389.06	8446.99
389.25	8744.24
389.45	8830.84
389.64	8727.86
389.84	8606.15
390.03	8540.61
390.22	8580.40
390.42	8774.67
390.61	9411.29
390.81	9968.34
391.00	10200.05
391.19	10176.65
391.39	9870.04
391.58	9151.49
391.78	8610.83
391.97	8315.92
392.16	7758.88
392.36	6953.73
392.55	5472.17
392.75	4596.81
392.94	3822.09
393.13	3651.24
393.33	4418.93
393.52	5675.80
393.71	6888.20
393.91	7798.66
394.10	8264.43
394.29	8997.02
394.49	9792.80
394.68	10602.63
394.88	10668.16
395.07	10979.45
395.26	10864.77
395.46	10712.63
395.65	9811.53
395.84	8667.00
396.04	7307.15
396.23	5944.96
396.42	5039.17
396.62	4983.00
396.81	5790.49
397.00	7190.13
397.19	9163.20
397.39	11005.20
397.58	12156.74
397.77	12767.62
397.97	13252.11
398.16	13462.76
398.35	13888.74
398.55	14185.99
398.74	14829.63
398.93	14853.04
399.12	14902.19
399.32	14438.76
399.51	14834.32
399.70	15953.09
399.90	15248.59
400.09	15679.25
400.28	15358.60
400.47	15517.75
400.67	16355.66
400.86	16833.13
401.05	16482.05
401.24	16861.22
401.44	17074.21
401.63	17343.37
401.82	16954.84
402.01	16889.31
402.21	17481.46
402.40	17444.01
402.59	17020.38
402.78	15969.48
402.97	15763.51
403.17	16346.30
403.36	17439.33
403.55	17792.75
403.74	18618.96
403.93	17528.27
404.13	16123.95
404.32	15829.04
404.51	16533.54
404.70	17790.41
404.89	17827.86
405.09	17554.02
405.28	17067.19
405.47	17160.81
405.66	16938.46
405.85	16545.25
406.05	16187.14
406.24	16458.65
406.43	16924.41
406.62	17556.36
406.81	17792.75
407.00	17036.76
407.20	16636.53
407.39	16711.42
407.58	17776.37
407.77	18410.65
407.96	19157.28
408.15	18951.32
408.34	19194.73
408.54	20060.73
408.73	20074.77
408.92	19770.51
409.11	19435.81
409.30	17977.65
409.49	17104.64
409.68	16210.55
409.87	15674.57
410.07	16442.26
410.26	17977.65
410.45	19262.61
410.64	19484.96
410.83	20053.71
411.02	20933.75
411.21	21369.09
411.40	21142.06
411.59	21380.79
411.78	21095.25
411.98	20758.21
412.17	21259.09
412.36	20781.62
412.55	20835.45
412.74	20606.08
412.93	19894.55
413.12	20175.42
413.31	21680.38
413.50	22249.13
413.69	22312.33
413.88	21710.81
414.07	21280.15
414.26	21390.16
414.45	22319.35
414.64	22305.31
414.83	22036.14
415.02	21965.93
415.22	21785.71
415.41	22277.22
415.60	22885.76
415.79	24130.92
415.98	24727.76
416.17	24402.43
416.36	23456.85
416.55	23349.18
416.74	22930.23
416.93	22106.36
417.12	22153.17
417.31	22089.98
417.50	22796.82
417.69	23257.90
417.88	23707.29
418.07	22951.29
418.26	23143.22
418.45	22986.40
418.64	24013.90
418.83	24741.80
419.02	24348.59
419.21	24428.17
419.39	23463.87
419.58	21766.98
419.77	22195.30
419.96	23269.61
420.15	24252.63
420.34	24964.15
420.53	26078.25
420.72	25846.54
420.91	26129.74
421.10	25441.62
421.29	25565.67
421.48	24903.30
421.67	25956.54
421.86	25020.33
422.05	23349.18
422.24	21284.83
422.43	20936.09
422.61	23260.24
422.80	25036.71
422.99	25165.44
423.18	24079.43
423.37	24020.92
423.56	24079.43
423.75	24175.39
423.94	24638.82
424.13	23356.21
424.32	23611.32
424.50	23756.44
424.69	23639.41
424.88	23332.80
425.07	23728.35
425.26	23229.82
425.45	23183.01
425.64	22665.75
425.83	22995.76
426.01	24194.12
426.20	24439.87
426.39	24198.80
426.58	22473.82
426.77	21015.67
426.96	20229.25
427.15	20868.22
427.33	23000.44
427.52	23697.92
427.71	23672.18
427.90	23887.51
428.09	23080.02
428.28	22586.17
428.46	22106.36
428.65	21605.49
428.84	21977.63
429.03	22682.13
429.22	21359.73
429.40	20095.84
429.59	18408.31
429.78	16002.24
429.97	16451.63
430.16	16627.17
430.34	16468.01
430.53	16655.25
430.72	17055.48
430.91	18838.97
431.10	22347.44
431.28	25935.48
431.47	28023.23
431.66	28297.08
431.85	25806.75
432.03	23632.39
432.22	22555.74
432.41	23915.59
432.60	26384.86
432.79	27304.69
432.97	27920.25
433.16	27290.65
433.35	24409.45
433.54	22476.16
433.72	21085.89
433.91	21682.72
434.10	24336.89
434.28	26265.49
434.47	27239.15
434.66	26834.24
434.85	26214.00
435.03	26132.08
435.22	27070.64
435.41	28467.94
435.59	28542.83
435.78	28760.50
435.97	29411.17
436.16	29680.33
436.34	29350.32
436.53	28666.88
436.72	28844.76
436.90	26937.23
437.09	27243.84
437.28	26604.87
437.46	27566.83
437.65	27126.81
437.84	25748.23
438.02	23676.86
438.21	23360.89
438.40	24535.84
438.58	27061.27
438.77	27395.97
438.96	27887.48
439.14	28922.00
439.33	29598.41
439.52	30115.67
439.70	29509.47
439.89	28725.39
440.08	27941.32
440.26	27838.33
440.45	28851.78
440.63	31126.78
440.82	32423.44
441.01	32137.90
441.19	31328.07
441.38	32198.75
441.57	33521.15
441.75	33855.85
441.94	34050.11
442.12	33762.23
442.31	34370.77
442.50	34382.47
442.68	33474.34
442.87	33315.19
443.05	32786.22
443.24	33383.06
443.43	34110.97
443.61	34742.91
443.80	34998.03
443.98	33369.02
444.17	32931.34
444.35	34822.49
444.54	35917.86
444.73	35204.00
444.91	33820.74
445.10	32402.38
445.28	31482.55
445.47	30480.80
445.65	31204.02
445.84	31885.12
446.02	33177.09
446.21	32950.06
446.39	33539.88
446.58	33823.08
446.77	34174.16
446.95	34785.04
447.14	35908.50
447.32	36112.13
447.51	35438.05
447.69	34188.21
447.88	33696.69
448.06	34026.71
448.25	34754.61
448.43	35475.50
448.62	34553.33
448.80	35136.12
448.99	35220.38
449.17	35213.36
449.36	35274.21
449.54	36257.24
449.73	36891.52
449.91	37404.10
450.10	38237.33
450.28	38574.37
450.46	38529.90
450.65	38387.13
450.83	37914.34
451.02	37413.46
451.20	37120.90
451.39	37493.04
451.57	36961.74
451.76	37429.85
451.94	36617.68
452.13	35681.47
452.31	34361.40
452.49	32568.55
452.68	33439.23
452.86	33380.72
453.05	33549.24
453.23	35182.93
453.42	35889.77
453.60	36231.49
453.78	37258.99
453.97	36369.58
454.15	36533.42
454.34	35484.86
454.52	35985.74
454.70	35215.70
454.89	35941.27
455.07	35651.04
455.26	36243.20
455.44	37827.74
455.62	38244.35
455.81	38939.49
455.99	38363.72
456.17	37715.39
456.36	37654.54
456.54	39070.56
456.73	38845.87
456.91	39526.97
457.09	39868.69
457.28	40407.01
457.46	38672.67
457.64	38356.70
457.83	37455.59
458.01	36868.12
458.19	37642.84
458.38	37757.52
458.56	38951.20
458.74	38667.99
458.93	38333.29
459.11	38323.93
459.29	37942.42
459.48	38450.32
459.66	37750.50
459.84	38108.60
460.03	38658.63
460.21	38550.96
460.39	39814.85
460.57	40020.82
460.76	40191.68
460.94	40484.25
461.12	39704.85
461.31	39592.50
461.49	40037.20
461.67	40250.19
461.85	41092.79
462.04	41001.50
462.22	41191.09
462.40	40942.99
462.59	40699.58
462.77	40994.48
462.95	40779.15
463.13	40634.04
463.32	40058.27
463.50	39601.86
463.68	39449.73
463.86	40074.65
464.05	39335.04
464.23	38401.17
464.41	38665.65
464.59	37832.42
464.78	39775.06
464.96	39063.54
465.14	38696.08
465.32	40250.19
465.50	40575.53
465.69	41315.14
465.87	40329.77
466.05	39019.07
466.23	37666.24
466.41	37258.99
466.60	37778.59
466.78	37970.51
466.96	38813.10
467.14	39660.38
467.32	39786.77
467.51	39842.94
467.69	38061.79
467.87	38733.53
468.05	39440.37
468.23	39721.23
468.41	39856.98
468.60	40100.40
468.78	39864.00
468.96	39452.07
469.14	40341.47
469.32	40346.15
469.50	38939.49
469.69	39016.73
469.87	38490.11
470.05	38305.21
470.23	38422.23
470.41	38560.33
470.59	39416.96
470.77	39243.76
470.95	39985.71
471.14	40739.36
471.32	40748.73
471.50	42274.76
471.68	42642.22
471.86	43028.41
472.04	43672.06
472.22	43227.35
472.40	41352.58
472.58	41202.79
472.77	40620.00
472.95	41766.86
473.13	42789.67
473.31	41453.23
473.49	41731.75
473.67	42150.71
473.85	42808.40
474.03	44086.33
474.21	43718.87
474.39	44343.79
474.57	44252.51
474.75	44516.99
474.93	44451.45
475.12	43089.26
475.30	43489.49
475.48	43091.60
475.66	43676.74
475.84	43585.46
476.02	43445.02
476.20	42511.15
476.38	43529.28
476.56	44807.22
476.74	45205.11
476.92	45439.16
477.10	45741.09
477.28	46988.60
477.46	47002.64
477.64	47524.58
477.82	47604.16
478.00	47842.89
478.18	46934.76
478.36	47068.17
478.54	47068.17
478.72	47363.08
478.90	47817.14
479.08	49347.86
479.26	49544.46
479.44	49062.31
479.62	48992.09
479.80	49303.38
479.98	49822.98
480.16	49879.16
480.34	49195.72
480.52	49612.34
480.70	50061.72
480.88	50101.51
481.06	50461.95
481.24	50808.35
481.41	51789.03
481.59	52158.84
481.77	51721.16
481.95	51332.63
482.13	51510.51
482.31	51290.50
482.49	52090.96
482.67	51613.49
482.85	52259.48
483.03	52467.79
483.21	53036.54
483.39	52797.80
483.57	51952.87
483.74	52069.90
483.92	52289.91
484.10	52217.35
484.28	53038.88
484.46	53394.64
484.64	53909.56
484.82	52968.66
485.00	52547.37
485.18	51952.87
485.35	51306.88
485.53	48053.54
485.71	44278.25
485.89	44526.35
486.07	46370.69
486.25	49137.21
486.43	51255.39
486.61	52238.42
486.78	51847.55
486.96	51997.34
487.14	53116.12
487.32	54115.53
487.50	54885.56
487.68	55714.11
487.85	56072.21
488.03	55777.31
488.21	55395.80
488.39	54930.03
488.57	54206.81
488.75	54160.00
488.92	55021.31
489.10	57010.77
489.28	58106.14
489.46	58433.81
489.64	58391.68
489.81	58518.07
489.99	57984.43
490.17	58302.74
490.35	58660.85
490.53	58103.80
490.70	57860.38
490.88	57935.28
491.06	58658.51
491.24	58403.39
491.41	57862.72
491.59	56317.97
491.77	55625.17
491.95	56640.96
492.13	57513.98
492.30	58471.26
492.48	59587.70
492.66	59634.51
492.84	59845.16
493.01	59702.38
493.19	58894.90
493.37	58571.91
493.54	58761.49
493.72	59370.03
493.90	59983.25
494.08	60612.85
494.25	60893.72
494.43	60992.02
494.61	61350.12
494.79	61345.44
494.96	61366.51
495.14	60547.32
495.32	59863.88
495.49	59313.86
495.67	60392.84
495.85	61429.70
496.02	61977.39
496.20	61783.12
496.38	61296.29
496.55	61111.39
496.73	61623.96
496.91	61762.06
497.09	62291.02
497.26	62298.04
497.44	61825.25
497.62	61415.66
497.79	60760.31
497.97	59533.87
498.14	59821.75
498.32	60807.12
498.50	61558.43
498.67	62124.84
498.85	62078.03
499.03	62209.10
499.20	62356.55
499.38	62302.72
499.56	62269.95
499.73	61848.66
499.91	61542.05
500.08	61099.68
500.26	60467.74
500.44	60804.78
500.61	61598.22
500.79	61422.68
500.97	60835.20
501.14	60832.86
501.32	60631.58
501.49	60711.16
501.67	61017.77
501.84	61511.62
502.02	61680.14
502.20	61792.48
502.37	61977.39
502.55	62120.16
502.72	62775.51
502.90	62934.66
503.07	62651.46
503.25	62422.09
503.43	61682.48
503.60	60842.23
503.78	60111.98
503.95	60786.05
504.13	62101.43
504.30	62815.30
504.48	62569.54
504.65	62253.57
504.83	62468.90
505.01	62932.32
505.18	63098.50
505.36	63828.75
505.53	63770.24
505.71	64001.95
505.88	63955.14
506.06	63451.92
506.23	63234.25
506.41	62829.34
506.58	63032.97
506.76	62993.18
506.93	62969.77
507.11	62810.62
507.28	62857.43
507.46	62562.52
507.63	61989.09
507.81	61900.15
507.98	62092.07
508.16	62639.76
508.33	63030.63
508.50	63636.83
508.68	63707.04
508.85	64104.93
509.03	64130.68
509.20	63845.13
509.38	63313.83
509.55	62609.33
509.73	62850.41
509.90	63255.32
510.08	63629.80
510.25	63517.46
510.42	63164.04
510.60	63164.04
510.77	63370.00
510.95	63898.97
511.12	64088.55
511.30	64306.22
511.47	64535.59
511.64	64451.33
511.82	64219.62
511.99	63472.99
512.17	63089.14
512.34	62796.57
512.51	63079.78
512.69	63182.76
512.86	63208.51
513.04	63655.55
513.21	63669.59
513.38	63185.10
513.56	62885.51
513.73	62295.70
513.90	62649.12
514.08	62550.82
514.25	62997.86
514.43	63168.72
514.60	63243.62
514.77	63126.59
514.95	63421.50
515.12	63274.04
515.29	63463.63
515.47	63828.75
515.64	64245.36
515.81	63875.56
515.99	63313.83
516.16	61944.62
516.33	59817.07
516.51	58717.02
516.68	58040.60
516.85	57939.96
517.03	58211.46
517.20	60498.17
517.37	62475.92
517.54	63398.09
517.72	62850.41
517.89	60748.60
518.06	58649.14
518.24	59168.74
518.41	61286.93
518.58	62087.39
518.75	62281.66
518.93	62436.13
519.10	62241.87
519.27	62749.76
519.45	62894.88
519.62	63575.97
519.79	63896.62
519.96	63655.55
520.14	63217.87
520.31	62487.62
520.48	62712.31
520.65	62941.69
520.83	63803.00
521.00	64067.48
521.17	63540.86
521.34	63353.62
521.52	63788.96
521.69	64360.05
521.86	64638.57
522.03	64245.36
522.20	63000.20
522.38	62253.57
522.55	62398.68
522.72	62869.13
522.89	63016.58
523.07	63426.18
523.24	63437.88
523.41	64427.93
523.58	64605.81
523.75	64851.56
523.92	64743.90
524.10	64711.13
524.27	64626.87
524.44	64409.20
524.61	64353.03
524.78	64198.55
524.96	64130.68
525.13	64231.32
525.30	64432.61
525.47	64802.41
525.64	64774.33
525.81	63966.84
525.98	62714.65
526.16	61563.11
526.33	60802.44
526.50	60622.22
526.67	60413.91
526.84	60968.61
527.01	61935.26
527.18	62461.88
527.36	63332.56
527.53	64030.04
527.70	64163.45
527.87	63955.14
528.04	63384.05
528.21	63824.07
528.38	64460.69
528.55	65022.42
528.72	65151.15
528.89	65401.59
529.07	65043.49
529.24	64676.02
529.41	63842.79
529.58	63430.86
529.75	63599.38
529.92	63887.26
530.09	64390.48
530.26	64512.19
530.43	65055.19
530.60	64924.12
530.77	65066.89
530.94	65317.33
531.11	64968.59
531.28	64561.34
531.46	64353.03
531.63	64587.08
531.80	64364.73
531.97	63924.71
532.14	63192.12
532.31	62358.89
532.48	61996.11
532.65	62066.33
532.82	62719.34
532.99	63788.96
533.16	63887.26
533.33	64523.89
533.50	64315.58
533.67	63840.45
533.84	63344.26
534.01	63472.99
534.18	63643.85
534.35	63884.92
534.52	63723.43
534.69	64053.44
534.86	64257.07
535.03	64573.04
535.20	65069.23
535.37	65160.51
535.54	65326.69
535.71	64919.44
535.88	64638.57
536.05	64001.95
536.22	63753.85
536.38	63339.58
536.55	62845.72
536.72	62546.14
536.89	62684.23
537.06	63484.69
537.23	64306.22
537.40	64336.65
537.57	64200.89
537.74	64015.99
537.91	63950.46
538.08	64039.40
538.25	63978.54
538.42	64221.96
538.59	63980.88
538.75	63468.31
538.92	63112.55
539.09	63196.80
539.26	62925.30
539.43	62946.37
539.60	62927.64
539.77	63213.19
539.94	63042.33
540.11	62370.60
540.28	62012.49
540.44	61996.11
540.61	62241.87
540.78	62340.17
540.95	62848.06
541.12	62990.84
541.29	63437.88
541.46	63676.61
541.62	63732.79
541.79	63604.06
541.96	62922.96
542.13	62972.11
542.30	63288.09
542.47	63599.38
542.63	62976.79
542.80	63065.73
542.97	63100.84
543.14	62908.92
543.31	63035.31
543.48	63515.12
543.64	64179.83
543.81	64456.01
543.98	64205.58
544.15	63618.10
544.32	63241.28
544.48	63264.68
544.65	63683.64
544.82	63948.12
544.99	63559.59
545.16	63339.58
545.32	63260.00
545.49	63973.86
545.66	64161.11
545.83	63695.34
546.00	63426.18
546.16	63138.29
546.33	63210.85
546.50	63290.43
546.67	63859.18
546.83	63250.64
547.00	63290.43
547.17	62527.41
547.34	62155.27
547.50	62120.16
547.67	62756.78
547.84	62702.95
548.00	63075.10
548.17	63456.60
548.34	63318.51
548.51	63152.33
548.67	63276.38
548.84	63344.26
549.01	63126.59
549.18	63159.36
549.34	63318.51
549.51	63157.02
549.68	63089.14
549.84	62906.58
550.01	62766.15
550.18	62724.02
550.34	62869.13
550.51	62922.96
550.68	62962.75
550.84	62480.60
551.01	62588.27
551.18	62492.30
551.34	62798.91
551.51	62939.35
551.68	63257.66
551.84	63283.40
552.01	63061.05
552.18	62885.51
552.34	62347.19
552.51	62255.91
552.68	61797.16
552.84	62386.98
553.01	62632.74
553.18	62506.35
553.34	62693.59
553.51	62564.86
553.67	63175.74
553.84	63180.42
554.01	63117.23
554.17	62665.50
554.34	62866.79
554.51	63056.37
554.67	63327.87
554.84	63047.01
555.00	62864.45
555.17	62695.93
555.33	62667.84
555.50	62688.91
555.67	62702.95
555.83	62429.11
556.00	62220.80
556.16	62262.93
556.33	61979.73
556.50	61717.59
556.66	61808.87
556.83	61602.90
556.99	61790.14
557.16	61776.10
557.32	62122.50
557.49	62328.47
557.65	62056.96
557.82	62035.90
557.98	62028.88
558.15	61600.56
558.32	60966.27
558.48	59978.57
558.65	60537.96
558.81	60704.13
558.98	61106.71
559.14	61319.70
559.31	61300.97
559.47	61453.11
559.64	61029.47
559.80	60741.58
559.97	60722.86
560.13	61162.88
560.30	61851.00
560.46	62305.06
560.63	62604.65
560.79	62489.96
560.96	62202.08
561.12	61172.24
561.29	60568.38
561.45	60608.17
561.61	61169.90
561.78	61457.79
561.94	61413.32
562.11	61190.97
562.27	61062.24
562.44	61408.64
562.60	61602.90
562.77	61932.92
562.93	61722.27
563.10	61581.84
563.26	61087.98
563.42	61268.20
563.59	61139.47
563.75	61261.18
563.92	61153.52
564.08	60942.87
564.24	61394.59
564.41	61471.83
564.57	61291.61
564.74	61008.40
564.90	60999.04
565.07	60741.58
565.23	60484.12
565.39	60074.53
565.56	59756.22
565.72	59580.68
565.88	60090.91
566.05	60102.62
566.21	60355.39
566.38	60369.44
566.54	60566.04
566.70	60884.36
566.87	61139.47
567.03	61099.68
567.19	61120.75
567.36	61071.60
567.52	60821.16
567.68	60781.37
567.85	60142.41
568.01	59643.87
568.17	59377.05
568.34	59463.65
568.50	59358.33
568.66	59583.02
568.83	59831.11
568.99	59920.05
569.15	60186.88
569.32	60207.94
569.48	59861.54
569.64	59824.09
569.81	59358.33
569.97	59487.06
570.13	59465.99
570.30	58962.78
570.46	58670.21
570.62	58335.51
570.78	58211.46
570.95	58314.45
571.11	58890.22
571.27	59030.65
571.43	59309.18
571.60	59800.69
571.76	59695.36
571.92	59910.69
572.09	60156.45
572.25	59807.71
572.41	60020.70
572.57	59824.09
572.74	59781.96
572.90	59360.67
573.06	59496.42
573.22	59629.83
573.38	59742.17
573.55	59292.79
573.71	59662.60
573.87	59756.22
574.03	59529.19
574.20	59285.77
574.36	59276.41
574.52	58962.78
574.68	58836.39
574.84	58375.30
575.01	58204.44
575.17	58148.27
575.33	58614.04
575.49	58787.24
575.65	58726.38
575.82	58679.57
575.98	58511.05
576.14	58616.38
576.30	58642.12
576.46	59018.95
576.62	58862.13
576.79	58843.41
576.95	58307.43
577.11	58569.57
577.27	58712.34
577.43	58471.26
577.59	58225.51
577.75	57811.23
577.92	57483.56
578.08	57434.41
578.24	57509.30
578.40	57815.91
578.56	57804.21
578.72	57851.02
578.88	58096.78
579.04	58195.08
579.21	58361.26
579.37	58178.70
579.53	58377.64
579.69	58117.84
579.85	58370.62
580.01	58410.41
580.17	58117.84
580.33	57715.27
580.49	57846.34
580.65	58042.95
580.82	58440.84
580.98	58316.79
581.14	58185.72
581.30	58145.93
581.46	57970.39
581.62	58272.32
581.78	58131.89
581.94	58501.69
582.10	58349.56
582.26	58487.65
582.42	58354.24
582.58	58684.25
582.74	58557.86
582.90	58419.77
583.06	58497.01
583.22	58092.10
583.38	58370.62
583.54	58223.17
583.70	58071.03
583.86	58302.74
584.02	57944.64
584.18	58085.07
584.34	57897.83
584.50	58183.38
584.66	57836.98
584.82	57542.07
584.98	57331.42
585.14	57062.26
