SpectraSuite Data File
++++++++++++++++++++++++++++++++++++
Date: Mon Oct 07 14:55:02 GMT-05:00 2013
User: price-jones
Dark Spectrum Present: No
Reference Spectrum Present: No
Number of Sampled Component Spectra: 1
Spectrometers: USB2+H05261
Integration Time (usec): 10000 (USB2+H05261)
Spectra Averaged: 1 (USB2+H05261)
Boxcar Smoothing: 0 (USB2+H05261)
Correct for Electrical Dark: No (USB2+H05261)
Strobe/Lamp Enabled: No (USB2+H05261)
Correct for Detector Non-linearity: No (USB2+H05261)
Correct for Stray Light: No (USB2+H05261)
Number of Pixels in Processed Spectrum: 2048
>>>>>Begin Processed Spectral Data<<<<<
365.73	0.00
365.92	0.00
366.12	0.00
366.32	0.00
366.52	0.00
366.72	0.00
366.91	0.00
367.11	0.00
367.31	0.00
367.51	0.00
367.70	0.00
367.90	0.00
368.10	0.00
368.30	0.00
368.49	0.00
368.69	0.00
368.89	0.00
369.09	0.00
369.28	0.00
369.48	0.00
369.68	0.00
369.87	0.00
370.07	0.00
370.27	0.00
370.47	390.87
370.66	2462.24
370.86	2988.86
371.06	3187.81
371.25	3119.93
371.45	2745.45
371.65	2562.89
371.84	2370.96
372.04	2593.31
372.24	2897.58
372.44	2930.35
372.63	2785.24
372.83	2628.42
373.03	2305.43
373.22	2190.74
373.42	2443.52
373.62	2796.94
373.81	2902.26
374.01	2832.05
374.21	2544.16
374.40	2497.35
374.60	2567.57
374.79	2928.01
374.99	3281.43
375.19	3428.88
375.38	3471.01
375.58	3211.22
375.78	3283.77
375.97	3342.28
376.17	3396.12
376.37	3562.30
376.56	3583.36
376.76	3892.31
376.95	4252.75
377.15	4294.88
377.35	4461.06
377.54	4662.35
377.74	4685.75
377.93	4788.74
378.13	4683.41
378.33	4337.01
378.52	3967.21
378.72	3976.57
378.91	3852.52
379.11	3744.86
379.31	3557.61
379.50	3737.84
379.70	3936.78
379.89	4526.60
380.09	4566.39
380.28	4903.42
380.48	4772.35
380.68	4641.28
380.87	4535.96
381.07	4105.30
381.26	3770.60
381.46	3590.38
381.65	3456.97
381.85	3391.44
382.04	3087.17
382.24	2928.01
382.43	2944.39
382.63	2693.96
382.83	2820.35
383.02	2789.92
383.22	2839.07
383.41	2928.01
383.61	3112.91
383.80	3599.74
384.00	4086.58
384.19	4695.11
384.39	4777.03
384.58	4648.30
384.78	4538.30
384.97	4610.86
385.17	4299.56
385.36	3904.01
385.56	4009.34
385.75	4184.88
385.95	4594.47
386.14	4877.68
386.34	4748.95
386.53	4472.76
386.72	4276.16
386.92	4421.27
387.11	4835.55
387.31	4765.33
387.50	4929.17
387.70	4652.98
387.89	4531.28
388.09	4624.90
388.28	4727.88
388.48	4954.91
388.67	5348.12
388.86	5769.42
389.06	6024.54
389.25	6464.56
389.45	6483.28
389.64	6352.21
389.84	6099.44
390.03	6317.11
390.22	6363.92
390.42	6534.78
390.61	7037.99
390.81	7356.30
391.00	7538.87
391.19	7152.68
391.39	7103.53
391.58	6724.36
391.78	6384.98
391.97	6139.23
392.16	5537.71
392.36	5029.81
392.55	3962.53
392.75	3101.21
392.94	2597.99
393.13	2771.19
393.33	3536.55
393.52	4379.14
393.71	5118.75
393.91	5823.25
394.10	6305.40
394.29	7019.27
394.49	7386.73
394.68	8053.78
394.88	7885.26
395.07	8173.15
395.26	8063.15
395.46	7817.39
395.65	7171.40
395.84	6073.69
396.04	5132.79
396.23	4182.54
396.42	3496.76
396.62	3688.68
396.81	4500.85
397.00	5614.95
397.19	7094.16
397.39	8531.25
397.58	9130.43
397.77	9675.77
397.97	9685.14
398.16	10193.03
398.35	10630.71
398.55	11030.94
398.74	11239.25
398.93	11386.71
399.12	11166.70
399.32	10888.17
399.51	11000.52
399.70	11793.96
399.90	11595.01
400.09	11426.50
400.28	11431.18
400.47	11712.04
400.67	12388.46
400.86	12498.46
401.05	12638.89
401.24	12341.64
401.44	12912.74
401.63	13025.08
401.82	12940.82
402.01	12908.05
402.21	13069.55
402.40	13184.24
402.59	12585.06
402.78	11950.78
402.97	12154.40
403.17	12744.22
403.36	13348.08
403.55	13469.78
403.74	13816.18
403.93	12809.75
404.13	11831.41
404.32	11964.82
404.51	12896.35
404.70	13341.05
404.89	13219.35
405.09	12919.76
405.28	12631.87
405.47	12819.11
405.66	12713.79
405.85	12292.49
406.05	12116.95
406.24	12477.40
406.43	12924.44
406.62	13217.01
406.81	13518.93
407.00	12872.95
407.20	12472.71
407.39	12791.03
407.58	13703.84
407.77	14078.32
407.96	14565.15
408.15	14719.63
408.34	14897.51
408.54	15159.65
408.73	15344.55
408.92	14991.13
409.11	14272.59
409.30	13703.84
409.49	12741.88
409.68	12042.06
409.87	11796.30
410.07	13090.62
410.26	13874.70
410.45	14679.84
410.64	15014.54
410.83	15206.46
411.02	15719.04
411.21	16219.91
411.40	16205.87
411.59	16091.18
411.78	16425.88
411.98	16002.24
412.17	16168.42
412.36	15953.09
412.55	16137.99
412.74	15704.99
412.93	15204.12
413.12	15826.70
413.31	17352.73
413.50	17343.37
413.69	17429.97
413.88	16652.91
414.07	16657.59
414.26	16788.66
414.45	17341.03
414.64	17479.12
414.83	16847.18
415.02	16692.70
415.22	16812.07
415.41	17539.97
415.60	17848.93
415.79	18518.32
415.98	18738.33
416.17	18719.60
416.36	18136.81
416.55	18277.24
416.74	17249.75
416.93	16971.22
417.12	17343.37
417.31	17390.18
417.50	18038.51
417.69	18560.45
417.88	17717.86
418.07	17935.53
418.26	17308.26
418.45	18185.96
418.64	18686.84
418.83	19651.14
419.02	18588.53
419.21	18319.37
419.39	17977.65
419.58	17228.68
419.77	17565.72
419.96	18600.24
420.15	19300.06
420.34	19630.07
420.53	20388.41
420.72	20507.77
420.91	20388.41
421.10	19943.70
421.29	19719.01
421.48	19459.21
421.67	20449.26
421.86	19407.72
422.05	18029.15
422.24	16119.27
422.43	17088.25
422.61	19262.61
422.80	19728.38
422.99	19243.88
423.18	18288.95
423.37	18508.96
423.56	18771.10
423.75	19461.55
423.94	19604.33
424.13	18508.96
424.32	18490.23
424.50	18436.40
424.69	18647.05
424.88	18703.22
425.07	18555.77
425.26	18396.61
425.45	17788.07
425.64	17657.00
425.83	18335.76
426.01	18878.76
426.20	19066.00
426.39	18967.70
426.58	17373.80
426.77	16327.58
426.96	16383.75
427.15	17015.69
427.33	18405.97
427.52	18647.05
427.71	18665.77
427.90	18553.43
428.09	18225.75
428.28	17659.34
428.46	17036.76
428.65	16872.92
428.84	17972.97
429.03	17668.70
429.22	16535.88
429.40	15030.92
429.59	14237.48
429.78	12760.60
429.97	12765.28
430.16	13036.78
430.34	13071.89
430.53	13324.67
430.72	13694.47
430.91	15463.92
431.10	18384.91
431.28	21088.23
431.47	22419.99
431.66	22087.64
431.85	19707.31
432.03	18242.14
432.22	18377.89
432.41	19847.74
432.60	20938.43
432.79	21778.68
432.97	22223.39
433.16	21443.99
433.35	18913.87
433.54	17397.20
433.72	16688.02
433.91	17752.96
434.10	19843.06
434.28	20868.22
434.47	21696.77
434.66	21128.02
434.85	21041.42
435.03	20905.66
435.22	21413.56
435.41	22520.63
435.59	22895.12
435.78	23218.11
435.97	23384.29
436.16	23569.19
436.34	23124.49
436.53	23131.51
436.72	22787.46
436.90	21628.89
437.09	21504.84
437.28	21514.20
437.46	22228.07
437.65	21837.20
437.84	19988.18
438.02	19110.47
438.21	19159.63
438.40	19747.10
438.58	21071.84
438.77	22029.12
438.96	22150.83
439.14	23300.03
439.33	23477.91
439.52	24173.05
439.70	22946.61
439.89	22389.56
440.08	22043.17
440.26	22249.13
440.45	23063.64
440.63	25167.78
440.82	25881.64
441.01	25479.07
441.19	25235.66
441.38	26005.69
441.57	26916.16
441.75	26747.64
441.94	27477.89
442.12	27288.31
442.31	27646.41
442.50	27342.14
442.68	27061.27
442.87	26874.03
443.05	26368.48
443.24	26920.84
443.43	26820.20
443.61	27817.27
443.80	28109.83
443.98	27208.73
444.17	26878.71
444.35	28128.56
444.54	29027.32
444.73	28191.75
444.91	26359.11
445.10	25689.72
445.28	24905.64
445.47	24741.80
445.65	25135.01
445.84	25879.30
446.02	26583.80
446.21	26941.91
446.39	26991.06
446.58	27501.29
446.77	28023.23
446.95	28056.00
447.14	28641.14
447.32	29165.42
447.51	28524.11
447.69	26993.40
447.88	27508.32
448.06	27857.06
448.25	27866.42
448.43	27985.79
448.62	27761.09
448.80	27559.81
448.99	27388.95
449.17	28093.45
449.36	28701.99
449.54	29380.74
449.73	29469.69
449.91	29825.45
450.10	30979.33
450.28	30794.43
450.46	31061.25
450.65	31157.21
450.83	30799.11
451.02	30089.93
451.20	30155.46
451.39	30190.57
451.57	30019.71
451.76	30036.09
451.94	29469.69
452.13	28697.31
452.31	27288.31
452.49	26319.32
452.68	27040.21
452.86	27159.58
453.05	27707.26
453.23	28980.51
453.42	29078.82
453.60	30223.34
453.78	29556.28
453.97	29476.71
454.15	29280.10
454.34	28100.47
454.52	28285.37
454.70	28184.73
454.89	28980.51
455.07	28643.48
455.26	29469.69
455.44	29963.54
455.62	31115.08
455.81	30642.29
455.99	30733.57
456.17	30913.80
456.36	31510.63
456.54	31431.05
456.73	31253.17
456.91	31421.69
457.09	31889.80
457.28	33193.48
457.46	31171.25
457.64	30693.79
457.83	30272.49
458.01	29804.38
458.19	30759.32
458.38	31211.04
458.56	32187.05
458.74	31229.77
458.93	30532.29
459.11	30756.98
459.29	29858.21
459.48	30841.24
459.66	30352.07
459.84	30881.03
460.03	31227.43
460.21	32271.31
460.39	32268.97
460.57	32098.11
460.76	32362.59
460.94	32657.49
461.12	32563.87
461.31	32751.12
461.49	32528.77
461.67	32716.01
461.85	33055.39
462.04	33212.20
462.22	33415.83
462.40	32816.65
462.59	32568.55
462.77	32844.74
462.95	32374.29
463.13	32140.24
463.32	32102.79
463.50	32044.27
463.68	32088.74
463.86	32390.67
464.05	31611.28
464.23	30759.32
464.41	31058.91
464.59	31255.51
464.78	31779.79
464.96	32142.58
465.14	31119.76
465.32	32833.04
465.50	33844.15
465.69	34204.59
465.87	32259.60
466.05	31653.40
466.23	30047.80
466.41	29818.42
466.60	31194.66
466.78	30710.17
466.96	31756.39
467.14	32130.87
467.32	32322.80
467.51	32229.18
467.69	30614.21
467.87	31510.63
468.05	32409.40
468.23	32266.63
468.41	31789.16
468.60	32360.25
468.78	32467.91
468.96	32177.68
469.14	32755.80
469.32	33284.76
469.50	30883.37
469.69	32011.51
469.87	31189.98
470.05	31199.34
470.23	31541.06
470.41	31564.46
470.59	31777.45
470.77	32360.25
470.95	32203.43
471.14	33343.27
471.32	33682.65
471.50	34778.02
471.68	35019.10
471.86	35241.45
472.04	34780.36
472.22	35236.77
472.40	33633.50
472.58	33399.44
472.77	33301.14
472.95	34094.58
473.13	34742.91
473.31	33799.68
473.49	33535.20
473.67	34651.63
473.85	34852.92
474.03	36137.87
474.21	37156.00
474.39	36732.37
474.57	36655.13
474.75	36786.20
474.93	36301.71
475.12	35370.18
475.30	35901.48
475.48	34993.35
475.66	34852.92
475.84	34576.73
476.02	35489.54
476.20	34541.63
476.38	35674.45
476.56	36704.28
476.74	37631.13
476.92	37338.57
477.10	37633.47
477.28	38431.60
477.46	38405.85
477.64	38897.36
477.82	39058.86
478.00	39679.10
478.18	38363.72
478.36	37722.41
478.54	38548.62
478.72	39243.76
478.90	41034.27
479.08	42529.87
479.26	41717.71
479.44	42209.22
479.62	40837.67
479.80	42162.41
479.98	41998.57
480.16	42494.77
480.34	41497.70
480.52	42553.28
480.70	42773.29
480.88	42366.04
481.06	42887.98
481.24	43063.52
481.41	43779.72
481.59	45242.56
481.77	43922.49
481.95	43269.48
482.13	43175.86
482.31	44060.58
482.49	44135.48
482.67	43405.23
482.85	44144.84
483.03	44065.27
483.21	45343.20
483.39	44699.55
483.57	43992.71
483.74	44182.29
483.92	45205.11
484.10	44875.09
484.28	45052.97
484.46	45038.93
484.64	46845.82
484.82	45556.19
485.00	45308.09
485.18	44189.31
485.35	41989.21
485.53	37502.40
485.71	35686.15
485.89	35651.04
486.07	38426.92
486.25	41324.50
486.43	43885.04
486.61	43770.36
486.78	43297.57
486.96	44877.43
487.14	46635.17
487.32	46529.85
487.50	47679.05
487.68	48748.68
487.85	49982.14
488.03	48638.67
488.21	48699.53
488.39	48177.59
488.57	47210.95
488.75	47180.52
488.92	48715.91
489.10	50394.07
489.28	51695.41
489.46	52844.62
489.64	52346.08
489.81	52781.42
489.99	51702.43
490.17	51704.77
490.35	52519.28
490.53	51870.95
490.70	51341.99
490.88	51508.17
491.06	52753.33
491.24	52690.14
491.41	51578.39
491.59	49460.20
491.77	49687.23
491.95	51412.21
492.13	52584.82
492.30	52896.11
492.48	53619.33
492.66	54155.32
492.84	53738.70
493.01	53570.18
493.19	53521.03
493.37	52842.27
493.54	53439.11
493.72	54232.55
493.90	54576.61
494.08	54911.31
494.25	54953.44
494.43	55709.43
494.61	56172.86
494.79	56130.73
494.96	56156.47
495.14	55945.83
495.32	54396.39
495.49	54843.43
495.67	55491.76
495.85	56435.00
496.02	57083.33
496.20	56786.08
496.38	56257.12
496.55	56172.86
496.73	57048.22
496.91	57031.83
497.09	56699.48
497.26	57010.77
497.44	56699.48
497.62	55819.44
497.79	55000.25
497.97	54169.36
498.14	54883.22
498.32	56336.69
498.50	56186.90
498.67	56240.73
498.85	56640.96
499.03	57399.30
499.20	57490.58
499.38	57183.97
499.56	56411.59
499.73	56280.52
499.91	56133.07
500.08	55531.55
500.26	54951.10
500.44	56069.87
500.61	56367.12
500.79	55934.12
500.97	56315.63
501.14	54986.21
501.32	54897.27
501.49	55285.79
501.67	55412.18
501.84	55662.62
502.02	56420.95
502.20	56987.36
502.37	57205.03
502.55	57027.15
502.72	57628.67
502.90	57970.39
503.07	57696.55
503.25	56367.12
503.43	55906.04
503.60	55395.80
503.78	55047.06
503.95	55290.48
504.13	56844.59
504.30	57221.42
504.48	56868.00
504.65	56858.63
504.83	57219.08
505.01	58028.90
505.18	58223.17
505.36	58265.30
505.53	58632.76
505.71	58836.39
505.88	58862.13
506.06	58464.24
506.23	57911.88
506.41	57638.03
506.58	58209.12
506.76	58185.72
506.93	57343.12
507.11	57141.84
507.28	57820.59
507.46	57088.01
507.63	56933.53
507.81	56245.41
507.98	56926.51
508.16	58150.61
508.33	58014.86
508.50	58337.85
508.68	58871.49
508.85	58990.86
509.03	59416.84
509.20	58539.14
509.38	57499.94
509.55	57305.68
509.73	57750.38
509.90	58014.86
510.08	58260.62
510.25	57647.39
510.42	57682.50
510.60	58269.98
510.77	58700.64
510.95	58440.84
511.12	58712.34
511.30	59245.98
511.47	59709.41
511.64	59585.36
511.82	59433.22
511.99	58192.74
512.17	58522.76
512.34	57928.26
512.51	57932.94
512.69	58492.33
512.86	58103.80
513.04	58489.99
513.21	58047.63
513.38	57198.01
513.56	56978.00
513.73	56383.51
513.90	57041.20
514.08	57125.46
514.25	56898.42
514.43	57425.04
514.60	57986.77
514.77	58000.82
514.95	58164.65
515.12	58068.69
515.29	58569.57
515.47	59047.04
515.64	58761.49
515.81	58518.07
515.99	57464.83
516.16	55496.44
516.33	53354.85
516.51	53303.36
516.68	51559.66
516.85	50918.35
517.03	53022.50
517.20	55353.67
517.37	57298.65
517.54	58286.36
517.72	56849.27
517.89	53893.18
518.06	52514.60
518.24	54080.42
518.41	55922.42
518.58	56605.86
518.75	56636.28
518.93	56762.67
519.10	56231.37
519.27	57345.47
519.45	57752.72
519.62	58452.54
519.79	58298.06
519.96	57900.17
520.14	57411.00
520.31	56362.44
520.48	57006.09
520.65	57705.91
520.83	58461.90
521.00	58520.41
521.17	57879.11
521.34	57872.09
521.52	58466.58
521.69	58564.88
521.86	59007.25
522.03	59159.38
522.20	57544.41
522.38	56596.49
522.55	57586.54
522.72	57851.02
522.89	57539.73
523.07	57984.43
523.24	58569.57
523.41	59550.25
523.58	59821.75
523.75	59840.48
523.92	59571.32
524.10	58939.37
524.27	58808.30
524.44	58822.34
524.61	58759.15
524.78	58922.99
524.96	59002.56
525.13	59126.61
525.30	59601.74
525.47	59540.89
525.64	59330.24
525.81	58541.48
525.98	56608.20
526.16	55629.85
526.33	55763.26
526.50	55152.38
526.67	55374.73
526.84	55751.56
527.01	56678.41
527.18	57116.09
527.36	58155.29
527.53	59128.95
527.70	58436.16
527.87	57095.03
528.04	58611.70
528.21	58866.81
528.38	59121.93
528.55	60067.51
528.72	59788.98
528.89	59442.59
529.07	59075.12
529.24	58148.27
529.41	57895.49
529.58	58078.05
529.75	58712.34
529.92	58808.30
530.09	59000.22
530.26	59117.25
530.43	60189.22
530.60	59070.44
530.77	59711.75
530.94	59831.11
531.11	58981.50
531.28	59461.31
531.46	59594.72
531.63	59206.19
531.80	58511.05
531.97	58110.82
532.14	58047.63
532.31	56615.22
532.48	56076.90
532.65	56491.17
532.82	57017.79
532.99	58471.26
533.16	58831.71
533.33	58660.85
533.50	58873.84
533.67	58983.84
533.84	58052.31
534.01	58492.33
534.18	58850.43
534.35	58440.84
534.52	57890.81
534.69	58506.37
534.86	58937.03
535.03	59124.27
535.20	59040.01
535.37	60009.00
535.54	60065.17
535.71	59817.07
535.88	60086.23
536.05	58714.68
536.22	58230.19
536.38	57626.33
536.55	56795.44
536.72	56900.76
536.89	57364.19
537.06	57523.35
537.23	58347.21
537.40	58660.85
537.57	58234.87
537.74	58487.65
537.91	58567.23
538.08	58284.02
538.25	58113.16
538.42	58920.65
538.59	58155.29
538.75	57378.23
538.92	57027.15
539.09	57298.65
539.26	57179.29
539.43	57214.40
539.60	57668.46
539.77	58089.76
539.94	57584.20
540.11	56762.67
540.28	56549.68
540.44	56097.96
540.61	56233.71
540.78	56858.63
540.95	57556.11
541.12	57471.85
541.29	58176.36
541.46	58459.56
541.62	58307.43
541.79	57570.16
541.96	56711.18
542.13	56687.78
542.30	57141.84
542.47	57710.59
542.63	57176.95
542.80	57293.97
542.97	57031.83
543.14	56554.36
543.31	56669.05
543.48	57946.98
543.64	58267.64
543.81	59313.86
543.98	59032.99
544.15	57268.23
544.32	57822.93
544.48	57682.50
544.65	57488.24
544.82	58298.06
544.99	56587.13
545.16	56097.96
545.32	56769.69
545.49	57525.69
545.66	57633.35
545.83	57469.51
546.00	57874.43
546.16	57815.91
546.33	57750.38
546.50	57860.38
546.67	57954.00
546.83	57172.27
547.00	57921.24
547.17	56535.64
547.34	55791.35
547.50	56020.72
547.67	57167.58
547.84	57738.68
548.00	57595.90
548.17	57434.41
548.34	57595.90
548.51	57949.32
548.67	58480.63
548.84	58092.10
549.01	57956.35
549.18	57345.47
549.34	57525.69
549.51	57621.65
549.68	57396.96
549.84	57240.14
550.01	56760.33
550.18	56392.87
550.34	56662.03
550.51	57233.12
550.68	57462.49
550.84	57085.67
551.01	56706.50
551.18	56350.74
551.34	55910.72
551.51	57062.26
551.68	56839.91
551.84	57043.54
552.01	56921.83
552.18	56617.56
552.34	55936.46
552.51	55999.66
552.68	55714.11
552.84	55882.63
553.01	56273.50
553.18	57317.38
553.34	57240.14
553.51	57099.71
553.67	56774.37
553.84	56273.50
554.01	56875.02
554.17	56420.95
554.34	56797.78
554.51	56956.94
554.67	56238.39
554.84	56189.24
555.00	56444.36
555.17	56444.36
555.33	55786.67
555.50	55531.55
555.67	56324.99
555.83	56189.24
556.00	55896.67
556.16	55449.63
556.33	55009.61
556.50	55938.80
556.66	55913.06
556.83	55557.30
556.99	55178.13
557.16	55664.96
557.32	55084.51
557.49	55697.73
557.65	55025.99
557.82	55847.52
557.98	56123.71
558.15	55028.34
558.32	54136.59
558.48	53670.82
558.65	53825.30
558.81	54468.95
558.98	55037.70
559.14	55346.65
559.31	54536.82
559.47	54424.48
559.64	53708.27
559.80	53270.59
559.97	54499.37
560.13	55489.42
560.30	56505.21
560.46	56949.92
560.63	57041.20
560.79	56851.61
560.96	55936.46
561.12	54604.70
561.29	54059.35
561.45	54195.10
561.61	55854.54
561.78	55194.51
561.94	55676.66
562.11	55695.39
562.27	54878.54
562.44	55131.32
562.60	55620.49
562.77	55805.39
562.93	54438.52
563.10	54534.48
563.26	54714.70
563.42	55529.21
563.59	54506.40
563.75	54574.27
563.92	54515.76
564.08	53979.78
564.24	55093.87
564.41	54368.30
564.57	55119.62
564.74	54632.78
564.90	53755.08
565.07	53902.54
565.23	53179.31
565.39	53205.06
565.56	53359.53
565.72	53324.43
565.88	51620.52
566.05	54351.92
566.21	55112.59
566.38	54361.28
566.54	54239.57
566.70	54782.58
566.87	54468.95
567.03	54026.59
567.19	54813.01
567.36	55473.04
567.52	54003.18
567.68	53923.60
567.85	52933.56
568.01	53043.56
568.17	53237.83
568.34	54057.01
568.50	53897.86
568.66	53635.72
568.83	52914.83
568.99	52519.28
569.15	52924.19
569.32	53029.52
569.48	52601.20
569.64	52247.78
569.81	52774.40
569.97	52343.74
570.13	51723.50
570.30	51466.04
570.46	50873.88
570.62	49792.56
570.78	50321.52
570.95	51196.88
571.11	50946.44
571.27	50873.88
571.43	51428.59
571.60	50866.86
571.76	52453.75
571.92	52481.83
572.09	53221.44
572.25	52935.90
572.41	54007.86
572.57	53425.07
572.74	53315.06
572.90	54204.47
573.06	53251.87
573.22	53673.16
573.38	53289.32
573.55	54555.55
573.71	53165.27
573.87	53141.86
574.03	53216.76
574.20	52898.45
574.36	52875.04
574.52	51870.95
574.68	51622.86
574.84	51157.09
575.01	51079.85
575.17	51721.16
575.33	51899.04
575.49	51913.08
575.65	51168.79
575.82	51276.46
575.98	51044.74
576.14	52137.77
576.30	52690.14
576.46	51426.25
576.62	51405.19
576.79	51599.45
576.95	51353.69
577.11	52079.26
577.27	51636.90
577.43	51859.25
577.59	50735.79
577.75	49380.62
577.92	49551.48
578.08	49982.14
578.24	50990.91
578.40	50883.25
578.56	50094.49
578.72	50405.78
578.88	50307.47
579.04	50532.17
579.21	49773.83
579.37	50536.85
579.53	50904.31
579.69	50223.22
579.85	50651.53
580.01	50609.40
580.17	50195.13
580.33	51033.04
580.49	51264.75
580.65	49179.34
580.82	50052.36
580.98	51096.24
581.14	51552.64
581.30	50965.17
581.46	50454.93
581.62	50717.07
581.78	51334.97
581.94	51334.97
582.10	51594.77
582.26	51653.28
582.42	51922.44
582.58	49516.37
582.74	49507.01
582.90	50211.51
583.06	50284.07
583.22	50646.85
583.38	50607.06
583.54	51033.04
583.70	51379.44
583.86	50791.97
584.02	50642.17
584.18	50555.57
584.34	49909.58
584.50	49029.54
584.66	49345.51
584.82	49668.51
584.98	49914.26
585.14	49205.08
585.30	49488.29
