SpectraSuite Data File
++++++++++++++++++++++++++++++++++++
Date: Mon Oct 07 14:53:50 GMT-05:00 2013
User: price-jones
Dark Spectrum Present: No
Reference Spectrum Present: No
Number of Sampled Component Spectra: 1
Spectrometers: USB2+H05261
Integration Time (usec): 100000 (USB2+H05261)
Spectra Averaged: 1 (USB2+H05261)
Boxcar Smoothing: 0 (USB2+H05261)
Correct for Electrical Dark: No (USB2+H05261)
Strobe/Lamp Enabled: No (USB2+H05261)
Correct for Detector Non-linearity: No (USB2+H05261)
Correct for Stray Light: No (USB2+H05261)
Number of Pixels in Processed Spectrum: 2048
>>>>>Begin Processed Spectral Data<<<<<
365.73	0.00
365.92	0.00
366.12	0.00
366.32	0.00
366.52	0.00
366.72	0.00
366.91	0.00
367.11	0.00
367.31	0.00
367.51	0.00
367.70	0.00
367.90	0.00
368.10	0.00
368.30	0.00
368.49	0.00
368.69	0.00
368.89	0.00
369.09	0.00
369.28	0.00
369.48	0.00
369.68	0.00
369.87	0.00
370.07	0.00
370.27	0.00
370.47	688.12
370.66	3204.19
370.86	3901.67
371.06	4212.96
371.25	4262.12
371.45	3735.50
371.65	3361.01
371.84	3218.24
372.04	3365.69
372.24	3765.92
372.44	3829.12
372.63	3894.65
372.83	3529.53
373.03	3105.89
373.22	2911.63
373.42	3089.51
373.62	3566.98
373.81	3859.54
374.01	4042.11
374.21	3421.86
374.40	3272.07
374.60	3435.91
374.79	3861.88
374.99	4369.78
375.19	4720.86
375.38	4910.44
375.58	4397.87
375.78	4397.87
375.97	4533.62
376.17	4692.77
376.37	4713.84
376.56	4858.95
376.76	5104.71
376.95	5383.23
377.15	5720.27
377.35	5949.64
377.54	6249.23
377.74	6410.73
377.93	6246.89
378.13	6307.74
378.33	6008.16
378.52	5327.06
378.72	5242.80
378.91	5121.09
379.11	4833.21
379.31	4732.56
379.50	4856.61
379.70	5207.69
379.89	5736.65
380.09	6249.23
380.28	6207.10
380.48	6242.21
380.68	6003.47
380.87	6043.26
381.07	5593.88
381.26	5174.92
381.46	4978.32
381.65	4777.03
381.85	4657.67
382.04	4470.42
382.24	4058.49
382.43	3929.76
382.63	3735.50
382.83	3824.44
383.02	3857.20
383.22	3688.68
383.41	3810.39
383.61	4152.11
383.80	4821.50
384.00	5238.12
384.19	5830.27
384.39	6377.96
384.58	6333.49
384.78	6176.67
384.97	6125.18
385.17	5771.76
385.36	5455.79
385.56	5282.59
385.75	5275.57
385.95	5954.32
386.14	6509.03
386.34	6403.71
386.53	6195.40
386.72	5797.51
386.92	5930.92
387.11	6073.69
387.31	6366.26
387.50	6392.00
387.70	6122.84
387.89	5966.03
388.09	6104.12
388.28	6071.35
388.48	6106.46
388.67	6569.88
388.86	7246.30
389.06	7880.58
389.25	8236.35
389.45	8430.61
389.64	8409.54
389.84	8145.06
390.03	8159.11
390.22	8140.38
390.42	8423.59
390.61	8819.14
390.81	9472.15
391.00	9685.14
391.19	9596.20
391.39	9291.93
391.58	8683.39
391.78	8301.88
391.97	7887.61
392.16	7372.69
392.36	6846.07
392.55	5493.24
392.75	4301.90
392.94	3527.19
393.13	3471.01
393.33	4119.34
393.52	5198.33
393.71	6509.03
393.91	7386.73
394.10	7861.86
394.29	8769.99
394.49	9320.01
394.68	10169.63
394.88	10197.71
395.07	10668.16
395.26	10581.56
395.46	10228.14
395.65	9486.19
395.84	8372.10
396.04	7002.88
396.23	5790.49
396.42	4774.69
396.62	4648.30
396.81	5460.47
397.00	6888.20
397.19	8517.21
397.39	10104.09
397.58	11431.18
397.77	12173.13
397.97	12791.03
398.16	12971.25
398.35	13165.51
398.55	13638.30
398.74	14022.15
398.93	14558.13
399.12	14155.56
399.32	13579.79
399.51	13888.74
399.70	14874.10
399.90	14415.36
400.09	14766.44
400.28	14614.30
400.47	14857.72
400.67	15597.33
400.86	16168.42
401.05	15978.84
401.24	15971.82
401.44	16421.20
401.63	16224.59
401.82	16273.74
402.01	16358.00
402.21	16678.66
402.40	16535.88
402.59	16065.44
402.78	15314.13
402.97	14848.36
403.17	15690.95
403.36	16409.50
403.55	17106.98
403.74	17558.70
403.93	16512.48
404.13	15602.01
404.32	15096.46
404.51	15812.66
404.70	16933.78
404.89	16800.37
405.09	16697.38
405.28	16266.72
405.47	16170.76
405.66	16205.87
405.85	15803.30
406.05	15335.19
406.24	15389.02
406.43	16168.42
406.62	17188.89
406.81	16912.71
407.00	16269.06
407.20	15990.54
407.39	16217.57
407.58	16744.19
407.77	17451.03
407.96	17678.07
408.15	18012.76
408.34	18185.96
408.54	19215.80
408.73	19044.94
408.92	19122.18
409.11	18401.29
409.30	17221.66
409.49	16386.09
409.68	15492.01
409.87	15129.22
410.07	15889.90
410.26	17078.89
410.45	18012.76
410.64	18733.65
410.83	18920.89
411.02	19515.39
411.21	20348.62
411.40	20011.58
411.59	20070.09
411.78	20009.24
411.98	19819.66
412.17	20135.63
412.36	19988.18
412.55	19915.62
412.74	19396.02
412.93	18838.97
413.12	19278.99
413.31	20837.79
413.50	21371.43
413.69	21427.60
413.88	20933.75
414.07	19702.63
414.26	20512.46
414.45	21216.96
414.64	20774.60
414.83	21177.17
415.02	20840.13
415.22	20863.54
415.41	21233.34
415.60	21944.86
415.79	22586.17
415.98	23583.24
416.17	23370.25
416.36	22363.82
416.55	22569.79
416.74	21827.84
416.93	21041.42
417.12	21018.01
417.31	21364.41
417.50	21376.11
417.69	22483.19
417.88	22363.82
418.07	22256.15
418.26	22052.53
418.45	21933.16
418.64	22686.81
418.83	23604.30
419.02	23206.41
419.21	23056.62
419.39	21891.03
419.58	20872.90
419.77	20936.09
419.96	21766.98
420.15	22895.12
420.34	23751.76
420.53	24538.18
420.72	24851.81
420.91	24884.58
421.10	24545.20
421.29	24283.06
421.48	23599.62
421.67	25053.09
421.86	24290.08
422.05	22450.42
422.24	20091.16
422.43	19838.38
422.61	21862.94
422.80	24046.66
422.99	23920.28
423.18	22920.87
423.37	22132.11
423.56	22499.57
423.75	22665.75
423.94	23264.92
424.13	22324.03
424.32	22518.29
424.50	22534.68
424.69	22237.43
424.88	22071.25
425.07	22291.26
425.26	22249.13
425.45	21947.20
425.64	21825.50
425.83	21408.88
426.01	22691.49
426.20	23346.84
426.39	23012.15
426.58	21343.35
426.77	19880.51
426.96	18735.99
427.15	19782.21
427.33	21518.89
427.52	22253.81
427.71	22635.32
427.90	22239.77
428.09	22249.13
428.28	21399.52
428.46	20865.88
428.65	20643.52
428.84	21123.33
429.03	21254.40
429.22	20159.03
429.40	19440.49
429.59	17331.67
429.78	15393.70
429.97	15751.81
430.16	15611.37
430.34	15927.35
430.53	15536.48
430.72	16091.18
430.91	17832.54
431.10	20826.09
431.28	24297.10
431.47	26307.62
431.66	26607.21
431.85	24451.58
432.03	22609.58
432.22	21315.26
432.41	22253.81
432.60	24844.79
432.79	25352.68
432.97	26045.48
433.16	25916.75
433.35	23388.97
433.54	21074.18
433.72	19934.34
433.91	20421.17
434.10	23037.89
434.28	24350.93
434.47	26064.21
434.66	25558.65
434.85	24847.13
435.03	24699.67
435.22	25158.42
435.41	26560.40
435.59	26764.03
435.78	27058.93
435.97	27936.63
436.16	28070.04
436.34	27400.65
436.53	27103.40
436.72	27267.24
436.90	25766.96
437.09	25645.25
437.28	25029.69
437.46	26354.43
437.65	26314.64
437.84	24336.89
438.02	22141.47
438.21	21848.90
438.40	23426.42
438.58	25467.37
438.77	26214.00
438.96	25816.11
439.14	27201.71
439.33	27990.47
439.52	28596.67
439.70	27866.42
439.89	27197.02
440.08	26419.97
440.26	26312.30
440.45	27314.05
440.63	28730.08
440.82	30017.37
441.01	30258.45
441.19	29579.69
441.38	30237.38
441.57	31267.22
441.75	32051.30
441.94	31761.07
442.12	31314.03
442.31	32245.56
442.50	32355.57
442.68	31515.31
442.87	31779.79
443.05	30962.95
443.24	31740.00
443.43	32397.70
443.61	32706.65
443.80	33472.00
443.98	31042.53
444.17	30885.71
444.35	32638.77
444.54	33413.49
444.73	32811.97
444.91	31732.98
445.10	30611.87
445.28	28856.46
445.47	28521.77
445.65	28669.22
445.84	29954.18
446.02	30810.81
446.21	31480.21
446.39	31412.33
446.58	31969.38
446.77	32301.73
446.95	32531.11
447.14	33652.22
447.32	34064.16
447.51	33380.72
447.69	32191.73
447.88	31239.13
448.06	32051.30
448.25	33039.00
448.43	33401.79
448.62	32236.20
448.80	32116.83
448.99	32250.24
449.17	32769.84
449.36	32308.76
449.54	34087.56
449.73	34342.68
449.91	34981.65
450.10	35522.31
450.28	36732.37
450.46	36065.31
450.65	36027.87
450.83	36187.02
451.02	35033.14
451.20	34876.32
451.39	34546.31
451.57	34698.44
451.76	34796.74
451.94	34127.35
452.13	33865.21
452.31	32463.23
452.49	30789.75
452.68	31115.08
452.86	31295.30
453.05	31976.40
453.23	32608.34
453.42	33092.83
453.60	34204.59
453.78	34534.60
453.97	34347.36
454.15	34291.19
454.34	33549.24
454.52	33184.12
454.70	32961.76
454.89	33195.82
455.07	33390.08
455.26	33607.75
455.44	35063.57
455.62	35777.43
455.81	35761.05
455.99	35604.23
456.17	35082.29
456.36	35503.59
456.54	36271.28
456.73	36168.30
456.91	37287.07
457.09	36971.10
457.28	37254.31
457.46	36481.93
457.64	35864.03
457.83	34817.81
458.01	33851.17
458.19	34979.31
458.38	35391.24
458.56	36046.59
458.74	36051.27
458.93	35468.48
459.11	35381.88
459.29	35407.62
459.48	35707.21
459.66	35164.21
459.84	35721.26
460.03	36135.53
460.21	36011.48
460.39	37184.09
460.57	36818.97
460.76	37436.87
460.94	37294.10
461.12	36966.42
461.31	37191.11
461.49	36825.99
461.67	37376.01
461.85	38387.13
462.04	37879.23
462.22	38164.78
462.40	38286.48
462.59	37734.12
462.77	37659.22
462.95	38223.29
463.13	37240.26
463.32	37305.80
463.50	36341.50
463.68	36809.61
463.86	36973.44
464.05	36388.31
464.23	35716.58
464.41	35620.61
464.59	34745.25
464.78	36652.79
464.96	36554.49
465.14	36175.32
465.32	36945.36
465.50	37977.53
465.69	38319.25
465.87	37490.70
466.05	36327.45
466.23	34976.97
466.41	34185.86
466.60	35185.27
466.78	35349.11
466.96	35831.26
467.14	36318.09
467.32	36884.50
467.51	36559.17
467.69	35463.80
467.87	35651.04
468.05	36575.55
468.23	36409.37
468.41	36397.67
468.60	36622.36
468.78	37333.89
468.96	36201.07
469.14	37172.39
469.32	37502.40
469.50	35828.92
469.69	36201.07
469.87	35456.78
470.05	35651.04
470.23	35665.08
470.41	35627.63
470.59	35941.27
470.77	36430.44
470.95	36992.17
471.14	37296.44
471.32	37516.45
471.50	39143.12
471.68	39615.91
471.86	40018.48
472.04	40088.70
472.22	40535.74
472.40	37853.48
472.58	37745.82
472.77	37563.26
472.95	38265.42
473.13	39201.63
473.31	38064.13
473.49	38450.32
473.67	38972.26
473.85	39655.70
474.03	40175.30
474.21	40795.54
474.39	41165.34
474.57	41020.23
474.75	41560.89
474.93	40666.81
475.12	39627.61
475.30	39735.27
475.48	40287.64
475.66	40444.46
475.84	40479.57
476.02	39697.83
476.20	39304.62
476.38	39950.60
476.56	41223.86
476.74	41476.63
476.92	42099.22
477.10	42803.72
477.28	43496.52
477.46	43704.82
477.64	44280.60
477.82	44423.37
478.00	44584.86
478.18	43952.92
478.36	43571.41
478.54	43728.23
478.72	44018.46
478.90	44435.07
479.08	45727.05
479.26	46375.37
479.44	45979.82
479.62	46174.09
479.80	45521.08
479.98	46237.28
480.16	46328.56
480.34	45837.05
480.52	46600.07
480.70	46806.03
480.88	46684.33
481.06	47229.67
481.24	47669.69
481.41	48687.82
481.59	49364.24
481.77	48980.39
481.95	48348.45
482.13	48095.67
482.31	48460.79
482.49	48741.66
482.67	48706.55
482.85	48800.17
483.03	49530.42
483.21	49347.86
483.39	49724.68
483.57	48872.73
483.74	49017.84
483.92	49298.70
484.10	49207.42
484.28	50071.08
484.46	50761.54
484.64	50728.77
484.82	49869.79
485.00	49621.70
485.18	49062.31
485.35	47620.54
485.53	44404.64
485.71	40629.36
485.89	40018.48
486.07	41799.63
486.25	45876.84
486.43	47885.02
486.61	48584.84
486.78	48514.62
486.96	48935.92
487.14	50108.53
487.32	51107.94
487.50	52193.95
487.68	52633.97
487.85	53221.44
488.03	53127.82
488.21	52556.73
488.39	52116.71
488.57	51517.53
488.75	51178.15
488.92	52177.56
489.10	54092.12
489.28	55395.80
489.46	56086.26
489.64	55959.87
489.81	56037.11
489.99	55683.69
490.17	55606.45
490.35	56053.49
490.53	55655.60
490.70	55231.96
490.88	54965.14
491.06	55957.53
491.24	56126.05
491.41	55028.34
491.59	53553.80
491.77	52633.97
491.95	53684.87
492.13	54951.10
492.30	55758.58
492.48	57055.24
492.66	57460.15
492.84	57216.74
493.01	57240.14
493.19	56636.28
493.37	56292.22
493.54	55999.66
493.72	56636.28
493.90	57535.05
494.08	58305.09
494.25	58365.94
494.43	58513.39
494.61	59032.99
494.79	59164.06
494.96	58789.58
495.14	58157.63
495.32	57722.29
495.49	56975.66
495.67	57516.32
495.85	59025.97
496.02	59416.84
496.20	59257.68
496.38	58532.12
496.55	58827.02
496.73	59402.80
496.91	59227.26
497.09	59990.27
497.26	59833.46
497.44	59339.60
497.62	59241.30
497.79	58183.38
497.97	57282.27
498.14	57237.80
498.32	58389.34
498.50	58988.52
498.67	59852.18
498.85	59543.23
499.03	59639.19
499.20	59910.69
499.38	60011.34
499.56	59781.96
499.73	59313.86
499.91	58941.71
500.08	58389.34
500.26	57883.79
500.44	58337.85
500.61	58997.88
500.79	58871.49
500.97	58426.79
501.14	58298.06
501.32	58078.05
501.49	57972.73
501.67	58379.98
501.84	58944.05
502.02	59070.44
502.20	59363.01
502.37	59646.21
502.55	59494.08
502.72	59987.93
502.90	60559.02
503.07	60322.63
503.25	59976.23
503.43	59192.15
503.60	58454.88
503.78	57942.30
503.95	58239.55
504.13	59711.75
504.30	60250.07
504.48	60170.49
504.65	59707.07
504.83	59737.49
505.01	60437.31
505.18	60844.57
505.36	61212.03
505.53	61317.35
505.71	61520.98
505.88	61600.56
506.06	61116.07
506.23	60685.41
506.41	60493.49
506.58	60453.70
506.76	60432.63
506.93	60456.04
507.11	60034.74
507.28	60336.67
507.46	59821.75
507.63	59353.65
507.81	59185.13
507.98	59278.75
508.16	60079.21
508.33	60573.06
508.50	60963.93
508.68	60952.23
508.85	61396.93
509.03	61712.91
509.20	61446.08
509.38	60853.93
509.55	60271.14
509.73	60165.81
509.90	60720.52
510.08	61022.45
510.25	60767.33
510.42	60722.86
510.60	60566.04
510.77	60837.54
510.95	61364.17
511.12	61418.00
511.30	61748.01
511.47	62024.20
511.64	61843.98
511.82	61701.20
511.99	60741.58
512.17	60315.61
512.34	60294.54
512.51	60353.05
512.69	60563.70
512.86	60711.16
513.04	60912.44
513.21	61036.49
513.38	60559.02
513.56	60076.87
513.73	59491.74
513.90	59721.11
514.08	59849.84
514.25	60111.98
514.43	60362.42
514.60	60453.70
514.77	60753.29
514.95	60804.78
515.12	60580.09
515.29	60882.02
515.47	61162.88
515.64	61343.10
515.81	61059.90
515.99	60364.76
516.16	59213.21
516.33	57446.11
516.51	55597.09
516.68	55089.19
516.85	54630.44
517.03	55018.97
517.20	57485.90
517.37	59601.74
517.54	60596.47
517.72	60381.14
517.89	58181.04
518.06	55882.63
518.24	56065.19
518.41	58150.61
518.58	59412.16
518.75	59423.86
518.93	59779.62
519.10	59583.02
519.27	60086.23
519.45	60289.86
519.62	60884.36
519.79	61300.97
519.96	61013.08
520.14	60729.88
520.31	59718.77
520.48	59833.46
520.65	60055.81
520.83	60949.89
521.00	61509.28
521.17	61013.08
521.34	60526.25
521.52	60994.36
521.69	61429.70
521.86	61904.83
522.03	61553.75
522.20	60397.52
522.38	59442.59
522.55	59318.54
522.72	59994.95
522.89	60196.24
523.07	60331.99
523.24	60736.90
523.41	61422.68
523.58	61792.48
523.75	62028.88
523.92	62026.54
524.10	61787.80
524.27	61881.42
524.44	61668.44
524.61	61443.74
524.78	61366.51
524.96	61254.16
525.13	61389.91
525.30	61558.43
525.47	62101.43
525.64	61771.42
525.81	61251.82
525.98	60009.00
526.16	58724.04
526.33	57916.56
526.50	57633.35
526.67	57504.62
526.84	57923.58
527.01	58782.55
527.18	59554.93
527.36	60236.03
527.53	61176.92
527.70	61511.62
527.87	60750.94
528.04	60507.53
528.21	60842.23
528.38	61745.67
528.55	62169.31
528.72	62164.63
528.89	62546.14
529.07	62246.55
529.24	61811.21
529.41	60959.25
529.58	60390.50
529.75	60767.33
529.92	61029.47
530.09	61436.72
530.26	61914.19
530.43	62003.13
530.60	62204.42
530.77	62314.42
530.94	62504.01
531.11	61982.07
531.28	61553.75
531.46	61530.34
531.63	61726.95
531.80	61574.81
531.97	61010.74
532.14	60617.53
532.31	59484.72
532.48	58890.22
532.65	58827.02
532.82	59765.58
532.99	60781.37
533.16	61073.94
533.33	61595.88
533.50	61350.12
533.67	60823.50
533.84	60210.28
534.01	60711.16
534.18	60554.34
534.35	61010.74
534.52	60851.59
534.69	61200.33
534.86	61298.63
535.03	61705.88
535.20	61935.26
535.37	62267.61
535.54	62543.80
535.71	62096.75
535.88	61675.46
536.05	61212.03
536.22	60839.89
536.38	60427.95
536.55	60076.87
536.72	59784.30
536.89	59590.04
537.06	60243.05
537.23	61181.60
537.40	61422.68
537.57	61425.02
537.74	61120.75
537.91	60926.49
538.08	60935.85
538.25	60992.02
538.42	61120.75
538.59	60952.23
538.75	60390.50
538.92	59976.23
539.09	60090.91
539.26	59821.75
539.43	59700.04
539.60	59803.03
539.77	59971.55
539.94	59938.78
540.11	59114.91
540.28	58752.13
540.44	59035.33
540.61	59131.29
540.78	59231.94
540.95	59606.42
541.12	59952.82
541.29	60210.28
541.46	60612.85
541.62	60699.45
541.79	60308.58
541.96	59938.78
542.13	59845.16
542.30	60093.25
542.47	60306.24
542.63	60109.64
542.80	59924.74
542.97	59753.88
543.14	59920.05
543.31	59770.26
543.48	60444.33
543.64	61146.50
543.81	61371.19
543.98	61080.96
544.15	60575.40
544.32	60097.94
544.48	60044.10
544.65	60308.58
544.82	60863.29
544.99	60542.64
545.16	60217.30
545.32	59980.91
545.49	60629.24
545.66	60879.67
545.83	60650.30
546.00	60385.82
546.16	60004.31
546.33	60093.25
546.50	60051.12
546.67	60573.06
546.83	60053.47
547.00	60142.41
547.17	59564.29
547.34	59133.63
547.50	59065.76
547.67	59440.24
547.84	59414.50
548.00	59788.98
548.17	60116.66
548.34	60048.78
548.51	60088.57
548.67	60196.24
548.84	60191.56
549.01	60034.74
549.18	60020.70
549.34	59751.54
549.51	60006.65
549.68	60013.68
549.84	59662.60
550.01	59634.51
550.18	59316.20
550.34	59777.28
550.51	59552.59
550.68	59693.02
550.84	59157.04
551.01	59271.73
551.18	59278.75
551.34	59587.70
551.51	59922.40
551.68	60128.36
551.84	60217.30
552.01	59990.27
552.18	59898.99
552.34	59110.23
552.51	58583.61
552.68	58534.46
552.84	59250.66
553.01	59199.17
553.18	59196.83
553.34	59220.23
553.51	59517.48
553.67	59639.19
553.84	59870.90
554.01	59716.43
554.17	59327.90
554.34	59564.29
554.51	59671.96
554.67	59964.52
554.84	59796.01
555.00	59480.03
555.17	59206.19
555.33	59285.77
555.50	59365.35
555.67	59407.48
555.83	59194.49
556.00	58702.98
556.16	58754.47
556.33	58541.48
556.50	58295.72
556.66	58340.19
556.83	58195.08
556.99	58232.53
557.16	58569.57
557.32	58485.31
557.49	58850.43
557.65	58628.08
557.82	58721.70
557.98	58674.89
558.15	58124.86
558.32	57549.09
558.48	56692.46
558.65	56690.12
558.81	57172.27
558.98	57492.92
559.14	57750.38
559.31	57855.70
559.47	57911.88
559.64	57186.31
559.80	57109.07
559.97	57144.18
560.13	57361.85
560.30	58342.53
560.46	58820.00
560.63	59334.92
560.79	59112.57
560.96	58705.32
561.12	57724.63
561.29	57013.11
561.45	57073.96
561.61	57411.00
561.78	57757.40
561.94	57750.38
562.11	57642.71
562.27	57656.76
562.44	57776.12
562.60	57914.22
562.77	58232.53
562.93	58066.35
563.10	57989.11
563.26	57443.77
563.42	57516.32
563.59	57296.31
563.75	57331.42
563.92	57645.05
564.08	57368.87
564.24	57537.39
564.41	57460.15
564.57	57448.45
564.74	57324.40
564.90	57317.38
565.07	57125.46
565.23	56591.81
565.39	56378.82
565.56	56023.06
565.72	55732.84
565.88	56416.27
566.05	56339.04
566.21	56573.09
566.38	56807.14
566.54	56554.36
566.70	57272.91
566.87	57141.84
567.03	57338.44
567.19	57490.58
567.36	57488.24
567.52	57263.55
567.68	56966.30
567.85	56465.42
568.01	55915.40
568.17	55767.94
568.34	55501.12
568.50	55571.34
568.66	55704.75
568.83	55978.59
568.99	56179.88
569.15	56446.70
569.32	56212.65
569.48	56051.15
569.64	56044.13
569.81	55494.10
569.97	55550.27
570.13	55608.79
570.30	54969.82
570.46	54756.83
570.62	54078.08
570.78	53890.83
570.95	54389.37
571.11	55152.38
571.27	55220.26
571.43	55426.23
571.60	55592.40
571.76	55774.97
571.92	56027.74
572.09	56189.24
572.25	56275.84
572.41	56130.73
572.57	55980.93
572.74	56020.72
572.90	55470.70
573.06	55547.93
573.22	55594.74
573.38	55522.19
573.55	55784.33
573.71	55772.63
573.87	55800.71
574.03	55451.97
574.20	55318.56
574.36	54894.92
574.52	55128.98
574.68	54866.84
574.84	54688.96
575.01	53876.79
575.17	53998.50
575.33	54204.47
575.49	54403.41
575.65	54796.62
575.82	54485.33
575.98	54326.17
576.14	54429.16
576.30	54901.95
576.46	54967.48
576.62	54602.36
576.79	54609.38
576.95	54501.71
577.11	54171.70
577.27	54475.97
577.43	54691.30
577.59	54267.66
577.75	53965.73
577.92	53291.66
578.08	52781.42
578.24	53172.29
578.40	53319.74
578.56	53598.27
578.72	53593.59
578.88	54082.76
579.04	53609.97
579.21	53998.50
579.37	54213.83
579.53	53918.92
579.69	54131.91
579.85	54113.19
580.01	54141.27
580.17	53642.74
580.33	53556.14
580.49	53893.18
580.65	53937.65
580.82	54129.57
580.98	53963.39
581.14	54007.86
581.30	53818.28
581.46	53792.53
581.62	54129.57
581.78	54232.55
581.94	54270.00
582.10	54300.43
582.26	54103.82
582.42	54080.42
582.58	54277.02
582.74	54047.65
582.90	54375.33
583.06	54160.00
583.22	53820.62
583.38	54014.88
583.54	53961.05
583.70	53839.34
583.86	53815.94
584.02	53584.22
584.18	53794.87
584.34	53673.16
584.50	53607.63
584.66	53404.00
584.82	53181.65
584.98	53169.95
585.14	52648.01
