SpectraSuite Data File
++++++++++++++++++++++++++++++++++++
Date: Mon Oct 07 14:53:08 GMT-05:00 2013
User: price-jones
Dark Spectrum Present: No
Reference Spectrum Present: No
Number of Sampled Component Spectra: 1
Spectrometers: USB2+H05261
Integration Time (usec): 100000 (USB2+H05261)
Spectra Averaged: 1 (USB2+H05261)
Boxcar Smoothing: 0 (USB2+H05261)
Correct for Electrical Dark: No (USB2+H05261)
Strobe/Lamp Enabled: No (USB2+H05261)
Correct for Detector Non-linearity: No (USB2+H05261)
Correct for Stray Light: No (USB2+H05261)
Number of Pixels in Processed Spectrum: 2048
>>>>>Begin Processed Spectral Data<<<<<
365.73	0.00
365.92	0.00
366.12	0.00
366.32	0.00
366.52	0.00
366.72	0.00
366.91	0.00
367.11	0.00
367.31	0.00
367.51	0.00
367.70	0.00
367.90	0.00
368.10	0.00
368.30	0.00
368.49	0.00
368.69	0.00
368.89	0.00
369.09	0.00
369.28	0.00
369.48	0.00
369.68	0.00
369.87	0.00
370.07	0.00
370.27	0.00
370.47	1217.08
370.66	5095.35
370.86	6377.96
371.06	6686.91
371.25	6502.01
371.45	5900.49
371.65	5303.65
371.84	5102.37
372.04	5483.88
372.24	6083.05
372.44	6176.67
372.63	6080.71
372.83	5661.76
373.03	5032.15
373.22	4617.88
373.42	4971.30
373.62	5722.61
373.81	6174.33
374.01	5926.24
374.21	5603.24
374.40	4990.02
374.60	5401.96
374.79	6193.06
374.99	7108.21
375.19	7410.14
375.38	7286.09
375.58	7052.03
375.78	6918.62
375.97	7019.27
376.17	7286.09
376.37	7222.89
376.56	7517.80
376.76	7850.16
376.95	8149.75
377.15	8760.63
377.35	9188.94
377.54	9502.58
377.74	9696.84
377.93	9783.44
378.13	9458.10
378.33	8851.91
378.52	8285.50
378.72	8039.74
378.91	7672.28
379.11	7389.07
379.31	7405.46
379.50	7339.92
379.70	8074.85
379.89	8877.65
380.09	9181.92
380.28	9617.26
380.48	9434.70
380.68	9376.19
380.87	9043.83
381.07	8407.20
381.26	7639.51
381.46	7265.02
381.65	7033.31
381.85	6930.33
382.04	6450.52
382.24	6204.76
382.43	5959.00
382.63	5769.42
382.83	5802.19
383.02	5823.25
383.22	5778.78
383.41	5811.55
383.61	6186.04
383.80	7098.84
384.00	8032.72
384.19	8936.17
384.39	9280.22
384.58	9167.88
384.78	9231.07
384.97	8978.30
385.17	8669.34
385.36	8030.38
385.56	7913.35
385.75	8100.59
385.95	8828.50
386.14	9425.34
386.34	9708.54
386.53	9224.05
386.72	8489.12
386.92	8664.66
387.11	9200.65
387.31	9486.19
387.50	9282.56
387.70	9050.85
387.89	9135.11
388.09	8954.89
388.28	9107.02
388.48	9090.64
388.67	9984.73
388.86	11005.20
389.06	11679.27
389.25	11971.84
389.45	12400.16
389.64	12435.27
389.84	11929.71
390.03	12006.95
390.22	11953.12
390.42	12351.01
390.61	13174.88
390.81	14129.81
391.00	14483.24
391.19	14167.26
391.39	13785.76
391.58	12692.73
391.78	11906.31
391.97	11522.46
392.16	10693.91
392.36	9647.69
392.55	7918.03
392.75	6380.30
392.94	5158.54
393.13	5242.80
393.33	6260.93
393.52	7964.84
393.71	9628.96
393.91	10918.60
394.10	11660.55
394.29	12905.71
394.49	13549.36
394.68	15009.86
394.88	14956.02
395.07	15339.87
395.26	15183.06
395.46	14548.77
395.65	14005.77
395.84	12273.77
396.04	10015.15
396.23	8292.52
396.42	6918.62
396.62	6909.26
396.81	8039.74
397.00	10183.67
397.19	12697.41
397.39	15264.97
397.58	17111.66
397.77	18136.81
397.97	18464.49
398.16	18951.32
398.35	19573.90
398.55	19960.09
398.74	20570.97
398.93	21235.68
399.12	20788.64
399.32	20266.70
399.51	20669.27
399.70	22244.45
399.90	21731.87
400.09	21666.34
400.28	21582.08
400.47	21612.51
400.67	22855.33
400.86	23201.73
401.05	23295.35
401.24	23222.80
401.44	23658.14
401.63	23304.71
401.82	23896.87
402.01	24107.52
402.21	23899.21
402.40	24269.01
402.59	23241.52
402.78	22459.78
402.97	21928.48
403.17	22696.17
403.36	24144.97
403.55	24891.60
403.74	25266.08
403.93	24133.26
404.13	22073.59
404.32	21802.09
404.51	23101.09
404.70	24439.87
404.89	24559.24
405.09	24126.24
405.28	23454.51
405.47	23515.36
405.66	23653.45
405.85	23051.94
406.05	22223.39
406.24	22815.54
406.43	23625.37
406.62	24346.25
406.81	24648.18
407.00	23585.58
407.20	23159.60
407.39	23360.89
407.58	24566.26
407.77	25069.48
407.96	26087.61
408.15	26562.74
408.34	26190.59
408.54	27723.65
408.73	27833.65
408.92	26960.63
409.11	26230.38
409.30	25362.04
409.49	23351.52
409.68	22263.18
409.87	21633.57
410.07	23180.67
410.26	24409.45
410.45	26525.29
410.64	27033.19
410.83	28009.19
411.02	28386.02
411.21	29397.13
411.40	28800.29
411.59	28814.34
411.78	29022.64
411.98	28390.70
412.17	28975.83
412.36	28652.84
412.55	28884.55
412.74	27864.08
412.93	27393.63
413.12	27714.28
413.31	30654.00
413.50	30738.26
413.69	31161.89
413.88	29907.37
414.07	29090.52
414.26	29605.44
414.45	31068.27
414.64	30448.03
414.83	30829.54
415.02	29717.78
415.22	30181.21
415.41	31021.46
415.60	31840.65
415.79	32900.91
415.98	33317.53
416.17	33516.47
416.36	32947.72
416.55	31896.82
416.74	31461.48
416.93	30335.68
417.12	30237.38
417.31	30864.64
417.50	31276.58
417.69	32128.53
417.88	31784.48
418.07	31948.31
418.26	31276.58
418.45	31854.69
418.64	32673.88
418.83	33699.03
419.02	33062.41
419.21	32776.86
419.39	31690.85
419.58	30349.73
419.77	30239.72
419.96	31957.67
420.15	33497.75
420.34	34637.59
420.53	35342.09
420.72	36079.36
420.91	35906.16
421.10	35257.83
421.29	35009.73
421.48	33525.83
421.67	35557.42
421.86	34087.56
422.05	31798.52
422.24	28828.38
422.43	29106.90
422.61	31784.48
422.80	34073.52
422.99	34445.66
423.18	32940.70
423.37	32444.51
423.56	32889.21
423.75	33081.13
423.94	33881.60
424.13	32074.70
424.32	32095.77
424.50	32573.24
424.69	31952.99
424.88	32390.67
425.07	32247.90
425.26	32348.54
425.45	31901.50
425.64	31136.15
425.83	31456.80
426.01	33209.86
426.20	33427.53
426.39	33254.33
426.58	30607.19
426.77	28318.14
426.96	27257.88
427.15	29090.52
427.33	31428.71
427.52	32210.45
427.71	32535.79
427.90	31667.45
428.09	31562.12
428.28	31220.41
428.46	29935.45
428.65	29514.16
428.84	30663.36
429.03	31182.96
429.22	29172.44
429.40	27424.06
429.59	25078.84
429.78	22125.08
429.97	22232.75
430.16	22979.38
430.34	22719.58
430.53	22953.63
430.72	23180.67
430.91	26258.47
431.10	30314.62
431.28	35878.07
431.47	38298.19
431.66	38693.74
431.85	34789.72
432.03	32163.64
432.22	31007.42
432.41	32783.88
432.60	35964.67
432.79	36875.14
432.97	37638.15
433.16	36648.11
433.35	33614.77
433.54	30141.42
433.72	28481.98
433.91	29907.37
434.10	33535.20
434.28	35711.89
434.47	36884.50
434.66	36446.82
434.85	35489.54
435.03	35655.72
435.22	36264.26
435.41	38403.51
435.59	38169.46
435.78	39161.84
435.97	39814.85
436.16	39913.16
436.34	39674.42
436.53	38944.17
436.72	38569.69
436.90	36790.88
437.09	37158.34
437.28	36371.92
437.46	37343.25
437.65	37408.78
437.84	34389.49
438.02	32456.21
438.21	32161.30
438.40	34103.95
438.58	36795.56
438.77	37425.17
438.96	37425.17
439.14	39299.94
439.33	40697.24
439.52	40589.57
439.70	39924.86
439.89	38646.93
440.08	37954.13
440.26	37982.21
440.45	39524.63
440.63	41516.42
440.82	43866.32
441.01	42822.44
441.19	42766.27
441.38	43660.35
441.57	44800.19
441.75	44737.00
441.94	45319.79
442.12	45251.92
442.31	45893.22
442.50	45794.92
442.68	45830.03
442.87	44645.72
443.05	44308.68
443.24	45235.53
443.43	45404.05
443.61	46293.46
443.80	46703.05
443.98	44236.12
444.17	44362.51
444.35	46230.26
444.54	47428.62
444.73	46827.10
444.91	44996.80
445.10	43587.80
445.28	41947.08
445.47	41439.18
445.65	41841.76
445.84	42635.20
446.02	44392.94
446.21	44940.63
446.39	44910.20
446.58	45237.87
446.77	45851.09
446.95	46490.06
447.14	47564.37
447.32	47690.76
447.51	47274.14
447.69	45579.59
447.88	45265.96
448.06	45338.52
448.25	47021.36
448.43	46873.91
448.62	45972.80
448.80	46085.15
448.99	46316.86
449.17	46239.62
449.36	46543.89
449.54	47903.74
449.73	48388.24
449.91	48900.81
450.10	49734.04
450.28	50370.67
450.46	50209.17
450.65	50314.50
450.83	49954.05
451.02	49174.66
451.20	49076.35
451.39	49165.29
451.57	49144.23
451.76	48769.74
451.94	48109.71
452.13	47522.24
452.31	45918.97
452.49	44268.89
452.68	44711.25
452.86	44809.56
453.05	45277.66
453.23	46424.53
453.42	47501.17
453.60	48154.18
453.78	48282.91
453.97	48411.64
454.15	48271.21
454.34	47716.50
454.52	48069.92
454.70	46820.08
454.89	47274.14
455.07	47215.63
455.26	47840.55
455.44	49780.85
455.62	50061.72
455.81	50452.59
455.99	49834.69
456.17	49542.12
456.36	49645.10
456.54	50567.27
456.73	50518.12
456.91	51178.15
457.09	51208.58
457.28	51999.68
457.46	50169.38
457.64	50024.27
457.83	48486.54
458.01	48655.06
458.19	49584.25
458.38	49745.75
458.56	50714.73
458.74	50508.76
458.93	50075.76
459.11	49813.62
459.29	49638.08
459.48	49385.30
459.66	49457.86
459.84	49876.82
460.03	50548.55
460.21	50169.38
460.39	51140.71
460.57	51194.54
460.76	51763.29
460.94	51725.84
461.12	51129.00
461.31	51599.45
461.49	51437.95
461.67	51487.10
461.85	52133.09
462.04	51931.81
462.22	52399.91
462.40	52051.17
462.59	51973.94
462.77	52175.22
462.95	51987.98
463.13	51529.23
463.32	51379.44
463.50	51037.72
463.68	51447.32
463.86	51501.15
464.05	50955.80
464.23	50157.68
464.41	50117.89
464.59	49511.69
464.78	50934.74
464.96	51061.13
465.14	50497.06
465.32	51341.99
465.50	52250.12
465.69	52582.48
465.87	51732.86
466.05	51145.39
466.23	49254.23
466.41	48355.47
466.60	49731.70
466.78	49813.62
466.96	50417.48
467.14	50850.48
467.32	51515.19
467.51	51288.16
467.69	49876.82
467.87	49998.52
468.05	50904.31
468.23	50916.01
468.41	51054.11
468.60	51140.71
468.78	51447.32
468.96	50836.44
469.14	51995.00
469.32	51592.43
469.50	50440.89
469.69	50309.82
469.87	49780.85
470.05	49822.98
470.23	49984.48
470.41	49642.76
470.59	50820.05
470.77	50644.51
470.95	51585.41
471.14	52137.77
471.32	51789.03
471.50	53418.05
471.68	54028.93
471.86	54152.97
472.04	53965.73
472.22	53719.98
472.40	52383.53
472.58	52435.02
472.77	51924.78
472.95	52603.54
473.13	53413.37
473.31	52456.09
473.49	53031.86
473.67	53600.61
473.85	53930.62
474.03	54412.77
474.21	54188.08
474.39	54752.15
474.57	54885.56
474.75	54625.76
474.93	54312.13
475.12	53794.87
475.30	53939.99
475.48	54106.16
475.66	54340.22
475.84	53925.94
476.02	53757.42
476.20	53244.85
476.38	53925.94
476.56	55023.65
476.74	55449.63
476.92	55318.56
477.10	55997.32
477.28	56676.07
477.46	56692.46
477.64	56814.16
477.82	56926.51
478.00	57127.80
478.18	56355.42
478.36	56690.12
478.54	56760.33
478.72	56830.55
478.90	57511.64
479.08	58052.31
479.26	58379.98
479.44	58436.16
479.62	58188.06
479.80	58192.74
479.98	58335.51
480.16	58312.11
480.34	58078.05
480.52	58227.85
480.70	58555.52
480.88	58710.00
481.06	59018.95
481.24	59299.81
481.41	59788.98
481.59	60177.51
481.77	59969.21
481.95	59721.11
482.13	59470.67
482.31	59728.13
482.49	60032.40
482.67	59978.57
482.85	60207.94
483.03	60357.74
483.21	60713.50
483.39	60750.94
483.57	59999.63
483.74	60123.68
483.92	60446.68
484.10	60395.18
484.28	60851.59
484.46	61066.92
484.64	61558.43
484.82	60690.09
485.00	60662.00
485.18	59943.46
485.35	59091.51
485.53	57172.27
485.71	54550.87
485.89	54401.07
486.07	56079.24
486.25	58085.07
486.43	59517.48
486.61	59934.10
486.78	59957.50
486.96	60294.54
487.14	61172.24
487.32	61616.94
487.50	62333.15
487.68	62878.49
487.85	63096.16
488.03	63222.55
488.21	62911.26
488.39	62429.11
488.57	61965.68
488.75	61675.46
488.92	62705.29
489.10	64254.73
489.28	64898.37
489.46	65394.57
489.64	65219.03
489.81	65481.17
489.99	65022.42
490.17	65202.64
490.35	65535.00
490.53	65102.00
490.70	65134.77
490.88	64865.61
491.06	65535.00
491.24	65434.36
491.41	64802.41
491.59	63618.10
491.77	63166.38
491.95	63962.16
492.13	64694.75
492.30	65535.00
492.48	65535.00
492.66	65535.00
492.84	65535.00
493.01	65535.00
493.19	65535.00
493.37	65535.00
493.54	65535.00
493.72	65535.00
493.90	65535.00
494.08	65535.00
494.25	65535.00
494.43	65535.00
494.61	65535.00
494.79	65535.00
494.96	65535.00
495.14	65535.00
495.32	65535.00
495.49	65535.00
495.67	65535.00
495.85	65535.00
496.02	65535.00
496.20	65535.00
496.38	65535.00
496.55	65535.00
496.73	65535.00
496.91	65535.00
497.09	65535.00
497.26	65535.00
497.44	65535.00
497.62	65535.00
497.79	65535.00
497.97	65535.00
498.14	65535.00
498.32	65535.00
498.50	65535.00
498.67	65535.00
498.85	65535.00
499.03	65535.00
499.20	65535.00
499.38	65535.00
499.56	65535.00
499.73	65535.00
499.91	65535.00
500.08	65535.00
500.26	65535.00
500.44	65535.00
500.61	65535.00
500.79	65535.00
500.97	65535.00
501.14	65535.00
501.32	65535.00
501.49	65535.00
501.67	65535.00
501.84	65535.00
502.02	65535.00
502.20	65535.00
502.37	65535.00
502.55	65535.00
502.72	65535.00
502.90	65535.00
503.07	65535.00
503.25	65535.00
503.43	65535.00
503.60	65535.00
503.78	65535.00
503.95	65535.00
504.13	65535.00
504.30	65535.00
504.48	65535.00
504.65	65535.00
504.83	65535.00
505.01	65535.00
505.18	65535.00
505.36	65535.00
505.53	65535.00
505.71	65535.00
505.88	65535.00
506.06	65535.00
506.23	65535.00
506.41	65535.00
506.58	65535.00
506.76	65535.00
506.93	65535.00
507.11	65535.00
507.28	65535.00
507.46	65535.00
507.63	65535.00
507.81	65535.00
507.98	65535.00
508.16	65535.00
508.33	65535.00
508.50	65535.00
508.68	65535.00
508.85	65535.00
509.03	65535.00
509.20	65535.00
509.38	65535.00
509.55	65535.00
509.73	65535.00
509.90	65535.00
510.08	65535.00
510.25	65535.00
510.42	65535.00
510.60	65535.00
510.77	65535.00
510.95	65535.00
511.12	65535.00
511.30	65535.00
511.47	65535.00
511.64	65535.00
511.82	65535.00
511.99	65535.00
512.17	65535.00
512.34	65535.00
512.51	65535.00
512.69	65535.00
512.86	65535.00
513.04	65535.00
513.21	65535.00
513.38	65535.00
513.56	65535.00
513.73	65535.00
513.90	65535.00
514.08	65535.00
514.25	65535.00
514.43	65535.00
514.60	65535.00
514.77	65535.00
514.95	65535.00
515.12	65535.00
515.29	65535.00
515.47	65535.00
515.64	65535.00
515.81	65535.00
515.99	65535.00
516.16	65535.00
516.33	65535.00
516.51	65535.00
516.68	65535.00
516.85	64757.94
517.03	65151.15
517.20	65535.00
517.37	65535.00
517.54	65535.00
517.72	65535.00
517.89	65535.00
518.06	65535.00
518.24	65535.00
518.41	65535.00
518.58	65535.00
518.75	65535.00
518.93	65535.00
519.10	65535.00
519.27	65535.00
519.45	65535.00
519.62	65535.00
519.79	65535.00
519.96	65535.00
520.14	65535.00
520.31	65535.00
520.48	65535.00
520.65	65535.00
520.83	65535.00
521.00	65535.00
521.17	65535.00
521.34	65535.00
521.52	65535.00
521.69	65535.00
521.86	65535.00
522.03	65535.00
522.20	65535.00
522.38	65535.00
522.55	65535.00
522.72	65535.00
522.89	65535.00
523.07	65535.00
523.24	65535.00
523.41	65535.00
523.58	65535.00
523.75	65535.00
523.92	65535.00
524.10	65535.00
524.27	65535.00
524.44	65535.00
524.61	65535.00
524.78	65535.00
524.96	65535.00
525.13	65535.00
525.30	65535.00
525.47	65535.00
525.64	65535.00
525.81	65535.00
525.98	65535.00
526.16	65535.00
526.33	65535.00
526.50	65535.00
526.67	65535.00
526.84	65535.00
527.01	65535.00
527.18	65535.00
527.36	65535.00
527.53	65535.00
527.70	65535.00
527.87	65535.00
528.04	65535.00
528.21	65535.00
528.38	65535.00
528.55	65535.00
528.72	65535.00
528.89	65535.00
529.07	65535.00
529.24	65535.00
529.41	65535.00
529.58	65535.00
529.75	65535.00
529.92	65535.00
530.09	65535.00
530.26	65535.00
530.43	65535.00
530.60	65535.00
530.77	65535.00
530.94	65535.00
531.11	65535.00
531.28	65535.00
531.46	65535.00
531.63	65535.00
531.80	65535.00
531.97	65535.00
532.14	65535.00
532.31	65535.00
532.48	65535.00
532.65	65535.00
532.82	65535.00
532.99	65535.00
533.16	65535.00
533.33	65535.00
533.50	65535.00
533.67	65535.00
533.84	65535.00
534.01	65535.00
534.18	65535.00
534.35	65535.00
534.52	65535.00
534.69	65535.00
534.86	65535.00
535.03	65535.00
535.20	65535.00
535.37	65535.00
535.54	65535.00
535.71	65535.00
535.88	65535.00
536.05	65535.00
536.22	65535.00
536.38	65535.00
536.55	65535.00
536.72	65535.00
536.89	65535.00
537.06	65535.00
537.23	65535.00
537.40	65535.00
537.57	65535.00
537.74	65535.00
537.91	65535.00
538.08	65535.00
538.25	65535.00
538.42	65535.00
538.59	65535.00
538.75	65535.00
538.92	65535.00
539.09	65535.00
539.26	65535.00
539.43	65535.00
539.60	65535.00
539.77	65535.00
539.94	65535.00
540.11	65535.00
540.28	65535.00
540.44	65535.00
540.61	65535.00
540.78	65535.00
540.95	65535.00
541.12	65535.00
541.29	65535.00
541.46	65535.00
541.62	65535.00
541.79	65535.00
541.96	65535.00
542.13	65535.00
542.30	65535.00
542.47	65535.00
542.63	65535.00
542.80	65535.00
542.97	65535.00
543.14	65535.00
543.31	65535.00
543.48	65535.00
543.64	65535.00
543.81	65535.00
543.98	65535.00
544.15	65535.00
544.32	65535.00
544.48	65535.00
544.65	65535.00
544.82	65535.00
544.99	65535.00
545.16	65535.00
545.32	65535.00
545.49	65535.00
545.66	65535.00
545.83	65535.00
546.00	65535.00
546.16	65535.00
546.33	65535.00
546.50	65535.00
546.67	65535.00
546.83	65535.00
547.00	65535.00
547.17	65535.00
547.34	65535.00
547.50	65535.00
547.67	65535.00
547.84	65535.00
548.00	65535.00
548.17	65535.00
548.34	65535.00
548.51	65535.00
548.67	65535.00
548.84	65535.00
549.01	65535.00
549.18	65535.00
549.34	65535.00
549.51	65535.00
549.68	65535.00
549.84	65535.00
550.01	65535.00
550.18	65535.00
550.34	65535.00
550.51	65535.00
550.68	65535.00
550.84	65535.00
551.01	65535.00
551.18	65535.00
551.34	65535.00
551.51	65535.00
551.68	65535.00
551.84	65535.00
552.01	65535.00
552.18	65535.00
552.34	65535.00
552.51	65535.00
552.68	65535.00
552.84	65535.00
553.01	65535.00
553.18	65535.00
553.34	65535.00
553.51	65535.00
553.67	65535.00
553.84	65535.00
554.01	65535.00
554.17	65535.00
554.34	65535.00
554.51	65535.00
554.67	65535.00
554.84	65535.00
555.00	65535.00
555.17	65535.00
555.33	65535.00
555.50	65535.00
555.67	65535.00
555.83	65535.00
556.00	65535.00
556.16	65535.00
556.33	65535.00
556.50	65535.00
556.66	65535.00
556.83	65535.00
556.99	65535.00
557.16	65535.00
557.32	65535.00
557.49	65535.00
557.65	65535.00
557.82	65535.00
557.98	65535.00
558.15	65535.00
558.32	65535.00
558.48	65535.00
558.65	65535.00
558.81	65535.00
558.98	65535.00
559.14	65535.00
559.31	65535.00
559.47	65535.00
559.64	65535.00
559.80	65535.00
559.97	65535.00
560.13	65535.00
560.30	65535.00
560.46	65535.00
560.63	65535.00
560.79	65535.00
560.96	65535.00
561.12	65535.00
561.29	65535.00
561.45	65535.00
561.61	65535.00
561.78	65535.00
561.94	65535.00
562.11	65535.00
562.27	65535.00
562.44	65535.00
562.60	65535.00
562.77	65535.00
562.93	65535.00
563.10	65535.00
563.26	65535.00
563.42	65535.00
563.59	65535.00
563.75	65535.00
563.92	65535.00
564.08	65535.00
564.24	65535.00
564.41	65535.00
564.57	65535.00
564.74	65535.00
564.90	65535.00
565.07	65535.00
565.23	65535.00
565.39	65535.00
565.56	65535.00
565.72	65535.00
565.88	65535.00
566.05	65535.00
566.21	65535.00
566.38	65535.00
566.54	65535.00
566.70	65535.00
566.87	65535.00
567.03	65535.00
567.19	65535.00
567.36	65535.00
567.52	65535.00
567.68	65535.00
567.85	65535.00
568.01	65535.00
568.17	65535.00
568.34	65535.00
568.50	65535.00
568.66	65535.00
568.83	65535.00
568.99	65535.00
569.15	65535.00
569.32	65535.00
569.48	65535.00
569.64	65535.00
569.81	65535.00
569.97	65535.00
570.13	65535.00
570.30	65535.00
570.46	65382.87
570.62	65062.21
570.78	64837.52
570.95	65242.43
571.11	65535.00
571.27	65535.00
571.43	65535.00
571.60	65535.00
571.76	65535.00
571.92	65535.00
572.09	65535.00
572.25	65535.00
572.41	65535.00
572.57	65535.00
572.74	65535.00
572.90	65535.00
573.06	65535.00
573.22	65535.00
573.38	65535.00
573.55	65535.00
573.71	65535.00
573.87	65535.00
574.03	65535.00
574.20	65535.00
574.36	65535.00
574.52	65535.00
574.68	65535.00
574.84	65375.84
575.01	64764.96
575.17	64793.05
575.33	65214.35
575.49	65462.44
575.65	65535.00
575.82	65413.29
575.98	65017.74
576.14	65237.75
576.30	65513.94
576.46	65535.00
576.62	65331.37
576.79	65535.00
576.95	65249.45
577.11	65165.20
577.27	65272.86
577.43	65375.84
577.59	64839.86
577.75	64573.04
577.92	64039.40
578.08	64083.87
578.24	64334.31
578.40	64493.46
578.56	64385.80
578.72	64404.52
578.88	64661.98
579.04	64849.22
579.21	64947.53
579.37	64762.62
579.53	65003.70
579.69	64942.84
579.85	65158.17
580.01	64914.76
580.17	64619.85
580.33	64292.18
580.49	64594.10
580.65	64945.18
580.82	65022.42
580.98	65022.42
581.14	64736.88
581.30	64816.46
581.46	64828.16
581.62	65080.94
581.78	64987.31
581.94	65310.31
582.10	65130.09
582.26	65188.60
582.42	65284.56
582.58	65277.54
582.74	65244.77
582.90	65162.85
583.06	65120.73
583.22	65010.72
583.38	64804.75
583.54	64994.34
583.70	64839.86
583.86	64992.00
584.02	64706.45
584.18	65041.15
584.34	64661.98
584.50	64690.07
584.66	64718.15
584.82	64362.39
