SpectraSuite Data File
++++++++++++++++++++++++++++++++++++
Date: Mon Oct 07 14:54:55 GMT-05:00 2013
User: price-jones
Dark Spectrum Present: No
Reference Spectrum Present: No
Number of Sampled Component Spectra: 1
Spectrometers: USB2+H05261
Integration Time (usec): 10000 (USB2+H05261)
Spectra Averaged: 1 (USB2+H05261)
Boxcar Smoothing: 0 (USB2+H05261)
Correct for Electrical Dark: No (USB2+H05261)
Strobe/Lamp Enabled: No (USB2+H05261)
Correct for Detector Non-linearity: No (USB2+H05261)
Correct for Stray Light: No (USB2+H05261)
Number of Pixels in Processed Spectrum: 2048
>>>>>Begin Processed Spectral Data<<<<<
365.73	0.00
365.92	0.00
366.12	0.00
366.32	0.00
366.52	0.00
366.72	0.00
366.91	0.00
367.11	0.00
367.31	0.00
367.51	0.00
367.70	0.00
367.90	0.00
368.10	0.00
368.30	0.00
368.49	0.00
368.69	0.00
368.89	0.00
369.09	0.00
369.28	0.00
369.48	0.00
369.68	0.00
369.87	0.00
370.07	0.00
370.27	0.00
370.47	0.00
370.66	0.00
370.86	2.34
371.06	0.00
371.25	0.00
371.45	14.04
371.65	0.00
371.84	0.00
372.04	0.00
372.24	0.00
372.44	56.17
372.63	88.94
372.83	0.00
373.03	0.00
373.22	0.00
373.42	0.00
373.62	0.00
373.81	91.28
374.01	74.90
374.21	70.22
374.40	16.38
374.60	0.00
374.79	0.00
374.99	7.02
375.19	117.03
375.38	131.07
375.58	79.58
375.78	110.01
375.97	95.96
376.17	95.96
376.37	100.64
376.56	121.71
376.76	114.69
376.95	117.03
377.15	159.16
377.35	175.54
377.54	241.08
377.74	212.99
377.93	215.33
378.13	229.37
378.33	147.45
378.52	163.84
378.72	53.83
378.91	98.30
379.11	88.94
379.31	110.01
379.50	84.26
379.70	79.58
379.89	191.92
380.09	149.79
380.28	203.63
380.48	269.16
380.68	243.42
380.87	241.08
381.07	95.96
381.26	173.20
381.46	142.77
381.65	128.73
381.85	46.81
382.04	107.66
382.24	14.04
382.43	44.47
382.63	74.90
382.83	107.66
383.02	16.38
383.22	23.41
383.41	9.36
383.61	35.11
383.80	131.07
384.00	102.98
384.19	196.60
384.39	234.05
384.58	154.48
384.78	236.39
384.97	133.41
385.17	98.30
385.36	77.24
385.56	112.35
385.75	161.50
385.95	154.48
386.14	248.10
386.34	290.23
386.53	156.82
386.72	65.54
386.92	201.29
387.11	161.50
387.31	203.63
387.50	187.24
387.70	208.31
387.89	182.56
388.09	198.95
388.28	194.26
388.48	168.52
388.67	243.42
388.86	198.95
389.06	344.06
389.25	351.08
389.45	372.15
389.64	341.72
389.84	362.78
390.03	334.70
390.22	360.44
390.42	355.76
390.61	374.49
390.81	360.44
391.00	440.02
391.19	379.17
391.39	496.19
391.58	311.29
391.78	344.06
391.97	355.76
392.16	264.48
392.36	220.01
392.55	149.79
392.75	18.72
392.94	98.30
393.13	14.04
393.33	49.15
393.52	112.35
393.71	187.24
393.91	393.21
394.10	365.12
394.29	339.38
394.49	500.87
394.68	407.25
394.88	468.11
395.07	493.85
395.26	526.62
395.46	463.43
395.65	472.79
395.84	262.14
396.04	292.57
396.23	105.32
396.42	131.07
396.62	0.00
396.81	173.20
397.00	196.60
397.19	304.27
397.39	414.27
397.58	674.07
397.77	519.60
397.97	648.33
398.16	636.63
398.35	627.26
398.55	650.67
398.74	807.48
398.93	702.16
399.12	683.44
399.32	732.59
399.51	739.61
399.70	739.61
399.90	854.30
400.09	777.06
400.28	849.61
400.47	835.57
400.67	847.27
400.86	915.15
401.05	828.55
401.24	802.80
401.44	842.59
401.63	884.72
401.82	833.23
402.01	1043.88
402.21	945.58
402.40	945.58
402.59	833.23
402.78	784.08
402.97	777.06
403.17	788.76
403.36	926.85
403.55	973.66
403.74	971.32
403.93	901.11
404.13	812.17
404.32	809.83
404.51	826.21
404.70	990.05
404.89	933.87
405.09	940.90
405.28	908.13
405.47	805.14
405.66	882.38
405.85	800.46
406.05	777.06
406.24	779.40
406.43	915.15
406.62	910.47
406.81	940.90
407.00	877.70
407.20	847.27
407.39	894.08
407.58	926.85
407.77	973.66
407.96	976.00
408.15	933.87
408.34	968.98
408.54	1125.80
408.73	1111.75
408.92	1015.79
409.11	990.05
409.30	938.55
409.49	959.62
409.68	854.30
409.87	814.51
410.07	908.13
410.26	1025.15
410.45	1060.26
410.64	985.37
410.83	1015.79
411.02	1095.37
411.21	1118.78
411.40	1111.75
411.59	1196.01
411.78	1088.35
411.98	1008.77
412.17	1196.01
412.36	1132.82
412.55	1207.72
412.74	1196.01
412.93	1039.20
413.12	1029.84
413.31	1107.07
413.50	1221.76
413.69	1296.66
413.88	1163.25
414.07	1053.24
414.26	1186.65
414.45	1097.71
414.64	1090.69
414.83	1174.95
415.02	1172.61
415.22	1181.97
415.41	1177.29
415.60	1275.59
415.79	1359.85
415.98	1390.28
416.17	1245.16
416.36	1289.64
416.55	1259.21
416.74	1219.42
416.93	1123.46
417.12	1235.80
417.31	1221.76
417.50	1121.12
417.69	1221.76
417.88	1357.51
418.07	1165.59
418.26	1247.51
418.45	1196.01
418.64	1203.04
418.83	1369.21
419.02	1446.45
419.21	1270.91
419.39	1254.53
419.58	1130.48
419.77	1240.48
419.96	1343.47
420.15	1359.85
420.34	1329.42
420.53	1455.81
420.72	1380.92
420.91	1371.55
421.10	1366.87
421.29	1413.68
421.48	1327.08
421.67	1348.15
421.86	1401.98
422.05	1181.97
422.24	1273.25
422.43	1135.16
422.61	1196.01
422.80	1437.09
422.99	1348.15
423.18	1228.78
423.37	1301.34
423.56	1196.01
423.75	1144.52
423.94	1291.98
424.13	1245.16
424.32	1247.51
424.50	1139.84
424.69	1205.38
424.88	1240.48
425.07	1212.40
425.26	1273.25
425.45	1242.82
425.64	1074.31
425.83	1116.44
426.01	1247.51
426.20	1263.89
426.39	1282.61
426.58	1177.29
426.77	1163.25
426.96	1041.54
427.15	1116.44
427.33	1125.80
427.52	1247.51
427.71	1240.48
427.90	1270.91
428.09	1221.76
428.28	1160.91
428.46	1142.18
428.65	1118.78
428.84	1130.48
429.03	1177.29
429.22	1181.97
429.40	976.00
429.59	1046.22
429.78	744.29
429.97	844.93
430.16	748.97
430.34	753.65
430.53	821.53
430.72	891.74
430.91	994.73
431.10	1158.57
431.28	1322.40
431.47	1537.73
431.66	1544.75
431.85	1320.06
432.03	1270.91
432.22	1210.06
432.41	1245.16
432.60	1366.87
432.79	1469.86
432.97	1507.30
433.16	1397.30
433.35	1299.00
433.54	1172.61
433.72	1107.07
433.91	1186.65
434.10	1291.98
434.28	1315.38
434.47	1523.69
434.66	1458.15
434.85	1289.64
435.03	1343.47
435.22	1397.30
435.41	1591.56
435.59	1493.26
435.78	1479.22
435.97	1521.35
436.16	1575.18
436.34	1577.52
436.53	1467.52
436.72	1577.52
436.90	1413.68
437.09	1448.79
437.28	1343.47
437.46	1530.71
437.65	1439.43
437.84	1324.74
438.02	1174.95
438.21	1270.91
438.40	1277.93
438.58	1364.53
438.77	1511.99
438.96	1439.43
439.14	1596.25
439.33	1551.78
439.52	1570.50
439.70	1547.09
439.89	1476.88
440.08	1535.39
440.26	1446.45
440.45	1462.83
440.63	1603.27
440.82	1790.51
441.01	1736.68
441.19	1743.70
441.38	1673.48
441.57	1764.76
441.75	1739.02
441.94	1877.11
442.12	1818.60
442.31	1818.60
442.50	1820.94
442.68	1720.29
442.87	1804.55
443.05	1657.10
443.24	1680.50
443.43	1813.92
443.61	1811.57
443.80	1867.75
443.98	1788.17
444.17	1785.83
444.35	1900.52
444.54	1991.80
444.73	1891.15
444.91	1764.76
445.10	1699.23
445.28	1659.44
445.47	1633.69
445.65	1502.62
445.84	1701.57
446.02	1685.19
446.21	1696.89
446.39	1753.06
446.58	1825.62
446.77	1792.85
446.95	1900.52
447.14	1865.41
447.32	1797.53
447.51	1842.00
447.69	1720.29
447.88	1811.57
448.06	1895.83
448.25	1837.32
448.43	1849.02
448.62	1849.02
448.80	1802.21
448.99	1830.30
449.17	1886.47
449.36	1872.43
449.54	1877.11
449.73	1933.28
449.91	1865.41
450.10	2008.18
450.28	2118.18
450.46	2031.58
450.65	2057.33
450.83	2054.99
451.02	1982.43
451.20	1902.86
451.39	1858.39
451.57	2043.29
451.76	1952.01
451.94	2005.84
452.13	2090.10
452.31	1935.62
452.49	1708.59
452.68	1710.93
452.86	1760.08
453.05	1806.89
453.23	1898.17
453.42	1872.43
453.60	1949.67
453.78	1830.30
453.97	1827.96
454.15	1863.07
454.34	1818.60
454.52	1781.15
454.70	1853.70
454.89	1916.90
455.07	1844.34
455.26	1834.98
455.44	1996.48
455.62	1907.54
455.81	1940.30
455.99	1947.33
456.17	1907.54
456.36	1991.80
456.54	2094.78
456.73	1977.75
456.91	2045.63
457.09	2022.22
457.28	2094.78
457.46	2003.50
457.64	2045.63
457.83	1905.20
458.01	1849.02
458.19	1963.71
458.38	1963.71
458.56	1980.09
458.74	2085.42
458.93	2045.63
459.11	2047.97
459.29	1991.80
459.48	2003.50
459.66	2010.52
459.84	2033.93
460.03	1996.48
460.21	1975.41
460.39	2078.40
460.57	1921.58
460.76	2050.31
460.94	2207.13
461.12	2160.31
461.31	1919.24
461.49	1991.80
461.67	2024.56
461.85	2069.03
462.04	2054.99
462.22	2200.10
462.40	2108.82
462.59	2176.70
462.77	2071.37
462.95	2066.69
463.13	2111.16
463.32	2094.78
463.50	2029.24
463.68	2012.86
463.86	2062.01
464.05	1942.64
464.23	1994.14
464.41	1989.46
464.59	1902.86
464.78	1973.07
464.96	1912.22
465.14	1980.09
465.32	2122.87
465.50	2094.78
465.69	2071.37
465.87	2052.65
466.05	2008.18
466.23	2001.16
466.41	1813.92
466.60	1952.01
466.78	1928.60
466.96	2008.18
467.14	2059.67
467.32	2017.54
467.51	2017.54
467.69	1966.05
467.87	1893.49
468.05	1933.28
468.23	1994.14
468.41	1980.09
468.60	1902.86
468.78	2057.33
468.96	2047.97
469.14	2043.29
469.32	2118.18
469.50	1966.05
469.69	1893.49
469.87	1977.75
470.05	1919.24
470.23	1968.39
470.41	1984.77
470.59	1916.90
470.77	1952.01
470.95	2071.37
471.14	1959.03
471.32	2038.61
471.50	2179.04
471.68	2176.70
471.86	2249.25
472.04	2270.32
472.22	2242.23
472.40	2101.80
472.58	2118.18
472.77	2129.89
472.95	2057.33
473.13	2211.81
473.31	2150.95
473.49	2188.40
473.67	2129.89
473.85	2155.63
474.03	2258.62
474.21	2090.10
474.39	2256.28
474.57	2270.32
474.75	2214.15
474.93	2289.04
475.12	2200.10
475.30	2165.00
475.48	2155.63
475.66	2218.83
475.84	2122.87
476.02	2160.31
476.20	2118.18
476.38	2188.40
476.56	2242.23
476.74	2279.68
476.92	2270.32
477.10	2314.79
477.28	2417.77
477.46	2445.86
477.64	2462.24
477.82	2413.09
478.00	2452.88
478.18	2352.24
478.36	2511.39
478.54	2291.38
478.72	2420.11
478.90	2504.37
479.08	2605.02
479.26	2581.61
479.44	2513.74
479.62	2548.84
479.80	2525.44
479.98	2499.69
480.16	2413.09
480.34	2492.67
480.52	2612.04
480.70	2614.38
480.88	2565.23
481.06	2717.36
481.24	2724.38
481.41	2881.20
481.59	2717.36
481.77	2738.43
481.95	2775.88
482.13	2658.85
482.31	2775.88
482.49	2743.11
482.67	2682.25
482.85	2754.81
483.03	2935.03
483.21	2785.24
483.39	2780.56
483.57	2883.54
483.74	2787.58
483.92	2722.04
484.10	2789.92
484.28	2920.99
484.46	2897.58
484.64	2913.97
484.82	2899.92
485.00	2780.56
485.18	2663.53
485.35	2668.21
485.53	2403.73
485.71	2195.42
485.89	2270.32
486.07	2291.38
486.25	2586.29
486.43	2764.17
486.61	2759.49
486.78	2785.24
486.96	2729.06
487.14	2970.14
487.32	2913.97
487.50	3070.78
487.68	3215.90
487.85	3115.25
488.03	3115.25
488.21	3115.25
488.39	3052.06
488.57	2874.18
488.75	2974.82
488.92	3101.21
489.10	3253.34
489.28	3391.44
489.46	3377.39
489.64	3566.98
489.81	3550.59
489.99	3475.70
490.17	3445.27
490.35	3529.53
490.53	3524.85
490.70	3267.39
490.88	3377.39
491.06	3431.23
491.24	3489.74
491.41	3288.45
491.59	3248.66
491.77	3234.62
491.95	3178.45
492.13	3302.50
492.30	3520.17
492.48	3674.64
492.66	3609.11
492.84	3548.25
493.01	3611.45
493.19	3407.82
493.37	3456.97
493.54	3389.10
493.72	3508.46
493.90	3646.55
494.08	3758.90
494.25	3859.54
494.43	3854.86
494.61	3817.41
494.79	3901.67
494.96	3646.55
495.14	3815.07
495.32	3618.47
495.49	3506.12
495.67	3674.64
495.85	3873.59
496.02	3896.99
496.20	3920.40
496.38	3826.78
496.55	3908.69
496.73	3873.59
496.91	3939.12
497.09	4032.74
497.26	4023.38
497.44	4009.34
497.62	3974.23
497.79	3889.97
497.97	3569.32
498.14	3604.42
498.32	3758.90
498.50	3819.75
498.67	4053.81
498.85	4063.17
499.03	3911.04
499.20	3978.91
499.38	4044.45
499.56	3913.38
499.73	3796.35
499.91	3922.74
500.08	3854.86
500.26	3754.22
500.44	3705.07
500.61	3831.46
500.79	3868.91
500.97	3857.20
501.14	3779.97
501.32	3691.02
501.49	3714.43
501.67	3698.05
501.84	3763.58
502.02	3885.29
502.20	3978.91
502.37	3957.85
502.55	3915.72
502.72	4014.02
502.90	4011.68
503.07	3948.48
503.25	4042.11
503.43	3878.27
503.60	3749.54
503.78	3714.43
503.95	3695.71
504.13	3911.04
504.30	3927.42
504.48	4053.81
504.65	3953.16
504.83	3969.55
505.01	4072.53
505.18	4093.60
505.36	4100.62
505.53	4156.79
505.71	4362.76
505.88	4229.35
506.06	4334.67
506.23	4102.96
506.41	4135.73
506.58	4189.56
506.76	4086.58
506.93	4126.36
507.11	3992.95
507.28	4152.11
507.46	4077.21
507.63	4014.02
507.81	3719.11
507.98	3786.99
508.16	3946.14
508.33	3960.19
508.50	4117.00
508.68	4245.73
508.85	4334.67
509.03	4212.96
509.20	4152.11
509.38	4133.39
509.55	3941.46
509.73	4028.06
509.90	4077.21
510.08	4131.05
510.25	4189.56
510.42	4107.64
510.60	4084.23
510.77	4023.38
510.95	4170.83
511.12	4248.07
511.30	4168.49
511.47	4365.10
511.64	4234.03
511.82	4369.78
511.99	4140.41
512.17	3997.64
512.34	3861.88
512.51	4002.32
512.69	4084.23
512.86	3974.23
513.04	4018.70
513.21	3918.06
513.38	3997.64
513.56	4105.30
513.73	3880.61
513.90	3810.39
514.08	3866.56
514.25	4016.36
514.43	3906.35
514.60	3911.04
514.77	4189.56
514.95	4042.11
515.12	4138.07
515.29	4217.65
515.47	4107.64
515.64	4091.26
515.81	4166.15
515.99	4081.89
516.16	3726.13
516.33	3400.80
516.51	3393.78
516.68	3276.75
516.85	3169.09
517.03	3197.17
517.20	3616.13
517.37	3901.67
517.54	4114.66
517.72	3981.25
517.89	3576.34
518.06	3180.79
518.24	3344.63
518.41	3667.62
518.58	3761.24
518.75	3845.50
518.93	3943.80
519.10	3768.26
519.27	3964.87
519.45	3889.97
519.62	4184.88
519.79	4112.32
519.96	4037.42
520.14	4039.76
520.31	3791.67
520.48	3878.27
520.65	3953.16
520.83	4030.40
521.00	4217.65
521.17	4105.30
521.34	3995.29
521.52	4222.33
521.69	4170.83
521.86	4227.01
522.03	4175.52
522.20	3992.95
522.38	3723.79
522.55	3786.99
522.72	4007.00
522.89	3936.78
523.07	4002.32
523.24	4135.73
523.41	4217.65
523.58	4131.05
523.75	4234.03
523.92	4273.82
524.10	4304.25
524.27	4217.65
524.44	4121.68
524.61	4212.96
524.78	4168.49
524.96	4191.90
525.13	4166.15
525.30	4161.47
525.47	4194.24
525.64	4299.56
525.81	4072.53
525.98	3831.46
526.16	3777.62
526.33	3662.94
526.50	3574.00
526.67	3431.23
526.84	3550.59
527.01	3730.81
527.18	3861.88
527.36	4039.76
527.53	4117.00
527.70	4119.34
527.87	4032.74
528.04	3918.06
528.21	3941.46
528.38	4086.58
528.55	4322.97
528.72	4224.67
528.89	4285.52
529.07	4280.84
529.24	4175.52
529.41	4105.30
529.58	3925.08
529.75	4154.45
529.92	4009.34
530.09	4119.34
530.26	4191.90
530.43	4142.75
530.60	4117.00
530.77	4203.60
530.94	4329.99
531.11	4152.11
531.28	4234.03
531.46	4147.43
531.63	4212.96
531.80	4081.89
531.97	3995.29
532.14	3988.27
532.31	3721.45
532.48	3700.39
532.65	3672.30
532.82	3815.07
532.99	3918.06
533.16	4049.13
533.33	4023.38
533.50	4023.38
533.67	4039.76
533.84	4004.66
534.01	3960.19
534.18	3983.59
534.35	4016.36
534.52	3999.98
534.69	3946.14
534.86	4163.81
535.03	4159.13
535.20	4208.28
535.37	4128.70
535.54	4315.95
535.71	4259.78
535.88	4182.54
536.05	3894.65
536.22	3999.98
536.38	3955.51
536.55	3712.09
536.72	3789.33
536.89	3740.18
537.06	3990.61
537.23	4138.07
537.40	4168.49
537.57	4145.09
537.74	4119.34
537.91	4025.72
538.08	3946.14
538.25	4060.83
538.42	4058.49
538.59	3925.08
538.75	3955.51
538.92	3985.93
539.09	3784.65
539.26	3815.07
539.43	3847.84
539.60	3735.50
539.77	3850.18
539.94	3889.97
540.11	3742.52
540.28	3681.66
540.44	3665.28
540.61	3662.94
540.78	3684.00
540.95	3840.82
541.12	3899.33
541.29	3995.29
541.46	4025.72
541.62	3985.93
541.79	3953.16
541.96	3908.69
542.13	3838.48
542.30	3901.67
542.47	3796.35
542.63	3770.60
542.80	3779.97
542.97	3810.39
543.14	3791.67
543.31	3756.56
543.48	3971.89
543.64	3906.35
543.81	4021.04
543.98	3948.48
544.15	3922.74
544.32	3772.94
544.48	3880.61
544.65	3843.16
544.82	3948.48
544.99	3946.14
545.16	3840.82
545.32	3770.60
545.49	3847.84
545.66	4070.19
545.83	3962.53
546.00	3960.19
546.16	3777.62
546.33	3887.63
546.50	3918.06
546.67	3960.19
546.83	3812.73
547.00	3772.94
547.17	3730.81
547.34	3707.41
547.50	3602.08
547.67	3822.09
547.84	3845.50
548.00	3794.01
548.17	3819.75
548.34	3782.31
548.51	3721.45
548.67	3786.99
548.84	3749.54
549.01	3782.31
549.18	3824.44
549.34	3798.69
549.51	3756.56
549.68	3810.39
549.84	3775.28
550.01	3772.94
550.18	3779.97
550.34	3655.92
550.51	3756.56
550.68	3730.81
550.84	3733.15
551.01	3660.60
551.18	3861.88
551.34	3700.39
551.51	3791.67
551.68	3761.24
551.84	3721.45
552.01	3763.58
552.18	3564.64
552.34	3679.32
552.51	3623.15
552.68	3653.58
552.84	3684.00
553.01	3676.98
553.18	3646.55
553.34	3686.34
553.51	3681.66
553.67	3693.37
553.84	3754.22
554.01	3719.11
554.17	3702.73
554.34	3700.39
554.51	3775.28
554.67	3756.56
554.84	3763.58
555.00	3744.86
555.17	3679.32
555.33	3798.69
555.50	3679.32
555.67	3630.17
555.83	3688.68
556.00	3684.00
556.16	3655.92
556.33	3318.88
556.50	3440.59
556.66	3545.91
556.83	3520.17
556.99	3522.51
557.16	3545.91
557.32	3562.30
557.49	3571.66
557.65	3482.72
557.82	3611.45
557.98	3623.15
558.15	3478.04
558.32	3382.07
558.48	3236.96
558.65	3384.41
558.81	3328.24
558.98	3279.09
559.14	3424.20
559.31	3424.20
559.47	3431.23
559.64	3346.97
559.80	3255.69
559.97	3330.58
560.13	3424.20
560.30	3463.99
560.46	3585.70
560.63	3449.95
560.79	3616.13
560.96	3555.27
561.12	3419.52
561.29	3332.92
561.45	3316.54
561.61	3431.23
561.78	3407.82
561.94	3499.10
562.11	3346.97
562.27	3407.82
562.44	3211.22
562.60	3370.37
562.77	3447.61
562.93	3389.10
563.10	3499.10
563.26	3419.52
563.42	3353.99
563.59	3330.58
563.75	3489.74
563.92	3391.44
564.08	3358.67
564.24	3426.54
564.41	3405.48
564.57	3428.88
564.74	3468.67
564.90	3353.99
565.07	3185.47
565.23	3382.07
565.39	3173.77
565.56	3215.90
565.72	3145.68
565.88	3201.85
566.05	3171.43
566.21	3145.68
566.38	3346.97
566.54	3293.13
566.70	3365.69
566.87	3417.18
567.03	3323.56
567.19	3297.81
567.36	3346.97
567.52	3330.58
567.68	3236.96
567.85	3311.86
568.01	3122.27
568.17	3077.80
568.34	3155.04
568.50	3066.10
568.66	3098.87
568.83	3185.47
568.99	3105.89
569.15	3279.09
569.32	3281.43
569.48	3131.64
569.64	3066.10
569.81	3141.00
569.97	3187.81
570.13	3073.12
570.30	3208.87
570.46	3087.17
570.62	2963.12
570.78	2942.05
570.95	3030.99
571.11	3042.70
571.27	3166.74
571.43	2963.12
571.60	3075.46
571.76	3098.87
571.92	3166.74
572.09	3194.83
572.25	3208.87
572.41	3166.74
572.57	3229.94
572.74	3178.45
572.90	3056.74
573.06	3080.14
573.22	2998.23
573.38	3119.93
573.55	3047.38
573.71	3112.91
573.87	3066.10
574.03	3211.22
574.20	3288.45
574.36	3026.31
574.52	3084.83
574.68	3026.31
574.84	2942.05
575.01	2841.41
575.17	2958.44
575.33	2949.08
575.49	2965.46
575.65	2892.90
575.82	2991.20
575.98	2832.05
576.14	2967.80
576.30	2995.89
576.46	3040.36
576.62	3028.65
576.79	2944.39
576.95	2839.07
577.11	3009.93
577.27	2913.97
577.43	2991.20
577.59	2899.92
577.75	2946.73
577.92	2827.37
578.08	2759.49
578.24	2757.15
578.40	2750.13
578.56	2853.11
578.72	2890.56
578.88	2881.20
579.04	2956.10
579.21	2906.95
579.37	2904.60
579.53	2867.16
579.69	2890.56
579.85	2925.67
580.01	2935.03
580.17	2928.01
580.33	2878.86
580.49	3016.95
580.65	2836.73
580.82	2946.73
580.98	2904.60
581.14	2935.03
581.30	2932.69
581.46	2946.73
581.62	3019.29
581.78	2944.39
581.94	2937.37
582.10	2883.54
582.26	2913.97
582.42	2895.24
582.58	3002.91
582.74	2984.18
582.90	3040.36
583.06	2850.77
583.22	3007.59
583.38	2883.54
583.54	2909.29
583.70	2853.11
583.86	2778.22
584.02	2764.17
584.18	2958.44
584.34	3047.38
584.50	2761.83
584.66	2878.86
584.82	2867.16
584.98	2869.50
585.14	2834.39
585.30	2848.43
585.46	2637.78
585.62	2745.45
585.78	2651.83
585.94	2700.98
586.10	2649.49
586.26	2789.92
586.42	2668.21
586.58	2703.32
586.74	2752.47
586.90	2794.60
587.06	2855.45
587.22	2729.06
587.38	2803.96
587.54	2796.94
587.70	2738.43
587.86	2710.34
588.02	2633.10
588.18	2668.21
588.34	2499.69
588.49	2525.44
588.65	2305.43
588.81	2335.85
588.97	2235.21
589.13	2359.26
589.29	2190.74
589.45	2230.53
589.61	2340.54
589.77	2462.24
589.93	2579.27
590.08	2602.68
590.24	2633.10
590.40	2703.32
590.56	2661.19
590.72	2670.55
590.88	2562.89
591.04	2506.71
591.20	2389.69
591.35	2551.18
591.51	2600.34
591.67	2424.80
591.83	2483.31
591.99	2445.86
592.15	2544.16
592.31	2551.18
592.46	2525.44
592.62	2457.56
592.78	2558.21
592.94	2527.78
593.10	2520.76
593.26	2588.63
593.41	2567.57
593.57	2530.12
593.73	2562.89
593.89	2492.67
594.05	2520.76
594.20	2520.76
594.36	2450.54
594.52	2352.24
594.68	2296.07
594.84	2342.88
594.99	2464.58
595.15	2469.27
595.31	2431.82
595.47	2436.50
595.62	2452.88
595.78	2504.37
595.94	2480.97
596.10	2464.58
596.25	2471.61
596.41	2406.07
596.57	2471.61
596.73	2443.52
596.88	2487.99
597.04	2504.37
597.20	2338.20
597.36	2345.22
597.51	2387.35
597.67	2462.24
597.83	2473.95
597.99	2417.77
598.14	2394.37
598.30	2284.36
598.46	2310.11
598.61	2305.43
598.77	2429.48
598.93	2452.88
599.09	2366.28
599.24	2459.90
599.40	2483.31
