SpectraSuite Data File
++++++++++++++++++++++++++++++++++++
Date: Mon Oct 07 14:53:38 GMT-05:00 2013
User: price-jones
Dark Spectrum Present: No
Reference Spectrum Present: No
Number of Sampled Component Spectra: 1
Spectrometers: USB2+H05261
Integration Time (usec): 100000 (USB2+H05261)
Spectra Averaged: 1 (USB2+H05261)
Boxcar Smoothing: 0 (USB2+H05261)
Correct for Electrical Dark: No (USB2+H05261)
Strobe/Lamp Enabled: No (USB2+H05261)
Correct for Detector Non-linearity: No (USB2+H05261)
Correct for Stray Light: No (USB2+H05261)
Number of Pixels in Processed Spectrum: 2048
>>>>>Begin Processed Spectral Data<<<<<
365.73	0.00
365.92	0.00
366.12	0.00
366.32	0.00
366.52	0.00
366.72	0.00
366.91	0.00
367.11	0.00
367.31	0.00
367.51	0.00
367.70	0.00
367.90	0.00
368.10	0.00
368.30	0.00
368.49	0.00
368.69	0.00
368.89	0.00
369.09	0.00
369.28	0.00
369.48	0.00
369.68	0.00
369.87	0.00
370.07	0.00
370.27	0.00
370.47	599.18
370.66	2853.11
370.86	3400.80
371.06	3674.64
371.25	3768.26
371.45	3286.11
371.65	3038.02
371.84	2736.09
372.04	2967.80
372.24	3351.65
372.44	3365.69
372.63	3473.36
372.83	3262.71
373.03	2803.96
373.22	2628.42
373.42	2822.69
373.62	3297.81
373.81	3623.15
374.01	3597.40
374.21	3103.55
374.40	2916.31
374.60	2991.20
374.79	3410.16
374.99	3995.29
375.19	4229.35
375.38	4210.62
375.58	3925.08
375.78	3983.59
375.97	3978.91
376.17	4128.70
376.37	4191.90
376.56	4238.71
376.76	4664.69
376.95	4748.95
377.15	5198.33
377.35	5287.27
377.54	5432.38
377.74	5708.57
377.93	5701.54
378.13	5647.71
378.33	5362.17
378.52	4943.21
378.72	4727.88
378.91	4704.48
379.11	4484.47
379.31	4479.79
379.50	4315.95
379.70	4610.86
379.89	5111.73
380.09	5399.62
380.28	5598.56
380.48	5568.13
380.68	5514.30
380.87	5399.62
381.07	4842.57
381.26	4720.86
381.46	4395.53
381.65	4203.60
381.85	4135.73
382.04	3794.01
382.24	3712.09
382.43	3475.70
382.63	3300.16
382.83	3375.05
383.02	3412.50
383.22	3419.52
383.41	3473.36
383.61	3548.25
383.80	4032.74
384.00	4727.88
384.19	5153.86
384.39	5500.26
384.58	5511.96
384.78	5444.09
384.97	5401.96
385.17	5235.78
385.36	4765.33
385.56	4760.65
385.75	4802.78
385.95	5174.92
386.14	5666.44
386.34	5584.52
386.53	5434.72
386.72	5125.77
386.92	5036.83
387.11	5392.59
387.31	5959.00
387.50	5589.20
387.70	5526.00
387.89	5455.79
388.09	5465.15
388.28	5502.60
388.48	5444.09
388.67	6064.33
388.86	6551.16
389.06	7124.59
389.25	7360.98
389.45	7393.75
389.64	7456.95
389.84	7447.58
390.03	7126.93
390.22	7232.26
390.42	7583.34
390.61	7960.16
390.81	8695.09
391.00	8725.52
391.19	8428.27
391.39	8301.88
391.58	7950.80
391.78	7478.01
391.97	7171.40
392.16	6768.83
392.36	6155.61
392.55	5004.07
392.75	3871.25
392.94	3178.45
393.13	3138.66
393.33	3578.68
393.52	4746.61
393.71	5816.23
393.91	6457.54
394.10	7213.53
394.29	7801.01
394.49	8325.29
394.68	9301.29
394.88	9055.53
395.07	9465.13
395.26	9259.16
395.46	9008.72
395.65	8695.09
395.84	7550.57
396.04	6450.52
396.23	5273.23
396.42	4236.37
396.62	4037.42
396.81	4807.46
397.00	6071.35
397.19	7566.95
397.39	9142.13
397.58	10314.74
397.77	11115.20
397.97	11477.99
398.16	11412.45
398.35	11803.32
398.55	12348.67
398.74	12730.17
398.93	12924.44
399.12	12940.82
399.32	12372.07
399.51	12865.92
399.70	13579.79
399.90	13312.97
400.09	13432.33
400.28	13200.62
400.47	13303.60
400.67	13884.06
400.86	14588.56
401.05	14511.32
401.24	14230.46
401.44	14867.08
401.63	14785.16
401.82	15016.88
402.01	14850.70
402.21	14899.85
402.40	15185.40
402.59	14576.86
402.78	14136.84
402.97	13628.94
403.17	13928.53
403.36	14839.00
403.55	15531.80
403.74	15967.13
403.93	14834.32
404.13	13862.99
404.32	13420.63
404.51	13982.36
404.70	15349.23
404.89	15089.43
405.09	15105.82
405.28	14579.20
405.47	14576.86
405.66	14602.60
405.85	14064.28
406.05	13743.63
406.24	14148.54
406.43	14583.88
406.62	15201.78
406.81	15466.26
407.00	14827.29
407.20	14272.59
407.39	14546.43
407.58	14862.40
407.77	15726.06
407.96	16229.27
408.15	16386.09
408.34	16538.23
408.54	17174.85
408.73	17429.97
408.92	16959.52
409.11	16716.11
409.30	15896.92
409.49	14925.60
409.68	13811.50
409.87	13551.70
410.07	14499.62
410.26	15517.75
410.45	16512.48
410.64	16765.26
410.83	17415.93
411.02	17647.64
411.21	18637.69
411.40	18092.34
411.59	18295.97
411.78	18230.43
411.98	17958.93
412.17	18382.57
412.36	18132.13
412.55	18216.39
412.74	17891.06
412.93	17453.37
413.12	17383.16
413.31	19101.11
413.50	18979.40
413.69	19592.62
413.88	18829.61
414.07	18111.07
414.26	18354.48
414.45	18995.79
414.64	19180.69
414.83	19503.68
415.02	18925.57
415.22	19084.73
415.41	19176.01
415.60	20084.14
415.79	20851.83
415.98	21184.19
416.17	21125.68
416.36	20889.28
416.55	20475.01
416.74	19838.38
416.93	19321.12
417.12	19117.50
417.31	19372.61
417.50	19587.94
417.69	20554.58
417.88	20229.25
418.07	20180.10
418.26	19812.63
418.45	19688.59
418.64	20507.77
418.83	21561.02
419.02	21074.18
419.21	21055.46
419.39	19962.43
419.58	19316.44
419.77	19234.52
419.96	19990.52
420.15	20975.88
420.34	21710.81
420.53	22733.62
420.72	22789.80
420.91	22424.67
421.10	22504.25
421.29	22370.84
421.48	21600.80
421.67	22368.50
421.86	22080.61
422.05	20746.51
422.24	18530.02
422.43	18188.30
422.61	20280.74
422.80	21851.24
422.99	21703.79
423.18	21142.06
423.37	20683.31
423.56	20601.40
423.75	21177.17
423.94	21586.76
424.13	20503.09
424.32	20458.62
424.50	20467.98
424.69	20381.38
424.88	20245.63
425.07	20049.03
425.26	20311.17
425.45	20170.74
425.64	19793.91
425.83	19545.81
426.01	20908.01
426.20	21415.90
426.39	21401.86
426.58	19728.38
426.77	18106.38
426.96	17666.36
427.15	17996.38
427.33	19676.88
427.52	20400.11
427.71	20393.09
427.90	20622.46
428.09	20308.83
428.28	19887.53
428.46	19229.84
428.65	18609.60
428.84	18986.43
429.03	19585.60
429.22	18363.84
429.40	17825.52
429.59	16060.76
429.78	14054.92
429.97	14209.39
430.16	14279.61
430.34	14621.33
430.53	14335.78
430.72	14822.61
430.91	16318.22
431.10	19002.81
431.28	22333.39
431.47	24245.61
431.66	24694.99
431.85	22445.74
432.03	20854.17
432.22	19410.06
432.41	20215.21
432.60	22785.12
432.79	23690.90
432.97	24327.53
433.16	23370.25
433.35	21757.62
433.54	19515.39
433.72	18415.34
433.91	18764.07
434.10	20989.92
434.28	22356.80
434.47	23943.68
434.66	23248.54
434.85	22939.59
435.03	22728.94
435.22	23520.04
435.41	24709.04
435.59	24769.89
435.78	24844.79
435.97	25792.70
436.16	26338.05
436.34	25652.27
436.53	24807.34
436.72	24947.77
436.90	23477.91
437.09	23576.22
437.28	22852.99
437.46	23875.80
437.65	23754.10
437.84	22260.84
438.02	20608.42
438.21	20514.80
438.40	21654.64
438.58	23026.19
438.77	24119.22
438.96	24355.61
439.14	25242.68
439.33	25619.50
439.52	26277.19
439.70	25579.71
439.89	25057.78
440.08	24386.04
440.26	24233.91
440.45	25041.39
440.63	27087.02
440.82	28306.44
441.01	27871.10
441.19	27290.65
441.38	27793.86
441.57	28929.02
441.75	29397.13
441.94	29537.56
442.12	29146.69
442.31	29750.55
442.50	29883.96
442.68	29661.61
442.87	29125.63
443.05	28739.44
443.24	29076.48
443.43	29628.84
443.61	30085.25
443.80	30714.85
443.98	28858.81
444.17	28634.11
444.35	30768.68
444.54	31206.36
444.73	30841.24
444.91	29813.74
445.10	28449.21
445.28	27124.47
445.47	26745.30
445.65	26560.40
445.84	27522.36
446.02	28465.60
446.21	29230.95
446.39	28975.83
446.58	29565.65
446.77	29654.59
446.95	30082.91
447.14	31250.83
447.32	31407.65
447.51	30693.79
447.69	29759.91
447.88	29104.56
448.06	29780.98
448.25	30710.17
448.43	30850.60
448.62	29748.21
448.80	29972.90
448.99	30476.12
449.17	30551.01
449.36	30450.37
449.54	31580.85
449.73	32037.25
449.91	32205.77
450.10	33053.05
450.28	33813.72
450.46	33710.74
450.65	33666.27
450.83	33282.42
451.02	32470.25
451.20	32170.66
451.39	32187.05
451.57	32236.20
451.76	32353.23
451.94	32144.92
452.13	31555.10
452.31	30036.09
452.49	28879.87
452.68	29179.46
452.86	29235.63
453.05	29284.78
453.23	30099.29
453.42	31042.53
453.60	31374.88
453.78	31927.25
453.97	31915.54
454.15	32032.57
454.34	31058.91
454.52	31220.41
454.70	30625.91
454.89	30946.56
455.07	30974.65
455.26	31173.60
455.44	32395.35
455.62	32973.47
455.81	33434.55
455.99	33031.98
456.17	32879.85
456.36	32748.78
456.54	33986.92
456.73	34047.77
456.91	34609.50
457.09	34834.19
457.28	35072.93
457.46	33797.34
457.64	33453.28
457.83	32439.82
458.01	31819.58
458.19	32381.31
458.38	32755.80
458.56	34202.25
458.74	33544.56
458.93	33130.28
459.11	32910.27
459.29	32905.59
459.48	32940.70
459.66	33048.36
459.84	33684.99
460.03	33907.34
460.21	33680.31
460.39	34506.52
460.57	34644.61
460.76	35239.11
460.94	35187.61
461.12	34448.00
461.31	34958.24
461.49	34742.91
461.67	34305.23
461.85	35365.49
462.04	35325.71
462.22	36121.49
462.40	35456.78
462.59	35306.98
462.77	35847.64
462.95	35599.55
463.13	34937.18
463.32	34864.62
463.50	34642.27
463.68	34513.54
463.86	34333.32
464.05	34354.38
464.23	33462.64
464.41	33392.42
464.59	32655.15
464.78	34267.78
464.96	34134.37
465.14	33708.40
465.32	34660.99
465.50	35454.44
465.69	36048.93
465.87	35173.57
466.05	34249.06
466.23	33113.90
466.41	31889.80
466.60	33008.58
466.78	32828.35
466.96	33347.95
467.14	34136.71
467.32	34726.53
467.51	34981.65
467.69	32704.31
467.87	33872.23
468.05	34410.56
468.23	34782.70
468.41	34019.69
468.60	34230.33
468.78	35061.22
468.96	34469.07
469.14	34850.58
469.32	35150.17
469.50	34071.18
469.69	34082.88
469.87	33233.27
470.05	33696.69
470.23	33446.26
470.41	33462.64
470.59	33818.40
470.77	33722.44
470.95	34712.49
471.14	35222.72
471.32	35065.91
471.50	36961.74
471.68	37270.69
471.86	37502.40
472.04	37652.20
472.22	37682.62
472.40	35943.61
472.58	35604.23
472.77	35314.00
472.95	36121.49
473.13	37046.00
473.31	36006.80
473.49	35931.90
473.67	37046.00
473.85	37275.37
474.03	38134.35
474.21	37954.13
474.39	38536.92
474.57	38602.46
474.75	39030.77
474.93	38827.15
475.12	37603.05
475.30	37921.36
475.48	37523.47
475.66	38499.47
475.84	37940.08
476.02	37570.28
476.20	37144.30
476.38	37537.51
476.56	38927.79
476.74	38953.54
476.92	39805.49
477.10	40135.51
477.28	41251.94
477.46	40900.86
477.64	41652.17
477.82	41635.79
478.00	41844.10
478.18	41551.53
478.36	41181.73
478.54	41177.04
478.72	41532.81
478.90	42391.78
479.08	43522.26
479.26	43988.03
479.44	44093.35
479.62	44114.42
479.80	43660.35
479.98	43882.70
480.16	44299.32
480.34	43459.07
480.52	43849.94
480.70	44381.24
480.88	44643.38
481.06	44835.30
481.24	45382.99
481.41	46628.15
481.59	46817.74
481.77	46777.95
481.95	46293.46
482.13	45907.27
482.31	45787.90
482.49	46260.69
482.67	46426.87
482.85	46712.41
483.03	47536.28
483.21	47590.11
483.39	47592.45
483.57	46791.99
483.74	46564.96
483.92	47143.07
484.10	47002.64
484.28	48208.01
484.46	48617.61
484.64	48683.14
484.82	47922.47
485.00	47552.66
485.18	46773.27
485.35	45422.78
485.53	42536.90
485.71	39065.88
485.89	38169.46
486.07	39667.40
486.25	43192.25
486.43	45553.85
486.61	46632.83
486.78	46237.28
486.96	46550.91
487.14	48165.88
487.32	49226.15
487.50	49970.44
487.68	50508.76
487.85	51629.88
488.03	51540.94
488.21	51168.79
488.39	50321.52
488.57	49605.31
488.75	49155.93
488.92	50316.84
489.10	52505.24
489.28	53738.70
489.46	54733.43
489.64	54068.72
489.81	54719.38
489.99	53965.73
490.17	54026.59
490.35	54482.99
490.53	54225.53
490.70	53762.11
490.88	53254.21
491.06	54497.03
491.24	54576.61
491.41	53773.81
491.59	52079.26
491.77	50951.12
491.95	52390.55
492.13	53319.74
492.30	54410.43
492.48	55524.53
492.66	55884.97
492.84	55889.65
493.01	55543.25
493.19	55227.28
493.37	54908.97
493.54	54667.89
493.72	55065.78
493.90	55781.99
494.08	56816.50
494.25	57172.27
494.43	57521.01
494.61	57537.39
494.79	57759.74
494.96	57375.89
495.14	56978.00
495.32	56076.90
495.49	55639.22
495.67	56357.76
495.85	57698.89
496.02	58014.86
496.20	57977.41
496.38	57483.56
496.55	57291.63
496.73	57801.87
496.91	57921.24
497.09	58625.74
497.26	58798.94
497.44	58244.23
497.62	57738.68
497.79	57066.94
497.97	55835.82
498.14	55833.48
498.32	57069.28
498.50	57722.29
498.67	58492.33
498.85	58319.13
499.03	58452.54
499.20	58567.23
499.38	58581.27
499.56	58548.50
499.73	58094.44
499.91	57415.68
500.08	57247.16
500.26	56486.49
500.44	56921.83
500.61	57535.05
500.79	57478.88
500.97	56996.73
501.14	56942.89
501.32	57078.64
501.49	56797.78
501.67	57083.33
501.84	57799.53
502.02	57783.15
502.20	58127.20
502.37	58391.68
502.55	58279.34
502.72	58742.77
502.90	59157.04
503.07	59107.89
503.25	58820.00
503.43	57874.43
503.60	57183.97
503.78	56549.68
503.95	56940.55
504.13	58253.59
504.30	59208.53
504.48	58838.73
504.65	58494.67
504.83	58639.78
505.01	59037.67
505.18	59634.51
505.36	60090.91
505.53	60133.04
505.71	60369.44
505.88	60420.93
506.06	59613.44
506.23	59475.35
506.41	59018.95
506.58	59393.43
506.76	59344.28
506.93	59309.18
507.11	58883.20
507.28	59264.70
507.46	58848.09
507.63	58218.49
507.81	57712.93
507.98	58363.60
508.16	58941.71
508.33	59599.40
508.50	59657.91
508.68	59999.63
508.85	60463.06
509.03	60374.12
509.20	60385.82
509.38	59849.84
509.55	59093.85
509.73	58941.71
509.90	59604.08
510.08	59739.83
510.25	59774.94
510.42	59559.61
510.60	59543.23
510.77	59716.43
510.95	60200.92
511.12	60264.11
511.30	60537.96
511.47	60879.67
511.64	60987.34
511.82	60533.28
511.99	59866.22
512.17	59416.84
512.34	58941.71
512.51	59157.04
512.69	59194.49
512.86	59414.50
513.04	59934.10
513.21	59868.56
513.38	59594.72
513.56	58834.05
513.73	58471.26
513.90	58845.75
514.08	58677.23
514.25	59068.10
514.43	59465.99
514.60	59283.43
514.77	59571.32
514.95	59529.19
515.12	59634.51
515.29	59620.47
515.47	60261.77
515.64	60357.74
515.81	59969.21
515.99	59491.74
516.16	58244.23
516.33	56097.96
516.51	54548.53
516.68	53944.67
516.85	53544.44
517.03	53811.26
517.20	56257.12
517.37	58665.53
517.54	59618.13
517.72	59250.66
517.89	56999.07
518.06	54784.92
518.24	54644.49
518.41	56891.40
518.58	58071.03
518.75	58539.14
518.93	58569.57
519.10	58466.58
519.27	58798.94
519.45	59201.51
519.62	59856.86
519.79	60100.28
519.96	60046.44
520.14	59594.72
520.31	58731.06
520.48	59082.14
520.65	59100.87
520.83	60086.23
521.00	60203.26
521.17	60030.06
521.34	59683.66
521.52	59887.29
521.69	60327.31
521.86	60830.52
522.03	60587.11
522.20	59505.78
522.38	58204.44
522.55	58497.01
522.72	58969.80
522.89	59124.27
523.07	59414.50
523.24	59576.00
523.41	60245.39
523.58	60811.80
523.75	60956.91
523.92	61003.72
524.10	60921.80
524.27	60816.48
524.44	60769.67
524.61	60439.65
524.78	60191.56
524.96	60353.05
525.13	60287.52
525.30	60601.15
525.47	61057.56
525.64	61099.68
525.81	60224.32
525.98	59018.95
526.16	57612.29
526.33	56982.68
526.50	56767.35
526.67	56210.31
526.84	56743.95
527.01	57673.14
527.18	58595.31
527.36	59281.09
527.53	60292.20
527.70	60640.94
527.87	59910.69
528.04	59571.32
528.21	59936.44
528.38	60598.81
528.55	61078.62
528.72	61361.82
528.89	61638.01
529.07	61361.82
529.24	60720.52
529.41	60172.83
529.58	59400.46
529.75	59519.82
529.92	59994.95
530.09	60432.63
530.26	60662.00
530.43	61127.77
530.60	61205.01
530.77	61361.82
530.94	61614.60
531.11	61151.18
531.28	60732.22
531.46	60566.04
531.63	60575.40
531.80	60357.74
531.97	60053.47
532.14	59313.86
532.31	58508.71
532.48	57930.60
532.65	57736.34
532.82	58784.90
532.99	59819.41
533.16	60317.95
533.33	60839.89
533.50	60577.75
533.67	59983.25
533.84	59503.44
534.01	59746.86
534.18	59880.27
534.35	60102.62
534.52	59969.21
534.69	60203.26
534.86	60533.28
535.03	60811.80
535.20	61020.11
535.37	61666.09
535.54	61315.01
535.71	61235.44
535.88	60982.66
536.05	60327.31
536.22	60107.30
536.38	59798.35
536.55	59166.40
536.72	58773.19
536.89	58583.61
537.06	59241.30
537.23	60236.03
537.40	60306.24
537.57	60486.46
537.74	60294.54
537.91	60259.43
538.08	59941.12
538.25	60240.71
538.42	60409.23
538.59	60425.61
538.75	59491.74
538.92	59285.77
539.09	59044.69
539.26	58871.49
539.43	58789.58
539.60	58866.81
539.77	59164.06
539.94	59241.30
540.11	58232.53
540.28	57876.77
540.44	57867.40
540.61	58232.53
540.78	58529.78
540.95	58721.70
541.12	59231.94
541.29	59594.72
541.46	59688.34
541.62	59868.56
541.79	59611.10
541.96	59189.81
542.13	58944.05
542.30	59437.90
542.47	59346.62
542.63	59346.62
542.80	59100.87
542.97	59143.00
543.14	59128.95
543.31	58965.12
543.48	59702.38
543.64	60360.08
543.81	60542.64
543.98	60336.67
544.15	59714.09
544.32	59072.78
544.48	59180.45
544.65	59625.15
544.82	59831.11
544.99	59791.33
545.16	59344.28
545.32	59180.45
545.49	59718.77
545.66	60301.56
545.83	59976.23
546.00	59538.55
546.16	59037.67
546.33	59318.54
546.50	59166.40
546.67	59641.53
546.83	59213.21
547.00	59337.26
547.17	58794.26
547.34	58244.23
547.50	58078.05
547.67	58672.55
547.84	58576.59
548.00	58979.16
548.17	59346.62
548.34	59276.41
548.51	59257.68
548.67	59250.66
548.84	59405.14
549.01	59374.71
549.18	59206.19
549.34	59236.62
549.51	58981.50
549.68	59178.10
549.84	58810.64
550.01	58878.52
550.18	58810.64
550.34	58787.24
550.51	58761.49
550.68	59040.01
550.84	58412.75
551.01	58712.34
551.18	58482.97
551.34	58747.45
551.51	58862.13
551.68	59484.72
551.84	59267.05
552.01	59173.42
552.18	59028.31
552.34	58454.88
552.51	57961.03
552.68	57818.25
552.84	58300.40
553.01	58611.70
553.18	58403.39
553.34	58576.59
553.51	58796.60
553.67	58869.15
553.84	59121.93
554.01	59037.67
554.17	58738.08
554.34	58782.55
554.51	58911.28
554.67	59442.59
554.84	59133.63
555.00	58621.06
555.17	58614.04
555.33	58536.80
555.50	58585.95
555.67	58609.35
555.83	58405.73
556.00	58157.63
556.16	58244.23
556.33	57722.29
556.50	57762.08
556.66	57724.63
556.83	57361.85
556.99	57535.05
557.16	57598.24
557.32	58099.12
557.49	58174.02
557.65	57991.45
557.82	57876.77
557.98	57942.30
558.15	57600.58
558.32	56650.33
558.48	55845.18
558.65	56247.75
558.81	56673.73
558.98	56622.24
559.14	57050.56
559.31	57022.47
559.47	57286.95
559.64	56835.23
559.80	56229.03
559.97	56392.87
560.13	56849.27
560.30	57825.28
560.46	58164.65
560.63	58417.43
560.79	58391.68
560.96	58031.24
561.12	57158.22
561.29	56062.85
561.45	56219.67
561.61	56750.97
561.78	57176.95
561.94	57144.18
562.11	57057.58
562.27	56769.69
562.44	57137.16
562.60	57322.06
562.77	57605.26
562.93	57499.94
563.10	57329.08
563.26	56896.08
563.42	56755.65
563.59	56821.19
563.75	56722.88
563.92	56893.74
564.08	56786.08
564.24	57062.26
564.41	57134.82
564.57	56821.19
564.74	56570.75
564.90	56757.99
565.07	56371.80
565.23	56289.88
565.39	55739.86
565.56	55540.91
565.72	55384.10
565.88	55641.56
566.05	55430.91
566.21	56147.11
566.38	56081.58
566.54	55938.80
566.70	56463.08
566.87	56720.54
567.03	56570.75
567.19	57169.93
567.36	56573.09
567.52	56381.16
567.68	56427.98
567.85	55648.58
568.01	55201.53
568.17	55004.93
568.34	55065.78
568.50	54946.42
568.66	55089.19
568.83	55679.00
568.99	55304.52
569.15	55590.06
569.32	55526.87
569.48	55667.30
569.64	55323.24
569.81	54906.63
569.97	55220.26
570.13	55072.81
570.30	54394.05
570.46	54099.14
570.62	53492.94
570.78	53254.21
570.95	53600.61
571.11	54380.01
571.27	54454.90
571.43	54848.11
571.60	55171.11
571.76	55213.24
571.92	55550.27
572.09	55473.04
572.25	55604.11
572.41	55564.32
572.57	55501.12
572.74	55253.03
572.90	54927.69
573.06	54920.67
573.22	55112.59
573.38	54948.76
573.55	54766.20
573.71	55180.47
573.87	55189.83
574.03	54756.83
574.20	54782.58
574.36	54899.61
574.52	54288.73
574.68	54389.37
574.84	53792.53
575.01	53441.45
575.17	53261.23
575.33	53727.00
575.49	54150.63
575.65	54164.68
575.82	53851.05
575.98	53565.50
576.14	54024.25
576.30	54167.02
576.46	54232.55
576.62	53951.69
576.79	54197.44
576.95	53860.41
577.11	53666.14
577.27	53890.83
577.43	53902.54
577.59	53574.86
577.75	53567.84
577.92	52479.49
578.08	52165.86
578.24	52814.19
578.40	52877.38
578.56	53088.03
578.72	53144.20
578.88	53244.85
579.04	53188.67
579.21	53684.87
579.37	53792.53
579.53	53666.14
579.69	53471.88
579.85	53865.09
580.01	53570.18
580.17	53169.95
580.33	52961.64
580.49	53153.57
580.65	53104.41
580.82	53556.14
580.98	53539.75
581.14	53411.02
581.30	53570.18
581.46	53359.53
581.62	53624.01
581.78	53588.91
581.94	53530.39
582.10	53530.39
582.26	53638.06
582.42	53705.93
582.58	53668.48
582.74	53638.06
582.90	53724.66
583.06	53567.84
583.22	53329.11
583.38	53237.83
583.54	53476.56
583.70	53223.78
583.86	53406.34
584.02	53298.68
584.18	53368.90
584.34	53095.05
584.50	53216.76
584.66	52987.39
584.82	52676.10
584.98	52507.58
585.14	52067.56
585.30	51512.85
