SpectraSuite Data File
++++++++++++++++++++++++++++++++++++
Date: Mon Oct 07 14:53:01 GMT-05:00 2013
User: price-jones
Dark Spectrum Present: No
Reference Spectrum Present: No
Number of Sampled Component Spectra: 1
Spectrometers: USB2+H05261
Integration Time (usec): 100000 (USB2+H05261)
Spectra Averaged: 1 (USB2+H05261)
Boxcar Smoothing: 0 (USB2+H05261)
Correct for Electrical Dark: No (USB2+H05261)
Strobe/Lamp Enabled: No (USB2+H05261)
Correct for Detector Non-linearity: No (USB2+H05261)
Correct for Stray Light: No (USB2+H05261)
Number of Pixels in Processed Spectrum: 2048
>>>>>Begin Processed Spectral Data<<<<<
365.73	0.00
365.92	0.00
366.12	0.00
366.32	0.00
366.52	0.00
366.72	0.00
366.91	0.00
367.11	0.00
367.31	0.00
367.51	0.00
367.70	0.00
367.90	0.00
368.10	0.00
368.30	0.00
368.49	0.00
368.69	0.00
368.89	0.00
369.09	0.00
369.28	0.00
369.48	0.00
369.68	0.00
369.87	0.00
370.07	0.00
370.27	0.00
370.47	491.51
370.66	2689.28
370.86	3103.55
371.06	3475.70
371.25	3653.58
371.45	3145.68
371.65	2773.53
371.84	2595.65
372.04	2850.77
372.24	3183.13
372.44	3192.49
372.63	3129.30
372.83	2974.82
373.03	2548.84
373.22	2527.78
373.42	2619.06
373.62	2920.99
373.81	3101.21
374.01	3199.51
374.21	2892.90
374.40	2773.53
374.60	2815.66
374.79	3105.89
374.99	3693.37
375.19	3934.44
375.38	3836.14
375.58	3552.93
375.78	3578.68
375.97	3786.99
376.17	4072.53
376.37	3805.71
376.56	3990.61
376.76	4081.89
376.95	4411.91
377.15	4734.90
377.35	4947.89
377.54	5153.86
377.74	5366.85
377.93	5200.67
378.13	5107.05
378.33	4901.08
378.52	4442.34
378.72	4318.29
378.91	4201.26
379.11	4051.47
379.31	3922.74
379.50	4002.32
379.70	4294.88
379.89	4858.95
380.09	5011.09
380.28	5214.71
380.48	5210.03
380.68	4992.36
380.87	4873.00
381.07	4589.79
381.26	4273.82
381.46	3885.29
381.65	3871.25
381.85	3700.39
382.04	3599.74
382.24	3311.86
382.43	3171.43
382.63	3026.31
382.83	3080.14
383.02	3211.22
383.22	3133.98
383.41	3185.47
383.61	3461.65
383.80	3852.52
384.00	4395.53
384.19	4826.18
384.39	5132.79
384.58	5163.22
384.78	5118.75
384.97	4858.95
385.17	4725.54
385.36	4557.02
385.56	4341.69
385.75	4547.66
385.95	4950.23
386.14	5273.23
386.34	5460.47
386.53	5025.13
386.72	4844.91
386.92	4748.95
387.11	5069.60
387.31	5210.03
387.50	5235.78
387.70	5144.50
387.89	5100.03
388.09	5055.56
388.28	5116.41
388.48	5095.35
388.67	5401.96
388.86	6190.72
389.06	6569.88
389.25	6883.52
389.45	6977.14
389.64	6839.05
389.84	6759.47
390.03	6700.95
390.22	6722.02
390.42	6806.28
390.61	7337.58
390.81	7934.42
391.00	7803.35
391.19	7908.67
391.39	7573.97
391.58	7449.93
391.78	6883.52
391.97	6427.11
392.16	6099.44
392.36	5535.37
392.55	4470.42
392.75	3496.76
392.94	2871.84
393.13	3021.63
393.33	3480.38
393.52	4379.14
393.71	5432.38
393.91	6085.39
394.10	6637.76
394.29	7297.79
394.49	7850.16
394.68	8446.99
394.88	8404.86
395.07	8802.75
395.26	8601.47
395.46	8205.92
395.65	7840.79
395.84	6869.47
396.04	5916.87
396.23	4758.31
396.42	3960.19
396.62	3901.67
396.81	4575.75
397.00	5776.44
397.19	7253.32
397.39	8545.30
397.58	9638.33
397.77	10134.52
397.97	10644.76
398.16	10363.89
398.35	11126.91
398.55	11314.15
398.74	11555.22
398.93	12184.83
399.12	11782.26
399.32	11283.72
399.51	11742.47
399.70	12269.09
399.90	12294.83
400.09	12435.27
400.28	12313.56
400.47	12278.45
400.67	12966.57
400.86	13287.22
401.05	12830.82
401.24	13493.19
401.44	13778.73
401.63	13642.98
401.82	13635.96
402.01	13577.45
402.21	13884.06
402.40	13909.80
402.59	13422.97
402.78	12805.07
402.97	12428.24
403.17	13022.74
403.36	13652.34
403.55	14335.78
403.74	14757.08
403.93	13823.20
404.13	12861.24
404.32	12491.44
404.51	13118.70
404.70	14068.96
404.89	14122.79
405.09	13853.63
405.28	13792.78
405.47	13631.28
405.66	13537.66
405.85	13057.85
406.05	12734.85
406.24	12964.23
406.43	13383.18
406.62	13731.92
406.81	14022.15
407.00	13694.47
407.20	13198.28
407.39	13319.99
407.58	14047.90
407.77	14834.32
407.96	14897.51
408.15	14960.70
408.34	15173.69
408.54	15894.58
408.73	16051.39
408.92	15620.74
409.11	15059.01
409.30	14490.26
409.49	13650.00
409.68	12933.80
409.87	12636.55
410.07	13401.91
410.26	14455.15
410.45	15197.10
410.64	15433.49
410.83	16175.44
411.02	16383.75
411.21	16854.20
411.40	16858.88
411.59	16737.17
411.78	16886.97
411.98	16580.36
412.17	16996.97
412.36	16547.59
412.55	16617.80
412.74	16142.67
412.93	15679.25
413.12	15854.79
413.31	17867.65
413.50	17586.79
413.69	18155.54
413.88	17219.32
414.07	16945.48
414.26	17071.87
414.45	17710.83
414.64	17467.42
414.83	17853.61
415.02	17355.07
415.22	17474.44
415.41	17975.31
415.60	18508.96
415.79	19087.07
415.98	19517.73
416.17	19473.26
416.36	19136.22
416.55	18717.26
416.74	18139.15
416.93	17694.45
417.12	17458.06
417.31	17774.03
417.50	18036.17
417.69	18686.84
417.88	18679.82
418.07	18541.72
418.26	18574.49
418.45	18200.01
418.64	19255.59
418.83	19620.71
419.02	19569.22
419.21	19281.33
419.39	18380.23
419.58	17593.81
419.77	17877.01
419.96	18443.42
420.15	19630.07
420.34	19915.62
420.53	20521.82
420.72	21221.64
420.91	20835.45
421.10	20540.54
421.29	20819.07
421.48	19592.62
421.67	20650.55
421.86	19978.81
422.05	18764.07
422.24	16837.81
422.43	16851.86
422.61	18085.32
422.80	19751.78
422.99	20215.21
423.18	19204.10
423.37	18721.95
423.56	18944.30
423.75	19403.04
423.94	19735.40
424.13	18586.19
424.32	18871.74
424.50	18766.42
424.69	18745.35
424.88	18441.08
425.07	18654.07
425.26	18513.64
425.45	18331.08
425.64	17767.01
425.83	18412.99
426.01	19211.12
426.20	19557.52
426.39	19566.88
426.58	18211.71
426.77	16720.79
426.96	16390.77
427.15	16767.60
427.33	18293.63
427.52	18864.72
427.71	18967.70
427.90	18864.72
428.09	18394.27
428.28	18270.22
428.46	17411.25
428.65	17277.83
428.84	17710.83
429.03	18015.10
429.22	17050.80
429.40	16077.14
429.59	14501.96
429.78	12671.66
429.97	13249.77
430.16	13135.09
430.34	13287.22
430.53	13085.94
430.72	13605.53
430.91	15222.84
431.10	17984.68
431.28	21081.21
431.47	22361.48
431.66	22890.44
431.85	20505.43
432.03	18888.12
432.22	18113.41
432.41	19037.92
432.60	20985.24
432.79	21654.64
432.97	22235.09
433.16	21888.69
433.35	19929.66
433.54	17956.59
433.72	16812.07
433.91	17586.79
434.10	19332.82
434.28	20975.88
434.47	22022.10
434.66	21781.03
434.85	20994.61
435.03	20713.74
435.22	21373.77
435.41	23023.85
435.59	22628.30
435.78	23278.97
435.97	23908.57
436.16	23737.71
436.34	23426.42
436.53	22986.40
436.72	23035.55
436.90	21544.63
437.09	21722.51
437.28	21603.14
437.46	22235.09
437.65	21825.50
437.84	20334.57
438.02	19293.04
438.21	18775.78
438.40	19803.27
438.58	21778.68
438.77	22214.02
438.96	22242.11
439.14	22965.34
439.33	23871.12
439.52	24081.77
439.70	23440.47
439.89	23110.45
440.08	22637.66
440.26	22391.91
440.45	23365.57
440.63	25043.73
440.82	26108.68
441.01	25668.66
441.19	25425.24
441.38	25912.07
441.57	26937.23
441.75	26974.67
441.94	27197.02
442.12	26883.39
442.31	27253.20
442.50	27374.91
442.68	27431.08
442.87	26782.75
443.05	26300.60
443.24	27094.04
443.43	27475.55
443.61	28070.04
443.80	28568.58
443.98	26689.13
444.17	26602.53
444.35	28257.29
444.54	28793.27
444.73	28414.10
444.91	27096.38
445.10	25862.92
445.28	25039.05
445.47	24800.32
445.65	24978.20
445.84	25640.57
446.02	26359.11
446.21	26799.13
446.39	27110.43
446.58	27087.02
446.77	27669.81
446.95	27592.58
447.14	28685.61
447.32	28919.66
447.51	28629.43
447.69	27290.65
447.88	27253.20
448.06	27585.55
448.25	27983.44
448.43	28397.72
448.62	27711.94
448.80	27936.63
448.99	28070.04
449.17	28116.86
449.36	28166.01
449.54	29184.14
449.73	29528.20
449.91	30211.64
450.10	30972.31
450.28	30878.69
450.46	31255.51
450.65	30939.54
450.83	31225.09
451.02	30139.08
451.20	30148.44
451.39	30150.78
451.57	30153.12
451.76	29502.45
451.94	29837.15
452.13	29095.20
452.31	27503.64
452.49	26609.55
452.68	26787.43
452.86	27091.70
453.05	27288.31
453.23	28252.61
453.42	28624.75
453.60	29244.99
453.78	29963.54
453.97	29132.65
454.15	29544.58
454.34	28435.17
454.52	28826.04
454.70	28538.15
454.89	28580.28
455.07	28755.82
455.26	29277.76
455.44	30265.47
455.62	30789.75
455.81	30965.29
455.99	30817.83
456.17	30347.39
456.36	30710.17
456.54	31576.17
456.73	31342.11
456.91	31819.58
457.09	32173.00
457.28	32582.60
457.46	31255.51
457.64	30923.16
457.83	30132.06
458.01	29373.72
458.19	30583.78
458.38	30815.49
458.56	31817.24
458.74	31260.20
458.93	30679.74
459.11	30548.67
459.29	30249.08
459.48	30850.60
459.66	30387.18
459.84	31122.10
460.03	30939.54
460.21	31393.61
460.39	32236.20
460.57	32259.60
460.76	32734.73
460.94	32584.94
461.12	32151.94
461.31	31927.25
461.49	32079.38
461.67	31901.50
461.85	32882.19
462.04	32655.15
462.22	33380.72
462.40	32924.32
462.59	33064.75
462.77	33102.20
462.95	32634.09
463.13	32404.72
463.32	32182.37
463.50	32233.86
463.68	31852.35
463.86	31831.29
464.05	31854.69
464.23	31136.15
464.41	30806.13
464.59	30490.16
464.78	31871.07
464.96	31988.10
465.14	31225.09
465.32	32292.37
465.50	32868.14
465.69	33717.76
465.87	32521.74
466.05	31440.42
466.23	30431.65
466.41	29666.29
466.60	30792.09
466.78	30738.26
466.96	31161.89
467.14	31938.95
467.32	31782.13
467.51	32063.00
467.69	30960.61
467.87	31374.88
468.05	32325.14
468.23	32039.59
468.41	31578.51
468.60	32566.21
468.78	32266.63
468.96	31576.17
469.14	32374.29
469.32	32746.44
469.50	31262.54
469.69	31260.20
469.87	31145.51
470.05	30895.07
470.23	31075.29
470.41	31182.96
470.59	31339.77
470.77	31620.64
470.95	32486.64
471.14	32336.84
471.32	32472.59
471.50	34398.85
471.68	34834.19
471.86	34822.49
472.04	35285.92
472.22	35138.46
472.40	33469.66
472.58	33132.62
472.77	32809.63
472.95	33727.12
473.13	34267.78
473.31	33626.48
473.49	33638.18
473.67	33883.94
473.85	34747.59
474.03	35000.37
474.21	35606.57
474.39	35534.01
474.57	35758.70
474.75	35880.41
474.93	35550.40
475.12	34735.89
475.30	35042.50
475.48	35456.78
475.66	35810.20
475.84	35215.70
476.02	34824.83
476.20	34415.24
476.38	35344.43
476.56	35826.58
476.74	36264.26
476.92	36835.35
477.10	37113.87
477.28	38469.04
477.46	38934.81
477.64	38649.27
477.82	39023.75
478.00	39173.55
478.18	38321.59
478.36	38354.36
478.54	38450.32
478.72	38534.58
478.90	39784.43
479.08	40191.68
479.26	41289.39
479.44	40924.27
479.62	40877.46
479.80	40591.91
479.98	40849.37
480.16	41184.07
480.34	40423.39
480.52	41125.55
480.70	41359.61
480.88	41455.57
481.06	42089.85
481.24	42597.75
481.41	43393.53
481.59	44100.37
481.77	43522.26
481.95	42616.47
482.13	42494.77
482.31	42813.08
482.49	43367.79
482.67	43313.95
482.85	44126.12
483.03	44219.74
483.21	44776.79
483.39	44966.37
483.57	43615.88
483.74	43903.77
483.92	44463.16
484.10	44369.54
484.28	44832.96
484.46	45357.24
484.64	45823.01
484.82	45050.63
485.00	44477.20
485.18	43959.94
485.35	42534.56
485.53	39239.08
485.71	36100.42
485.89	35449.75
486.07	37441.55
486.25	40552.12
486.43	42733.50
486.61	43777.38
486.78	43442.68
486.96	43971.64
487.14	45673.21
487.32	46167.07
487.50	47681.39
487.68	48350.79
487.85	48793.15
488.03	48718.25
488.21	48224.40
488.39	47154.77
488.57	47077.54
488.75	46466.66
488.92	48023.11
489.10	50106.19
489.28	51622.86
489.46	52271.18
489.64	51861.59
489.81	52458.43
489.99	51966.91
490.17	51959.89
490.35	52374.17
490.53	51664.99
490.70	51344.33
490.88	51297.52
491.06	52493.54
491.24	52081.60
491.41	51229.65
491.59	48868.05
491.77	48580.16
491.95	50050.02
492.13	51072.83
492.30	52456.09
492.48	53375.92
492.66	53811.26
492.84	53998.50
493.01	53638.06
493.19	52690.14
493.37	52530.98
493.54	52198.63
493.72	53125.48
493.90	54295.75
494.08	54831.73
494.25	54979.18
494.43	55238.98
494.61	55721.13
494.79	55805.39
494.96	55547.93
495.14	54925.35
495.32	53738.70
495.49	53607.63
495.67	54583.63
495.85	55962.21
496.02	56467.76
496.20	55725.81
496.38	55845.18
496.55	55501.12
496.73	56231.37
496.91	56013.70
497.09	56561.39
497.26	57001.41
497.44	56172.86
497.62	55690.71
497.79	55112.59
497.97	53750.40
498.14	53998.50
498.32	55236.64
498.50	55957.53
498.67	56729.90
498.85	56374.14
499.03	56652.67
499.20	56811.82
499.38	56893.74
499.56	56561.39
499.73	55980.93
499.91	55686.03
500.08	55091.53
500.26	54726.41
500.44	54962.80
500.61	56109.66
500.79	55709.43
500.97	55260.05
501.14	55274.09
501.32	54932.37
501.49	54880.88
501.67	55075.15
501.84	55758.58
502.02	56210.31
502.20	56540.32
502.37	56329.67
502.55	56547.34
502.72	57198.01
502.90	57485.90
503.07	57073.96
503.25	56835.23
503.43	56037.11
503.60	55332.60
503.78	54621.08
503.95	55082.17
504.13	56720.54
504.30	57373.55
504.48	57144.18
504.65	56760.33
504.83	56795.44
505.01	57432.07
505.18	57872.09
505.36	58494.67
505.53	58471.26
505.71	58464.24
505.88	58539.14
506.06	57904.85
506.23	57780.81
506.41	57291.63
506.58	57642.71
506.76	57478.88
506.93	57544.41
507.11	57455.47
507.28	57694.21
507.46	56978.00
507.63	56301.59
507.81	56144.77
507.98	56493.51
508.16	57205.03
508.33	57553.77
508.50	58223.17
508.68	58356.58
508.85	58766.17
509.03	58717.02
509.20	58740.42
509.38	57783.15
509.55	57315.04
509.73	57298.65
509.90	57806.55
510.08	58066.35
510.25	58019.54
510.42	57755.06
510.60	57631.01
510.77	57862.72
510.95	58454.88
511.12	58915.96
511.30	58955.75
511.47	59264.70
511.64	59344.28
511.82	58754.47
511.99	57970.39
512.17	57666.12
512.34	57233.12
512.51	57406.32
512.69	57628.67
512.86	57614.63
513.04	57972.73
513.21	58061.67
513.38	57794.85
513.56	57418.02
513.73	56680.75
513.90	56832.89
514.08	57109.07
514.25	57308.02
514.43	57612.29
514.60	57766.76
514.77	57738.68
514.95	57965.71
515.12	57841.66
515.29	57982.09
515.47	58241.89
515.64	58752.13
515.81	58426.79
515.99	57771.44
516.16	56334.35
516.33	53848.71
516.51	52530.98
516.68	51571.36
516.85	51114.96
517.03	52053.51
517.20	54527.46
517.37	56835.23
517.54	57968.05
517.72	57251.84
517.89	54756.83
518.06	52287.57
518.24	53223.78
518.41	55154.72
518.58	56638.62
518.75	56540.32
518.93	56718.20
519.10	56624.58
519.27	57308.02
519.45	57609.95
519.62	58176.36
519.79	58614.04
519.96	58164.65
520.14	57752.72
520.31	56914.81
520.48	56910.13
520.65	57485.90
520.83	58234.87
521.00	58658.51
521.17	58059.33
521.34	57799.53
521.52	58377.64
521.69	58768.51
521.86	59110.23
522.03	58780.21
522.20	57455.47
522.38	56633.94
522.55	56776.72
522.72	57453.13
522.89	57469.51
523.07	57722.29
523.24	58061.67
523.41	58663.19
523.58	59068.10
523.75	59398.12
523.92	59409.82
524.10	59084.48
524.27	59231.94
524.44	59119.59
524.61	58866.81
524.78	58726.38
524.96	58482.97
525.13	58726.38
525.30	59150.02
525.47	59547.91
525.64	59306.83
525.81	58506.37
525.98	57155.88
526.16	55749.22
526.33	55243.66
526.50	54815.35
526.67	54433.84
526.84	55089.19
527.01	56072.21
527.18	56994.39
527.36	57846.34
527.53	58628.08
527.70	58834.05
527.87	58328.49
528.04	57890.81
528.21	58377.64
528.38	58951.07
528.55	59571.32
528.72	59721.11
528.89	59997.29
529.07	59641.53
529.24	58990.86
529.41	58482.97
529.58	57979.75
529.75	58007.84
529.92	58485.31
530.09	59011.93
530.26	59299.81
530.43	59487.06
530.60	59660.26
530.77	59894.31
530.94	59859.20
531.11	59449.61
531.28	59047.04
531.46	58976.82
531.63	59245.98
531.80	58920.65
531.97	58358.92
532.14	57621.65
532.31	56715.86
532.48	56299.25
532.65	56065.19
532.82	57223.76
532.99	58279.34
533.16	58525.10
533.33	58887.88
533.50	58974.48
533.67	58342.53
533.84	57904.85
534.01	58344.87
534.18	58054.65
534.35	58452.54
534.52	58370.62
534.69	58684.25
534.86	58869.15
535.03	59042.35
535.20	59629.83
535.37	59842.82
535.54	59786.64
535.71	59505.78
535.88	59138.32
536.05	58742.77
536.22	58237.21
536.38	57865.06
536.55	57600.58
536.72	56949.92
536.89	57158.22
537.06	57902.51
537.23	58656.17
537.40	58883.20
537.57	58836.39
537.74	58679.57
537.91	58564.88
538.08	58468.92
538.25	58522.76
538.42	58915.96
538.59	58471.26
538.75	57991.45
538.92	57497.60
539.09	57605.26
539.26	57396.96
539.43	57261.21
539.60	57198.01
539.77	57457.81
539.94	57378.23
540.11	56339.04
540.28	56315.63
540.44	56467.76
540.61	56608.20
540.78	56839.91
540.95	57200.35
541.12	57506.96
541.29	57872.09
541.46	58040.60
541.62	58103.80
541.79	58003.16
541.96	57516.32
542.13	57429.72
542.30	57729.31
542.47	57680.16
542.63	57773.78
542.80	57425.04
542.97	57448.45
543.14	57324.40
543.31	57612.29
543.48	57921.24
543.64	58841.07
543.81	58979.16
543.98	58632.76
544.15	58068.69
544.32	57640.37
544.48	57518.67
544.65	58136.57
544.82	58494.67
544.99	57932.94
545.16	57661.44
545.32	57773.78
545.49	58267.64
545.66	58529.78
545.83	58223.17
546.00	57956.35
546.16	57460.15
546.33	57666.12
546.50	57862.72
546.67	58209.12
546.83	57705.91
547.00	57794.85
547.17	57118.43
547.34	56676.07
547.50	56636.28
547.67	56935.87
547.84	57109.07
548.00	57371.21
548.17	58047.63
548.34	57621.65
548.51	57883.79
548.67	57750.38
548.84	57930.60
549.01	57724.63
549.18	57675.48
549.34	57762.08
549.51	57663.78
549.68	57584.20
549.84	57209.71
550.01	57120.77
550.18	57326.74
550.34	57272.91
550.51	57254.18
550.68	57345.47
550.84	56603.52
551.01	57160.56
551.18	57148.86
551.34	57176.95
551.51	57279.93
551.68	57820.59
551.84	57621.65
552.01	57623.99
552.18	57429.72
552.34	56699.48
552.51	56212.65
552.68	56343.72
552.84	56935.87
553.01	57003.75
553.18	56830.55
553.34	57041.20
553.51	57130.14
553.67	57425.04
553.84	57392.28
554.01	57546.75
554.17	57207.37
554.34	57212.06
554.51	57298.65
554.67	57844.00
554.84	57588.88
555.00	57226.10
555.17	57031.83
555.33	56945.23
555.50	56835.23
555.67	57017.79
555.83	56963.96
556.00	56488.83
556.16	56615.22
556.33	56144.77
556.50	56079.24
556.66	56016.04
556.83	55751.56
556.99	56104.98
557.16	56076.90
557.32	56156.47
557.49	56708.84
557.65	56762.67
557.82	56439.68
557.98	56315.63
558.15	55744.54
558.32	55061.10
558.48	54351.92
558.65	54333.20
558.81	54834.07
558.98	54995.57
559.14	55344.31
559.31	55447.29
559.47	55412.18
559.64	54983.86
559.80	54721.72
559.97	54794.28
560.13	55093.87
560.30	55997.32
560.46	56495.85
560.63	57209.71
560.79	56837.57
560.96	56154.13
561.12	55040.04
561.29	54513.42
561.45	54679.60
561.61	55306.86
561.78	55531.55
561.94	55388.78
562.11	55334.95
562.27	55348.99
562.44	55636.87
562.60	55962.21
562.77	56065.19
562.93	55688.37
563.10	55863.91
563.26	54768.54
563.42	55318.56
563.59	54988.55
563.75	55154.72
563.92	55159.41
564.08	55222.60
564.24	55512.83
564.41	55379.42
564.57	55136.00
564.74	55147.70
564.90	55152.38
565.07	54777.90
565.23	54405.75
565.39	54199.79
565.56	53675.51
565.72	53401.66
565.88	54237.23
566.05	54253.62
566.21	53951.69
566.38	54525.12
566.54	54368.30
566.70	54567.25
566.87	55147.70
567.03	55133.66
567.19	55391.12
567.36	54986.21
567.52	54890.24
567.68	54752.15
567.85	53757.42
568.01	53439.11
568.17	53256.55
568.34	53181.65
568.50	53120.80
568.66	53270.59
568.83	53757.42
568.99	53621.67
569.15	53750.40
569.32	54092.12
569.48	53584.22
569.64	53359.53
569.81	53160.59
569.97	53078.67
570.13	53095.05
570.30	52514.60
570.46	52334.38
570.62	51456.68
570.78	51587.75
570.95	51716.48
571.11	52753.33
571.27	52814.19
571.43	53118.46
571.60	53228.46
571.76	53535.07
571.92	53624.01
572.09	53750.40
572.25	53752.74
572.41	53998.50
572.57	53471.88
572.74	53661.46
572.90	53375.92
573.06	53141.86
573.22	53226.12
573.38	53499.97
573.55	53254.21
573.71	53301.02
573.87	53378.26
574.03	53242.51
574.20	53333.79
574.36	52655.03
574.52	52652.69
574.68	52378.85
574.84	52058.20
575.01	51470.72
575.17	51641.58
575.33	51863.93
575.49	52296.93
575.65	52327.36
575.82	52172.88
575.98	52069.90
576.14	52245.44
576.30	52353.10
576.46	52406.94
576.62	52577.79
576.79	52617.58
576.95	51915.42
577.11	51950.53
577.27	52081.60
577.43	51999.68
577.59	51632.22
577.75	51667.33
577.92	50672.60
578.08	50644.51
578.24	50473.65
578.40	50962.82
578.56	51325.61
578.72	51147.73
578.88	51344.33
579.04	51742.22
579.21	51667.33
579.37	51807.76
579.53	51629.88
579.69	51487.10
579.85	52004.36
580.01	51791.37
580.17	51157.09
580.33	51061.13
580.49	51035.38
580.65	51877.97
580.82	51735.20
580.98	51547.96
581.14	51831.16
581.30	51629.88
581.46	51522.21
581.62	51807.76
581.78	51805.42
581.94	51913.08
582.10	51838.18
582.26	51746.90
582.42	52037.13
582.58	51969.26
582.74	51859.25
582.90	52179.90
583.06	51931.81
583.22	51812.44
583.38	51323.27
583.54	51765.63
583.70	51470.72
583.86	51693.07
584.02	51234.33
584.18	51463.70
584.34	51297.52
584.50	51159.43
584.66	51131.34
584.82	50412.80
584.98	50429.18
585.14	50220.87
585.30	49340.83
