SpectraSuite Data File
++++++++++++++++++++++++++++++++++++
Date: Mon Oct 07 14:54:58 GMT-05:00 2013
User: price-jones
Dark Spectrum Present: No
Reference Spectrum Present: No
Number of Sampled Component Spectra: 1
Spectrometers: USB2+H05261
Integration Time (usec): 10000 (USB2+H05261)
Spectra Averaged: 1 (USB2+H05261)
Boxcar Smoothing: 0 (USB2+H05261)
Correct for Electrical Dark: No (USB2+H05261)
Strobe/Lamp Enabled: No (USB2+H05261)
Correct for Detector Non-linearity: No (USB2+H05261)
Correct for Stray Light: No (USB2+H05261)
Number of Pixels in Processed Spectrum: 2048
>>>>>Begin Processed Spectral Data<<<<<
365.73	0.00
365.92	0.00
366.12	0.00
366.32	0.00
366.52	0.00
366.72	0.00
366.91	0.00
367.11	0.00
367.31	0.00
367.51	0.00
367.70	0.00
367.90	0.00
368.10	0.00
368.30	0.00
368.49	0.00
368.69	0.00
368.89	0.00
369.09	0.00
369.28	0.00
369.48	0.00
369.68	0.00
369.87	0.00
370.07	0.00
370.27	0.00
370.47	0.00
370.66	840.25
370.86	1032.18
371.06	1015.79
371.25	1032.18
371.45	903.45
371.65	720.88
371.84	777.06
372.04	910.47
372.24	891.74
372.44	1062.60
372.63	992.39
372.83	947.92
373.03	681.10
373.22	732.59
373.42	807.48
373.62	945.58
373.81	1076.65
374.01	983.02
374.21	898.77
374.40	835.57
374.60	844.93
374.79	1055.58
374.99	1287.29
375.19	1359.85
375.38	1287.29
375.58	1139.84
375.78	1102.39
375.97	1151.54
376.17	1221.76
376.37	1275.59
376.56	1369.21
376.76	1488.58
376.95	1448.79
377.15	1636.03
377.35	1610.29
377.54	1640.72
377.74	1842.00
377.93	1827.96
378.13	1612.63
378.33	1579.86
378.52	1486.24
378.72	1357.51
378.91	1371.55
379.11	1387.94
379.31	1217.08
379.50	1327.08
379.70	1437.09
379.89	1479.22
380.09	1636.03
380.28	1703.91
380.48	1664.12
380.68	1652.42
380.87	1556.46
381.07	1488.58
381.26	1383.26
381.46	1226.44
381.65	1181.97
381.85	1146.86
382.04	1020.47
382.24	994.73
382.43	1062.60
382.63	1046.22
382.83	903.45
383.02	894.08
383.22	945.58
383.41	952.60
383.61	1053.24
383.80	1240.48
384.00	1385.60
384.19	1694.55
384.39	1624.33
384.58	1696.89
384.78	1666.46
384.97	1664.12
385.17	1392.62
385.36	1341.13
385.56	1425.39
385.75	1416.02
385.95	1390.28
386.14	1624.33
386.34	1703.91
386.53	1575.18
386.72	1542.41
386.92	1631.35
387.11	1647.74
387.31	1582.20
387.50	1612.63
387.70	1486.24
387.89	1495.60
388.09	1558.80
388.28	1490.92
388.48	1666.46
388.67	1888.81
388.86	1998.82
389.06	2069.03
389.25	2267.98
389.45	2289.04
389.64	2305.43
389.84	2221.17
390.03	2115.84
390.22	2153.29
390.42	2307.77
390.61	2387.35
390.81	2516.08
391.00	2600.34
391.19	2658.85
391.39	2497.35
391.58	2298.41
391.78	2050.31
391.97	2113.50
392.16	1802.21
392.36	1561.14
392.55	1259.21
392.75	1060.26
392.94	739.61
393.13	940.90
393.33	1142.18
393.52	1497.94
393.71	1715.61
393.91	2036.27
394.10	2120.53
394.29	2415.43
394.49	2605.02
394.68	2759.49
394.88	2705.66
395.07	2787.58
395.26	2761.83
395.46	2633.10
395.65	2427.14
395.84	2106.48
396.04	1682.85
396.23	1416.02
396.42	1167.93
396.62	1355.17
396.81	1458.15
397.00	1947.33
397.19	2382.67
397.39	2939.71
397.58	3169.09
397.77	3382.07
397.97	3435.91
398.16	3475.70
398.35	3609.11
398.55	3723.79
398.74	3812.73
398.93	3889.97
399.12	3749.54
399.32	3716.77
399.51	3817.41
399.70	4084.23
399.90	4072.53
400.09	4121.68
400.28	3955.51
400.47	4044.45
400.67	4325.31
400.86	4215.30
401.05	4161.47
401.24	4294.88
401.44	4280.84
401.63	4325.31
401.82	4353.40
402.01	4280.84
402.21	4351.06
402.40	4360.42
402.59	4325.31
402.78	3971.89
402.97	4152.11
403.17	4301.90
403.36	4278.50
403.55	4629.58
403.74	4641.28
403.93	4381.48
404.13	4056.15
404.32	4021.04
404.51	4231.69
404.70	4535.96
404.89	4400.21
405.09	4411.91
405.28	4346.37
405.47	4418.93
405.66	4238.71
405.85	4117.00
406.05	4025.72
406.24	4142.75
406.43	4224.67
406.62	4557.02
406.81	4542.98
407.00	4269.14
407.20	4077.21
407.39	4447.02
407.58	4582.77
407.77	4627.24
407.96	4540.64
408.15	4884.70
408.34	4910.44
408.54	5032.15
408.73	5034.49
408.92	4938.53
409.11	4643.62
409.30	4472.76
409.49	4320.63
409.68	4077.21
409.87	4168.49
410.07	4273.82
410.26	4517.23
410.45	4695.11
410.64	4978.32
410.83	5193.65
411.02	5273.23
411.21	5483.88
411.40	5308.34
411.59	5430.04
411.78	5394.93
411.98	5167.90
412.17	5249.82
412.36	5289.61
412.55	5020.45
412.74	5081.30
412.93	4959.60
413.12	5048.54
413.31	5699.20
413.50	5345.78
413.69	5362.17
413.88	5261.52
414.07	5289.61
414.26	5160.88
414.45	5472.17
414.64	5439.40
414.83	5336.42
415.02	5446.43
415.22	5343.44
415.41	5633.67
415.60	5811.55
415.79	5947.30
415.98	6066.67
416.17	6111.14
416.36	5998.79
416.55	5774.10
416.74	5612.60
416.93	5533.03
417.12	5542.39
417.31	5565.79
417.50	5572.82
417.69	5820.91
417.88	5823.25
418.07	5788.14
418.26	5757.72
418.45	5879.43
418.64	5888.79
418.83	6069.01
419.02	6026.88
419.21	5863.04
419.39	5540.05
419.58	5404.30
419.77	5504.94
419.96	5680.48
420.15	5970.71
420.34	5942.62
420.53	6387.32
420.72	6384.98
420.91	6345.19
421.10	6092.41
421.29	6303.06
421.48	6038.58
421.67	6164.97
421.86	5996.45
422.05	5516.64
422.24	5083.64
422.43	4997.04
422.61	5720.27
422.80	6078.37
422.99	6167.31
423.18	5741.33
423.37	5600.90
423.56	5774.10
423.75	5895.81
423.94	5994.11
424.13	5561.11
424.32	5425.36
424.50	5736.65
424.69	5710.91
424.88	5657.07
425.07	5556.43
425.26	5666.44
425.45	5631.33
425.64	5551.75
425.83	5696.86
426.01	5935.60
426.20	5844.32
426.39	5804.53
426.58	5383.23
426.77	4919.81
426.96	4908.10
427.15	5090.67
427.33	5582.18
427.52	5533.03
427.71	5561.11
427.90	5397.28
428.09	5394.93
428.28	5336.42
428.46	5263.86
428.65	5217.05
428.84	5294.29
429.03	5240.46
429.22	4851.93
429.40	4624.90
429.59	4313.61
429.78	3833.80
429.97	3880.61
430.16	3808.05
430.34	3922.74
430.53	3808.05
430.72	4126.36
430.91	4550.00
431.10	5305.99
431.28	5989.43
431.47	6492.65
431.66	6356.90
431.85	5928.58
432.03	5305.99
432.22	5441.75
432.41	5547.07
432.60	6160.29
432.79	6389.66
432.97	6509.03
433.16	6230.51
433.35	5689.84
433.54	5036.83
433.72	4858.95
433.91	5214.71
434.10	5537.71
434.28	6045.60
434.47	6181.35
434.66	6155.61
434.85	5975.39
435.03	6064.33
435.22	6251.57
435.41	6736.06
435.59	6651.80
435.78	6672.87
435.97	6736.06
436.16	6745.42
436.34	6644.78
436.53	6590.95
436.72	6574.56
436.90	6207.10
437.09	6340.51
437.28	6090.07
437.46	6392.00
437.65	6050.28
437.84	5720.27
438.02	5266.21
438.21	5380.89
438.40	5685.16
438.58	6108.80
438.77	6253.91
438.96	6321.79
439.14	6663.51
439.33	6679.89
439.52	6703.29
439.70	6619.04
439.89	6347.53
440.08	6300.72
440.26	6408.39
440.45	6677.55
440.63	7274.38
440.82	7449.93
441.01	7110.55
441.19	7080.12
441.38	7480.35
441.57	7440.56
441.75	7475.67
441.94	7447.58
442.12	7466.31
442.31	7864.20
442.50	7777.60
442.68	7648.87
442.87	7454.61
443.05	7255.66
443.24	7445.24
443.43	7588.02
443.61	7625.47
443.80	7911.01
443.98	7290.77
444.17	7648.87
444.35	7768.24
444.54	7899.31
444.73	7700.36
444.91	7463.97
445.10	7077.78
445.28	6935.01
445.47	6918.62
445.65	6644.78
445.84	6995.86
446.02	7260.34
446.21	7351.62
446.39	7396.09
446.58	7454.61
446.77	7609.08
446.95	7728.45
447.14	7782.28
447.32	7868.88
447.51	7590.36
447.69	7410.14
447.88	7360.98
448.06	7328.22
448.25	7478.01
448.43	7604.40
448.62	7424.18
448.80	7475.67
448.99	7609.08
449.17	7730.79
449.36	7676.96
449.54	7803.35
449.73	7939.10
449.91	8049.10
450.10	8477.42
450.28	8294.86
450.46	8147.40
450.65	8252.73
450.83	8241.03
451.02	7939.10
451.20	8051.44
451.39	7953.14
451.57	7784.62
451.76	7939.10
451.94	8067.83
452.13	7637.17
452.31	7454.61
452.49	7152.68
452.68	7049.69
452.86	6977.14
453.05	7183.10
453.23	7676.96
453.42	7836.11
453.60	7808.03
453.78	7887.61
453.97	7723.77
454.15	7529.50
454.34	7543.55
454.52	7215.87
454.70	7225.23
454.89	7520.14
455.07	7400.77
455.26	7749.51
455.44	7885.26
455.62	7960.16
455.81	7915.69
455.99	7857.18
456.17	7630.15
456.36	7695.68
456.54	7932.08
456.73	7997.61
456.91	8002.29
457.09	8397.84
457.28	8437.63
457.46	7934.42
457.64	7999.95
457.83	7712.07
458.01	7527.16
458.19	7763.56
458.38	7730.79
458.56	7976.55
458.74	7747.17
458.93	7669.94
459.11	7880.58
459.29	7859.52
459.48	7728.45
459.66	7648.87
459.84	7857.18
460.03	7805.69
460.21	7857.18
460.39	8102.93
460.57	8131.02
460.76	8124.00
460.94	8180.17
461.12	8112.30
461.31	7824.41
461.49	8262.09
461.67	7974.21
461.85	8222.30
462.04	8161.45
462.22	8259.75
462.40	8306.56
462.59	8011.65
462.77	8149.75
462.95	8234.00
463.13	8135.70
463.32	7962.50
463.50	7728.45
463.68	7733.13
463.86	7873.56
464.05	7815.05
464.23	7786.96
464.41	7723.77
464.59	7707.38
464.78	8032.72
464.96	7962.50
465.14	7772.92
465.32	8002.29
465.50	8138.04
465.69	8135.70
465.87	7784.62
466.05	7475.67
466.23	7426.52
466.41	7162.04
466.60	7653.55
466.78	7822.07
466.96	7578.65
467.14	7789.30
467.32	7707.38
467.51	7737.81
467.69	7269.70
467.87	7344.60
468.05	7440.56
468.23	7676.96
468.41	7836.11
468.60	7581.00
468.78	7693.34
468.96	7658.23
469.14	7864.20
469.32	8030.38
469.50	7501.42
469.69	7300.13
469.87	7307.15
470.05	7344.60
470.23	7377.37
470.41	7316.51
470.59	7726.11
470.77	7438.22
470.95	7662.91
471.14	7667.60
471.32	7616.10
471.50	8182.51
471.68	8166.13
471.86	8369.76
472.04	8077.19
472.22	8407.20
472.40	7999.95
472.58	7733.13
472.77	7836.11
472.95	8009.31
473.13	8074.85
473.31	7878.24
473.49	7686.32
473.67	8046.76
473.85	7829.09
474.03	8198.90
474.21	8198.90
474.39	8201.24
474.57	8327.63
474.75	8421.25
474.93	8362.73
475.12	7999.95
475.30	8107.62
475.48	8203.58
475.66	8138.04
475.84	8091.23
476.02	8035.06
476.20	7875.90
476.38	8079.53
476.56	8018.68
476.74	8557.00
476.92	8463.38
477.10	8594.45
477.28	8758.28
477.46	8549.98
477.64	8856.59
477.82	9060.21
478.00	9004.04
478.18	8952.55
478.36	8727.86
478.54	8720.84
478.72	8580.40
478.90	9165.54
479.08	9202.99
479.26	9451.08
479.44	9123.41
479.62	9259.16
479.80	8884.67
479.98	9074.26
480.16	9263.84
480.34	9298.95
480.52	9305.97
480.70	9179.58
480.88	9193.62
481.06	9792.80
481.24	9785.78
481.41	10076.01
481.59	9905.15
481.77	9706.20
481.95	9593.86
482.13	9944.94
482.31	10036.22
482.49	9750.67
482.67	9813.87
482.85	9776.42
483.03	9968.34
483.21	10197.71
483.39	9816.21
483.57	9825.57
483.74	9848.97
483.92	9776.42
484.10	9818.55
484.28	9856.00
484.46	10120.48
484.64	10244.52
484.82	10017.49
485.00	9956.64
485.18	9479.17
485.35	9217.03
485.53	8341.67
485.71	7695.68
485.89	7899.31
486.07	8372.10
486.25	8964.25
486.43	9329.38
486.61	9411.29
486.78	9453.42
486.96	9783.44
487.14	10232.82
487.32	10277.29
487.50	10541.77
487.68	10693.91
487.85	10544.11
488.03	10574.54
488.21	10485.60
488.39	10303.04
488.57	10354.53
488.75	10296.02
488.92	10649.44
489.10	11405.43
489.28	11527.14
489.46	11676.93
489.64	11674.59
489.81	11922.69
489.99	11719.06
490.17	11658.21
490.35	11927.37
490.53	11868.86
490.70	11665.23
490.88	11529.48
491.06	11871.20
491.24	11632.46
491.41	11379.68
491.59	10780.51
491.77	10462.19
491.95	10836.68
492.13	11339.90
492.30	11557.57
492.48	12400.16
492.66	12549.95
492.84	12416.54
493.01	12313.56
493.19	11866.52
493.37	11777.58
493.54	11651.19
493.72	12067.80
493.90	12266.75
494.08	12341.64
494.25	12821.45
494.43	12919.76
494.61	13287.22
494.79	12861.24
494.96	12776.98
495.14	12678.68
495.32	12472.71
495.49	12053.76
495.67	12559.31
495.85	13057.85
496.02	13062.53
496.20	13013.38
496.38	12793.37
496.55	12713.79
496.73	12872.95
496.91	12915.08
497.09	13350.42
497.26	13252.11
497.44	13092.96
497.62	12634.21
497.79	12486.76
497.97	12142.70
498.14	12098.23
498.32	12617.83
498.50	12987.63
498.67	13247.43
498.85	13153.81
499.03	13015.72
499.20	13378.50
499.38	13078.91
499.56	12769.96
499.73	12954.87
499.91	12482.08
500.08	12173.13
500.26	12283.13
500.44	12453.99
500.61	12774.64
500.79	12510.16
500.97	12617.83
501.14	12390.80
501.32	12266.75
501.49	12325.26
501.67	12475.06
501.84	12746.56
502.02	12624.85
502.20	12397.82
502.37	12903.37
502.55	12849.54
502.72	13130.41
502.90	13490.85
503.07	13259.13
503.25	12784.01
503.43	12320.58
503.60	12025.67
503.78	11719.06
503.95	12032.69
504.13	12500.80
504.30	13193.60
504.48	12868.27
504.65	12718.47
504.83	12828.48
505.01	12720.81
505.18	12964.23
505.36	13579.79
505.53	13579.79
505.71	13874.70
505.88	13762.35
506.06	13509.57
506.23	13029.76
506.41	13142.11
506.58	13217.01
506.76	12968.91
506.93	13364.46
507.11	12971.25
507.28	12896.35
507.46	12615.49
507.63	12276.11
507.81	12304.20
507.98	12360.37
508.16	12879.97
508.33	13099.98
508.50	13160.83
508.68	13280.20
508.85	13671.07
509.03	13298.92
509.20	13153.81
509.38	12594.42
509.55	12224.62
509.73	12594.42
509.90	12919.76
510.08	12971.25
510.25	12961.89
510.42	12571.02
510.60	13160.83
510.77	13273.18
510.95	13207.64
511.12	13071.89
511.30	13425.31
511.47	13870.01
511.64	13729.58
511.82	13263.82
511.99	12631.87
512.17	12741.88
512.34	12669.32
512.51	12461.01
512.69	12617.83
512.86	12636.55
513.04	12774.64
513.21	12915.08
513.38	12753.58
513.56	12533.57
513.73	12109.93
513.90	12067.80
514.08	12084.19
514.25	12554.63
514.43	12823.80
514.60	12730.17
514.77	12589.74
514.95	12617.83
515.12	12732.51
515.29	12814.43
515.47	12521.87
515.64	13018.06
515.81	12830.82
515.99	12704.43
516.16	11630.12
516.33	10878.81
516.51	10291.34
516.68	9884.08
516.85	9687.48
517.03	10214.10
517.20	11115.20
517.37	12081.85
517.54	12245.68
517.72	11882.90
517.89	10977.11
518.06	10366.23
518.24	10462.19
518.41	11208.83
518.58	11857.15
518.75	11754.17
518.93	11967.16
519.10	11730.76
519.27	12088.87
519.45	12116.95
519.62	12355.69
519.79	12482.08
519.96	12514.84
520.14	12116.95
520.31	11873.54
520.48	11988.22
520.65	12060.78
520.83	12428.24
521.00	12547.61
521.17	12526.55
521.34	11985.88
521.52	12226.96
521.69	12730.17
521.86	12706.77
522.03	12297.17
522.20	12046.74
522.38	11569.27
522.55	11590.33
522.72	11683.95
522.89	11777.58
523.07	12102.91
523.24	12203.55
523.41	12617.83
523.58	12512.50
523.75	12379.09
523.92	12755.92
524.10	12666.98
524.27	12507.82
524.44	12978.27
524.61	12730.17
524.78	12358.03
524.96	12355.69
525.13	12540.59
525.30	12734.85
525.47	12802.73
525.64	12889.33
525.81	12191.85
525.98	11571.61
526.16	10785.19
526.33	10855.40
526.50	10633.05
526.67	10607.31
526.84	10869.45
527.01	11513.10
527.18	11637.14
527.36	12002.27
527.53	12355.69
527.70	12287.81
527.87	11775.24
528.04	11913.33
528.21	12131.00
528.38	12081.85
528.55	12463.35
528.72	12470.37
528.89	12610.81
529.07	12643.57
529.24	12100.57
529.41	12023.33
529.58	11655.87
529.75	11939.07
529.92	12184.83
530.09	11805.66
530.26	12121.63
530.43	12245.68
530.60	12379.09
530.77	12812.09
530.94	12580.38
531.11	12400.16
531.28	12020.99
531.46	11742.47
531.63	11960.14
531.80	12116.95
531.97	11929.71
532.14	11417.13
532.31	11171.38
532.48	10675.18
532.65	10780.51
532.82	11234.57
532.99	11576.29
533.16	11976.52
533.33	12140.36
533.50	12058.44
533.67	11658.21
533.84	11564.59
534.01	11494.37
534.18	11796.30
534.35	11824.39
534.52	11513.10
534.69	12011.63
534.86	12109.93
535.03	11992.90
535.20	12079.50
535.37	12112.27
535.54	12404.84
535.71	11988.22
535.88	12163.76
536.05	11789.28
536.22	11499.05
536.38	11487.35
536.55	11435.86
536.72	11257.98
536.89	11211.17
537.06	11159.67
537.23	11466.28
537.40	11499.05
537.57	11721.40
537.74	11288.40
537.91	11468.62
538.08	11768.21
538.25	11541.18
538.42	11592.67
538.59	11496.71
538.75	11152.65
538.92	11026.26
539.09	11033.29
539.26	10949.03
539.43	10724.33
539.60	10633.05
539.77	10600.29
539.94	10614.33
540.11	10303.04
540.28	10368.57
540.44	10527.73
540.61	10452.83
540.78	10932.64
540.95	10991.16
541.12	10834.34
541.29	10836.68
541.46	10927.96
541.62	11016.90
541.79	10839.02
541.96	10696.25
542.13	10785.19
542.30	11056.69
542.47	11133.93
542.63	11002.86
542.80	10569.86
542.97	10630.71
543.14	10532.41
543.31	10745.40
543.48	11037.97
543.64	11262.66
543.81	11307.13
543.98	11300.11
544.15	10906.90
544.32	10824.98
544.48	11129.25
544.65	10902.22
544.82	11112.86
544.99	10895.19
545.16	10911.58
545.32	10534.75
545.49	10977.11
545.66	11190.10
545.83	11192.44
546.00	10885.83
546.16	10958.39
546.33	10897.53
546.50	10986.47
546.67	11101.16
546.83	10869.45
547.00	10761.78
547.17	10483.26
547.34	10757.10
547.50	10656.46
547.67	10574.54
547.84	10394.32
548.00	10420.06
548.17	10799.23
548.34	10860.09
548.51	10672.84
548.67	11061.37
548.84	11108.18
549.01	10934.98
549.18	10864.77
549.34	10808.59
549.51	10757.10
549.68	10499.64
549.84	10354.53
550.01	10633.05
550.18	10434.11
550.34	10684.55
550.51	10361.55
550.68	10562.84
550.84	10099.41
551.01	10242.18
551.18	10050.26
551.34	10293.68
551.51	10455.17
551.68	10712.63
551.84	10466.88
552.01	10342.83
552.18	10403.68
552.34	10113.45
552.51	10057.28
552.68	10104.09
552.84	9898.13
553.01	10305.38
553.18	10305.38
553.34	9989.41
553.51	10242.18
553.67	10019.83
553.84	10623.69
554.01	10349.85
554.17	10399.00
554.34	10368.57
554.51	10422.41
554.67	10672.84
554.84	10527.73
555.00	10375.59
555.17	10279.63
555.33	10216.44
555.50	10349.85
555.67	10427.09
555.83	10305.38
556.00	9928.55
556.16	9966.00
556.33	9783.44
556.50	9893.44
556.66	9502.58
556.83	9626.62
556.99	9635.99
557.16	9652.37
557.32	9778.76
557.49	9987.07
557.65	9818.55
557.82	9528.32
557.98	9769.40
558.15	9940.26
558.32	9418.32
558.48	9275.54
558.65	9345.76
558.81	9504.92
558.98	9294.27
559.14	9392.57
559.31	9568.11
559.47	9275.54
559.64	9324.69
559.80	9469.81
559.97	9296.61
560.13	9554.07
560.30	9764.72
560.46	10054.94
560.63	10258.57
560.79	9858.34
560.96	9846.63
561.12	9455.76
561.29	9193.62
561.45	9132.77
561.61	9050.85
561.78	9305.97
561.94	9198.31
562.11	9242.78
562.27	9437.04
562.44	9523.64
562.60	9551.73
562.77	9687.48
562.93	9607.90
563.10	9430.02
563.26	9387.89
563.42	8891.70
563.59	8952.55
563.75	9205.33
563.92	9439.38
564.08	9327.03
564.24	9289.59
564.41	9050.85
564.57	9165.54
564.74	9109.36
564.90	8990.00
565.07	9053.19
565.23	8720.84
565.39	8975.95
565.56	8779.35
565.72	8788.71
565.88	8814.46
566.05	8865.95
566.21	8744.24
566.38	8711.47
566.54	9125.75
566.70	8982.98
566.87	9013.40
567.03	9067.24
567.19	9345.76
567.36	9050.85
567.52	9296.61
567.68	8994.68
567.85	8739.56
568.01	8596.79
568.17	8414.23
568.34	8472.74
568.50	8454.02
568.66	8580.40
568.83	8587.43
568.99	8470.40
569.15	8521.89
569.32	8805.10
569.48	8826.16
569.64	8578.06
569.81	8482.10
569.97	8493.80
570.13	8435.29
570.30	8470.40
570.46	8161.45
570.62	7960.16
570.78	7744.83
570.95	7957.82
571.11	8271.45
571.27	8294.86
571.43	8381.46
571.60	8374.44
571.76	8454.02
571.92	8751.26
572.09	8477.42
572.25	8458.70
572.41	8617.85
572.57	8444.65
572.74	8432.95
572.90	8414.23
573.06	8465.72
573.22	8610.83
573.38	8486.78
573.55	8236.35
573.71	8339.33
573.87	8571.04
574.03	8624.87
574.20	8528.91
574.36	8257.41
574.52	8255.07
574.68	8028.04
574.84	8105.28
575.01	7786.96
575.17	8011.65
575.33	7885.26
575.49	7854.84
575.65	8163.79
575.82	8028.04
575.98	7861.86
576.14	8058.46
576.30	7981.23
576.46	8039.74
576.62	7845.48
576.79	8065.49
576.95	7805.69
577.11	7826.75
577.27	8049.10
577.43	8156.77
577.59	7878.24
577.75	7915.69
577.92	7644.19
578.08	7618.44
578.24	7470.99
578.40	7709.72
578.56	7667.60
578.72	7588.02
578.88	7859.52
579.04	7955.48
579.21	7826.75
579.37	7691.00
579.53	7882.92
579.69	7679.30
579.85	7524.82
580.01	7740.15
580.17	7564.61
580.33	7847.82
580.49	7737.81
580.65	7653.55
580.82	7569.29
580.98	7742.49
581.14	7564.61
581.30	7712.07
581.46	7866.54
581.62	7824.41
581.78	7871.22
581.94	8009.31
582.10	7850.16
582.26	7772.92
582.42	7892.29
582.58	7922.71
582.74	7662.91
582.90	7665.25
583.06	8084.21
583.22	7927.39
583.38	7793.98
583.54	7985.91
583.70	7775.26
583.86	7803.35
584.02	7723.77
584.18	7812.71
584.34	7756.54
584.50	8018.68
584.66	7604.40
584.82	7609.08
584.98	7660.57
585.14	7424.18
585.30	7267.36
585.46	7077.78
585.62	7197.15
585.78	7485.03
585.94	7358.64
586.10	7372.69
586.26	7442.90
586.42	7468.65
586.58	7492.05
586.74	7220.55
586.90	7152.68
587.06	7206.51
587.22	7239.28
587.38	7323.54
587.54	7197.15
587.70	7302.47
587.86	6965.43
588.02	6951.39
588.18	6864.79
588.34	6726.70
588.49	6562.86
588.65	6031.56
588.81	5921.56
588.97	6188.38
589.13	5987.09
589.29	5909.85
589.45	6228.17
589.61	6494.99
589.77	6825.00
589.93	6773.51
590.08	6862.45
590.24	7143.32
590.40	7040.33
590.56	6902.24
590.72	6923.30
590.88	6710.32
591.04	6825.00
591.20	6745.42
591.35	6544.14
591.51	6747.76
591.67	6817.98
591.83	6810.96
591.99	6897.56
592.15	6799.26
592.31	6874.15
592.46	6808.62
