SpectraSuite Data File
++++++++++++++++++++++++++++++++++++
Date: Mon Oct 07 14:53:54 GMT-05:00 2013
User: price-jones
Dark Spectrum Present: No
Reference Spectrum Present: No
Number of Sampled Component Spectra: 1
Spectrometers: USB2+H05261
Integration Time (usec): 100000 (USB2+H05261)
Spectra Averaged: 1 (USB2+H05261)
Boxcar Smoothing: 0 (USB2+H05261)
Correct for Electrical Dark: No (USB2+H05261)
Strobe/Lamp Enabled: No (USB2+H05261)
Correct for Detector Non-linearity: No (USB2+H05261)
Correct for Stray Light: No (USB2+H05261)
Number of Pixels in Processed Spectrum: 2048
>>>>>Begin Processed Spectral Data<<<<<
365.73	0.00
365.92	0.00
366.12	0.00
366.32	0.00
366.52	0.00
366.72	0.00
366.91	0.00
367.11	0.00
367.31	0.00
367.51	0.00
367.70	0.00
367.90	0.00
368.10	0.00
368.30	0.00
368.49	0.00
368.69	0.00
368.89	0.00
369.09	0.00
369.28	0.00
369.48	0.00
369.68	0.00
369.87	0.00
370.07	0.00
370.27	0.00
370.47	606.20
370.66	3075.46
370.86	3611.45
371.06	4014.02
371.25	3911.04
371.45	3496.76
371.65	3173.77
371.84	3021.63
372.04	3248.66
372.24	3531.87
372.44	3569.32
372.63	3756.56
372.83	3421.86
373.03	3049.72
373.22	2801.62
373.42	2820.35
373.62	3302.50
373.81	3714.43
374.01	3712.09
374.21	3290.79
374.40	3124.62
374.60	3176.11
374.79	3503.78
374.99	4208.28
375.19	4458.72
375.38	4685.75
375.58	4245.73
375.78	4182.54
375.97	4208.28
376.17	4365.10
376.37	4423.61
376.56	4486.81
376.76	4777.03
376.95	5118.75
377.15	5420.68
377.35	5678.14
377.54	5900.49
377.74	6031.56
377.93	6031.56
378.13	5746.02
378.33	5607.92
378.52	5181.95
378.72	5013.43
378.91	4858.95
379.11	4837.89
379.31	4594.47
379.50	4535.96
379.70	4905.76
379.89	5455.79
380.09	5636.01
380.28	5940.28
380.48	5909.85
380.68	5755.38
380.87	5523.66
381.07	5172.58
381.26	4865.97
381.46	4643.62
381.65	4451.70
381.85	4224.67
382.04	4161.47
382.24	3765.92
382.43	3623.15
382.63	3555.27
382.83	3679.32
383.02	3627.83
383.22	3475.70
383.41	3494.42
383.61	3681.66
383.80	4327.65
384.00	4870.65
384.19	5607.92
384.39	5804.53
384.58	5949.64
384.78	5657.07
384.97	5738.99
385.17	5310.68
385.36	5121.09
385.56	4819.16
385.75	5055.56
385.95	5497.92
386.14	5860.70
386.34	6108.80
386.53	5825.59
386.72	5406.64
386.92	5418.34
387.11	5701.54
387.31	6050.28
387.50	5820.91
387.70	5689.84
387.89	5701.54
388.09	5865.38
388.28	5827.93
388.48	5738.99
388.67	6122.84
388.86	6862.45
389.06	7279.07
389.25	7637.17
389.45	7936.76
389.64	7676.96
389.84	7667.60
390.03	7475.67
390.22	7634.83
390.42	7957.82
390.61	8374.44
390.81	8959.57
391.00	9006.38
391.19	9041.49
391.39	8779.35
391.58	8187.19
391.78	7578.65
391.97	7494.40
392.16	6834.36
392.36	6370.94
392.55	5177.26
392.75	4168.49
392.94	3356.33
393.13	3290.79
393.33	3779.97
393.52	4959.60
393.71	5989.43
393.91	7012.24
394.10	7428.86
394.29	8112.30
394.49	8784.03
394.68	9563.43
394.88	9497.89
395.07	9774.08
395.26	9715.56
395.46	9523.64
395.65	8781.69
395.84	7829.09
396.04	6464.56
396.23	5408.98
396.42	4458.72
396.62	4362.76
396.81	4865.97
397.00	6502.01
397.19	7971.86
397.39	9593.86
397.58	10588.58
397.77	11396.07
397.97	11672.25
398.16	12060.78
398.35	12336.96
398.55	12758.26
398.74	13057.85
398.93	13486.17
399.12	13172.54
399.32	12994.65
399.51	13111.68
399.70	13717.88
399.90	13582.13
400.09	13893.42
400.28	13797.46
400.47	14040.87
400.67	14480.89
400.86	15063.69
401.05	14897.51
401.24	14930.28
401.44	15302.42
401.63	15187.74
401.82	15089.43
402.01	15269.66
402.21	15634.78
402.40	15606.69
402.59	14925.60
402.78	14483.24
402.97	14003.43
403.17	14602.60
403.36	15536.48
403.55	16067.78
403.74	15885.22
403.93	15314.13
404.13	14197.69
404.32	14122.79
404.51	14380.25
404.70	15854.79
404.89	15742.44
405.09	15768.19
405.28	15199.44
405.47	15000.49
405.66	14857.72
405.85	14736.01
406.05	14307.69
406.24	14413.02
406.43	14759.42
406.62	15274.34
406.81	15604.35
407.00	14946.66
407.20	15094.11
407.39	14759.42
407.58	15702.65
407.77	16170.76
407.96	16755.90
408.15	17008.67
408.34	17036.76
408.54	17511.89
408.73	17764.67
408.92	17626.57
409.11	17116.34
409.30	16339.28
409.49	15384.34
409.68	14225.78
409.87	13795.12
410.07	14675.16
410.26	15812.66
410.45	16971.22
410.64	17261.45
410.83	17603.17
411.02	18176.60
411.21	19241.54
411.40	18700.88
411.59	18855.36
411.78	18602.58
411.98	18181.28
412.17	18944.30
412.36	18574.49
412.55	18455.12
412.74	18221.07
412.93	17638.28
413.12	17745.94
413.31	19353.89
413.50	19639.44
413.69	19943.70
413.88	19360.91
414.07	18761.73
414.26	18984.09
414.45	19723.69
414.64	19538.79
414.83	19503.68
415.02	19201.76
415.22	19566.88
415.41	19796.25
415.60	20107.54
415.79	20954.82
415.98	21734.21
416.17	21654.64
416.36	20968.86
416.55	20835.45
416.74	20318.19
416.93	19243.88
417.12	19829.02
417.31	19616.03
417.50	20397.77
417.69	20884.60
417.88	20671.61
418.07	20350.96
418.26	20137.97
418.45	20266.70
418.64	20898.64
418.83	21757.62
419.02	21446.33
419.21	21099.93
419.39	20210.53
419.58	19262.61
419.77	19480.28
419.96	20496.07
420.15	21504.84
420.34	21956.57
420.53	22473.82
420.72	23152.58
420.91	23012.15
421.10	22506.59
421.29	22459.78
421.48	21291.85
421.67	22815.54
421.86	22328.71
422.05	21032.05
422.24	18513.64
422.43	18473.85
422.61	20290.10
422.80	22249.13
422.99	21802.09
423.18	21366.75
423.37	20854.17
423.56	20863.54
423.75	21472.07
423.94	21338.66
424.13	20547.56
424.32	20393.09
424.50	20671.61
424.69	20456.28
424.88	20542.88
425.07	20423.51
425.26	20575.65
425.45	20142.65
425.64	19648.80
425.83	19704.97
426.01	21071.84
426.20	21504.84
426.39	21750.60
426.58	19852.42
426.77	18384.91
426.96	17664.02
427.15	18347.46
427.33	19810.29
427.52	20863.54
427.71	20650.55
427.90	20526.50
428.09	20262.02
428.28	19971.79
428.46	19330.48
428.65	18817.91
428.84	19283.67
429.03	19541.13
429.22	18712.58
429.40	17579.76
429.59	16116.93
429.78	14075.98
429.97	14321.74
430.16	14469.19
430.34	14373.23
430.53	14494.94
430.72	14906.87
430.91	16262.04
431.10	19073.03
431.28	22548.72
431.47	24463.28
431.66	24463.28
431.85	22714.90
432.03	20603.74
432.22	19625.39
432.41	20659.91
432.60	22703.20
432.79	23960.06
432.97	24240.93
433.16	23931.98
433.35	21626.55
433.54	19309.42
433.72	18604.92
433.91	18890.46
434.10	20947.79
434.28	22338.07
434.47	23971.77
434.66	23283.65
434.85	23061.30
435.03	22513.61
435.22	23185.35
435.41	24580.31
435.59	24535.84
435.78	24971.18
435.97	25820.79
436.16	25745.89
436.34	25263.74
436.53	24882.24
436.72	25249.70
436.90	23281.31
437.09	23477.91
437.28	23007.47
437.46	24037.30
437.65	24074.75
437.84	22590.85
438.02	20521.82
438.21	20215.21
438.40	21542.29
438.58	23035.55
438.77	23807.93
438.96	24210.50
439.14	25167.78
439.33	25738.87
439.52	26405.92
439.70	25750.57
439.89	25099.90
440.08	24280.72
440.26	24304.12
440.45	25230.98
440.63	26471.46
440.82	28039.62
441.01	27997.49
441.19	27267.24
441.38	28009.19
441.57	28727.74
441.75	29186.48
441.94	29544.58
442.12	29146.69
442.31	29668.63
442.50	29453.30
442.68	29355.00
442.87	29102.22
443.05	28573.26
443.24	28854.12
443.43	29378.40
443.61	30082.91
443.80	30682.08
443.98	29134.99
444.17	28690.29
444.35	30391.86
444.54	31087.00
444.73	30499.52
444.91	29495.43
445.10	28189.41
445.28	27016.80
445.47	26686.79
445.65	26841.26
445.84	27637.05
446.02	28261.97
446.21	28706.67
446.39	28570.92
446.58	29284.78
446.77	29500.11
446.95	30211.64
447.14	30630.59
447.32	31335.09
447.51	30595.48
447.69	29479.05
447.88	28816.68
448.06	29209.89
448.25	30312.28
448.43	30534.63
448.62	29593.73
448.80	29633.52
448.99	29736.51
449.17	30265.47
449.36	30087.59
449.54	31384.24
449.73	31693.19
449.91	32032.57
450.10	33385.40
450.28	33134.96
450.46	32971.13
450.65	33186.46
450.83	32870.48
451.02	32275.99
451.20	32758.14
451.39	31798.52
451.57	31468.50
451.76	31840.65
451.94	31395.95
452.13	31204.02
452.31	29635.86
452.49	28081.75
452.68	28685.61
452.86	28437.51
453.05	28828.38
453.23	29638.20
453.42	30740.60
453.60	31381.90
453.78	31660.43
453.97	31297.64
454.15	31611.28
454.34	30560.37
454.52	30962.95
454.70	29780.98
454.89	30646.97
455.07	31075.29
455.26	31145.51
455.44	32603.66
455.62	32856.44
455.81	32795.59
455.99	32900.91
456.17	32173.00
456.36	32484.30
456.54	33369.02
456.73	32996.87
456.91	33717.76
457.09	33818.40
457.28	34768.66
457.46	33553.92
457.64	32596.64
457.83	32191.73
458.01	31534.04
458.19	32341.52
458.38	32397.70
458.56	33762.23
458.74	33259.01
458.93	32924.32
459.11	32636.43
459.29	32261.94
459.48	32657.49
459.66	32465.57
459.84	32762.82
460.03	33221.56
460.21	33350.29
460.39	34305.23
460.57	33855.85
460.76	34066.50
460.94	34206.93
461.12	33900.32
461.31	34061.82
461.49	33928.41
461.67	33937.77
461.85	35253.15
462.04	34878.66
462.22	35648.70
462.40	35208.68
462.59	34597.80
462.77	34998.03
462.95	34913.77
463.13	34625.89
463.32	34029.05
463.50	33661.58
463.68	33933.09
463.86	33727.12
464.05	33457.96
464.23	32727.71
464.41	32325.14
464.59	31974.06
464.78	33818.40
464.96	33481.36
465.14	33441.57
465.32	34155.44
465.50	34859.94
465.69	34909.09
465.87	34637.59
466.05	33741.16
466.23	31906.18
466.41	31386.58
466.60	32435.14
466.78	32165.98
466.96	33050.70
467.14	33600.73
467.32	33834.78
467.51	34171.82
467.69	32243.22
467.87	33074.11
468.05	33352.63
468.23	33277.74
468.41	33614.77
468.60	33839.47
468.78	34305.23
468.96	33137.30
469.14	33923.72
469.32	34450.35
469.50	32900.91
469.69	33085.81
469.87	32896.23
470.05	32266.63
470.23	32559.19
470.41	32580.26
470.59	32971.13
470.77	33256.67
470.95	33771.59
471.14	34403.53
471.32	34089.90
471.50	36341.50
471.68	36102.76
471.86	36601.30
472.04	36477.25
472.22	36844.71
472.40	35175.91
472.58	34656.31
472.77	34178.84
472.95	35119.74
473.13	35662.74
473.31	35054.20
473.49	35517.63
473.67	35922.54
473.85	36055.95
474.03	36753.43
474.21	37041.32
474.39	37493.04
474.57	37801.99
474.75	37165.37
474.93	37532.83
475.12	36308.73
475.30	36596.62
475.48	36636.41
475.66	37123.24
475.84	36531.08
476.02	36631.72
476.20	36165.96
476.38	36486.61
476.56	37783.27
476.74	38490.11
476.92	38321.59
477.10	39187.59
477.28	40048.91
477.46	40158.91
477.64	40612.98
477.82	40318.07
478.00	40664.47
478.18	40353.18
478.36	39854.64
478.54	39632.29
478.72	39974.01
478.90	41163.00
479.08	42330.93
479.26	42864.57
479.44	42267.73
479.62	42387.10
479.80	42337.95
479.98	42625.84
480.16	43290.55
480.34	42499.45
480.52	43002.66
480.70	42761.59
480.88	43115.01
481.06	43882.70
481.24	44105.06
481.41	44839.98
481.59	45500.01
481.77	45322.13
481.95	44388.26
482.13	44437.41
482.31	44444.43
482.49	45537.46
482.67	45275.32
482.85	45184.04
483.03	45975.14
483.21	46394.10
483.39	46174.09
483.57	45717.68
483.74	44975.73
483.92	45312.77
484.10	45610.02
484.28	46691.35
484.46	46717.09
484.64	47501.17
484.82	46611.77
485.00	46124.94
485.18	45113.83
485.35	44306.34
485.53	41041.29
485.71	37095.15
485.89	36528.74
486.07	38890.34
486.25	41514.08
486.43	43936.54
486.61	45324.47
486.78	44844.66
486.96	44987.44
487.14	47222.65
487.32	47936.51
487.50	48804.85
487.68	49448.50
487.85	50307.47
488.03	50490.04
488.21	49474.24
488.39	48893.79
488.57	48547.39
488.75	47707.14
488.92	48921.88
489.10	51260.07
489.28	52467.79
489.46	53483.58
489.64	52999.09
489.81	53155.91
489.99	52816.53
490.17	52842.27
490.35	53230.80
490.53	52865.68
490.70	52336.72
490.88	52437.36
491.06	53301.02
491.24	53340.81
491.41	52336.72
491.59	50820.05
491.77	49684.89
491.95	50969.85
492.13	52212.67
492.30	53195.70
492.48	54335.54
492.66	54803.64
492.84	54443.20
493.01	54358.94
493.19	54038.29
493.37	53532.73
493.54	53270.59
493.72	53867.43
493.90	54731.09
494.08	55517.51
494.25	55889.65
494.43	55992.64
494.61	56409.25
494.79	56685.43
494.96	56444.36
495.14	55856.88
495.32	54894.92
495.49	54174.04
495.67	55236.64
495.85	56383.51
496.02	56762.67
496.20	56664.37
496.38	56353.08
496.55	56357.76
496.73	56877.36
496.91	56753.31
497.09	57387.60
497.26	57574.84
497.44	57020.13
497.62	56762.67
497.79	55793.69
497.97	54695.98
498.14	54780.24
498.32	55784.33
498.50	56479.47
498.67	57130.14
498.85	57242.48
499.03	57469.51
499.20	57595.90
499.38	57521.01
499.56	57403.98
499.73	56678.41
499.91	56481.81
500.08	55913.06
500.26	55185.15
500.44	55749.22
500.61	56535.64
500.79	56317.97
500.97	55899.01
501.14	55683.69
501.32	55744.54
501.49	55686.03
501.67	55936.46
501.84	56367.12
502.02	56633.94
502.20	56762.67
502.37	57102.05
502.55	56949.92
502.72	57549.09
502.90	58171.67
503.07	57752.72
503.25	57457.81
503.43	56470.11
503.60	56062.85
503.78	55028.34
503.95	55716.45
504.13	57141.84
504.30	57986.77
504.48	57521.01
504.65	57385.25
504.83	57396.96
505.01	57954.00
505.18	58148.27
505.36	58859.79
505.53	58656.17
505.71	59009.59
505.88	59255.34
506.06	58391.68
506.23	58358.92
506.41	57867.40
506.58	58127.20
506.76	58277.00
506.93	58185.72
507.11	57993.79
507.28	58049.97
507.46	57726.97
507.63	57017.79
507.81	56818.84
507.98	56879.70
508.16	57750.38
508.33	58241.89
508.50	58548.50
508.68	58864.47
508.85	59400.46
509.03	59128.95
509.20	59128.95
509.38	58546.16
509.55	57326.74
509.73	57673.14
509.90	58328.49
510.08	58665.53
510.25	58284.02
510.42	58204.44
510.60	58131.89
510.77	58454.88
510.95	58958.09
511.12	59196.83
511.30	59334.92
511.47	59676.64
511.64	59519.82
511.82	59210.87
511.99	58291.04
512.17	58014.86
512.34	57792.51
512.51	57888.47
512.69	58101.46
512.86	58080.39
513.04	58611.70
513.21	58286.36
513.38	58152.95
513.56	57513.98
513.73	57116.09
513.90	57389.94
514.08	57631.01
514.25	57719.95
514.43	57846.34
514.60	58005.50
514.77	58190.40
514.95	58379.98
515.12	58092.10
515.29	58417.43
515.47	58754.47
515.64	59063.42
515.81	58389.34
515.99	58064.01
516.16	56495.85
516.33	54600.02
516.51	52758.02
516.68	52411.62
516.85	51295.18
517.03	52041.81
517.20	54740.45
517.37	57036.51
517.54	58164.65
517.72	57701.23
517.89	55451.97
518.06	52793.12
518.24	53396.98
518.41	55564.32
518.58	56610.54
518.75	56947.57
518.93	57125.46
519.10	56992.04
519.27	57467.17
519.45	57635.69
519.62	58504.03
519.79	58695.95
519.96	58574.25
520.14	58061.67
520.31	57055.24
520.48	57209.71
520.65	57598.24
520.83	58361.26
521.00	58890.22
521.17	58635.10
521.34	58188.06
521.52	58337.85
521.69	58915.96
521.86	59428.54
522.03	58855.11
522.20	57785.49
522.38	57071.62
522.55	56800.12
522.72	57279.93
522.89	57715.27
523.07	57956.35
523.24	58204.44
523.41	58871.49
523.58	59288.11
523.75	59662.60
523.92	59489.40
524.10	59531.53
524.27	59299.81
524.44	59297.47
524.61	59021.29
524.78	58850.43
524.96	58777.87
525.13	58843.41
525.30	59311.52
525.47	59700.04
525.64	59437.90
525.81	58740.42
525.98	57338.44
526.16	56083.92
526.33	55377.08
526.50	55124.30
526.67	54646.83
526.84	55143.02
527.01	56044.13
527.18	56942.89
527.36	57670.80
527.53	58731.06
527.70	58988.52
527.87	58391.68
528.04	58204.44
528.21	58487.65
528.38	58890.22
528.55	59786.64
528.72	60034.74
528.89	60046.44
529.07	59798.35
529.24	59023.63
529.41	58553.18
529.58	57958.69
529.75	58192.74
529.92	58499.35
530.09	58611.70
530.26	59318.54
530.43	59793.67
530.60	59573.66
530.77	59884.95
530.94	59861.54
531.11	59465.99
531.28	59133.63
531.46	58873.84
531.63	59428.54
531.80	58983.84
531.97	58468.92
532.14	57846.34
532.31	56865.66
532.48	56212.65
532.65	56317.97
532.82	57006.09
532.99	58281.68
533.16	58583.61
533.33	59042.35
533.50	58981.50
533.67	58241.89
533.84	57701.23
534.01	58007.84
534.18	58335.51
534.35	58426.79
534.52	58211.46
534.69	58321.47
534.86	58955.75
535.03	58829.37
535.20	59334.92
535.37	59831.11
535.54	59903.67
535.71	59498.76
535.88	59171.08
536.05	58796.60
536.22	58277.00
536.38	57811.23
536.55	57352.49
536.72	56809.48
536.89	56734.59
537.06	57684.84
537.23	58433.81
537.40	58646.80
537.57	58660.85
537.74	58567.23
537.91	58445.52
538.08	58546.16
538.25	58284.02
538.42	58534.46
538.59	58401.05
538.75	57804.21
538.92	57553.77
539.09	57509.30
539.26	57609.95
539.43	57282.27
539.60	57176.95
539.77	57333.76
539.94	57277.59
540.11	56638.62
540.28	55735.18
540.44	56229.03
540.61	56161.15
540.78	56488.83
540.95	56868.00
541.12	57357.17
541.29	57509.30
541.46	57666.12
541.62	57930.60
541.79	57888.47
541.96	57148.86
542.13	57055.24
542.30	57315.04
542.47	57698.89
542.63	57312.70
542.80	57286.95
542.97	57212.06
543.14	57254.18
543.31	57165.24
543.48	57530.37
543.64	58223.17
543.81	58651.48
543.98	58567.23
544.15	57897.83
544.32	57296.31
544.48	57521.01
544.65	57855.70
544.82	58141.25
544.99	57609.95
545.16	57301.00
545.32	57315.04
545.49	58220.83
545.66	58473.60
545.83	58117.84
546.00	57668.46
546.16	57432.07
546.33	57392.28
546.50	57380.57
546.67	58052.31
546.83	57450.79
547.00	57439.09
547.17	56708.84
547.34	56301.59
547.50	56364.78
547.67	56896.08
547.84	56502.87
548.00	56919.49
548.17	57560.79
548.34	57408.66
548.51	57347.81
548.67	57272.91
548.84	57518.67
549.01	57565.48
549.18	57141.84
549.34	57209.71
549.51	57240.14
549.68	57315.04
549.84	56903.10
550.01	56884.38
550.18	56652.67
550.34	56603.52
550.51	56905.44
550.68	57066.94
550.84	56388.19
551.01	56383.51
551.18	56570.75
551.34	56818.84
551.51	57275.25
551.68	57254.18
551.84	57403.98
552.01	57233.12
552.18	57050.56
552.34	56566.07
552.51	55929.44
552.68	55753.90
552.84	56322.65
553.01	56514.58
553.18	56575.43
553.34	56687.78
553.51	56720.54
553.67	56956.94
553.84	57155.88
554.01	56811.82
554.17	56748.63
554.34	56683.09
554.51	56900.76
554.67	57331.42
554.84	57265.89
555.00	56788.42
555.17	56430.32
555.33	56339.04
555.50	56432.66
555.67	56514.58
555.83	56261.80
556.00	56261.80
556.16	56198.60
556.33	55433.25
556.50	55613.47
556.66	55746.88
556.83	55086.85
556.99	55482.40
557.16	55679.00
557.32	55697.73
557.49	56332.01
557.65	55814.76
557.82	56076.90
557.98	55655.60
558.15	55313.88
558.32	54475.97
558.48	53521.03
558.65	53577.20
558.81	54141.27
558.98	54548.53
559.14	54848.11
559.31	54522.78
559.47	54766.20
559.64	54391.71
559.80	54092.12
559.97	53918.92
560.13	54431.50
560.30	55505.80
560.46	55833.48
560.63	56502.87
560.79	56470.11
560.96	56027.74
561.12	54855.14
561.29	53598.27
561.45	53867.43
561.61	54747.47
561.78	54864.50
561.94	54695.98
562.11	54595.34
562.27	54372.99
562.44	54759.17
562.60	55068.12
562.77	55325.58
562.93	55068.12
563.10	55061.10
563.26	54433.84
563.42	54670.23
563.59	54363.62
563.75	54026.59
563.92	54265.32
564.08	54391.71
564.24	54974.50
564.41	54534.48
564.57	54490.01
564.74	54398.73
564.90	54440.86
565.07	54270.00
565.23	53832.32
565.39	53308.04
565.56	53064.63
565.72	52797.80
565.88	53207.40
566.05	53492.94
566.21	53387.62
566.38	53565.50
566.54	53389.96
566.70	54330.86
566.87	54330.86
567.03	54162.34
567.19	54426.82
567.36	54171.70
567.52	54049.99
567.68	53815.94
567.85	53144.20
568.01	52617.58
568.17	52273.52
568.34	52355.44
568.50	52041.81
568.66	52079.26
568.83	53050.58
568.99	52816.53
569.15	53247.19
569.32	53399.32
569.48	53017.82
569.64	52767.38
569.81	52296.93
569.97	52484.17
570.13	52179.90
570.30	51416.89
570.46	51271.78
570.62	50674.94
570.78	50602.38
570.95	50763.88
571.11	51412.21
571.27	51672.01
571.43	51950.53
571.60	52409.28
571.76	52428.00
571.92	52589.50
572.09	52861.00
572.25	52818.87
572.41	52917.17
572.57	52692.48
572.74	52767.38
572.90	52156.50
573.06	52479.49
573.22	52587.16
573.38	52154.16
573.55	52154.16
573.71	52254.80
573.87	52491.19
574.03	51976.28
574.20	52067.56
574.36	51931.81
574.52	51430.93
574.68	51487.10
574.84	50937.08
575.01	50375.35
575.17	50569.61
575.33	50967.51
575.49	50876.22
575.65	51196.88
575.82	51070.49
575.98	50944.10
576.14	51131.34
576.30	51459.02
576.46	51625.20
576.62	51253.05
576.79	51114.96
576.95	51030.70
577.11	50625.79
577.27	50880.91
577.43	50923.04
577.59	50459.61
577.75	49975.12
577.92	49439.14
578.08	49495.31
578.24	49221.47
578.40	49476.58
578.56	49888.52
578.72	49776.17
578.88	50387.05
579.04	50251.30
579.21	50574.30
579.37	50356.63
579.53	50749.84
579.69	50527.48
579.85	50185.77
580.01	50590.68
580.17	50066.40
580.33	49773.83
580.49	49708.30
580.65	50380.03
580.82	50763.88
580.98	50862.18
581.14	50197.47
581.30	50277.05
581.46	50309.82
581.62	50564.93
581.78	50714.73
581.94	50499.40
582.10	50487.70
582.26	51093.89
582.42	50721.75
582.58	50829.41
582.74	50468.97
582.90	50707.71
583.06	50394.07
583.22	50452.59
583.38	50218.53
583.54	50588.34
583.70	50344.92
583.86	49986.82
584.02	50096.83
584.18	50447.91
584.34	50071.08
584.50	50131.93
584.66	49808.94
584.82	49457.86
584.98	49284.66
585.14	48863.36
585.30	48292.27
