SpectraSuite Data File
++++++++++++++++++++++++++++++++++++
Date: Mon Oct 07 14:53:00 GMT-05:00 2013
User: price-jones
Dark Spectrum Present: No
Reference Spectrum Present: No
Number of Sampled Component Spectra: 1
Spectrometers: USB2+H05261
Integration Time (usec): 100000 (USB2+H05261)
Spectra Averaged: 1 (USB2+H05261)
Boxcar Smoothing: 0 (USB2+H05261)
Correct for Electrical Dark: No (USB2+H05261)
Strobe/Lamp Enabled: No (USB2+H05261)
Correct for Detector Non-linearity: No (USB2+H05261)
Correct for Stray Light: No (USB2+H05261)
Number of Pixels in Processed Spectrum: 2048
>>>>>Begin Processed Spectral Data<<<<<
365.73	0.00
365.92	0.00
366.12	0.00
366.32	0.00
366.52	0.00
366.72	0.00
366.91	0.00
367.11	0.00
367.31	0.00
367.51	0.00
367.70	0.00
367.90	0.00
368.10	0.00
368.30	0.00
368.49	0.00
368.69	0.00
368.89	0.00
369.09	0.00
369.28	0.00
369.48	0.00
369.68	0.00
369.87	0.00
370.07	0.00
370.27	0.00
370.47	543.00
370.66	3033.33
370.86	3562.30
371.06	3765.92
371.25	3751.88
371.45	3456.97
371.65	2967.80
371.84	2841.41
372.04	2979.50
372.24	3463.99
372.44	3538.89
372.63	3599.74
372.83	3300.16
373.03	2972.48
373.22	2647.15
373.42	2911.63
373.62	3384.41
373.81	3485.06
374.01	3419.52
374.21	3241.64
374.40	3040.36
374.60	3049.72
374.79	3559.95
374.99	4037.42
375.19	4435.32
375.38	4280.84
375.58	4107.64
375.78	4014.02
375.97	4119.34
376.17	4292.54
376.37	4255.09
376.56	4353.40
376.76	4741.93
376.95	4865.97
377.15	5177.26
377.35	5385.57
377.54	5631.33
377.74	5856.02
377.93	5720.27
378.13	5776.44
378.33	5418.34
378.52	5064.92
378.72	4835.55
378.91	4737.24
379.11	4491.49
379.31	4285.52
379.50	4341.69
379.70	4781.71
379.89	5268.55
380.09	5586.86
380.28	5760.06
380.48	5593.88
380.68	5582.18
380.87	5535.37
381.07	5128.11
381.26	4681.07
381.46	4475.10
381.65	4344.03
381.85	4091.26
382.04	3915.72
382.24	3695.71
382.43	3487.40
382.63	3396.12
382.83	3419.52
383.02	3419.52
383.22	3503.78
383.41	3407.82
383.61	3794.01
383.80	4217.65
384.00	4868.31
384.19	5390.25
384.39	5528.35
384.58	5846.66
384.78	5537.71
384.97	5462.81
385.17	5172.58
385.36	4945.55
385.56	4723.20
385.75	4877.68
385.95	5317.70
386.14	5762.40
386.34	5865.38
386.53	5666.44
386.72	5294.29
386.92	5289.61
387.11	5420.68
387.31	5813.89
387.50	5741.33
387.70	5600.90
387.89	5404.30
388.09	5558.77
388.28	5530.69
388.48	5734.31
388.67	5947.30
388.86	6754.79
389.06	7096.50
389.25	7433.54
389.45	7557.59
389.64	7508.44
389.84	7616.10
390.03	7351.62
390.22	7424.18
390.42	7604.40
390.61	8173.15
390.81	8589.77
391.00	8765.31
391.19	8861.27
391.39	8613.17
391.58	7967.18
391.78	7489.71
391.97	7243.96
392.16	6846.07
392.36	6277.32
392.55	4882.36
392.75	3911.04
392.94	3241.64
393.13	3166.74
393.33	3784.65
393.52	4816.82
393.71	6043.26
393.91	6619.04
394.10	7213.53
394.29	7850.16
394.49	8458.70
394.68	9261.50
394.88	9291.93
395.07	9736.63
395.26	9238.09
395.46	9146.81
395.65	8676.37
395.84	7573.97
396.04	6237.53
396.23	5181.95
396.42	4358.08
396.62	4301.90
396.81	5057.90
397.00	6373.28
397.19	7964.84
397.39	9448.74
397.58	10443.47
397.77	11339.90
397.97	11389.05
398.16	11822.05
398.35	11840.77
398.55	12365.05
398.74	12973.59
398.93	13165.51
399.12	13308.29
399.32	12685.70
399.51	12961.89
399.70	13614.90
399.90	13259.13
400.09	13626.60
400.28	13371.48
400.47	13577.45
400.67	14164.92
400.86	14569.83
401.05	14476.21
401.24	14691.54
401.44	15073.05
401.63	14913.89
401.82	15035.60
402.01	14710.27
402.21	15164.33
402.40	15070.71
402.59	14853.04
402.78	14090.02
402.97	13947.25
403.17	14134.50
403.36	14956.02
403.55	15499.03
403.74	15932.03
403.93	14979.43
404.13	13930.87
404.32	13717.88
404.51	14295.99
404.70	15293.06
404.89	15428.81
405.09	15124.54
405.28	14834.32
405.47	14590.90
405.66	14752.40
405.85	14431.74
406.05	13991.72
406.24	14202.37
406.43	14963.04
406.62	15506.05
406.81	15302.42
407.00	14946.66
407.20	14398.98
407.39	14710.27
407.58	15201.78
407.77	15917.98
407.96	16259.70
408.15	16526.52
408.34	16842.50
408.54	17434.65
408.73	17575.08
408.92	17214.64
409.11	16940.80
409.30	16030.33
409.49	15166.67
409.68	14050.24
409.87	13734.26
410.07	14871.76
410.26	15639.46
410.45	16922.07
410.64	16833.13
410.83	17441.67
411.02	17972.97
411.21	18810.89
411.40	18398.95
411.59	18593.22
411.78	18434.06
411.98	17972.97
412.17	18958.34
412.36	18375.55
412.55	18108.72
412.74	17657.00
412.93	17586.79
413.12	17736.58
413.31	19609.01
413.50	19398.36
413.69	19899.23
413.88	19014.51
414.07	18654.07
414.26	18867.06
414.45	19159.63
414.64	19243.88
414.83	19611.35
415.02	19255.59
415.22	19339.85
415.41	19400.70
415.60	20156.69
415.79	20893.96
415.98	21146.74
416.17	21748.26
416.36	21113.97
416.55	20617.78
416.74	19875.83
416.93	19248.57
417.12	19234.52
417.31	19491.98
417.50	19765.82
417.69	20152.01
417.88	20245.63
418.07	20421.17
418.26	19845.40
418.45	19932.00
418.64	20821.41
418.83	21659.32
419.02	21465.05
419.21	20751.19
419.39	20156.69
419.58	19197.07
419.77	19651.14
419.96	20680.97
420.15	21472.07
420.34	21802.09
420.53	22396.59
420.72	23215.77
420.91	22771.07
421.10	22174.24
421.29	22647.02
421.48	21905.07
421.67	22733.62
421.86	22288.92
422.05	20432.88
422.24	18455.12
422.43	18705.56
422.61	20372.02
422.80	21465.05
422.99	22071.25
423.18	21266.11
423.37	20643.52
423.56	20648.21
423.75	21050.78
423.94	21422.92
424.13	20266.70
424.32	20381.38
424.50	20566.29
424.69	20238.61
424.88	20561.61
425.07	20847.15
425.26	20720.76
425.45	20210.53
425.64	19737.74
425.83	19908.60
426.01	21263.77
426.20	21621.87
426.39	21252.06
426.58	20095.84
426.77	18335.76
426.96	17769.35
427.15	18654.07
427.33	20037.33
427.52	20451.60
427.71	20570.97
427.90	20435.22
428.09	20231.59
428.28	20152.01
428.46	19288.35
428.65	18628.32
428.84	19381.98
429.03	19793.91
429.22	18913.87
429.40	17565.72
429.59	16081.82
429.78	14127.47
429.97	14459.83
430.16	14686.86
430.34	14518.34
430.53	14637.71
430.72	14939.64
430.91	16830.79
431.10	19667.52
431.28	22579.15
431.47	24898.62
431.66	24638.82
431.85	22698.52
432.03	20559.27
432.22	19814.98
432.41	20774.60
432.60	22789.80
432.79	23847.72
432.97	24842.45
433.16	23803.25
433.35	21638.25
433.54	19726.04
433.72	18361.50
433.91	19419.42
434.10	21488.46
434.28	23115.13
434.47	24432.85
434.66	23571.54
434.85	22988.74
435.03	22780.43
435.22	23754.10
435.41	24940.75
435.59	24945.43
435.78	25762.28
435.97	26031.44
436.16	25865.26
436.34	25729.51
436.53	25123.31
436.72	25537.59
436.90	23850.06
437.09	23740.05
437.28	23466.21
437.46	24458.60
437.65	24236.25
437.84	22354.46
438.02	20507.77
438.21	20496.07
438.40	21715.49
438.58	23641.75
438.77	24231.57
438.96	24547.54
439.14	25181.82
439.33	25965.90
439.52	26642.32
439.70	25682.70
439.89	25411.20
440.08	24711.38
440.26	24641.16
440.45	25249.70
440.63	27281.28
440.82	28753.48
441.01	28149.62
441.19	28173.03
441.38	28259.63
441.57	29535.22
441.75	29921.41
441.94	30008.01
442.12	29518.84
442.31	30654.00
442.50	30118.01
442.68	29577.35
442.87	29355.00
443.05	28720.71
443.24	29181.80
443.43	29802.04
443.61	30742.94
443.80	30918.48
443.98	29317.55
444.17	29233.29
444.35	31297.64
444.54	31754.05
444.73	31065.93
444.91	29963.54
445.10	28561.56
445.28	27831.31
445.47	27014.46
445.65	27262.56
445.84	28297.08
446.02	28835.40
446.21	29745.87
446.39	29617.14
446.58	29834.81
446.77	30623.57
446.95	30471.43
447.14	31445.10
447.32	31866.39
447.51	30972.31
447.69	30015.03
447.88	29420.53
448.06	30150.78
448.25	30913.80
448.43	30773.36
448.62	30712.51
448.80	30143.76
448.99	30424.62
449.17	30494.84
449.36	30572.08
449.54	31747.03
449.73	32453.87
449.91	32762.82
450.10	33947.13
450.28	34286.51
450.46	33687.33
450.65	34291.19
450.83	33479.02
451.02	32671.54
451.20	32793.25
451.39	33095.18
451.57	32701.96
451.76	32507.70
451.94	32315.78
452.13	31871.07
452.31	30412.92
452.49	29144.35
452.68	29612.46
452.86	29352.66
453.05	30003.33
453.23	30822.51
453.42	31517.65
453.60	32313.44
453.78	32868.14
453.97	31950.65
454.15	32229.18
454.34	31498.93
454.52	31178.28
454.70	31037.84
454.89	31477.86
455.07	31552.76
455.26	32210.45
455.44	33081.13
455.62	33813.72
455.81	33701.37
455.99	33521.15
456.17	33338.59
456.36	33350.29
456.54	34178.84
456.73	34436.30
456.91	35047.18
457.09	35019.10
457.28	35154.85
457.46	33949.47
457.64	34096.92
457.83	33443.91
458.01	31971.72
458.19	33570.30
458.38	33556.26
458.56	34422.26
458.74	34242.04
458.93	33825.42
459.11	33684.99
459.29	33429.87
459.48	33596.05
459.66	33390.08
459.84	33839.47
460.03	34253.74
460.21	34185.86
460.39	35056.54
460.57	35082.29
460.76	35033.14
460.94	35732.96
461.12	34625.89
461.31	34857.60
461.49	34857.60
461.67	35292.94
461.85	36708.96
462.04	35782.11
462.22	36325.11
462.40	36437.46
462.59	36002.12
462.77	36039.57
462.95	36268.94
463.13	35501.25
463.32	34965.26
463.50	35601.89
463.68	35232.08
463.86	35089.31
464.05	34562.69
464.23	34073.52
464.41	33865.21
464.59	33586.69
464.78	35140.80
464.96	34677.38
465.14	34532.26
465.32	35168.89
465.50	36271.28
465.69	36617.68
465.87	36114.47
466.05	34663.33
466.23	33149.01
466.41	32587.28
466.60	33553.92
466.78	33783.29
466.96	33926.07
467.14	34827.17
467.32	35026.12
467.51	35194.64
467.69	33675.63
467.87	34417.58
468.05	34761.64
468.23	35028.46
468.41	35016.75
468.60	35196.98
468.78	35173.57
468.96	34745.25
469.14	35477.84
469.32	35693.17
469.50	34284.17
469.69	34113.31
469.87	33825.42
470.05	33848.83
470.23	34185.86
470.41	33972.88
470.59	34443.32
470.77	34668.02
470.95	35463.80
471.14	35700.19
471.32	35693.17
471.50	37734.12
471.68	37621.77
471.86	38225.63
472.04	38127.33
472.22	37923.70
472.40	36121.49
472.58	36615.34
472.77	35922.54
472.95	36804.92
473.13	37837.10
473.31	36830.67
473.49	36755.77
473.67	37722.41
473.85	37785.61
474.03	38806.08
474.21	38565.01
474.39	39346.75
474.57	39328.02
474.75	39098.65
474.93	39131.42
475.12	38026.68
475.30	38141.37
475.48	38398.83
475.66	39009.71
475.84	38733.53
476.02	38108.60
476.20	37834.76
476.38	38438.62
476.56	39576.12
476.74	40034.86
476.92	40282.96
477.10	40158.91
477.28	41787.92
477.46	41603.02
477.64	42452.64
477.82	42670.31
478.00	42518.17
478.18	41968.15
478.36	41469.61
478.54	41556.21
478.72	42029.00
478.90	42653.92
479.08	44364.85
479.26	44737.00
479.44	44659.76
479.62	44177.61
479.80	44282.94
479.98	44275.91
480.16	44973.39
480.34	44479.54
480.52	44556.78
480.70	45041.27
480.88	44893.82
481.06	46054.72
481.24	46401.12
481.41	46930.08
481.59	47489.47
481.77	47342.02
481.95	46745.18
482.13	46646.88
482.31	46583.68
482.49	47349.04
482.67	47143.07
482.85	47412.23
483.03	48179.93
483.21	48762.72
483.39	48355.47
483.57	47484.79
483.74	47351.38
483.92	47566.71
484.10	47983.32
484.28	48762.72
484.46	49125.50
484.64	49415.73
484.82	48362.49
485.00	48182.27
485.18	47452.02
485.35	46007.91
485.53	42459.66
485.71	39164.18
485.89	39100.99
486.07	41432.16
486.25	44264.21
486.43	46382.40
486.61	47466.06
486.78	47199.24
486.96	47325.63
487.14	48942.94
487.32	49776.17
487.50	50908.99
487.68	51721.16
487.85	52055.85
488.03	51828.82
488.21	51332.63
488.39	50831.75
488.57	50073.42
488.75	49993.84
488.92	51100.92
489.10	53544.44
489.28	54333.20
489.46	55033.02
489.64	55014.29
489.81	55025.99
489.99	54663.21
490.17	54693.64
490.35	55206.22
490.53	54611.72
490.70	54541.50
490.88	54211.49
491.06	55271.75
491.24	54965.14
491.41	53874.45
491.59	52570.77
491.77	51976.28
491.95	52987.39
492.13	54265.32
492.30	55393.46
492.48	56294.56
492.66	56615.22
492.84	56392.87
493.01	56203.28
493.19	55686.03
493.37	55098.55
493.54	55093.87
493.72	55908.38
493.90	56718.20
494.08	57439.09
494.25	57675.48
494.43	57759.74
494.61	58038.26
494.79	58281.68
494.96	58021.88
495.14	57403.98
495.32	56449.04
495.49	56114.34
495.67	57153.54
495.85	58267.64
496.02	58674.89
496.20	58447.86
496.38	58012.52
496.55	58122.52
496.73	58391.68
496.91	58546.16
497.09	58981.50
497.26	59309.18
497.44	58841.07
497.62	58391.68
497.79	57579.52
497.97	56259.46
498.14	56753.31
498.32	57745.70
498.50	58578.93
498.67	59215.55
498.85	58852.77
499.03	58887.88
499.20	59260.02
499.38	59206.19
499.56	59082.14
499.73	58628.08
499.91	58354.24
500.08	57860.38
500.26	57198.01
500.44	57698.89
500.61	58344.87
500.79	58225.51
500.97	57696.55
501.14	57867.40
501.32	57579.52
501.49	57521.01
501.67	57764.42
501.84	58141.25
502.02	58401.05
502.20	58667.87
502.37	58808.30
502.55	58913.62
502.72	59355.99
502.90	59894.31
503.07	59592.38
503.25	59147.68
503.43	58241.89
503.60	57853.36
503.78	57071.62
503.95	57731.65
504.13	58728.72
504.30	59639.19
504.48	59433.22
504.65	59243.64
504.83	59283.43
505.01	59765.58
505.18	60238.37
505.36	60633.92
505.53	60884.36
505.71	60603.49
505.88	61120.75
506.06	60378.80
506.23	60097.94
506.41	59461.31
506.58	59880.27
506.76	59847.50
506.93	59824.09
507.11	59805.37
507.28	59817.07
507.46	59269.39
507.63	59025.97
507.81	58794.26
507.98	58728.72
508.16	59622.81
508.33	59999.63
508.50	60411.57
508.68	60867.97
508.85	61006.06
509.03	60980.32
509.20	60856.27
509.38	60210.28
509.55	59522.16
509.73	59793.67
509.90	60292.20
510.08	60360.08
510.25	60409.23
510.42	60329.65
510.60	60027.72
510.77	60261.77
510.95	60779.03
511.12	60966.27
511.30	61347.78
511.47	61338.42
511.64	61209.69
511.82	60940.53
511.99	60360.08
512.17	59985.59
512.34	59625.15
512.51	59875.58
512.69	60097.94
512.86	60097.94
513.04	60516.89
513.21	60488.80
513.38	60065.17
513.56	59585.36
513.73	59030.65
513.90	59491.74
514.08	59241.30
514.25	59714.09
514.43	59952.82
514.60	59962.18
514.77	60214.96
514.95	60266.45
515.12	60158.79
515.29	60369.44
515.47	60907.76
515.64	60992.02
515.81	60683.07
515.99	59987.93
516.16	58646.80
516.33	56514.58
516.51	55409.84
516.68	54539.16
516.85	54323.83
517.03	54958.12
517.20	57205.03
517.37	59508.12
517.54	60233.69
517.72	59634.51
517.89	57111.41
518.06	55260.05
518.24	55826.46
518.41	57628.67
518.58	58859.79
518.75	58915.96
518.93	59185.13
519.10	59166.40
519.27	59709.41
519.45	59929.42
519.62	60402.21
519.79	60851.59
519.96	60676.05
520.14	60374.12
520.31	59426.20
520.48	59269.39
520.65	59758.56
520.83	60736.90
521.00	60896.06
521.17	60486.46
521.34	60273.48
521.52	60718.18
521.69	61162.88
521.86	61420.34
522.03	61059.90
522.20	59859.20
522.38	59056.40
522.55	59355.99
522.72	59779.62
522.89	59910.69
523.07	59910.69
523.24	60369.44
523.41	61219.05
523.58	61338.42
523.75	61743.33
523.92	61623.96
524.10	61574.81
524.27	61462.47
524.44	61209.69
524.61	61284.59
524.78	61209.69
524.96	61015.43
525.13	61223.73
525.30	61209.69
525.47	61691.84
525.64	61612.26
525.81	60903.08
525.98	59503.44
526.16	58272.32
526.33	57682.50
526.50	57537.39
526.67	57073.96
526.84	57736.34
527.01	58618.72
527.18	59267.05
527.36	60189.22
527.53	60905.42
527.70	61146.50
527.87	60647.96
528.04	60144.75
528.21	60891.38
528.38	61333.74
528.55	61874.40
528.72	62049.94
528.89	62185.69
529.07	61975.05
529.24	61165.22
529.41	60673.71
529.58	60378.80
529.75	60573.06
529.92	60921.80
530.09	61226.07
530.26	61577.15
530.43	61801.85
530.60	61984.41
530.77	61991.43
530.94	62080.37
531.11	61757.38
531.28	61528.00
531.46	61293.95
531.63	61240.12
531.80	61289.27
531.97	60711.16
532.14	60172.83
532.31	59054.06
532.48	58464.24
532.65	58721.70
532.82	59749.20
532.99	60662.00
533.16	60793.07
533.33	61361.82
533.50	61190.97
533.67	60395.18
533.84	60484.12
534.01	60526.25
534.18	60640.94
534.35	60865.63
534.52	60575.40
534.69	60851.59
534.86	61237.78
535.03	61469.49
535.20	61738.65
535.37	62178.67
535.54	62246.55
535.71	62085.05
535.88	61832.27
536.05	60900.74
536.22	60676.05
536.38	60266.45
536.55	59772.60
536.72	59587.70
536.89	59290.45
537.06	60261.77
537.23	60968.61
537.40	61247.14
537.57	61174.58
537.74	60907.76
537.91	60933.51
538.08	61038.83
538.25	61010.74
538.42	61237.78
538.59	60739.24
538.75	60224.32
538.92	60196.24
539.09	60034.74
539.26	59884.95
539.43	59746.86
539.60	59791.33
539.77	60074.53
539.94	59803.03
540.11	59154.70
540.28	58618.72
540.44	58855.11
540.61	59168.74
540.78	59278.75
540.95	59491.74
541.12	60135.38
541.29	60170.49
541.46	60479.44
541.62	60573.06
541.79	60294.54
541.96	59608.76
542.13	59814.73
542.30	60126.02
542.47	60121.34
542.63	60044.10
542.80	59861.54
542.97	60034.74
543.14	59824.09
543.31	59791.33
543.48	60392.84
543.64	61034.15
543.81	61305.65
543.98	61076.28
544.15	60423.27
544.32	60027.72
544.48	60149.43
544.65	60732.22
544.82	60750.94
544.99	60472.42
545.16	60037.08
545.32	59999.63
545.49	60650.30
545.66	60701.79
545.83	60732.22
546.00	60229.01
546.16	60039.42
546.33	60030.06
546.50	60121.34
546.67	60563.70
546.83	60142.41
547.00	60245.39
547.17	59634.51
547.34	59007.25
547.50	59037.67
547.67	59564.29
547.84	59365.35
548.00	59812.39
548.17	60329.65
548.34	60200.92
548.51	60182.19
548.67	60165.81
548.84	60243.05
549.01	60142.41
549.18	60018.36
549.34	60018.36
549.51	60065.17
549.68	59978.57
549.84	59714.09
550.01	59573.66
550.18	59566.63
550.34	59737.49
550.51	59774.94
550.68	59774.94
550.84	59264.70
551.01	59522.16
551.18	59381.73
551.34	59882.61
551.51	59969.21
551.68	60285.18
551.84	60226.66
552.01	60060.49
552.18	60067.51
552.34	59107.89
552.51	58925.33
552.68	58710.00
552.84	59194.49
553.01	59437.90
553.18	59194.49
553.34	59585.36
553.51	59737.49
553.67	59920.05
553.84	59964.52
554.01	59800.69
554.17	59814.73
554.34	59465.99
554.51	59831.11
554.67	60268.79
554.84	59898.99
555.00	59583.02
555.17	59346.62
555.33	59601.74
555.50	59409.82
555.67	59662.60
555.83	59400.46
556.00	58754.47
556.16	59093.85
556.33	58691.27
556.50	58560.20
556.66	58639.78
556.83	58225.51
556.99	58466.58
557.16	58632.76
557.32	58908.94
557.49	59100.87
557.65	58717.02
557.82	59072.78
557.98	58796.60
558.15	58370.62
558.32	57504.62
558.48	56882.04
558.65	56978.00
558.81	57719.95
558.98	57829.96
559.14	57963.37
559.31	58064.01
559.47	57977.41
559.64	57532.71
559.80	57322.06
559.97	57347.81
560.13	57932.94
560.30	58794.26
560.46	59047.04
560.63	59222.58
560.79	59550.25
560.96	58660.85
561.12	57965.71
561.29	56935.87
561.45	57284.61
561.61	57989.11
561.78	58354.24
561.94	58152.95
562.11	57794.85
562.27	57703.57
562.44	58026.56
562.60	58344.87
562.77	58569.57
562.93	58475.94
563.10	58347.21
563.26	57965.71
563.42	57968.05
563.59	57614.63
563.75	57715.27
563.92	57851.02
564.08	57654.42
564.24	57937.62
564.41	58019.54
564.57	58085.07
564.74	57797.19
564.90	57848.68
565.07	57612.29
565.23	57165.24
565.39	56561.39
565.56	56521.60
565.72	56378.82
565.88	56664.37
566.05	56783.74
566.21	57015.45
566.38	57029.49
566.54	57167.58
566.70	57336.10
566.87	57839.32
567.03	57710.59
567.19	57921.24
567.36	57649.74
567.52	57504.62
567.68	57160.56
567.85	56638.62
568.01	56271.16
568.17	56112.00
568.34	56048.81
568.50	55971.57
568.66	56243.07
568.83	56505.21
568.99	56535.64
569.15	56825.87
569.32	56804.80
569.48	56467.76
569.64	56254.78
569.81	55882.63
569.97	56083.92
570.13	55866.25
570.30	55217.92
570.46	55030.68
570.62	54679.60
570.78	54536.82
570.95	54700.66
571.11	55496.44
571.27	55543.25
571.43	55950.51
571.60	56184.56
571.76	56275.84
571.92	56573.09
572.09	56793.10
572.25	56535.64
572.41	56495.85
572.57	56626.92
572.74	56486.49
572.90	56112.00
573.06	55973.91
573.22	56158.81
573.38	56072.21
573.55	55910.72
573.71	56463.08
573.87	56058.17
574.03	55994.98
574.20	56112.00
574.36	55540.91
574.52	55636.87
574.68	55098.55
574.84	54845.77
575.01	54784.92
575.17	54784.92
575.33	54981.52
575.49	55098.55
575.65	55367.71
575.82	54625.76
575.98	54735.77
576.14	55140.68
576.30	55302.18
576.46	55487.08
576.62	55274.09
576.79	55084.51
576.95	54986.21
577.11	54841.09
577.27	55224.94
577.43	55065.78
577.59	54864.50
577.75	54218.51
577.92	53703.59
578.08	53387.62
578.24	53626.35
578.40	54143.61
578.56	54078.08
578.72	54396.39
578.88	54410.43
579.04	54742.79
579.21	54419.80
579.37	54815.35
579.53	54726.41
579.69	54703.00
579.85	54923.01
580.01	54529.80
580.17	54171.70
580.33	54148.29
580.49	54124.89
580.65	54822.37
580.82	54724.07
580.98	54513.42
581.14	54436.18
581.30	54756.83
581.46	54459.58
581.62	54805.98
581.78	54525.12
581.94	54967.48
582.10	55126.64
582.26	54941.74
582.42	54925.35
582.58	55136.00
582.74	54824.71
582.90	54993.23
583.06	54885.56
583.22	54515.76
583.38	54644.49
583.54	54623.42
583.70	54426.82
583.86	54649.17
584.02	54337.88
584.18	54513.42
584.34	54209.15
584.50	54539.16
584.66	54031.27
584.82	53708.27
584.98	53609.97
585.14	53289.32
585.30	52900.79
