SpectraSuite Data File
++++++++++++++++++++++++++++++++++++
Date: Mon Oct 07 14:55:02 GMT-05:00 2013
User: price-jones
Dark Spectrum Present: No
Reference Spectrum Present: No
Number of Sampled Component Spectra: 1
Spectrometers: USB2+H05261
Integration Time (usec): 10000 (USB2+H05261)
Spectra Averaged: 1 (USB2+H05261)
Boxcar Smoothing: 0 (USB2+H05261)
Correct for Electrical Dark: No (USB2+H05261)
Strobe/Lamp Enabled: No (USB2+H05261)
Correct for Detector Non-linearity: No (USB2+H05261)
Correct for Stray Light: No (USB2+H05261)
Number of Pixels in Processed Spectrum: 2048
>>>>>Begin Processed Spectral Data<<<<<
365.73	0.00
365.92	0.00
366.12	0.00
366.32	0.00
366.52	0.00
366.72	0.00
366.91	0.00
367.11	0.00
367.31	0.00
367.51	0.00
367.70	0.00
367.90	0.00
368.10	0.00
368.30	0.00
368.49	0.00
368.69	0.00
368.89	0.00
369.09	0.00
369.28	0.00
369.48	0.00
369.68	0.00
369.87	0.00
370.07	0.00
370.27	0.00
370.47	489.17
370.66	2696.30
370.86	3143.34
371.06	3335.26
371.25	3384.41
371.45	3096.53
371.65	2726.72
371.84	2579.27
372.04	2754.81
372.24	2979.50
372.44	3251.00
372.63	3117.59
372.83	2766.51
373.03	2588.63
373.22	2321.81
373.42	2597.99
373.62	3171.43
373.81	3274.41
374.01	3096.53
374.21	2881.20
374.40	2574.59
374.60	2799.28
374.79	3218.24
374.99	3726.13
375.19	3873.59
375.38	3939.12
375.58	3489.74
375.78	3592.72
375.97	3674.64
376.17	3592.72
376.37	3803.37
376.56	4007.00
376.76	4271.48
376.95	4629.58
377.15	4704.48
377.35	4922.15
377.54	5100.03
377.74	5261.52
377.93	5212.37
378.13	4983.00
378.33	4828.53
378.52	4252.75
378.72	4269.14
378.91	4301.90
379.11	4243.39
379.31	3974.23
379.50	4035.08
379.70	4285.52
379.89	4828.53
380.09	4983.00
380.28	5284.93
380.48	5102.37
380.68	5071.94
380.87	4816.82
381.07	4372.12
381.26	4182.54
381.46	3995.29
381.65	3674.64
381.85	3639.53
382.04	3482.72
382.24	3265.05
382.43	3211.22
382.63	3173.77
382.83	3145.68
383.02	3070.78
383.22	3096.53
383.41	3136.32
383.61	3456.97
383.80	3927.42
384.00	4580.43
384.19	4973.64
384.39	5181.95
384.58	5221.74
384.78	4968.96
384.97	4919.81
385.17	4585.11
385.36	4381.48
385.56	4344.03
385.75	4447.02
385.95	5034.49
386.14	5308.34
386.34	5458.13
386.53	5109.39
386.72	4669.37
386.92	4823.84
387.11	5303.65
387.31	5256.84
387.50	5172.58
387.70	5195.99
387.89	5062.58
388.09	5128.11
388.28	5050.88
388.48	5233.44
388.67	5636.01
388.86	6076.03
389.06	6743.08
389.25	7138.63
389.45	6878.83
389.64	6960.75
389.84	6764.15
390.03	6651.80
390.22	6867.13
390.42	7229.91
390.61	7641.85
390.81	8187.19
391.00	8168.47
391.19	8088.89
391.39	7955.48
391.58	7190.13
391.78	6949.05
391.97	6768.83
392.16	6120.50
392.36	5411.32
392.55	4219.99
392.75	3428.88
392.94	2928.01
393.13	3014.61
393.33	3733.15
393.52	4720.86
393.71	5746.02
393.91	6176.67
394.10	6834.36
394.29	7618.44
394.49	8056.12
394.68	8549.98
394.88	8678.71
395.07	8905.74
395.26	8954.89
395.46	8507.85
395.65	7971.86
395.84	6780.53
396.04	5696.86
396.23	4514.89
396.42	3934.44
396.62	4002.32
396.81	5055.56
397.00	6300.72
397.19	7817.39
397.39	8929.14
397.58	10012.81
397.77	10703.27
397.97	11014.56
398.16	11218.19
398.35	11515.44
398.55	11712.04
398.74	12353.35
398.93	12578.04
399.12	12058.44
399.32	11707.36
399.51	12233.98
399.70	13078.91
399.90	12706.77
400.09	12678.68
400.28	12498.46
400.47	13048.49
400.67	13420.63
400.86	13635.96
401.05	13706.18
401.24	13827.88
401.44	14209.39
401.63	14003.43
401.82	14188.33
402.01	14094.71
402.21	14092.37
402.40	14204.71
402.59	13895.76
402.78	13411.27
402.97	13214.66
403.17	13769.37
403.36	14815.59
403.55	15059.01
403.74	15166.67
403.93	13893.42
404.13	13177.22
404.32	13334.03
404.51	14221.10
404.70	14846.02
404.89	14611.96
405.09	14281.95
405.28	13998.74
405.47	13998.74
405.66	14190.67
405.85	13591.49
406.05	13195.94
406.24	13554.04
406.43	14204.71
406.62	14506.64
406.81	15073.05
407.00	14537.07
407.20	13914.48
407.39	13996.40
407.58	15115.18
407.77	15693.29
407.96	15899.26
408.15	16664.61
408.34	16386.09
408.54	16886.97
408.73	16893.99
408.92	16702.06
409.11	15667.55
409.30	14946.66
409.49	14026.83
409.68	13233.39
409.87	13039.12
410.07	14490.26
410.26	15091.77
410.45	15847.77
410.64	16489.07
410.83	16854.20
411.02	17771.69
411.21	17717.86
411.40	17708.49
411.59	18059.57
411.78	17972.97
411.98	17701.47
412.17	17825.52
412.36	17961.27
412.55	17682.75
412.74	17172.51
412.93	16791.00
413.12	17305.92
413.31	19124.52
413.50	19073.03
413.69	19028.56
413.88	18298.31
414.07	18010.42
414.26	18726.63
414.45	18925.57
414.64	18853.02
414.83	18618.96
415.02	18831.95
415.22	18600.24
415.41	19138.56
415.60	19742.42
415.79	20240.95
415.98	20704.38
416.17	20563.95
416.36	19903.92
416.55	19819.66
416.74	19108.13
416.93	18785.14
417.12	18892.80
417.31	19021.53
417.50	19538.79
417.69	20182.44
417.88	19515.39
418.07	19522.41
418.26	19325.80
418.45	19639.44
418.64	20692.68
418.83	21596.12
419.02	20664.59
419.21	20266.70
419.39	19531.77
419.58	18853.02
419.77	19440.49
419.96	20255.00
420.15	21219.30
420.34	21837.20
420.53	22270.20
420.72	22448.08
420.91	22246.79
421.10	21977.63
421.29	21909.75
421.48	21364.41
421.67	22366.16
421.86	21081.21
422.05	19517.73
422.24	17830.20
422.43	18728.97
422.61	20842.47
422.80	22001.04
422.99	21219.30
423.18	20255.00
423.37	20219.89
423.56	20851.83
423.75	21488.46
423.94	21914.44
424.13	20624.80
424.32	20615.44
424.50	19983.49
424.69	20166.06
424.88	20697.36
425.07	20521.82
425.26	20570.97
425.45	19798.59
425.64	19405.38
425.83	19857.10
426.01	20819.07
426.20	21179.51
426.39	21032.05
426.58	19506.02
426.77	18094.68
426.96	18134.47
427.15	18785.14
427.33	19908.60
427.52	20723.10
427.71	20795.66
427.90	20723.10
428.09	20425.86
428.28	19803.27
428.46	18768.76
428.65	18911.53
428.84	19763.48
429.03	19484.96
429.22	18448.10
429.40	17142.08
429.59	15414.77
429.78	13839.59
429.97	14394.29
430.16	14382.59
430.34	14661.12
430.53	14602.60
430.72	15606.69
430.91	17191.23
431.10	20463.30
431.28	23400.68
431.47	25036.71
431.66	24500.73
431.85	21500.16
432.03	20273.72
432.22	20240.95
432.41	21518.89
432.60	23220.45
432.79	23948.36
432.97	24421.15
433.16	23585.58
433.35	21048.44
433.54	18796.84
433.72	18579.17
433.91	19632.41
434.10	22120.40
434.28	23403.02
434.47	24561.58
434.66	23204.07
434.85	22843.63
435.03	23461.53
435.22	23637.07
435.41	24671.59
435.59	25525.88
435.78	25724.83
435.97	26424.65
436.16	26036.12
436.34	25584.40
436.53	25406.52
436.72	25474.39
436.90	23742.39
437.09	24159.01
437.28	23449.83
437.46	24882.24
437.65	23571.54
437.84	21722.51
438.02	20732.47
438.21	21252.06
438.40	21722.51
438.58	23847.72
438.77	24425.83
438.96	24947.77
439.14	26103.99
439.33	26312.30
439.52	26668.06
439.70	25766.96
439.89	25062.46
440.08	24423.49
440.26	24739.46
440.45	26363.79
440.63	27728.33
440.82	28542.83
441.01	27517.68
441.19	27721.30
441.38	28865.83
441.57	29654.59
441.75	29811.40
441.94	30171.85
442.12	29331.59
442.31	30780.39
442.50	30359.09
442.68	29614.80
442.87	29771.61
443.05	29249.67
443.24	29984.60
443.43	30494.84
443.61	31098.70
443.80	31218.07
443.98	30000.99
444.17	29619.48
444.35	30862.30
444.54	31672.13
444.73	31014.44
444.91	29488.41
445.10	28893.91
445.28	27503.64
445.47	27524.70
445.65	27639.39
445.84	28510.07
446.02	29226.27
446.21	29575.01
446.39	30127.38
446.58	30396.54
446.77	31197.00
446.95	31264.88
447.14	32130.87
447.32	32627.07
447.51	31714.26
447.69	30518.25
447.88	30558.03
448.06	30958.27
448.25	31218.07
448.43	30785.07
448.62	30808.47
448.80	30719.53
448.99	30979.33
449.17	31316.37
449.36	31672.13
449.54	32390.67
449.73	32840.06
449.91	33572.64
450.10	34630.57
450.28	34646.95
450.46	34787.38
450.65	34630.57
450.83	33982.24
451.02	33441.57
451.20	33684.99
451.39	33624.14
451.57	33233.27
451.76	33710.74
451.94	32465.57
452.13	31796.18
452.31	30422.28
452.49	28830.72
452.68	29696.72
452.86	30139.08
453.05	30658.68
453.23	31777.45
453.42	32297.05
453.60	33031.98
453.78	32648.13
453.97	33132.62
454.15	32594.30
454.34	31129.12
454.52	31489.57
454.70	30916.14
454.89	32290.03
455.07	31917.89
455.26	32884.53
455.44	33315.19
455.62	33940.11
455.81	33792.65
455.99	34260.76
456.17	33930.75
456.36	35084.63
456.54	34859.94
456.73	34073.52
456.91	35054.20
457.09	35562.10
457.28	36144.89
457.46	34345.02
457.64	33982.24
457.83	33577.33
458.01	33235.61
458.19	34803.77
458.38	34995.69
458.56	35257.83
458.74	34972.28
458.93	33944.79
459.11	33792.65
459.29	33757.55
459.48	34181.18
459.66	33818.40
459.84	33986.92
460.03	34518.22
460.21	35655.72
460.39	36074.68
460.57	35470.82
460.76	35192.30
460.94	36109.78
461.12	36423.42
461.31	36247.88
461.49	36449.16
461.67	36409.37
461.85	36947.70
462.04	36882.16
462.22	36645.77
462.40	36634.06
462.59	36055.95
462.77	36290.01
462.95	36320.43
463.13	36697.26
463.32	35690.83
463.50	35695.51
463.68	35711.89
463.86	35903.82
464.05	35124.42
464.23	34338.00
464.41	34312.25
464.59	34064.16
464.78	35601.89
464.96	35180.59
465.14	34293.53
465.32	36325.11
465.50	37184.09
465.69	37865.19
465.87	36692.58
466.05	35164.21
466.23	33933.09
466.41	33240.29
466.60	34260.76
466.78	33862.87
466.96	34459.71
467.14	35768.07
467.32	35323.36
467.51	35407.62
467.69	34160.12
467.87	35103.35
468.05	35721.26
468.23	35370.18
468.41	35578.48
468.60	35725.94
468.78	36552.15
468.96	35943.61
469.14	36261.92
469.32	36299.37
469.50	34710.14
469.69	35227.40
469.87	34576.73
470.05	34143.74
470.23	34265.44
470.41	35435.71
470.59	35054.20
470.77	35185.27
470.95	36603.64
471.14	37097.49
471.32	37029.62
471.50	38714.80
471.68	38866.94
471.86	39089.29
472.04	38780.34
472.22	39187.59
472.40	37780.93
472.58	37577.30
472.77	36900.89
472.95	37617.09
473.13	38855.23
473.31	37361.97
473.49	37457.93
473.67	38450.32
473.85	38876.30
474.03	40039.54
474.21	40828.30
474.39	40479.57
474.57	40507.65
474.75	40711.28
474.93	40165.93
475.12	39072.90
475.30	39501.22
475.48	38827.15
475.66	39079.92
475.84	38595.43
476.02	39173.55
476.20	38796.72
476.38	39398.24
476.56	40706.60
476.74	41244.92
476.92	41275.35
477.10	41581.96
477.28	43016.71
477.46	42899.68
477.64	43442.68
477.82	43917.81
478.00	43861.64
478.18	42773.29
478.36	42096.88
478.54	42525.19
478.72	43454.39
478.90	45439.16
479.08	46878.59
479.26	46162.39
479.44	46689.01
479.62	45841.73
479.80	46700.71
479.98	46043.02
480.16	46403.46
480.34	45895.56
480.52	46883.27
480.70	46639.86
480.88	46061.74
481.06	46862.21
481.24	47327.97
481.41	48854.00
481.59	49427.43
481.77	47976.30
481.95	47681.39
482.13	47779.70
482.31	48348.45
482.49	49034.22
482.67	48636.33
482.85	48311.00
483.03	48854.00
483.21	49595.95
483.39	48964.01
483.57	48839.96
483.74	48690.16
483.92	49345.51
484.10	49003.80
484.28	49263.60
484.46	49537.44
484.64	50892.61
484.82	49832.35
485.00	49460.20
485.18	48538.03
485.35	46637.51
485.53	41315.14
485.71	39140.78
485.89	39337.38
486.07	42789.67
486.25	45382.99
486.43	48114.39
486.61	48095.67
486.78	47583.09
486.96	49174.66
487.14	49886.18
487.32	50850.48
487.50	51969.26
487.68	52727.59
487.85	53640.40
488.03	52753.33
488.21	52238.42
488.39	52011.38
488.57	50927.72
488.75	50550.89
488.92	52327.36
489.10	54127.23
489.28	54508.74
489.46	55765.60
489.64	55576.02
489.81	56018.38
489.99	55236.64
490.17	55491.76
490.35	55557.30
490.53	55025.99
490.70	54843.43
490.88	54843.43
491.06	55992.64
491.24	56381.16
491.41	55316.22
491.59	53701.25
491.77	53343.15
491.95	54305.11
492.13	56090.94
492.30	56371.80
492.48	57064.60
492.66	57364.19
492.84	56882.04
493.01	56559.05
493.19	56650.33
493.37	56172.86
493.54	56278.18
493.72	57579.52
493.90	57806.55
494.08	58049.97
494.25	58340.19
494.43	58562.54
494.61	59175.76
494.79	59040.01
494.96	59320.88
495.14	58782.55
495.32	57513.98
495.49	57649.74
495.67	58707.66
495.85	59264.70
496.02	60009.00
496.20	59384.07
496.38	58918.31
496.55	58974.48
496.73	59742.17
496.91	59821.75
497.09	59678.98
497.26	60367.10
497.44	59716.43
497.62	59091.51
497.79	58422.11
497.97	57549.09
498.14	58239.55
498.32	59391.09
498.50	59442.59
498.67	59257.68
498.85	59311.52
499.03	60156.45
499.20	60240.71
499.38	59646.21
499.56	59077.46
499.73	58932.35
499.91	58834.05
500.08	58262.96
500.26	57722.29
500.44	58775.53
500.61	59274.07
500.79	58787.24
500.97	58983.84
501.14	58012.52
501.32	57750.38
501.49	57963.37
501.67	58679.57
501.84	58632.76
502.02	59180.45
502.20	59821.75
502.37	59711.75
502.55	59863.88
502.72	60598.81
502.90	61055.21
503.07	60650.30
503.25	59877.93
503.43	58733.40
503.60	58396.37
503.78	58440.84
503.95	58724.04
504.13	59805.37
504.30	60638.60
504.48	59941.12
504.65	59920.05
504.83	59959.84
505.01	60477.10
505.18	61027.13
505.36	61410.98
505.53	61366.51
505.71	61226.07
505.88	61677.80
506.06	61104.37
506.23	60949.89
506.41	60914.78
506.58	60837.54
506.76	60851.59
506.93	59924.74
507.11	60212.62
507.28	60591.79
507.46	59714.09
507.63	59880.27
507.81	59426.20
507.98	59784.30
508.16	60947.55
508.33	60935.85
508.50	61045.85
508.68	61586.52
508.85	61825.25
509.03	62199.74
509.20	61516.30
509.38	60580.09
509.55	60828.18
509.73	60992.02
509.90	61148.84
510.08	61104.37
510.25	60603.49
510.42	60715.84
510.60	60851.59
510.77	61364.17
510.95	61366.51
511.12	61691.84
511.30	62321.44
511.47	62630.40
511.64	62513.37
511.82	62370.60
511.99	61396.93
512.17	61324.38
512.34	60594.13
512.51	60853.93
512.69	61322.04
512.86	60713.50
513.04	61116.07
513.21	60736.90
513.38	60172.83
513.56	59613.44
513.73	59283.43
513.90	60465.40
514.08	60200.92
514.25	60158.79
514.43	60809.46
514.60	60928.83
514.77	61050.53
514.95	61083.30
515.12	61041.17
515.29	61450.77
515.47	61946.96
515.64	61951.64
515.81	61499.92
515.99	60409.23
516.16	58885.54
516.33	56477.13
516.51	56891.40
516.68	55433.25
516.85	54539.16
517.03	56385.85
517.20	58403.39
517.37	60371.78
517.54	61296.29
517.72	59941.12
517.89	56750.97
518.06	55805.39
518.24	56830.55
518.41	59007.25
518.58	60011.34
518.75	60090.91
518.93	59929.42
519.10	59332.58
519.27	60500.51
519.45	60807.12
519.62	61420.34
519.79	61577.15
519.96	61111.39
520.14	60928.83
520.31	59643.87
520.48	59660.26
520.65	60704.13
520.83	61881.42
521.00	61623.96
521.17	60938.19
521.34	61249.48
521.52	61574.81
521.69	61811.21
521.86	62138.88
522.03	61797.16
522.20	60413.91
522.38	59870.90
522.55	60360.08
522.72	60697.11
522.89	60172.83
523.07	61251.82
523.24	61544.39
523.41	62265.27
523.58	62553.16
523.75	62473.58
523.92	62480.60
524.10	62281.66
524.27	61766.74
524.44	61528.00
524.61	61031.81
524.78	61675.46
524.96	61469.49
525.13	61717.59
525.30	62368.26
525.47	62719.34
525.64	62417.41
525.81	61755.03
525.98	59980.91
526.16	58712.34
526.33	58801.28
526.50	58122.52
526.67	58230.19
526.84	59021.29
527.01	59971.55
527.18	60341.35
527.36	60963.93
527.53	61937.60
527.70	61385.23
527.87	60151.77
528.04	61221.39
528.21	61570.13
528.38	62040.58
528.55	63070.42
528.72	62592.95
528.89	62354.21
529.07	62246.55
529.24	61102.03
529.41	60898.40
529.58	60994.36
529.75	61797.16
529.92	62087.39
530.09	61932.92
530.26	62489.96
530.43	63145.31
530.60	62286.34
530.77	62848.06
530.94	63016.58
531.11	61991.43
531.28	62178.67
531.46	62291.02
531.63	62124.84
531.80	61633.33
531.97	61329.06
532.14	61240.12
532.31	59812.39
532.48	59196.83
532.65	59377.05
532.82	59971.55
532.99	61897.81
533.16	61961.00
533.33	61972.70
533.50	62115.48
533.67	61642.69
533.84	61364.17
534.01	61579.49
534.18	61518.64
534.35	61179.26
534.52	60720.52
534.69	61497.58
534.86	61984.41
535.03	62241.87
535.20	62241.87
535.37	62904.24
535.54	62958.07
535.71	62695.93
535.88	62852.75
536.05	61483.53
536.22	61015.43
536.38	61104.37
536.55	60364.76
536.72	60009.00
536.89	60591.79
537.06	60734.56
537.23	61083.30
537.40	60963.93
537.57	60720.52
537.74	61357.14
537.91	61485.87
538.08	61399.27
538.25	61345.44
538.42	62361.23
538.59	61750.35
538.75	60942.87
538.92	60147.09
539.09	60804.78
539.26	60523.91
539.43	60453.70
539.60	60186.88
539.77	60959.25
539.94	60629.24
540.11	60100.28
540.28	59522.16
540.44	59391.09
540.61	59454.29
540.78	59786.64
540.95	60488.80
541.12	60434.97
541.29	61055.21
541.46	61041.17
541.62	61296.29
541.79	60617.53
541.96	60030.06
542.13	60348.37
542.30	60261.77
542.47	60793.07
542.63	60626.90
542.80	60596.47
542.97	59735.15
543.14	59915.37
543.31	60198.58
543.48	61237.78
543.64	61268.20
543.81	62248.89
543.98	61951.64
544.15	60650.30
544.32	61282.25
544.48	60711.16
544.65	60790.73
544.82	61036.49
544.99	59884.95
545.16	59576.00
545.32	59924.74
545.49	60514.55
545.66	60762.65
545.83	60561.36
546.00	60877.33
546.16	60720.52
546.33	60416.25
546.50	60676.05
546.67	61151.18
546.83	60694.77
547.00	60811.80
547.17	59625.15
547.34	59063.42
547.50	59161.72
547.67	59859.20
547.84	60874.99
548.00	60996.70
548.17	60598.81
548.34	60896.06
548.51	60914.78
548.67	60956.91
548.84	60793.07
549.01	60928.83
549.18	60559.02
549.34	60552.00
549.51	60884.36
549.68	61151.18
549.84	60266.45
550.01	59861.54
550.18	59568.97
550.34	60072.19
550.51	60348.37
550.68	60692.43
550.84	60626.90
551.01	59606.42
551.18	59840.48
551.34	59440.24
551.51	60514.55
551.68	60399.86
551.84	60914.78
552.01	60423.27
552.18	59803.03
552.34	59400.46
552.51	59372.37
552.68	58934.69
552.84	59353.65
553.01	59505.78
553.18	59814.73
553.34	59868.56
553.51	60081.55
553.67	60191.56
553.84	60158.79
554.01	60498.17
554.17	59716.43
554.34	60104.96
554.51	59950.48
554.67	59262.36
554.84	59353.65
555.00	59192.15
555.17	59208.53
555.33	59276.41
555.50	58871.49
555.67	59409.82
555.83	59730.47
556.00	59295.13
556.16	58974.48
556.33	58801.28
556.50	59061.08
556.66	58913.62
556.83	58712.34
556.99	58321.47
557.16	59103.21
557.32	58461.90
557.49	58878.52
557.65	58878.52
557.82	59400.46
557.98	59526.84
558.15	58567.23
558.32	57946.98
558.48	57485.90
558.65	57506.96
558.81	57677.82
558.98	58642.12
559.14	58719.36
559.31	58244.23
559.47	58220.83
559.64	58127.20
559.80	57446.11
559.97	58422.11
560.13	58742.77
560.30	59906.01
560.46	59842.82
560.63	60292.20
560.79	59821.75
560.96	59164.06
561.12	57925.92
561.29	58054.65
561.45	57881.45
561.61	59302.15
561.78	58164.65
561.94	58693.61
562.11	58637.44
562.27	57860.38
562.44	58745.11
562.60	58981.50
562.77	59161.72
562.93	58321.47
563.10	58396.37
563.26	58293.38
563.42	58866.81
563.59	58145.93
563.75	58190.40
563.92	57979.75
564.08	57794.85
564.24	58702.98
564.41	57787.83
564.57	58890.22
564.74	58447.86
564.90	57696.55
565.07	57687.18
565.23	56687.78
565.39	56554.36
565.56	56725.22
565.72	57286.95
565.88	56081.58
566.05	58012.52
566.21	58068.69
566.38	57738.68
566.54	58176.36
566.70	58499.35
566.87	58309.77
567.03	57902.51
567.19	59121.93
567.36	59243.64
567.52	57719.95
567.68	57172.27
567.85	56788.42
568.01	57104.39
568.17	57066.94
568.34	57464.83
568.50	56959.28
568.66	56783.74
568.83	56662.03
568.99	56369.46
569.15	56603.52
569.32	56697.14
569.48	56491.17
569.64	56444.36
569.81	56537.98
569.97	56165.84
570.13	55463.67
570.30	55096.21
570.46	54658.53
570.62	54188.08
570.78	54548.53
570.95	55168.77
571.11	55686.03
571.27	55250.69
571.43	55327.92
571.60	55332.60
571.76	56226.69
571.92	56542.66
572.09	56882.04
572.25	56371.80
572.41	57010.77
572.57	56650.33
572.74	56963.96
572.90	57986.77
573.06	57293.97
573.22	57467.17
573.38	57127.80
573.55	58185.72
573.71	56821.19
573.87	56814.16
574.03	56549.68
574.20	56301.59
574.36	56196.26
574.52	55510.49
574.68	55444.95
574.84	55016.63
575.01	55009.61
575.17	55089.19
575.33	55646.24
575.49	55557.30
575.65	54478.31
575.82	55126.64
575.98	55231.96
576.14	55976.25
576.30	56657.35
576.46	55391.12
576.62	55363.03
576.79	55594.74
576.95	55908.38
577.11	55894.33
577.27	55547.93
577.43	55833.48
577.59	55501.12
577.75	54665.55
577.92	54302.77
578.08	54607.04
578.24	54897.27
578.40	54810.67
578.56	53993.82
578.72	54424.48
578.88	54270.00
579.04	54691.30
579.21	54148.29
579.37	54490.01
579.53	54995.57
579.69	54513.42
579.85	54272.34
580.01	54482.99
580.17	53947.01
580.33	54887.90
580.49	55114.94
580.65	53804.24
580.82	54822.37
580.98	54805.98
581.14	55075.15
581.30	54628.10
581.46	54305.11
581.62	54749.81
581.78	55255.37
581.94	55346.65
582.10	55398.14
582.26	55407.50
582.42	55402.82
582.58	54300.43
582.74	54518.10
582.90	54255.96
583.06	54883.22
583.22	54892.58
583.38	55063.44
583.54	55152.38
583.70	55351.33
583.86	55126.64
584.02	54506.40
584.18	54157.66
584.34	53921.26
584.50	53649.76
584.66	54045.31
584.82	53937.65
584.98	53970.41
585.14	53511.67
585.30	53518.69
