SpectraSuite Data File
++++++++++++++++++++++++++++++++++++
Date: Mon Oct 07 14:53:37 GMT-05:00 2013
User: price-jones
Dark Spectrum Present: No
Reference Spectrum Present: No
Number of Sampled Component Spectra: 1
Spectrometers: USB2+H05261
Integration Time (usec): 100000 (USB2+H05261)
Spectra Averaged: 1 (USB2+H05261)
Boxcar Smoothing: 0 (USB2+H05261)
Correct for Electrical Dark: No (USB2+H05261)
Strobe/Lamp Enabled: No (USB2+H05261)
Correct for Detector Non-linearity: No (USB2+H05261)
Correct for Stray Light: No (USB2+H05261)
Number of Pixels in Processed Spectrum: 2048
>>>>>Begin Processed Spectral Data<<<<<
365.73	0.00
365.92	0.00
366.12	0.00
366.32	0.00
366.52	0.00
366.72	0.00
366.91	0.00
367.11	0.00
367.31	0.00
367.51	0.00
367.70	0.00
367.90	0.00
368.10	0.00
368.30	0.00
368.49	0.00
368.69	0.00
368.89	0.00
369.09	0.00
369.28	0.00
369.48	0.00
369.68	0.00
369.87	0.00
370.07	0.00
370.27	0.00
370.47	737.27
370.66	3606.77
370.86	4191.90
371.06	4732.56
371.25	4638.94
371.45	4128.70
371.65	3815.07
371.84	3459.31
372.04	3548.25
372.24	4079.55
372.44	4276.16
372.63	4227.01
372.83	4021.04
373.03	3496.76
373.22	3173.77
373.42	3337.60
373.62	3985.93
373.81	4313.61
374.01	4320.63
374.21	3929.76
374.40	3564.64
374.60	3747.20
374.79	4177.86
374.99	4788.74
375.19	5252.16
375.38	5268.55
375.58	4919.81
375.78	4718.52
375.97	4681.07
376.17	4971.30
376.37	5165.56
376.56	5380.89
376.76	5488.56
376.95	5926.24
377.15	6326.47
377.35	6604.99
377.54	6757.13
377.74	6827.34
377.93	6993.52
378.13	6715.00
378.33	6335.83
378.52	6015.18
378.72	5809.21
378.91	5713.25
379.11	5493.24
379.31	5317.70
379.50	5172.58
379.70	5710.91
379.89	6366.26
380.09	6546.48
380.28	6963.09
380.48	6836.70
380.68	6846.07
380.87	6626.06
381.07	6136.88
381.26	5528.35
381.46	5231.10
381.65	5184.29
381.85	5100.03
382.04	4954.91
382.24	4376.80
382.43	4411.91
382.63	4271.48
382.83	4196.58
383.02	4095.94
383.22	4131.05
383.41	4241.05
383.61	4657.67
383.80	5088.32
384.00	5879.43
384.19	6509.03
384.39	6930.33
384.58	6668.19
384.78	6757.13
384.97	6555.84
385.17	6396.68
385.36	6104.12
385.56	5736.65
385.75	5741.33
385.95	6375.62
386.14	7220.55
386.34	7091.82
386.53	6661.16
386.72	6370.94
386.92	6345.19
387.11	6750.10
387.31	7028.63
387.50	7061.40
387.70	6869.47
387.89	6509.03
388.09	6572.22
388.28	6722.02
388.48	6796.92
388.67	7300.13
388.86	8060.80
389.06	8346.35
389.25	8910.42
389.45	9069.58
389.64	8954.89
389.84	9064.89
390.03	8762.97
390.22	8968.93
390.42	9170.22
390.61	9760.03
390.81	10724.33
391.00	10644.76
391.19	10525.39
391.39	10366.23
391.58	9628.96
391.78	8997.02
391.97	8725.52
392.16	8152.09
392.36	7435.88
392.55	6155.61
392.75	4798.10
392.94	3889.97
393.13	3798.69
393.33	4608.51
393.52	5886.45
393.71	7253.32
393.91	8032.72
394.10	8730.20
394.29	9460.45
394.49	10462.19
394.68	11126.91
394.88	11016.90
395.07	11480.33
395.26	11330.53
395.46	11096.48
395.65	10382.62
395.84	9146.81
396.04	7925.05
396.23	6445.84
396.42	5434.72
396.62	5083.64
396.81	5795.17
397.00	7644.19
397.19	9221.71
397.39	11220.53
397.58	12500.80
397.77	13415.95
397.97	14047.90
398.16	13898.10
398.35	14136.84
398.55	14930.28
398.74	15295.40
398.93	15894.58
399.12	15845.43
399.32	15264.97
399.51	15513.07
399.70	16791.00
399.90	16149.70
400.09	16362.69
400.28	16170.76
400.47	16006.92
400.67	17193.58
400.86	17628.92
401.05	17598.49
401.24	17497.84
401.44	17926.16
401.63	17944.89
401.82	18005.74
402.01	17930.84
402.21	18279.58
402.40	18068.94
402.59	17612.53
402.78	17025.06
402.97	16425.88
403.17	17317.62
403.36	17987.02
403.55	18885.78
403.74	19204.10
403.93	18221.07
404.13	16940.80
404.32	16484.39
404.51	17130.38
404.70	18740.67
404.89	18569.81
405.09	18405.97
405.28	17612.53
405.47	17441.67
405.66	17706.15
405.85	17420.61
406.05	16760.58
406.24	17153.79
406.43	17776.37
406.62	18572.15
406.81	18651.73
407.00	17764.67
407.20	17507.21
407.39	17741.26
407.58	18171.92
407.77	18892.80
407.96	19864.13
408.15	19735.40
408.34	20503.09
408.54	21212.28
408.73	21013.33
408.92	20615.44
409.11	19983.49
409.30	19349.21
409.49	18192.98
409.68	17114.00
409.87	16423.54
410.07	17411.25
410.26	18956.00
410.45	20210.53
410.64	20432.88
410.83	21046.10
411.02	21785.71
411.21	22602.55
411.40	22139.13
411.59	22045.51
411.78	21986.99
411.98	21708.47
412.17	22174.24
412.36	22150.83
412.55	22153.17
412.74	21357.39
412.93	20900.98
413.12	21062.48
413.31	23201.73
413.50	23246.20
413.69	23756.44
413.88	22958.31
414.07	22178.92
414.26	22459.78
414.45	23232.16
414.64	23269.61
414.83	23517.70
415.02	22897.46
415.22	23108.11
415.41	23580.90
415.60	24503.07
415.79	25282.47
415.98	25523.54
416.17	25968.24
416.36	25116.29
416.55	24421.15
416.74	23709.63
416.93	23105.77
417.12	23089.38
417.31	23257.90
417.50	24049.00
417.69	24645.84
417.88	24725.42
418.07	24465.62
418.26	23880.49
418.45	23850.06
418.64	25235.66
418.83	26010.37
419.02	25443.96
419.21	25458.01
419.39	24425.83
419.58	22995.76
419.77	23157.26
419.96	24074.75
420.15	25818.45
420.34	26600.19
420.53	27246.18
420.72	27922.59
420.91	27604.28
421.10	27274.26
421.29	27077.66
421.48	26026.76
421.67	27084.68
421.86	26426.99
422.05	24844.79
422.24	22178.92
422.43	21689.74
422.61	24161.35
422.80	26298.26
422.99	26544.02
423.18	25535.24
423.37	24971.18
423.56	24842.45
423.75	25111.61
423.94	25954.20
424.13	24339.23
424.32	24816.70
424.50	24924.36
424.69	24236.25
424.88	24533.50
425.07	24734.78
425.26	24421.15
425.45	24280.72
425.64	23974.11
425.83	23737.71
426.01	25074.16
426.20	25820.79
426.39	25921.43
426.58	23899.21
426.77	22031.46
426.96	21191.21
427.15	21858.26
427.33	24173.05
427.52	24793.29
427.71	25156.08
427.90	24837.76
428.09	24311.14
428.28	24081.77
428.46	23171.30
428.65	22691.49
428.84	23133.86
429.03	23789.20
429.22	22387.22
429.40	21626.55
429.59	19538.79
429.78	17128.04
429.97	17013.35
430.16	17476.78
430.34	17413.59
430.53	16954.84
430.72	17848.93
430.91	19784.55
431.10	23054.28
431.28	27042.55
431.47	29324.57
431.66	29930.77
431.85	27374.91
432.03	24858.83
432.22	24034.96
432.41	24521.79
432.60	27704.92
432.79	28395.38
432.97	29069.45
433.16	28804.97
433.35	25862.92
433.54	23831.33
433.72	22183.60
433.91	22565.10
434.10	25252.04
434.28	26871.69
434.47	28559.22
434.66	28268.99
434.85	27725.99
435.03	26883.39
435.22	28109.83
435.41	29486.07
435.59	29579.69
435.78	30398.88
435.97	30618.89
436.16	30979.33
436.34	30490.16
436.53	30223.34
436.72	30012.69
436.90	28669.22
437.09	28594.32
437.28	27908.55
437.46	28858.81
437.65	29036.69
437.84	27157.24
438.02	24603.71
438.21	24442.21
438.40	25781.00
438.58	28456.23
438.77	28753.48
438.96	29249.67
439.14	30459.73
439.33	31051.89
439.52	31943.63
439.70	31033.16
439.89	30265.47
440.08	29282.44
440.26	29003.92
440.45	30380.15
440.63	31852.35
440.82	33874.57
441.01	33553.92
441.19	33364.34
441.38	33577.33
441.57	34794.40
441.75	35342.09
441.94	35592.53
442.12	35103.35
442.31	35969.35
442.50	35592.53
442.68	35779.77
442.87	35063.57
443.05	34602.48
443.24	35480.18
443.43	35669.76
443.61	36299.37
443.80	36989.83
443.98	35206.34
444.17	34462.05
444.35	36783.86
444.54	37434.53
444.73	37074.09
444.91	35391.24
445.10	33923.72
445.28	32652.81
445.47	32098.11
445.65	32395.35
445.84	33015.60
446.02	34536.94
446.21	34913.77
446.39	35051.86
446.58	35573.80
446.77	35945.95
446.95	36219.79
447.14	37584.32
447.32	37935.40
447.51	37308.14
447.69	35466.14
447.88	35227.40
448.06	35456.78
448.25	36912.59
448.43	36732.37
448.62	36161.28
448.80	36030.21
448.99	36292.35
449.17	36837.69
449.36	36098.08
449.54	37956.47
449.73	38370.74
449.91	38597.77
450.10	40018.48
450.28	40458.50
450.46	40233.81
450.65	40175.30
450.83	39803.15
451.02	38864.60
451.20	38632.88
451.39	39199.29
451.57	38667.99
451.76	38557.99
451.94	38150.73
452.13	37827.74
452.31	35934.24
452.49	34326.30
452.68	35096.33
452.86	34838.87
453.05	35515.29
453.23	36617.68
453.42	37263.67
453.60	38244.35
453.78	38490.11
453.97	38153.07
454.15	37888.59
454.34	37357.29
454.52	37488.36
454.70	36781.52
454.89	37261.33
455.07	37640.50
455.26	37986.89
455.44	39433.35
455.62	39880.39
455.81	40320.41
455.99	39756.34
456.17	39751.66
456.36	39309.30
456.54	40685.53
456.73	40357.86
456.91	41097.47
457.09	41170.02
457.28	42139.00
457.46	41247.26
457.64	40346.15
457.83	39456.75
458.01	38447.98
458.19	39260.15
458.38	39103.33
458.56	40395.31
458.74	40559.14
458.93	39585.48
459.11	40320.41
459.29	39206.31
459.48	39739.96
459.66	39555.05
459.84	40203.38
460.03	40091.04
460.21	40446.80
460.39	41167.68
460.57	41312.80
460.76	41514.08
460.94	42066.45
461.12	41532.81
461.31	41504.72
461.49	41205.13
461.67	41493.02
461.85	42623.50
462.04	42431.57
462.22	42855.21
462.40	42639.88
462.59	42057.09
462.77	42763.93
462.95	42473.70
463.13	42483.06
463.32	41816.01
463.50	41139.60
463.68	41144.28
463.86	41467.27
464.05	41008.53
464.23	40416.37
464.41	39681.44
464.59	38934.81
464.78	41521.10
464.96	40914.90
465.14	40912.56
465.32	41380.67
465.50	42447.96
465.69	42815.42
465.87	42155.39
466.05	41195.77
466.23	39283.55
466.41	38136.69
466.60	39615.91
466.78	39470.79
466.96	40184.66
467.14	40554.46
467.32	41352.58
467.51	41516.42
467.69	39559.73
467.87	40491.27
468.05	41366.63
468.23	41160.66
468.41	41064.70
468.60	41343.22
468.78	41745.80
468.96	40982.78
469.14	41684.94
469.32	42082.83
469.50	40306.37
469.69	40692.55
469.87	40236.15
470.05	39730.59
470.23	39915.50
470.41	40395.31
470.59	40952.35
470.77	40931.29
470.95	41586.64
471.14	42274.76
471.32	42080.49
471.50	44016.11
471.68	44505.29
471.86	45322.13
472.04	44964.03
472.22	44802.53
472.40	43171.18
472.58	42801.38
472.77	42576.69
472.95	42827.12
473.13	44198.68
473.31	42569.66
473.49	43592.48
473.67	43730.57
473.85	44069.95
474.03	45352.56
474.21	45705.98
474.39	45813.65
474.57	45872.16
474.75	45872.16
474.93	45626.40
475.12	44528.69
475.30	44875.09
475.48	45120.85
475.66	45530.44
475.84	45022.54
476.02	44879.77
476.20	44002.07
476.38	44470.18
476.56	45893.22
476.74	46902.00
476.92	46976.89
477.10	47739.91
477.28	48416.32
477.46	48479.52
477.64	48849.32
477.82	48898.47
478.00	49432.11
478.18	48392.92
478.36	48493.56
478.54	48385.89
478.72	48706.55
478.90	49621.70
479.08	50052.36
479.26	51330.29
479.44	50707.71
479.62	50738.13
479.80	50401.10
479.98	50710.05
480.16	51400.50
480.34	50485.36
480.52	51103.26
480.70	51363.06
480.88	50976.87
481.06	51943.51
481.24	52093.30
481.41	52816.53
481.59	53165.27
481.77	53305.70
481.95	52530.98
482.13	52470.13
482.31	52624.60
482.49	53052.92
482.67	53071.65
482.85	52980.37
483.03	53591.25
483.21	53874.45
483.39	53883.81
483.57	53301.02
483.74	53305.70
483.92	53359.53
484.10	53125.48
484.28	54225.53
484.46	54642.15
484.64	54955.78
484.82	54145.95
485.00	53911.90
485.18	53071.65
485.35	52189.27
485.53	49698.94
485.71	45811.31
485.89	44818.92
486.07	46972.21
486.25	50337.90
486.43	52264.16
486.61	52790.78
486.78	53062.29
486.96	52830.57
487.14	54211.49
487.32	54976.84
487.50	55894.33
487.68	56360.10
487.85	56746.29
488.03	56795.44
488.21	56697.14
488.39	55938.80
488.57	55587.72
488.75	55157.06
488.92	55936.46
489.10	57710.59
489.28	58756.81
489.46	59318.54
489.64	59217.89
489.81	59484.72
489.99	59126.61
490.17	59089.16
490.35	59276.41
490.53	59030.65
490.70	58667.87
490.88	58461.90
491.06	59196.83
491.24	59208.53
491.41	58611.70
491.59	57436.75
491.77	56453.72
491.95	57521.01
492.13	58482.97
492.30	59377.05
492.48	60088.57
492.66	60573.06
492.84	60488.80
493.01	60189.22
493.19	59842.82
493.37	59442.59
493.54	59473.01
493.72	59807.71
493.90	60580.09
494.08	61322.04
494.25	61806.53
494.43	61635.67
494.61	61979.73
494.79	62141.22
494.96	62028.88
495.14	61539.71
495.32	60725.20
495.49	60074.53
495.67	61200.33
495.85	62166.97
496.02	62585.92
496.20	62415.07
496.38	61993.77
496.55	61776.10
496.73	62349.53
496.91	62368.26
497.09	63051.69
497.26	63201.49
497.44	62707.63
497.62	62197.40
497.79	61544.39
497.97	60432.63
498.14	60470.08
498.32	61717.59
498.50	62307.40
498.67	62979.14
498.85	62831.68
499.03	62967.43
499.20	63168.72
499.38	63056.37
499.56	62906.58
499.73	62557.84
499.91	62209.10
500.08	61764.40
500.26	61336.08
500.44	61525.66
500.61	62080.37
500.79	62012.49
500.97	61584.18
501.14	61689.50
501.32	61432.04
501.49	61441.40
501.67	61504.60
501.84	62227.82
502.02	62335.49
502.20	62553.16
502.37	62656.14
502.55	62819.98
502.72	63133.61
502.90	63550.23
503.07	63519.80
503.25	62892.54
503.43	62309.74
503.60	61726.95
503.78	61141.81
503.95	61654.39
504.13	62836.36
504.30	63440.22
504.48	63348.94
504.65	63011.90
504.83	62831.68
505.01	63529.16
505.18	63800.66
505.36	64535.59
505.53	64479.42
505.71	64521.55
505.88	64706.45
506.06	64236.00
506.23	63929.39
506.41	63475.33
506.58	63889.60
506.76	63629.80
506.93	63807.68
507.11	63365.32
507.28	63728.11
507.46	63238.93
507.63	62635.08
507.81	62595.29
507.98	62855.09
508.16	63412.13
508.33	63791.30
508.50	64111.95
508.68	64306.22
508.85	64802.41
509.03	64683.04
509.20	64832.84
509.38	63955.14
509.55	63180.42
509.73	63372.34
509.90	63845.13
510.08	64196.21
510.25	64086.21
510.42	63774.92
510.60	63866.20
510.77	64107.27
510.95	64458.35
511.12	64683.04
511.30	64963.91
511.47	65162.85
511.64	65172.22
511.82	64788.37
511.99	64041.74
512.17	63634.48
512.34	63405.11
512.51	63480.01
512.69	63723.43
512.86	63590.01
513.04	64280.47
513.21	64217.28
513.38	63669.59
513.56	63379.37
513.73	62667.84
513.90	63091.48
514.08	63145.31
514.25	63351.28
514.43	63592.36
514.60	63819.39
514.77	63786.62
514.95	64081.53
515.12	63828.75
515.29	64062.80
515.47	64474.74
515.64	64577.72
515.81	64259.41
515.99	63812.37
516.16	62625.71
516.33	60706.47
516.51	59566.63
516.68	58665.53
516.85	58548.50
517.03	58651.48
517.20	60722.86
517.37	63159.36
517.54	63978.54
517.72	63763.21
517.89	61546.73
518.06	59400.46
518.24	59561.95
518.41	61340.76
518.58	62894.88
518.75	62995.52
518.93	63220.21
519.10	62822.32
519.27	63140.63
519.45	63524.48
519.62	64163.45
519.79	64430.27
519.96	64282.81
520.14	63889.60
520.31	63236.59
520.48	63257.66
520.65	63480.01
520.83	64287.49
521.00	64568.36
521.17	64243.02
521.34	64074.51
521.52	64147.06
521.69	64615.17
521.86	65090.30
522.03	64708.79
522.20	63810.03
522.38	62873.81
522.55	62726.36
522.72	63360.64
522.89	63421.50
523.07	63641.51
523.24	63997.27
523.41	64830.50
523.58	65010.72
523.75	65497.55
523.92	65216.69
524.10	65167.54
524.27	65120.73
524.44	65022.42
524.61	64898.37
524.78	64711.13
524.96	64657.30
525.13	64610.49
525.30	64959.23
525.47	65314.99
525.64	65099.66
525.81	64528.57
525.98	63447.24
526.16	61944.62
526.33	61380.55
526.50	61190.97
526.67	60793.07
526.84	61427.36
527.01	62419.75
527.18	62850.41
527.36	63765.56
527.53	64568.36
527.70	64697.09
527.87	64320.26
528.04	63920.03
528.21	64198.55
528.38	64821.14
528.55	65392.23
528.72	65443.72
528.89	65535.00
529.07	65535.00
529.24	64919.44
529.41	64367.07
529.58	63866.20
529.75	63973.86
529.92	64399.84
530.09	64718.15
530.26	65364.14
530.43	65434.36
530.60	65520.96
530.77	65535.00
530.94	65535.00
531.11	65359.46
531.28	64844.54
531.46	64652.62
531.63	64949.87
531.80	64846.88
531.97	64432.61
532.14	63681.30
532.31	62827.00
532.48	62251.23
532.65	62321.44
532.82	63206.17
532.99	64095.57
533.16	64657.30
533.33	64966.25
533.50	64783.69
533.67	64296.86
533.84	63774.92
534.01	64039.40
534.18	64203.24
534.35	64416.22
534.52	64205.58
534.69	64381.12
534.86	64748.58
535.03	65078.60
535.20	65427.34
535.37	65535.00
535.54	65535.00
535.71	65401.59
535.88	65181.58
536.05	64617.51
536.22	64306.22
536.38	63910.67
536.55	63618.10
536.72	63278.72
536.89	63082.12
537.06	63772.58
537.23	64341.33
537.40	64559.00
537.57	64575.38
537.74	64280.47
537.91	64362.39
538.08	64310.90
538.25	64479.42
538.42	64657.30
538.59	64448.99
538.75	63812.37
538.92	63723.43
539.09	63725.77
539.26	63302.13
539.43	63173.40
539.60	63248.30
539.77	63566.61
539.94	63386.39
540.11	62911.26
540.28	62356.55
540.44	62335.49
540.61	62358.89
540.78	62782.53
540.95	63128.93
541.12	63386.39
541.29	63657.89
541.46	63833.43
541.62	64130.68
541.79	63735.13
541.96	63578.31
542.13	63318.51
542.30	63707.04
542.47	63746.83
542.63	63400.43
542.80	63355.96
542.97	63435.54
543.14	63288.09
543.31	63281.06
543.48	63931.73
543.64	64308.56
543.81	64750.92
543.98	64734.54
544.15	63978.54
544.32	63475.33
544.48	63650.87
544.65	63999.61
544.82	64278.13
544.99	64060.46
545.16	63819.39
545.32	63472.99
545.49	63913.01
545.66	64448.99
545.83	64121.32
546.00	63779.60
546.16	63643.85
546.33	63456.60
546.50	63550.23
546.67	63882.58
546.83	63660.23
547.00	63732.79
547.17	63281.06
547.34	62564.86
547.50	62419.75
547.67	62913.60
547.84	62920.62
548.00	63346.60
548.17	63800.66
548.34	63639.17
548.51	63587.67
548.67	63657.89
548.84	63817.05
549.01	63531.50
549.18	63571.29
549.34	63540.86
549.51	63339.58
549.68	63543.20
549.84	63323.19
550.01	63126.59
550.18	63075.10
550.34	63327.87
550.51	63252.98
550.68	63304.47
550.84	62794.23
551.01	63051.69
551.18	62733.38
551.34	62993.18
551.51	63540.86
551.68	63475.33
551.84	63744.49
552.01	63613.42
552.18	63384.05
552.34	62705.29
552.51	62489.96
552.68	62164.63
552.84	62721.68
553.01	62920.62
553.18	62838.70
553.34	62976.79
553.51	63121.91
553.67	63358.30
553.84	63491.71
554.01	63367.66
554.17	62988.50
554.34	63149.99
554.51	63236.59
554.67	63634.48
554.84	63323.19
555.00	63145.31
555.17	62915.94
555.33	62925.30
555.50	62883.17
555.67	62913.60
555.83	62740.40
556.00	62616.35
556.16	62508.69
556.33	62230.16
556.50	62017.17
556.66	61991.43
556.83	61705.88
556.99	62012.49
557.16	62061.64
557.32	62417.41
557.49	62621.03
557.65	62496.98
557.82	62658.48
557.98	62192.72
558.15	61970.36
558.32	61186.28
558.48	60425.61
558.65	60568.38
558.81	60846.91
558.98	61343.10
559.14	61410.98
559.31	61528.00
559.47	61771.42
559.64	61380.55
559.80	60809.46
559.97	60985.00
560.13	61186.28
560.30	62012.49
560.46	62728.70
560.63	63028.29
560.79	62836.36
560.96	62284.00
561.12	61389.91
561.29	60654.98
561.45	60872.65
561.61	61251.82
561.78	61649.71
561.94	61523.32
562.11	61347.78
562.27	61153.52
562.44	61572.47
562.60	61944.62
562.77	62162.29
562.93	62040.58
563.10	61888.45
563.26	61324.38
563.42	61425.02
563.59	61263.52
563.75	61298.63
563.92	61300.97
564.08	61153.52
564.24	61581.84
564.41	61272.88
564.57	61406.30
564.74	61125.43
564.90	61179.26
565.07	61055.21
565.23	60687.75
565.39	60388.16
565.56	60200.92
565.72	59887.29
565.88	60310.92
566.05	60355.39
566.21	60324.97
566.38	60493.49
566.54	60659.66
566.70	60917.12
566.87	61209.69
567.03	61235.44
567.19	61347.78
567.36	61118.41
567.52	61059.90
567.68	60853.93
567.85	60207.94
568.01	59957.50
568.17	59550.25
568.34	59847.50
568.50	59547.91
568.66	59730.47
568.83	60179.85
568.99	60130.70
569.15	60486.46
569.32	60130.70
569.48	60154.11
569.64	59821.75
569.81	59833.46
569.97	59625.15
570.13	59585.36
570.30	59185.13
570.46	59025.97
570.62	58511.05
570.78	58166.99
570.95	58494.67
571.11	59044.69
571.27	59379.39
571.43	59475.35
571.60	59728.13
571.76	60074.53
571.92	60126.02
572.09	60397.52
572.25	60104.96
572.41	59990.27
572.57	60060.49
572.74	59889.63
572.90	59709.41
573.06	59606.42
573.22	59716.43
573.38	59884.95
573.55	59840.48
573.71	59971.55
573.87	59707.07
574.03	59625.15
574.20	59749.20
574.36	59463.65
574.52	59182.79
574.68	59051.72
574.84	58894.90
575.01	58515.73
575.17	58316.79
575.33	58665.53
575.49	58822.34
575.65	58993.20
575.82	58588.29
575.98	58351.90
576.14	58731.06
576.30	58871.49
576.46	59245.98
576.62	58939.37
576.79	58906.60
576.95	58901.92
577.11	58644.46
577.27	58658.51
577.43	58614.04
577.59	58429.13
577.75	58286.36
577.92	57556.11
578.08	57205.03
578.24	57532.71
578.40	57853.36
578.56	57989.11
578.72	57902.51
578.88	58244.23
579.04	58295.72
579.21	58365.94
579.37	58241.89
579.53	58394.03
579.69	58553.18
579.85	58499.35
580.01	58504.03
580.17	58148.27
580.33	57989.11
580.49	58143.59
580.65	58253.59
580.82	58522.76
580.98	58489.99
581.14	58237.21
581.30	58363.60
581.46	58305.09
581.62	58511.05
581.78	58471.26
581.94	58684.25
582.10	58494.67
582.26	58616.38
582.42	58340.19
582.58	58695.95
582.74	58511.05
582.90	58859.79
583.06	58464.24
583.22	58333.17
583.38	58225.51
583.54	58230.19
583.70	58220.83
583.86	58174.02
584.02	58014.86
584.18	58248.91
584.34	58164.65
584.50	58049.97
584.66	58159.97
584.82	57722.29
584.98	57574.84
585.14	57392.28
