SpectraSuite Data File
++++++++++++++++++++++++++++++++++++
Date: Mon Oct 07 14:53:44 GMT-05:00 2013
User: price-jones
Dark Spectrum Present: No
Reference Spectrum Present: No
Number of Sampled Component Spectra: 1
Spectrometers: USB2+H05261
Integration Time (usec): 100000 (USB2+H05261)
Spectra Averaged: 1 (USB2+H05261)
Boxcar Smoothing: 0 (USB2+H05261)
Correct for Electrical Dark: No (USB2+H05261)
Strobe/Lamp Enabled: No (USB2+H05261)
Correct for Detector Non-linearity: No (USB2+H05261)
Correct for Stray Light: No (USB2+H05261)
Number of Pixels in Processed Spectrum: 2048
>>>>>Begin Processed Spectral Data<<<<<
365.73	0.00
365.92	0.00
366.12	0.00
366.32	0.00
366.52	0.00
366.72	0.00
366.91	0.00
367.11	0.00
367.31	0.00
367.51	0.00
367.70	0.00
367.90	0.00
368.10	0.00
368.30	0.00
368.49	0.00
368.69	0.00
368.89	0.00
369.09	0.00
369.28	0.00
369.48	0.00
369.68	0.00
369.87	0.00
370.07	0.00
370.27	0.00
370.47	667.05
370.66	3550.59
370.86	4227.01
371.06	4596.81
371.25	4615.54
371.45	4180.20
371.65	3698.05
371.84	3482.72
372.04	3627.83
372.24	4049.13
372.44	4376.80
372.63	4236.37
372.83	3882.95
373.03	3531.87
373.22	3236.96
373.42	3442.93
373.62	3922.74
373.81	4273.82
374.01	4161.47
374.21	3946.14
374.40	3651.24
374.60	3637.19
374.79	4257.43
374.99	4744.27
375.19	5275.57
375.38	5137.48
375.58	4910.44
375.78	4884.70
375.97	4959.60
376.17	5015.77
376.37	4971.30
376.56	5095.35
376.76	5455.79
376.95	5898.15
377.15	6347.53
377.35	6703.29
377.54	6773.51
377.74	6789.89
377.93	7059.06
378.13	6832.02
378.33	6682.23
378.52	6031.56
378.72	5633.67
378.91	5570.48
379.11	5502.60
379.31	5310.68
379.50	5263.86
379.70	5710.91
379.89	6328.81
380.09	6604.99
380.28	6874.15
380.48	6803.94
380.68	6794.58
380.87	6422.43
381.07	6031.56
381.26	5526.00
381.46	5284.93
381.65	5280.25
381.85	5008.75
382.04	4830.87
382.24	4351.06
382.43	4212.96
382.63	4241.05
382.83	4095.94
383.02	4180.20
383.22	4227.01
383.41	4229.35
383.61	4575.75
383.80	5032.15
384.00	5661.76
384.19	6473.92
384.39	6806.28
384.58	6771.17
384.78	6534.78
384.97	6775.85
385.17	6291.36
385.36	5879.43
385.56	5769.42
385.75	5907.51
385.95	6476.26
386.14	7033.31
386.34	7028.63
386.53	6546.48
386.72	6272.64
386.92	6361.58
387.11	6696.27
387.31	7150.34
387.50	6986.50
387.70	6745.42
387.89	6466.90
388.09	6562.86
388.28	6715.00
388.48	6656.48
388.67	7222.89
388.86	7941.44
389.06	8725.52
389.25	9004.04
389.45	8980.64
389.64	8936.17
389.84	8961.91
390.03	8828.50
390.22	8917.44
390.42	9156.18
390.61	9554.07
390.81	10281.97
391.00	10539.43
391.19	10340.49
391.39	9937.91
391.58	9268.52
391.78	8849.57
391.97	8638.92
392.16	8170.81
392.36	7510.78
392.55	6022.20
392.75	4755.97
392.94	3904.01
393.13	3826.78
393.33	4547.66
393.52	5785.80
393.71	6984.16
393.91	8067.83
394.10	8578.06
394.29	9465.13
394.49	10251.55
394.68	10958.39
394.88	11108.18
395.07	11337.56
395.26	11360.96
395.46	11033.29
395.65	10527.73
395.84	9055.53
396.04	7754.19
396.23	6216.46
396.42	5294.29
396.62	4915.12
396.81	5781.12
397.00	7356.30
397.19	9528.32
397.39	11061.37
397.58	12514.84
397.77	13160.83
397.97	13811.50
398.16	13879.38
398.35	14478.55
398.55	14864.74
398.74	15887.56
398.93	15686.27
399.12	15726.06
399.32	14951.34
399.51	15403.07
399.70	16297.15
399.90	16152.04
400.09	16189.49
400.28	15957.77
400.47	15932.03
400.67	17013.35
400.86	17673.39
401.05	17657.00
401.24	17671.04
401.44	17895.74
401.63	17582.10
401.82	17998.72
402.01	17947.23
402.21	18090.00
402.40	18242.14
402.59	17621.89
402.78	17123.36
402.97	16381.41
403.17	16711.42
403.36	18068.94
403.55	18473.85
403.74	19213.46
403.93	18167.24
404.13	16798.02
404.32	16243.32
404.51	17139.74
404.70	18558.11
404.89	18188.30
405.09	18094.68
405.28	17558.70
405.47	17736.58
405.66	17500.19
405.85	17139.74
406.05	16737.17
406.24	16788.66
406.43	17483.80
406.62	18457.46
406.81	18291.29
407.00	17619.55
407.20	17427.63
407.39	17617.21
407.58	18225.75
407.77	18944.30
407.96	19426.45
408.15	19620.71
408.34	20079.46
408.54	21130.36
408.73	20739.49
408.92	20704.38
409.11	20315.85
409.30	19374.95
409.49	18094.68
409.68	16734.83
409.87	16336.94
410.07	17371.46
410.26	18424.70
410.45	19756.46
410.64	20243.29
410.83	21214.62
411.02	21558.67
411.21	22476.16
411.40	22185.94
411.59	22260.84
411.78	22118.06
411.98	21561.02
412.17	22190.62
412.36	21570.38
412.55	21610.17
412.74	21493.14
412.93	20519.48
413.12	20910.35
413.31	22981.72
413.50	23309.40
413.69	23791.55
413.88	22522.98
414.07	21799.75
414.26	22452.76
414.45	22967.68
414.64	23522.38
414.83	22995.76
415.02	22817.88
415.22	22693.83
415.41	23398.34
415.60	23864.10
415.79	24938.41
415.98	25647.59
416.17	25429.92
416.36	25060.12
416.55	24467.96
416.74	23758.78
416.93	23147.90
417.12	23108.11
417.31	23166.62
417.50	23662.82
417.69	24519.45
417.88	24496.05
418.07	24313.48
418.26	24037.30
418.45	24259.65
418.64	24779.25
418.83	25610.14
419.02	25596.10
419.21	25284.81
419.39	23995.17
419.58	23126.83
419.77	23054.28
419.96	23744.73
420.15	25474.39
420.34	25916.75
420.53	27012.12
420.72	27538.74
420.91	26969.99
421.10	26946.59
421.29	26867.01
421.48	25605.46
421.67	27084.68
421.86	26469.12
422.05	25071.82
422.24	21954.22
422.43	21612.51
422.61	24034.96
422.80	26331.03
422.99	26141.44
423.18	25247.36
423.37	24685.63
423.56	24329.87
423.75	25394.81
423.94	25647.59
424.13	24238.59
424.32	24493.71
424.50	24678.61
424.69	24137.94
424.88	24245.61
425.07	24479.66
425.26	24245.61
425.45	23929.64
425.64	23810.27
425.83	23545.79
426.01	24929.05
426.20	25617.16
426.39	25605.46
426.58	23482.59
426.77	21916.78
426.96	21352.71
427.15	21584.42
427.33	23765.80
427.52	24322.85
427.71	25067.14
427.90	24210.50
428.09	24030.28
428.28	23669.84
428.46	23037.89
428.65	22253.81
428.84	22911.50
429.03	23653.45
429.22	22108.70
429.40	21095.25
429.59	19068.34
429.78	16765.26
429.97	16727.81
430.16	17296.56
430.34	17228.68
430.53	17104.64
430.72	17619.55
430.91	19241.54
431.10	22925.55
431.28	26984.04
431.47	29102.22
431.66	29235.63
431.85	27094.04
432.03	24765.21
432.22	23613.66
432.41	24744.14
432.60	27187.66
432.79	28072.39
432.97	28753.48
433.16	28334.53
433.35	26366.13
433.54	22967.68
433.72	21713.15
433.91	22459.78
434.10	25041.39
434.28	26766.37
434.47	28575.60
434.66	28088.77
434.85	27288.31
435.03	27117.45
435.22	27576.19
435.41	29453.30
435.59	29511.81
435.78	29984.60
435.97	30876.35
436.16	30838.90
436.34	30565.06
436.53	29565.65
436.72	29525.86
436.90	28437.51
437.09	28341.55
437.28	27571.51
437.46	28636.45
437.65	28732.42
437.84	27239.15
438.02	24781.59
438.21	24175.39
438.40	25612.48
438.58	27936.63
438.77	28622.41
438.96	28872.85
439.14	30710.17
439.33	30539.31
439.52	31232.11
439.70	30684.42
439.89	29752.89
440.08	29228.61
440.26	28851.78
440.45	30043.12
440.63	31758.73
440.82	33656.90
441.01	33233.27
441.19	32882.19
441.38	33305.82
441.57	34548.65
441.75	34920.79
441.94	35641.68
442.12	34546.31
442.31	35599.55
442.50	35332.73
442.68	35306.98
442.87	34710.14
443.05	34012.66
443.24	34134.37
443.43	35421.67
443.61	36154.26
443.80	36402.35
443.98	34380.13
444.17	34384.81
444.35	36636.41
444.54	37333.89
444.73	36561.51
444.91	34951.22
445.10	33722.44
445.28	32479.61
445.47	32006.83
445.65	32182.37
445.84	33020.28
446.02	34190.55
446.21	34675.04
446.39	34558.01
446.58	35091.65
446.77	35718.92
446.95	36086.38
447.14	37106.85
447.32	37640.50
447.51	37303.46
447.69	35180.59
447.88	34932.50
448.06	35227.40
448.25	36264.26
448.43	36079.36
448.62	35744.66
448.80	35739.98
448.99	35372.52
449.17	36072.34
449.36	36149.57
449.54	37387.72
449.73	37993.92
449.91	38649.27
450.10	39541.01
450.28	40074.65
450.46	39700.17
450.65	40013.80
450.83	39398.24
451.02	38103.92
451.20	38422.23
451.39	38321.59
451.57	38064.13
451.76	38263.08
451.94	37881.57
452.13	37563.26
452.31	35470.82
452.49	33792.65
452.68	34672.70
452.86	34281.83
453.05	35122.08
453.23	35810.20
453.42	36884.50
453.60	38000.94
453.78	37841.78
453.97	38059.45
454.15	38029.02
454.34	36919.61
454.52	37170.05
454.70	36336.82
454.89	36793.22
455.07	36985.15
455.26	37326.86
455.44	38714.80
455.62	39524.63
455.81	39997.41
455.99	39246.10
456.17	38761.61
456.36	39241.42
456.54	40060.61
456.73	40095.72
456.91	41060.02
457.09	41530.47
457.28	41677.92
457.46	40142.53
457.64	40074.65
457.83	38712.46
458.01	37792.63
458.19	38873.96
458.38	38644.59
458.56	40128.48
458.74	40016.14
458.93	39236.74
459.11	39316.32
459.29	38906.73
459.48	39239.08
459.66	38934.81
459.84	39695.49
460.03	39686.12
460.21	39711.87
460.39	41006.19
460.57	40538.08
460.76	41029.59
460.94	41282.37
461.12	40982.78
461.31	41200.45
461.49	40861.07
461.67	40837.67
461.85	42124.96
462.04	41659.20
462.22	41895.59
462.40	42012.62
462.59	42052.41
462.77	42387.10
462.95	41684.94
463.13	41698.98
463.32	40989.80
463.50	40634.04
463.68	40769.79
463.86	40987.46
464.05	40432.75
464.23	39618.25
464.41	39651.02
464.59	38539.26
464.78	40538.08
464.96	40755.75
465.14	39959.97
465.32	41050.66
465.50	42148.37
465.69	42387.10
465.87	41457.91
466.05	40732.34
466.23	38803.74
466.41	38024.34
466.60	38642.24
466.78	39182.91
466.96	39601.86
467.14	40507.65
467.32	41031.93
467.51	40982.78
467.69	39363.13
467.87	40348.50
468.05	40891.50
468.23	40549.78
468.41	40694.89
468.60	40760.43
468.78	40928.95
468.96	39922.52
469.14	41280.03
469.32	41413.44
469.50	39702.51
469.69	40098.06
469.87	39805.49
470.05	39386.54
470.23	39454.41
470.41	39784.43
470.59	40219.77
470.77	40327.43
470.95	40978.10
471.14	41434.50
471.32	41394.71
471.50	43566.73
471.68	43861.64
471.86	44266.55
472.04	44257.19
472.22	44484.22
472.40	42471.36
472.58	42249.01
472.77	41514.08
472.95	42557.96
473.13	43576.09
473.31	42426.89
473.49	42394.12
473.67	43608.86
473.85	43810.15
474.03	44425.71
474.21	44603.59
474.39	45198.09
474.57	45588.95
474.75	45535.12
474.93	44877.43
475.12	44133.14
475.30	44467.84
475.48	44210.38
475.66	45366.60
475.84	44479.54
476.02	44252.51
476.20	43739.93
476.38	44243.15
476.56	45696.62
476.74	46227.92
476.92	46045.36
477.10	47129.03
477.28	47814.80
477.46	48140.14
477.64	48388.24
477.82	48516.96
478.00	48582.50
478.18	48083.97
478.36	47615.86
478.54	47679.05
478.72	48367.17
478.90	48633.99
479.08	49977.46
479.26	50576.64
479.44	50141.30
479.62	49886.18
479.80	50099.17
479.98	50232.58
480.16	50543.87
480.34	50349.60
480.52	50677.28
480.70	50527.48
480.88	50763.88
481.06	51344.33
481.24	51564.34
481.41	52523.96
481.59	52802.49
481.77	52446.72
481.95	52317.99
482.13	52065.22
482.31	52245.44
482.49	52561.41
482.67	52409.28
482.85	52982.71
483.03	53111.44
483.21	53659.12
483.39	53691.89
483.57	53024.84
483.74	52383.53
483.92	52793.12
484.10	53139.52
484.28	54000.84
484.46	54190.42
484.64	54450.22
484.82	53443.79
485.00	53455.50
485.18	52633.97
485.35	51852.23
485.53	48779.10
485.71	45186.38
485.89	44449.11
486.07	46553.26
486.25	49865.11
486.43	52088.62
486.61	52409.28
486.78	52514.60
486.96	52523.96
487.14	53970.41
487.32	54525.12
487.50	55398.14
487.68	55938.80
487.85	56619.90
488.03	56395.21
488.21	56011.36
488.39	55618.15
488.57	55040.04
488.75	54890.24
488.92	55625.17
489.10	57324.40
489.28	58356.58
489.46	59030.65
489.64	58852.77
489.81	58897.24
489.99	58752.13
490.17	58611.70
490.35	58922.99
490.53	58724.04
490.70	58401.05
490.88	58024.22
491.06	59063.42
491.24	58763.83
491.41	58185.72
491.59	56734.59
491.77	56179.88
491.95	56882.04
492.13	58143.59
492.30	59096.19
492.48	59838.14
492.66	60034.74
492.84	60229.01
493.01	59969.21
493.19	59416.84
493.37	59236.62
493.54	59145.34
493.72	59597.06
493.90	60154.11
494.08	61151.18
494.25	61315.01
494.43	61343.10
494.61	61666.09
494.79	61740.99
494.96	61673.12
495.14	61125.43
495.32	60502.85
495.49	59725.79
495.67	60472.42
495.85	61855.68
496.02	62157.61
496.20	62059.30
496.38	61846.32
496.55	61574.81
496.73	62085.05
496.91	61949.30
497.09	62691.25
497.26	62747.42
497.44	62372.94
497.62	61748.01
497.79	61336.08
497.97	60313.26
498.14	60172.83
498.32	61286.93
498.50	61888.45
498.67	62677.21
498.85	62298.04
499.03	62422.09
499.20	62649.12
499.38	62845.72
499.56	62588.27
499.73	62166.97
499.91	61780.78
500.08	61303.31
500.26	60816.48
500.44	61223.73
500.61	61902.49
500.79	61593.54
500.97	61359.48
501.14	61268.20
501.32	60935.85
501.49	61249.48
501.67	61041.17
501.84	61853.34
502.02	61851.00
502.20	62262.93
502.37	62349.53
502.55	62276.97
502.72	62702.95
502.90	63360.64
503.07	62955.73
503.25	62815.30
503.43	62040.58
503.60	61408.64
503.78	60839.89
503.95	61282.25
504.13	62410.38
504.30	63309.15
504.48	63056.37
504.65	62541.45
504.83	62642.10
505.01	63236.59
505.18	63426.18
505.36	63889.60
505.53	64158.76
505.71	64259.41
505.88	64236.00
506.06	63833.43
506.23	63501.07
506.41	63018.92
506.58	63330.22
506.76	63325.53
506.93	63362.98
507.11	63103.18
507.28	63154.68
507.46	62784.87
507.63	62258.25
507.81	62096.75
507.98	62298.04
508.16	62967.43
508.33	63435.54
508.50	63678.96
508.68	63868.54
508.85	64500.48
509.03	64437.29
509.20	64254.73
509.38	63618.10
509.55	62878.49
509.73	63079.78
509.90	63594.70
510.08	63781.94
510.25	63693.00
510.42	63625.12
510.60	63508.10
510.77	63707.04
510.95	64069.82
511.12	64383.46
511.30	64542.61
511.47	64741.56
511.64	64743.90
511.82	64519.21
511.99	63744.49
512.17	63491.71
512.34	63002.54
512.51	63157.02
512.69	63299.79
512.86	63285.75
513.04	63955.14
513.21	63753.85
513.38	63625.12
513.56	63047.01
513.73	62499.33
513.90	62550.82
514.08	62770.83
514.25	63063.39
514.43	63320.85
514.60	63440.22
514.77	63519.80
514.95	63440.22
515.12	63536.18
515.29	63629.80
515.47	64114.29
515.64	64079.19
515.81	64058.12
515.99	63468.31
516.16	62164.63
516.33	60030.06
516.51	59000.22
516.68	58436.16
516.85	58007.84
517.03	58202.10
517.20	60449.02
517.37	62724.02
517.54	63646.19
517.72	63154.68
517.89	61181.60
518.06	58915.96
518.24	59075.12
518.41	61003.72
518.58	62269.95
518.75	62574.22
518.93	62534.43
519.10	62496.98
519.27	62981.48
519.45	62967.43
519.62	63580.65
519.79	64069.82
519.96	63868.54
520.14	63533.84
520.31	62784.87
520.48	62651.46
520.65	63117.23
520.83	63898.97
521.00	64296.86
521.17	63763.21
521.34	63685.98
521.52	63983.22
521.69	64247.71
521.86	64786.03
522.03	64434.95
522.20	63407.45
522.38	62337.83
522.55	62468.90
522.72	62831.68
522.89	63201.49
523.07	63269.36
523.24	63700.02
523.41	64397.50
523.58	64505.16
523.75	64931.14
523.92	64821.14
524.10	64769.64
524.27	64676.02
524.44	64650.28
524.61	64647.94
524.78	64406.86
524.96	64121.32
525.13	64320.26
525.30	64355.37
525.47	64879.65
525.64	64783.69
525.81	64163.45
525.98	62932.32
526.16	61579.49
526.33	60903.08
526.50	60982.66
526.67	60526.25
526.84	60963.93
527.01	61890.79
527.18	62611.67
527.36	63313.83
527.53	64081.53
527.70	64355.37
527.87	63994.93
528.04	63372.34
528.21	63856.84
528.38	64664.32
528.55	65099.66
528.72	65303.29
528.89	65387.55
529.07	65109.02
529.24	64587.08
529.41	64186.85
529.58	63512.78
529.75	63559.59
529.92	63791.30
530.09	64090.89
530.26	64879.65
530.43	65052.85
530.60	65127.75
530.77	65254.14
530.94	65247.11
531.11	64966.25
531.28	64692.41
531.46	64437.29
531.63	64692.41
531.80	64294.52
531.97	64128.34
532.14	63480.01
532.31	62562.52
532.48	61944.62
532.65	61965.68
532.82	62583.58
532.99	63753.85
533.16	64030.04
533.33	64530.91
533.50	64446.65
533.67	63910.67
533.84	63318.51
534.01	63697.68
534.18	63641.51
534.35	63964.50
534.52	63828.75
534.69	63962.16
534.86	64432.61
535.03	64701.77
535.20	64987.31
535.37	65380.52
535.54	65207.32
535.71	65160.51
535.88	64671.34
536.05	64226.64
536.22	63632.14
536.38	63475.33
536.55	63257.66
536.72	62691.25
536.89	62653.80
537.06	63501.07
537.23	64189.19
537.40	64214.94
537.57	64144.72
537.74	64074.51
537.91	63931.73
538.08	63756.19
538.25	63962.16
538.42	64420.90
538.59	64224.30
538.75	63632.14
538.92	63398.09
539.09	63044.67
539.26	63063.39
539.43	62688.91
539.60	62995.52
539.77	63049.35
539.94	62986.16
540.11	62401.02
540.28	61986.75
540.44	61958.66
540.61	62166.97
540.78	62216.12
540.95	62829.34
541.12	63103.18
541.29	63353.62
541.46	63653.21
541.62	63641.51
541.79	63636.83
541.96	63077.44
542.13	62873.81
542.30	63007.22
542.47	63285.75
542.63	63138.29
542.80	62929.98
542.97	63178.08
543.14	62997.86
543.31	62873.81
543.48	63381.71
543.64	64095.57
543.81	64327.28
543.98	64233.66
544.15	63559.59
544.32	62988.50
544.48	62976.79
544.65	63515.12
544.82	63880.24
544.99	63463.63
545.16	63178.08
545.32	62976.79
545.49	63608.74
545.66	63957.48
545.83	63634.48
546.00	63407.45
546.16	63145.31
546.33	63182.76
546.50	63201.49
546.67	63456.60
546.83	63168.72
547.00	63231.91
547.17	62735.72
547.34	62181.01
547.50	62129.52
547.67	62515.71
547.84	62700.61
548.00	62929.98
548.17	63201.49
548.34	63189.78
548.51	63168.72
548.67	63187.44
548.84	63203.83
549.01	63168.72
549.18	63114.89
549.34	63185.10
549.51	63037.65
549.68	62922.96
549.84	62621.03
550.01	62738.06
550.18	62665.50
550.34	62644.44
550.51	62787.21
550.68	62845.72
550.84	62386.98
551.01	62480.60
551.18	62422.09
551.34	62522.73
551.51	62901.90
551.68	63250.64
551.84	63297.45
552.01	62948.71
552.18	63164.04
552.34	62281.66
552.51	62110.80
552.68	61748.01
552.84	62255.91
553.01	62335.49
553.18	62288.68
553.34	62604.65
553.51	62546.14
553.67	62780.19
553.84	62986.16
554.01	62962.75
554.17	62653.80
554.34	62796.57
554.51	62845.72
554.67	63117.23
554.84	62796.57
555.00	62625.71
555.17	62478.26
555.33	62328.47
555.50	62335.49
555.67	62501.67
555.83	62349.53
556.00	62106.12
556.16	62078.03
556.33	61726.95
556.50	61532.68
556.66	61518.64
556.83	61436.72
556.99	61436.72
557.16	61520.98
557.32	61989.09
557.49	62185.69
557.65	61827.59
557.82	62094.41
557.98	61764.40
558.15	61535.02
558.32	60830.52
558.48	60067.51
558.65	60240.71
558.81	60537.96
558.98	60924.14
559.14	61155.86
559.31	60928.83
559.47	61118.41
559.64	60587.11
559.80	60516.89
559.97	60449.02
560.13	60853.93
560.30	61630.99
560.46	62251.23
560.63	62356.55
560.79	62288.68
560.96	62080.37
561.12	61165.22
561.29	60058.15
561.45	60154.11
561.61	60750.94
561.78	61202.67
561.94	61069.26
562.11	61200.33
562.27	60893.72
562.44	60959.25
562.60	61247.14
562.77	61525.66
562.93	61408.64
563.10	61389.91
563.26	60790.73
563.42	60837.54
563.59	60764.99
563.75	60856.27
563.92	60713.50
564.08	60734.56
564.24	60980.32
564.41	61001.38
564.57	60898.40
564.74	60729.88
564.90	60760.31
565.07	60786.05
565.23	60051.12
565.39	59927.08
565.56	59557.27
565.72	59447.27
565.88	59896.65
566.05	59718.77
566.21	60252.41
566.38	60083.89
566.54	60149.43
566.70	60315.61
566.87	60762.65
567.03	60725.20
567.19	60940.53
567.36	60540.30
567.52	60746.26
567.68	60346.03
567.85	59732.81
568.01	59447.27
568.17	59133.63
568.34	59098.53
568.50	59187.47
568.66	59128.95
568.83	59545.57
568.99	59568.97
569.15	59840.48
569.32	59678.98
569.48	59538.55
569.64	59487.06
569.81	59018.95
569.97	59171.08
570.13	58820.00
570.30	58539.14
570.46	58174.02
570.62	57841.66
570.78	57748.04
570.95	58054.65
571.11	58688.93
571.27	58665.53
571.43	58958.09
571.60	59206.19
571.76	59210.87
571.92	59739.83
572.09	59742.17
572.25	59503.44
572.41	59489.40
572.57	59465.99
572.74	59639.19
572.90	59320.88
573.06	59175.76
573.22	59419.18
573.38	59325.56
573.55	59030.65
573.71	59208.53
573.87	59072.78
574.03	59086.82
574.20	59047.04
574.36	58761.49
574.52	58691.27
574.68	58632.76
574.84	58066.35
575.01	57717.61
575.17	57691.86
575.33	57865.06
575.49	58094.44
575.65	58330.83
575.82	58258.27
575.98	58174.02
576.14	58223.17
576.30	58389.34
576.46	58740.42
576.62	58452.54
576.79	58340.19
576.95	58209.12
577.11	58157.63
577.27	58265.30
577.43	58202.10
577.59	57815.91
577.75	57710.59
577.92	57102.05
578.08	56708.84
578.24	56844.59
578.40	57174.61
578.56	57600.58
578.72	57387.60
578.88	57708.25
579.04	57939.96
579.21	57989.11
579.37	58010.18
579.53	57776.12
579.69	57970.39
579.85	58042.95
580.01	57923.58
580.17	57460.15
580.33	57546.75
580.49	57530.37
580.65	57647.39
580.82	57909.53
580.98	57682.50
581.14	57897.83
581.30	57930.60
581.46	57682.50
581.62	57949.32
581.78	57806.55
581.94	58035.92
582.10	57916.56
582.26	57921.24
582.42	58185.72
582.58	58188.06
582.74	57904.85
582.90	57848.68
583.06	58094.44
583.22	57776.12
583.38	57663.78
583.54	57677.82
583.70	57745.70
583.86	57609.95
584.02	57593.56
584.18	57712.93
584.34	57614.63
584.50	57537.39
584.66	57275.25
584.82	57160.56
584.98	56912.47
585.14	56842.25
