SpectraSuite Data File
++++++++++++++++++++++++++++++++++++
Date: Mon Oct 07 14:53:53 GMT-05:00 2013
User: price-jones
Dark Spectrum Present: No
Reference Spectrum Present: No
Number of Sampled Component Spectra: 1
Spectrometers: USB2+H05261
Integration Time (usec): 100000 (USB2+H05261)
Spectra Averaged: 1 (USB2+H05261)
Boxcar Smoothing: 0 (USB2+H05261)
Correct for Electrical Dark: No (USB2+H05261)
Strobe/Lamp Enabled: No (USB2+H05261)
Correct for Detector Non-linearity: No (USB2+H05261)
Correct for Stray Light: No (USB2+H05261)
Number of Pixels in Processed Spectrum: 2048
>>>>>Begin Processed Spectral Data<<<<<
365.73	0.00
365.92	0.00
366.12	0.00
366.32	0.00
366.52	0.00
366.72	0.00
366.91	0.00
367.11	0.00
367.31	0.00
367.51	0.00
367.70	0.00
367.90	0.00
368.10	0.00
368.30	0.00
368.49	0.00
368.69	0.00
368.89	0.00
369.09	0.00
369.28	0.00
369.48	0.00
369.68	0.00
369.87	0.00
370.07	0.00
370.27	0.00
370.47	503.22
370.66	2773.53
370.86	3267.39
371.06	3686.34
371.25	3648.90
371.45	3126.96
371.65	2930.35
371.84	2869.50
372.04	2979.50
372.24	3187.81
372.44	3349.31
372.63	3346.97
372.83	3068.44
373.03	2895.24
373.22	2616.72
373.42	2710.34
373.62	3173.77
373.81	3215.90
374.01	3335.26
374.21	3026.31
374.40	2633.10
374.60	2855.45
374.79	3316.54
374.99	3791.67
375.19	4175.52
375.38	4100.62
375.58	3913.38
375.78	3847.84
375.97	3927.42
376.17	4044.45
376.37	3925.08
376.56	4173.18
376.76	4470.42
376.95	4692.77
377.15	5160.88
377.35	5191.31
377.54	5401.96
377.74	5582.18
377.93	5589.20
378.13	5320.04
378.33	5116.41
378.52	4695.11
378.72	4533.62
378.91	4507.87
379.11	4224.67
379.31	4229.35
379.50	4145.09
379.70	4503.19
379.89	5088.32
380.09	5203.01
380.28	5423.02
380.48	5188.97
380.68	5259.18
380.87	5104.71
381.07	4856.61
381.26	4390.84
381.46	4105.30
381.65	4156.79
381.85	3878.27
382.04	3712.09
382.24	3403.14
382.43	3253.34
382.63	3192.49
382.83	3255.69
383.02	3241.64
383.22	3126.96
383.41	3248.66
383.61	3545.91
383.80	4032.74
384.00	4383.82
384.19	5135.14
384.39	5350.46
384.58	5320.04
384.78	5231.10
384.97	5210.03
385.17	4975.98
385.36	4725.54
385.56	4414.25
385.75	4594.47
385.95	5055.56
386.14	5476.85
386.34	5504.94
386.53	5184.29
386.72	4950.23
386.92	5020.45
387.11	5249.82
387.31	5537.71
387.50	5451.11
387.70	5181.95
387.89	5284.93
388.09	5392.59
388.28	5041.51
388.48	5418.34
388.67	5598.56
388.86	6246.89
389.06	6719.68
389.25	7087.14
389.45	7110.55
389.64	7145.66
389.84	7030.97
390.03	6689.25
390.22	6899.90
390.42	7087.14
390.61	7576.31
390.81	8091.23
391.00	8093.57
391.19	8102.93
391.39	7705.04
391.58	7772.92
391.78	7016.93
391.97	6920.96
392.16	6354.55
392.36	5706.23
392.55	4655.33
392.75	3810.39
392.94	2984.18
393.13	3021.63
393.33	3424.20
393.52	4444.68
393.71	5408.98
393.91	6195.40
394.10	6759.47
394.29	7503.76
394.49	7747.17
394.68	8648.28
394.88	8645.94
395.07	9025.11
395.26	8975.95
395.46	8430.61
395.65	8053.78
395.84	7318.86
396.04	6162.63
396.23	5027.47
396.42	3971.89
396.62	3915.72
396.81	4678.73
397.00	5783.46
397.19	7297.79
397.39	8826.16
397.58	10054.94
397.77	10307.72
397.97	10839.02
398.16	10991.16
398.35	11297.77
398.55	11473.31
398.74	12109.93
398.93	12524.21
399.12	12121.63
399.32	11637.14
399.51	12058.44
399.70	12641.23
399.90	12507.82
400.09	12498.46
400.28	12411.86
400.47	12561.66
400.67	13289.56
400.86	13612.56
401.05	13418.29
401.24	13652.34
401.44	13855.97
401.63	13748.31
401.82	13862.99
402.01	13722.56
402.21	14361.53
402.40	14052.58
402.59	13940.23
402.78	13060.19
402.97	12683.36
403.17	13111.68
403.36	14249.18
403.55	14457.49
403.74	15021.56
403.93	14148.54
404.13	13062.53
404.32	12856.56
404.51	13446.38
404.70	14249.18
404.89	14214.07
405.09	13937.89
405.28	13635.96
405.47	13738.94
405.66	13809.16
405.85	13514.25
406.05	12940.82
406.24	13128.06
406.43	13554.04
406.62	14195.35
406.81	14469.19
407.00	13734.26
407.20	13371.48
407.39	13481.49
407.58	14185.99
407.77	14572.18
407.96	15276.68
408.15	15620.74
408.34	15351.57
408.54	16290.13
408.73	16463.33
408.92	16343.96
409.11	15747.12
409.30	14846.02
409.49	13792.78
409.68	13128.06
409.87	12545.27
410.07	13397.23
410.26	14581.54
410.45	15197.10
410.64	15765.85
410.83	16280.77
411.02	16655.25
411.21	17282.52
411.40	16919.73
411.59	17289.54
411.78	17102.29
411.98	16933.78
412.17	17128.04
412.36	16559.29
412.55	16943.14
412.74	16545.25
412.93	16027.99
413.12	15992.88
413.31	17624.23
413.50	17832.54
413.69	18246.82
413.88	17724.88
414.07	17132.72
414.26	17355.07
414.45	17858.29
414.64	17694.45
414.83	18045.53
415.02	17671.04
415.22	17539.97
415.41	18291.29
415.60	18523.00
415.79	19276.65
415.98	19805.61
416.17	19702.63
416.36	19536.45
416.55	19236.86
416.74	18368.52
416.93	17741.26
417.12	17785.73
417.31	17738.92
417.50	18333.42
417.69	18927.91
417.88	18712.58
418.07	18764.07
418.26	18370.86
418.45	18614.28
418.64	18988.77
418.83	19819.66
419.02	19674.54
419.21	19503.68
419.39	18185.96
419.58	17692.11
419.77	17921.48
419.96	18635.35
420.15	19704.97
420.34	19892.21
420.53	20992.26
420.72	21303.56
420.91	21048.44
421.10	20615.44
421.29	20772.25
421.48	20142.65
421.67	20641.18
421.86	20582.67
422.05	19173.67
422.24	17142.08
422.43	16807.39
422.61	18834.29
422.80	20053.71
422.99	20156.69
423.18	19501.34
423.37	18719.60
423.56	18754.71
423.75	19531.77
423.94	19716.67
424.13	18567.47
424.32	18974.72
424.50	18916.21
424.69	18733.65
424.88	18953.66
425.07	18555.77
425.26	18438.74
425.45	18354.48
425.64	18312.35
425.83	17916.80
426.01	19391.34
426.20	19417.08
426.39	19646.46
426.58	18410.65
426.77	16683.34
426.96	15946.07
427.15	16826.11
427.33	18057.23
427.52	18951.32
427.71	19012.17
427.90	18548.75
428.09	18876.42
428.28	18288.95
428.46	17724.88
428.65	17394.86
428.84	17802.11
429.03	18141.49
429.22	17135.06
429.40	16245.66
429.59	14555.79
429.78	13132.75
429.97	12989.97
430.16	13256.79
430.34	13422.97
430.53	13385.52
430.72	13420.63
430.91	14726.65
431.10	17785.73
431.28	20489.05
431.47	22438.72
431.66	22338.07
431.85	20528.84
432.03	18984.09
432.22	17944.89
432.41	18675.13
432.60	21125.68
432.79	21778.68
432.97	22221.05
433.16	21830.18
433.35	20058.39
433.54	17935.53
433.72	16982.93
433.91	17301.24
434.10	19283.67
434.28	20662.25
434.47	22040.82
434.66	21357.39
434.85	20718.42
435.03	20650.55
435.22	21312.92
435.41	22892.78
435.59	22551.06
435.78	22904.48
435.97	23669.84
436.16	23475.57
436.34	23171.30
436.53	22995.76
436.72	22579.15
436.90	21764.64
437.09	21741.24
437.28	21081.21
437.46	21561.02
437.65	21874.65
437.84	20561.61
438.02	18640.03
438.21	18750.03
438.40	19669.86
438.58	21343.35
438.77	21972.95
438.96	22101.68
439.14	23183.01
439.33	23379.61
439.52	24034.96
439.70	23836.02
439.89	22806.18
440.08	22181.26
440.26	22061.89
440.45	23051.94
440.63	24664.57
440.82	25605.46
441.01	25277.79
441.19	25268.42
441.38	25528.22
441.57	26295.92
441.75	27159.58
441.94	26948.93
442.12	26632.96
442.31	27222.77
442.50	27285.97
442.68	26953.61
442.87	26593.17
443.05	26089.95
443.24	26647.00
443.43	26993.40
443.61	27335.12
443.80	27899.19
443.98	26366.13
444.17	26361.45
444.35	27632.36
444.54	28620.07
444.73	27962.38
444.91	27147.87
445.10	25797.38
445.28	24627.12
445.47	24088.79
445.65	24458.60
445.84	25076.50
446.02	26061.87
446.21	26352.09
446.39	26506.57
446.58	26895.10
446.77	27274.26
446.95	27208.73
447.14	28287.71
447.32	28484.32
447.51	28079.41
447.69	26874.03
447.88	26728.92
448.06	26902.12
448.25	27679.18
448.43	28184.73
448.62	27190.00
448.80	26974.67
448.99	27344.48
449.17	27620.66
449.36	27236.81
449.54	28517.09
449.73	29027.32
449.91	28872.85
450.10	30433.99
450.28	30574.42
450.46	30408.24
450.65	30443.35
450.83	30291.21
451.02	29235.63
451.20	29450.96
451.39	29729.48
451.57	29017.96
451.76	29242.65
451.94	29062.43
452.13	28678.58
452.31	27197.02
452.49	26045.48
452.68	26331.03
452.86	26452.73
453.05	26977.01
453.23	27388.95
453.42	27974.08
453.60	28837.74
453.78	29448.62
453.97	29041.37
454.15	29015.62
454.34	28425.81
454.52	28479.64
454.70	27454.48
454.89	27889.82
455.07	27868.76
455.26	28603.69
455.44	29617.14
455.62	29996.31
455.81	30431.65
455.99	30157.80
456.17	29741.19
456.36	29797.36
456.54	30551.01
456.73	30892.73
456.91	30939.54
457.09	31072.95
457.28	31735.32
457.46	30277.17
457.64	30433.99
457.83	29401.81
458.01	28727.74
458.19	29528.20
458.38	29766.93
458.56	30623.57
458.74	30181.21
458.93	29928.43
459.11	30008.01
459.29	29762.25
459.48	29816.08
459.66	29415.85
459.84	30167.16
460.03	30195.25
460.21	30340.36
460.39	31110.40
460.57	30948.90
460.76	31871.07
460.94	31667.45
461.12	31094.02
461.31	31498.93
461.49	30998.06
461.67	31129.12
461.85	32121.51
462.04	31751.71
462.22	32652.81
462.40	32397.70
462.59	32004.49
462.77	31983.42
462.95	31906.18
463.13	31386.58
463.32	31339.77
463.50	30895.07
463.68	31241.47
463.86	31646.38
464.05	30782.73
464.23	30457.39
464.41	30045.46
464.59	29628.84
464.78	31197.00
464.96	31044.87
465.14	30593.14
465.32	31229.77
465.50	31826.60
465.69	32158.96
465.87	31438.08
466.05	30600.16
466.23	29621.82
466.41	28694.97
466.60	29340.96
466.78	29692.04
466.96	30209.29
467.14	30581.44
467.32	30995.71
467.51	31229.77
467.69	29734.17
467.87	30396.54
468.05	30888.05
468.23	30670.38
468.41	31082.31
468.60	30939.54
468.78	31117.42
468.96	30955.93
469.14	31501.27
469.32	31660.43
469.50	29909.71
469.69	30628.25
469.87	29596.07
470.05	29420.53
470.23	30075.88
470.41	30202.27
470.59	30415.26
470.77	30661.02
470.95	31129.12
471.14	31555.10
471.32	31974.06
471.50	33661.58
471.68	33441.57
471.86	33600.73
472.04	33795.00
472.22	33876.91
472.40	32173.00
472.58	32329.82
472.77	31538.72
472.95	32390.67
473.13	33516.47
473.31	32079.38
473.49	32135.56
473.67	33034.32
473.85	33198.16
474.03	33928.41
474.21	33820.74
474.39	34600.14
474.57	34216.29
474.75	35007.39
474.93	34436.30
475.12	33404.13
475.30	33802.02
475.48	33757.55
475.66	34094.58
475.84	34026.71
476.02	33652.22
476.20	33041.34
476.38	33450.94
476.56	34560.35
476.74	35218.04
476.92	35587.85
477.10	35997.44
477.28	36673.85
477.46	36961.74
477.64	37172.39
477.82	37282.39
478.00	37764.54
478.18	37322.18
478.36	36680.88
478.54	36917.27
478.72	37408.78
478.90	38038.39
479.08	38689.06
479.26	39653.36
479.44	39636.97
479.62	39381.85
479.80	39360.79
479.98	39051.84
480.16	39033.11
480.34	38890.34
480.52	39337.38
480.70	39871.03
480.88	39910.82
481.06	40727.66
481.24	40662.13
481.41	41776.22
481.59	42153.05
481.77	42333.27
481.95	41308.11
482.13	40933.63
482.31	41090.44
482.49	42122.62
482.67	41532.81
482.85	42054.75
483.03	42450.30
483.21	43040.11
483.39	43438.00
483.57	41890.91
483.74	41848.78
483.92	42281.78
484.10	42323.91
484.28	43278.85
484.46	43948.24
484.64	44308.68
484.82	43236.72
485.00	42899.68
485.18	41628.77
485.35	40711.28
485.53	37654.54
485.71	34501.84
485.89	33539.88
486.07	35608.91
486.25	38775.66
486.43	40737.02
486.61	41542.17
486.78	40987.46
486.96	41942.40
487.14	43529.28
487.32	44098.03
487.50	45567.89
487.68	46532.19
487.85	46925.40
488.03	47496.49
488.21	46403.46
488.39	45827.69
488.57	45689.60
488.75	44423.37
488.92	46003.23
489.10	47838.21
489.28	49579.57
489.46	50501.74
489.64	50078.10
489.81	50567.27
489.99	50199.81
490.17	50040.65
490.35	50433.86
490.53	50185.77
490.70	49797.24
490.88	49453.18
491.06	50609.40
491.24	50543.87
491.41	49750.43
491.59	47601.82
491.77	46831.78
491.95	47980.98
492.13	49219.13
492.30	50337.90
492.48	51676.69
492.66	52435.02
492.84	52257.14
493.01	51728.18
493.19	51222.62
493.37	51019.00
493.54	50347.26
493.72	51400.50
493.90	52516.94
494.08	53329.11
494.25	53556.14
494.43	53769.13
494.61	53954.03
494.79	54188.08
494.96	53822.96
495.14	53394.64
495.32	52376.51
495.49	51913.08
495.67	52636.31
495.85	54103.82
496.02	54550.87
496.20	54330.86
496.38	53811.26
496.55	53825.30
496.73	54466.61
496.91	54302.77
497.09	55077.49
497.26	55168.77
497.44	54838.75
497.62	53993.82
497.79	53279.96
497.97	52041.81
498.14	51962.23
498.32	53453.15
498.50	54293.41
498.67	55051.74
498.85	54915.99
499.03	54707.68
499.20	55058.76
499.38	55166.43
499.56	54911.31
499.73	54639.81
499.91	54335.54
500.08	53567.84
500.26	52456.09
500.44	53432.09
500.61	54246.60
500.79	53734.02
500.97	53261.23
501.14	53584.22
501.32	53085.69
501.49	53137.18
501.67	53441.45
501.84	53993.82
502.02	54265.32
502.20	54679.60
502.37	54574.27
502.55	54789.60
502.72	55306.86
502.90	55786.67
503.07	55449.63
503.25	54913.65
503.43	54258.30
503.60	53567.84
503.78	52481.83
503.95	53144.20
504.13	54857.48
504.30	55784.33
504.48	55487.08
504.65	55035.36
504.83	55161.75
505.01	55508.14
505.18	56048.81
505.36	56622.24
505.53	56545.00
505.71	57017.79
505.88	56872.68
506.06	56231.37
506.23	56011.36
506.41	55749.22
506.58	55847.52
506.76	55814.76
506.93	55906.04
507.11	55552.62
507.28	55590.06
507.46	55161.75
507.63	54665.55
507.81	54389.37
507.98	54789.60
508.16	55503.46
508.33	56048.81
508.50	56259.46
508.68	56559.05
508.85	57198.01
509.03	57059.92
509.20	56797.78
509.38	56308.61
509.55	55405.16
509.73	55386.44
509.90	56196.26
510.08	56207.97
510.25	56119.02
510.42	56044.13
510.60	55737.52
510.77	56062.85
510.95	56884.38
511.12	56905.44
511.30	57352.49
511.47	57600.58
511.64	57403.98
511.82	57106.73
511.99	56186.90
512.17	55812.41
512.34	55435.59
512.51	55779.65
512.69	55627.51
512.86	55903.70
513.04	56200.94
513.21	56516.92
513.38	55929.44
513.56	55285.79
513.73	54763.85
513.90	55126.64
514.08	55238.98
514.25	55484.74
514.43	55606.45
514.60	55819.44
514.77	55838.16
514.95	55936.46
515.12	55833.48
515.29	56210.31
515.47	56498.19
515.64	57069.28
515.81	56346.06
515.99	55950.51
516.16	54326.17
516.33	51653.28
516.51	50361.31
516.68	49308.07
516.85	48797.83
517.03	49214.44
517.20	52310.97
517.37	54951.10
517.54	56032.42
517.72	55545.59
517.89	52968.66
518.06	50012.57
518.24	50546.21
518.41	53102.07
518.58	54124.89
518.75	54752.15
518.93	54873.86
519.10	54588.31
519.27	55171.11
519.45	55451.97
519.62	56207.97
519.79	56561.39
519.96	56296.91
520.14	55781.99
520.31	55105.57
520.48	55159.41
520.65	55295.16
520.83	56392.87
521.00	56673.73
521.17	56341.38
521.34	55884.97
521.52	56226.69
521.69	56870.34
521.86	57347.81
522.03	56860.97
522.20	55641.56
522.38	54548.53
522.55	54665.55
522.72	55533.89
522.89	55318.56
523.07	55622.83
523.24	55971.57
523.41	56945.23
523.58	57223.76
523.75	57497.60
523.92	57270.57
524.10	57322.06
524.27	57354.83
524.44	56961.62
524.61	56963.96
524.78	56903.10
524.96	56671.39
525.13	56680.75
525.30	56860.97
525.47	57427.38
525.64	57186.31
525.81	56488.83
525.98	55098.55
526.16	53364.21
526.33	52893.77
526.50	52554.39
526.67	51959.89
526.84	52449.06
527.01	53757.42
527.18	54756.83
527.36	55461.33
527.53	56217.33
527.70	56821.19
527.87	56341.38
528.04	55721.13
528.21	56362.44
528.38	57071.62
528.55	57532.71
528.72	57879.11
528.89	57841.66
529.07	57546.75
529.24	56760.33
529.41	56486.49
529.58	55791.35
529.75	55753.90
529.92	56472.45
530.09	56793.10
530.26	57165.24
530.43	57411.00
530.60	57586.54
530.77	57745.70
530.94	57853.36
531.11	57432.07
531.28	56975.66
531.46	57034.17
531.63	56734.59
531.80	56671.39
531.97	56275.84
532.14	55697.73
532.31	54644.49
532.48	53731.68
532.65	53822.96
532.82	54705.34
532.99	55908.38
533.16	56247.75
533.33	57064.60
533.50	56741.61
533.67	55976.25
533.84	55587.72
534.01	55669.64
534.18	56200.94
534.35	56238.39
534.52	55920.08
534.69	56364.78
534.86	56425.64
535.03	56886.72
535.20	57064.60
535.37	57593.56
535.54	57736.34
535.71	57310.36
535.88	57043.54
536.05	56217.33
536.22	55884.97
536.38	55845.18
536.55	55147.70
536.72	54665.55
536.89	54438.52
537.06	55578.36
537.23	56420.95
537.40	56844.59
537.57	56659.69
537.74	56310.95
537.91	56406.91
538.08	56193.92
538.25	56299.25
538.42	56652.67
538.59	56385.85
538.75	55636.87
538.92	55388.78
539.09	55229.62
539.26	55037.70
539.43	55037.70
539.60	54918.33
539.77	54993.23
539.94	55276.43
540.11	54087.44
540.28	53492.94
540.44	54028.93
540.61	53989.14
540.78	54440.86
540.95	54571.93
541.12	55056.42
541.29	55299.84
541.46	55611.13
541.62	55627.51
541.79	55646.24
541.96	54747.47
542.13	54890.24
542.30	55297.50
542.47	55374.73
542.63	55049.40
542.80	54859.82
542.97	55086.85
543.14	54955.78
543.31	55044.72
543.48	55449.63
543.64	56404.57
543.81	56647.99
543.98	56378.82
544.15	55505.80
544.32	55030.68
544.48	55140.68
544.65	55622.83
544.82	56067.53
544.99	55648.58
545.16	55215.58
545.32	54824.71
545.49	56030.08
545.66	56245.41
545.83	55746.88
546.00	55578.36
546.16	55119.62
546.33	55157.06
546.50	55196.85
546.67	55550.27
546.83	55449.63
547.00	55363.03
547.17	54485.33
547.34	53855.73
547.50	53560.82
547.67	54490.01
547.84	54326.17
548.00	54801.30
548.17	55367.71
548.34	54988.55
548.51	55065.78
548.67	55133.66
548.84	55178.13
549.01	55292.82
549.18	55049.40
549.34	55054.08
549.51	55210.90
549.68	54983.86
549.84	54501.71
550.01	54588.31
550.18	54468.95
550.34	54543.84
550.51	54721.72
550.68	54815.35
550.84	54169.36
551.01	54281.70
551.18	54239.57
551.34	54204.47
551.51	55049.40
551.68	55187.49
551.84	55164.09
552.01	55208.56
552.18	54717.04
552.34	53764.45
552.51	53502.31
552.68	53441.45
552.84	54169.36
553.01	54454.90
553.18	54174.04
553.34	54213.83
553.51	54433.84
553.67	54754.49
553.84	54955.78
554.01	54656.19
554.17	54487.67
554.34	54656.19
554.51	54532.14
554.67	54845.77
554.84	54838.75
555.00	54724.07
555.17	54452.56
555.33	54262.98
555.50	54131.91
555.67	54363.62
555.83	54131.91
556.00	53469.54
556.16	53745.72
556.33	53179.31
556.50	52996.75
556.66	52919.51
556.83	52863.34
556.99	52938.24
557.16	52947.60
557.32	53347.83
557.49	53708.27
557.65	53427.41
557.82	53425.07
557.98	53179.31
558.15	52718.23
558.32	52025.43
558.48	50967.51
558.65	51400.50
558.81	51901.38
558.98	52163.52
559.14	52189.27
559.31	52048.83
559.47	52584.82
559.64	51681.37
559.80	51667.33
559.97	51416.89
560.13	52062.88
560.30	53298.68
560.46	53453.15
560.63	54106.16
560.79	53799.55
560.96	53698.91
561.12	52271.18
561.29	51070.49
561.45	51320.93
561.61	52268.84
561.78	52144.80
561.94	52238.42
562.11	51901.38
562.27	52095.64
562.44	52294.59
562.60	52938.24
562.77	53095.05
562.93	52765.04
563.10	52692.48
563.26	52266.50
563.42	52025.43
563.59	51697.75
563.75	51749.24
563.92	52058.20
564.08	51583.07
564.24	52301.61
564.41	52343.74
564.57	51859.25
564.74	52107.35
564.90	51966.91
565.07	51388.80
565.23	51100.92
565.39	50536.85
565.56	50365.99
565.72	49755.11
565.88	50693.66
566.05	50738.13
566.21	50745.15
566.38	50918.35
566.54	50990.91
566.70	51744.56
566.87	51901.38
567.03	52027.77
567.19	52200.97
567.36	51718.82
567.52	51372.42
567.68	51126.66
567.85	50270.03
568.01	49935.33
568.17	49598.29
568.34	49598.29
568.50	49284.66
568.66	49677.87
568.83	50267.69
568.99	49968.10
569.15	50564.93
569.32	50394.07
569.48	49925.97
569.64	50000.86
569.81	49612.34
569.97	49242.53
570.13	49165.29
570.30	48954.64
570.46	48378.87
570.62	47515.22
570.78	47524.58
570.95	47672.03
571.11	48877.41
571.27	48877.41
571.43	49240.19
571.60	49198.06
571.76	49792.56
571.92	50101.51
572.09	50223.22
572.25	50326.20
572.41	50183.43
572.57	49991.50
572.74	49989.16
572.90	49602.97
573.06	49476.58
573.22	49499.99
573.38	49558.50
573.55	49605.31
573.71	49748.09
573.87	49633.40
574.03	49268.28
574.20	49741.06
574.36	48996.77
574.52	49034.22
574.68	48617.61
574.84	48170.57
575.01	47510.53
575.17	47306.91
575.33	47716.50
575.49	48509.94
575.65	48196.31
575.82	47969.28
575.98	47887.36
576.14	48212.70
576.30	48467.81
576.46	48439.73
576.62	48533.35
576.79	48474.84
576.95	47744.59
577.11	48116.73
577.27	47990.34
577.43	48144.82
577.59	47681.39
577.75	47220.31
577.92	46312.18
578.08	46188.13
578.24	46155.36
578.40	46955.83
578.56	47068.17
578.72	46796.67
578.88	47271.80
579.04	47150.09
579.21	47592.45
579.37	47470.75
579.53	47798.42
579.69	47564.37
579.85	47737.57
580.01	47430.96
580.17	47161.79
580.33	46735.82
580.49	46974.55
580.65	47210.95
580.82	47416.91
580.98	47714.16
581.14	47379.46
581.30	47463.72
581.46	47187.54
581.62	47533.94
581.78	47421.59
581.94	47969.28
582.10	47655.65
582.26	47842.89
582.42	47978.64
582.58	47767.99
582.74	47555.00
582.90	47920.13
583.06	47386.49
583.22	47657.99
583.38	47061.15
583.54	47196.90
583.70	47208.61
583.86	47189.88
584.02	46974.55
584.18	46979.23
584.34	46794.33
584.50	46995.62
584.66	46754.54
584.82	46277.07
584.98	46117.92
585.14	45509.38
585.30	44985.10
