SpectraSuite Data File
++++++++++++++++++++++++++++++++++++
Date: Mon Oct 07 14:54:55 GMT-05:00 2013
User: price-jones
Dark Spectrum Present: No
Reference Spectrum Present: No
Number of Sampled Component Spectra: 1
Spectrometers: USB2+H05261
Integration Time (usec): 10000 (USB2+H05261)
Spectra Averaged: 1 (USB2+H05261)
Boxcar Smoothing: 0 (USB2+H05261)
Correct for Electrical Dark: No (USB2+H05261)
Strobe/Lamp Enabled: No (USB2+H05261)
Correct for Detector Non-linearity: No (USB2+H05261)
Correct for Stray Light: No (USB2+H05261)
Number of Pixels in Processed Spectrum: 2048
>>>>>Begin Processed Spectral Data<<<<<
365.73	0.00
365.92	0.00
366.12	0.00
366.32	0.00
366.52	0.00
366.72	0.00
366.91	0.00
367.11	0.00
367.31	0.00
367.51	0.00
367.70	0.00
367.90	0.00
368.10	0.00
368.30	0.00
368.49	0.00
368.69	0.00
368.89	0.00
369.09	0.00
369.28	0.00
369.48	0.00
369.68	0.00
369.87	0.00
370.07	0.00
370.27	0.00
370.47	0.00
370.66	0.00
370.86	67.88
371.06	98.30
371.25	39.79
371.45	0.00
371.65	98.30
371.84	65.54
372.04	84.26
372.24	105.32
372.44	79.58
372.63	152.13
372.83	9.36
373.03	79.58
373.22	0.00
373.42	42.13
373.62	133.41
373.81	161.50
374.01	100.64
374.21	86.60
374.40	156.82
374.60	84.26
374.79	98.30
374.99	208.31
375.19	154.48
375.38	245.76
375.58	177.88
375.78	140.43
375.97	112.35
376.17	208.31
376.37	147.45
376.56	210.65
376.76	142.77
376.95	196.60
377.15	283.20
377.35	248.10
377.54	334.70
377.74	402.57
377.93	292.57
378.13	337.04
378.33	250.44
378.52	301.93
378.72	262.14
378.91	227.03
379.11	205.97
379.31	273.84
379.50	222.35
379.70	180.22
379.89	222.35
380.09	266.82
380.28	257.46
380.48	388.53
380.68	358.10
380.87	411.93
381.07	273.84
381.26	191.92
381.46	191.92
381.65	201.29
381.85	91.28
382.04	168.52
382.24	119.37
382.43	208.31
382.63	110.01
382.83	81.92
383.02	107.66
383.22	77.24
383.41	131.07
383.61	74.90
383.80	105.32
384.00	245.76
384.19	152.13
384.39	255.12
384.58	250.44
384.78	299.59
384.97	308.95
385.17	280.86
385.36	283.20
385.56	243.42
385.75	187.24
385.95	285.55
386.14	311.29
386.34	369.80
386.53	353.42
386.72	243.42
386.92	264.48
387.11	285.55
387.31	348.74
387.50	348.74
387.70	320.65
387.89	334.70
388.09	266.82
388.28	259.80
388.48	337.04
388.67	355.76
388.86	372.15
389.06	449.38
389.25	521.94
389.45	454.06
389.64	526.62
389.84	489.17
390.03	472.79
390.22	442.36
390.42	545.34
390.61	510.24
390.81	566.41
391.00	592.16
391.19	606.20
391.39	587.47
391.58	575.77
391.78	472.79
391.97	414.27
392.16	367.46
392.36	414.27
392.55	287.89
392.75	63.19
392.94	95.96
393.13	79.58
393.33	128.73
393.52	212.99
393.71	313.63
393.91	388.53
394.10	489.17
394.29	493.85
394.49	638.97
394.68	643.65
394.88	676.41
395.07	777.06
395.26	713.86
395.46	613.22
395.65	620.24
395.84	470.45
396.04	421.30
396.23	292.57
396.42	252.78
396.62	180.22
396.81	283.20
397.00	372.15
397.19	484.49
397.39	603.86
397.58	741.95
397.77	772.38
397.97	898.77
398.16	842.59
398.35	826.21
398.55	877.70
398.74	929.19
398.93	1006.43
399.12	1090.69
399.32	898.77
399.51	1034.52
399.70	1048.56
399.90	1050.90
400.09	983.02
400.28	1053.24
400.47	1027.50
400.67	1114.10
400.86	1116.44
401.05	1200.69
401.24	1181.97
401.44	1137.50
401.63	1015.79
401.82	1174.95
402.01	1188.99
402.21	1151.54
402.40	1240.48
402.59	1064.94
402.78	1114.10
402.97	1064.94
403.17	1067.28
403.36	1172.61
403.55	1160.91
403.74	1270.91
403.93	1263.89
404.13	1067.28
404.32	1114.10
404.51	1081.33
404.70	1280.27
404.89	1362.19
405.09	1221.76
405.28	1060.26
405.47	1203.04
405.66	1177.29
405.85	1064.94
406.05	1067.28
406.24	1102.39
406.43	1128.14
406.62	1217.08
406.81	1219.42
407.00	1076.65
407.20	1139.84
407.39	1160.91
407.58	1163.25
407.77	1249.85
407.96	1249.85
408.15	1226.44
408.34	1329.42
408.54	1327.08
408.73	1462.83
408.92	1299.00
409.11	1273.25
409.30	1228.78
409.49	1179.63
409.68	1043.88
409.87	947.92
410.07	1057.92
410.26	1114.10
410.45	1287.29
410.64	1352.83
410.83	1338.79
411.02	1427.73
411.21	1465.18
411.40	1455.81
411.59	1521.35
411.78	1467.52
411.98	1343.47
412.17	1455.81
412.36	1371.55
412.55	1437.09
412.74	1423.05
412.93	1352.83
413.12	1401.98
413.31	1523.69
413.50	1514.33
413.69	1593.90
413.88	1439.43
414.07	1481.56
414.26	1462.83
414.45	1411.34
414.64	1593.90
414.83	1500.28
415.02	1528.37
415.22	1453.47
415.41	1430.07
415.60	1631.35
415.79	1636.03
415.98	1732.00
416.17	1767.10
416.36	1563.48
416.55	1605.61
416.74	1533.05
416.93	1572.84
417.12	1486.24
417.31	1575.18
417.50	1586.88
417.69	1664.12
417.88	1572.84
418.07	1479.22
418.26	1460.49
418.45	1703.91
418.64	1579.86
418.83	1701.57
419.02	1673.48
419.21	1722.63
419.39	1495.60
419.58	1519.01
419.77	1561.14
419.96	1610.29
420.15	1657.10
420.34	1774.13
420.53	1813.92
420.72	1804.55
420.91	1748.38
421.10	1701.57
421.29	1710.93
421.48	1743.70
421.67	1781.15
421.86	1661.78
422.05	1554.12
422.24	1390.28
422.43	1409.00
422.61	1519.01
422.80	1673.48
422.99	1668.80
423.18	1640.72
423.37	1540.07
423.56	1645.40
423.75	1682.85
423.94	1565.82
424.13	1483.90
424.32	1593.90
424.50	1605.61
424.69	1614.97
424.88	1551.78
425.07	1596.25
425.26	1465.18
425.45	1540.07
425.64	1481.56
425.83	1519.01
426.01	1596.25
426.20	1647.74
426.39	1673.48
426.58	1521.35
426.77	1418.36
426.96	1299.00
427.15	1394.96
427.33	1593.90
427.52	1575.18
427.71	1502.62
427.90	1554.12
428.09	1458.15
428.28	1465.18
428.46	1537.73
428.65	1369.21
428.84	1514.33
429.03	1476.88
429.22	1437.09
429.40	1350.49
429.59	1233.46
429.78	987.71
429.97	1050.90
430.16	1156.22
430.34	1163.25
430.53	1090.69
430.72	1107.07
430.91	1125.80
431.10	1385.60
431.28	1682.85
431.47	1937.96
431.66	1916.90
431.85	1823.28
432.03	1558.80
432.22	1476.88
432.41	1488.58
432.60	1722.63
432.79	1818.60
432.97	1991.80
433.16	1888.81
433.35	1647.74
433.54	1551.78
433.72	1401.98
433.91	1462.83
434.10	1547.09
434.28	1778.81
434.47	1823.28
434.66	1813.92
434.85	1722.63
435.03	1703.91
435.22	1727.32
435.41	1959.03
435.59	1802.21
435.78	1907.54
435.97	1923.92
436.16	2033.93
436.34	1977.75
436.53	1968.39
436.72	2057.33
436.90	1959.03
437.09	1741.36
437.28	1715.61
437.46	1788.17
437.65	1858.39
437.84	1614.97
438.02	1481.56
438.21	1565.82
438.40	1631.35
438.58	1870.09
438.77	1774.13
438.96	1802.21
439.14	1909.88
439.33	2050.31
439.52	1963.71
439.70	1963.71
439.89	2022.22
440.08	1823.28
440.26	1785.83
440.45	1764.76
440.63	2108.82
440.82	2211.81
441.01	2223.51
441.19	2179.04
441.38	2183.72
441.57	2214.15
441.75	2312.45
441.94	2361.60
442.12	2038.61
442.31	2331.17
442.50	2228.19
442.68	2153.29
442.87	2246.91
443.05	2282.02
443.24	2235.21
443.43	2277.34
443.61	2333.51
443.80	2296.07
443.98	2190.74
444.17	2303.09
444.35	2394.37
444.54	2438.84
444.73	2537.14
444.91	2207.13
445.10	2078.40
445.28	2150.95
445.47	1989.46
445.65	1994.14
445.84	1994.14
446.02	2141.59
446.21	2200.10
446.39	2211.81
446.58	2193.08
446.77	2347.56
446.95	2349.90
447.14	2499.69
447.32	2359.26
447.51	2422.45
447.69	2307.77
447.88	2223.51
448.06	2275.00
448.25	2373.30
448.43	2464.58
448.62	2300.75
448.80	2370.96
448.99	2345.22
449.17	2319.47
449.36	2289.04
449.54	2483.31
449.73	2483.31
449.91	2534.80
450.10	2649.49
450.28	2616.72
450.46	2525.44
450.65	2520.76
450.83	2473.95
451.02	2534.80
451.20	2597.99
451.39	2483.31
451.57	2431.82
451.76	2459.90
451.94	2448.20
452.13	2399.05
452.31	2310.11
452.49	2193.08
452.68	2256.28
452.86	2136.91
453.05	2293.72
453.23	2267.98
453.42	2300.75
453.60	2349.90
453.78	2476.29
453.97	2305.43
454.15	2399.05
454.34	2223.51
454.52	2373.30
454.70	2356.92
454.89	2317.13
455.07	2253.94
455.26	2534.80
455.44	2504.37
455.62	2590.97
455.81	2537.14
455.99	2459.90
456.17	2408.41
456.36	2480.97
456.54	2637.78
456.73	2499.69
456.91	2609.70
457.09	2546.50
457.28	2747.79
457.46	2572.25
457.64	2572.25
457.83	2406.07
458.01	2452.88
458.19	2427.14
458.38	2415.43
458.56	2635.44
458.74	2525.44
458.93	2377.98
459.11	2434.16
459.29	2450.54
459.48	2569.91
459.66	2462.24
459.84	2452.88
460.03	2476.29
460.21	2588.63
460.39	2478.63
460.57	2593.31
460.76	2635.44
460.94	2551.18
461.12	2630.76
461.31	2539.48
461.49	2663.53
461.67	2661.19
461.85	2778.22
462.04	2682.25
462.22	2839.07
462.40	2661.19
462.59	2605.02
462.77	2640.12
462.95	2651.83
463.13	2630.76
463.32	2677.57
463.50	2668.21
463.68	2579.27
463.86	2621.40
464.05	2595.65
464.23	2532.46
464.41	2478.63
464.59	2413.09
464.78	2565.23
464.96	2562.89
465.14	2560.55
465.32	2656.51
465.50	2656.51
465.69	2480.97
465.87	2438.84
466.05	2621.40
466.23	2399.05
466.41	2284.36
466.60	2492.67
466.78	2469.27
466.96	2689.28
467.14	2527.78
467.32	2534.80
467.51	2537.14
467.69	2310.11
467.87	2593.31
468.05	2605.02
468.23	2567.57
468.41	2555.86
468.60	2619.06
468.78	2539.48
468.96	2483.31
469.14	2654.17
469.32	2644.81
469.50	2544.16
469.69	2511.39
469.87	2462.24
470.05	2539.48
470.23	2464.58
470.41	2406.07
470.59	2504.37
470.77	2445.86
470.95	2396.71
471.14	2583.95
471.32	2679.91
471.50	2789.92
471.68	2857.79
471.86	2663.53
472.04	2733.75
472.22	2780.56
472.40	2579.27
472.58	2628.42
472.77	2506.71
472.95	2558.21
473.13	2754.81
473.31	2696.30
473.49	2633.10
473.67	2759.49
473.85	2789.92
474.03	2867.16
474.21	2899.92
474.39	2871.84
474.57	2766.51
474.75	2773.53
474.93	2815.66
475.12	2773.53
475.30	2754.81
475.48	2778.22
475.66	2829.71
475.84	2773.53
476.02	2782.90
476.20	2780.56
476.38	2764.17
476.56	2850.77
476.74	2869.50
476.92	2832.05
477.10	2897.58
477.28	3091.85
477.46	3108.23
477.64	3028.65
477.82	3049.72
478.00	3070.78
478.18	3094.19
478.36	2984.18
478.54	3098.87
478.72	3105.89
478.90	3213.56
479.08	3129.30
479.26	3248.66
479.44	3290.79
479.62	3234.62
479.80	3325.90
479.98	3314.20
480.16	3098.87
480.34	3286.11
480.52	3356.33
480.70	3314.20
480.88	3346.97
481.06	3375.05
481.24	3192.49
481.41	3356.33
481.59	3538.89
481.77	3424.20
481.95	3452.29
482.13	3396.12
482.31	3461.65
482.49	3513.14
482.67	3492.08
482.85	3499.10
483.03	3442.93
483.21	3489.74
483.39	3529.53
483.57	3445.27
483.74	3510.80
483.92	3520.17
484.10	3431.23
484.28	3606.77
484.46	3639.53
484.64	3660.60
484.82	3634.85
485.00	3454.63
485.18	3485.06
485.35	3346.97
485.53	2995.89
485.71	2689.28
485.89	2740.77
486.07	2981.84
486.25	3232.28
486.43	3309.52
486.61	3454.63
486.78	3468.67
486.96	3559.95
487.14	3686.34
487.32	3695.71
487.50	3845.50
487.68	3967.21
487.85	3946.14
488.03	3887.63
488.21	3971.89
488.39	3784.65
488.57	3843.16
488.75	3735.50
488.92	3805.71
489.10	4149.77
489.28	4119.34
489.46	4440.00
489.64	4358.08
489.81	4362.76
489.99	4479.79
490.17	4332.33
490.35	4327.65
490.53	4222.33
490.70	4065.51
490.88	4100.62
491.06	4344.03
491.24	4390.84
491.41	4379.14
491.59	4037.42
491.77	3983.59
491.95	4109.98
492.13	4285.52
492.30	4351.06
492.48	4545.32
492.66	4643.62
492.84	4645.96
493.01	4428.29
493.19	4381.48
493.37	4407.23
493.54	4322.97
493.72	4447.02
493.90	4599.15
494.08	4578.09
494.25	4629.58
494.43	4674.05
494.61	4915.12
494.79	4861.29
494.96	4924.49
495.14	4779.37
495.32	4507.87
495.49	4397.87
495.67	4748.95
495.85	4975.98
496.02	4966.62
496.20	5022.79
496.38	4767.67
496.55	4828.53
496.73	4823.84
496.91	4905.76
497.09	5071.94
497.26	5064.92
497.44	4933.85
497.62	4854.27
497.79	4751.29
497.97	4552.34
498.14	4601.49
498.32	4889.38
498.50	5011.09
498.67	5025.13
498.85	4896.40
499.03	5093.01
499.20	4891.72
499.38	5118.75
499.56	5067.26
499.73	4973.64
499.91	4760.65
500.08	4774.69
500.26	4589.79
500.44	4620.22
500.61	4791.08
500.79	4702.14
500.97	4615.54
501.14	4699.80
501.32	4746.61
501.49	4695.11
501.67	4681.07
501.84	4667.03
502.02	4926.83
502.20	4821.50
502.37	4870.65
502.55	4945.55
502.72	5018.11
502.90	5240.46
503.07	5006.41
503.25	5083.64
503.43	4725.54
503.60	4727.88
503.78	4627.24
503.95	4678.73
504.13	5062.58
504.30	5055.56
504.48	5046.20
504.65	5060.24
504.83	4844.91
505.01	5221.74
505.18	5238.12
505.36	5284.93
505.53	5193.65
505.71	5348.12
505.88	5336.42
506.06	5144.50
506.23	5158.54
506.41	5203.01
506.58	5060.24
506.76	5111.73
506.93	5032.15
507.11	5116.41
507.28	5167.90
507.46	4894.06
507.63	4908.10
507.81	4798.10
507.98	4830.87
508.16	4919.81
508.33	5191.31
508.50	5240.46
508.68	5289.61
508.85	5245.14
509.03	5350.46
509.20	5533.03
509.38	5203.01
509.55	4931.51
509.73	5085.98
509.90	5102.37
510.08	5301.31
510.25	5240.46
510.42	5067.26
510.60	5109.39
510.77	5245.14
510.95	5308.34
511.12	5275.57
511.30	5210.03
511.47	5315.36
511.64	5547.07
511.82	5453.45
511.99	5132.79
512.17	5104.71
512.34	5008.75
512.51	4947.89
512.69	5104.71
512.86	5107.05
513.04	5114.07
513.21	5090.67
513.38	5083.64
513.56	5074.28
513.73	5008.75
513.90	5083.64
514.08	4903.42
514.25	5036.83
514.43	5034.49
514.60	5020.45
514.77	5123.43
514.95	4968.96
515.12	4990.02
515.29	5015.77
515.47	5116.41
515.64	5308.34
515.81	5114.07
515.99	5041.51
516.16	4840.23
516.33	4404.89
516.51	4170.83
516.68	4072.53
516.85	3985.93
517.03	4044.45
517.20	4461.06
517.37	4762.99
517.54	5118.75
517.72	5027.47
517.89	4652.98
518.06	4219.99
518.24	4154.45
518.41	4500.85
518.58	4709.16
518.75	4851.93
518.93	4861.29
519.10	4849.59
519.27	4908.10
519.45	5041.51
519.62	5139.82
519.79	5373.87
519.96	5128.11
520.14	5135.14
520.31	4903.42
520.48	4983.00
520.65	4910.44
520.83	5177.26
521.00	5181.95
521.17	5081.30
521.34	5071.94
521.52	5165.56
521.69	5355.15
521.86	5315.36
522.03	5228.76
522.20	5088.32
522.38	4840.23
522.55	4746.61
522.72	4975.98
522.89	4910.44
523.07	5015.77
523.24	4990.02
523.41	5210.03
523.58	5486.22
523.75	5355.15
523.92	5350.46
524.10	5427.70
524.27	5350.46
524.44	5350.46
524.61	5303.65
524.78	5200.67
524.96	5301.31
525.13	5114.07
525.30	5490.90
525.47	5294.29
525.64	5287.27
525.81	5303.65
525.98	4903.42
526.16	4730.22
526.33	4514.89
526.50	4400.21
526.67	4479.79
526.84	4545.32
527.01	4662.35
527.18	4882.36
527.36	5060.24
527.53	5226.42
527.70	5081.30
527.87	4945.55
528.04	5071.94
528.21	4999.38
528.38	5329.40
528.55	5212.37
528.72	5263.86
528.89	5467.49
529.07	5317.70
529.24	5179.61
529.41	5149.18
529.58	4835.55
529.75	5153.86
529.92	5170.24
530.09	5359.83
530.26	5310.68
530.43	5296.63
530.60	5327.06
530.77	5476.85
530.94	5439.40
531.11	5205.35
531.28	5289.61
531.46	5221.74
531.63	5104.71
531.80	5179.61
531.97	5032.15
532.14	4952.57
532.31	4751.29
532.48	4615.54
532.65	4730.22
532.82	4786.40
532.99	4922.15
533.16	5078.96
533.33	5163.22
533.50	5111.73
533.67	5043.85
533.84	4828.53
534.01	5078.96
534.18	5191.31
534.35	5111.73
534.52	4978.32
534.69	5006.41
534.86	5256.84
535.03	5172.58
535.20	5317.70
535.37	5167.90
535.54	5518.98
535.71	5305.99
535.88	5338.76
536.05	5245.14
536.22	4947.89
536.38	4938.53
536.55	4861.29
536.72	4645.96
536.89	4720.86
537.06	4931.51
537.23	5135.14
537.40	5043.85
537.57	5069.60
537.74	5025.13
537.91	5041.51
538.08	5022.79
538.25	4975.98
538.42	5064.92
538.59	5165.56
538.75	4917.47
538.92	4880.02
539.09	4744.27
539.26	4877.68
539.43	4781.71
539.60	4856.61
539.77	4781.71
539.94	4741.93
540.11	4629.58
540.28	4648.30
540.44	4662.35
540.61	4641.28
540.78	4655.33
540.95	4828.53
541.12	4755.97
541.29	4720.86
541.46	4943.21
541.62	4919.81
541.79	5006.41
541.96	4908.10
542.13	5057.90
542.30	4795.76
542.47	4821.50
542.63	4770.01
542.80	4865.97
542.97	4865.97
543.14	4887.04
543.31	4777.03
543.48	4798.10
543.64	5163.22
543.81	5160.88
543.98	5128.11
544.15	5004.07
544.32	4823.84
544.48	4847.25
544.65	4854.27
544.82	4924.49
544.99	4926.83
545.16	4854.27
545.32	4828.53
545.49	4952.57
545.66	4952.57
545.83	5034.49
546.00	4851.93
546.16	4725.54
546.33	4835.55
546.50	4889.38
546.67	5011.09
546.83	4739.58
547.00	4943.21
547.17	4718.52
547.34	4538.30
547.50	4671.71
547.67	4746.61
547.84	4873.00
548.00	4800.44
548.17	4622.56
548.34	4770.01
548.51	4821.50
548.67	4802.78
548.84	4826.18
549.01	4772.35
549.18	4795.76
549.34	4685.75
549.51	4786.40
549.68	4877.68
549.84	4760.65
550.01	4695.11
550.18	4868.31
550.34	4629.58
550.51	4617.88
550.68	4580.43
550.84	4571.07
551.01	4690.43
551.18	4615.54
551.34	4716.18
551.51	4683.41
551.68	4807.46
551.84	4847.25
552.01	4704.48
552.18	4688.09
552.34	4727.88
552.51	4575.75
552.68	4372.12
552.84	4519.57
553.01	4550.00
553.18	4601.49
553.34	4695.11
553.51	4615.54
553.67	4830.87
553.84	4819.16
554.01	4652.98
554.17	4695.11
554.34	4732.56
554.51	4519.57
554.67	4798.10
554.84	4671.71
555.00	4741.93
555.17	4638.94
555.33	4669.37
555.50	4762.99
555.67	4571.07
555.83	4636.60
556.00	4442.34
556.16	4461.06
556.33	4465.74
556.50	4404.89
556.66	4557.02
556.83	4311.27
556.99	4573.41
557.16	4580.43
557.32	4510.21
557.49	4404.89
557.65	4472.76
557.82	4592.13
557.98	4566.39
558.15	4510.21
558.32	4187.22
558.48	4091.26
558.65	4306.59
558.81	4241.05
558.98	4430.63
559.14	4428.29
559.31	4264.46
559.47	4353.40
559.64	4269.14
559.80	4201.26
559.97	4255.09
560.13	4374.46
560.30	4304.25
560.46	4636.60
560.63	4629.58
560.79	4601.49
560.96	4311.27
561.12	4245.73
561.29	4219.99
561.45	4212.96
561.61	4234.03
561.78	4184.88
561.94	4407.23
562.11	4388.50
562.27	4234.03
562.44	4299.56
562.60	4325.31
562.77	4374.46
562.93	4341.69
563.10	4458.72
563.26	4301.90
563.42	4262.12
563.59	4166.15
563.75	4163.81
563.92	4355.74
564.08	4301.90
564.24	4182.54
564.41	4280.84
564.57	4084.23
564.74	4236.37
564.90	4128.70
565.07	4201.26
565.23	4009.34
565.39	4102.96
565.56	4070.19
565.72	3932.10
565.88	3999.98
566.05	3985.93
566.21	4009.34
566.38	4269.14
566.54	4173.18
566.70	4081.89
566.87	4311.27
567.03	4259.78
567.19	4219.99
567.36	4203.60
567.52	4119.34
567.68	4252.75
567.85	4004.66
568.01	3974.23
568.17	3932.10
568.34	3911.04
568.50	3925.08
568.66	3934.44
568.83	4149.77
568.99	4046.79
569.15	4107.64
569.32	4060.83
569.48	3908.69
569.64	4077.21
569.81	3985.93
569.97	4032.74
570.13	3873.59
570.30	3723.79
570.46	3679.32
570.62	3777.62
570.78	3592.72
570.95	3777.62
571.11	3676.98
571.27	3915.72
571.43	3948.48
571.60	3920.40
571.76	3946.14
571.92	3941.46
572.09	4081.89
572.25	4014.02
572.41	4077.21
572.57	3854.86
572.74	4007.00
572.90	3894.65
573.06	3953.16
573.22	4028.06
573.38	3864.22
573.55	3932.10
573.71	3866.56
573.87	4004.66
574.03	3922.74
574.20	3861.88
574.36	3822.09
574.52	3925.08
574.68	3967.21
574.84	3875.93
575.01	3772.94
575.17	3751.88
575.33	3728.47
575.49	3819.75
575.65	3833.80
575.82	3768.26
575.98	3864.22
576.14	3751.88
576.30	3786.99
576.46	3826.78
576.62	3936.78
576.79	3791.67
576.95	3749.54
577.11	3878.27
577.27	3740.18
577.43	3808.05
577.59	3843.16
577.75	3564.64
577.92	3613.79
578.08	3609.11
578.24	3520.17
578.40	3552.93
578.56	3744.86
578.72	3810.39
578.88	3805.71
579.04	3721.45
579.21	3730.81
579.37	3566.98
579.53	3829.12
579.69	3695.71
579.85	3808.05
580.01	3707.41
580.17	3700.39
580.33	3681.66
580.49	3681.66
580.65	3653.58
580.82	3616.13
580.98	3651.24
581.14	3639.53
581.30	3707.41
581.46	3667.62
581.62	3646.55
581.78	3744.86
581.94	3803.37
582.10	3751.88
582.26	3555.27
582.42	3604.42
582.58	3712.09
582.74	3653.58
582.90	3618.47
583.06	3829.12
583.22	3637.19
583.38	3674.64
583.54	3655.92
583.70	3700.39
583.86	3604.42
584.02	3566.98
584.18	3665.28
584.34	3665.28
584.50	3712.09
584.66	3810.39
584.82	3447.61
584.98	3480.38
585.14	3548.25
585.30	3363.35
585.46	3410.16
585.62	3368.03
585.78	3487.40
585.94	3440.59
586.10	3487.40
586.26	3335.26
586.42	3494.42
586.58	3485.06
586.74	3494.42
586.90	3531.87
587.06	3630.17
587.22	3545.91
587.38	3372.71
587.54	3590.38
587.70	3377.39
587.86	3276.75
588.02	3176.11
588.18	3286.11
588.34	3236.96
588.49	3000.57
588.65	2825.03
588.81	2876.52
588.97	2974.82
589.13	2932.69
589.29	2808.64
589.45	2923.33
589.61	2953.76
589.77	3087.17
589.93	3246.32
590.08	3260.37
590.24	3356.33
590.40	3251.00
590.56	3288.45
590.72	3204.19
590.88	3173.77
591.04	3028.65
591.20	3344.63
591.35	3126.96
591.51	3241.64
591.67	3286.11
591.83	3229.94
591.99	3136.32
592.15	3183.13
592.31	3361.01
592.46	3225.26
592.62	3276.75
592.78	3171.43
592.94	3201.85
593.10	3169.09
593.26	3293.13
593.41	3192.49
593.57	3431.23
593.73	3169.09
593.89	3131.64
594.05	3138.66
594.20	3066.10
594.36	3084.83
594.52	3019.29
594.68	3059.08
594.84	3108.23
594.99	3094.19
595.15	3173.77
595.31	3131.64
595.47	3115.25
595.62	3122.27
595.78	3126.96
595.94	3208.87
596.10	3283.77
596.25	3206.53
596.41	3080.14
596.57	3253.34
596.73	3133.98
596.88	3115.25
597.04	3098.87
597.20	3108.23
597.36	3063.76
597.51	3283.77
597.67	3129.30
597.83	3096.53
597.99	3066.10
598.14	3000.57
598.30	3108.23
