SpectraSuite Data File
++++++++++++++++++++++++++++++++++++
Date: Mon Oct 07 14:55:00 GMT-05:00 2013
User: price-jones
Dark Spectrum Present: No
Reference Spectrum Present: No
Number of Sampled Component Spectra: 1
Spectrometers: USB2+H05261
Integration Time (usec): 10000 (USB2+H05261)
Spectra Averaged: 1 (USB2+H05261)
Boxcar Smoothing: 0 (USB2+H05261)
Correct for Electrical Dark: No (USB2+H05261)
Strobe/Lamp Enabled: No (USB2+H05261)
Correct for Detector Non-linearity: No (USB2+H05261)
Correct for Stray Light: No (USB2+H05261)
Number of Pixels in Processed Spectrum: 2048
>>>>>Begin Processed Spectral Data<<<<<
365.73	0.00
365.92	0.00
366.12	0.00
366.32	0.00
366.52	0.00
366.72	0.00
366.91	0.00
367.11	0.00
367.31	0.00
367.51	0.00
367.70	0.00
367.90	0.00
368.10	0.00
368.30	0.00
368.49	0.00
368.69	0.00
368.89	0.00
369.09	0.00
369.28	0.00
369.48	0.00
369.68	0.00
369.87	0.00
370.07	0.00
370.27	0.00
370.47	313.63
370.66	2385.01
370.86	2635.44
371.06	2928.01
371.25	2836.73
371.45	2441.18
371.65	2228.19
371.84	2195.42
372.04	2455.22
372.24	2712.68
372.44	2740.77
372.63	2663.53
372.83	2434.16
373.03	2157.97
373.22	2031.58
373.42	2197.76
373.62	2551.18
373.81	2712.68
374.01	2513.74
374.21	2239.89
374.40	2113.50
374.60	2279.68
374.79	2750.13
374.99	3000.57
375.19	3300.16
375.38	3183.13
375.58	3129.30
375.78	2946.73
375.97	3136.32
376.17	3180.79
376.37	3208.87
376.56	3304.84
376.76	3620.81
376.95	3686.34
377.15	3960.19
377.35	4222.33
377.54	4397.87
377.74	4477.44
377.93	4461.06
378.13	4215.30
378.33	4084.23
378.52	3798.69
378.72	3761.24
378.91	3501.44
379.11	3426.54
379.31	3309.52
379.50	3342.28
379.70	3590.38
379.89	4292.54
380.09	4327.65
380.28	4346.37
380.48	4484.47
380.68	4311.27
380.87	4107.64
381.07	3728.47
381.26	3473.36
381.46	3279.09
381.65	3258.03
381.85	3208.87
382.04	2846.09
382.24	2722.04
382.43	2656.51
382.63	2597.99
382.83	2546.50
383.02	2492.67
383.22	2558.21
383.41	2759.49
383.61	2909.29
383.80	3330.58
384.00	3749.54
384.19	4189.56
384.39	4435.32
384.58	4362.76
384.78	4292.54
384.97	4231.69
385.17	4138.07
385.36	3686.34
385.56	3630.17
385.75	3925.08
385.95	4243.39
386.14	4737.24
386.34	4395.53
386.53	4161.47
386.72	3957.85
386.92	4072.53
387.11	4423.61
387.31	4465.74
387.50	4409.57
387.70	4217.65
387.89	4404.89
388.09	4418.93
388.28	4341.69
388.48	4503.19
388.67	4739.58
388.86	5355.15
389.06	5657.07
389.25	6008.16
389.45	5912.19
389.64	5888.79
389.84	5912.19
390.03	5860.70
390.22	6108.80
390.42	6010.50
390.61	6544.14
390.81	6878.83
391.00	6918.62
391.19	6864.79
391.39	6623.72
391.58	5994.11
391.78	5970.71
391.97	5685.16
392.16	5350.46
392.36	4781.71
392.55	3691.02
392.75	2836.73
392.94	2420.11
393.13	2605.02
393.33	3206.53
393.52	4044.45
393.71	4802.78
393.91	5444.09
394.10	5900.49
394.29	6464.56
394.49	7019.27
394.68	7681.64
394.88	7452.27
395.07	7463.97
395.26	7531.84
395.46	7171.40
395.65	6637.76
395.84	5764.74
396.04	4755.97
396.23	3911.04
396.42	3323.56
396.62	3372.71
396.81	4182.54
397.00	5345.78
397.19	6562.86
397.39	7822.07
397.58	8578.06
397.77	9097.66
397.97	9514.28
398.16	9839.61
398.35	9856.00
398.55	10073.67
398.74	10417.72
398.93	10700.93
399.12	10635.39
399.32	10195.37
399.51	10576.88
399.70	11234.57
399.90	10827.32
400.09	10970.09
400.28	11023.92
400.47	10888.17
400.67	11419.47
400.86	11679.27
401.05	12013.97
401.24	11861.84
401.44	11992.90
401.63	12301.86
401.82	12011.63
402.01	12102.91
402.21	12388.46
402.40	12273.77
402.59	11838.43
402.78	11302.45
402.97	11129.25
403.17	11943.75
403.36	12657.62
403.55	12973.59
403.74	12978.27
403.93	12072.48
404.13	11220.53
404.32	11323.51
404.51	12074.82
404.70	13078.91
404.89	12578.04
405.09	12276.11
405.28	11953.12
405.47	12166.10
405.66	11791.62
405.85	11557.57
406.05	11459.26
406.24	11866.52
406.43	12086.53
406.62	12671.66
406.81	12620.17
407.00	12285.47
407.20	11880.56
407.39	12039.72
407.58	12985.29
407.77	13385.52
407.96	13661.71
408.15	13776.39
408.34	13961.30
408.54	14775.80
408.73	14324.08
408.92	14167.26
409.11	13338.71
409.30	13142.11
409.49	12105.25
409.68	11197.12
409.87	11265.00
410.07	12140.36
410.26	13095.30
410.45	13692.13
410.64	14225.78
410.83	14530.05
411.02	15169.01
411.21	15414.77
411.40	15246.25
411.59	15618.39
411.78	15440.51
411.98	15056.67
412.17	15417.11
412.36	15009.86
412.55	14831.97
412.74	14480.89
412.93	14499.62
413.12	15089.43
413.31	16304.17
413.50	16376.73
413.69	16636.53
413.88	15417.11
414.07	15356.25
414.26	15571.58
414.45	16217.57
414.64	16018.63
414.83	16105.23
415.02	16030.33
415.22	16077.14
415.41	16278.43
415.60	16989.95
415.79	17570.40
415.98	18228.09
416.17	17905.10
416.36	17394.86
416.55	17549.34
416.74	16734.83
416.93	16166.08
417.12	16393.11
417.31	16566.31
417.50	16861.22
417.69	17076.55
417.88	17184.21
418.07	17200.60
418.26	17029.74
418.45	16919.73
418.64	17900.42
418.83	18317.03
419.02	17834.88
419.21	17689.77
419.39	16697.38
419.58	16088.84
419.77	16308.85
419.96	17242.73
420.15	18293.63
420.34	18913.87
420.53	19222.82
420.72	19538.79
420.91	19346.87
421.10	18792.16
421.29	18911.53
421.48	18583.85
421.67	19552.84
421.86	18478.53
422.05	16882.28
422.24	15276.68
422.43	15374.98
422.61	17535.29
422.80	18766.42
422.99	18272.56
423.18	17687.43
423.37	17778.71
423.56	18087.66
423.75	17731.90
423.94	18417.68
424.13	17642.96
424.32	17523.59
424.50	17755.30
424.69	17649.98
424.88	17460.40
425.07	17628.92
425.26	17757.64
425.45	16994.63
425.64	16688.02
425.83	17371.46
426.01	17956.59
426.20	18635.35
426.39	18012.76
426.58	16851.86
426.77	15630.10
426.96	15414.77
427.15	16011.60
427.33	17649.98
427.52	17949.57
427.71	17682.75
427.90	17942.55
428.09	17666.36
428.28	17191.23
428.46	16266.72
428.65	16425.88
428.84	17015.69
429.03	16500.78
429.22	15915.64
429.40	14911.55
429.59	13123.38
429.78	12049.08
429.97	12568.68
430.16	12402.50
430.34	12395.48
430.53	12484.42
430.72	13261.48
430.91	14817.93
431.10	17570.40
431.28	20025.62
431.47	21345.69
431.66	20926.73
431.85	18663.43
432.03	17518.91
432.22	17415.93
432.41	18452.78
432.60	20264.36
432.79	20903.32
432.97	21139.72
433.16	20374.36
433.35	18436.40
433.54	16327.58
433.72	15651.16
433.91	17242.73
434.10	19215.80
434.28	20161.37
434.47	21027.37
434.66	20187.12
434.85	19819.66
435.03	20313.51
435.22	20313.51
435.41	21558.67
435.59	21432.29
435.78	22148.49
435.97	22408.29
436.16	22455.10
436.34	21865.28
436.53	21535.27
436.72	21542.29
436.90	20465.64
437.09	20664.59
437.28	20414.15
437.46	21193.55
437.65	20449.26
437.84	18775.78
438.02	18090.00
438.21	18403.63
438.40	19030.90
438.58	20449.26
438.77	20631.82
438.96	21326.96
439.14	22183.60
439.33	22565.10
439.52	22707.88
439.70	22251.47
439.89	22113.38
440.08	21317.60
440.26	21848.90
440.45	22305.31
440.63	23962.40
440.82	25104.59
441.01	24767.55
441.19	23969.43
441.38	24858.83
441.57	25319.92
441.75	25993.99
441.94	26459.76
442.12	26469.12
442.31	26857.65
442.50	27145.53
442.68	26141.44
442.87	25532.90
443.05	25064.80
443.24	26225.70
443.43	26340.39
443.61	26192.94
443.80	26621.25
443.98	25694.40
444.17	26408.26
444.35	27578.53
444.54	27723.65
444.73	27119.79
444.91	25717.81
445.10	24987.56
445.28	24219.86
445.47	24016.24
445.65	23859.42
445.84	24685.63
446.02	25635.89
446.21	26029.10
446.39	25858.24
446.58	26384.86
446.77	27220.43
446.95	27229.79
447.14	27763.43
447.32	28783.91
447.51	27681.52
447.69	26682.11
447.88	26642.32
448.06	26785.09
448.25	27648.75
448.43	27400.65
448.62	27063.61
448.80	27026.17
448.99	26979.36
449.17	27190.00
449.36	27695.56
449.54	28755.82
449.73	28753.48
449.91	29390.11
450.10	30132.06
450.28	30253.76
450.46	29895.66
450.65	30022.05
450.83	29619.48
451.02	28980.51
451.20	29465.00
451.39	28980.51
451.57	28680.92
451.76	28821.36
451.94	28240.90
452.13	27651.09
452.31	26185.91
452.49	25256.72
452.68	26080.59
452.86	26050.16
453.05	26396.56
453.23	27728.33
453.42	28175.37
453.60	28664.54
453.78	29500.11
453.97	28718.37
454.15	28596.67
454.34	28306.44
454.52	27611.30
454.70	27381.93
454.89	27576.19
455.07	28355.59
455.26	28276.01
455.44	30235.04
455.62	30326.32
455.81	30047.80
455.99	29762.25
456.17	29752.89
456.36	29916.73
456.54	30338.02
456.73	30462.07
456.91	30979.33
457.09	31381.90
457.28	32158.96
457.46	30026.73
457.64	29584.37
457.83	29078.82
458.01	28725.39
458.19	29757.57
458.38	29490.75
458.56	30759.32
458.74	30654.00
458.93	29883.96
459.11	29575.01
459.29	29490.75
459.48	29256.70
459.66	29228.61
459.84	30026.73
460.03	30829.54
460.21	30768.68
460.39	31367.86
460.57	31566.81
460.76	31566.81
460.94	31435.74
461.12	31227.43
461.31	31126.78
461.49	31164.23
461.67	32137.90
461.85	32364.93
462.04	31779.79
462.22	32121.51
462.40	32245.56
462.59	32194.07
462.77	32648.13
462.95	31957.67
463.13	31782.13
463.32	31716.60
463.50	31784.48
463.68	31566.81
463.86	31491.91
464.05	31339.77
464.23	30328.66
464.41	30176.53
464.59	30473.78
464.78	31936.61
464.96	31281.26
465.14	30965.29
465.32	32182.37
465.50	32645.79
465.69	32671.54
465.87	31580.85
466.05	30827.20
466.23	29280.10
466.41	28683.27
466.60	30230.36
466.78	29741.19
466.96	30614.21
467.14	31138.49
467.32	31583.19
467.51	31814.90
467.69	30206.95
467.87	30859.96
468.05	31522.34
468.23	31559.78
468.41	31016.78
468.60	31147.85
468.78	31990.44
468.96	31246.15
469.14	32552.17
469.32	32100.45
469.50	30583.78
469.69	31110.40
469.87	30513.56
470.05	30618.89
470.23	30946.56
470.41	30625.91
470.59	31592.55
470.77	31292.96
470.95	31552.76
471.14	32191.73
471.32	32987.51
471.50	34452.69
471.68	33706.05
471.86	34178.84
472.04	34171.82
472.22	34031.39
472.40	32905.59
472.58	32587.28
472.77	32861.12
472.95	32804.95
473.13	33607.75
473.31	32989.85
473.49	33317.53
473.67	33961.17
473.85	34218.63
474.03	34857.60
474.21	35665.08
474.39	35491.88
474.57	35566.78
474.75	35218.04
474.93	35005.05
475.12	34363.75
475.30	35117.40
475.48	35026.12
475.66	35346.77
475.84	35047.18
476.02	34988.67
476.20	34127.35
476.38	35791.47
476.56	36465.55
476.74	36222.13
476.92	36470.23
477.10	36601.30
477.28	37883.91
477.46	37298.78
477.64	38298.19
477.82	37930.72
478.00	37633.47
478.18	37596.03
478.36	37495.38
478.54	37188.77
478.72	37979.87
478.90	38995.67
479.08	40165.93
479.26	39988.05
479.44	40039.54
479.62	39896.77
479.80	40643.40
479.98	39959.97
480.16	40959.38
480.34	40121.46
480.52	41366.63
480.70	41483.66
480.88	41258.96
481.06	41221.52
481.24	41404.08
481.41	42471.36
481.59	43335.02
481.77	42728.82
481.95	42616.47
482.13	42885.64
482.31	42536.90
482.49	43033.09
482.67	43206.29
482.85	43054.15
483.03	43140.75
483.21	44692.53
483.39	44509.97
483.57	43985.69
483.74	43473.11
483.92	43917.81
484.10	44552.10
484.28	44587.21
484.46	45521.08
484.64	46188.13
484.82	44928.92
485.00	44575.50
485.18	43313.95
485.35	40767.45
485.53	37074.09
485.71	35337.41
485.89	34951.22
486.07	37661.56
486.25	40172.96
486.43	42955.85
486.61	43625.25
486.78	43892.07
486.96	44142.50
487.14	45961.10
487.32	45867.48
487.50	47686.07
487.68	48072.26
487.85	48795.49
488.03	48456.11
488.21	47739.91
488.39	47585.43
488.57	45993.87
488.75	46630.49
488.92	47955.24
489.10	50548.55
489.28	50197.47
489.46	51435.61
489.64	51501.15
489.81	52079.26
489.99	52128.41
490.17	51576.04
490.35	51636.90
490.53	51236.67
490.70	51171.13
490.88	51583.07
491.06	52762.70
491.24	52315.65
491.41	50513.44
491.59	49022.52
491.77	48952.30
491.95	50749.84
492.13	51723.50
492.30	52114.37
492.48	53396.98
492.66	54291.07
492.84	53371.24
493.01	53130.16
493.19	52919.51
493.37	52294.59
493.54	52589.50
493.72	53286.98
493.90	53771.47
494.08	55304.52
494.25	55749.22
494.43	55686.03
494.61	55716.45
494.79	55512.83
494.96	55194.51
495.14	55054.08
495.32	53212.08
495.49	53748.06
495.67	54728.75
495.85	55533.89
496.02	56191.58
496.20	56343.72
496.38	56226.69
496.55	55950.51
496.73	56130.73
496.91	56130.73
497.09	56170.52
497.26	56666.71
497.44	56423.29
497.62	55173.45
497.79	54424.48
497.97	53930.62
498.14	54857.48
498.32	56032.42
498.50	55922.42
498.67	56947.57
498.85	56694.80
499.03	56804.80
499.20	57120.77
499.38	56956.94
499.56	56151.79
499.73	56030.08
499.91	55796.03
500.08	55545.59
500.26	55215.58
500.44	55779.65
500.61	55735.18
500.79	55323.24
500.97	55732.84
501.14	55510.49
501.32	54564.91
501.49	54717.04
501.67	55180.47
501.84	55365.37
502.02	56207.97
502.20	56346.06
502.37	56608.20
502.55	56891.40
502.72	57471.85
502.90	57860.38
503.07	57109.07
503.25	56315.63
503.43	55079.83
503.60	55363.03
503.78	55044.72
503.95	55594.74
504.13	56926.51
504.30	57748.04
504.48	56767.35
504.65	56970.98
504.83	57190.99
505.01	57373.55
505.18	57951.66
505.36	58415.09
505.53	58365.94
505.71	58728.72
505.88	58777.87
506.06	58480.63
506.23	57780.81
506.41	57237.80
506.58	57052.90
506.76	57712.93
506.93	57645.05
507.11	57469.51
507.28	57059.92
507.46	56423.29
507.63	56814.16
507.81	56678.41
507.98	56889.06
508.16	56935.87
508.33	57549.09
508.50	58499.35
508.68	58763.83
508.85	59568.97
509.03	59650.89
509.20	58712.34
509.38	58145.93
509.55	57319.72
509.73	57312.70
509.90	58171.67
510.08	58492.33
510.25	58045.29
510.42	57249.50
510.60	57319.72
510.77	57895.49
510.95	58651.48
511.12	58534.46
511.30	58986.18
511.47	59274.07
511.64	59355.99
511.82	59377.05
511.99	58171.67
512.17	58066.35
512.34	57148.86
512.51	57558.45
512.69	57939.96
512.86	57439.09
513.04	57932.94
513.21	57872.09
513.38	56893.74
513.56	56172.86
513.73	56427.98
513.90	56519.26
514.08	56727.56
514.25	57263.55
514.43	57506.96
514.60	57408.66
514.77	58075.71
514.95	58777.87
515.12	58712.34
515.29	58827.02
515.47	58939.37
515.64	59004.91
515.81	58604.67
515.99	57301.00
516.16	55236.64
516.33	53539.75
516.51	53200.38
516.68	50890.27
516.85	50019.59
517.03	51957.55
517.20	55030.68
517.37	57382.91
517.54	58141.25
517.72	57387.60
517.89	54049.99
518.06	52708.86
518.24	54253.62
518.41	56294.56
518.58	57364.19
518.75	56477.13
518.93	56739.27
519.10	56404.57
519.27	56664.37
519.45	57455.47
519.62	58162.31
519.79	57897.83
519.96	57418.02
520.14	57855.70
520.31	57492.92
520.48	57162.90
520.65	57085.67
520.83	57963.37
521.00	58085.07
521.17	57338.44
521.34	57771.44
521.52	58922.99
521.69	59054.06
521.86	59810.05
522.03	59086.82
522.20	56999.07
522.38	56629.26
522.55	56601.18
522.72	57113.75
522.89	57539.73
523.07	57581.86
523.24	57879.11
523.41	58506.37
523.58	59683.66
523.75	59585.36
523.92	59433.22
524.10	59564.29
524.27	59568.97
524.44	58621.06
524.61	58571.91
524.78	58941.71
524.96	58979.16
525.13	59334.92
525.30	59676.64
525.47	60130.70
525.64	59613.44
525.81	58717.02
525.98	57394.62
526.16	55845.18
526.33	55449.63
526.50	54593.00
526.67	55100.89
526.84	55718.79
527.01	56023.06
527.18	56683.09
527.36	58021.88
527.53	58927.67
527.70	58787.24
527.87	58190.40
528.04	58080.39
528.21	58843.41
528.38	59164.06
528.55	59730.47
528.72	59915.37
528.89	60341.35
529.07	59678.98
529.24	58972.14
529.41	58298.06
529.58	58396.37
529.75	58822.34
529.92	59231.94
530.09	59407.48
530.26	58915.96
530.43	59145.34
530.60	59781.96
530.77	59407.48
530.94	59178.10
531.11	58941.71
531.28	58866.81
531.46	59311.52
531.63	59496.42
531.80	58326.15
531.97	58085.07
532.14	57364.19
532.31	56175.20
532.48	55842.84
532.65	56516.92
532.82	57289.29
532.99	58892.56
533.16	59044.69
533.33	58805.96
533.50	59348.96
533.67	58035.92
533.84	58354.24
534.01	58267.64
534.18	58305.09
534.35	58440.84
534.52	58085.07
534.69	58592.97
534.86	58794.26
535.03	59295.13
535.20	59440.24
535.37	60025.38
535.54	60664.35
535.71	59955.16
535.88	59327.90
536.05	58473.60
536.22	57825.28
536.38	58305.09
536.55	57645.05
536.72	57284.61
536.89	57284.61
537.06	58382.32
537.23	59021.29
537.40	59018.95
537.57	59608.76
537.74	59283.43
537.91	58829.37
538.08	58822.34
538.25	59313.86
538.42	58679.57
538.59	58635.10
538.75	58232.53
538.92	57668.46
539.09	57659.10
539.26	57591.22
539.43	57785.49
539.60	57649.74
539.77	58031.24
539.94	57387.60
540.11	56692.46
540.28	56198.60
540.44	56575.43
540.61	57495.26
540.78	57338.44
540.95	57345.47
541.12	56713.52
541.29	57944.64
541.46	58040.60
541.62	58595.31
541.79	57263.55
541.96	56774.37
542.13	57476.54
542.30	58220.83
542.47	57825.28
542.63	57944.64
542.80	57570.16
542.97	57932.94
543.14	57546.75
543.31	57820.59
543.48	58698.30
543.64	58717.02
543.81	59100.87
543.98	59210.87
544.15	58181.04
544.32	57797.19
544.48	58461.90
544.65	58412.75
544.82	58824.68
544.99	58059.33
545.16	58014.86
545.32	57490.58
545.49	58351.90
545.66	58990.86
545.83	58314.45
546.00	58277.00
546.16	58176.36
546.33	58204.44
546.50	57394.62
546.67	58279.34
546.83	58710.00
547.00	58583.61
547.17	56652.67
547.34	56451.38
547.50	56425.64
547.67	56837.57
547.84	57059.92
548.00	58220.83
548.17	57951.66
548.34	58145.93
548.51	58230.19
548.67	57909.53
548.84	58202.10
549.01	57640.37
549.18	57893.15
549.34	57350.15
549.51	57719.95
549.68	57230.78
549.84	57095.03
550.01	56493.51
550.18	57043.54
550.34	57064.60
550.51	57733.99
550.68	57176.95
550.84	57268.23
551.01	57577.18
551.18	57506.96
551.34	57443.77
551.51	57572.50
551.68	57102.05
551.84	57684.84
552.01	57324.40
552.18	56999.07
552.34	56540.32
552.51	56399.89
552.68	57080.98
552.84	56886.72
553.01	57265.89
553.18	56308.61
553.34	57153.54
553.51	57272.91
553.67	57059.92
553.84	57214.40
554.01	57626.33
554.17	56800.12
554.34	56535.64
554.51	57425.04
554.67	57010.77
554.84	56954.60
555.00	56933.53
555.17	56788.42
555.33	56938.21
555.50	56863.32
555.67	57778.46
555.83	57162.90
556.00	56507.55
556.16	56065.19
556.33	56301.59
556.50	56683.09
556.66	56868.00
556.83	56346.06
556.99	56449.04
557.16	56479.47
557.32	56863.32
557.49	56882.04
557.65	56584.79
557.82	57118.43
557.98	56640.96
558.15	56275.84
558.32	55061.10
558.48	54525.12
558.65	54330.86
558.81	54721.72
558.98	54504.06
559.14	54560.23
559.31	55103.23
559.47	55950.51
559.64	54745.13
559.80	53965.73
559.97	54593.00
560.13	55777.31
560.30	56659.69
560.46	57392.28
560.63	57345.47
560.79	58143.59
560.96	56636.28
561.12	55824.12
561.29	55597.09
561.45	55011.95
561.61	55980.93
561.78	56055.83
561.94	55920.08
562.11	54948.76
562.27	54698.32
562.44	55025.99
562.60	55150.04
562.77	55899.01
562.93	55742.20
563.10	55927.10
563.26	55861.57
563.42	55709.43
563.59	55405.16
563.75	54946.42
563.92	55477.72
564.08	55899.01
564.24	55723.47
564.41	54791.94
564.57	55592.40
564.74	54866.84
564.90	55206.22
565.07	54749.81
565.23	54557.89
565.39	53893.18
565.56	54487.67
565.72	53918.92
565.88	54089.78
566.05	55276.43
566.21	54630.44
566.38	54403.41
566.54	55089.19
566.70	55014.29
566.87	55173.45
567.03	55636.87
567.19	55456.65
567.36	55217.92
567.52	54885.56
567.68	54927.69
567.85	54426.82
568.01	54178.72
568.17	54073.40
568.34	54038.29
568.50	53954.03
568.66	52875.04
568.83	53301.02
568.99	53141.86
569.15	53900.20
569.32	54485.33
569.48	53525.71
569.64	53633.38
569.81	54248.94
569.97	53879.13
570.13	52458.43
570.30	52425.66
570.46	52367.15
570.62	51241.35
570.78	52168.20
570.95	52985.05
571.11	53006.11
571.27	52662.05
571.43	53514.01
571.60	54232.55
571.76	53399.32
571.92	54075.74
572.09	53804.24
572.25	53738.70
572.41	54415.11
572.57	54410.43
572.74	54401.07
572.90	53125.48
573.06	53989.14
573.22	54422.14
573.38	54068.72
573.55	54375.33
573.71	53965.73
573.87	54038.29
574.03	53909.56
574.20	53907.22
574.36	52690.14
574.52	53106.76
574.68	51924.78
574.84	51770.31
575.01	52032.45
575.17	53022.50
575.33	52994.41
575.49	53801.89
575.65	53504.65
575.82	52804.83
575.98	52568.43
576.14	53102.07
576.30	53329.11
576.46	53137.18
576.62	52622.26
576.79	52303.95
576.95	52624.60
577.11	52353.10
577.27	52472.47
577.43	52006.70
577.59	52636.31
577.75	52755.68
577.92	51554.98
578.08	50424.50
578.24	50480.67
578.40	51119.64
578.56	50908.99
578.72	51817.12
578.88	51892.02
579.04	52280.55
579.21	51877.97
579.37	51393.48
579.53	51072.83
579.69	51547.96
579.85	51554.98
580.01	51281.14
580.17	50962.82
580.33	52378.85
580.49	52332.04
580.65	52339.06
580.82	52648.01
580.98	52076.92
581.14	51227.31
581.30	51686.05
581.46	51660.30
581.62	51927.13
581.78	52023.09
581.94	52198.63
582.10	51765.63
582.26	51447.32
582.42	51725.84
582.58	52362.46
582.74	51669.67
582.90	51168.79
583.06	52825.89
583.22	51875.63
583.38	52439.70
583.54	51966.91
583.70	51920.10
583.86	51379.44
584.02	51688.39
584.18	51854.57
584.34	51627.54
584.50	51157.09
584.66	51033.04
584.82	51047.08
584.98	51143.05
585.14	50878.57
585.30	50000.86
