SpectraSuite Data File
++++++++++++++++++++++++++++++++++++
Date: Mon Oct 07 14:53:28 GMT-05:00 2013
User: price-jones
Dark Spectrum Present: No
Reference Spectrum Present: No
Number of Sampled Component Spectra: 1
Spectrometers: USB2+H05261
Integration Time (usec): 100000 (USB2+H05261)
Spectra Averaged: 1 (USB2+H05261)
Boxcar Smoothing: 0 (USB2+H05261)
Correct for Electrical Dark: No (USB2+H05261)
Strobe/Lamp Enabled: No (USB2+H05261)
Correct for Detector Non-linearity: No (USB2+H05261)
Correct for Stray Light: No (USB2+H05261)
Number of Pixels in Processed Spectrum: 2048
>>>>>Begin Processed Spectral Data<<<<<
365.73	0.00
365.92	0.00
366.12	0.00
366.32	0.00
366.52	0.00
366.72	0.00
366.91	0.00
367.11	0.00
367.31	0.00
367.51	0.00
367.70	0.00
367.90	0.00
368.10	0.00
368.30	0.00
368.49	0.00
368.69	0.00
368.89	0.00
369.09	0.00
369.28	0.00
369.48	0.00
369.68	0.00
369.87	0.00
370.07	0.00
370.27	0.00
370.47	664.71
370.66	3269.73
370.86	3892.31
371.06	4093.60
371.25	4124.02
371.45	3789.33
371.65	3438.25
371.84	3073.12
372.04	3328.24
372.24	3693.37
372.44	3777.62
372.63	3791.67
372.83	3625.49
373.03	3059.08
373.22	2806.30
373.42	3143.34
373.62	3527.19
373.81	3723.79
374.01	3941.46
374.21	3452.29
374.40	3215.90
374.60	3386.76
374.79	3581.02
374.99	4337.01
375.19	4739.58
375.38	4706.82
375.58	4119.34
375.78	4231.69
375.97	4397.87
376.17	4568.73
376.37	4613.20
376.56	4664.69
376.76	4990.02
376.95	5231.10
377.15	5673.46
377.35	6024.54
377.54	6183.70
377.74	6171.99
377.93	6377.96
378.13	6094.76
378.33	5874.74
378.52	5341.10
378.72	4973.64
378.91	5048.54
379.11	4788.74
379.31	4685.75
379.50	4807.46
379.70	5053.22
379.89	5661.76
380.09	6017.52
380.28	6422.43
380.48	6029.22
380.68	6019.86
380.87	5919.21
381.07	5465.15
381.26	5015.77
381.46	4755.97
381.65	4601.49
381.85	4470.42
382.04	4133.39
382.24	3946.14
382.43	3868.91
382.63	3819.75
382.83	3758.90
383.02	3733.15
383.22	3616.13
383.41	3838.48
383.61	4051.47
383.80	4540.64
384.00	5200.67
384.19	5839.64
384.39	6008.16
384.58	6069.01
384.78	6160.29
384.97	5825.59
385.17	5650.05
385.36	5240.46
385.56	5184.29
385.75	5308.34
385.95	5797.51
386.14	6214.12
386.34	6340.51
386.53	6188.38
386.72	5764.74
386.92	5675.80
387.11	6033.90
387.31	6375.62
387.50	6307.74
387.70	5937.94
387.89	5947.30
388.09	5921.56
388.28	6015.18
388.48	6115.82
388.67	6455.20
388.86	7424.18
389.06	7758.88
389.25	8184.85
389.45	8308.90
389.64	7997.61
389.84	8191.88
390.03	7793.98
390.22	7840.79
390.42	8128.68
390.61	8737.22
390.81	9427.68
391.00	9425.34
391.19	9348.10
391.39	8971.27
391.58	8442.31
391.78	8079.53
391.97	7754.19
392.16	7262.68
392.36	6665.85
392.55	5313.02
392.75	4210.62
392.94	3363.35
393.13	3276.75
393.33	3983.59
393.52	5238.12
393.71	6394.34
393.91	7225.23
394.10	7681.64
394.29	8381.46
394.49	9334.06
394.68	9956.64
394.88	9811.53
395.07	10363.89
395.26	10164.95
395.46	10012.81
395.65	9460.45
395.84	8198.90
396.04	7005.22
396.23	5596.22
396.42	4599.15
396.62	4482.13
396.81	5280.25
397.00	6656.48
397.19	8421.25
397.39	10108.77
397.58	11206.48
397.77	11868.86
397.97	12255.04
398.16	12421.22
398.35	13032.10
398.55	13186.58
398.74	14066.62
398.93	14284.29
399.12	14019.81
399.32	13322.33
399.51	13862.99
399.70	14993.47
399.90	14565.15
400.09	14537.07
400.28	14504.30
400.47	14801.55
400.67	15431.15
400.86	15637.12
401.05	15939.05
401.24	15529.45
401.44	15793.94
401.63	15927.35
401.82	15983.52
402.01	16161.40
402.21	16313.53
402.40	16210.55
402.59	15882.88
402.78	15171.35
402.97	14691.54
403.17	15269.66
403.36	16245.66
403.55	16800.37
403.74	17006.33
403.93	16203.53
404.13	14932.62
404.32	14792.19
404.51	15499.03
404.70	16556.95
404.89	16589.72
405.09	16198.85
405.28	15796.28
405.47	15758.83
405.66	15587.97
405.85	15206.46
406.05	14963.04
406.24	15426.47
406.43	15805.64
406.62	16252.68
406.81	16629.51
407.00	15772.87
407.20	15789.25
407.39	15761.17
407.58	16587.38
407.77	17289.54
407.96	17795.09
408.15	17778.71
408.34	17844.24
408.54	18796.84
408.73	18850.67
408.92	18595.56
409.11	18136.81
409.30	17205.28
409.49	16346.30
409.68	15066.03
409.87	14539.41
410.07	15494.35
410.26	16924.41
410.45	17848.93
410.64	18167.24
410.83	18696.20
411.02	19255.59
411.21	20100.52
411.40	19894.55
411.59	19817.32
411.78	19826.68
411.98	19424.11
412.17	19562.20
412.36	19440.49
412.55	19424.11
412.74	19372.61
412.93	18745.35
413.12	18761.73
413.31	20585.01
413.50	20755.87
413.69	21226.32
413.88	20418.83
414.07	19536.45
414.26	19908.60
414.45	20884.60
414.64	20959.50
414.83	20716.08
415.02	20655.23
415.22	20496.07
415.41	20842.47
415.60	21666.34
415.79	22370.84
415.98	23122.15
416.17	22742.99
416.36	22221.05
416.55	22237.43
416.74	21144.40
416.93	20339.26
417.12	20500.75
417.31	20828.43
417.50	21383.13
417.69	22139.13
417.88	21685.06
418.07	21958.91
418.26	21373.77
418.45	21635.91
418.64	22293.60
418.83	23058.96
419.02	22679.79
419.21	22794.48
419.39	21329.30
419.58	20643.52
419.77	20634.16
419.96	21387.82
420.15	22941.93
420.34	23480.25
420.53	24254.97
420.72	24467.96
420.91	24727.76
421.10	24067.73
421.29	24077.09
421.48	22860.01
421.67	24130.92
421.86	23587.92
422.05	22230.41
422.24	19810.29
422.43	19510.71
422.61	21516.54
422.80	23175.98
422.99	23145.56
423.18	22239.77
423.37	22092.32
423.56	22221.05
423.75	22125.08
423.94	22794.48
424.13	21958.91
424.32	21799.75
424.50	22174.24
424.69	21745.92
424.88	22071.25
425.07	21865.28
425.26	21736.56
425.45	21621.87
425.64	21252.06
425.83	21125.68
426.01	22497.23
426.20	22860.01
426.39	22817.88
426.58	21022.69
426.77	19550.49
426.96	18904.51
427.15	19412.40
427.33	20858.85
427.52	21905.07
427.71	22415.31
427.90	21958.91
428.09	22075.93
428.28	21432.29
428.46	20589.69
428.65	20320.53
428.84	20594.37
429.03	21015.67
429.22	20196.48
429.40	18939.62
429.59	17097.61
429.78	15424.13
429.97	15173.69
430.16	15548.18
430.34	15585.63
430.53	15499.03
430.72	15910.96
430.91	17446.35
431.10	20278.40
431.28	24126.24
431.47	26206.98
431.66	26443.37
431.85	24400.08
432.03	22181.26
432.22	21256.75
432.41	21912.10
432.60	24034.96
432.79	25254.38
432.97	25965.90
433.16	25483.75
433.35	23316.42
433.54	21081.21
433.72	19454.53
433.91	20470.33
434.10	22738.30
434.28	24163.69
434.47	25558.65
434.66	24973.52
434.85	24348.59
435.03	24191.78
435.22	25205.23
435.41	26558.06
435.59	26508.91
435.78	26824.88
435.97	27592.58
436.16	27702.58
436.34	27365.54
436.53	26881.05
436.72	26878.71
436.90	25247.36
437.09	25598.44
437.28	24802.66
437.46	25781.00
437.65	25553.97
437.84	23859.42
438.02	21741.24
438.21	21818.47
438.40	23054.28
438.58	24898.62
438.77	25813.77
438.96	25727.17
439.14	26754.66
439.33	27674.49
439.52	27976.42
439.70	27402.99
439.89	26859.99
440.08	25989.31
440.26	25818.45
440.45	27080.00
440.63	28802.63
440.82	30082.91
441.01	29834.81
441.19	29413.51
441.38	29876.94
441.57	31040.18
441.75	31702.56
441.94	31426.37
442.12	31201.68
442.31	32231.52
442.50	31742.35
442.68	31358.50
442.87	31393.61
443.05	30658.68
443.24	30789.75
443.43	31768.09
443.61	32151.94
443.80	32816.65
443.98	31051.89
444.17	30885.71
444.35	32638.77
444.54	33589.03
444.73	32830.69
444.91	31449.78
445.10	30366.11
445.28	29352.66
445.47	28350.91
445.65	28868.17
445.84	29259.04
446.02	30338.02
446.21	31168.91
446.39	30984.01
446.58	31482.55
446.77	32236.20
446.95	32217.47
447.14	32943.04
447.32	33790.31
447.51	32821.33
447.69	31325.73
447.88	31129.12
448.06	31931.93
448.25	32575.58
448.43	32451.53
448.62	32055.98
448.80	32156.62
448.99	32304.07
449.17	32577.92
449.36	32517.06
449.54	33472.00
449.73	34473.75
449.91	34459.71
450.10	35646.36
450.28	36041.91
450.46	35632.32
450.65	35922.54
450.83	35409.96
451.02	34663.33
451.20	34806.11
451.39	34745.25
451.57	34160.12
451.76	34216.29
451.94	34307.57
452.13	33539.88
452.31	31854.69
452.49	30532.29
452.68	30998.06
452.86	31243.81
453.05	31402.97
453.23	32730.05
453.42	32926.66
453.60	33982.24
453.78	34057.14
453.97	33638.18
454.15	33787.97
454.34	33050.70
454.52	33535.20
454.70	32767.50
454.89	33277.74
455.07	33167.73
455.26	33841.81
455.44	35065.91
455.62	35435.71
455.81	35592.53
455.99	35232.08
456.17	34595.46
456.36	34955.90
456.54	36079.36
456.73	36093.40
456.91	36610.66
457.09	36943.02
457.28	37694.33
457.46	36364.90
457.64	35878.07
457.83	34354.38
458.01	33567.96
458.19	34871.64
458.38	35187.61
458.56	35952.97
458.74	36058.29
458.93	35145.48
459.11	35496.56
459.29	34850.58
459.48	35763.39
459.66	34895.05
459.84	35775.09
460.03	35971.69
460.21	35761.05
460.39	36994.51
460.57	36875.14
460.76	37502.40
460.94	37055.36
461.12	36603.64
461.31	37202.82
461.49	36727.69
461.67	36601.30
461.85	37991.58
462.04	37684.97
462.22	38401.17
462.40	38139.03
462.59	37333.89
462.77	37673.26
462.95	37724.75
463.13	37284.73
463.32	36840.03
463.50	36517.04
463.68	36608.32
463.86	36645.77
464.05	36437.46
464.23	35592.53
464.41	35484.86
464.59	35033.14
464.78	36837.69
464.96	36708.96
465.14	36030.21
465.32	36821.31
465.50	37710.71
465.69	38260.74
465.87	37593.68
466.05	36715.98
466.23	35075.27
466.41	33879.25
466.60	34902.07
466.78	35182.93
466.96	35545.72
467.14	36388.31
467.32	37053.02
467.51	36851.73
467.69	35321.02
467.87	35718.92
468.05	36573.21
468.23	36172.98
468.41	36914.93
468.60	36552.15
468.78	36886.84
468.96	36135.53
469.14	37413.46
469.32	37319.84
469.50	36149.57
469.69	36032.55
469.87	35468.48
470.05	35496.56
470.23	35402.94
470.41	35669.76
470.59	36098.08
470.77	35936.59
470.95	37188.77
471.14	37556.24
471.32	37350.27
471.50	39431.01
471.68	39828.90
471.86	39714.21
472.04	39730.59
472.22	40432.75
472.40	38117.96
472.58	37619.43
472.77	37645.18
472.95	38281.80
473.13	39335.04
473.31	38148.39
473.49	38281.80
473.67	39335.04
473.85	39414.62
474.03	39938.90
474.21	40114.44
474.39	40617.66
474.57	40807.24
474.75	40781.49
474.93	40854.05
475.12	39423.98
475.30	39627.61
475.48	39997.41
475.66	40399.99
475.84	40327.43
476.02	39728.25
476.20	39435.69
476.38	39894.43
476.56	41427.48
476.74	41518.76
476.92	41996.23
477.10	42803.72
477.28	43665.03
477.46	43697.80
477.64	44072.29
477.82	44397.62
478.00	44385.92
478.18	43419.28
478.36	43840.57
478.54	43213.31
478.72	43658.01
478.90	44809.56
479.08	45624.06
479.26	46696.03
479.44	46677.30
479.62	45792.58
479.80	46246.65
479.98	46302.82
480.16	46796.67
480.34	45888.54
480.52	46501.76
480.70	47044.77
480.88	46742.84
481.06	47395.85
481.24	48069.92
481.41	48346.11
481.59	49085.72
481.77	48788.47
481.95	48439.73
482.13	48306.32
482.31	48369.51
482.49	49153.59
482.67	48748.68
482.85	49195.72
483.03	49584.25
483.21	49996.18
483.39	49684.89
483.57	48933.58
483.74	49045.93
483.92	49144.23
484.10	49539.78
484.28	50031.29
484.46	50284.07
484.64	50897.29
484.82	49801.92
485.00	49736.38
485.18	48942.94
485.35	47531.60
485.53	44863.39
485.71	40753.41
485.89	40271.26
486.07	42359.02
486.25	45748.11
486.43	47863.96
486.61	48659.74
486.78	48435.05
486.96	48996.77
487.14	50480.67
487.32	51271.78
487.50	52074.58
487.68	52743.97
487.85	53244.85
488.03	53373.58
488.21	52786.10
488.39	52149.48
488.57	51737.54
488.75	51381.78
488.92	52325.02
489.10	54351.92
489.28	55517.51
489.46	55824.12
489.64	55849.86
489.81	56062.85
489.99	55772.63
490.17	55744.54
490.35	56065.19
490.53	55674.32
490.70	55253.03
490.88	55136.00
491.06	56322.65
491.24	55971.57
491.41	55409.84
491.59	53811.26
491.77	53090.37
491.95	54047.65
492.13	55182.81
492.30	56193.92
492.48	56985.02
492.66	57584.20
492.84	57165.24
493.01	57038.86
493.19	56743.95
493.37	56292.22
493.54	56233.71
493.72	56729.90
493.90	57666.12
494.08	58361.26
494.25	58738.08
494.43	58768.51
494.61	59011.93
494.79	59241.30
494.96	59049.38
495.14	58232.53
495.32	57647.39
495.49	57083.33
495.67	57797.19
495.85	59171.08
496.02	59681.32
496.20	59367.69
496.38	58934.69
496.55	58951.07
496.73	59180.45
496.91	59393.43
497.09	59990.27
497.26	60086.23
497.44	59592.38
497.62	59194.49
497.79	58550.84
497.97	57315.04
498.14	57535.05
498.32	58473.60
498.50	59339.60
498.67	59838.14
498.85	59533.87
499.03	59913.03
499.20	60027.72
499.38	60205.60
499.56	59868.56
499.73	59473.01
499.91	59278.75
500.08	58775.53
500.26	58162.31
500.44	58293.38
500.61	59131.29
500.79	58951.07
500.97	58539.14
501.14	58239.55
501.32	58239.55
501.49	58314.45
501.67	58284.02
501.84	58993.20
502.02	59245.98
502.20	59639.19
502.37	59688.34
502.55	59700.04
502.72	60205.60
502.90	60750.94
503.07	60439.65
503.25	59817.07
503.43	59224.92
503.60	58471.26
503.78	58115.50
503.95	58581.27
504.13	59978.57
504.30	60488.80
504.48	60273.48
504.65	60034.74
504.83	60030.06
505.01	60467.74
505.18	60947.55
505.36	61350.12
505.53	61340.76
505.71	61645.03
505.88	61677.80
506.06	61109.05
506.23	60793.07
506.41	60481.78
506.58	60795.42
506.76	60776.69
506.93	60631.58
507.11	60465.40
507.28	60690.09
507.46	60163.47
507.63	59669.62
507.81	59334.92
507.98	59531.53
508.16	60374.12
508.33	60671.37
508.50	60980.32
508.68	61221.39
508.85	61750.35
509.03	61776.10
509.20	61724.61
509.38	61008.40
509.55	60324.97
509.73	60556.68
509.90	60882.02
510.08	61179.26
510.25	61176.92
510.42	60935.85
510.60	60867.97
510.77	61190.97
510.95	61743.33
511.12	61736.31
511.30	61832.27
511.47	62190.37
511.64	62176.33
511.82	61890.79
511.99	61130.11
512.17	60790.73
512.34	60378.80
512.51	60757.97
512.69	60615.19
512.86	60989.68
513.04	61207.35
513.21	61277.57
513.38	60989.68
513.56	60458.38
513.73	59636.85
513.90	59973.89
514.08	60119.00
514.25	60402.21
514.43	60596.47
514.60	60725.20
514.77	60783.71
514.95	60830.52
515.12	60786.05
515.29	60989.68
515.47	61504.60
515.64	61638.01
515.81	61272.88
515.99	60800.10
516.16	59566.63
516.33	57504.62
516.51	56097.96
516.68	55370.05
516.85	54859.82
517.03	55274.09
517.20	57818.25
517.37	60044.10
517.54	60945.21
517.72	60573.06
517.89	58415.09
518.06	56023.06
518.24	56179.88
518.41	58234.87
518.58	59405.14
518.75	59859.20
518.93	60243.05
519.10	59924.74
519.27	60308.58
519.45	60381.14
519.62	61200.33
519.79	61464.81
519.96	61289.27
520.14	60793.07
520.31	59971.55
520.48	59889.63
520.65	60133.04
520.83	61478.85
521.00	61614.60
521.17	61151.18
521.34	60942.87
521.52	61137.13
521.69	61778.44
521.86	62122.50
522.03	62003.13
522.20	60669.03
522.38	59690.68
522.55	59880.27
522.72	60289.86
522.89	60266.45
523.07	60584.77
523.24	61078.62
523.41	61743.33
523.58	61832.27
523.75	62464.22
523.92	62223.14
524.10	62209.10
524.27	62321.44
524.44	61893.13
524.61	61801.85
524.78	61581.84
524.96	61567.79
525.13	61598.22
525.30	61785.46
525.47	62370.60
525.64	62092.07
525.81	61556.09
525.98	60402.21
526.16	59124.27
526.33	58335.51
526.50	57881.45
526.67	57635.69
526.84	57977.41
527.01	59100.87
527.18	59807.71
527.36	60725.20
527.53	61450.77
527.70	61612.26
527.87	61296.29
528.04	60856.27
528.21	61237.78
528.38	61806.53
528.55	62576.56
528.72	62569.54
528.89	62766.15
529.07	62436.13
529.24	61888.45
529.41	61429.70
529.58	60650.30
529.75	60973.30
529.92	61389.91
530.09	61722.27
530.26	62183.35
530.43	62415.07
530.60	62284.00
530.77	62609.33
530.94	62653.80
531.11	62293.36
531.28	62052.28
531.46	61605.24
531.63	61918.87
531.80	61570.13
531.97	61368.85
532.14	60846.91
532.31	59838.14
532.48	59309.18
532.65	59210.87
532.82	60060.49
532.99	60973.30
533.16	61474.17
533.33	61965.68
533.50	61663.75
533.67	61144.16
533.84	60905.42
534.01	60858.61
534.18	61186.28
534.35	61331.40
534.52	61202.67
534.69	61441.40
534.86	61731.63
535.03	61989.09
535.20	62321.44
535.37	62752.10
535.54	62700.61
535.71	62408.04
535.88	62272.29
536.05	61593.54
536.22	61169.90
536.38	60896.06
536.55	60624.56
536.72	60016.02
536.89	59882.61
537.06	60926.49
537.23	61532.68
537.40	61654.39
537.57	61829.93
537.74	61448.42
537.91	61230.75
538.08	61347.78
538.25	61460.13
538.42	61593.54
538.59	61509.28
538.75	60678.39
538.92	60678.39
539.09	60610.51
539.26	60111.98
539.43	59936.44
539.60	60123.68
539.77	60315.61
539.94	60362.42
540.11	59669.62
540.28	59231.94
540.44	59105.55
540.61	59334.92
540.78	59533.87
540.95	60119.00
541.12	60388.16
541.29	60769.67
541.46	60970.96
541.62	60814.14
541.79	60846.91
541.96	60147.09
542.13	60339.01
542.30	60566.04
542.47	60715.84
542.63	60736.90
542.80	60303.90
542.97	60617.53
543.14	60385.82
543.31	60278.16
543.48	60767.33
543.64	61439.06
543.81	61769.08
543.98	61733.97
544.15	61041.17
544.32	60437.31
544.48	60453.70
544.65	60907.76
544.82	61364.17
544.99	60858.61
545.16	60626.90
545.32	60196.24
545.49	61132.45
545.66	61563.11
545.83	60910.10
546.00	60879.67
546.16	60273.48
546.33	60645.62
546.50	60495.83
546.67	61015.43
546.83	60544.98
547.00	60526.25
547.17	59971.55
547.34	59618.13
547.50	59306.83
547.67	59770.26
547.84	59868.56
548.00	60238.37
548.17	60523.91
548.34	60456.04
548.51	60523.91
548.67	60552.00
548.84	60664.35
549.01	60573.06
549.18	60584.77
549.34	60619.88
549.51	60390.50
549.68	60395.18
549.84	60133.04
550.01	60126.02
550.18	59751.54
550.34	60046.44
550.51	60104.96
550.68	60200.92
550.84	59814.73
551.01	59697.70
551.18	59683.66
551.34	60151.77
551.51	60275.82
551.68	60561.36
551.84	60711.16
552.01	60285.18
552.18	60348.37
552.34	59510.46
552.51	59271.73
552.68	59178.10
552.84	59498.76
553.01	59990.27
553.18	59662.60
553.34	59810.05
553.51	59973.89
553.67	60266.45
553.84	60271.14
554.01	60317.95
554.17	60149.43
554.34	60135.38
554.51	60179.85
554.67	60456.04
554.84	60376.46
555.00	60051.12
555.17	59779.62
555.33	59852.18
555.50	59781.96
555.67	59641.53
555.83	59681.32
556.00	59517.48
556.16	59241.30
556.33	58927.67
556.50	59002.56
556.66	59166.40
556.83	58670.21
556.99	58925.33
557.16	59018.95
557.32	59302.15
557.49	59405.14
557.65	59135.98
557.82	59150.02
557.98	59021.29
558.15	58721.70
558.32	57860.38
558.48	57144.18
558.65	57511.64
558.81	57963.37
558.98	58007.84
559.14	58174.02
559.31	58232.53
559.47	58323.81
559.64	57867.40
559.80	57900.17
559.97	57708.25
560.13	58094.44
560.30	58974.48
560.46	59531.53
560.63	59653.23
560.79	59709.41
560.96	59178.10
561.12	58159.97
561.29	57490.58
561.45	57389.94
561.61	58017.20
561.78	58286.36
561.94	58277.00
562.11	58248.91
562.27	58120.18
562.44	58431.47
562.60	58710.00
562.77	58979.16
562.93	58623.40
563.10	58698.30
563.26	58340.19
563.42	58225.51
563.59	57853.36
563.75	58073.37
563.92	58124.86
564.08	57865.06
564.24	58108.48
564.41	58391.68
564.57	58394.03
564.74	58188.06
564.90	57916.56
565.07	57799.53
565.23	57457.81
565.39	57013.11
565.56	56713.52
565.72	56612.88
565.88	56882.04
566.05	57190.99
566.21	57282.27
566.38	57169.93
566.54	57265.89
566.70	57719.95
566.87	58117.84
567.03	57858.04
567.19	58159.97
567.36	57970.39
567.52	57787.83
567.68	57495.26
567.85	57064.60
568.01	56706.50
568.17	56362.44
568.34	56367.12
568.50	56177.54
568.66	56339.04
568.83	56875.02
568.99	56839.91
569.15	57167.58
569.32	56830.55
569.48	56713.52
569.64	56589.47
569.81	56542.66
569.97	56214.99
570.13	55922.42
570.30	55695.39
570.46	55274.09
570.62	54681.94
570.78	54679.60
570.95	55159.41
571.11	55671.98
571.27	55913.06
571.43	56275.84
571.60	56343.72
571.76	56336.69
571.92	57071.62
572.09	57038.86
572.25	56809.48
572.41	56966.30
572.57	56666.71
572.74	56858.63
572.90	56250.09
573.06	56317.97
573.22	56425.64
573.38	56317.97
573.55	56409.25
573.71	56427.98
573.87	56456.06
574.03	56137.75
574.20	56200.94
574.36	55810.07
574.52	55679.00
574.68	55679.00
574.84	55372.39
575.01	54756.83
575.17	54766.20
575.33	55107.91
575.49	55201.53
575.65	55522.19
575.82	55461.33
575.98	54836.41
576.14	55168.77
576.30	55671.98
576.46	55566.66
576.62	55531.55
576.79	55545.59
576.95	55246.00
577.11	55028.34
577.27	55096.21
577.43	55531.55
577.59	54993.23
577.75	54480.65
577.92	53914.24
578.08	53895.52
578.24	53902.54
578.40	54181.06
578.56	54494.69
578.72	54520.44
578.88	54649.17
579.04	54953.44
579.21	54759.17
579.37	54901.95
579.53	55044.72
579.69	54810.67
579.85	55033.02
580.01	55014.29
580.17	54621.08
580.33	54223.19
580.49	54569.59
580.65	54698.32
580.82	54759.17
580.98	55206.22
581.14	55168.77
581.30	55054.08
581.46	54831.73
581.62	55054.08
581.78	54976.84
581.94	55318.56
582.10	54918.33
582.26	55400.48
582.42	54951.10
582.58	55014.29
582.74	54988.55
582.90	54934.71
583.06	55107.91
583.22	54857.48
583.38	54368.30
583.54	54548.53
583.70	54674.91
583.86	54827.05
584.02	54541.50
584.18	54838.75
584.34	54700.66
584.50	54347.24
584.66	54541.50
584.82	53862.75
584.98	53977.43
585.14	53471.88
