SpectraSuite Data File
++++++++++++++++++++++++++++++++++++
Date: Mon Oct 07 14:53:01 GMT-05:00 2013
User: price-jones
Dark Spectrum Present: No
Reference Spectrum Present: No
Number of Sampled Component Spectra: 1
Spectrometers: USB2+H05261
Integration Time (usec): 100000 (USB2+H05261)
Spectra Averaged: 1 (USB2+H05261)
Boxcar Smoothing: 0 (USB2+H05261)
Correct for Electrical Dark: No (USB2+H05261)
Strobe/Lamp Enabled: No (USB2+H05261)
Correct for Detector Non-linearity: No (USB2+H05261)
Correct for Stray Light: No (USB2+H05261)
Number of Pixels in Processed Spectrum: 2048
>>>>>Begin Processed Spectral Data<<<<<
365.73	0.00
365.92	0.00
366.12	0.00
366.32	0.00
366.52	0.00
366.72	0.00
366.91	0.00
367.11	0.00
367.31	0.00
367.51	0.00
367.70	0.00
367.90	0.00
368.10	0.00
368.30	0.00
368.49	0.00
368.69	0.00
368.89	0.00
369.09	0.00
369.28	0.00
369.48	0.00
369.68	0.00
369.87	0.00
370.07	0.00
370.27	0.00
370.47	472.79
370.66	2825.03
370.86	3428.88
371.06	3789.33
371.25	3744.86
371.45	3419.52
371.65	3052.06
371.84	2848.43
372.04	3054.40
372.24	3461.65
372.44	3669.96
372.63	3417.18
372.83	3384.41
373.03	2904.60
373.22	2775.88
373.42	2806.30
373.62	3084.83
373.81	3499.10
374.01	3424.20
374.21	3012.27
374.40	2864.82
374.60	3091.85
374.79	3358.67
374.99	4049.13
375.19	4250.41
375.38	4369.78
375.58	3974.23
375.78	3861.88
375.97	3983.59
376.17	4287.86
376.37	4140.41
376.56	4470.42
376.76	4580.43
376.95	4702.14
377.15	5188.97
377.35	5277.91
377.54	5563.45
377.74	5631.33
377.93	5636.01
378.13	5472.17
378.33	5341.10
378.52	4882.36
378.72	4634.26
378.91	4589.79
379.11	4512.55
379.31	4465.74
379.50	4325.31
379.70	4685.75
379.89	5121.09
380.09	5540.05
380.28	5706.23
380.48	5605.58
380.68	5568.13
380.87	5511.96
381.07	5043.85
381.26	4695.11
381.46	4243.39
381.65	4173.18
381.85	4060.83
382.04	3904.01
382.24	3529.53
382.43	3552.93
382.63	3330.58
382.83	3456.97
383.02	3377.39
383.22	3428.88
383.41	3346.97
383.61	3653.58
383.80	4292.54
384.00	4802.78
384.19	5423.02
384.39	5460.47
384.58	5481.53
384.78	5416.00
384.97	5448.77
385.17	5114.07
385.36	4945.55
385.56	4692.77
385.75	4873.00
385.95	5448.77
386.14	5736.65
386.34	5788.14
386.53	5554.09
386.72	5097.69
386.92	5174.92
387.11	5523.66
387.31	5856.02
387.50	5694.52
387.70	5495.58
387.89	5537.71
388.09	5427.70
388.28	5504.94
388.48	5650.05
388.67	6071.35
388.86	6511.37
389.06	6951.39
389.25	7407.80
389.45	7426.52
389.64	7323.54
389.84	7382.05
390.03	7314.17
390.22	7288.43
390.42	7637.17
390.61	7903.99
390.81	8355.71
391.00	8706.79
391.19	8734.88
391.39	8353.37
391.58	7887.61
391.78	7295.45
391.97	7157.36
392.16	6595.63
392.36	6003.47
392.55	4784.06
392.75	3892.31
392.94	3194.83
393.13	3119.93
393.33	3705.07
393.52	4795.76
393.71	5809.21
393.91	6626.06
394.10	7197.15
394.29	7908.67
394.49	8238.69
394.68	9172.56
394.88	9170.22
395.07	9432.36
395.26	9378.53
395.46	8840.20
395.65	8482.10
395.84	7279.07
396.04	6237.53
396.23	5083.64
396.42	4269.14
396.62	4117.00
396.81	5029.81
397.00	6314.77
397.19	7735.47
397.39	9289.59
397.58	10373.25
397.77	11082.44
397.97	11520.12
398.16	11405.43
398.35	11932.05
398.55	12201.21
398.74	12690.38
398.93	12720.81
399.12	12791.03
399.32	12243.34
399.51	12732.51
399.70	13205.30
399.90	13200.62
400.09	13263.82
400.28	13193.60
400.47	13399.57
400.67	14052.58
400.86	14422.38
401.05	14150.88
401.24	14511.32
401.44	14562.81
401.63	14883.47
401.82	14766.44
402.01	14731.33
402.21	14710.27
402.40	15272.00
402.59	14553.45
402.78	13783.41
402.97	13483.83
403.17	14029.17
403.36	14801.55
403.55	15391.36
403.74	15686.27
403.93	14874.10
404.13	13900.44
404.32	13444.04
404.51	14279.61
404.70	15157.31
404.89	14881.13
405.09	14979.43
405.28	14682.18
405.47	14471.53
405.66	14162.58
405.85	13996.40
406.05	13727.24
406.24	14050.24
406.43	14607.28
406.62	15204.12
406.81	15545.84
407.00	14696.22
407.20	14415.36
407.39	14518.34
407.58	15293.06
407.77	15892.24
407.96	16407.16
408.15	16166.08
408.34	16428.22
408.54	17034.42
408.73	17476.78
408.92	17254.43
409.11	16449.28
409.30	15538.82
409.49	14661.12
409.68	13614.90
409.87	13572.77
410.07	14422.38
410.26	15454.56
410.45	16517.16
410.64	16683.34
410.83	17266.13
411.02	17680.41
411.21	18625.98
411.40	17951.91
411.59	18209.37
411.78	18178.94
411.98	18043.19
412.17	18132.13
412.36	18068.94
412.55	18036.17
412.74	17418.27
412.93	17191.23
413.12	17446.35
413.31	19030.90
413.50	19309.42
413.69	19751.78
413.88	18541.72
414.07	18466.83
414.26	18656.41
414.45	19019.19
414.64	19042.60
414.83	19089.41
415.02	18918.55
415.22	19009.83
415.41	19211.12
415.60	19941.36
415.79	20856.51
415.98	21245.04
416.17	21116.31
416.36	20367.34
416.55	20285.42
416.74	19620.71
416.93	18726.63
417.12	19133.88
417.31	19234.52
417.50	19857.10
417.69	19922.64
417.88	19936.68
418.07	20154.35
418.26	19992.86
418.45	19983.49
418.64	20620.12
418.83	21291.85
419.02	21048.44
419.21	21048.44
419.39	19971.79
419.58	19033.24
419.77	18937.27
419.96	19934.34
420.15	21036.74
420.34	21699.11
420.53	22183.60
420.72	23119.81
420.91	22277.22
421.10	22204.66
421.29	21986.99
421.48	21282.49
421.67	22118.06
421.86	21811.45
422.05	20355.64
422.24	18401.29
422.43	18239.79
422.61	19953.07
422.80	21783.37
422.99	21582.08
423.18	20903.32
423.37	20559.27
423.56	20563.95
423.75	20779.28
423.94	21467.39
424.13	19950.73
424.32	20269.04
424.50	20208.19
424.69	20114.56
424.88	20285.42
425.07	20245.63
425.26	20250.32
425.45	20091.16
425.64	19417.08
425.83	19786.89
426.01	20975.88
426.20	21315.26
426.39	20833.11
426.58	19765.82
426.77	18295.97
426.96	17568.06
427.15	18141.49
427.33	19733.06
427.52	20360.32
427.71	20650.55
427.90	20269.04
428.09	20540.54
428.28	19374.95
428.46	19002.81
428.65	18574.49
428.84	19278.99
429.03	19496.66
429.22	18333.42
429.40	17614.87
429.59	15695.63
429.78	14094.71
429.97	14029.17
430.16	14314.72
430.34	14516.00
430.53	14211.73
430.72	14780.48
430.91	16189.49
431.10	19117.50
431.28	22382.54
431.47	24294.76
431.66	24563.92
431.85	22302.96
432.03	20835.45
432.22	19969.45
432.41	20264.36
432.60	22679.79
432.79	23372.59
432.97	24044.32
433.16	23477.91
433.35	21436.97
433.54	19159.63
433.72	18452.78
433.91	19208.78
434.10	21266.11
434.28	22567.45
434.47	23585.58
434.66	23316.42
434.85	22621.28
435.03	22672.77
435.22	23019.17
435.41	24407.11
435.59	24636.48
435.78	25015.65
435.97	25315.23
436.16	25570.35
436.34	25575.03
436.53	24613.07
436.72	25174.80
436.90	23442.81
437.09	23700.26
437.28	22993.42
437.46	24360.30
437.65	24032.62
437.84	22008.06
438.02	20240.95
438.21	20386.07
438.40	21687.40
438.58	23426.42
438.77	23754.10
438.96	24058.37
439.14	25319.92
439.33	25558.65
439.52	26223.36
439.70	25682.70
439.89	24877.55
440.08	23906.23
440.26	24381.36
440.45	25127.99
440.63	27157.24
440.82	28011.53
441.01	27709.60
441.19	27353.84
441.38	27976.42
441.57	28931.36
441.75	29710.76
441.94	29422.87
442.12	28950.09
442.31	29771.61
442.50	29912.05
442.68	29223.93
442.87	28940.72
443.05	28720.71
443.24	29003.92
443.43	29244.99
443.61	30326.32
443.80	30586.12
443.98	28739.44
444.17	28701.99
444.35	30693.79
444.54	31054.23
444.73	30845.92
444.91	29413.51
445.10	28201.11
445.28	27222.77
445.47	26911.48
445.65	26869.35
445.84	27655.77
446.02	28875.19
446.21	28898.59
446.39	29017.96
446.58	29439.26
446.77	29970.56
446.95	30176.53
447.14	30817.83
447.32	31728.30
447.51	30691.44
447.69	29944.81
447.88	29469.69
448.06	30029.07
448.25	30621.23
448.43	30707.83
448.62	29874.60
448.80	30263.13
448.99	29937.79
449.17	30663.36
449.36	30504.20
449.54	31262.54
449.73	31948.31
449.91	32236.20
450.10	33376.04
450.28	33687.33
450.46	33385.40
450.65	33600.73
450.83	33357.32
451.02	32201.09
451.20	32308.76
451.39	32313.44
451.57	32123.85
451.76	32109.81
451.94	32301.73
452.13	31374.88
452.31	30000.99
452.49	28552.20
452.68	28730.08
452.86	29139.67
453.05	29418.19
453.23	30228.02
453.42	31267.22
453.60	31721.28
453.78	31922.57
453.97	31810.22
454.15	31847.67
454.34	31304.67
454.52	31283.60
454.70	30684.42
454.89	30906.77
455.07	31407.65
455.26	31606.59
455.44	32868.14
455.62	33329.23
455.81	33717.76
455.99	32992.19
456.17	33092.83
456.36	33125.60
456.54	33666.27
456.73	34293.53
456.91	34405.88
457.09	34464.39
457.28	34881.00
457.46	34127.35
457.64	33830.10
457.83	32297.05
458.01	31934.27
458.19	32620.05
458.38	32802.61
458.56	34270.12
458.74	33640.52
458.93	33336.25
459.11	33340.93
459.29	32917.29
459.48	33436.89
459.66	33216.88
459.84	33450.94
460.03	33692.01
460.21	33605.41
460.39	34419.92
460.57	34476.09
460.76	34932.50
460.94	34593.12
461.12	34646.95
461.31	34911.43
461.49	34728.87
461.67	34408.22
461.85	36154.26
462.04	35739.98
462.22	36095.74
462.40	35604.23
462.59	35091.65
462.77	35627.63
462.95	35433.37
463.13	35316.34
463.32	34595.46
463.50	34700.78
463.68	34588.44
463.86	34817.81
464.05	34108.63
464.23	33638.18
464.41	33420.51
464.59	33060.07
464.78	34604.82
464.96	34749.93
465.14	33776.27
465.32	35047.18
465.50	35665.08
465.69	36168.30
465.87	35047.18
466.05	34115.65
466.23	32748.78
466.41	32063.00
466.60	33406.47
466.78	33055.39
466.96	33673.29
467.14	34227.99
467.32	34747.59
467.51	34899.73
467.69	33123.26
467.87	33961.17
468.05	34792.06
468.23	34291.19
468.41	34534.60
468.60	34513.54
468.78	34513.54
468.96	34469.07
469.14	34553.33
469.32	35323.36
469.50	34087.56
469.69	33862.87
469.87	33319.87
470.05	32886.87
470.23	33525.83
470.41	33347.95
470.59	34169.48
470.77	34223.31
470.95	34883.34
471.14	34831.85
471.32	35536.35
471.50	37223.88
471.68	37549.21
471.86	37949.45
472.04	37900.29
472.22	38242.01
472.40	35997.44
472.58	35594.87
472.77	35414.65
472.95	36575.55
473.13	37476.66
473.31	36212.77
473.49	36439.80
473.67	37081.11
473.85	37429.85
474.03	38291.16
474.21	38127.33
474.39	38232.65
474.57	38806.08
474.75	39227.38
474.93	38251.38
475.12	37837.10
475.30	38249.03
475.48	37853.48
475.66	38691.40
475.84	38066.47
476.02	37809.01
476.20	37242.60
476.38	37790.29
476.56	39260.15
476.74	39452.07
476.92	39894.43
477.10	39943.58
477.28	41453.23
477.46	41481.31
477.64	41867.50
477.82	41897.93
478.00	42029.00
478.18	41205.13
478.36	41401.74
478.54	41523.44
478.72	41804.31
478.90	42522.85
479.08	43929.51
479.26	44119.10
479.44	43665.03
479.62	44046.54
479.80	43943.56
479.98	44013.77
480.16	44161.23
480.34	43842.92
480.52	43859.30
480.70	44390.60
480.88	44996.80
481.06	45394.69
481.24	45546.82
481.41	46703.05
481.59	47232.01
481.77	46808.37
481.95	46291.12
482.13	46300.48
482.31	46216.22
482.49	47131.37
482.67	46742.84
482.85	46953.49
483.03	47459.04
483.21	48016.09
483.39	48020.77
483.57	46747.52
483.74	46972.21
483.92	46887.95
484.10	47505.85
484.28	48659.74
484.46	48633.99
484.64	48755.70
484.82	48163.54
485.00	47728.20
485.18	46831.78
485.35	45500.01
485.53	42197.52
485.71	38885.66
485.89	38452.66
486.07	40992.14
486.25	43892.07
486.43	46005.57
486.61	46464.32
486.78	46850.50
486.96	46621.13
487.14	48624.63
487.32	49776.17
487.50	50522.80
487.68	51063.47
487.85	51838.18
488.03	51662.64
488.21	51398.16
488.39	50574.30
488.57	49893.20
488.75	49687.23
488.92	51217.94
489.10	52928.87
489.28	54178.72
489.46	54698.32
489.64	54375.33
489.81	54630.44
489.99	54370.64
490.17	54658.53
490.35	54487.67
490.53	54288.73
490.70	54012.54
490.88	53811.26
491.06	54630.44
491.24	54649.17
491.41	53719.98
491.59	52292.25
491.77	51592.43
491.95	52559.07
492.13	53773.81
492.30	54731.09
492.48	55908.38
492.66	56240.73
492.84	56147.11
493.01	55828.80
493.19	55351.33
493.37	55035.36
493.54	54731.09
493.72	55433.25
493.90	56339.04
494.08	57008.43
494.25	57340.78
494.43	57577.18
494.61	57998.48
494.79	57890.81
494.96	57682.50
495.14	57003.75
495.32	56079.24
495.49	55824.12
495.67	56725.22
495.85	58019.54
496.02	58361.26
496.20	57946.98
496.38	57666.12
496.55	57790.17
496.73	58295.72
496.91	58239.55
497.09	58740.42
497.26	58930.01
497.44	58424.45
497.62	57759.74
497.79	57186.31
497.97	55903.70
498.14	56362.44
498.32	57331.42
498.50	58272.32
498.67	58798.94
498.85	58389.34
499.03	58588.29
499.20	58843.41
499.38	58911.28
499.56	58717.02
499.73	58356.58
499.91	57708.25
500.08	57481.22
500.26	56823.53
500.44	57542.07
500.61	57998.48
500.79	57829.96
500.97	57516.32
501.14	57270.57
501.32	57230.78
501.49	57123.11
501.67	57275.25
501.84	57965.71
502.02	58017.20
502.20	58518.07
502.37	58354.24
502.55	58635.10
502.72	59187.47
502.90	59576.00
503.07	59135.98
503.25	58948.73
503.43	58106.14
503.60	57242.48
503.78	56872.68
503.95	57176.95
504.13	58679.57
504.30	59463.65
504.48	58944.05
504.65	58864.47
504.83	58733.40
505.01	59465.99
505.18	59854.52
505.36	60247.73
505.53	60439.65
505.71	60657.32
505.88	60645.62
506.06	59929.42
506.23	59700.04
506.41	59508.12
506.58	59566.63
506.76	59618.13
506.93	59510.46
507.11	59484.72
507.28	59510.46
507.46	59133.63
507.63	58529.78
507.81	58305.09
507.98	58763.83
508.16	59358.33
508.33	59676.64
508.50	60177.51
508.68	60346.03
508.85	60788.39
509.03	60631.58
509.20	60449.02
509.38	59817.07
509.55	59278.75
509.73	59510.46
509.90	59784.30
510.08	60074.53
510.25	59990.27
510.42	59730.47
510.60	59812.39
510.77	60161.13
510.95	60580.09
511.12	60692.43
511.30	60882.02
511.47	61034.15
511.64	61076.28
511.82	60720.52
511.99	59999.63
512.17	59655.57
512.34	59283.43
512.51	59751.54
512.69	59749.20
512.86	59805.37
513.04	60315.61
513.21	59985.59
513.38	59772.60
513.56	59234.28
513.73	58766.17
513.90	59117.25
514.08	59121.93
514.25	59405.14
514.43	59578.34
514.60	59643.87
514.77	59786.64
514.95	59973.89
515.12	59772.60
515.29	59938.78
515.47	60488.80
515.64	60573.06
515.81	60294.54
515.99	59891.97
516.16	58333.17
516.33	56175.20
516.51	55220.26
516.68	54288.73
516.85	53743.38
517.03	54370.64
517.20	56851.61
517.37	59000.22
517.54	59840.48
517.72	59255.34
517.89	57036.51
518.06	55044.72
518.24	55267.07
518.41	57502.28
518.58	58475.94
518.75	58686.59
518.93	58990.86
519.10	58658.51
519.27	59262.36
519.45	59538.55
519.62	60214.96
519.79	60521.57
519.96	60301.56
520.14	59870.90
520.31	59040.01
520.48	59105.55
520.65	59611.10
520.83	60353.05
521.00	60697.11
521.17	60266.45
521.34	60177.51
521.52	60392.84
521.69	60697.11
521.86	61268.20
522.03	60776.69
522.20	59821.75
522.38	58820.00
522.55	58850.43
522.72	59285.77
522.89	59484.72
523.07	59728.13
523.24	59955.16
523.41	60954.57
523.58	61235.44
523.75	61544.39
523.92	61485.87
524.10	61212.03
524.27	61291.61
524.44	61071.60
524.61	61057.56
524.78	60835.20
524.96	60694.77
525.13	60797.76
525.30	61048.19
525.47	61385.23
525.64	61333.74
525.81	60645.62
525.98	59341.94
526.16	57766.76
526.33	57488.24
526.50	57050.56
526.67	56844.59
526.84	57602.92
527.01	58272.32
527.18	59182.79
527.36	59983.25
527.53	60722.86
527.70	60884.36
527.87	60371.78
528.04	60039.42
528.21	60264.11
528.38	61024.79
528.55	61558.43
528.72	61738.65
528.89	61928.23
529.07	61586.52
529.24	60989.68
529.41	60523.91
529.58	59994.95
529.75	60097.94
529.92	60528.59
530.09	60903.08
530.26	61406.30
530.43	61549.07
530.60	61523.32
530.77	61729.29
530.94	61914.19
531.11	61352.46
531.28	61078.62
531.46	60968.61
531.63	61221.39
531.80	61041.17
531.97	60612.85
532.14	59959.84
532.31	58848.09
532.48	58288.70
532.65	58546.16
532.82	59257.68
532.99	60294.54
533.16	60423.27
533.33	61188.63
533.50	60989.68
533.67	60027.72
533.84	59880.27
534.01	60046.44
534.18	60203.26
534.35	60528.59
534.52	60254.75
534.69	60547.32
534.86	60802.44
535.03	61141.81
535.20	61588.86
535.37	61818.23
535.54	61872.06
535.71	61743.33
535.88	61200.33
536.05	60692.43
536.22	60399.86
536.38	59920.05
536.55	59714.09
536.72	59194.49
536.89	58969.80
537.06	59845.16
537.23	60732.22
537.40	60804.78
537.57	60931.17
537.74	60823.50
537.91	60690.09
538.08	60598.81
538.25	60652.64
538.42	60643.28
538.59	60540.30
538.75	59812.39
538.92	59716.43
539.09	59653.23
539.26	59557.27
539.43	59613.44
539.60	59405.14
539.77	59625.15
539.94	59339.60
540.11	58944.05
540.28	58218.49
540.44	58337.85
540.61	58621.06
540.78	58941.71
540.95	59222.58
541.12	59664.94
541.29	59992.61
541.46	60069.85
541.62	60140.07
541.79	59955.16
541.96	59643.87
542.13	59578.34
542.30	59824.09
542.47	59882.61
542.63	59774.94
542.80	59428.54
542.97	59559.61
543.14	59510.46
543.31	59604.08
543.48	59920.05
543.64	60650.30
543.81	61116.07
543.98	60823.50
544.15	60083.89
544.32	59751.54
544.48	59721.11
544.65	60074.53
544.82	60451.36
544.99	60079.21
545.16	59737.49
545.32	59669.62
545.49	60224.32
545.66	60727.54
545.83	60165.81
546.00	59910.69
546.16	59671.96
546.33	59884.95
546.50	59784.30
546.67	60336.67
546.83	60046.44
547.00	59758.56
547.17	59084.48
547.34	58876.18
547.50	58735.74
547.67	58990.86
547.84	59131.29
548.00	59599.40
548.17	59788.98
548.34	59838.14
548.51	59826.43
548.67	59910.69
548.84	60104.96
549.01	59725.79
549.18	59615.79
549.34	59655.57
549.51	59742.17
549.68	59863.88
549.84	59440.24
550.01	59379.39
550.18	59248.32
550.34	59309.18
550.51	59337.26
550.68	59416.84
550.84	59086.82
551.01	59063.42
551.18	59138.32
551.34	59100.87
551.51	59622.81
551.68	59793.67
551.84	60044.10
552.01	59800.69
552.18	59508.12
552.34	58621.06
552.51	58485.31
552.68	58511.05
552.84	59035.33
553.01	59068.10
553.18	58864.47
553.34	58969.80
553.51	59379.39
553.67	59650.89
553.84	59496.42
554.01	59358.33
554.17	59114.91
554.34	59274.07
554.51	59484.72
554.67	59976.23
554.84	59634.51
555.00	59311.52
555.17	59119.59
555.33	59014.27
555.50	59154.70
555.67	59171.08
555.83	58951.07
556.00	58628.08
556.16	58667.87
556.33	58372.96
556.50	58227.85
556.66	58382.32
556.83	58054.65
556.99	58253.59
557.16	58185.72
557.32	58377.64
557.49	58660.85
557.65	58527.44
557.82	58511.05
557.98	58628.08
558.15	58124.86
558.32	57249.50
558.48	56570.75
558.65	56690.12
558.81	56994.39
558.98	57296.31
559.14	57434.41
559.31	57710.59
559.47	57694.21
559.64	57284.61
559.80	57139.50
559.97	57176.95
560.13	57584.20
560.30	58412.75
560.46	58883.20
560.63	59044.69
560.79	59009.59
560.96	58599.99
561.12	57373.55
561.29	56849.27
561.45	56769.69
561.61	57560.79
561.78	57935.28
561.94	57722.29
562.11	57631.01
562.27	57591.22
562.44	57638.03
562.60	57937.62
562.77	58431.47
562.93	58279.34
563.10	57923.58
563.26	57455.47
563.42	57499.94
563.59	57537.39
563.75	57439.09
563.92	57401.64
564.08	57572.50
564.24	57715.27
564.41	57673.14
564.57	57577.18
564.74	57359.51
564.90	57052.90
565.07	57137.16
565.23	56601.18
565.39	56486.49
565.56	56027.74
565.72	55884.97
565.88	56322.65
566.05	56355.42
566.21	56640.96
566.38	56786.08
566.54	56886.72
566.70	57207.37
566.87	57207.37
567.03	57478.88
567.19	57652.08
567.36	57183.97
567.52	57188.65
567.68	57017.79
567.85	56266.48
568.01	56006.68
568.17	55725.81
568.34	55709.43
568.50	55522.19
568.66	55849.86
568.83	56163.50
568.99	56343.72
569.15	56388.19
569.32	56324.99
569.48	56060.51
569.64	55894.33
569.81	55498.78
569.97	55756.24
570.13	55480.06
570.30	54887.90
570.46	54670.23
570.62	54094.46
570.78	54347.24
570.95	54382.35
571.11	55112.59
571.27	55203.88
571.43	55627.51
571.60	55948.17
571.76	56039.45
571.92	56308.61
572.09	56327.33
572.25	56252.44
572.41	56214.99
572.57	56065.19
572.74	56128.39
572.90	55753.90
573.06	55662.62
573.22	55721.13
573.38	55650.92
573.55	55580.70
573.71	56025.40
573.87	55742.20
574.03	55585.38
574.20	55634.53
574.36	55334.95
574.52	55131.32
574.68	54787.26
574.84	54670.23
575.01	54356.60
575.17	54220.85
575.33	54518.10
575.49	54859.82
575.65	55011.95
575.82	54560.23
575.98	54300.43
576.14	54637.47
576.30	54831.73
576.46	54848.11
576.62	54873.86
576.79	54965.14
576.95	54618.74
577.11	54471.29
577.27	54946.42
577.43	54724.07
577.59	54457.24
577.75	53881.47
577.92	53291.66
578.08	53258.89
578.24	53593.59
578.40	53368.90
578.56	53656.78
578.72	53916.58
578.88	54073.40
579.04	54115.53
579.21	54113.19
579.37	54337.88
579.53	54138.93
579.69	54478.31
579.85	54604.70
580.01	54223.19
580.17	53799.55
580.33	53729.34
580.49	53904.88
580.65	54368.30
580.82	54265.32
580.98	54244.26
581.14	54333.20
581.30	54305.11
581.46	54340.22
581.62	54497.03
581.78	54312.13
581.94	54803.64
582.10	54518.10
582.26	54436.18
582.42	54433.84
582.58	54850.45
582.74	54506.40
582.90	54593.00
583.06	54803.64
583.22	54260.64
583.38	54277.02
583.54	54092.12
583.70	54372.99
583.86	54181.06
584.02	54099.14
584.18	53991.48
584.34	53949.35
584.50	53825.30
584.66	53811.26
584.82	53382.94
584.98	53553.80
585.14	53109.10
585.30	52432.68
