SpectraSuite Data File
++++++++++++++++++++++++++++++++++++
Date: Mon Oct 07 14:53:26 GMT-05:00 2013
User: price-jones
Dark Spectrum Present: No
Reference Spectrum Present: No
Number of Sampled Component Spectra: 1
Spectrometers: USB2+H05261
Integration Time (usec): 100000 (USB2+H05261)
Spectra Averaged: 1 (USB2+H05261)
Boxcar Smoothing: 0 (USB2+H05261)
Correct for Electrical Dark: No (USB2+H05261)
Strobe/Lamp Enabled: No (USB2+H05261)
Correct for Detector Non-linearity: No (USB2+H05261)
Correct for Stray Light: No (USB2+H05261)
Number of Pixels in Processed Spectrum: 2048
>>>>>Begin Processed Spectral Data<<<<<
365.73	0.00
365.92	0.00
366.12	0.00
366.32	0.00
366.52	0.00
366.72	0.00
366.91	0.00
367.11	0.00
367.31	0.00
367.51	0.00
367.70	0.00
367.90	0.00
368.10	0.00
368.30	0.00
368.49	0.00
368.69	0.00
368.89	0.00
369.09	0.00
369.28	0.00
369.48	0.00
369.68	0.00
369.87	0.00
370.07	0.00
370.27	0.00
370.47	463.43
370.66	2647.15
370.86	2963.12
371.06	3304.84
371.25	3403.14
371.45	3038.02
371.65	2738.43
371.84	2581.61
372.04	2820.35
372.24	3016.95
372.44	3220.58
372.63	3070.78
372.83	2946.73
373.03	2560.55
373.22	2399.05
373.42	2544.16
373.62	2808.64
373.81	3096.53
374.01	3178.45
374.21	2761.83
374.40	2693.96
374.60	2700.98
374.79	3101.21
374.99	3651.24
375.19	3838.48
375.38	3887.63
375.58	3632.51
375.78	3630.17
375.97	3616.13
376.17	3669.96
376.37	3761.24
376.56	3911.04
376.76	4105.30
376.95	4365.10
377.15	4826.18
377.35	4767.67
377.54	5057.90
377.74	5104.71
377.93	5195.99
378.13	5142.16
378.33	4774.69
378.52	4313.61
378.72	4285.52
378.91	4173.18
379.11	3927.42
379.31	3868.91
379.50	3948.48
379.70	4196.58
379.89	4606.17
380.09	4788.74
380.28	4959.60
380.48	5078.96
380.68	4968.96
380.87	4777.03
381.07	4383.82
381.26	4135.73
381.46	3901.67
381.65	3796.35
381.85	3667.62
382.04	3473.36
382.24	3236.96
382.43	3150.36
382.63	2963.12
382.83	3077.80
383.02	2974.82
383.22	3162.06
383.41	3108.23
383.61	3239.30
383.80	3751.88
384.00	4311.27
384.19	4819.16
384.39	4966.62
384.58	4858.95
384.78	4823.84
384.97	4901.08
385.17	4561.70
385.36	4493.83
385.56	4205.94
385.75	4344.03
385.95	4753.63
386.14	5172.58
386.34	5186.63
386.53	4933.85
386.72	4620.22
386.92	4777.03
387.11	4856.61
387.31	5167.90
387.50	5142.16
387.70	4980.66
387.89	4877.68
388.09	4816.82
388.28	4952.57
388.48	4945.55
388.67	5263.86
388.86	6087.73
389.06	6368.60
389.25	6612.01
389.45	6789.89
389.64	6743.08
389.84	6476.26
390.03	6513.71
390.22	6546.48
390.42	6677.55
390.61	7208.85
390.81	7538.87
391.00	7735.47
391.19	7861.86
391.39	7555.25
391.58	7016.93
391.78	6677.55
391.97	6277.32
392.16	6045.60
392.36	5582.18
392.55	4271.48
392.75	3358.67
392.94	2832.05
393.13	2834.39
393.33	3342.28
393.52	4276.16
393.71	5146.84
393.91	6090.07
394.10	6480.94
394.29	7091.82
394.49	7452.27
394.68	8182.51
394.88	8109.96
395.07	8547.64
395.26	8262.09
395.46	8086.55
395.65	7686.32
395.84	6740.74
396.04	5764.74
396.23	4559.36
396.42	3801.03
396.62	3595.06
396.81	4297.22
397.00	5455.79
397.19	6970.12
397.39	8257.41
397.58	9320.01
397.77	9830.25
397.97	10045.58
398.16	10389.64
398.35	10487.94
398.55	10897.53
398.74	11419.47
398.93	11653.53
399.12	11576.29
399.32	10853.06
399.51	11225.21
399.70	12126.32
399.90	11866.52
400.09	11840.77
400.28	11726.08
400.47	11903.96
400.67	12627.19
400.86	12737.20
401.05	12704.43
401.24	12697.41
401.44	13254.45
401.63	13046.15
401.82	13118.70
402.01	13043.81
402.21	13310.63
402.40	13455.74
402.59	13027.42
402.78	12346.33
402.97	11875.88
403.17	12613.15
403.36	13331.69
403.55	13750.65
403.74	14061.94
403.93	13364.46
404.13	12393.14
404.32	11885.24
404.51	12554.63
404.70	13748.31
404.89	13593.83
405.09	13600.85
405.28	12985.29
405.47	12929.12
405.66	12784.01
405.85	12276.11
406.05	12372.07
406.24	12313.56
406.43	13041.46
406.62	13312.97
406.81	13668.73
407.00	12952.52
407.20	12666.98
407.39	12980.61
407.58	13532.98
407.77	14101.73
407.96	14438.76
408.15	14513.66
408.34	14621.33
408.54	15337.53
408.73	15583.29
408.92	15225.18
409.11	14829.63
409.30	13851.29
409.49	13008.70
409.68	12416.54
409.87	11981.20
410.07	12681.02
410.26	13781.07
410.45	14654.09
410.64	15026.24
410.83	15367.96
411.02	15658.18
411.21	16334.60
411.40	16112.25
411.59	16063.10
411.78	16205.87
411.98	15971.82
412.17	16336.94
412.36	16025.65
412.55	16009.26
412.74	15328.17
412.93	15260.29
413.12	15543.50
413.31	16908.03
413.50	17233.36
413.69	17294.22
413.88	16589.72
414.07	16329.92
414.26	16360.34
414.45	17181.87
414.64	17078.89
414.83	17116.34
415.02	16685.68
415.22	16643.55
415.41	17109.32
415.60	17891.06
415.79	18415.34
415.98	18951.32
416.17	18817.91
416.36	18366.18
416.55	18029.15
416.74	17401.88
416.93	16812.07
417.12	16865.90
417.31	17149.11
417.50	17369.12
417.69	18026.81
417.88	17916.80
418.07	17647.64
418.26	17565.72
418.45	17544.66
418.64	18515.98
418.83	18906.85
419.02	18654.07
419.21	18366.18
419.39	18026.81
419.58	16657.59
419.77	16950.16
419.96	17724.88
420.15	18590.88
420.34	19484.96
420.53	19941.36
420.72	20231.59
420.91	19864.13
421.10	19613.69
421.29	19950.73
421.48	19012.17
421.67	19786.89
421.86	19211.12
422.05	18260.86
422.24	16294.81
422.43	16149.70
422.61	17460.40
422.80	19049.62
422.99	19407.72
423.18	18485.55
423.37	18211.71
423.56	18249.16
423.75	18607.26
423.94	18885.78
424.13	17813.82
424.32	18132.13
424.50	18115.75
424.69	17991.70
424.88	17975.31
425.07	17951.91
425.26	17921.48
425.45	17624.23
425.64	17261.45
425.83	17429.97
426.01	18436.40
426.20	18665.77
426.39	18822.59
426.58	17392.52
426.77	16269.06
426.96	15777.55
427.15	15807.98
427.33	17345.71
427.52	18003.40
427.71	18342.78
427.90	17998.72
428.09	17949.57
428.28	17528.27
428.46	17015.69
428.65	16428.22
428.84	17008.67
429.03	17296.56
429.22	16388.43
429.40	15719.04
429.59	13965.98
429.78	12407.18
429.97	12514.84
430.16	12585.06
430.34	12683.36
430.53	12477.40
430.72	12901.03
430.91	14450.47
431.10	16671.64
431.28	19501.34
431.47	21504.84
431.66	21940.18
431.85	19805.61
432.03	18314.69
432.22	17085.91
432.41	17722.54
432.60	19924.98
432.79	20896.30
432.97	21312.92
433.16	20910.35
433.35	19290.70
433.54	17350.39
433.72	16051.39
433.91	16489.07
434.10	18675.13
434.28	19999.88
434.47	20952.48
434.66	20692.68
434.85	19950.73
435.03	19976.47
435.22	20496.07
435.41	22052.53
435.59	21631.23
435.78	21757.62
435.97	22361.48
436.16	22726.60
436.34	22277.22
436.53	21549.31
436.72	22024.44
436.90	20844.81
437.09	20645.87
437.28	20521.82
437.46	21191.21
437.65	21252.06
437.84	19442.83
438.02	18171.92
438.21	17703.81
438.40	18991.11
438.58	20425.86
438.77	20868.22
438.96	21207.59
439.14	22192.96
439.33	22611.92
439.52	23119.81
439.70	22567.45
439.89	22078.27
440.08	21282.49
440.26	21490.80
440.45	22204.66
440.63	23548.13
440.82	24732.44
441.01	24430.51
441.19	24320.51
441.38	24456.26
441.57	25490.77
441.75	25905.05
441.94	26246.77
442.12	25383.11
442.31	26185.91
442.50	25874.62
442.68	25699.08
442.87	25238.00
443.05	24788.61
443.24	25380.77
443.43	26106.34
443.61	26651.68
443.80	27154.90
443.98	25551.63
444.17	25120.97
444.35	26895.10
444.54	27494.27
444.73	26764.03
444.91	25619.50
445.10	25036.71
445.28	24074.75
445.47	23566.85
445.65	23655.79
445.84	24229.23
446.02	25207.57
446.21	25446.30
446.39	25348.00
446.58	25905.05
446.77	26103.99
446.95	26548.70
447.14	27164.26
447.32	27995.15
447.51	26962.97
447.69	26078.25
447.88	25619.50
448.06	26375.50
448.25	26611.89
448.43	27007.44
448.62	26321.66
448.80	26225.70
448.99	26340.39
449.17	26534.65
449.36	26923.18
449.54	27658.11
449.73	27903.87
449.91	28126.22
450.10	29102.22
450.28	29324.57
450.46	29493.09
450.65	29453.30
450.83	28847.10
451.02	28690.29
451.20	28325.16
451.39	28210.48
451.57	28306.44
451.76	28091.11
451.94	28198.77
452.13	27309.37
452.31	26054.84
452.49	25172.46
452.68	25366.73
452.86	25378.43
453.05	26036.12
453.23	26867.01
453.42	27000.42
453.60	27637.05
453.78	28219.84
453.97	27709.60
454.15	27789.18
454.34	26939.57
454.52	27681.52
454.70	26705.51
454.89	26939.57
455.07	27311.71
455.26	27346.82
455.44	28723.05
455.62	29125.63
455.81	29043.71
455.99	29106.90
456.17	28746.46
456.36	28940.72
456.54	29752.89
456.73	29446.28
456.91	30174.19
457.09	30298.23
457.28	30810.81
457.46	29687.36
457.64	29350.32
457.83	28180.05
458.01	27835.99
458.19	28587.30
458.38	28793.27
458.56	29593.73
458.74	29558.63
458.93	29188.82
459.11	28896.25
459.29	28758.16
459.48	29095.20
459.66	28357.93
459.84	29041.37
460.03	29577.35
460.21	29514.16
460.39	30321.64
460.57	30115.67
460.76	30665.70
460.94	30656.34
461.12	30106.31
461.31	30260.79
461.49	29928.43
461.67	29993.97
461.85	31257.85
462.04	30827.20
462.22	31732.98
462.40	31241.47
462.59	31325.73
462.77	30967.63
462.95	31105.72
463.13	30359.09
463.32	30429.30
463.50	30150.78
463.68	30632.93
463.86	30345.05
464.05	30045.46
464.23	29528.20
464.41	28599.01
464.59	28940.72
464.78	30045.46
464.96	30099.29
465.14	29490.75
465.32	30506.54
465.50	30714.85
465.69	31501.27
465.87	30745.28
466.05	29937.79
466.23	28395.38
466.41	28070.04
466.60	28884.55
466.78	28882.21
466.96	29280.10
467.14	29762.25
467.32	30436.33
467.51	30256.11
467.69	28835.40
467.87	29376.06
468.05	30059.50
468.23	29928.43
468.41	30068.86
468.60	30202.27
468.78	30581.44
468.96	30160.14
469.14	30436.33
469.32	30761.66
469.50	29558.63
469.69	29607.78
469.87	29301.17
470.05	29195.84
470.23	28814.34
470.41	29207.55
470.59	29752.89
470.77	29523.52
470.95	30412.92
471.14	30785.07
471.32	30782.73
471.50	32830.69
471.68	32203.43
471.86	32987.51
472.04	33244.97
472.22	33193.48
472.40	31353.82
472.58	31122.10
472.77	30698.47
472.95	31318.71
473.13	32196.41
473.31	31686.17
473.49	31463.82
473.67	32275.99
473.85	32367.27
474.03	33270.72
474.21	33214.54
474.39	33406.47
474.57	34057.14
474.75	34185.86
474.93	33600.73
475.12	32893.89
475.30	32645.79
475.48	33184.12
475.66	33624.14
475.84	32807.29
476.02	33240.29
476.20	32498.34
476.38	32898.57
476.56	33977.56
476.74	34260.76
476.92	34380.13
477.10	35091.65
477.28	36329.80
477.46	36144.89
477.64	36287.67
477.82	36432.78
478.00	36470.23
478.18	36116.81
478.36	35658.06
478.54	36219.79
478.72	36037.23
478.90	36940.68
479.08	37886.25
479.26	38506.49
479.44	38181.16
479.62	38291.16
479.80	38000.94
479.98	38202.22
480.16	38672.67
480.34	38401.17
480.52	38726.50
480.70	38756.93
480.88	38906.73
481.06	39732.93
481.24	39817.19
481.41	40781.49
481.59	41067.04
481.77	40935.97
481.95	39966.99
482.13	40465.52
482.31	40294.66
482.49	41331.52
482.67	41027.25
482.85	41296.41
483.03	42073.47
483.21	42220.92
483.39	41839.42
483.57	41443.87
483.74	40807.24
483.92	41141.94
484.10	41928.36
484.28	42443.27
484.46	43016.71
484.64	43093.94
484.82	42560.30
485.00	42108.58
485.18	41226.20
485.35	40161.25
485.53	36952.38
485.71	34022.03
485.89	32931.34
486.07	35241.45
486.25	37844.12
486.43	39821.87
486.61	40844.69
486.78	40664.47
486.96	41038.95
487.14	42506.47
487.32	43428.64
487.50	44769.77
487.68	45464.91
487.85	46349.63
488.03	46068.76
488.21	45663.85
488.39	44844.66
488.57	44259.53
488.75	43665.03
488.92	45345.54
489.10	47681.39
489.28	48816.55
489.46	50108.53
489.64	49703.62
489.81	49949.37
489.99	49406.37
490.17	49577.23
490.35	49649.78
490.53	49226.15
490.70	48914.86
490.88	48898.47
491.06	49586.59
491.24	49975.12
491.41	48697.19
491.59	47063.49
491.77	45656.83
491.95	46742.84
492.13	48488.88
492.30	50054.70
492.48	50904.31
492.66	51819.46
492.84	51363.06
493.01	51419.23
493.19	50684.30
493.37	50155.34
493.54	49804.26
493.72	50747.50
493.90	52058.20
494.08	52603.54
494.25	52863.34
494.43	53125.48
494.61	53511.67
494.79	53748.06
494.96	53308.04
495.14	52645.67
495.32	51906.06
495.49	50967.51
495.67	52142.45
495.85	53844.02
496.02	54330.86
496.20	54246.60
496.38	53544.44
496.55	53609.97
496.73	53542.10
496.91	53961.05
497.09	54738.11
497.26	55096.21
497.44	54347.24
497.62	53785.51
497.79	52914.83
497.97	51531.57
498.14	51901.38
498.32	52800.15
498.50	53949.35
498.67	54410.43
498.85	54244.26
499.03	54681.94
499.20	54548.53
499.38	54663.21
499.56	54518.10
499.73	54157.66
499.91	53612.31
500.08	53350.17
500.26	52329.70
500.44	52940.58
500.61	53745.72
500.79	53719.98
500.97	53031.86
501.14	52870.36
501.32	52783.76
501.49	52561.41
501.67	53038.88
501.84	53631.04
502.02	53640.40
502.20	54351.92
502.37	54185.74
502.55	54466.61
502.72	54946.42
502.90	55660.28
503.07	55049.40
503.25	54810.67
503.43	53911.90
503.60	53181.65
503.78	52229.05
503.95	52877.38
504.13	54305.11
504.30	55344.31
504.48	55264.73
504.65	54766.20
504.83	54934.71
505.01	55332.60
505.18	55688.37
505.36	56413.93
505.53	56603.52
505.71	56664.37
505.88	56786.08
506.06	56189.24
506.23	55463.67
506.41	55187.49
506.58	55681.34
506.76	55566.66
506.93	55547.93
507.11	55100.89
507.28	55262.39
507.46	54791.94
507.63	54141.27
507.81	54211.49
507.98	54279.36
508.16	55023.65
508.33	55753.90
508.50	56214.99
508.68	56320.31
508.85	56662.03
509.03	56640.96
509.20	56596.49
509.38	55786.67
509.55	54953.44
509.73	55203.88
509.90	55927.10
510.08	56114.34
510.25	55899.01
510.42	55753.90
510.60	55798.37
510.77	55870.93
510.95	56266.48
511.12	56750.97
511.30	56952.26
511.47	57078.64
511.64	57207.37
511.82	57116.09
511.99	56147.11
512.17	55641.56
512.34	54948.76
512.51	55295.16
512.69	55454.31
512.86	55781.99
513.04	56287.54
513.21	56107.32
513.38	55774.97
513.56	55288.13
513.73	54532.14
513.90	54712.36
514.08	54969.82
514.25	55161.75
514.43	55264.73
514.60	55419.20
514.77	55913.06
514.95	55784.33
515.12	55693.05
515.29	55957.53
515.47	56224.35
515.64	56500.53
515.81	56088.60
515.99	55566.66
516.16	53986.80
516.33	51578.39
516.51	49827.66
516.68	49001.46
516.85	47983.32
517.03	48968.69
517.20	52147.14
517.37	54656.19
517.54	55758.58
517.72	55351.33
517.89	52643.33
518.06	50092.15
518.24	50253.64
518.41	52622.26
518.58	54075.74
518.75	54480.65
518.93	54375.33
519.10	54522.78
519.27	55182.81
519.45	55341.97
519.62	56219.67
519.79	56385.85
519.96	56034.77
520.14	55671.98
520.31	54686.62
520.48	54609.38
520.65	55173.45
520.83	56257.12
521.00	56498.19
521.17	56226.69
521.34	55842.84
521.52	56013.70
521.69	56643.30
521.86	57130.14
522.03	56666.71
522.20	55524.53
522.38	54218.51
522.55	54284.04
522.72	55058.76
522.89	55243.66
523.07	55360.69
523.24	56121.37
523.41	56664.37
523.58	57001.41
523.75	57476.54
523.92	57282.27
524.10	57176.95
524.27	57132.48
524.44	57050.56
524.61	56662.03
524.78	56495.85
524.96	56666.71
525.13	56420.95
525.30	56776.72
525.47	57263.55
525.64	57169.93
525.81	56430.32
525.98	54923.01
526.16	53427.41
526.33	52488.85
526.50	52533.32
526.67	51646.26
526.84	52671.42
527.01	53804.24
527.18	54731.09
527.36	55384.10
527.53	56596.49
527.70	56643.30
527.87	56343.72
528.04	55786.67
528.21	56135.41
528.38	56807.14
528.55	57303.34
528.72	57705.91
528.89	57846.34
529.07	57495.26
529.24	56825.87
529.41	56236.05
529.58	55538.57
529.75	55669.64
529.92	56222.01
530.09	56673.73
530.26	57345.47
530.43	57408.66
530.60	57521.01
530.77	57621.65
530.94	57860.38
531.11	57371.21
531.28	56655.01
531.46	56818.84
531.63	56978.00
531.80	56690.12
531.97	56353.08
532.14	55571.34
532.31	54370.64
532.48	53928.28
532.65	53818.28
532.82	54681.94
532.99	55866.25
533.16	56341.38
533.33	56851.61
533.50	56580.11
533.67	55828.80
533.84	55447.29
534.01	55896.67
534.18	55908.38
534.35	56322.65
534.52	56207.97
534.69	56371.80
534.86	56573.09
535.03	56886.72
535.20	57006.09
535.37	57595.90
535.54	57642.71
535.71	57586.54
535.88	56996.73
536.05	56381.16
536.22	55903.70
536.38	55669.64
536.55	55040.04
536.72	54639.81
536.89	54480.65
537.06	55414.52
537.23	56474.79
537.40	56605.86
537.57	56472.45
537.74	56404.57
537.91	56273.50
538.08	56322.65
538.25	56385.85
538.42	56451.38
538.59	56299.25
538.75	55709.43
538.92	55416.86
539.09	55278.77
539.26	55033.02
539.43	54892.58
539.60	54915.99
539.77	55236.64
539.94	54913.65
540.11	54094.46
540.28	53680.19
540.44	53741.04
540.61	54241.92
540.78	54445.54
540.95	54873.86
541.12	55166.43
541.29	55210.90
541.46	55877.95
541.62	55814.76
541.79	55800.71
541.96	54759.17
542.13	54974.50
542.30	55320.90
542.47	55501.12
542.63	55395.80
542.80	55126.64
542.97	55400.48
543.14	55105.57
543.31	54976.84
543.48	55428.57
543.64	56217.33
543.81	56509.89
543.98	56605.86
544.15	55765.60
544.32	55178.13
544.48	55229.62
544.65	55753.90
544.82	56025.40
544.99	55936.46
545.16	55316.22
545.32	55082.17
545.49	55800.71
545.66	56212.65
545.83	56130.73
546.00	55531.55
546.16	55229.62
546.33	55512.83
546.50	55236.64
546.67	55805.39
546.83	55304.52
547.00	55068.12
547.17	54492.35
547.34	54120.21
547.50	53846.36
547.67	54710.02
547.84	54358.94
548.00	54857.48
548.17	55393.46
548.34	55147.70
548.51	55098.55
548.67	55309.20
548.84	55356.01
549.01	55276.43
549.18	55168.77
549.34	55077.49
549.51	55107.91
549.68	55138.34
549.84	54787.26
550.01	54742.79
550.18	54431.50
550.34	54726.41
550.51	54719.38
550.68	54920.67
550.84	54475.97
551.01	54372.99
551.18	54482.99
551.34	54621.08
551.51	54686.62
551.68	55238.98
551.84	55189.83
552.01	54944.08
552.18	55096.21
552.34	54167.02
552.51	53523.37
552.68	53504.65
552.84	54536.82
553.01	54284.04
553.18	54312.13
553.34	54356.60
553.51	54534.48
553.67	54955.78
553.84	54913.65
554.01	54883.22
554.17	54585.97
554.34	54707.68
554.51	54946.42
554.67	55360.69
554.84	54878.54
555.00	54789.60
555.17	54377.67
555.33	54433.84
555.50	54384.69
555.67	54281.70
555.83	54300.43
556.00	53853.39
556.16	53848.71
556.33	53415.71
556.50	53387.62
556.66	53329.11
556.83	52830.57
556.99	53272.93
557.16	53375.92
557.32	53874.45
557.49	53776.15
557.65	53680.19
557.82	53558.48
557.98	53319.74
558.15	53324.43
558.32	52130.75
558.48	50969.85
558.65	51505.83
558.81	52332.04
558.98	52336.72
559.14	52067.56
559.31	52378.85
559.47	52540.35
559.64	52196.29
559.80	51913.08
559.97	51838.18
560.13	52334.38
560.30	53488.26
560.46	54113.19
560.63	53918.92
560.79	54124.89
560.96	53815.94
561.12	52549.71
561.29	51606.47
561.45	51426.25
561.61	52360.12
561.78	52781.42
561.94	52378.85
562.11	52402.25
562.27	52257.14
562.44	52690.14
562.60	53006.11
562.77	53127.82
562.93	53233.14
563.10	52722.91
563.26	52296.93
563.42	52432.68
563.59	52147.14
563.75	52383.53
563.92	52233.74
564.08	52346.08
564.24	52619.92
564.41	52622.26
564.57	52336.72
564.74	52327.36
564.90	51810.10
565.07	51751.59
565.23	51660.30
565.39	51004.95
565.56	50588.34
565.72	50293.43
565.88	50663.24
566.05	51096.24
566.21	51260.07
566.38	51526.89
566.54	51435.61
566.70	51664.99
566.87	52294.59
567.03	52238.42
567.19	52210.33
567.36	52100.32
567.52	51913.08
567.68	51395.82
567.85	50843.46
568.01	50218.53
568.17	49982.14
568.34	50260.66
568.50	49745.75
568.66	50323.86
568.83	50808.35
568.99	50497.06
569.15	50815.37
569.32	50541.53
569.48	50653.87
569.64	50155.34
569.81	50017.25
569.97	49708.30
570.13	49729.36
570.30	49083.37
570.46	48924.22
570.62	48109.71
570.78	47833.53
570.95	48203.33
571.11	49221.47
571.27	49698.94
571.43	49635.74
571.60	49720.00
571.76	50246.62
571.92	50789.62
572.09	50843.46
572.25	50719.41
572.41	50681.96
572.57	50527.48
572.74	50550.89
572.90	49710.64
573.06	49612.34
573.22	49975.12
573.38	49888.52
573.55	50138.96
573.71	50087.46
573.87	49759.79
574.03	49792.56
574.20	50117.89
574.36	49460.20
574.52	49158.27
574.68	48942.94
574.84	48421.00
575.01	48383.55
575.17	48123.75
575.33	48191.63
575.49	48746.34
575.65	49064.65
575.82	48559.09
575.98	48193.97
576.14	48236.10
576.30	49076.35
576.46	48486.54
576.62	48907.83
576.79	48697.19
576.95	48678.46
577.11	48463.13
577.27	48493.56
577.43	48751.02
577.59	48170.57
577.75	47707.14
577.92	47229.67
578.08	46623.47
578.24	46834.12
578.40	46642.20
578.56	47487.13
578.72	47639.26
578.88	47901.40
579.04	47941.19
579.21	48233.76
579.37	47943.53
579.53	48472.49
579.69	48023.11
579.85	48320.36
580.01	48320.36
580.17	47522.24
580.33	47707.14
580.49	47454.36
580.65	47943.53
580.82	48069.92
580.98	47840.55
581.14	48034.81
581.30	48289.93
581.46	47466.06
581.62	47847.57
581.78	48177.59
581.94	48175.25
582.10	48397.60
582.26	48369.51
582.42	48257.17
582.58	48088.65
582.74	48463.13
582.90	48186.95
583.06	48376.53
583.22	47945.87
583.38	47915.45
583.54	47760.97
583.70	47859.27
583.86	47856.93
584.02	47756.29
584.18	47620.54
584.34	47643.94
584.50	47243.71
584.66	47452.02
584.82	47103.28
584.98	47112.64
585.14	46440.91
585.30	45830.03
