SpectraSuite Data File
++++++++++++++++++++++++++++++++++++
Date: Mon Oct 07 14:53:31 GMT-05:00 2013
User: price-jones
Dark Spectrum Present: No
Reference Spectrum Present: No
Number of Sampled Component Spectra: 1
Spectrometers: USB2+H05261
Integration Time (usec): 100000 (USB2+H05261)
Spectra Averaged: 1 (USB2+H05261)
Boxcar Smoothing: 0 (USB2+H05261)
Correct for Electrical Dark: No (USB2+H05261)
Strobe/Lamp Enabled: No (USB2+H05261)
Correct for Detector Non-linearity: No (USB2+H05261)
Correct for Stray Light: No (USB2+H05261)
Number of Pixels in Processed Spectrum: 2048
>>>>>Begin Processed Spectral Data<<<<<
365.73	0.00
365.92	0.00
366.12	0.00
366.32	0.00
366.52	0.00
366.72	0.00
366.91	0.00
367.11	0.00
367.31	0.00
367.51	0.00
367.70	0.00
367.90	0.00
368.10	0.00
368.30	0.00
368.49	0.00
368.69	0.00
368.89	0.00
369.09	0.00
369.28	0.00
369.48	0.00
369.68	0.00
369.87	0.00
370.07	0.00
370.27	0.00
370.47	500.87
370.66	3012.27
370.86	3489.74
371.06	3871.25
371.25	3988.27
371.45	3496.76
371.65	3108.23
371.84	2867.16
372.04	3115.25
372.24	3428.88
372.44	3707.41
372.63	3648.90
372.83	3295.47
373.03	3023.97
373.22	2654.17
373.42	3028.65
373.62	3192.49
373.81	3548.25
374.01	3538.89
374.21	3171.43
374.40	2953.76
374.60	3253.34
374.79	3466.33
374.99	4091.26
375.19	4482.13
375.38	4573.41
375.58	4124.02
375.78	4100.62
375.97	4180.20
376.17	4327.65
376.37	4365.10
376.56	4505.53
376.76	4844.91
376.95	4990.02
377.15	5458.13
377.35	5612.60
377.54	5806.87
377.74	6078.37
377.93	5937.94
378.13	5851.34
378.33	5453.45
378.52	5078.96
378.72	4912.78
378.91	4901.08
379.11	4753.63
379.31	4521.92
379.50	4498.51
379.70	4884.70
379.89	5404.30
380.09	5659.42
380.28	5937.94
380.48	5783.46
380.68	5708.57
380.87	5696.86
381.07	5320.04
381.26	4802.78
381.46	4507.87
381.65	4292.54
381.85	4322.97
382.04	4119.34
382.24	3772.94
382.43	3691.02
382.63	3466.33
382.83	3405.48
383.02	3487.40
383.22	3515.48
383.41	3524.85
383.61	3716.77
383.80	4442.34
384.00	4943.21
384.19	5612.60
384.39	5757.72
384.58	5790.49
384.78	5682.82
384.97	5685.16
385.17	5327.06
385.36	5078.96
385.56	4973.64
385.75	5036.83
385.95	5544.73
386.14	5926.24
386.34	5888.79
386.53	5874.74
386.72	5432.38
386.92	5439.40
387.11	5729.63
387.31	6057.31
387.50	5832.62
387.70	5806.87
387.89	5575.16
388.09	5612.60
388.28	5738.99
388.48	5696.86
388.67	6118.16
388.86	6902.24
389.06	7300.13
389.25	7995.27
389.45	7721.43
389.64	7604.40
389.84	7463.97
390.03	7576.31
390.22	7583.34
390.42	7815.05
390.61	8594.45
390.81	8901.06
391.00	9245.12
391.19	9085.96
391.39	8746.58
391.58	8163.79
391.78	7789.30
391.97	7396.09
392.16	6937.35
392.36	6265.61
392.55	5029.81
392.75	4058.49
392.94	3293.13
393.13	3176.11
393.33	3981.25
393.52	4786.40
393.71	6064.33
393.91	6909.26
394.10	7337.58
394.29	8163.79
394.49	8894.04
394.68	9437.04
394.88	9605.56
395.07	9830.25
395.26	9797.48
395.46	9528.32
395.65	9060.21
395.84	7953.14
396.04	6541.80
396.23	5514.30
396.42	4545.32
396.62	4318.29
396.81	4971.30
397.00	6373.28
397.19	8135.70
397.39	9579.81
397.58	10771.15
397.77	11506.07
397.97	11859.49
398.16	11953.12
398.35	12418.88
398.55	12411.86
398.74	13139.77
398.93	13268.50
399.12	13149.13
399.32	12564.00
399.51	13041.46
399.70	13905.12
399.90	13757.67
400.09	13975.34
400.28	13518.93
400.47	13907.46
400.67	14452.81
400.86	14993.47
401.05	14934.96
401.24	14967.73
401.44	15276.68
401.63	14995.81
401.82	15534.14
402.01	15311.78
402.21	15372.64
402.40	15777.55
402.59	15176.03
402.78	14551.11
402.97	14038.53
403.17	14492.60
403.36	15342.21
403.55	16084.16
403.74	16650.57
403.93	15569.24
404.13	14590.90
404.32	14019.81
404.51	14663.46
404.70	16182.46
404.89	15625.42
405.09	15555.20
405.28	14939.64
405.47	15026.24
405.66	15267.31
405.85	14740.69
406.05	14305.35
406.24	14420.04
406.43	15272.00
406.62	15735.42
406.81	16035.01
407.00	15166.67
407.20	14927.94
407.39	15215.82
407.58	15580.95
407.77	16252.68
407.96	16901.01
408.15	16819.09
408.34	17097.61
408.54	17867.65
408.73	18078.30
408.92	17542.32
409.11	17001.65
409.30	16458.65
409.49	15484.98
409.68	14331.10
409.87	14122.79
410.07	14869.42
410.26	15997.56
410.45	17289.54
410.64	17294.22
410.83	17989.36
411.02	18471.51
411.21	19197.07
411.40	18761.73
411.59	18930.25
411.78	18785.14
411.98	18478.53
412.17	18930.25
412.36	18469.17
412.55	18525.34
412.74	18321.71
412.93	17621.89
413.12	18064.25
413.31	19784.55
413.50	19438.15
413.69	20231.59
413.88	19304.74
414.07	18745.35
414.26	19157.28
414.45	19775.19
414.64	19527.09
414.83	20152.01
415.02	19824.34
415.22	19641.78
415.41	20205.84
415.60	20669.27
415.79	21537.61
415.98	21944.86
416.17	21774.00
416.36	21483.78
416.55	21078.86
416.74	20460.96
416.93	19962.43
417.12	19552.84
417.31	19805.61
417.50	20381.38
417.69	20762.89
417.88	20730.12
418.07	20842.47
418.26	20458.62
418.45	20507.77
418.64	21537.61
418.83	22073.59
419.02	21940.18
419.21	21661.66
419.39	20702.04
419.58	19852.42
419.77	19709.65
419.96	20411.81
420.15	21254.40
420.34	21944.86
420.53	23084.70
420.72	23335.14
420.91	23208.75
421.10	23037.89
421.29	23171.30
421.48	22244.45
421.67	23117.47
421.86	22754.69
422.05	21046.10
422.24	18932.59
422.43	18342.78
422.61	20622.46
422.80	22422.33
422.99	22478.50
423.18	21539.95
423.37	21156.10
423.56	21074.18
423.75	21673.36
423.94	22054.87
424.13	20350.96
424.32	21348.03
424.50	21422.92
424.69	20734.81
424.88	20896.30
425.07	20840.13
425.26	20676.29
425.45	20458.62
425.64	20404.79
425.83	20346.28
426.01	21591.44
426.20	21762.30
426.39	21961.25
426.58	20428.20
426.77	18614.28
426.96	18106.38
427.15	18789.82
427.33	20159.03
427.52	21219.30
427.71	21081.21
427.90	20985.24
428.09	20840.13
428.28	20526.50
428.46	19681.56
428.65	19473.26
428.84	19548.15
429.03	20250.32
429.22	19133.88
429.40	18127.45
429.59	16570.99
429.78	14518.34
429.97	14492.60
430.16	14724.31
430.34	14677.50
430.53	14815.59
430.72	15171.35
430.91	16622.48
431.10	19381.98
431.28	22972.36
431.47	24957.13
431.66	25392.47
431.85	22965.34
432.03	20959.50
432.22	20233.93
432.41	21034.39
432.60	23543.45
432.79	24318.17
432.97	24725.42
433.16	24133.26
433.35	22211.68
433.54	19983.49
433.72	18815.57
433.91	19227.50
434.10	21694.43
434.28	23037.89
434.47	24582.65
434.66	24278.38
434.85	23199.39
435.03	22963.00
435.22	23896.87
435.41	25207.57
435.59	25502.48
435.78	25336.30
435.97	26108.68
436.16	26639.98
436.34	26258.47
436.53	25766.96
436.72	25656.95
436.90	23934.32
437.09	23660.48
437.28	23594.94
437.46	24699.67
437.65	24318.17
437.84	23014.49
438.02	20994.61
438.21	20706.72
438.40	21860.60
438.58	24041.98
438.77	24793.29
438.96	24617.75
439.14	25848.88
439.33	26361.45
439.52	26955.95
439.70	26052.50
439.89	25460.35
440.08	25003.94
440.26	24762.87
440.45	25385.45
440.63	27103.40
440.82	28371.97
441.01	28489.00
441.19	28074.73
441.38	28844.76
441.57	29408.83
441.75	30153.12
441.94	30293.55
442.12	29886.30
442.31	30654.00
442.50	30235.04
442.68	30157.80
442.87	29647.57
443.05	29460.32
443.24	29319.89
443.43	30480.80
443.61	30986.35
443.80	31515.31
443.98	29373.72
444.17	29170.10
444.35	31349.14
444.54	31842.99
444.73	30845.92
444.91	29975.24
445.10	28573.26
445.28	27878.12
445.47	27164.26
445.65	27929.61
445.84	28517.09
446.02	29174.78
446.21	29860.55
446.39	29322.23
446.58	29954.18
446.77	30307.60
446.95	31098.70
447.14	31800.86
447.32	32325.14
447.51	31571.49
447.69	30146.10
447.88	29900.34
448.06	30345.05
448.25	31063.59
448.43	31522.34
448.62	30536.97
448.80	30686.76
448.99	30579.10
449.17	31070.61
449.36	30862.30
449.54	32187.05
449.73	32540.47
449.91	33376.04
450.10	33916.70
450.28	34361.40
450.46	34019.69
450.65	34064.16
450.83	33750.52
451.02	33069.43
451.20	33034.32
451.39	33216.88
451.57	32826.01
451.76	33144.33
451.94	32498.34
452.13	31906.18
452.31	30630.59
452.49	29462.66
452.68	29806.72
452.86	29420.53
453.05	30059.50
453.23	31019.12
453.42	31627.66
453.60	32016.19
453.78	32943.04
453.97	32350.88
454.15	32208.11
454.34	31669.79
454.52	31887.46
454.70	31072.95
454.89	31800.86
455.07	31641.70
455.26	32318.12
455.44	33563.28
455.62	34078.20
455.81	34120.33
455.99	33926.07
456.17	33230.93
456.36	33130.28
456.54	34588.44
456.73	34195.23
456.91	34782.70
457.09	35337.41
457.28	35985.74
457.46	34115.65
457.64	33968.19
457.83	32945.38
458.01	32421.10
458.19	33039.00
458.38	33310.50
458.56	34462.05
458.74	34567.37
458.93	33832.44
459.11	34185.86
459.29	33394.76
459.48	33895.64
459.66	33074.11
459.84	33607.75
460.03	34824.83
460.21	34326.30
460.39	35117.40
460.57	35220.38
460.76	35538.69
460.94	35945.95
461.12	35243.79
461.31	35246.13
461.49	35243.79
461.67	34934.84
461.85	35938.93
462.04	36039.57
462.22	36573.21
462.40	36425.76
462.59	35669.76
462.77	36142.55
462.95	35772.75
463.13	35828.92
463.32	35541.03
463.50	35173.57
463.68	35077.61
463.86	34991.01
464.05	34586.10
464.23	34038.41
464.41	33947.13
464.59	32952.40
464.78	35299.96
464.96	35131.44
465.14	34398.85
465.32	35138.46
465.50	36348.52
465.69	36437.46
465.87	36058.29
466.05	34721.85
466.23	33579.67
466.41	32477.27
466.60	33495.41
466.78	33584.35
466.96	34167.14
467.14	34646.95
467.32	35164.21
467.51	35335.07
467.69	33853.51
467.87	34185.86
468.05	34904.41
468.23	34792.06
468.41	34686.74
468.60	34923.13
468.78	35037.82
468.96	34668.02
469.14	35545.72
469.32	35899.14
469.50	33975.22
469.69	34389.49
469.87	34017.35
470.05	33495.41
470.23	33684.99
470.41	33799.68
470.59	34258.42
470.77	34637.59
470.95	35007.39
471.14	35756.36
471.32	35552.74
471.50	37699.01
471.68	38057.11
471.86	38216.27
472.04	37874.55
472.22	38581.39
472.40	36671.51
472.58	36065.31
472.77	35316.34
472.95	36741.73
473.13	37263.67
473.31	36210.43
473.49	36996.85
473.67	37228.56
473.85	37687.31
474.03	38747.57
474.21	39136.10
474.39	39007.37
474.57	39288.23
474.75	39180.57
474.93	39351.43
475.12	38075.84
475.30	38447.98
475.48	38305.21
475.66	38930.13
475.84	38309.89
476.02	38010.30
476.20	37013.23
476.38	38000.94
476.56	39096.31
476.74	40051.25
476.92	40102.74
477.10	40755.75
477.28	41792.61
477.46	41911.97
477.64	42431.57
477.82	41993.89
478.00	42590.73
478.18	42136.66
478.36	41991.55
478.54	41827.71
478.72	42646.90
478.90	42686.69
479.08	44048.88
479.26	44697.21
479.44	44512.31
479.62	44329.75
479.80	44189.31
479.98	44552.10
480.16	44870.41
480.34	44259.53
480.52	44477.20
480.70	45141.91
480.88	44580.18
481.06	46293.46
481.24	45970.46
481.41	47063.49
481.59	47531.60
481.77	47007.32
481.95	46653.90
482.13	45741.09
482.31	46522.83
482.49	47180.52
482.67	46909.02
482.85	47061.15
483.03	47604.16
483.21	47732.89
483.39	47990.34
483.57	47550.32
483.74	47360.74
483.92	47789.06
484.10	47964.60
484.28	48697.19
484.46	49066.99
484.64	49125.50
484.82	48247.80
485.00	47959.92
485.18	47304.57
485.35	45916.63
485.53	43136.07
485.71	39112.69
485.89	38532.24
486.07	40615.32
486.25	43723.55
486.43	45968.12
486.61	47320.95
486.78	47239.03
486.96	47098.60
487.14	48629.31
487.32	49553.82
487.50	50560.25
487.68	51463.70
487.85	51672.01
488.03	51817.12
488.21	51398.16
488.39	51086.87
488.57	49900.22
488.75	49771.49
488.92	51042.40
489.10	52605.88
489.28	53989.14
489.46	54831.73
489.64	54616.40
489.81	54794.28
489.99	54265.32
490.17	54398.73
490.35	54691.30
490.53	54255.96
490.70	53930.62
490.88	54052.33
491.06	54677.25
491.24	54986.21
491.41	54026.59
491.59	52226.71
491.77	51536.26
491.95	52470.13
492.13	53996.16
492.30	54862.16
492.48	55606.45
492.66	56369.46
492.84	56196.26
493.01	55884.97
493.19	55641.56
493.37	55374.73
493.54	54700.66
493.72	55409.84
493.90	56409.25
494.08	56975.66
494.25	57403.98
494.43	57612.29
494.61	57731.65
494.79	57958.69
494.96	57907.19
495.14	57200.35
495.32	56395.21
495.49	55707.09
495.67	56732.25
495.85	58010.18
496.02	58337.85
496.20	58188.06
496.38	57900.17
496.55	57673.14
496.73	58031.24
496.91	58342.53
497.09	58983.84
497.26	59217.89
497.44	58562.54
497.62	58080.39
497.79	57270.57
497.97	55957.53
498.14	56303.93
498.32	57315.04
498.50	58181.04
498.67	58768.51
498.85	58501.69
499.03	58812.98
499.20	58754.47
499.38	59133.63
499.56	58728.72
499.73	58211.46
499.91	58120.18
500.08	57593.56
500.26	56818.84
500.44	57029.49
500.61	57954.00
500.79	57729.31
500.97	57272.91
501.14	57055.24
501.32	57066.94
501.49	57254.18
501.67	57188.65
501.84	57719.95
502.02	58066.35
502.20	58398.71
502.37	58485.31
502.55	58487.65
502.72	59075.12
502.90	59409.82
503.07	59304.49
503.25	58937.03
503.43	57825.28
503.60	57701.23
503.78	56755.65
503.95	57242.48
504.13	58497.01
504.30	59416.84
504.48	59121.93
504.65	58798.94
504.83	58871.49
505.01	59508.12
505.18	59765.58
505.36	60310.92
505.53	60240.71
505.71	60544.98
505.88	60619.88
506.06	60032.40
506.23	59711.75
506.41	59164.06
506.58	59547.91
506.76	59547.91
506.93	59477.69
507.11	59370.03
507.28	59363.01
507.46	59004.91
507.63	58450.20
507.81	58361.26
507.98	58511.05
508.16	59152.36
508.33	59545.57
508.50	59978.57
508.68	60310.92
508.85	60685.41
509.03	60566.04
509.20	60416.25
509.38	59994.95
509.55	59173.42
509.73	59323.22
509.90	59770.26
510.08	59906.01
510.25	59936.44
510.42	59753.88
510.60	59779.62
510.77	59938.78
510.95	60519.23
511.12	60743.92
511.30	60753.29
511.47	61319.70
511.64	61034.15
511.82	60491.15
511.99	59955.16
512.17	59711.75
512.34	59201.51
512.51	59423.86
512.69	59416.84
512.86	59723.45
513.04	59955.16
513.21	60097.94
513.38	59704.73
513.56	59367.69
513.73	58609.35
513.90	59084.48
514.08	58883.20
514.25	59323.22
514.43	59433.22
514.60	59508.12
514.77	59732.81
514.95	59767.92
515.12	59667.28
515.29	59948.14
515.47	60397.52
515.64	60640.94
515.81	60135.38
515.99	59772.60
516.16	58293.38
516.33	56179.88
516.51	54621.08
516.68	54134.25
516.85	53591.25
517.03	54082.76
517.20	56470.11
517.37	58768.51
517.54	59753.88
517.72	59435.56
517.89	57123.11
518.06	54637.47
518.24	55056.42
518.41	57064.60
518.58	58475.94
518.75	58796.60
518.93	58904.26
519.10	58817.66
519.27	59145.34
519.45	59384.07
519.62	60074.53
519.79	60404.55
519.96	60151.77
520.14	59765.58
520.31	58794.26
520.48	58808.30
520.65	59180.45
520.83	60231.35
521.00	60423.27
521.17	60196.24
521.34	59826.43
521.52	60161.13
521.69	60762.65
521.86	60963.93
522.03	60757.97
522.20	59482.37
522.38	58581.27
522.55	58471.26
522.72	59084.48
522.89	59320.88
523.07	59456.63
523.24	59849.84
523.41	60547.32
523.58	60776.69
523.75	61207.35
523.92	61120.75
524.10	60933.51
524.27	61214.37
524.44	61029.47
524.61	60786.05
524.78	60624.56
524.96	60367.10
525.13	60427.95
525.30	60626.90
525.47	61052.87
525.64	61116.07
525.81	60299.22
525.98	59189.81
526.16	57691.86
526.33	57036.51
526.50	56734.59
526.67	56526.28
526.84	57104.39
527.01	57766.76
527.18	58782.55
527.36	59501.10
527.53	60322.63
527.70	60526.25
527.87	60163.47
528.04	59660.26
528.21	59957.50
528.38	60523.91
528.55	61183.94
528.72	61488.21
528.89	61797.16
529.07	61450.77
529.24	60940.53
529.41	60247.73
529.58	59700.04
529.75	59819.41
529.92	60093.25
530.09	60437.31
530.26	61024.79
530.43	61317.35
530.60	61429.70
530.77	61413.32
530.94	61719.93
531.11	61261.18
531.28	60844.57
531.46	60659.66
531.63	60779.03
531.80	60666.69
531.97	60348.37
532.14	59601.74
532.31	58681.91
532.48	58085.07
532.65	58089.76
532.82	58946.39
532.99	59849.84
533.16	60453.70
533.33	60755.63
533.50	60594.13
533.67	60009.00
533.84	59568.97
534.01	59756.22
534.18	59952.82
534.35	60362.42
534.52	60238.37
534.69	60140.07
534.86	60657.32
535.03	60793.07
535.20	61186.28
535.37	61574.81
535.54	61551.41
535.71	61235.44
535.88	61015.43
536.05	60463.06
536.22	60027.72
536.38	59803.03
536.55	59159.38
536.72	58955.75
536.89	58625.74
537.06	59592.38
537.23	60336.67
537.40	60432.63
537.57	60734.56
537.74	60371.78
537.91	60182.19
538.08	60439.65
538.25	60453.70
538.42	60409.23
538.59	60287.52
538.75	59568.97
538.92	59536.21
539.09	59391.09
539.26	59168.74
539.43	59096.19
539.60	58897.24
539.77	59124.27
539.94	58922.99
540.11	58375.30
540.28	57975.07
540.44	58094.44
540.61	58211.46
540.78	58557.86
540.95	58883.20
541.12	59288.11
541.29	59416.84
541.46	59763.24
541.62	59819.41
541.79	59643.87
541.96	59264.70
542.13	59070.44
542.30	59428.54
542.47	59309.18
542.63	59351.30
542.80	59000.22
542.97	59360.67
543.14	58981.50
543.31	58962.78
543.48	59597.06
543.64	60308.58
543.81	60748.60
543.98	60390.50
544.15	59847.50
544.32	59428.54
544.48	59297.47
544.65	59730.47
544.82	60069.85
544.99	59821.75
545.16	59339.60
545.32	59267.05
545.49	59962.18
545.66	60299.22
545.83	59781.96
546.00	59753.88
546.16	59313.86
546.33	59147.68
546.50	59370.03
546.67	59941.12
546.83	59461.31
547.00	59306.83
547.17	58632.76
547.34	58372.96
547.50	58216.14
547.67	58644.46
547.84	58644.46
548.00	58958.09
548.17	59393.43
548.34	59360.67
548.51	59533.87
548.67	59391.09
548.84	59400.46
549.01	59491.74
549.18	59355.99
549.34	59030.65
549.51	59288.11
549.68	59245.98
549.84	59297.47
550.01	58908.94
550.18	58850.43
550.34	58768.51
550.51	59004.91
550.68	59175.76
550.84	58653.82
551.01	58878.52
551.18	58508.71
551.34	59058.74
551.51	59096.19
551.68	59283.43
551.84	59444.93
552.01	59175.76
552.18	59316.20
552.34	58447.86
552.51	58143.59
552.68	57806.55
552.84	58358.92
553.01	58642.12
553.18	58461.90
553.34	58768.51
553.51	58749.79
553.67	58960.44
553.84	59182.79
554.01	59082.14
554.17	58831.71
554.34	59171.08
554.51	59131.29
554.67	59353.65
554.84	59288.11
555.00	58876.18
555.17	58667.87
555.33	58611.70
555.50	58548.50
555.67	58672.55
555.83	58372.96
556.00	58138.91
556.16	58038.26
556.33	57715.27
556.50	57413.34
556.66	57827.62
556.83	57368.87
556.99	57581.86
557.16	57757.40
557.32	58033.58
557.49	58096.78
557.65	58047.63
557.82	58274.66
557.98	57939.96
558.15	57518.67
558.32	56821.19
558.48	55746.88
558.65	56229.03
558.81	56633.94
558.98	56706.50
559.14	57048.22
559.31	57141.84
559.47	57134.82
559.64	56963.96
559.80	56650.33
559.97	56369.46
560.13	56905.44
560.30	57521.01
560.46	58101.46
560.63	58497.01
560.79	58440.84
560.96	58033.58
561.12	57076.30
561.29	56149.45
561.45	56418.61
561.61	56924.17
561.78	57209.71
561.94	57265.89
562.11	57127.80
562.27	56704.16
562.44	57146.52
562.60	57453.13
562.77	57551.43
562.93	57649.74
563.10	57467.17
563.26	57090.35
563.42	57003.75
563.59	56734.59
563.75	56563.73
563.92	56853.95
564.08	56722.88
564.24	57088.01
564.41	57181.63
564.57	57036.51
564.74	57073.96
564.90	56722.88
565.07	56638.62
565.23	56179.88
565.39	55704.75
565.56	55517.51
565.72	55253.03
565.88	55519.85
566.05	55880.29
566.21	55964.55
566.38	56133.07
566.54	56137.75
566.70	56460.74
566.87	56762.67
567.03	56685.43
567.19	56853.95
567.36	56865.66
567.52	56491.17
567.68	56222.01
567.85	55676.66
568.01	55356.01
568.17	55091.53
568.34	54923.01
568.50	54988.55
568.66	54993.23
568.83	55718.79
568.99	55545.59
569.15	55695.39
569.32	55597.09
569.48	55248.35
569.64	55192.17
569.81	54967.48
569.97	54876.20
570.13	54735.77
570.30	54450.22
570.46	53942.33
570.62	53207.40
570.78	53329.11
570.95	53633.38
571.11	54286.39
571.27	54454.90
571.43	54394.05
571.60	55152.38
571.76	54976.84
571.92	55360.69
572.09	55650.92
572.25	55737.52
572.41	55620.49
572.57	55435.59
572.74	55461.33
572.90	54686.62
573.06	54761.51
573.22	55147.70
573.38	55178.13
573.55	55049.40
573.71	55100.89
573.87	54941.74
574.03	55016.63
574.20	55009.61
574.36	54344.90
574.52	54321.49
574.68	54382.35
574.84	53727.00
575.01	53506.99
575.17	53317.40
575.33	53420.39
575.49	53862.75
575.65	54094.46
575.82	53546.78
575.98	53492.94
576.14	53911.90
576.30	54192.76
576.46	54574.27
576.62	54143.61
576.79	54190.42
576.95	53497.62
577.11	53708.27
577.27	53818.28
577.43	53745.72
577.59	53766.79
577.75	53446.13
577.92	52374.17
578.08	52182.24
578.24	52692.48
578.40	52795.46
578.56	52952.28
578.72	52982.71
578.88	53244.85
579.04	53127.82
579.21	53291.66
579.37	53652.10
579.53	53506.99
579.69	53558.48
579.85	53588.91
580.01	53563.16
580.17	53176.97
580.33	53085.69
580.49	53102.07
580.65	53488.26
580.82	53584.22
580.98	53261.23
581.14	53148.88
581.30	53476.56
581.46	53207.40
581.62	53478.90
581.78	53270.59
581.94	53661.46
582.10	53883.81
582.26	53886.15
582.42	53663.80
582.58	53776.15
582.74	53598.27
582.90	53542.10
583.06	53668.48
583.22	53666.14
583.38	53591.25
583.54	53064.63
583.70	53258.89
583.86	53495.28
584.02	53286.98
584.18	53240.17
584.34	52945.26
584.50	53183.99
584.66	53090.37
584.82	52736.95
584.98	52533.32
585.14	51999.68
585.30	51428.59
