SpectraSuite Data File
++++++++++++++++++++++++++++++++++++
Date: Mon Oct 07 14:53:49 GMT-05:00 2013
User: price-jones
Dark Spectrum Present: No
Reference Spectrum Present: No
Number of Sampled Component Spectra: 1
Spectrometers: USB2+H05261
Integration Time (usec): 100000 (USB2+H05261)
Spectra Averaged: 1 (USB2+H05261)
Boxcar Smoothing: 0 (USB2+H05261)
Correct for Electrical Dark: No (USB2+H05261)
Strobe/Lamp Enabled: No (USB2+H05261)
Correct for Detector Non-linearity: No (USB2+H05261)
Correct for Stray Light: No (USB2+H05261)
Number of Pixels in Processed Spectrum: 2048
>>>>>Begin Processed Spectral Data<<<<<
365.73	0.00
365.92	0.00
366.12	0.00
366.32	0.00
366.52	0.00
366.72	0.00
366.91	0.00
367.11	0.00
367.31	0.00
367.51	0.00
367.70	0.00
367.90	0.00
368.10	0.00
368.30	0.00
368.49	0.00
368.69	0.00
368.89	0.00
369.09	0.00
369.28	0.00
369.48	0.00
369.68	0.00
369.87	0.00
370.07	0.00
370.27	0.00
370.47	524.28
370.66	2766.51
370.86	3442.93
371.06	3632.51
371.25	3676.98
371.45	3290.79
371.65	3080.14
371.84	2759.49
372.04	2829.71
372.24	3445.27
372.44	3499.10
372.63	3393.78
372.83	3206.53
373.03	2768.85
373.22	2647.15
373.42	2801.62
373.62	3215.90
373.81	3227.60
374.01	3361.01
374.21	3117.59
374.40	2787.58
374.60	2963.12
374.79	3344.63
374.99	4021.04
375.19	4229.35
375.38	4196.58
375.58	3873.59
375.78	3880.61
375.97	3969.55
376.17	4159.13
376.37	4161.47
376.56	4126.36
376.76	4421.27
376.95	4660.01
377.15	4971.30
377.35	5228.76
377.54	5373.87
377.74	5685.16
377.93	5624.31
378.13	5570.48
378.33	5109.39
378.52	4676.39
378.72	4542.98
378.91	4613.20
379.11	4299.56
379.31	4163.81
379.50	4215.30
379.70	4540.64
379.89	4875.34
380.09	5214.71
380.28	5643.03
380.48	5511.96
380.68	5355.15
380.87	5228.76
381.07	4959.60
381.26	4503.19
381.46	4126.36
381.65	3962.53
381.85	4053.81
382.04	3768.26
382.24	3501.44
382.43	3384.41
382.63	3396.12
382.83	3227.60
383.02	3361.01
383.22	3239.30
383.41	3311.86
383.61	3583.36
383.80	4142.75
384.00	4631.92
384.19	5221.74
384.39	5305.99
384.58	5467.49
384.78	5343.44
384.97	5320.04
385.17	5018.11
385.36	4760.65
385.56	4505.53
385.75	4812.14
385.95	5135.14
386.14	5474.51
386.34	5673.46
386.53	5495.58
386.72	5027.47
386.92	4994.70
387.11	5219.39
387.31	5488.56
387.50	5406.64
387.70	5301.31
387.89	5322.38
388.09	5245.14
388.28	5249.82
388.48	5282.59
388.67	5673.46
388.86	6499.67
389.06	6836.70
389.25	7220.55
389.45	7243.96
389.64	7150.34
389.84	7002.88
390.03	7096.50
390.22	6846.07
390.42	7131.61
390.61	7571.63
390.81	8278.47
391.00	8599.13
391.19	8376.78
391.39	7913.35
391.58	7419.50
391.78	7021.61
391.97	6724.36
392.16	6462.22
392.36	5895.81
392.55	4709.16
392.75	3786.99
392.94	3157.38
393.13	3094.19
393.33	3639.53
393.52	4603.83
393.71	5593.88
393.91	6148.59
394.10	6757.13
394.29	7463.97
394.49	8051.44
394.68	8872.97
394.88	8858.93
395.07	9156.18
395.26	8896.38
395.46	8636.58
395.65	8236.35
395.84	7112.89
396.04	6097.10
396.23	5008.75
396.42	4081.89
396.62	3997.64
396.81	4482.13
397.00	5870.06
397.19	7412.48
397.39	8755.94
397.58	9790.46
397.77	10668.16
397.97	10998.18
398.16	11056.69
398.35	11204.14
398.55	11885.24
398.74	12196.53
398.93	12601.44
399.12	12645.91
399.32	11541.18
399.51	12285.47
399.70	12999.34
399.90	12669.32
400.09	13097.64
400.28	12840.18
400.47	12982.95
400.67	13371.48
400.86	13762.35
401.05	13965.98
401.24	13928.53
401.44	14059.60
401.63	14026.83
401.82	14176.62
402.01	14279.61
402.21	14406.00
402.40	14450.47
402.59	14031.51
402.78	13476.80
402.97	12936.14
403.17	13298.92
403.36	14218.75
403.55	14876.44
403.74	15248.59
403.93	14361.53
404.13	13228.71
404.32	12980.61
404.51	13727.24
404.70	14532.39
404.89	14888.15
405.09	14384.93
405.28	14026.83
405.47	14193.01
405.66	14024.49
405.85	13891.08
406.05	13270.84
406.24	13486.17
406.43	13879.38
406.62	14438.76
406.81	14661.12
407.00	14026.83
407.20	13914.48
407.39	13947.25
407.58	14490.26
407.77	15028.58
407.96	15630.10
408.15	15562.22
408.34	15800.96
408.54	16528.86
408.73	16739.51
408.92	16402.47
409.11	15803.30
409.30	15040.28
409.49	13973.00
409.68	13322.33
409.87	12851.88
410.07	13781.07
410.26	14925.60
410.45	15791.59
410.64	16304.17
410.83	16711.42
411.02	17263.79
411.21	17734.24
411.40	17551.68
411.59	17771.69
411.78	17621.89
411.98	17179.53
412.17	17579.76
412.36	17280.18
412.55	17561.04
412.74	16968.88
412.93	16578.01
413.12	16636.53
413.31	18176.60
413.50	18279.58
413.69	18625.98
413.88	17858.29
414.07	17511.89
414.26	17781.05
414.45	18300.65
414.64	18279.58
414.83	18272.56
415.02	18242.14
415.22	17879.35
415.41	18490.23
415.60	19061.32
415.79	19562.20
415.98	20210.53
416.17	20273.72
416.36	19442.83
416.55	19559.86
416.74	19014.51
416.93	18181.28
417.12	18471.51
417.31	18576.83
417.50	18747.69
417.69	19335.17
417.88	19356.23
418.07	19051.96
418.26	18855.36
418.45	19007.49
418.64	19803.27
418.83	20566.29
419.02	20561.61
419.21	20098.18
419.39	19257.93
419.58	18157.88
419.77	18256.18
419.96	19082.39
420.15	19976.47
420.34	20737.15
420.53	21238.02
420.72	21727.19
420.91	21528.25
421.10	21373.77
421.29	21226.32
421.48	20615.44
421.67	21612.51
421.86	21027.37
422.05	19587.94
422.24	17263.79
422.43	17245.07
422.61	19033.24
422.80	20702.04
422.99	20730.12
423.18	20210.53
423.37	19779.87
423.56	19637.09
423.75	19953.07
423.94	20372.02
424.13	19316.44
424.32	19426.45
424.50	19679.22
424.69	19396.02
424.88	19122.18
425.07	19381.98
425.26	19234.52
425.45	19073.03
425.64	18618.96
425.83	19126.86
426.01	19896.89
426.20	20109.88
426.39	20348.62
426.58	18387.25
426.77	17060.16
426.96	16720.79
427.15	17195.92
427.33	18663.43
427.52	19391.34
427.71	19344.53
427.90	19297.72
428.09	19192.39
428.28	18813.23
428.46	18087.66
428.65	17942.55
428.84	18148.51
429.03	18457.46
429.22	17900.42
429.40	16765.26
429.59	14974.75
429.78	13544.68
429.97	13579.79
430.16	13706.18
430.34	13785.76
430.53	13561.06
430.72	13795.12
430.91	15414.77
431.10	18038.51
431.28	21312.92
431.47	22869.37
431.66	23349.18
431.85	21329.30
432.03	19428.79
432.22	18820.25
432.41	19325.80
432.60	21446.33
432.79	22354.46
432.97	22923.21
433.16	22391.91
433.35	20339.26
433.54	18583.85
433.72	17448.69
433.91	17593.81
434.10	19838.38
434.28	21467.39
434.47	22520.63
434.66	22293.60
434.85	21600.80
435.03	21324.62
435.22	21743.58
435.41	22946.61
435.59	23058.96
435.78	23552.81
435.97	24269.01
436.16	24245.61
436.34	23906.23
436.53	23082.36
436.72	23686.22
436.90	22256.15
437.09	22293.60
437.28	21867.63
437.46	22375.52
437.65	22628.30
437.84	21451.01
438.02	18925.57
438.21	19056.64
438.40	20301.81
438.58	21776.34
438.77	22602.55
438.96	22768.73
439.14	23545.79
439.33	24222.20
439.52	24582.65
439.70	24261.99
439.89	23438.12
440.08	22930.23
440.26	22604.89
440.45	23917.93
440.63	25055.43
440.82	26754.66
441.01	26466.78
441.19	26061.87
441.38	26700.83
441.57	27356.18
441.75	27597.26
441.94	28091.11
442.12	27388.95
442.31	28168.35
442.50	28107.49
442.68	27725.99
442.87	27129.15
443.05	27037.87
443.24	27536.40
443.43	28102.81
443.61	28416.44
443.80	28833.06
443.98	27513.00
444.17	27260.22
444.35	28718.37
444.54	29237.97
444.73	29055.41
444.91	27725.99
445.10	26356.77
445.28	25568.01
445.47	25057.78
445.65	25439.28
445.84	26087.61
446.02	26888.07
446.21	27461.51
446.39	27115.11
446.58	27665.13
446.77	28154.30
446.95	28591.98
447.14	29333.93
447.32	29783.32
447.51	29240.31
447.69	27934.29
447.88	27747.05
448.06	28018.55
448.25	28692.63
448.43	28940.72
448.62	27999.83
448.80	28226.86
448.99	28053.66
449.17	28673.90
449.36	28491.34
449.54	29790.34
449.73	30057.16
449.91	30494.84
450.10	31606.59
450.28	31796.18
450.46	31269.56
450.65	31747.03
450.83	31328.07
451.02	30448.03
451.20	30565.06
451.39	30504.20
451.57	30003.33
451.76	30349.73
451.94	29795.02
452.13	29357.34
452.31	28367.29
452.49	26955.95
452.68	27208.73
452.86	27051.91
453.05	27407.67
453.23	28662.20
453.42	28987.53
453.60	29776.30
453.78	30085.25
453.97	29769.27
454.15	29675.65
454.34	29043.71
454.52	29315.21
454.70	28779.23
454.89	29020.30
455.07	28919.66
455.26	29413.51
455.44	30457.39
455.62	30895.07
455.81	31648.72
455.99	31091.68
456.17	30504.20
456.36	30780.39
456.54	31555.10
456.73	31665.11
456.91	32327.48
457.09	32378.97
457.28	33010.92
457.46	31732.98
457.64	31491.91
457.83	30562.72
458.01	29694.38
458.19	30618.89
458.38	30504.20
458.56	31974.06
458.74	31667.45
458.93	30646.97
459.11	31234.45
459.29	30878.69
459.48	30930.18
459.66	30881.03
459.84	31442.76
460.03	31180.62
460.21	31197.00
460.39	32624.73
460.57	32446.85
460.76	32818.99
460.94	32676.22
461.12	32591.96
461.31	32425.78
461.49	32086.40
461.67	32219.81
461.85	33350.29
462.04	33256.67
462.22	33432.21
462.40	33546.90
462.59	33397.10
462.77	33127.94
462.95	33165.39
463.13	32762.82
463.32	32577.92
463.50	32336.84
463.68	32236.20
463.86	32704.31
464.05	31962.36
464.23	31391.26
464.41	31222.75
464.59	30485.48
464.78	32385.99
464.96	32039.59
465.14	31370.20
465.32	32009.17
465.50	33340.93
465.69	33645.20
465.87	32690.26
466.05	32151.94
466.23	30494.84
466.41	29617.14
466.60	30356.75
466.78	30782.73
466.96	31424.03
467.14	31798.52
467.32	32472.59
467.51	32545.15
467.69	30670.38
467.87	31379.56
468.05	31824.26
468.23	31974.06
468.41	31805.54
468.60	32275.99
468.78	32428.12
468.96	31810.22
469.14	32732.39
469.32	32591.96
469.50	31274.24
469.69	31606.59
469.87	31185.30
470.05	31206.36
470.23	31122.10
470.41	31246.15
470.59	31695.53
470.77	32198.75
470.95	32566.21
471.14	32877.51
471.32	33146.67
471.50	34756.96
471.68	34756.96
471.86	34993.35
472.04	35086.97
472.22	35644.02
472.40	33549.24
472.58	33249.65
472.77	32620.05
472.95	33621.80
473.13	34979.31
473.31	33462.64
473.49	33785.63
473.67	34288.85
473.85	34445.66
474.03	35407.62
474.21	35416.99
474.39	36002.12
474.57	35805.52
474.75	35634.66
474.93	36051.27
475.12	34792.06
475.30	35185.27
475.48	35129.10
475.66	35922.54
475.84	35131.44
476.02	34614.18
476.20	34494.82
476.38	35068.25
476.56	35967.01
476.74	36074.68
476.92	36664.49
477.10	37214.52
477.28	38417.55
477.46	38611.82
477.64	39096.31
477.82	38403.51
478.00	39171.21
478.18	38328.61
478.36	38127.33
478.54	38092.22
478.72	38417.55
478.90	39849.96
479.08	40210.40
479.26	41083.42
479.44	40517.01
479.62	40781.49
479.80	40821.28
479.98	41146.62
480.16	41280.03
480.34	40362.54
480.52	40898.52
480.70	41654.51
480.88	41420.46
481.06	42370.72
481.24	42305.18
481.41	43166.50
481.59	43913.13
481.77	43606.52
481.95	42806.06
482.13	42600.09
482.31	42726.48
482.49	43391.19
482.67	43505.88
482.85	43782.06
483.03	44357.83
483.21	44706.57
483.39	44781.47
483.57	43690.78
483.74	43395.87
483.92	44196.34
484.10	43868.66
484.28	44758.06
484.46	45146.59
484.64	46141.32
484.82	44699.55
485.00	44343.79
485.18	43653.33
485.35	42394.12
485.53	39267.17
485.71	36027.87
485.89	35363.15
486.07	37219.20
486.25	40355.52
486.43	42583.71
486.61	43320.98
486.78	43213.31
486.96	43789.08
487.14	45586.61
487.32	45947.06
487.50	47316.27
487.68	47929.49
487.85	48928.90
488.03	48655.06
488.21	48004.39
488.39	47569.05
488.57	46890.29
488.75	46586.02
488.92	47634.58
489.10	49865.11
489.28	51173.47
489.46	52210.33
489.64	51985.64
489.81	51941.17
489.99	51592.43
490.17	51735.20
490.35	51690.73
490.53	51753.93
490.70	51117.30
490.88	50939.42
491.06	52079.26
491.24	51924.78
491.41	51061.13
491.59	49034.22
491.77	48240.78
491.95	49647.44
492.13	50590.68
492.30	52083.94
492.48	53066.97
492.66	53649.76
492.84	53462.52
493.01	53242.51
493.19	52463.11
493.37	52067.56
493.54	52179.90
493.72	52580.13
493.90	53848.71
494.08	54401.07
494.25	54955.78
494.43	54946.42
494.61	55451.97
494.79	55540.91
494.96	55365.37
495.14	54651.51
495.32	53703.59
495.49	53071.65
495.67	54167.02
495.85	55608.79
496.02	55838.16
496.20	55576.02
496.38	55250.69
496.55	55199.19
496.73	55622.83
496.91	55957.53
497.09	56458.40
497.26	56643.30
497.44	55929.44
497.62	55657.94
497.79	54628.10
497.97	53329.11
498.14	53542.10
498.32	54658.53
498.50	55779.65
498.67	56280.52
498.85	55950.51
499.03	56140.09
499.20	56486.49
499.38	56453.72
499.56	56264.14
499.73	55561.98
499.91	55480.06
500.08	55208.56
500.26	54405.75
500.44	54721.72
500.61	55482.40
500.79	55304.52
500.97	54934.71
501.14	54719.38
501.32	54529.80
501.49	54665.55
501.67	54775.56
501.84	55011.95
502.02	55379.42
502.20	55800.71
502.37	56119.02
502.55	55997.32
502.72	56643.30
502.90	56985.02
503.07	56956.94
503.25	56282.86
503.43	55730.50
503.60	54829.39
503.78	54223.19
503.95	54653.85
504.13	56231.37
504.30	56727.56
504.48	56729.90
504.65	56343.72
504.83	56404.57
505.01	56980.34
505.18	57336.10
505.36	57963.37
505.53	58094.44
505.71	57932.94
505.88	58253.59
506.06	57591.22
506.23	57333.76
506.41	57036.51
506.58	57111.41
506.76	57347.81
506.93	57303.34
507.11	56811.82
507.28	57038.86
507.46	56619.90
507.63	55891.99
507.81	55583.04
507.98	55749.22
508.16	56800.12
508.33	57268.23
508.50	57900.17
508.68	57853.36
508.85	58534.46
509.03	58298.06
509.20	58150.61
509.38	57420.36
509.55	56811.82
509.73	56825.87
509.90	57305.68
510.08	57846.34
510.25	57392.28
510.42	57190.99
510.60	57312.70
510.77	57513.98
510.95	58038.26
511.12	58213.80
511.30	58447.86
511.47	58726.38
511.64	58695.95
511.82	58321.47
511.99	57539.73
512.17	57336.10
512.34	56734.59
512.51	56987.36
512.69	57228.44
512.86	57223.76
513.04	57675.48
513.21	57717.61
513.38	57268.23
513.56	56886.72
513.73	56214.99
513.90	56320.31
514.08	56479.47
514.25	56612.88
514.43	56725.22
514.60	57078.64
514.77	57354.83
514.95	57205.03
515.12	57200.35
515.29	57378.23
515.47	57689.52
515.64	58246.57
515.81	57726.97
515.99	57308.02
516.16	55749.22
516.33	53446.13
516.51	51660.30
516.68	50887.93
516.85	50475.99
517.03	50965.17
517.20	53689.55
517.37	56437.34
517.54	57322.06
517.72	56903.10
517.89	54506.40
518.06	51742.22
518.24	51995.00
518.41	54482.99
518.58	55728.16
518.75	56154.13
518.93	56458.40
519.10	56210.31
519.27	56563.73
519.45	56935.87
519.62	57623.99
519.79	57895.49
519.96	57600.58
520.14	57172.27
520.31	56495.85
520.48	56339.04
520.65	56835.23
520.83	57771.44
521.00	58068.69
521.17	57736.34
521.34	57317.38
521.52	57425.04
521.69	58171.67
521.86	58574.25
522.03	58232.53
522.20	56945.23
522.38	56046.47
522.55	55868.59
522.72	56732.25
522.89	56762.67
523.07	57024.81
523.24	57237.80
523.41	58143.59
523.58	58340.19
523.75	59000.22
523.92	58869.15
524.10	58824.68
524.27	58670.21
524.44	58337.85
524.61	58237.21
524.78	58075.71
524.96	58195.08
525.13	58260.62
525.30	58159.97
525.47	58520.41
525.64	58487.65
525.81	57993.79
525.98	56566.07
526.16	55079.83
526.33	54286.39
526.50	54073.40
526.67	53542.10
526.84	54316.81
527.01	55311.54
527.18	56179.88
527.36	57027.15
527.53	57925.92
527.70	58197.42
527.87	57553.77
528.04	57216.74
528.21	57640.37
528.38	58316.79
528.55	58810.64
528.72	59089.16
528.89	59437.90
529.07	58951.07
529.24	58316.79
529.41	57612.29
529.58	56973.32
529.75	57165.24
529.92	57780.81
530.09	58035.92
530.26	58548.50
530.43	58759.15
530.60	58791.92
530.77	59000.22
530.94	59210.87
531.11	58789.58
531.28	58372.96
531.46	57949.32
531.63	58419.77
531.80	58230.19
531.97	57766.76
532.14	57092.69
532.31	55929.44
532.48	55451.97
532.65	55290.48
532.82	56058.17
532.99	57296.31
533.16	57745.70
533.33	58384.66
533.50	58138.91
533.67	57247.16
533.84	57251.84
534.01	57174.61
534.18	57282.27
534.35	57769.10
534.52	57401.64
534.69	57836.98
534.86	57881.45
535.03	58260.62
535.20	58925.33
535.37	59292.79
535.54	59283.43
535.71	58969.80
535.88	58623.40
536.05	57804.21
536.22	57301.00
536.38	57324.40
536.55	56755.65
536.72	56226.69
536.89	56046.47
537.06	56760.33
537.23	57640.37
537.40	57989.11
537.57	58007.84
537.74	57792.51
537.91	57806.55
538.08	57490.58
538.25	57790.17
538.42	58089.76
538.59	57703.57
538.75	57148.86
538.92	56797.78
539.09	56772.03
539.26	56420.95
539.43	56369.46
539.60	56360.10
539.77	56683.09
539.94	56678.41
540.11	55554.96
540.28	55217.92
540.44	55407.50
540.61	55501.12
540.78	55941.14
540.95	56413.93
541.12	56734.59
541.29	56893.74
541.46	56978.00
541.62	57137.16
541.79	57188.65
541.96	56430.32
542.13	56573.09
542.30	56582.45
542.47	57052.90
542.63	56762.67
542.80	56591.81
542.97	56552.02
543.14	56334.35
543.31	56332.01
543.48	56989.70
543.64	57743.36
543.81	58117.84
543.98	57956.35
544.15	57214.40
544.32	56425.64
544.48	56622.24
544.65	57102.05
544.82	57467.17
544.99	57013.11
545.16	56832.89
545.32	56580.11
545.49	57422.70
545.66	57673.14
545.83	57322.06
546.00	57076.30
546.16	56713.52
546.33	56856.29
546.50	56713.52
546.67	57282.27
546.83	56818.84
547.00	56779.06
547.17	55894.33
547.34	55662.62
547.50	55348.99
547.67	56156.47
547.84	55891.99
548.00	56369.46
548.17	56919.49
548.34	56647.99
548.51	56549.68
548.67	56727.56
548.84	56739.27
549.01	56765.01
549.18	56708.84
549.34	56610.54
549.51	56797.78
549.68	56523.94
549.84	56264.14
550.01	56128.39
550.18	55887.31
550.34	56168.18
550.51	56317.97
550.68	56193.92
550.84	55910.72
551.01	55697.73
551.18	55737.52
551.34	55992.64
551.51	56292.22
551.68	56662.03
551.84	56938.21
552.01	56624.58
552.18	56437.34
552.34	55711.77
552.51	55105.57
552.68	54944.08
552.84	55749.22
553.01	55894.33
553.18	55735.18
553.34	55828.80
553.51	55941.14
553.67	56355.42
553.84	56369.46
554.01	56282.86
554.17	55770.28
554.34	56184.56
554.51	56257.12
554.67	56783.74
554.84	56348.40
555.00	55980.93
555.17	55714.11
555.33	55817.10
555.50	55852.20
555.67	55845.18
555.83	55611.13
556.00	55253.03
556.16	55311.54
556.33	54878.54
556.50	54700.66
556.66	54892.58
556.83	54522.78
556.99	54581.29
557.16	54967.48
557.32	55161.75
557.49	55222.60
557.65	55168.77
557.82	54995.57
557.98	54911.31
558.15	54578.95
558.32	53759.76
558.48	53003.77
558.65	53123.14
558.81	53469.54
558.98	53600.61
559.14	54197.44
559.31	54284.04
559.47	54237.23
559.64	53778.49
559.80	53123.14
559.97	53378.26
560.13	53991.48
560.30	54911.31
560.46	55243.66
560.63	55660.28
560.79	55639.22
560.96	55227.28
561.12	54057.01
561.29	52896.11
561.45	53125.48
561.61	53668.48
561.78	54436.18
561.94	54183.40
562.11	54087.44
562.27	53764.45
562.44	54316.81
562.60	54405.75
562.77	54621.08
562.93	54527.46
563.10	54497.03
563.26	53923.60
563.42	53895.52
563.59	53652.10
563.75	53612.31
563.92	53932.96
564.08	53787.85
564.24	53829.98
564.41	54295.75
564.57	53881.47
564.74	53846.36
564.90	53499.97
565.07	53509.33
565.23	53296.34
565.39	52566.09
565.56	52067.56
565.72	52097.98
565.88	52420.98
566.05	52287.57
566.21	52800.15
566.38	53216.76
566.54	52900.79
566.70	53563.16
566.87	53628.69
567.03	53516.35
567.19	53752.74
567.36	53530.39
567.52	53675.51
567.68	53249.53
567.85	52533.32
568.01	52114.37
568.17	51760.95
568.34	51859.25
568.50	51452.00
568.66	51618.17
568.83	52053.51
568.99	52322.68
569.15	52428.00
569.32	52554.39
569.48	51964.57
569.64	52128.41
569.81	51774.99
569.97	51910.74
570.13	51414.55
570.30	50852.82
570.46	50370.67
570.62	50164.70
570.78	49514.03
570.95	50309.82
571.11	51028.36
571.27	51241.35
571.43	51262.41
571.60	52034.79
571.76	51819.46
571.92	51945.85
572.09	52109.69
572.25	52456.09
572.41	52114.37
572.57	52044.15
572.74	51782.01
572.90	51629.88
573.06	51468.38
573.22	51774.99
573.38	51934.15
573.55	51938.83
573.71	52058.20
573.87	51763.29
574.03	51477.74
574.20	51746.90
574.36	51297.52
574.52	50979.21
574.68	50691.32
574.84	50604.72
575.01	50206.83
575.17	49549.14
575.33	50199.81
575.49	50255.98
575.65	50658.56
575.82	50497.06
575.98	50050.02
576.14	50305.13
576.30	50721.75
576.46	50820.05
576.62	50445.57
576.79	50656.21
576.95	50160.02
577.11	50316.84
577.27	50181.09
577.43	50211.51
577.59	49682.55
577.75	49586.59
577.92	48507.60
578.08	48411.64
578.24	48542.71
578.40	48811.87
578.56	49464.88
578.72	49516.37
578.88	49801.92
579.04	49890.86
579.21	49752.77
579.37	49574.89
579.53	49904.90
579.69	49855.75
579.85	50251.30
580.01	50003.20
580.17	49378.28
580.33	49401.69
580.49	49404.03
580.65	49432.11
580.82	49923.63
580.98	49923.63
581.14	49841.71
581.30	49743.41
581.46	49462.54
581.62	50024.27
581.78	50120.23
581.94	50239.60
582.10	49874.48
582.26	49773.83
582.42	50174.06
582.58	50099.17
582.74	50078.10
582.90	50087.46
583.06	50340.24
583.22	49785.54
583.38	49897.88
583.54	49577.23
583.70	49937.67
583.86	49605.31
584.02	49310.41
584.18	49659.15
584.34	49373.60
584.50	49205.08
584.66	49076.35
584.82	48793.15
584.98	48549.73
585.14	48350.79
585.30	47517.56
