SpectraSuite Data File
++++++++++++++++++++++++++++++++++++
Date: Mon Oct 07 14:55:38 GMT-05:00 2013
User: price-jones
Dark Spectrum Present: No
Reference Spectrum Present: No
Number of Sampled Component Spectra: 1
Spectrometers: USB2+H05261
Integration Time (usec): 1000000 (USB2+H05261)
Spectra Averaged: 1 (USB2+H05261)
Boxcar Smoothing: 0 (USB2+H05261)
Correct for Electrical Dark: No (USB2+H05261)
Strobe/Lamp Enabled: No (USB2+H05261)
Correct for Detector Non-linearity: No (USB2+H05261)
Correct for Stray Light: No (USB2+H05261)
Number of Pixels in Processed Spectrum: 2048
>>>>>Begin Processed Spectral Data<<<<<
365.73	0.00
365.92	0.00
366.12	0.00
366.32	0.00
366.52	0.00
366.72	250.44
366.91	0.00
367.11	145.11
367.31	86.60
367.51	133.41
367.70	287.89
367.90	435.34
368.10	198.95
368.30	208.31
368.49	0.00
368.69	475.13
368.89	229.37
369.09	0.00
369.28	180.22
369.48	0.00
369.68	124.05
369.87	266.82
370.07	91.28
370.27	557.05
370.47	2806.30
370.66	9488.53
370.86	11309.47
371.06	12100.57
371.25	12341.64
371.45	10902.22
371.65	10221.12
371.84	9062.55
372.04	9397.25
372.24	10649.44
372.44	11190.10
372.63	11016.90
372.83	11016.90
373.03	9413.63
373.22	8336.99
373.42	8739.56
373.62	10230.48
373.81	11204.14
374.01	11080.10
374.21	10057.28
374.40	9273.20
374.60	9949.62
374.79	10822.64
374.99	12503.14
375.19	13509.57
375.38	13549.36
375.58	12465.69
375.78	12875.29
375.97	12592.08
376.17	13593.83
376.37	13109.34
376.56	13752.99
376.76	14033.85
376.95	14635.37
377.15	16435.24
377.35	16950.16
377.54	17317.62
377.74	17642.96
377.93	17565.72
378.13	17242.73
378.33	16554.61
378.52	15400.72
378.72	14555.79
378.91	14618.99
379.11	13963.64
379.31	13673.41
379.50	13296.58
379.70	14581.54
379.89	15990.54
380.09	16802.71
380.28	17216.98
380.48	17214.64
380.68	16964.20
380.87	16407.16
381.07	15775.21
381.26	14738.35
381.46	13118.70
381.65	13029.76
381.85	12549.95
382.04	12194.19
382.24	11475.65
382.43	10504.32
382.63	10338.15
382.83	10609.65
383.02	10829.66
383.22	10949.03
383.41	10335.81
383.61	11468.62
383.80	12849.54
384.00	14104.07
384.19	15889.90
384.39	16741.85
384.58	16587.38
384.78	16510.14
384.97	16388.43
385.17	15606.69
385.36	14609.62
385.56	14274.93
385.75	14207.05
385.95	15712.02
386.14	17532.95
386.34	17301.24
386.53	16414.18
386.72	15543.50
386.92	15557.54
387.11	16285.45
387.31	17357.41
387.50	16783.98
387.70	15690.95
387.89	15805.64
388.09	15988.20
388.28	16025.65
388.48	16320.56
388.67	17788.07
388.86	19183.03
389.06	20512.46
389.25	21408.88
389.45	21614.85
389.64	21565.70
389.84	21401.86
390.03	21298.88
390.22	20936.09
390.42	21273.13
390.61	22850.65
390.81	24458.60
391.00	24599.03
391.19	24531.15
391.39	23681.54
391.58	22511.27
391.78	21378.45
391.97	20645.87
392.16	19075.37
392.36	18104.04
392.55	14520.68
392.75	11578.63
392.94	9504.92
393.13	9500.23
393.33	10623.69
393.52	13701.50
393.71	17109.32
393.91	18691.52
394.10	19943.70
394.29	21858.26
394.49	23573.88
394.68	25830.15
394.88	25692.06
395.07	26639.98
395.26	26099.31
395.46	25467.37
395.65	24599.03
395.84	21703.79
396.04	18841.31
396.23	15150.29
396.42	12505.48
396.62	12105.25
396.81	13963.64
397.00	17523.59
397.19	21656.98
397.39	25715.47
397.58	28779.23
397.77	30583.78
397.97	31583.19
398.16	31189.98
398.35	33067.09
398.55	33200.50
398.74	34799.08
398.93	35690.83
399.12	34962.92
399.32	33844.15
399.51	34017.35
399.70	36940.68
399.90	36622.36
400.09	36348.52
400.28	35934.24
400.47	35880.41
400.67	38080.52
400.86	39194.61
401.05	38539.26
401.24	38953.54
401.44	39552.71
401.63	39306.96
401.82	39878.05
402.01	39381.85
402.21	39936.56
402.40	40161.25
402.59	38761.61
402.78	37368.99
402.97	36318.09
403.17	37535.17
403.36	39861.66
403.55	41139.60
403.74	41944.74
403.93	40172.96
404.13	37790.29
404.32	36231.49
404.51	37635.81
404.70	41053.00
404.89	40285.30
405.09	40238.49
405.28	38892.68
405.47	38738.21
405.66	38768.63
405.85	38019.66
406.05	36966.42
406.24	37127.92
406.43	38766.29
406.62	40421.05
406.81	41045.97
407.00	39089.29
407.20	38068.81
407.39	38295.85
407.58	39791.45
407.77	40966.40
407.96	42239.65
408.15	43009.68
408.34	42656.26
408.54	44605.93
408.73	44879.77
408.92	44437.41
409.11	43255.44
409.30	41577.28
409.49	38670.33
409.68	37453.25
409.87	35810.20
410.07	37504.74
410.26	40240.83
410.45	42820.10
410.64	43613.54
410.83	44271.23
411.02	45504.70
411.21	46677.30
411.40	46906.68
411.59	46665.60
411.78	46040.68
411.98	45834.71
412.17	46616.45
412.36	45649.81
412.55	46143.66
412.74	45067.02
412.93	44158.89
413.12	44175.27
413.31	48069.92
413.50	48289.93
413.69	48706.55
413.88	47339.68
414.07	45874.50
414.26	46492.40
414.45	48086.31
414.64	48884.43
414.83	48535.69
415.02	47466.06
415.22	47791.40
415.41	48339.08
415.60	48868.05
415.79	50429.18
415.98	51599.45
416.17	51480.08
416.36	50405.78
416.55	50031.29
416.74	49078.69
416.93	47475.43
417.12	47866.30
417.31	48193.97
417.50	49064.65
417.69	50064.06
417.88	49626.38
418.07	49212.10
418.26	48877.41
418.45	48741.66
418.64	50483.01
418.83	51470.72
419.02	50927.72
419.21	51096.24
419.39	48554.41
419.58	47332.65
419.77	47337.33
419.96	48966.35
420.15	51110.28
420.34	51770.31
420.53	52362.46
420.72	52809.51
420.91	52952.28
421.10	52861.00
421.29	51856.91
421.48	51023.68
421.67	52832.91
421.86	51547.96
422.05	49900.22
422.24	45626.40
422.43	44720.62
422.61	48479.52
422.80	51262.41
422.99	51217.94
423.18	50202.15
423.37	49193.38
423.56	49731.70
423.75	50595.36
423.94	50263.00
424.13	48694.85
424.32	49078.69
424.50	49195.72
424.69	47854.59
424.88	49361.90
425.07	48795.49
425.26	49291.68
425.45	48996.77
425.64	47550.32
425.83	47688.42
426.01	49986.82
426.20	50815.37
426.39	50363.65
426.58	47660.33
426.77	44725.30
426.96	43587.80
427.15	44570.82
427.33	47714.16
427.52	49336.15
427.71	49109.12
427.90	48917.20
428.09	48596.54
428.28	47608.84
428.46	46597.73
428.65	45841.73
428.84	46059.40
429.03	47594.79
429.22	45867.48
429.40	43332.68
429.59	39562.08
429.78	35159.53
429.97	35262.51
430.16	35796.15
430.34	36081.70
430.53	35583.16
430.72	36692.58
430.91	39913.16
431.10	45542.14
431.28	51475.40
431.47	53874.45
431.66	54398.73
431.85	51543.28
432.03	49490.63
432.22	47489.47
432.41	48156.52
432.60	52023.09
432.79	53022.50
432.97	53883.81
433.16	53539.75
433.35	50824.73
433.54	46658.58
433.72	44163.57
433.91	45570.23
434.10	49668.51
434.28	51700.09
434.47	53186.33
434.66	53123.14
434.85	51990.32
435.03	52060.54
435.22	53729.34
435.41	55421.55
435.59	55480.06
435.78	55311.54
435.97	55346.65
436.16	55351.33
436.34	55222.60
436.53	54667.89
436.72	54836.41
436.90	52769.72
437.09	53020.16
437.28	52428.00
437.46	53294.00
437.65	53605.29
437.84	51461.36
438.02	48140.14
438.21	47650.97
438.40	49387.64
438.58	52516.94
438.77	53237.83
438.96	53272.93
439.14	54623.42
439.33	55159.41
439.52	56121.37
439.70	55136.00
439.89	54646.83
440.08	53848.71
440.26	53476.56
440.45	54635.13
440.63	55854.54
440.82	57167.58
441.01	57172.27
441.19	56683.09
441.38	56949.92
441.57	57883.79
441.75	58653.82
441.94	58513.39
442.12	58337.85
442.31	58712.34
442.50	58504.03
442.68	58049.97
442.87	58232.53
443.05	57886.13
443.24	57860.38
443.43	58766.17
443.61	59306.83
443.80	59107.89
443.98	57916.56
444.17	57858.04
444.35	59320.88
444.54	59690.68
444.73	59306.83
444.91	58731.06
445.10	57305.68
445.28	56292.22
445.47	55941.14
445.65	56191.58
445.84	56811.82
446.02	57645.05
446.21	57687.18
446.39	57909.53
446.58	57684.84
446.77	58717.02
446.95	58843.41
447.14	59206.19
447.32	59945.80
447.51	59199.17
447.69	58443.18
447.88	58047.63
448.06	58557.86
448.25	58805.96
448.43	58965.12
448.62	58695.95
448.80	58461.90
448.99	58534.46
449.17	58941.71
449.36	58864.47
449.54	60065.17
449.73	59512.80
449.91	60196.24
450.10	60959.25
450.28	61298.63
450.46	61186.28
450.65	61008.40
450.83	60701.79
451.02	60348.37
451.20	60158.79
451.39	60278.16
451.57	60102.62
451.76	60086.23
451.94	59683.66
452.13	58548.50
452.31	58567.23
452.49	57247.16
452.68	57181.63
452.86	57537.39
453.05	57382.91
453.23	58508.71
453.42	58330.83
453.60	59835.80
453.78	59891.97
453.97	59611.10
454.15	59653.23
454.34	58583.61
454.52	59091.51
454.70	58539.14
454.89	58887.88
455.07	58955.75
455.26	59016.61
455.44	60219.64
455.62	60533.28
455.81	60678.39
455.99	60526.25
456.17	60360.08
456.36	60135.38
456.54	60952.23
456.73	61102.03
456.91	61392.25
457.09	61623.96
457.28	61993.77
457.46	60697.11
457.64	60884.36
457.83	59964.52
458.01	59669.62
458.19	59671.96
458.38	59749.20
458.56	61050.53
458.74	60505.19
458.93	60748.60
459.11	60633.92
459.29	59955.16
459.48	60264.11
459.66	59971.55
459.84	60570.72
460.03	61244.80
460.21	60210.28
460.39	61446.08
460.57	61137.13
460.76	61623.96
460.94	61488.21
461.12	60935.85
461.31	61172.24
461.49	61300.97
461.67	60896.06
461.85	61668.44
462.04	61666.09
462.22	63529.16
462.40	61602.90
462.59	61733.97
462.77	61581.84
462.95	61963.34
463.13	61242.46
463.32	61300.97
463.50	60898.40
463.68	60977.98
463.86	61200.33
464.05	60835.20
464.23	60264.11
464.41	60271.14
464.59	59568.97
464.78	60987.34
464.96	60652.64
465.14	60860.95
465.32	61116.07
465.50	61668.44
465.69	61296.29
465.87	61572.47
466.05	60942.87
466.23	59880.27
466.41	59299.81
466.60	59901.33
466.78	59936.44
466.96	60247.73
467.14	60334.33
467.32	61130.11
467.51	60811.80
467.69	59529.19
467.87	60741.58
468.05	60879.67
468.23	61106.71
468.41	60893.72
468.60	60685.41
468.78	61116.07
468.96	60720.52
469.14	61216.71
469.32	61343.10
469.50	60212.62
469.69	60439.65
469.87	60067.51
470.05	59681.32
470.23	59859.20
470.41	60074.53
470.59	60329.65
470.77	60133.04
470.95	60788.39
471.14	61277.57
471.32	61066.92
471.50	62789.55
471.68	62869.13
471.86	61792.48
472.04	62422.09
472.22	62475.92
472.40	61694.18
472.58	61296.29
472.77	60865.63
472.95	61712.91
473.13	62279.31
473.31	61450.77
473.49	61385.23
473.67	61841.63
473.85	62412.73
474.03	62915.94
474.21	62152.93
474.39	63210.85
474.57	63344.26
474.75	63540.86
474.93	62695.93
475.12	62150.59
475.30	61790.14
475.48	62394.00
475.66	62829.34
475.84	62429.11
476.02	62274.63
476.20	61846.32
476.38	62534.43
476.56	62529.75
476.74	62946.37
476.92	63931.73
477.10	63950.46
477.28	64395.16
477.46	64647.94
477.64	63758.53
477.82	64692.41
478.00	64900.71
478.18	64264.09
478.36	64535.59
478.54	64456.01
478.72	64715.81
478.90	64828.16
479.08	65535.00
479.26	65535.00
479.44	65535.00
479.62	65483.51
479.80	65535.00
479.98	65427.34
480.16	65535.00
480.34	65535.00
480.52	65535.00
480.70	65535.00
480.88	65535.00
481.06	65535.00
481.24	65535.00
481.41	65535.00
481.59	65535.00
481.77	65535.00
481.95	65535.00
482.13	65535.00
482.31	65535.00
482.49	65535.00
482.67	65535.00
482.85	65535.00
483.03	65535.00
483.21	65535.00
483.39	65535.00
483.57	65535.00
483.74	65535.00
483.92	65535.00
484.10	65535.00
484.28	65535.00
484.46	65535.00
484.64	65535.00
484.82	65535.00
485.00	65535.00
485.18	65535.00
485.35	65535.00
485.53	65535.00
485.71	63199.15
485.89	62417.41
486.07	63758.53
486.25	65226.05
486.43	65535.00
486.61	65535.00
486.78	65535.00
486.96	65535.00
487.14	65535.00
487.32	65535.00
487.50	65535.00
487.68	65535.00
487.85	65535.00
488.03	65535.00
488.21	65535.00
488.39	65535.00
488.57	65535.00
488.75	65535.00
488.92	65535.00
489.10	65535.00
489.28	65535.00
489.46	65535.00
489.64	65535.00
489.81	65535.00
489.99	65535.00
490.17	65535.00
490.35	65535.00
490.53	65535.00
490.70	65535.00
490.88	65535.00
491.06	65535.00
491.24	65535.00
491.41	65535.00
491.59	65535.00
491.77	65535.00
491.95	65535.00
492.13	65535.00
492.30	65535.00
492.48	65535.00
492.66	65535.00
492.84	65535.00
493.01	65535.00
493.19	65535.00
493.37	65535.00
493.54	65535.00
493.72	65535.00
493.90	65535.00
494.08	65535.00
494.25	65535.00
494.43	65535.00
494.61	65535.00
494.79	65535.00
494.96	65535.00
495.14	65535.00
495.32	65535.00
495.49	65535.00
495.67	65535.00
495.85	65535.00
496.02	65535.00
496.20	65535.00
496.38	65535.00
496.55	65535.00
496.73	65535.00
496.91	65535.00
497.09	65535.00
497.26	65535.00
497.44	65535.00
497.62	65535.00
497.79	65535.00
497.97	65535.00
498.14	65535.00
498.32	65535.00
498.50	65535.00
498.67	65535.00
498.85	65535.00
499.03	65535.00
499.20	65535.00
499.38	65535.00
499.56	65535.00
499.73	65535.00
499.91	65535.00
500.08	65535.00
500.26	65535.00
500.44	65535.00
500.61	65535.00
500.79	65535.00
500.97	65535.00
501.14	65535.00
501.32	65535.00
501.49	65535.00
501.67	65535.00
501.84	65535.00
502.02	65535.00
502.20	65535.00
502.37	65535.00
502.55	65535.00
502.72	65535.00
502.90	65535.00
503.07	65535.00
503.25	65535.00
503.43	65535.00
503.60	65535.00
503.78	65535.00
503.95	65535.00
504.13	65535.00
504.30	65535.00
504.48	65535.00
504.65	65535.00
504.83	65535.00
505.01	65535.00
505.18	65535.00
505.36	65535.00
505.53	65535.00
505.71	65535.00
505.88	65535.00
506.06	65535.00
506.23	65535.00
506.41	65535.00
506.58	65535.00
506.76	65535.00
506.93	65535.00
507.11	65535.00
507.28	65535.00
507.46	65535.00
507.63	65535.00
507.81	65535.00
507.98	65535.00
508.16	65535.00
508.33	65535.00
508.50	65535.00
508.68	65535.00
508.85	65535.00
509.03	65535.00
509.20	65535.00
509.38	65535.00
509.55	65535.00
509.73	65535.00
509.90	65535.00
510.08	65535.00
510.25	65535.00
510.42	65535.00
510.60	65535.00
510.77	65535.00
510.95	65535.00
511.12	65535.00
511.30	65535.00
511.47	65535.00
511.64	65535.00
511.82	65535.00
511.99	65535.00
512.17	65535.00
512.34	65535.00
512.51	65535.00
512.69	65535.00
512.86	65535.00
513.04	65535.00
513.21	65535.00
513.38	65535.00
513.56	65535.00
513.73	65535.00
513.90	65535.00
514.08	65535.00
514.25	65535.00
514.43	65535.00
514.60	65535.00
514.77	65535.00
514.95	65535.00
515.12	65535.00
515.29	65535.00
515.47	65535.00
515.64	65535.00
515.81	65535.00
515.99	65535.00
516.16	65535.00
516.33	65535.00
516.51	65535.00
516.68	65535.00
516.85	65535.00
517.03	65535.00
517.20	65535.00
517.37	65535.00
517.54	65535.00
517.72	65535.00
517.89	65535.00
518.06	65535.00
518.24	65535.00
518.41	65535.00
518.58	65535.00
518.75	65535.00
518.93	65535.00
519.10	65535.00
519.27	65535.00
519.45	65535.00
519.62	65535.00
519.79	65535.00
519.96	65535.00
520.14	65535.00
520.31	65535.00
520.48	65535.00
520.65	65535.00
520.83	65535.00
521.00	65535.00
521.17	65535.00
521.34	65535.00
521.52	65535.00
521.69	65535.00
521.86	65535.00
522.03	65535.00
522.20	65535.00
522.38	65535.00
522.55	65535.00
522.72	65535.00
522.89	65535.00
523.07	65535.00
523.24	65535.00
523.41	65535.00
523.58	65535.00
523.75	65535.00
523.92	65535.00
524.10	65535.00
524.27	65535.00
524.44	65535.00
524.61	65535.00
524.78	65535.00
524.96	65535.00
525.13	65535.00
525.30	65535.00
525.47	65535.00
525.64	65535.00
525.81	65535.00
525.98	65535.00
526.16	65535.00
526.33	65535.00
526.50	65535.00
526.67	65535.00
526.84	65535.00
527.01	65535.00
527.18	65535.00
527.36	65535.00
527.53	65535.00
527.70	65535.00
527.87	65535.00
528.04	65535.00
528.21	65535.00
528.38	65535.00
528.55	65535.00
528.72	65535.00
528.89	65535.00
529.07	65535.00
529.24	65535.00
529.41	65535.00
529.58	65535.00
529.75	65535.00
529.92	65535.00
530.09	65535.00
530.26	65535.00
530.43	65535.00
530.60	65535.00
530.77	65535.00
530.94	65535.00
531.11	65535.00
531.28	65535.00
531.46	65535.00
531.63	65535.00
531.80	65535.00
531.97	65535.00
532.14	65535.00
532.31	65535.00
532.48	65535.00
532.65	65535.00
532.82	65535.00
532.99	65535.00
533.16	65535.00
533.33	65535.00
533.50	65535.00
533.67	65535.00
533.84	65535.00
534.01	65535.00
534.18	65535.00
534.35	65535.00
534.52	65535.00
534.69	65535.00
534.86	65535.00
535.03	65535.00
535.20	65535.00
535.37	65535.00
535.54	65535.00
535.71	65535.00
535.88	65535.00
536.05	65535.00
536.22	65535.00
536.38	65535.00
536.55	65535.00
536.72	65535.00
536.89	65535.00
537.06	65535.00
537.23	65535.00
537.40	65535.00
537.57	65535.00
537.74	65535.00
537.91	65535.00
538.08	65535.00
538.25	65535.00
538.42	65535.00
538.59	65535.00
538.75	65535.00
538.92	65535.00
539.09	65535.00
539.26	65535.00
539.43	65535.00
539.60	65535.00
539.77	65535.00
539.94	65535.00
540.11	65535.00
540.28	65535.00
540.44	65535.00
540.61	65535.00
540.78	65535.00
540.95	65535.00
541.12	65535.00
541.29	65535.00
541.46	65535.00
541.62	65535.00
541.79	65535.00
541.96	65535.00
542.13	65535.00
542.30	65535.00
542.47	65535.00
542.63	65535.00
542.80	65535.00
542.97	65535.00
543.14	65535.00
543.31	65535.00
543.48	65535.00
543.64	65535.00
543.81	65535.00
543.98	65535.00
544.15	65535.00
544.32	65535.00
544.48	65535.00
544.65	65535.00
544.82	65535.00
544.99	65535.00
545.16	65535.00
545.32	65535.00
545.49	65535.00
545.66	65535.00
545.83	65535.00
546.00	65535.00
546.16	65535.00
546.33	65535.00
546.50	65535.00
546.67	65535.00
546.83	65535.00
547.00	65535.00
547.17	65535.00
547.34	65535.00
547.50	65535.00
547.67	65535.00
547.84	65535.00
548.00	65535.00
548.17	65535.00
548.34	65535.00
548.51	65535.00
548.67	65535.00
548.84	65535.00
549.01	65535.00
549.18	65535.00
549.34	65535.00
549.51	65535.00
549.68	65535.00
549.84	65535.00
550.01	65535.00
550.18	65535.00
550.34	65535.00
550.51	65535.00
550.68	65535.00
550.84	65535.00
551.01	65535.00
551.18	65535.00
551.34	65535.00
551.51	65535.00
551.68	65535.00
551.84	65535.00
552.01	65535.00
552.18	65535.00
552.34	65535.00
552.51	65535.00
552.68	65535.00
552.84	65535.00
553.01	65535.00
553.18	65535.00
553.34	65535.00
553.51	65535.00
553.67	65535.00
553.84	65535.00
554.01	65535.00
554.17	65535.00
554.34	65535.00
554.51	65535.00
554.67	65535.00
554.84	65535.00
555.00	65535.00
555.17	65535.00
555.33	65535.00
555.50	65535.00
555.67	65535.00
555.83	65535.00
556.00	65535.00
556.16	65535.00
556.33	65535.00
556.50	65535.00
556.66	65535.00
556.83	65535.00
556.99	65535.00
557.16	65535.00
557.32	65535.00
557.49	65535.00
557.65	65535.00
557.82	65535.00
557.98	65535.00
558.15	65535.00
558.32	65535.00
558.48	65535.00
558.65	65535.00
558.81	65535.00
558.98	65535.00
559.14	65535.00
559.31	65535.00
559.47	65535.00
559.64	65535.00
559.80	65535.00
559.97	65535.00
560.13	65535.00
560.30	65535.00
560.46	65535.00
560.63	65535.00
560.79	65535.00
560.96	65535.00
561.12	65535.00
561.29	65535.00
561.45	65535.00
561.61	65535.00
561.78	65535.00
561.94	65535.00
562.11	65535.00
562.27	65535.00
562.44	65535.00
562.60	65535.00
562.77	65535.00
562.93	65535.00
563.10	65535.00
563.26	65535.00
563.42	65535.00
563.59	65535.00
563.75	65535.00
563.92	65535.00
564.08	65535.00
564.24	65535.00
564.41	65535.00
564.57	65535.00
564.74	65535.00
564.90	65535.00
565.07	65535.00
565.23	65535.00
565.39	65535.00
565.56	65535.00
565.72	65535.00
565.88	65535.00
566.05	65535.00
566.21	65535.00
566.38	65535.00
566.54	65535.00
566.70	65535.00
566.87	65535.00
567.03	65535.00
567.19	65535.00
567.36	65535.00
567.52	65535.00
567.68	65535.00
567.85	65535.00
568.01	65535.00
568.17	65535.00
568.34	65535.00
568.50	65535.00
568.66	65535.00
568.83	65535.00
568.99	65535.00
569.15	65535.00
569.32	65535.00
569.48	65535.00
569.64	65535.00
569.81	65535.00
569.97	65535.00
570.13	65535.00
570.30	65535.00
570.46	65535.00
570.62	65535.00
570.78	65535.00
570.95	65535.00
571.11	65535.00
571.27	65535.00
571.43	65535.00
571.60	65535.00
571.76	65535.00
571.92	65535.00
572.09	65535.00
572.25	65535.00
572.41	65535.00
572.57	65535.00
572.74	65535.00
572.90	65535.00
573.06	65535.00
573.22	65535.00
573.38	65535.00
573.55	65535.00
573.71	65535.00
573.87	65535.00
574.03	65535.00
574.20	65535.00
574.36	65535.00
574.52	65535.00
574.68	65535.00
574.84	65535.00
575.01	65535.00
575.17	65535.00
575.33	65535.00
575.49	65535.00
575.65	65535.00
575.82	65535.00
575.98	65535.00
576.14	65535.00
576.30	65535.00
576.46	65535.00
576.62	65535.00
576.79	65535.00
576.95	65535.00
577.11	65535.00
577.27	65535.00
577.43	65535.00
577.59	65535.00
577.75	65535.00
577.92	65535.00
578.08	65535.00
578.24	65535.00
578.40	65535.00
578.56	65535.00
578.72	65535.00
578.88	65535.00
579.04	65535.00
579.21	65535.00
579.37	65535.00
579.53	65535.00
579.69	65535.00
579.85	65535.00
580.01	65535.00
580.17	65535.00
580.33	65535.00
580.49	65535.00
580.65	65535.00
580.82	65535.00
580.98	65535.00
581.14	65535.00
581.30	65535.00
581.46	65535.00
581.62	65535.00
581.78	65535.00
581.94	65535.00
582.10	65535.00
582.26	65535.00
582.42	65535.00
582.58	65535.00
582.74	65535.00
582.90	65535.00
583.06	65535.00
583.22	65535.00
583.38	65535.00
583.54	65535.00
583.70	65535.00
