SpectraSuite Data File
++++++++++++++++++++++++++++++++++++
Date: Mon Oct 07 14:53:26 GMT-05:00 2013
User: price-jones
Dark Spectrum Present: No
Reference Spectrum Present: No
Number of Sampled Component Spectra: 1
Spectrometers: USB2+H05261
Integration Time (usec): 100000 (USB2+H05261)
Spectra Averaged: 1 (USB2+H05261)
Boxcar Smoothing: 0 (USB2+H05261)
Correct for Electrical Dark: No (USB2+H05261)
Strobe/Lamp Enabled: No (USB2+H05261)
Correct for Detector Non-linearity: No (USB2+H05261)
Correct for Stray Light: No (USB2+H05261)
Number of Pixels in Processed Spectrum: 2048
>>>>>Begin Processed Spectral Data<<<<<
365.73	0.00
365.92	0.00
366.12	0.00
366.32	0.00
366.52	0.00
366.72	0.00
366.91	0.00
367.11	0.00
367.31	0.00
367.51	0.00
367.70	0.00
367.90	0.00
368.10	0.00
368.30	0.00
368.49	0.00
368.69	0.00
368.89	0.00
369.09	0.00
369.28	0.00
369.48	0.00
369.68	0.00
369.87	0.00
370.07	0.00
370.27	0.00
370.47	449.38
370.66	2651.83
370.86	3045.04
371.06	3353.99
371.25	3405.48
371.45	2956.10
371.65	2729.06
371.84	2450.54
372.04	2684.59
372.24	2988.86
372.44	3089.51
372.63	3012.27
372.83	2892.90
373.03	2502.03
373.22	2148.61
373.42	2394.37
373.62	2829.71
373.81	3089.51
374.01	3012.27
374.21	2815.66
374.40	2558.21
374.60	2619.06
374.79	3059.08
374.99	3562.30
375.19	3803.37
375.38	4011.68
375.58	3545.91
375.78	3548.25
375.97	3527.19
376.17	3688.68
376.37	3602.08
376.56	3796.35
376.76	3995.29
376.95	4259.78
377.15	4629.58
377.35	4751.29
377.54	5034.49
377.74	5081.30
377.93	5146.84
378.13	4975.98
378.33	4777.03
378.52	4425.95
378.72	4119.34
378.91	4107.64
379.11	4109.98
379.31	3737.84
379.50	3770.60
379.70	4159.13
379.89	4484.47
380.09	4788.74
380.28	4938.53
380.48	5062.58
380.68	4847.25
380.87	4910.44
381.07	4432.97
381.26	4074.87
381.46	4007.00
381.65	3852.52
381.85	3503.78
382.04	3379.73
382.24	3295.47
382.43	3155.04
382.63	2874.18
382.83	3002.91
383.02	2984.18
383.22	2928.01
383.41	2995.89
383.61	3276.75
383.80	3667.62
384.00	4234.03
384.19	4669.37
384.39	5046.20
384.58	5111.73
384.78	4865.97
384.97	4730.22
385.17	4545.32
385.36	4409.57
385.56	4159.13
385.75	4304.25
385.95	4678.73
386.14	5039.17
386.34	5083.64
386.53	4877.68
386.72	4631.92
386.92	4652.98
387.11	4980.66
387.31	5064.92
387.50	5050.88
387.70	4812.14
387.89	4819.16
388.09	4968.96
388.28	4777.03
388.48	4985.34
388.67	5371.53
388.86	5774.10
389.06	6237.53
389.25	6476.26
389.45	6546.48
389.64	6597.97
389.84	6321.79
390.03	6401.37
390.22	6572.22
390.42	6626.06
390.61	6974.80
390.81	7454.61
391.00	7667.60
391.19	7679.30
391.39	7206.51
391.58	6904.58
391.78	6471.58
391.97	6293.70
392.16	5820.91
392.36	5352.81
392.55	4283.18
392.75	3480.38
392.94	2869.50
393.13	2745.45
393.33	3133.98
393.52	4177.86
393.71	5268.55
393.91	5750.70
394.10	6424.77
394.29	6890.54
394.49	7566.95
394.68	8011.65
394.88	8116.98
395.07	8482.10
395.26	8170.81
395.46	7836.11
395.65	7485.03
395.84	6686.91
396.04	5710.91
396.23	4589.79
396.42	3843.16
396.62	3630.17
396.81	4245.73
397.00	5336.42
397.19	6871.81
397.39	8358.05
397.58	9020.42
397.77	9895.78
397.97	9898.13
398.16	10061.96
398.35	10382.62
398.55	10740.72
398.74	11199.46
398.93	11520.12
399.12	11218.19
399.32	10469.22
399.51	11035.63
399.70	11880.56
399.90	11602.04
400.09	11737.79
400.28	11859.49
400.47	11815.02
400.67	12290.15
400.86	12496.12
401.05	12669.32
401.24	12755.92
401.44	12807.41
401.63	12842.52
401.82	12917.42
402.01	12875.29
402.21	12872.95
402.40	13289.56
402.59	12725.49
402.78	12196.53
402.97	11800.98
403.17	12224.62
403.36	13092.96
403.55	13692.13
403.74	13703.84
403.93	13172.54
404.13	12131.00
404.32	11985.88
404.51	12444.63
404.70	13460.42
404.89	13135.09
405.09	13523.62
405.28	12814.43
405.47	12800.39
405.66	12709.11
405.85	12395.48
406.05	12116.95
406.24	12175.47
406.43	12758.26
406.62	13488.51
406.81	13427.65
407.00	12945.50
407.20	12690.38
407.39	12613.15
407.58	13448.72
407.77	13994.06
407.96	14125.13
408.15	14366.21
408.34	14288.97
408.54	15225.18
408.73	15342.21
408.92	14867.08
409.11	14356.85
409.30	13757.67
409.49	13329.35
409.68	12414.20
409.87	11971.84
410.07	12643.57
410.26	13671.07
410.45	14487.92
410.64	14871.76
410.83	15314.13
411.02	15648.82
411.21	16512.48
411.40	15854.79
411.59	16072.46
411.78	15901.60
411.98	15667.55
412.17	16156.72
412.36	15875.85
412.55	15990.54
412.74	15360.94
412.93	15147.95
413.12	15330.51
413.31	16732.49
413.50	16594.40
413.69	17179.53
413.88	16496.10
414.07	15800.96
414.26	16428.22
414.45	16905.69
414.64	16711.42
414.83	16893.99
415.02	16596.74
415.22	16779.30
415.41	17057.82
415.60	17378.48
415.79	18373.21
415.98	18466.83
416.17	18335.76
416.36	18120.43
416.55	17996.38
416.74	17177.19
416.93	16791.00
417.12	16587.38
417.31	17022.72
417.50	17137.40
417.69	17717.86
417.88	17649.98
418.07	17525.93
418.26	17310.60
418.45	17614.87
418.64	17944.89
418.83	18668.11
419.02	18345.12
419.21	18214.05
419.39	17626.57
419.58	16498.44
419.77	16758.24
419.96	17146.76
420.15	18506.62
420.34	18735.99
420.53	19473.26
420.72	19751.78
420.91	19910.94
421.10	19719.01
421.29	19136.22
421.48	18569.81
421.67	19630.07
421.86	19140.90
422.05	17968.29
422.24	16093.52
422.43	15775.21
422.61	17490.82
422.80	18888.12
422.99	18899.83
423.18	18139.15
423.37	18108.72
423.56	18031.49
423.75	18249.16
423.94	18523.00
424.13	17762.33
424.32	17874.67
424.50	17755.30
424.69	17521.25
424.88	17649.98
425.07	17605.51
425.26	17570.40
425.45	17139.74
425.64	17097.61
425.83	16938.46
426.01	18104.04
426.20	18747.69
426.39	18649.39
426.58	17114.00
426.77	15683.93
426.96	15302.42
427.15	15690.95
427.33	17273.15
427.52	17865.31
427.71	17970.63
427.90	17532.95
428.09	17336.35
428.28	17071.87
428.46	16374.39
428.65	16189.49
428.84	16676.32
429.03	17013.35
429.22	16276.09
429.40	15246.25
429.59	13628.94
429.78	12552.29
429.97	12238.66
430.16	12582.72
430.34	12648.26
430.53	12556.97
430.72	12772.30
430.91	14190.67
431.10	16245.66
431.28	19302.40
431.47	21252.06
431.66	21467.39
431.85	19538.79
432.03	17809.14
432.22	17259.11
432.41	17565.72
432.60	19836.04
432.79	20599.05
432.97	20994.61
433.16	20240.95
433.35	18609.60
433.54	16753.55
433.72	15854.79
433.91	16081.82
434.10	18050.21
434.28	19538.79
434.47	20554.58
434.66	20606.08
434.85	19922.64
435.03	19475.60
435.22	20273.72
435.41	21462.71
435.59	21376.11
435.78	21638.25
435.97	22253.81
436.16	22356.80
436.34	22017.42
436.53	21488.46
436.72	21528.25
436.90	20439.90
437.09	20521.82
437.28	19950.73
437.46	20842.47
437.65	20798.00
437.84	19213.46
438.02	17879.35
438.21	17874.67
438.40	18373.21
438.58	20247.97
438.77	20971.20
438.96	21186.53
439.14	22047.85
439.33	22312.33
439.52	22944.27
439.70	22462.12
439.89	21802.09
440.08	21228.66
440.26	21081.21
440.45	21514.20
440.63	23101.09
440.82	24540.52
441.01	24037.30
441.19	23639.41
441.38	23978.79
441.57	25181.82
441.75	25516.52
441.94	25582.06
442.12	25769.30
442.31	25678.02
442.50	25675.68
442.68	25350.34
442.87	25214.59
443.05	24622.44
443.24	25027.35
443.43	25490.77
443.61	25956.54
443.80	26618.91
443.98	24961.81
444.17	24837.76
444.35	26579.12
444.54	27009.78
444.73	26487.84
444.91	25497.80
445.10	24554.56
445.28	23194.71
445.47	22995.76
445.65	23566.85
445.84	23985.81
446.02	24931.39
446.21	24730.10
446.39	25469.71
446.58	25579.71
446.77	25928.45
446.95	26197.62
447.14	27365.54
447.32	27288.31
447.51	26609.55
447.69	26047.82
447.88	25605.46
448.06	25560.99
448.25	26586.15
448.43	26698.49
448.62	25958.88
448.80	25886.32
448.99	26001.01
449.17	26342.73
449.36	26501.89
449.54	27187.66
449.73	27646.41
449.91	27936.63
450.10	28732.42
450.28	28987.53
450.46	29076.48
450.65	29142.01
450.83	28926.68
451.02	28170.69
451.20	28425.81
451.39	27969.40
451.57	27653.43
451.76	27653.43
451.94	27681.52
452.13	27419.38
452.31	26038.46
452.49	24512.43
452.68	25170.12
452.86	24968.84
453.05	25568.01
453.23	25937.82
453.42	26705.51
453.60	27346.82
453.78	27962.38
453.97	27274.26
454.15	27608.96
454.34	26890.41
454.52	27140.85
454.70	26555.72
454.89	26574.44
455.07	27161.92
455.26	27175.96
455.44	28339.21
455.62	28830.72
455.81	28971.15
455.99	28870.51
456.17	28615.39
456.36	28489.00
456.54	29205.20
456.73	29083.50
456.91	29853.53
457.09	29563.31
457.28	30228.02
457.46	29055.41
457.64	28989.88
457.83	28194.09
458.01	27402.99
458.19	28271.33
458.38	28540.49
458.56	29462.66
458.74	29139.67
458.93	28507.72
459.11	28381.34
459.29	28517.09
459.48	28489.00
459.66	28428.15
459.84	28926.68
460.03	29233.29
460.21	28917.32
460.39	29652.25
460.57	29965.88
460.76	30625.91
460.94	30263.13
461.12	29743.53
461.31	29837.15
461.49	29912.05
461.67	30082.91
461.85	30972.31
462.04	30705.49
462.22	31105.72
462.40	30761.66
462.59	30092.27
462.77	30637.61
462.95	30576.76
463.13	30380.15
463.32	29858.21
463.50	29612.46
463.68	29834.81
463.86	30054.82
464.05	29509.47
464.23	28683.27
464.41	28938.38
464.59	28552.20
464.78	29785.66
464.96	29450.96
465.14	29404.15
465.32	30071.20
465.50	30810.81
465.69	30991.03
465.87	30539.31
466.05	29677.99
466.23	28245.58
466.41	27639.39
466.60	28528.79
466.78	28367.29
466.96	29146.69
467.14	29216.91
467.32	29998.65
467.51	30019.71
467.69	28711.35
467.87	28744.12
468.05	29640.54
468.23	29553.94
468.41	29277.76
468.60	29504.79
468.78	30237.38
468.96	29823.11
469.14	30183.55
469.32	30176.53
469.50	29127.97
469.69	29284.78
469.87	28701.99
470.05	28699.65
470.23	28954.77
470.41	28741.78
470.59	29521.18
470.77	29317.55
470.95	30167.16
471.14	29996.31
471.32	30321.64
471.50	32086.40
471.68	32173.00
471.86	32360.25
472.04	32659.84
472.22	32168.32
472.40	30700.81
472.58	30843.58
472.77	30265.47
472.95	30834.22
473.13	31557.44
473.31	30771.02
473.49	31087.00
473.67	31627.66
473.85	31812.56
474.03	32690.26
474.21	33069.43
474.39	32814.31
474.57	33481.36
474.75	33111.56
474.93	32828.35
475.12	32177.68
475.30	32486.64
475.48	32245.56
475.66	32732.39
475.84	32580.26
476.02	32493.66
476.20	31772.77
476.38	32587.28
476.56	33680.31
476.74	34148.42
476.92	34080.54
477.10	34728.87
477.28	35407.62
477.46	35601.89
477.64	36058.29
477.82	35847.64
478.00	36130.85
478.18	35779.77
478.36	35489.54
478.54	35316.34
478.72	35356.13
478.90	36692.58
479.08	37886.25
479.26	37792.63
479.44	37773.91
479.62	37640.50
479.80	37923.70
479.98	38139.03
480.16	38410.53
480.34	37523.47
480.52	38188.18
480.70	38162.43
480.88	38316.91
481.06	39084.61
481.24	39416.96
481.41	40355.52
481.59	40605.95
481.77	40552.12
481.95	40006.78
482.13	39697.83
482.31	39938.90
482.49	40425.73
482.67	40172.96
482.85	40584.89
483.03	41256.62
483.21	41696.64
483.39	41490.68
483.57	40842.35
483.74	40603.61
483.92	40657.45
484.10	41081.08
484.28	42024.32
484.46	42286.46
484.64	42855.21
484.82	41935.38
485.00	41588.98
485.18	40624.68
485.35	39501.22
485.53	36336.82
485.71	33212.20
485.89	32877.51
486.07	34412.90
486.25	37376.01
486.43	39328.02
486.61	40528.72
486.78	40112.10
486.96	40650.42
487.14	42230.29
487.32	42670.31
487.50	43983.35
487.68	44811.90
487.85	45598.32
488.03	45893.22
488.21	45308.09
488.39	44453.79
488.57	43512.90
488.75	43524.60
488.92	44409.32
489.10	46965.19
489.28	48442.07
489.46	49099.76
489.64	48851.66
489.81	49422.75
489.99	49017.84
490.17	49092.74
490.35	49324.45
490.53	48765.06
490.70	48680.80
490.88	48247.80
491.06	49705.96
491.24	49368.92
491.41	48306.32
491.59	45998.55
491.77	45221.49
491.95	46712.41
492.13	48329.72
492.30	49605.31
492.48	50742.81
492.66	51089.21
492.84	51061.13
493.01	50623.45
493.19	50075.76
493.37	49684.89
493.54	49457.86
493.72	50326.20
493.90	51400.50
494.08	52210.33
494.25	52591.84
494.43	52814.19
494.61	53116.12
494.79	53315.06
494.96	52996.75
495.14	52381.19
495.32	51292.84
495.49	50562.59
495.67	51594.77
495.85	53455.50
496.02	53609.97
496.20	53535.07
496.38	52926.53
496.55	52956.96
496.73	53605.29
496.91	53530.39
497.09	54251.28
497.26	54501.71
497.44	54078.08
497.62	53368.90
497.79	52594.18
497.97	50972.19
498.14	51068.15
498.32	52229.05
498.50	53656.78
498.67	54096.80
498.85	53616.99
499.03	54197.44
499.20	54244.26
499.38	54246.60
499.56	54213.83
499.73	53588.91
499.91	53396.98
500.08	52704.18
500.26	52002.02
500.44	52348.42
500.61	53235.48
500.79	53188.67
500.97	52598.86
501.14	52514.60
501.32	52428.00
501.49	52332.04
501.67	52442.04
501.84	53055.26
502.02	53460.18
502.20	53769.13
502.37	53947.01
502.55	54057.01
502.72	54436.18
502.90	55002.59
503.07	54796.62
503.25	54328.52
503.43	53429.75
503.60	52418.64
503.78	51789.03
503.95	52591.84
504.13	54080.42
504.30	55000.25
504.48	54798.96
504.65	54288.73
504.83	54124.89
505.01	55189.83
505.18	55461.33
505.36	55938.80
505.53	56102.64
505.71	56308.61
505.88	56198.60
506.06	55510.49
506.23	55215.58
506.41	54939.39
506.58	55276.43
506.76	55224.94
506.93	55157.06
507.11	54855.14
507.28	54988.55
507.46	54571.93
507.63	54031.27
507.81	53556.14
507.98	53996.16
508.16	54600.02
508.33	55220.26
508.50	55859.23
508.68	55845.18
508.85	56306.27
509.03	56364.78
509.20	56301.59
509.38	55625.17
509.55	54794.28
509.73	54653.85
509.90	55140.68
510.08	55695.39
510.25	55458.99
510.42	55311.54
510.60	55220.26
510.77	55718.79
510.95	56027.74
511.12	56179.88
511.30	56535.64
511.47	56945.23
511.64	56788.42
511.82	56430.32
511.99	55437.93
512.17	55344.31
512.34	54284.04
512.51	55133.66
512.69	54873.86
512.86	55386.44
513.04	55693.05
513.21	55875.61
513.38	55285.79
513.56	54585.97
513.73	54174.04
513.90	54412.77
514.08	54578.95
514.25	54845.77
514.43	55103.23
514.60	55124.30
514.77	55290.48
514.95	55377.08
515.12	55075.15
515.29	55395.80
515.47	55891.99
515.64	56236.05
515.81	55777.31
515.99	55028.34
516.16	53923.60
516.33	51004.95
516.51	49162.95
516.68	48746.34
516.85	47870.98
517.03	48746.34
517.20	51608.81
517.37	54342.56
517.54	55505.80
517.72	54574.27
517.89	52182.24
518.06	49312.75
518.24	49785.54
518.41	52425.66
518.58	53970.41
518.75	54136.59
518.93	54211.49
519.10	54073.40
519.27	54887.90
519.45	54815.35
519.62	55664.96
519.79	56102.64
519.96	55770.28
520.14	55253.03
520.31	54155.32
520.48	54375.33
520.65	54698.32
520.83	55683.69
521.00	56076.90
521.17	55641.56
521.34	55636.87
521.52	55552.62
521.69	56287.54
521.86	56666.71
522.03	56537.98
522.20	55044.72
522.38	54148.29
522.55	54026.59
522.72	54562.57
522.89	55000.25
523.07	54972.16
523.24	55152.38
523.41	56133.07
523.58	56575.43
523.75	57118.43
523.92	57024.81
524.10	56802.46
524.27	56676.07
524.44	56547.34
524.61	56329.67
524.78	56264.14
524.96	56214.99
525.13	56198.60
525.30	56460.74
525.47	56765.01
525.64	56718.20
525.81	56243.07
525.98	54344.90
526.16	52959.30
526.33	52102.67
526.50	51819.46
526.67	51220.28
526.84	52109.69
527.01	53137.18
527.18	53968.07
527.36	55271.75
527.53	56231.37
527.70	56161.15
527.87	55599.43
528.04	55309.20
528.21	55648.58
528.38	56411.59
528.55	56942.89
528.72	57467.17
528.89	57371.21
529.07	57317.38
529.24	56584.79
529.41	55880.29
529.58	55145.36
529.75	55185.15
529.92	55718.79
530.09	56252.44
530.26	57031.83
530.43	57123.11
530.60	56928.85
530.77	57406.32
530.94	57621.65
531.11	56729.90
531.28	56526.28
531.46	56203.28
531.63	56289.88
531.80	56367.12
531.97	55863.91
532.14	55166.43
532.31	54284.04
532.48	53631.04
532.65	53471.88
532.82	54485.33
532.99	55625.17
533.16	55910.72
533.33	56526.28
533.50	56315.63
533.67	55707.09
533.84	55201.53
534.01	55370.05
534.18	55454.31
534.35	55671.98
534.52	55597.09
534.69	55903.70
534.86	56079.24
535.03	56669.05
535.20	56870.34
535.37	57354.83
535.54	57476.54
535.71	57041.20
535.88	56498.19
536.05	56046.47
536.22	55590.06
536.38	55430.91
536.55	54831.73
536.72	54246.60
536.89	53998.50
537.06	55154.72
537.23	56158.81
537.40	56193.92
537.57	56432.66
537.74	55931.78
537.91	56133.07
538.08	56093.28
538.25	55915.40
538.42	56121.37
538.59	55973.91
538.75	55098.55
538.92	54920.67
539.09	54698.32
539.26	54782.58
539.43	54361.28
539.60	54607.04
539.77	54887.90
539.94	54644.49
540.11	53792.53
540.28	53186.33
540.44	53450.81
540.61	53343.15
540.78	53916.58
540.95	54380.01
541.12	54745.13
541.29	55007.27
541.46	55470.70
541.62	55629.85
541.79	55068.12
541.96	54482.99
542.13	54471.29
542.30	55079.83
542.47	54829.39
542.63	54796.62
542.80	54536.82
542.97	54796.62
543.14	54639.81
543.31	54583.63
543.48	55238.98
543.64	55962.21
543.81	56193.92
543.98	56004.34
544.15	55372.39
544.32	54628.10
544.48	55000.25
544.65	55213.24
544.82	55812.41
544.99	55283.45
545.16	54850.45
545.32	54897.27
545.49	55428.57
545.66	56032.42
545.83	55704.75
546.00	55002.59
546.16	54829.39
546.33	54955.78
546.50	54955.78
546.67	55178.13
546.83	54761.51
547.00	54726.41
547.17	54131.91
547.34	53703.59
547.50	53752.74
547.67	54092.12
547.84	54181.06
548.00	54614.06
548.17	54906.63
548.34	54911.31
548.51	54726.41
548.67	54939.39
548.84	54941.74
549.01	54848.11
549.18	54660.87
549.34	54845.77
549.51	54836.41
549.68	54681.94
549.84	54464.27
550.01	54328.52
550.18	54073.40
550.34	54293.41
550.51	54326.17
550.68	54522.78
550.84	53818.28
551.01	53799.55
551.18	53888.49
551.34	54387.03
551.51	54394.05
551.68	54955.78
551.84	54883.22
552.01	54805.98
552.18	54529.80
552.34	53719.98
552.51	53303.36
552.68	53195.70
552.84	54007.86
553.01	54164.68
553.18	53717.64
553.34	53764.45
553.51	54176.38
553.67	54585.97
553.84	54457.24
554.01	54347.24
554.17	53965.73
554.34	54504.06
554.51	54478.31
554.67	54796.62
554.84	54915.99
555.00	54429.16
555.17	53684.87
555.33	53829.98
555.50	53904.88
555.67	53979.78
555.83	53673.16
556.00	53347.83
556.16	53553.80
556.33	53134.84
556.50	52910.15
556.66	52905.47
556.83	52439.70
556.99	52729.93
557.16	52788.44
557.32	53251.87
557.49	53490.60
557.65	53382.94
557.82	53282.30
557.98	53022.50
558.15	52591.84
558.32	51901.38
558.48	50672.60
558.65	51049.42
558.81	51641.58
558.98	52016.07
559.14	51941.17
559.31	52217.35
559.47	52140.11
559.64	51772.65
559.80	51391.14
559.97	51423.91
560.13	52037.13
560.30	52856.32
560.46	53448.47
560.63	53741.04
560.79	53572.52
560.96	53118.46
561.12	52069.90
561.29	51313.90
561.45	51143.05
561.61	51807.76
561.78	52325.02
561.94	51885.00
562.11	51913.08
562.27	51412.21
562.44	52069.90
562.60	52608.22
562.77	52814.19
562.93	52479.49
563.10	52542.69
563.26	51695.41
563.42	51868.61
563.59	51707.12
563.75	51454.34
563.92	51735.20
564.08	51756.27
564.24	52151.82
564.41	52346.08
564.57	51920.10
564.74	51655.62
564.90	51423.91
565.07	51267.09
565.23	50995.59
565.39	50356.63
565.56	50127.25
565.72	49593.61
565.88	50206.83
566.05	50344.92
566.21	50864.52
566.38	50913.67
566.54	50536.85
566.70	51311.56
566.87	51842.87
567.03	51756.27
567.19	52121.39
567.36	51847.55
567.52	51519.87
567.68	51023.68
567.85	50373.01
568.01	49874.48
568.17	49350.20
568.34	49610.00
568.50	49478.92
568.66	49563.18
568.83	50342.58
568.99	50113.21
569.15	50284.07
569.32	50305.13
569.48	49806.60
569.64	49830.01
569.81	49612.34
569.97	49296.36
570.13	49352.54
570.30	48800.17
570.46	48245.46
570.62	47676.71
570.78	47086.90
570.95	47655.65
571.11	48830.60
571.27	48931.24
571.43	48966.35
571.60	49415.73
571.76	49727.02
571.92	49902.56
572.09	50370.67
572.25	50567.27
572.41	49963.42
572.57	49965.76
572.74	49907.24
572.90	49389.98
573.06	49368.92
573.22	49483.61
573.38	49579.57
573.55	49521.05
573.71	49563.18
573.87	49380.62
574.03	49207.42
574.20	49289.34
574.36	48952.30
574.52	48748.68
574.68	48928.90
574.84	47842.89
575.01	47641.60
575.17	47536.28
575.33	47674.37
575.49	48065.24
575.65	48362.49
575.82	47969.28
575.98	47800.76
576.14	48137.80
576.30	48376.53
576.46	48650.38
576.62	48399.94
576.79	48016.09
576.95	47767.99
577.11	47779.70
577.27	47943.53
577.43	47873.32
577.59	47856.93
577.75	47510.53
577.92	46134.30
578.08	46082.81
578.24	45937.69
578.40	46358.99
578.56	46829.44
578.72	47257.76
578.88	47253.08
579.04	47182.86
579.21	47622.88
579.37	47767.99
579.53	47501.17
579.69	47559.69
579.85	47903.74
580.01	47849.91
580.17	47166.48
580.33	46719.43
580.49	46796.67
580.65	47714.16
580.82	47695.44
580.98	47388.83
581.14	47639.26
581.30	47552.66
581.46	47182.86
581.62	47784.38
581.78	47674.37
581.94	47772.67
582.10	47440.32
582.26	47775.02
582.42	47695.44
582.58	47650.97
582.74	47522.24
582.90	47578.41
583.06	47622.88
583.22	47751.61
583.38	47269.46
583.54	47173.50
583.70	47318.61
583.86	47480.11
584.02	47133.71
584.18	46899.65
584.34	47178.18
584.50	46813.05
584.66	46958.17
584.82	46483.04
584.98	46476.02
585.14	45631.08
585.30	45010.84
