SpectraSuite Data File
++++++++++++++++++++++++++++++++++++
Date: Mon Oct 07 14:53:54 GMT-05:00 2013
User: price-jones
Dark Spectrum Present: No
Reference Spectrum Present: No
Number of Sampled Component Spectra: 1
Spectrometers: USB2+H05261
Integration Time (usec): 100000 (USB2+H05261)
Spectra Averaged: 1 (USB2+H05261)
Boxcar Smoothing: 0 (USB2+H05261)
Correct for Electrical Dark: No (USB2+H05261)
Strobe/Lamp Enabled: No (USB2+H05261)
Correct for Detector Non-linearity: No (USB2+H05261)
Correct for Stray Light: No (USB2+H05261)
Number of Pixels in Processed Spectrum: 2048
>>>>>Begin Processed Spectral Data<<<<<
365.73	0.00
365.92	0.00
366.12	0.00
366.32	0.00
366.52	0.00
366.72	0.00
366.91	0.00
367.11	0.00
367.31	0.00
367.51	0.00
367.70	0.00
367.90	0.00
368.10	0.00
368.30	0.00
368.49	0.00
368.69	0.00
368.89	0.00
369.09	0.00
369.28	0.00
369.48	0.00
369.68	0.00
369.87	0.00
370.07	0.00
370.27	0.00
370.47	531.30
370.66	3082.49
370.86	3590.38
371.06	3761.24
371.25	3911.04
371.45	3471.01
371.65	3323.56
371.84	2963.12
372.04	3077.80
372.24	3510.80
372.44	3782.31
372.63	3674.64
372.83	3304.84
373.03	2876.52
373.22	2700.98
373.42	2906.95
373.62	3365.69
373.81	3599.74
374.01	3527.19
374.21	3220.58
374.40	2946.73
374.60	3117.59
374.79	3557.61
374.99	4102.96
375.19	4458.72
375.38	4564.04
375.58	4081.89
375.78	3990.61
375.97	4147.43
376.17	4290.20
376.37	4140.41
376.56	4535.96
376.76	4638.94
376.95	4917.47
377.15	5348.12
377.35	5495.58
377.54	5734.31
377.74	5867.72
377.93	5996.45
378.13	6012.84
378.33	5579.84
378.52	4992.36
378.72	4786.40
378.91	4760.65
379.11	4547.66
379.31	4514.89
379.50	4449.36
379.70	4847.25
379.89	5296.63
380.09	5675.80
380.28	5891.13
380.48	5877.09
380.68	5710.91
380.87	5643.03
381.07	5158.54
381.26	4905.76
381.46	4318.29
381.65	4294.88
381.85	4182.54
382.04	3889.97
382.24	3770.60
382.43	3578.68
382.63	3492.08
382.83	3440.59
383.02	3424.20
383.22	3545.91
383.41	3405.48
383.61	3852.52
383.80	4283.18
384.00	4968.96
384.19	5509.62
384.39	5811.55
384.58	5813.89
384.78	5731.97
384.97	5668.78
385.17	5334.08
385.36	4940.87
385.56	4755.97
385.75	4894.06
385.95	5416.00
386.14	5954.32
386.34	6015.18
386.53	5715.59
386.72	5277.91
386.92	5502.60
387.11	5645.37
387.31	5830.27
387.50	5753.04
387.70	5657.07
387.89	5544.73
388.09	5621.97
388.28	5488.56
388.48	5612.60
388.67	6202.42
388.86	6736.06
389.06	7323.54
389.25	7616.10
389.45	7630.15
389.64	7543.55
389.84	7578.65
390.03	7513.12
390.22	7578.65
390.42	7602.06
390.61	8152.09
390.81	8725.52
391.00	9109.36
391.19	8903.40
391.39	8369.76
391.58	7983.57
391.78	7658.23
391.97	7241.62
392.16	6806.28
392.36	6293.70
392.55	5039.17
392.75	4070.19
392.94	3234.62
393.13	3239.30
393.33	3782.31
393.52	4943.21
393.71	5818.57
393.91	6757.13
394.10	7417.16
394.29	7922.71
394.49	8629.56
394.68	9280.22
394.88	9151.49
395.07	9671.09
395.26	9551.73
395.46	9207.67
395.65	8727.86
395.84	7644.19
396.04	6513.71
396.23	5107.05
396.42	4322.97
396.62	4262.12
396.81	4713.84
397.00	6258.59
397.19	7728.45
397.39	9535.34
397.58	10827.32
397.77	11300.11
397.97	11648.85
398.16	11826.73
398.35	12091.21
398.55	12793.37
398.74	12989.97
398.93	13451.06
399.12	13008.70
399.32	12564.00
399.51	12814.43
399.70	13923.85
399.90	13411.27
400.09	13652.34
400.28	13378.50
400.47	13467.44
400.67	14293.65
400.86	14354.51
401.05	14768.78
401.24	14890.49
401.44	14876.44
401.63	14984.11
401.82	14810.91
402.01	15103.48
402.21	15026.24
402.40	15620.74
402.59	14953.68
402.78	14047.90
402.97	13535.32
403.17	14040.87
403.36	15016.88
403.55	15597.33
403.74	16156.72
403.93	15117.52
404.13	14115.77
404.32	13619.58
404.51	14396.64
404.70	15370.30
404.89	15592.65
405.09	15192.42
405.28	14766.44
405.47	14714.95
405.66	14794.53
405.85	14200.03
406.05	14087.68
406.24	14176.62
406.43	14789.85
406.62	15302.42
406.81	15534.14
407.00	14932.62
407.20	14480.89
407.39	14607.28
407.58	15323.49
407.77	15889.90
407.96	16173.10
408.15	16727.81
408.34	16535.88
408.54	17692.11
408.73	17671.04
408.92	17249.75
409.11	17041.44
409.30	16107.57
409.49	15035.60
409.68	14239.82
409.87	13469.78
410.07	14279.61
410.26	15545.84
410.45	16585.04
410.64	16896.33
410.83	17619.55
411.02	17776.37
411.21	18487.89
411.40	18443.42
411.59	18583.85
411.78	18244.48
411.98	18057.23
412.17	18436.40
412.36	17937.87
412.55	18202.35
412.74	17771.69
412.93	17425.29
413.12	17371.46
413.31	19438.15
413.50	19243.88
413.69	19667.52
413.88	18841.31
414.07	18349.80
414.26	18677.48
414.45	19112.81
414.64	19138.56
414.83	19290.70
415.02	18834.29
415.22	19447.51
415.41	19389.00
415.60	20170.74
415.79	20812.04
415.98	21137.38
416.17	21411.22
416.36	20814.38
416.55	20540.54
416.74	19644.12
416.93	19154.94
417.12	19051.96
417.31	19480.28
417.50	19529.43
417.69	20159.03
417.88	20093.50
418.07	20023.28
418.26	19871.15
418.45	20023.28
418.64	20510.11
418.83	21411.22
419.02	21111.63
419.21	20929.07
419.39	20004.56
419.58	18824.93
419.77	19028.56
419.96	19779.87
420.15	21013.33
420.34	21762.30
420.53	22382.54
420.72	22754.69
420.91	22768.73
421.10	22356.80
421.29	22424.67
421.48	21362.07
421.67	22742.99
421.86	21858.26
422.05	20458.62
422.24	18324.05
422.43	18188.30
422.61	20065.41
422.80	21713.15
422.99	21591.44
423.18	21223.98
423.37	20538.20
423.56	20467.98
423.75	20996.95
423.94	21369.09
424.13	19976.47
424.32	20126.27
424.50	20290.10
424.69	19941.36
424.88	20498.41
425.07	19953.07
425.26	20166.06
425.45	19915.62
425.64	19424.11
425.83	19419.42
426.01	20966.52
426.20	20886.94
426.39	21018.01
426.58	19662.84
426.77	18061.91
426.96	17703.81
427.15	17722.54
427.33	19454.53
427.52	20135.63
427.71	20470.33
427.90	20322.87
428.09	19840.72
428.28	19770.51
428.46	19035.58
428.65	18281.92
428.84	18813.23
429.03	19515.39
429.22	18462.15
429.40	17528.27
429.59	15934.37
429.78	13968.32
429.97	13942.57
430.16	14326.42
430.34	14314.72
430.53	14190.67
430.72	14295.99
430.91	16189.49
431.10	18927.91
431.28	22211.68
431.47	24016.24
431.66	24505.41
431.85	21986.99
432.03	20425.86
432.22	19520.07
432.41	20362.66
432.60	22586.17
432.79	23143.22
432.97	24252.63
433.16	23255.56
433.35	21256.75
433.54	19281.33
433.72	17914.46
433.91	18473.85
434.10	20868.22
434.28	22216.36
434.47	23269.61
434.66	23014.49
434.85	22352.12
435.03	22307.65
435.22	23321.10
435.41	24456.26
435.59	24053.69
435.78	24364.98
435.97	25186.50
436.16	25387.79
436.34	25046.07
436.53	24435.19
436.72	24739.46
436.90	23164.28
437.09	23192.37
437.28	22820.22
437.46	23733.03
437.65	23398.34
437.84	22125.08
438.02	19845.40
438.21	19943.70
438.40	21198.23
438.58	22651.70
438.77	23604.30
438.96	23688.56
439.14	24512.43
439.33	25411.20
439.52	25631.21
439.70	25371.41
439.89	24496.05
440.08	24290.08
440.26	23772.82
440.45	25008.62
440.63	26625.93
440.82	27709.60
441.01	27304.69
441.19	26836.58
441.38	27611.30
441.57	28411.76
441.75	28968.81
441.94	29010.94
442.12	28540.49
442.31	29230.95
442.50	29130.31
442.68	28753.48
442.87	28238.56
443.05	27929.61
443.24	28306.44
443.43	28980.51
443.61	29481.39
443.80	30328.66
443.98	28369.63
444.17	28257.29
444.35	30043.12
444.54	30611.87
444.73	30012.69
444.91	28851.78
445.10	27690.88
445.28	26513.59
445.47	26211.66
445.65	26705.51
445.84	27042.55
446.02	27955.36
446.21	28676.24
446.39	28397.72
446.58	28657.52
446.77	29291.80
446.95	29329.25
447.14	30213.98
447.32	31033.16
447.51	30148.44
447.69	29020.30
447.88	28505.38
448.06	28865.83
448.25	29509.47
448.43	29610.12
448.62	29252.02
448.80	28858.81
448.99	29214.57
449.17	29773.95
449.36	29476.71
449.54	31138.49
449.73	31122.10
449.91	31971.72
450.10	32374.29
450.28	33181.77
450.46	32341.52
450.65	32732.39
450.83	32390.67
451.02	31564.46
451.20	31585.53
451.39	31297.64
451.57	31374.88
451.76	31040.18
451.94	31353.82
452.13	30593.14
452.31	29048.39
452.49	27653.43
452.68	28418.78
452.86	28128.56
453.05	28760.50
453.23	29397.13
453.42	30342.70
453.60	30841.24
453.78	31379.56
453.97	30548.67
454.15	31040.18
454.34	30103.97
454.52	30391.86
454.70	29373.72
454.89	30113.33
455.07	30073.54
455.26	30384.83
455.44	31562.12
455.62	32079.38
455.81	32416.42
455.99	32301.73
456.17	31630.00
456.36	31924.91
456.54	32451.53
456.73	32589.62
456.91	32966.45
457.09	33132.62
457.28	33654.56
457.46	32629.41
457.64	32404.72
457.83	31700.22
458.01	30513.56
458.19	31665.11
458.38	31917.89
458.56	33191.14
458.74	33039.00
458.93	31838.31
459.11	32044.27
459.29	31945.97
459.48	32004.49
459.66	31651.06
459.84	32271.31
460.03	32877.51
460.21	32547.49
460.39	33268.37
460.57	33500.09
460.76	33617.11
460.94	33481.36
461.12	33385.40
461.31	33661.58
461.49	33067.09
461.67	33404.13
461.85	34256.08
462.04	33766.91
462.22	34782.70
462.40	34251.40
462.59	33839.47
462.77	34066.50
462.95	34330.98
463.13	33750.52
463.32	33268.37
463.50	33085.81
463.68	33261.35
463.86	33113.90
464.05	32664.52
464.23	32093.43
464.41	32205.77
464.59	31704.90
464.78	33010.92
464.96	32741.75
465.14	32552.17
465.32	33394.76
465.50	34459.71
465.69	34419.92
465.87	33752.87
466.05	33193.48
466.23	31847.67
466.41	31002.74
466.60	31782.13
466.78	31480.21
466.96	32444.51
467.14	32985.17
467.32	33462.64
467.51	33273.06
467.69	31627.66
467.87	32336.84
468.05	32496.00
468.23	32636.43
468.41	33144.33
468.60	33055.39
468.78	33209.86
468.96	33247.31
469.14	33741.16
469.32	33816.06
469.50	32573.24
469.69	32400.04
469.87	32002.14
470.05	32030.23
470.23	31985.76
470.41	32086.40
470.59	32603.66
470.77	32294.71
470.95	33439.23
471.14	33357.32
471.32	33593.71
471.50	35651.04
471.68	35569.12
471.86	35676.79
472.04	35887.43
472.22	36442.14
472.40	34302.89
472.58	34384.81
472.77	33778.61
472.95	34316.93
473.13	35424.01
473.31	34466.73
473.49	34691.42
473.67	35234.42
473.85	35250.81
474.03	36360.22
474.21	36690.24
474.39	36912.59
474.57	36739.39
474.75	36690.24
474.93	36238.51
475.12	35805.52
475.30	35880.41
475.48	35859.35
475.66	36931.31
475.84	35728.28
476.02	35847.64
476.20	35372.52
476.38	35959.99
476.56	36762.79
476.74	37523.47
476.92	37848.80
477.10	38419.89
477.28	39321.00
477.46	39433.35
477.64	40034.86
477.82	39871.03
478.00	40144.87
478.18	39515.26
478.36	39203.97
478.54	39349.09
478.72	39445.05
478.90	40575.53
479.08	41305.77
479.26	41958.78
479.44	41656.85
479.62	41691.96
479.80	41544.51
479.98	41975.17
480.16	42094.53
480.34	41507.06
480.52	42190.50
480.70	42443.27
480.88	42567.32
481.06	42920.74
481.24	43395.87
481.41	44676.15
481.59	45097.44
481.77	44605.93
481.95	44046.54
482.13	43807.81
482.31	43969.30
482.49	44568.48
482.67	44222.08
482.85	44385.92
483.03	45186.38
483.21	45741.09
483.39	45757.47
483.57	44758.06
483.74	44414.01
483.92	45151.27
484.10	44744.02
484.28	46138.98
484.46	46305.16
484.64	47119.66
484.82	45691.94
485.00	45298.73
485.18	44507.63
485.35	43571.41
485.53	40280.62
485.71	36760.45
485.89	35796.15
486.07	37801.99
486.25	41090.44
486.43	43545.67
486.61	44584.86
486.78	44472.52
486.96	44832.96
487.14	45989.19
487.32	47112.64
487.50	47770.33
487.68	49043.59
487.85	49439.14
488.03	49558.50
488.21	48676.12
488.39	48428.02
488.57	47522.24
488.75	47103.28
488.92	48205.67
489.10	50857.50
489.28	51763.29
489.46	52530.98
489.64	52535.66
489.81	52774.40
489.99	52161.18
490.17	52645.67
490.35	52879.72
490.53	52252.46
490.70	51943.51
490.88	51753.93
491.06	52640.99
491.24	52800.15
491.41	51590.09
491.59	49972.78
491.77	49083.37
491.95	50365.99
492.13	51838.18
492.30	52573.11
492.48	53815.94
492.66	54038.29
492.84	54038.29
493.01	53853.39
493.19	53446.13
493.37	52875.04
493.54	52690.14
493.72	53289.32
493.90	54340.22
494.08	55246.00
494.25	55718.79
494.43	55398.14
494.61	56041.79
494.79	56016.04
494.96	55749.22
495.14	55454.31
495.32	54323.83
495.49	53701.25
495.67	54742.79
495.85	56032.42
496.02	56353.08
496.20	56257.12
496.38	55814.76
496.55	55934.12
496.73	56285.20
496.91	56493.51
497.09	57066.94
497.26	57162.90
497.44	56594.15
497.62	55934.12
497.79	55370.05
497.97	53844.02
498.14	54059.35
498.32	55353.67
498.50	56212.65
498.67	56608.20
498.85	56633.94
499.03	56821.19
499.20	56877.36
499.38	57247.16
499.56	57010.77
499.73	56292.22
499.91	56170.52
500.08	55482.40
500.26	54756.83
500.44	55063.44
500.61	56212.65
500.79	55810.07
500.97	55213.24
501.14	54953.44
501.32	55128.98
501.49	55185.15
501.67	55107.91
501.84	55833.48
502.02	56016.04
502.20	56580.11
502.37	56610.54
502.55	56395.21
502.72	57125.46
502.90	57485.90
503.07	57181.63
503.25	56851.61
503.43	55873.27
503.60	55173.45
503.78	54747.47
503.95	55138.34
504.13	56659.69
504.30	57183.97
504.48	57155.88
504.65	56729.90
504.83	56856.29
505.01	57476.54
505.18	57858.04
505.36	58321.47
505.53	58333.17
505.71	58731.06
505.88	58784.90
506.06	57979.75
506.23	57799.53
506.41	57209.71
506.58	57516.32
506.76	57528.03
506.93	57485.90
507.11	57134.82
507.28	57528.03
507.46	57097.37
507.63	56427.98
507.81	55852.20
507.98	56502.87
508.16	57205.03
508.33	57570.16
508.50	58166.99
508.68	58106.14
508.85	58925.33
509.03	58632.76
509.20	58618.72
509.38	57853.36
509.55	57031.83
509.73	57223.76
509.90	57769.10
510.08	57937.62
510.25	57883.79
510.42	57593.56
510.60	57645.05
510.77	57846.34
510.95	58347.21
511.12	58553.18
511.30	58873.84
511.47	59210.87
511.64	58876.18
511.82	58717.02
511.99	57886.13
512.17	57499.94
512.34	57027.15
512.51	57439.09
512.69	57357.17
512.86	57570.16
513.04	58075.71
513.21	57954.00
513.38	57813.57
513.56	57029.49
513.73	56699.48
513.90	56933.53
514.08	56718.20
514.25	56882.04
514.43	57359.51
514.60	57586.54
514.77	57635.69
514.95	57635.69
515.12	57572.50
515.29	57893.15
515.47	58279.34
515.64	58370.62
515.81	58134.23
515.99	57476.54
516.16	56083.92
516.33	53558.48
516.51	52193.95
516.68	51639.24
516.85	50810.69
517.03	51311.56
517.20	54143.61
517.37	56416.27
517.54	57628.67
517.72	57073.96
517.89	54813.01
518.06	52257.14
518.24	52507.58
518.41	54906.63
518.58	56296.91
518.75	56378.82
518.93	56516.92
519.10	56413.93
519.27	56926.51
519.45	56769.69
519.62	57993.79
519.79	58035.92
519.96	57968.05
520.14	57701.23
520.31	56622.24
520.48	56802.46
520.65	56898.42
520.83	58101.46
521.00	58506.37
521.17	58038.26
521.34	57705.91
521.52	57984.43
521.69	58635.10
521.86	58965.12
522.03	58541.48
522.20	57499.94
522.38	56676.07
522.55	56364.78
522.72	56973.32
522.89	57249.50
523.07	57345.47
523.24	57537.39
523.41	58410.41
523.58	58815.32
523.75	59281.09
523.92	58972.14
524.10	58869.15
524.27	58986.18
524.44	58805.96
524.61	58564.88
524.78	58176.36
524.96	58337.85
525.13	58403.39
525.30	58384.66
525.47	59100.87
525.64	59051.72
525.81	58389.34
525.98	56821.19
526.16	55377.08
526.33	54663.21
526.50	54588.31
526.67	54057.01
526.84	54569.59
527.01	55721.13
527.18	56423.29
527.36	57385.25
527.53	58106.14
527.70	58326.15
527.87	57858.04
528.04	57586.54
528.21	57808.89
528.38	58588.29
528.55	59126.61
528.72	59372.37
528.89	59465.99
529.07	59264.70
529.24	58810.64
529.41	58014.86
529.58	57495.26
529.75	57539.73
529.92	57855.70
530.09	58494.67
530.26	58684.25
530.43	59150.02
530.60	59091.51
530.77	59360.67
530.94	59395.77
531.11	59032.99
531.28	58646.80
531.46	58403.39
531.63	58585.95
531.80	58588.29
531.97	58113.16
532.14	57350.15
532.31	56378.82
532.48	55510.49
532.65	55700.07
532.82	56622.24
532.99	57602.92
533.16	57954.00
533.33	58438.50
533.50	58295.72
533.67	57848.68
533.84	57333.76
534.01	57336.10
534.18	57612.29
534.35	58103.80
534.52	57743.36
534.69	58031.24
534.86	58197.42
535.03	58445.52
535.20	59131.29
535.37	59313.86
535.54	59592.38
535.71	58981.50
535.88	58890.22
536.05	57977.41
536.22	57586.54
536.38	57464.83
536.55	56683.09
536.72	56460.74
536.89	56360.10
537.06	57144.18
537.23	57907.19
537.40	58176.36
537.57	58134.23
537.74	57935.28
537.91	57865.06
538.08	57970.39
538.25	58223.17
538.42	58014.86
538.59	57764.42
538.75	57457.81
538.92	57062.26
539.09	56975.66
539.26	56657.35
539.43	56512.23
539.60	56521.60
539.77	56786.08
539.94	57045.88
540.11	56006.68
540.28	55407.50
540.44	55491.76
540.61	55604.11
540.78	56048.81
540.95	56596.49
541.12	56839.91
541.29	57062.26
541.46	57513.98
541.62	57509.30
541.79	57099.71
541.96	56521.60
542.13	56652.67
542.30	57050.56
542.47	57186.31
542.63	56797.78
542.80	56545.00
542.97	56875.02
543.14	56669.05
543.31	56416.27
543.48	57240.14
543.64	57928.26
543.81	58482.97
543.98	58274.66
544.15	57499.94
544.32	56706.50
544.48	56865.66
544.65	57305.68
544.82	57675.48
544.99	57247.16
545.16	56996.73
545.32	56521.60
545.49	57616.97
545.66	57909.53
545.83	57537.39
546.00	57158.22
546.16	56678.41
546.33	56846.93
546.50	56886.72
546.67	57141.84
546.83	56837.57
547.00	56715.86
547.17	56427.98
547.34	55597.09
547.50	55679.00
547.67	55955.19
547.84	55908.38
548.00	56570.75
548.17	57041.20
548.34	56807.14
548.51	56832.89
548.67	56973.32
548.84	56973.32
549.01	56985.02
549.18	56853.95
549.34	56793.10
549.51	56809.48
549.68	56680.75
549.84	56533.30
550.01	56189.24
550.18	56016.04
550.34	56081.58
550.51	56561.39
550.68	56444.36
550.84	55896.67
551.01	55929.44
551.18	56020.72
551.34	56123.71
551.51	56526.28
551.68	56678.41
551.84	56706.50
552.01	56605.86
552.18	56608.20
552.34	55728.16
552.51	55384.10
552.68	55346.65
552.84	55880.29
553.01	56053.49
553.18	55838.16
553.34	56062.85
553.51	56128.39
553.67	56413.93
553.84	56507.55
554.01	56334.35
554.17	55929.44
554.34	56039.45
554.51	56388.19
554.67	56933.53
554.84	56563.73
555.00	56317.97
555.17	55875.61
555.33	56004.34
555.50	56027.74
555.67	55924.76
555.83	55688.37
556.00	55351.33
556.16	55224.94
556.33	54953.44
556.50	54794.28
556.66	55164.09
556.83	54440.86
556.99	54827.05
557.16	54965.14
557.32	55278.77
557.49	55496.44
557.65	55414.52
557.82	55365.37
557.98	55147.70
558.15	54468.95
558.32	53958.71
558.48	53097.39
558.65	53256.55
558.81	53656.78
558.98	53764.45
559.14	54150.63
559.31	53930.62
559.47	54270.00
559.64	53764.45
559.80	53242.51
559.97	53553.80
560.13	54045.31
560.30	54822.37
560.46	55576.02
560.63	55732.84
560.79	55753.90
560.96	55182.81
561.12	54024.25
561.29	53193.36
561.45	53338.47
561.61	54003.18
561.78	54213.83
561.94	54415.11
562.11	53841.68
562.27	53755.08
562.44	54335.54
562.60	54571.93
562.77	54672.57
562.93	54705.34
563.10	54450.22
563.26	53939.99
563.42	54089.78
563.59	53778.49
563.75	53647.42
563.92	54033.61
564.08	53661.46
564.24	54300.43
564.41	54211.49
564.57	53972.75
564.74	53778.49
564.90	53719.98
565.07	53539.75
565.23	53207.40
565.39	52516.94
565.56	52168.20
565.72	51772.65
565.88	52369.49
566.05	52542.69
566.21	52699.50
566.38	53174.63
566.54	53055.26
566.70	53567.84
566.87	53727.00
567.03	53593.59
567.19	53855.73
567.36	53324.43
567.52	53228.46
567.68	53066.97
567.85	52292.25
568.01	52044.15
568.17	51559.66
568.34	51573.70
568.50	51569.02
568.66	51847.55
568.83	52088.62
568.99	52322.68
569.15	52638.65
569.32	52552.05
569.48	52172.88
569.64	52006.70
569.81	51526.89
569.97	51718.82
570.13	51388.80
570.30	50967.51
570.46	50471.31
570.62	49731.70
570.78	49727.02
570.95	50052.36
571.11	50768.56
571.27	50894.95
571.43	51124.32
571.60	51885.00
571.76	51842.87
571.92	52093.30
572.09	52280.55
572.25	52009.04
572.41	51971.60
572.57	51849.89
572.74	51980.96
572.90	51634.56
573.06	51620.52
573.22	51377.10
573.38	51758.61
573.55	51538.60
573.71	51828.82
573.87	51765.63
574.03	51320.93
574.20	51482.42
574.36	51182.84
574.52	50967.51
574.68	50967.51
574.84	50115.55
575.01	49897.88
575.17	50061.72
575.33	50031.29
575.49	50260.66
575.65	50703.03
575.82	50005.55
575.98	49705.96
576.14	50148.32
576.30	50667.92
576.46	50539.19
576.62	50550.89
576.79	50590.68
576.95	49902.56
577.11	49935.33
577.27	50305.13
577.43	50157.68
577.59	50157.68
577.75	49076.35
577.92	48491.22
578.08	48158.86
578.24	48231.42
578.40	48797.83
578.56	49331.47
578.72	49233.17
578.88	49464.88
579.04	49698.94
579.21	49858.09
579.37	49282.32
579.53	49705.96
579.69	49228.49
579.85	50153.00
580.01	49811.28
580.17	49116.14
580.33	49015.50
580.49	49584.25
580.65	49691.91
580.82	49759.79
580.98	49785.54
581.14	49698.94
581.30	49649.78
581.46	49453.18
581.62	49619.36
581.78	49813.62
581.94	49925.97
582.10	50010.23
582.26	49560.84
582.42	49876.82
582.58	49996.18
582.74	49858.09
582.90	49872.14
583.06	49932.99
583.22	49890.86
583.38	49366.58
583.54	49324.45
583.70	49443.82
583.86	49490.63
584.02	49415.73
584.18	49544.46
584.34	48980.39
584.50	49205.08
584.66	49230.83
584.82	48928.90
584.98	48692.50
585.14	48034.81
585.30	47388.83
