SpectraSuite Data File
++++++++++++++++++++++++++++++++++++
Date: Mon Oct 07 14:52:59 GMT-05:00 2013
User: price-jones
Dark Spectrum Present: No
Reference Spectrum Present: No
Number of Sampled Component Spectra: 1
Spectrometers: USB2+H05261
Integration Time (usec): 100000 (USB2+H05261)
Spectra Averaged: 1 (USB2+H05261)
Boxcar Smoothing: 0 (USB2+H05261)
Correct for Electrical Dark: No (USB2+H05261)
Strobe/Lamp Enabled: No (USB2+H05261)
Correct for Detector Non-linearity: No (USB2+H05261)
Correct for Stray Light: No (USB2+H05261)
Number of Pixels in Processed Spectrum: 2048
>>>>>Begin Processed Spectral Data<<<<<
365.73	0.00
365.92	0.00
366.12	0.00
366.32	0.00
366.52	0.00
366.72	0.00
366.91	0.00
367.11	0.00
367.31	0.00
367.51	0.00
367.70	0.00
367.90	0.00
368.10	0.00
368.30	0.00
368.49	0.00
368.69	0.00
368.89	0.00
369.09	0.00
369.28	0.00
369.48	0.00
369.68	0.00
369.87	0.00
370.07	0.00
370.27	0.00
370.47	463.43
370.66	2766.51
370.86	3197.17
371.06	3552.93
371.25	3522.51
371.45	3206.53
371.65	3012.27
371.84	2640.12
372.04	2888.22
372.24	3251.00
372.44	3468.67
372.63	3185.47
372.83	2925.67
373.03	2628.42
373.22	2373.30
373.42	2642.46
373.62	3002.91
373.81	3339.94
374.01	3276.75
374.21	2944.39
374.40	2679.91
374.60	2827.37
374.79	3089.51
374.99	3674.64
375.19	3911.04
375.38	4135.73
375.58	3735.50
375.78	3822.09
375.97	3864.22
376.17	3843.16
376.37	3810.39
376.56	3960.19
376.76	4283.18
376.95	4430.63
377.15	4947.89
377.35	5022.79
377.54	5240.46
377.74	5277.91
377.93	5303.65
378.13	5114.07
378.33	4961.94
378.52	4521.92
378.72	4376.80
378.91	4383.82
379.11	4177.86
379.31	4077.21
379.50	4056.15
379.70	4273.82
379.89	4777.03
380.09	5034.49
380.28	5238.12
380.48	5320.04
380.68	5139.82
380.87	5020.45
381.07	4662.35
381.26	4416.59
381.46	4138.07
381.65	3871.25
381.85	3719.11
382.04	3576.34
382.24	3330.58
382.43	3180.79
382.63	3274.41
382.83	3281.43
383.02	3269.73
383.22	3129.30
383.41	3180.79
383.61	3492.08
383.80	4025.72
384.00	4491.49
384.19	4882.36
384.39	5280.25
384.58	5254.50
384.78	5011.09
384.97	5020.45
385.17	4798.10
385.36	4582.77
385.56	4278.50
385.75	4381.48
385.95	4896.40
386.14	5434.72
386.34	5420.68
386.53	5160.88
386.72	4805.12
386.92	4805.12
387.11	5277.91
387.31	5268.55
387.50	5245.14
387.70	5057.90
387.89	4959.60
388.09	5060.24
388.28	5160.88
388.48	5195.99
388.67	5502.60
388.86	6101.78
389.06	6471.58
389.25	6906.92
389.45	6937.35
389.64	6951.39
389.84	6867.13
390.03	6698.61
390.22	6855.43
390.42	6925.65
390.61	7463.97
390.81	8009.31
391.00	8449.33
391.19	7882.92
391.39	7843.14
391.58	7332.90
391.78	6848.41
391.97	6590.95
392.16	6319.45
392.36	5540.05
392.55	4559.36
392.75	3531.87
392.94	3028.65
393.13	2993.55
393.33	3410.16
393.52	4507.87
393.71	5437.06
393.91	6209.44
394.10	6647.12
394.29	7339.92
394.49	7988.25
394.68	8407.20
394.88	8458.70
395.07	8812.12
395.26	8741.90
395.46	8306.56
395.65	7964.84
395.84	7000.54
396.04	5865.38
396.23	4718.52
396.42	4173.18
396.62	3971.89
396.81	4547.66
397.00	5636.01
397.19	7391.41
397.39	8648.28
397.58	9633.64
397.77	10029.20
397.97	10691.57
398.16	10562.84
398.35	11257.98
398.55	11485.01
398.74	11744.81
398.93	12100.57
399.12	11819.71
399.32	11417.13
399.51	11756.51
399.70	12573.36
399.90	12444.63
400.09	12348.67
400.28	12395.48
400.47	12531.23
400.67	13188.92
400.86	13392.55
401.05	13259.13
401.24	13633.62
401.44	13694.47
401.63	13495.53
401.82	13727.24
402.01	13666.39
402.21	13797.46
402.40	13912.14
402.59	13633.62
402.78	13015.72
402.97	12596.76
403.17	12837.84
403.36	13752.99
403.55	14728.99
403.74	14813.25
403.93	13675.75
404.13	12613.15
404.32	12643.57
404.51	13261.48
404.70	14291.31
404.89	14321.74
405.09	14043.21
405.28	13713.20
405.47	13425.31
405.66	13418.29
405.85	13181.90
406.05	12891.67
406.24	13144.45
406.43	13593.83
406.62	14043.21
406.81	13940.23
407.00	13415.95
407.20	13420.63
407.39	13834.91
407.58	14221.10
407.77	14628.35
407.96	15192.42
408.15	15267.31
408.34	15084.75
408.54	15843.09
408.73	16163.74
408.92	15941.39
409.11	15424.13
409.30	14668.14
409.49	13497.87
409.68	12793.37
409.87	12503.14
410.07	13195.94
410.26	14347.48
410.45	15279.02
410.64	15630.10
410.83	16231.62
411.02	16465.67
411.21	17015.69
411.40	16798.02
411.59	16936.12
411.78	16922.07
411.98	16578.01
412.17	16877.60
412.36	16606.10
412.55	16767.60
412.74	16283.11
412.93	15880.53
413.12	16212.89
413.31	17734.24
413.50	17600.83
413.69	17961.27
413.88	17205.28
414.07	16779.30
414.26	17268.47
414.45	17797.43
414.64	17734.24
414.83	17956.59
415.02	17392.52
415.22	17528.27
415.41	18082.98
415.60	18679.82
415.79	19321.12
415.98	19728.38
416.17	19709.65
416.36	19187.71
416.55	18747.69
416.74	17972.97
416.93	17617.21
417.12	17628.92
417.31	18132.13
417.50	18181.28
417.69	19058.98
417.88	18789.82
418.07	18593.22
418.26	18249.16
418.45	18429.38
418.64	19194.73
418.83	19978.81
419.02	19360.91
419.21	19414.74
419.39	18455.12
419.58	17734.24
419.77	17975.31
419.96	18628.32
420.15	19585.60
420.34	20065.41
420.53	20577.99
420.72	21006.31
420.91	21010.99
421.10	20528.84
421.29	20931.41
421.48	20013.92
421.67	20624.80
421.86	20173.08
422.05	18902.17
422.24	17085.91
422.43	16936.12
422.61	18717.26
422.80	20205.84
422.99	19885.19
423.18	19463.90
423.37	18967.70
423.56	19271.97
423.75	19271.97
423.94	19833.70
424.13	18768.76
424.32	18780.46
424.50	19105.79
424.69	18698.54
424.88	18874.08
425.07	18827.27
425.26	18740.67
425.45	18588.53
425.64	18094.68
425.83	18420.02
426.01	19440.49
426.20	19756.46
426.39	19491.98
426.58	17879.35
426.77	16713.77
426.96	16257.36
427.15	16872.92
427.33	18389.59
427.52	18581.51
427.71	19080.05
427.90	18750.03
428.09	18487.89
428.28	18349.80
428.46	17565.72
428.65	17509.55
428.84	18019.78
429.03	18125.11
429.22	17193.58
429.40	16266.72
429.59	14778.14
429.78	13020.40
429.97	13011.04
430.16	13179.56
430.34	13465.10
430.53	13418.29
430.72	13472.12
430.91	15187.74
431.10	17926.16
431.28	21074.18
431.47	22258.49
431.66	22728.94
431.85	20477.35
432.03	19007.49
432.22	18204.69
432.41	19002.81
432.60	21137.38
432.79	21947.20
432.97	22848.31
433.16	21947.20
433.35	19934.34
433.54	17975.31
433.72	16982.93
433.91	17577.42
434.10	19756.46
434.28	21088.23
434.47	21752.94
434.66	21453.35
434.85	20940.77
435.03	21156.10
435.22	21179.51
435.41	23000.44
435.59	22609.58
435.78	23515.36
435.97	23669.84
436.16	24011.56
436.34	23290.67
436.53	22707.88
436.72	23150.24
436.90	21692.08
437.09	22104.02
437.28	21504.84
437.46	22471.48
437.65	22319.35
437.84	20467.98
438.02	19213.46
438.21	18916.21
438.40	20397.77
438.58	21596.12
438.77	22195.30
438.96	22391.91
439.14	23194.71
439.33	23946.02
439.52	24252.63
439.70	23527.06
439.89	23187.69
440.08	22459.78
440.26	22771.07
440.45	23194.71
440.63	25069.48
440.82	26029.10
441.01	25631.21
441.19	25474.39
441.38	26005.69
441.57	27082.34
441.75	27405.33
441.94	27578.53
442.12	27159.58
442.31	27725.99
442.50	27585.55
442.68	27250.86
442.87	26906.80
443.05	26590.83
443.24	26930.20
443.43	27585.55
443.61	28060.68
443.80	28591.98
443.98	26586.15
444.17	26771.05
444.35	28357.93
444.54	28776.89
444.73	28327.50
444.91	27236.81
445.10	25923.77
445.28	25191.19
445.47	24655.20
445.65	25125.65
445.84	25799.73
446.02	26682.11
446.21	26939.57
446.39	26775.73
446.58	27110.43
446.77	27871.10
446.95	28154.30
447.14	28716.03
447.32	29153.71
447.51	28325.16
447.69	27115.11
447.88	27356.18
448.06	27892.16
448.25	28203.46
448.43	28615.39
448.62	27634.71
448.80	27910.89
448.99	27941.32
449.17	28173.03
449.36	28184.73
449.54	29165.42
449.73	29476.71
449.91	30132.06
450.10	31269.56
450.28	31269.56
450.46	31026.14
450.65	31150.19
450.83	30663.36
451.02	30368.45
451.20	30160.14
451.39	30307.60
451.57	29874.60
451.76	30249.08
451.94	29633.52
452.13	28952.43
452.31	27728.33
452.49	26321.66
452.68	27068.30
452.86	27173.62
453.05	27042.55
453.23	28364.95
453.42	28737.10
453.60	29390.11
453.78	29907.37
453.97	29432.24
454.15	29404.15
454.34	28718.37
454.52	28980.51
454.70	28175.37
454.89	28622.41
455.07	28891.57
455.26	29738.85
455.44	30333.34
455.62	30986.35
455.81	31103.38
455.99	30689.10
456.17	30675.06
456.36	30431.65
456.54	31522.34
456.73	31363.18
456.91	32273.65
457.09	31751.71
457.28	32952.40
457.46	31433.39
457.64	31037.84
457.83	30370.79
458.01	29914.39
458.19	30307.60
458.38	30522.93
458.56	31494.25
458.74	31370.20
458.93	30581.44
459.11	30799.11
459.29	30679.74
459.48	31007.42
459.66	30665.70
459.84	30820.17
460.03	31543.40
460.21	31405.31
460.39	31908.52
460.57	32055.98
460.76	32687.92
460.94	32830.69
461.12	32128.53
461.31	32315.78
461.49	32077.04
461.67	32023.21
461.85	33109.22
462.04	33046.02
462.22	33633.50
462.40	33202.84
462.59	32849.42
462.77	33031.98
462.95	33031.98
463.13	32521.74
463.32	32741.75
463.50	32198.75
463.68	32025.55
463.86	32378.97
464.05	31838.31
464.23	31023.80
464.41	31098.70
464.59	30457.39
464.78	32161.30
464.96	31938.95
465.14	31461.48
465.32	32552.17
465.50	33488.38
465.69	33420.51
465.87	32936.02
466.05	31737.66
466.23	30639.95
466.41	29734.17
466.60	31388.92
466.78	30838.90
466.96	31325.73
467.14	31239.13
467.32	32315.78
467.51	32339.18
467.69	31089.34
467.87	31606.59
468.05	32252.58
468.23	31910.86
468.41	32039.59
468.60	31943.63
468.78	32395.35
468.96	32201.09
469.14	32680.90
469.32	32430.46
469.50	31393.61
469.69	31241.47
469.87	30857.62
470.05	30897.41
470.23	31054.23
470.41	31248.49
470.59	31398.29
470.77	31950.65
470.95	32243.22
471.14	32985.17
471.32	32814.31
471.50	34401.19
471.68	34590.78
471.86	35101.01
472.04	34841.21
472.22	35276.55
472.40	33488.38
472.58	33039.00
472.77	32627.07
472.95	33921.38
473.13	34595.46
473.31	33607.75
473.49	33905.00
473.67	34309.91
473.85	34866.96
474.03	35388.90
474.21	35414.65
474.39	35824.24
474.57	35564.44
474.75	35917.86
474.93	35976.37
475.12	34733.55
475.30	34852.92
475.48	35253.15
475.66	35669.76
475.84	35431.03
476.02	35096.33
476.20	34522.90
476.38	35157.19
476.56	36360.22
476.74	36917.27
476.92	36655.13
477.10	37762.20
477.28	38288.82
477.46	38604.80
477.64	38934.81
477.82	38806.08
478.00	39138.44
478.18	38359.04
478.36	38522.88
478.54	38335.63
478.72	38888.00
478.90	39536.33
479.08	40268.92
479.26	41249.60
479.44	41043.63
479.62	40430.41
479.80	41015.55
479.98	41331.52
480.16	40999.16
480.34	40531.06
480.52	41457.91
480.70	41343.22
480.88	41628.77
481.06	42382.42
481.24	42663.28
481.41	43515.24
481.59	44397.62
481.77	43662.69
481.95	43138.41
482.13	43377.15
482.31	43302.25
482.49	43959.94
482.67	43697.80
482.85	43782.06
483.03	44458.48
483.21	45294.05
483.39	45081.06
483.57	44355.49
483.74	43728.23
483.92	44507.63
484.10	44636.36
484.28	45525.76
484.46	45514.06
484.64	46281.75
484.82	45535.12
485.00	44903.18
485.18	43936.54
485.35	42689.03
485.53	39255.46
485.71	36041.91
485.89	35831.26
486.07	37560.92
486.25	40727.66
486.43	43271.82
486.61	43611.20
486.78	43512.90
486.96	43716.53
487.14	45345.54
487.32	46864.55
487.50	47990.34
487.68	48776.76
487.85	49148.91
488.03	48844.64
488.21	48615.27
488.39	47896.72
488.57	46932.42
488.75	46841.14
488.92	48233.76
489.10	50223.22
489.28	51566.68
489.46	52189.27
489.64	52018.41
489.81	52802.49
489.99	52090.96
490.17	52116.71
490.35	52411.62
490.53	52044.15
490.70	51674.35
490.88	51683.71
491.06	52603.54
491.24	52254.80
491.41	51311.56
491.59	49525.74
491.77	48886.77
491.95	50401.10
492.13	51239.01
492.30	52608.22
492.48	53436.77
492.66	54000.84
492.84	53972.75
493.01	53609.97
493.19	53354.85
493.37	52863.34
493.54	52411.62
493.72	53186.33
493.90	54075.74
494.08	54995.57
494.25	55285.79
494.43	55470.70
494.61	55908.38
494.79	55793.69
494.96	55660.28
495.14	54930.03
495.32	53970.41
495.49	53675.51
495.67	54831.73
495.85	55789.01
496.02	56561.39
496.20	56095.62
496.38	55732.84
496.55	55749.22
496.73	56348.40
496.91	56168.18
497.09	56811.82
497.26	56912.47
497.44	56339.04
497.62	56065.19
497.79	54960.46
497.97	54003.18
498.14	54042.97
498.32	55238.98
498.50	56086.26
498.67	56619.90
498.85	56832.89
499.03	56942.89
499.20	56886.72
499.38	56992.04
499.56	56720.54
499.73	56039.45
499.91	56067.53
500.08	55419.20
500.26	54948.76
500.44	55332.60
500.61	55945.83
500.79	55707.09
500.97	55346.65
501.14	55363.03
501.32	55023.65
501.49	55033.02
501.67	55246.00
501.84	56053.49
502.02	56109.66
502.20	56587.13
502.37	56718.20
502.55	56757.99
502.72	57350.15
502.90	57715.27
503.07	57116.09
503.25	57015.45
503.43	55948.17
503.60	55353.67
503.78	54761.51
503.95	55356.01
504.13	56734.59
504.30	57436.75
504.48	57240.14
504.65	56860.97
504.83	56875.02
505.01	57521.01
505.18	58291.04
505.36	58485.31
505.53	58564.88
505.71	58658.51
505.88	58887.88
506.06	57839.32
506.23	57867.40
506.41	57485.90
506.58	57563.14
506.76	57858.04
506.93	57563.14
507.11	57350.15
507.28	57598.24
507.46	57219.08
507.63	56549.68
507.81	56327.33
507.98	56486.49
508.16	57228.44
508.33	58068.69
508.50	58251.25
508.68	58433.81
508.85	58934.69
509.03	58927.67
509.20	58679.57
509.38	57869.75
509.55	57207.37
509.73	57551.43
509.90	58110.82
510.08	58110.82
510.25	58082.73
510.42	57829.96
510.60	57797.19
510.77	58321.47
510.95	58646.80
511.12	58962.78
511.30	59025.97
511.47	59370.03
511.64	59274.07
511.82	58843.41
511.99	58000.82
512.17	57766.76
512.34	57502.28
512.51	57834.64
512.69	57923.58
512.86	57876.77
513.04	58246.57
513.21	58372.96
513.38	57876.77
513.56	57284.61
513.73	56821.19
513.90	57099.71
514.08	57275.25
514.25	57509.30
514.43	57832.30
514.60	57890.81
514.77	57991.45
514.95	58101.46
515.12	57914.22
515.29	57876.77
515.47	58487.65
515.64	58822.34
515.81	58403.39
515.99	57811.23
516.16	56219.67
516.33	54049.99
516.51	52626.95
516.68	51667.33
516.85	51217.94
517.03	52175.22
517.20	54747.47
517.37	57167.58
517.54	58085.07
517.72	57160.56
517.89	55173.45
518.06	52631.63
518.24	53296.34
518.41	55419.20
518.58	56650.33
518.75	56797.78
518.93	56886.72
519.10	56942.89
519.27	57425.04
519.45	57497.60
519.62	58293.38
519.79	58630.42
519.96	58269.98
520.14	57907.19
520.31	57174.61
520.48	57045.88
520.65	57553.77
520.83	58621.06
521.00	58791.92
521.17	58447.86
521.34	58288.70
521.52	58506.37
521.69	58791.92
521.86	59154.70
522.03	59063.42
522.20	57581.86
522.38	56715.86
522.55	57127.80
522.72	57546.75
522.89	57586.54
523.07	57956.35
523.24	58155.29
523.41	58880.86
523.58	59213.21
523.75	59524.50
523.92	59236.62
524.10	59533.87
524.27	59494.08
524.44	59370.03
524.61	59264.70
524.78	58937.03
524.96	58852.77
525.13	58944.05
525.30	58972.14
525.47	59405.14
525.64	59491.74
525.81	58614.04
525.98	57329.08
526.16	56081.58
526.33	55363.03
526.50	55260.05
526.67	54763.85
526.84	55407.50
527.01	56090.94
527.18	57212.06
527.36	57928.26
527.53	58611.70
527.70	59131.29
527.87	58440.84
528.04	57972.73
528.21	58595.31
528.38	59135.98
528.55	59653.23
528.72	59936.44
528.89	60198.58
529.07	59842.82
529.24	59079.80
529.41	58520.41
529.58	57970.39
529.75	58178.70
529.92	58667.87
530.09	58892.56
530.26	59515.14
530.43	59807.71
530.60	59636.85
530.77	59908.35
530.94	60069.85
531.11	59519.82
531.28	59112.57
531.46	58871.49
531.63	59173.42
531.80	58972.14
531.97	58670.21
532.14	57925.92
532.31	56849.27
532.48	56399.89
532.65	56523.94
532.82	57439.09
532.99	58337.85
533.16	58756.81
533.33	59182.79
533.50	58951.07
533.67	58372.96
533.84	58141.25
534.01	58106.14
534.18	58365.94
534.35	58592.97
534.52	58295.72
534.69	58681.91
534.86	58993.20
535.03	59185.13
535.20	59718.77
535.37	59976.23
535.54	60156.45
535.71	59721.11
535.88	59360.67
536.05	58695.95
536.22	58349.56
536.38	58108.48
536.55	57689.52
536.72	57125.46
536.89	57293.97
537.06	58031.24
537.23	58672.55
537.40	59025.97
537.57	59023.63
537.74	58557.86
537.91	58717.02
538.08	58604.67
538.25	58777.87
538.42	58983.84
538.59	58820.00
538.75	57979.75
538.92	58026.56
539.09	57860.38
539.26	57675.48
539.43	57265.89
539.60	57427.38
539.77	57675.48
539.94	57532.71
540.11	56683.09
540.28	56374.14
540.44	56582.45
540.61	56767.35
540.78	56835.23
540.95	57216.74
541.12	57640.37
541.29	57853.36
541.46	58232.53
541.62	58344.87
541.79	57993.79
541.96	57403.98
542.13	57654.42
542.30	57797.19
542.47	57998.48
542.63	57851.02
542.80	57593.56
542.97	57577.18
543.14	57684.84
543.31	57682.50
543.48	57888.47
543.64	58972.14
543.81	59363.01
543.98	59049.38
544.15	57993.79
544.32	57642.71
544.48	58141.25
544.65	58337.85
544.82	58588.29
544.99	58295.72
545.16	57972.73
545.32	57612.29
545.49	58457.22
545.66	58658.51
545.83	58293.38
546.00	58064.01
546.16	57621.65
546.33	57893.15
546.50	57881.45
546.67	58216.14
546.83	57958.69
547.00	57696.55
547.17	56896.08
547.34	56755.65
547.50	56505.21
547.67	57354.83
547.84	57130.14
548.00	57663.78
548.17	58061.67
548.34	57862.72
548.51	58251.25
548.67	57834.64
548.84	57986.77
549.01	57939.96
549.18	57612.29
549.34	57614.63
549.51	57942.30
549.68	57666.12
549.84	57425.04
550.01	57389.94
550.18	57289.29
550.34	57462.49
550.51	57338.44
550.68	57408.66
550.84	57020.13
551.01	57315.04
551.18	57146.52
551.34	57254.18
551.51	57441.43
551.68	57743.36
551.84	57996.13
552.01	57733.99
552.18	57762.08
552.34	56655.01
552.51	56474.79
552.68	56413.93
552.84	57003.75
553.01	57078.64
553.18	56832.89
553.34	57268.23
553.51	57083.33
553.67	57574.84
553.84	57579.52
554.01	57354.83
554.17	57256.53
554.34	57240.14
554.51	57551.43
554.67	58089.76
554.84	57614.63
555.00	57333.76
555.17	57069.28
555.33	57181.63
555.50	57198.01
555.67	56830.55
555.83	57102.05
556.00	56722.88
556.16	56739.27
556.33	56292.22
556.50	56069.87
556.66	56161.15
556.83	56025.40
556.99	56156.47
557.16	56236.05
557.32	56308.61
557.49	56605.86
557.65	56587.13
557.82	56552.02
557.98	56406.91
558.15	55866.25
558.32	55241.32
558.48	54000.84
558.65	54777.90
558.81	55004.93
558.98	55246.00
559.14	55491.76
559.31	55629.85
559.47	55676.66
559.64	55061.10
559.80	54604.70
559.97	55180.47
560.13	55655.60
560.30	56205.62
560.46	56774.37
560.63	57298.65
560.79	56952.26
560.96	56416.27
561.12	55444.95
561.29	54857.48
561.45	54777.90
561.61	55267.07
561.78	55866.25
561.94	55643.90
562.11	55501.12
562.27	55833.48
562.44	55742.20
562.60	56016.04
562.77	56142.43
562.93	56062.85
563.10	55863.91
563.26	55517.51
563.42	55426.23
563.59	55482.40
563.75	55023.65
563.92	55372.39
564.08	55231.96
564.24	55646.24
564.41	55508.14
564.57	55671.98
564.74	55196.85
564.90	55231.96
565.07	55065.78
565.23	54513.42
565.39	54031.27
565.56	54012.54
565.72	53504.65
565.88	54246.60
566.05	54047.65
566.21	54349.58
566.38	54749.81
566.54	54667.89
566.70	55079.83
566.87	55466.02
567.03	55227.28
567.19	55269.41
567.36	55318.56
567.52	54969.82
567.68	54665.55
567.85	54213.83
568.01	53832.32
568.17	53310.38
568.34	53691.89
568.50	53425.07
568.66	53450.81
568.83	53893.18
568.99	53694.23
569.15	54171.70
569.32	54176.38
569.48	53748.06
569.64	53722.32
569.81	53490.60
569.97	53509.33
570.13	53329.11
570.30	52648.01
570.46	52608.22
570.62	51889.68
570.78	51742.22
570.95	52060.54
571.11	52704.18
571.27	52996.75
571.43	53310.38
571.60	53844.02
571.76	53785.51
571.92	53993.82
572.09	54143.61
572.25	54026.59
572.41	54094.46
572.57	53979.78
572.74	53909.56
572.90	53556.14
573.06	53483.58
573.22	53570.18
573.38	53467.20
573.55	53282.30
573.71	53930.62
573.87	53539.75
574.03	53282.30
574.20	53207.40
574.36	52875.04
574.52	52727.59
574.68	52748.65
574.84	52112.03
575.01	52140.11
575.17	51964.57
575.33	52112.03
575.49	52362.46
575.65	52533.32
575.82	52163.52
575.98	52069.90
576.14	52119.05
576.30	52589.50
576.46	52687.80
576.62	52928.87
576.79	52905.47
576.95	52259.48
577.11	52257.14
577.27	52191.61
577.43	52369.49
577.59	52144.80
577.75	51304.54
577.92	50794.31
578.08	50562.59
578.24	50796.65
578.40	51313.90
578.56	51248.37
578.72	51550.30
578.88	51648.60
579.04	51786.69
579.21	51917.76
579.37	52133.09
579.53	51948.19
579.69	51817.12
579.85	52224.37
580.01	51746.90
580.17	51510.51
580.33	51318.59
580.49	51475.40
580.65	51849.89
580.82	52102.67
580.98	51503.49
581.14	51512.85
581.30	51866.27
581.46	51777.33
581.62	52034.79
581.78	52020.75
581.94	52172.88
582.10	51997.34
582.26	52147.14
582.42	51971.60
582.58	51950.53
582.74	51910.74
582.90	52212.67
583.06	52011.38
583.22	51952.87
583.38	51744.56
583.54	51791.37
583.70	51779.67
583.86	51786.69
584.02	52023.09
584.18	51686.05
584.34	51318.59
584.50	51662.64
584.66	51587.75
584.82	50951.12
584.98	50941.76
585.14	50237.26
585.30	49858.09
