SpectraSuite Data File
++++++++++++++++++++++++++++++++++++
Date: Mon Oct 07 14:53:31 GMT-05:00 2013
User: price-jones
Dark Spectrum Present: No
Reference Spectrum Present: No
Number of Sampled Component Spectra: 1
Spectrometers: USB2+H05261
Integration Time (usec): 100000 (USB2+H05261)
Spectra Averaged: 1 (USB2+H05261)
Boxcar Smoothing: 0 (USB2+H05261)
Correct for Electrical Dark: No (USB2+H05261)
Strobe/Lamp Enabled: No (USB2+H05261)
Correct for Detector Non-linearity: No (USB2+H05261)
Correct for Stray Light: No (USB2+H05261)
Number of Pixels in Processed Spectrum: 2048
>>>>>Begin Processed Spectral Data<<<<<
365.73	0.00
365.92	0.00
366.12	0.00
366.32	0.00
366.52	0.00
366.72	0.00
366.91	0.00
367.11	0.00
367.31	0.00
367.51	0.00
367.70	0.00
367.90	0.00
368.10	0.00
368.30	0.00
368.49	0.00
368.69	0.00
368.89	0.00
369.09	0.00
369.28	0.00
369.48	0.00
369.68	0.00
369.87	0.00
370.07	0.00
370.27	0.00
370.47	603.86
370.66	2974.82
370.86	3421.86
371.06	3974.23
371.25	3815.07
371.45	3555.27
371.65	3105.89
371.84	2773.53
372.04	3054.40
372.24	3424.20
372.44	3602.08
372.63	3531.87
372.83	3342.28
373.03	2904.60
373.22	2773.53
373.42	2829.71
373.62	3148.02
373.81	3592.72
374.01	3648.90
374.21	3325.90
374.40	2946.73
374.60	3002.91
374.79	3524.85
374.99	4100.62
375.19	4564.04
375.38	4477.44
375.58	4030.40
375.78	4007.00
375.97	4025.72
376.17	4222.33
376.37	4423.61
376.56	4463.40
376.76	4690.43
376.95	4917.47
377.15	5303.65
377.35	5490.90
377.54	5851.34
377.74	5994.11
377.93	6052.63
378.13	5722.61
378.33	5345.78
378.52	4985.34
378.72	4798.10
378.91	4716.18
379.11	4638.94
379.31	4465.74
379.50	4423.61
379.70	4685.75
379.89	5338.76
380.09	5481.53
380.28	5771.76
380.48	5561.11
380.68	5820.91
380.87	5575.16
381.07	5224.08
381.26	4880.02
381.46	4454.04
381.65	4381.48
381.85	4224.67
382.04	4011.68
382.24	3740.18
382.43	3588.04
382.63	3506.12
382.83	3482.72
383.02	3438.25
383.22	3452.29
383.41	3417.18
383.61	3864.22
383.80	4290.20
384.00	4952.57
384.19	5380.89
384.39	5528.35
384.58	5689.84
384.78	5650.05
384.97	5535.37
385.17	5308.34
385.36	5142.16
385.56	4732.56
385.75	4868.31
385.95	5345.78
386.14	5881.77
386.34	5930.92
386.53	5600.90
386.72	5235.78
386.92	5247.48
387.11	5507.28
387.31	5907.51
387.50	5930.92
387.70	5673.46
387.89	5586.86
388.09	5570.48
388.28	5561.11
388.48	5874.74
388.67	6043.26
388.86	6846.07
389.06	7199.49
389.25	7803.35
389.45	7557.59
389.64	7719.09
389.84	7581.00
390.03	7304.81
390.22	7463.97
390.42	7756.54
390.61	8154.43
390.81	8545.30
391.00	8987.66
391.19	8943.19
391.39	8531.25
391.58	8152.09
391.78	7559.93
391.97	7236.94
392.16	6832.02
392.36	6326.47
392.55	4865.97
392.75	4084.23
392.94	3159.72
393.13	3243.98
393.33	3826.78
393.52	4870.65
393.71	6104.12
393.91	6747.76
394.10	7300.13
394.29	8098.25
394.49	8486.78
394.68	9497.89
394.88	9411.29
395.07	9556.41
395.26	9769.40
395.46	9329.38
395.65	8795.73
395.84	7728.45
396.04	6626.06
396.23	5310.68
396.42	4451.70
396.62	4189.56
396.81	5001.72
397.00	6221.14
397.19	7981.23
397.39	9348.10
397.58	10686.89
397.77	11152.65
397.97	11623.10
398.16	12020.99
398.35	11990.56
398.55	12453.99
398.74	12971.25
398.93	13366.80
399.12	12982.95
399.32	12568.68
399.51	12901.03
399.70	13689.79
399.90	13851.29
400.09	13769.37
400.28	13696.82
400.47	13825.54
400.67	14544.09
400.86	14539.41
401.05	14614.30
401.24	15035.60
401.44	14766.44
401.63	14974.75
401.82	15033.26
402.01	15094.11
402.21	15248.59
402.40	15447.54
402.59	14878.79
402.78	14516.00
402.97	13727.24
403.17	14307.69
403.36	15267.31
403.55	15943.73
403.74	16311.19
403.93	15171.35
404.13	14312.38
404.32	13879.38
404.51	14059.60
404.70	15508.39
404.89	15426.47
405.09	15288.38
405.28	15005.17
405.47	14808.57
405.66	14974.75
405.85	14560.47
406.05	14340.46
406.24	14176.62
406.43	15161.99
406.62	15349.23
406.81	15604.35
407.00	14740.69
407.20	14602.60
407.39	14516.00
407.58	15335.19
407.77	15730.74
407.96	16723.13
408.15	16685.68
408.34	16451.63
408.54	17825.52
408.73	17591.47
408.92	17434.65
409.11	17235.70
409.30	16353.32
409.49	15194.76
409.68	14375.57
409.87	13607.87
410.07	14618.99
410.26	15894.58
410.45	16725.47
410.64	17146.76
410.83	17591.47
411.02	18174.26
411.21	18806.20
411.40	18405.97
411.59	18691.52
411.78	18672.79
411.98	18052.55
412.17	18789.82
412.36	18216.39
412.55	18068.94
412.74	17839.56
412.93	17429.97
413.12	17493.16
413.31	19152.60
413.50	19618.37
413.69	20020.94
413.88	19105.79
414.07	18750.03
414.26	18799.18
414.45	19311.76
414.64	19704.97
414.83	19524.75
415.02	19328.14
415.22	19054.30
415.41	19620.71
415.60	20357.98
415.79	21200.57
415.98	21694.43
416.17	21869.97
416.36	20872.90
416.55	20938.43
416.74	20013.92
416.93	19372.61
417.12	19183.03
417.31	19690.93
417.50	20114.56
417.69	20711.40
417.88	20437.56
418.07	20421.17
418.26	20327.55
418.45	20229.25
418.64	21202.91
418.83	21722.51
419.02	21572.72
419.21	21692.08
419.39	20306.49
419.58	19391.34
419.77	19442.83
419.96	20264.36
420.15	21401.86
420.34	22265.52
420.53	22551.06
420.72	23105.77
420.91	23173.64
421.10	22569.79
421.29	22576.81
421.48	21884.01
421.67	22876.40
421.86	22396.59
422.05	20821.41
422.24	18630.66
422.43	18207.03
422.61	20416.49
422.80	21874.65
422.99	21790.39
423.18	21436.97
423.37	20699.70
423.56	20650.55
423.75	21397.18
423.94	21778.68
424.13	20568.63
424.32	20636.50
424.50	20870.56
424.69	20414.15
424.88	20746.51
425.07	20507.77
425.26	20622.46
425.45	20210.53
425.64	19714.33
425.83	19749.44
426.01	21046.10
426.20	21561.02
426.39	21369.09
426.58	19995.20
426.77	18377.89
426.96	17638.28
427.15	18391.93
427.33	19929.66
427.52	20592.03
427.71	20730.12
427.90	20500.75
428.09	20252.66
428.28	20208.19
428.46	19452.19
428.65	19028.56
428.84	19721.35
429.03	20170.74
429.22	18967.70
429.40	17729.56
429.59	16203.53
429.78	14136.84
429.97	14314.72
430.16	14450.47
430.34	14497.28
430.53	14410.68
430.72	14721.97
430.91	16058.42
431.10	19374.95
431.28	22899.80
431.47	24332.21
431.66	25153.74
431.85	22607.23
432.03	20669.27
432.22	19625.39
432.41	20477.35
432.60	23044.91
432.79	24173.05
432.97	24812.02
433.16	24027.94
433.35	21745.92
433.54	19545.81
433.72	18597.90
433.91	19168.99
434.10	21383.13
434.28	22944.27
434.47	23807.93
434.66	23641.75
434.85	23318.76
435.03	23075.34
435.22	23342.16
435.41	25149.06
435.59	24760.53
435.78	25125.65
435.97	25809.09
436.16	25886.32
436.34	25839.51
436.53	25069.48
436.72	25315.23
436.90	23658.14
437.09	23597.28
437.28	23360.89
437.46	24215.18
437.65	24142.63
437.84	22698.52
438.02	20622.46
438.21	20196.48
438.40	21355.05
438.58	23360.89
438.77	24243.27
438.96	24159.01
439.14	25563.33
439.33	25823.13
439.52	26651.68
439.70	25930.80
439.89	25443.96
440.08	24498.39
440.26	24491.37
440.45	24718.40
440.63	27192.34
440.82	28524.11
441.01	27892.16
441.19	27789.18
441.38	27889.82
441.57	29111.58
441.75	29329.25
441.94	30003.33
442.12	29525.86
442.31	30160.14
442.50	29790.34
442.68	29890.98
442.87	29200.52
443.05	29041.37
443.24	29560.97
443.43	29731.83
443.61	30424.62
443.80	30876.35
443.98	29170.10
444.17	28767.52
444.35	30813.15
444.54	31321.05
444.73	30703.15
444.91	29490.75
445.10	28439.85
445.28	27414.69
445.47	26810.84
445.65	26878.71
445.84	27707.26
446.02	28964.13
446.21	29034.35
446.39	29235.63
446.58	29694.38
446.77	30073.54
446.95	30551.01
447.14	31166.57
447.32	31908.52
447.51	31101.04
447.69	30050.14
447.88	29373.72
448.06	29802.04
448.25	30515.90
448.43	31119.76
448.62	30192.91
448.80	29598.41
448.99	30462.07
449.17	30850.60
449.36	30342.70
449.54	32009.17
449.73	32180.03
449.91	32921.98
450.10	33792.65
450.28	33975.22
450.46	33298.80
450.65	33687.33
450.83	33542.22
451.02	32657.49
451.20	32577.92
451.39	32421.10
451.57	32259.60
451.76	32327.48
451.94	32472.59
452.13	31889.80
452.31	30228.02
452.49	28994.56
452.68	28987.53
452.86	28828.38
453.05	29736.51
453.23	30513.56
453.42	30984.01
453.60	31910.86
453.78	32189.39
453.97	31852.35
454.15	32004.49
454.34	31126.78
454.52	31171.25
454.70	30780.39
454.89	31356.16
455.07	30958.27
455.26	32086.40
455.44	32627.07
455.62	33268.37
455.81	33350.29
455.99	33500.09
456.17	32868.14
456.36	32847.08
456.54	33956.49
456.73	33783.29
456.91	34321.62
457.09	34778.02
457.28	35587.85
457.46	33890.96
457.64	33696.69
457.83	32407.06
458.01	31990.44
458.19	32954.74
458.38	32996.87
458.56	34143.74
458.74	34094.58
458.93	33378.38
459.11	33631.16
459.29	32861.12
459.48	33127.94
459.66	32797.93
459.84	33191.14
460.03	33919.04
460.21	33305.82
460.39	34639.93
460.57	34590.78
460.76	35220.38
460.94	34920.79
461.12	34380.13
461.31	34876.32
461.49	34796.74
461.67	34653.97
461.85	35854.67
462.04	35564.44
462.22	35889.77
462.40	35641.68
462.59	35318.68
462.77	35665.08
462.95	35227.40
463.13	35342.09
463.32	34862.28
463.50	34803.77
463.68	34529.92
463.86	34668.02
464.05	34433.96
464.23	33535.20
464.41	33495.41
464.59	32912.61
464.78	34279.49
464.96	34298.21
465.14	33785.63
465.32	34651.63
465.50	35377.20
465.69	35742.32
465.87	35192.30
466.05	34352.04
466.23	32898.57
466.41	32135.56
466.60	32882.19
466.78	33003.89
466.96	33694.35
467.14	33675.63
467.32	34604.82
467.51	34998.03
467.69	32959.42
467.87	34218.63
468.05	34253.74
468.23	34326.30
468.41	34312.25
468.60	34635.25
468.78	34876.32
468.96	34684.40
469.14	34995.69
469.32	35236.77
469.50	33776.27
469.69	34132.03
469.87	33425.19
470.05	33226.24
470.23	33151.35
470.41	33879.25
470.59	33935.43
470.77	33947.13
470.95	34747.59
471.14	35257.83
471.32	35435.71
471.50	37118.56
471.68	36943.02
471.86	37998.60
472.04	37935.40
472.22	37640.50
472.40	36149.57
472.58	35470.82
472.77	35105.70
472.95	35934.24
473.13	36964.08
473.31	35800.83
473.49	36552.15
473.67	36884.50
473.85	37266.01
474.03	38031.36
474.21	38396.49
474.39	38249.03
474.57	38909.07
474.75	38726.50
474.93	38443.30
475.12	37586.66
475.30	37677.94
475.48	37624.11
475.66	38263.08
475.84	38022.00
476.02	37488.36
476.20	37303.46
476.38	37486.02
476.56	38775.66
476.74	39346.75
476.92	39746.98
477.10	40411.69
477.28	41364.29
477.46	41258.96
477.64	41881.55
477.82	42064.11
478.00	41951.76
478.18	41464.93
478.36	40786.18
478.54	41371.31
478.72	41539.83
478.90	42146.03
479.08	43433.32
479.26	43882.70
479.44	44144.84
479.62	43262.46
479.80	43342.04
479.98	43910.79
480.16	43784.40
480.34	43730.57
480.52	43945.90
480.70	44254.85
480.88	44135.48
481.06	45045.95
481.24	45734.07
481.41	46272.39
481.59	47004.98
481.77	46787.31
481.95	45862.80
482.13	45668.53
482.31	46014.93
482.49	46642.20
482.67	46738.16
482.85	46813.05
483.03	47391.17
483.21	47756.29
483.39	47730.54
483.57	47044.77
483.74	46707.73
483.92	46768.58
484.10	46871.57
484.28	47810.12
484.46	48472.49
484.64	48865.70
484.82	47807.78
485.00	47203.92
485.18	46810.71
485.35	45710.66
485.53	42375.40
485.71	38485.43
485.89	38022.00
486.07	39988.05
486.25	43285.87
486.43	45310.43
486.61	46485.38
486.78	46515.81
486.96	46550.91
487.14	48275.89
487.32	49200.40
487.50	49565.52
487.68	50600.04
487.85	51440.29
488.03	50953.46
488.21	50869.20
488.39	50295.77
488.57	49591.27
488.75	49207.42
488.92	50106.19
489.10	52313.31
489.28	53673.16
489.46	54260.64
489.64	54195.10
489.81	54241.92
489.99	53874.45
490.17	54122.55
490.35	54211.49
490.53	53853.39
490.70	53553.80
490.88	53263.57
491.06	54468.95
491.24	54433.84
491.41	53132.50
491.59	51751.59
491.77	50878.57
491.95	52156.50
492.13	53272.93
492.30	54340.22
492.48	55269.41
492.66	55636.87
492.84	55592.40
493.01	55365.37
493.19	54756.83
493.37	54611.72
493.54	54705.34
493.72	54920.67
493.90	55950.51
494.08	56788.42
494.25	56987.36
494.43	56884.38
494.61	57752.72
494.79	57422.70
494.96	57453.13
495.14	57015.45
495.32	56004.34
495.49	55250.69
495.67	56310.95
495.85	57668.46
496.02	58010.18
496.20	57839.32
496.38	57406.32
496.55	57183.97
496.73	57862.72
496.91	57729.31
497.09	58368.28
497.26	58684.25
497.44	57937.62
497.62	57719.95
497.79	56877.36
497.97	55690.71
498.14	55559.64
498.32	56715.86
498.50	57858.04
498.67	58213.80
498.85	58117.84
499.03	58314.45
499.20	58408.07
499.38	58609.35
499.56	58459.56
499.73	57965.71
499.91	57605.26
500.08	57223.76
500.26	56332.01
500.44	56772.03
500.61	57467.17
500.79	57125.46
500.97	56970.98
501.14	56734.59
501.32	56687.78
501.49	56706.50
501.67	57038.86
501.84	57425.04
502.02	57570.16
502.20	57907.19
502.37	58106.14
502.55	58115.50
502.72	58656.17
502.90	59171.08
503.07	58855.11
503.25	58403.39
503.43	57771.44
503.60	56868.00
503.78	56226.69
503.95	56914.81
504.13	58099.12
504.30	58845.75
504.48	58820.00
504.65	58436.16
504.83	58394.03
505.01	58981.50
505.18	59316.20
505.36	59877.93
505.53	59866.22
505.71	60102.62
505.88	60369.44
506.06	59798.35
506.23	59421.52
506.41	59178.10
506.58	59260.02
506.76	59185.13
506.93	58925.33
507.11	59016.61
507.28	58983.84
507.46	58597.65
507.63	58042.95
507.81	58007.84
507.98	58174.02
508.16	58672.55
508.33	59253.00
508.50	59510.46
508.68	59952.82
508.85	60207.94
509.03	60231.35
509.20	59985.59
509.38	59498.76
509.55	58969.80
509.73	58824.68
509.90	59302.15
510.08	59707.07
510.25	59660.26
510.42	59615.79
510.60	59416.84
510.77	59723.45
510.95	60009.00
511.12	60341.35
511.30	60486.46
511.47	60708.82
511.64	60793.07
511.82	60343.69
511.99	59643.87
512.17	59227.26
512.34	58934.69
512.51	59018.95
512.69	59421.52
512.86	59302.15
513.04	59650.89
513.21	59746.86
513.38	59386.41
513.56	58866.81
513.73	58232.53
513.90	58522.76
514.08	58599.99
514.25	58883.20
514.43	59128.95
514.60	59180.45
514.77	59245.98
514.95	59309.18
515.12	59332.58
515.29	59463.65
515.47	60060.49
515.64	60224.32
515.81	59803.03
515.99	59372.37
516.16	57900.17
516.33	56161.15
516.51	54382.35
516.68	53357.19
516.85	53202.72
517.03	53514.01
517.20	56097.96
517.37	58450.20
517.54	59475.35
517.72	58944.05
517.89	56711.18
518.06	54202.13
518.24	54642.15
518.41	56640.96
518.58	58096.78
518.75	58274.66
518.93	58482.97
519.10	58141.25
519.27	58784.90
519.45	58763.83
519.62	59550.25
519.79	59863.88
519.96	59508.12
520.14	59306.83
520.31	58403.39
520.48	58401.05
520.65	58834.05
520.83	59906.01
521.00	60140.07
521.17	59767.92
521.34	59213.21
521.52	59594.72
521.69	60062.83
521.86	60692.43
522.03	60343.69
522.20	59215.55
522.38	58368.28
522.55	58176.36
522.72	58756.81
522.89	59119.59
523.07	59121.93
523.24	59536.21
523.41	60081.55
523.58	60470.08
523.75	60905.42
523.92	60842.23
524.10	60725.20
524.27	61041.17
524.44	60577.75
524.61	60142.41
524.78	60128.36
524.96	60130.70
525.13	60109.64
525.30	60334.33
525.47	60823.50
525.64	60563.70
525.81	59817.07
525.98	58705.32
526.16	57193.33
526.33	56942.89
526.50	56306.27
526.67	55971.57
526.84	56451.38
527.01	57708.25
527.18	58316.79
527.36	59128.95
527.53	59856.86
527.70	60463.06
527.87	59896.65
528.04	59089.16
528.21	59772.60
528.38	60292.20
528.55	60938.19
528.72	61092.66
528.89	61207.35
529.07	61050.53
529.24	60566.04
529.41	59826.43
529.58	59295.13
529.75	59650.89
529.92	60032.40
530.09	60074.53
530.26	60860.95
530.43	60926.49
530.60	60928.83
530.77	61118.41
530.94	61303.31
531.11	60938.19
531.28	60364.76
531.46	60100.28
531.63	60493.49
531.80	60182.19
531.97	59856.86
532.14	59311.52
532.31	58265.30
532.48	57654.42
532.65	57642.71
532.82	58443.18
532.99	59564.29
533.16	59882.61
533.33	60355.39
533.50	60175.17
533.67	59601.74
533.84	59161.72
534.01	59409.82
534.18	59583.02
534.35	59800.69
534.52	59646.21
534.69	59824.09
534.86	60156.45
535.03	60392.84
535.20	60608.17
535.37	61158.20
535.54	61214.37
535.71	60755.63
535.88	60619.88
536.05	59870.90
536.22	59620.47
536.38	59140.66
536.55	58873.84
536.72	58649.14
536.89	58389.34
537.06	59105.55
537.23	60009.00
537.40	59966.87
537.57	60039.42
537.74	59976.23
537.91	59847.50
538.08	59894.31
538.25	60025.38
538.42	60088.57
538.59	60048.78
538.75	59435.56
538.92	58873.84
539.09	58951.07
539.26	58805.96
539.43	58822.34
539.60	58616.38
539.77	58820.00
539.94	58637.44
540.11	57883.79
540.28	57448.45
540.44	57631.01
540.61	57874.43
540.78	57963.37
540.95	58424.45
541.12	59126.61
541.29	59025.97
541.46	59358.33
541.62	59643.87
541.79	59234.28
541.96	58688.93
542.13	58410.41
542.30	58834.05
542.47	59091.51
542.63	58972.14
542.80	58672.55
542.97	58962.78
543.14	58705.32
543.31	58742.77
543.48	59341.94
543.64	59959.84
543.81	60339.01
543.98	59990.27
544.15	59309.18
544.32	58667.87
544.48	58824.68
544.65	59365.35
544.82	59833.46
544.99	59255.34
545.16	59061.08
545.32	58784.90
545.49	59554.93
545.66	60226.66
545.83	59625.15
546.00	58997.88
546.16	58827.02
546.33	58873.84
546.50	59086.82
546.67	59313.86
546.83	58859.79
547.00	58829.37
547.17	58326.15
547.34	57635.69
547.50	57764.42
547.67	58269.98
547.84	58515.73
548.00	58590.63
548.17	58897.24
548.34	58787.24
548.51	58890.22
548.67	58904.26
548.84	59025.97
549.01	59044.69
549.18	58962.78
549.34	58838.73
549.51	58677.23
549.68	58805.96
549.84	58379.98
550.01	58520.41
550.18	58213.80
550.34	58429.13
550.51	58492.33
550.68	58815.32
550.84	58333.17
551.01	58199.76
551.18	58328.49
551.34	58473.60
551.51	58616.38
551.68	59110.23
551.84	58974.48
552.01	58827.02
552.18	58616.38
552.34	58056.99
552.51	57640.37
552.68	57549.09
552.84	57893.15
553.01	58344.87
553.18	58106.14
553.34	58206.78
553.51	58457.22
553.67	58550.84
553.84	58859.79
554.01	58562.54
554.17	58602.33
554.34	58635.10
554.51	58616.38
554.67	58803.62
554.84	58726.38
555.00	58412.75
555.17	58049.97
555.33	58248.91
555.50	58183.38
555.67	58066.35
555.83	57939.96
556.00	57733.99
556.16	57764.42
556.33	57296.31
556.50	57106.73
556.66	57322.06
556.83	56795.44
556.99	57127.80
557.16	57029.49
557.32	57415.68
557.49	57439.09
557.65	57696.55
557.82	57481.22
557.98	57719.95
558.15	57008.43
558.32	56521.60
558.48	55491.76
558.65	55561.98
558.81	56268.82
558.98	56332.01
559.14	56573.09
559.31	56685.43
559.47	56626.92
559.64	56264.14
559.80	55917.74
559.97	56315.63
560.13	56575.43
560.30	57263.55
560.46	57752.72
560.63	58176.36
560.79	58010.18
560.96	57731.65
561.12	56790.76
561.29	55796.03
561.45	55458.99
561.61	56324.99
561.78	56736.93
561.94	56715.86
562.11	56479.47
562.27	56207.97
562.44	56842.25
562.60	57006.09
562.77	57364.19
562.93	56891.40
563.10	57080.98
563.26	56191.58
563.42	56530.96
563.59	56151.79
563.75	56420.95
563.92	56437.34
564.08	56322.65
564.24	56533.30
564.41	56711.18
564.57	56647.99
564.74	56285.20
564.90	56313.29
565.07	56142.43
565.23	55686.03
565.39	55306.86
565.56	55068.12
565.72	54859.82
565.88	55313.88
566.05	55063.44
566.21	55625.17
566.38	55458.99
566.54	55569.00
566.70	55985.61
566.87	56271.16
567.03	56130.73
567.19	56472.45
567.36	56172.86
567.52	56004.34
567.68	55826.46
567.85	55360.69
568.01	54754.49
568.17	54454.90
568.34	54396.39
568.50	54307.45
568.66	54644.49
568.83	55124.30
568.99	54976.84
569.15	55318.56
569.32	55241.32
569.48	55100.89
569.64	54618.74
569.81	54511.08
569.97	54560.23
570.13	54195.10
570.30	53914.24
570.46	53689.55
570.62	52851.64
570.78	52652.69
570.95	53144.20
571.11	53921.26
571.27	54089.78
571.43	53965.73
571.60	54209.15
571.76	54571.93
571.92	54920.67
572.09	55192.17
572.25	54960.46
572.41	55157.06
572.57	54836.41
572.74	55154.72
572.90	54412.77
573.06	54515.76
573.22	54611.72
573.38	54473.63
573.55	54534.48
573.71	54588.31
573.87	54766.20
574.03	54211.49
574.20	54326.17
574.36	54003.18
574.52	53972.75
574.68	53949.35
574.84	53364.21
575.01	52996.75
575.17	52797.80
575.33	53045.90
575.49	53642.74
575.65	53551.46
575.82	53064.63
575.98	53200.38
576.14	53549.12
576.30	53619.33
576.46	53918.92
576.62	53586.57
576.79	53602.95
576.95	53235.48
577.11	52994.41
577.27	53371.24
577.43	53666.14
577.59	53050.58
577.75	52559.07
577.92	52046.49
578.08	51763.29
578.24	51807.76
578.40	52172.88
578.56	52317.99
578.72	52559.07
578.88	52533.32
579.04	52926.53
579.21	52896.11
579.37	53045.90
579.53	52968.66
579.69	53090.37
579.85	53102.07
580.01	53223.78
580.17	52484.17
580.33	52437.36
580.49	52390.55
580.65	52903.13
580.82	53179.31
580.98	52961.64
581.14	52947.60
581.30	52982.71
581.46	52818.87
581.62	52963.98
581.78	52928.87
581.94	53134.84
582.10	53027.18
582.26	52973.34
582.42	52762.70
582.58	52980.37
582.74	52949.94
582.90	53272.93
583.06	52917.17
583.22	52741.63
583.38	53202.72
583.54	52823.55
583.70	52800.15
583.86	52692.48
584.02	52692.48
584.18	52608.22
584.34	52680.78
584.50	52477.15
584.66	52097.98
584.82	52343.74
584.98	51695.41
585.14	51676.69
585.30	50883.25
