SpectraSuite Data File
++++++++++++++++++++++++++++++++++++
Date: Mon Oct 07 14:55:02 GMT-05:00 2013
User: price-jones
Dark Spectrum Present: No
Reference Spectrum Present: No
Number of Sampled Component Spectra: 1
Spectrometers: USB2+H05261
Integration Time (usec): 10000 (USB2+H05261)
Spectra Averaged: 1 (USB2+H05261)
Boxcar Smoothing: 0 (USB2+H05261)
Correct for Electrical Dark: No (USB2+H05261)
Strobe/Lamp Enabled: No (USB2+H05261)
Correct for Detector Non-linearity: No (USB2+H05261)
Correct for Stray Light: No (USB2+H05261)
Number of Pixels in Processed Spectrum: 2048
>>>>>Begin Processed Spectral Data<<<<<
365.73	0.00
365.92	0.00
366.12	0.00
366.32	0.00
366.52	0.00
366.72	0.00
366.91	0.00
367.11	0.00
367.31	0.00
367.51	0.00
367.70	0.00
367.90	0.00
368.10	0.00
368.30	0.00
368.49	0.00
368.69	0.00
368.89	0.00
369.09	0.00
369.28	0.00
369.48	0.00
369.68	0.00
369.87	0.00
370.07	0.00
370.27	0.00
370.47	435.34
370.66	2801.62
370.86	3225.26
371.06	3379.73
371.25	3405.48
371.45	2909.29
371.65	2619.06
371.84	2642.46
372.04	2902.26
372.24	3143.34
372.44	3201.85
372.63	3096.53
372.83	2895.24
373.03	2441.18
373.22	2389.69
373.42	2647.15
373.62	2967.80
373.81	3126.96
374.01	3115.25
374.21	2839.07
374.40	2719.70
374.60	2829.71
374.79	3262.71
374.99	3819.75
375.19	3943.80
375.38	3908.69
375.58	3571.66
375.78	3543.57
375.97	3847.84
376.17	3756.56
376.37	3772.94
376.56	3882.95
376.76	4301.90
376.95	4301.90
377.15	4741.93
377.35	4954.91
377.54	5029.81
377.74	5397.28
377.93	5210.03
378.13	4887.04
378.33	4603.83
378.52	4535.96
378.72	4344.03
378.91	4191.90
379.11	4098.28
379.31	3936.78
379.50	4056.15
379.70	4400.21
379.89	4826.18
380.09	5135.14
380.28	5296.63
380.48	5036.83
380.68	4819.16
380.87	4983.00
381.07	4479.79
381.26	4105.30
381.46	4044.45
381.65	3747.20
381.85	3796.35
382.04	3590.38
382.24	3260.37
382.43	3098.87
382.63	3225.26
382.83	3138.66
383.02	3232.28
383.22	3115.25
383.41	3117.59
383.61	3370.37
383.80	3915.72
384.00	4582.77
384.19	5025.13
384.39	5275.57
384.58	5193.65
384.78	5095.35
384.97	4915.12
385.17	4690.43
385.36	4411.91
385.56	4337.01
385.75	4620.22
385.95	5193.65
386.14	5423.02
386.34	5392.59
386.53	5053.22
386.72	4774.69
386.92	4952.57
387.11	5254.50
387.31	5446.43
387.50	5144.50
387.70	5217.05
387.89	4891.72
388.09	5121.09
388.28	4922.15
388.48	5376.21
388.67	5907.51
388.86	6303.06
389.06	6771.17
389.25	6981.82
389.45	7098.84
389.64	6794.58
389.84	6794.58
390.03	6761.81
390.22	6813.30
390.42	7335.24
390.61	7550.57
390.81	8028.04
391.00	8226.98
391.19	8037.40
391.39	7887.61
391.58	7368.01
391.78	6878.83
391.97	6717.34
392.16	6328.81
392.36	5406.64
392.55	4234.03
392.75	3316.54
392.94	2956.10
393.13	3038.02
393.33	3775.28
393.52	4748.95
393.71	5666.44
393.91	6431.79
394.10	6937.35
394.29	7588.02
394.49	8070.17
394.68	8765.31
394.88	8814.46
395.07	9008.72
395.26	8882.33
395.46	8720.84
395.65	7911.01
395.84	6862.45
396.04	5645.37
396.23	4620.22
396.42	3824.44
396.62	3868.91
396.81	4844.91
397.00	6352.21
397.19	7845.48
397.39	9322.35
397.58	10031.54
397.77	10590.92
397.97	10981.79
398.16	11307.13
398.35	11595.01
398.55	11927.37
398.74	12369.73
398.93	12549.95
399.12	12554.63
399.32	11716.72
399.51	12355.69
399.70	13378.50
399.90	12807.41
400.09	12671.66
400.28	12685.70
400.47	12641.23
400.67	13465.10
400.86	13921.51
401.05	14001.08
401.24	13776.39
401.44	14008.11
401.63	14155.56
401.82	14134.50
402.01	14228.12
402.21	14403.66
402.40	14251.52
402.59	13720.22
402.78	13048.49
402.97	13083.59
403.17	13855.97
403.36	14864.74
403.55	14860.06
403.74	15014.54
403.93	14272.59
404.13	12868.27
404.32	13205.30
404.51	13914.48
404.70	14604.94
404.89	14541.75
405.09	14602.60
405.28	14022.15
405.47	14237.48
405.66	14087.68
405.85	13474.46
406.05	13193.60
406.24	13535.32
406.43	14185.99
406.62	14644.73
406.81	14647.07
407.00	14265.57
407.20	14003.43
407.39	14499.62
407.58	15131.56
407.77	15742.44
407.96	15992.88
408.15	16215.23
408.34	16046.71
408.54	16783.98
408.73	17020.38
408.92	16512.48
409.11	15903.94
409.30	15077.73
409.49	14401.32
409.68	13228.71
409.87	13284.88
410.07	14363.87
410.26	15236.89
410.45	15653.50
410.64	16594.40
410.83	17270.81
411.02	17291.88
411.21	17909.78
411.40	17996.38
411.59	18036.17
411.78	18094.68
411.98	17678.07
412.17	17963.61
412.36	17722.54
412.55	17563.38
412.74	17362.09
412.93	16954.84
413.12	16982.93
413.31	19218.14
413.50	18874.08
413.69	19211.12
413.88	18504.28
414.07	18197.67
414.26	18305.33
414.45	19075.37
414.64	18691.52
414.83	18625.98
415.02	18471.51
415.22	18616.62
415.41	19428.79
415.60	20070.09
415.79	20814.38
415.98	20823.75
416.17	20678.63
416.36	20320.53
416.55	19962.43
416.74	19117.50
416.93	18806.20
417.12	18948.98
417.31	19061.32
417.50	19389.00
417.69	20152.01
417.88	19894.55
418.07	19318.78
418.26	19606.67
418.45	20233.93
418.64	20662.25
418.83	21893.37
419.02	21018.01
419.21	20159.03
419.39	19613.69
419.58	19012.17
419.77	19438.15
419.96	20491.39
420.15	21296.53
420.34	21975.29
420.53	22370.84
420.72	22932.57
420.91	22415.31
421.10	22082.95
421.29	21687.40
421.48	21593.78
421.67	22572.13
421.86	21132.70
422.05	19426.45
422.24	18010.42
422.43	18743.01
422.61	21123.33
422.80	21734.21
422.99	21404.20
423.18	20624.80
423.37	20475.01
423.56	20781.62
423.75	21432.29
423.94	21790.39
424.13	20620.12
424.32	20313.51
424.50	20243.29
424.69	20636.50
424.88	20549.90
425.07	20629.48
425.26	20409.47
425.45	19716.67
425.64	19571.56
425.83	19583.26
426.01	20868.22
426.20	21593.78
426.39	21186.53
426.58	19255.59
426.77	18080.64
426.96	18043.19
427.15	18625.98
427.33	20341.60
427.52	20739.49
427.71	20746.51
427.90	20552.24
428.09	20465.64
428.28	19796.25
428.46	18946.64
428.65	19143.24
428.84	19489.64
429.03	19611.35
429.22	18532.36
429.40	17355.07
429.59	15777.55
429.78	13870.01
429.97	14387.27
430.16	14279.61
430.34	14368.55
430.53	14949.00
430.72	15784.57
430.91	17411.25
431.10	20575.65
431.28	23513.02
431.47	25170.12
431.66	24215.18
431.85	21469.73
432.03	20458.62
432.22	20294.79
432.41	21998.70
432.60	23477.91
432.79	24198.80
432.97	24482.00
433.16	23384.29
433.35	21165.46
433.54	18754.71
433.72	18698.54
433.91	19536.45
434.10	22312.33
434.28	23367.91
434.47	24215.18
434.66	23433.44
434.85	23115.13
435.03	23569.19
435.22	23950.70
435.41	24851.81
435.59	25514.18
435.78	25731.85
435.97	26396.56
436.16	26167.19
436.34	25839.51
436.53	25125.65
436.72	25104.59
436.90	24051.34
437.09	24266.67
437.28	23859.42
437.46	24849.47
437.65	23988.15
437.84	21919.12
438.02	20781.62
438.21	21511.86
438.40	21785.71
438.58	23482.59
438.77	24790.95
438.96	24797.98
439.14	26324.01
439.33	26555.72
439.52	26810.84
439.70	25851.22
439.89	24903.30
440.08	24540.52
440.26	24865.85
440.45	25893.35
440.63	27613.64
440.82	28849.44
441.01	28161.33
441.19	28149.62
441.38	29422.87
441.57	30054.82
441.75	30052.48
441.94	30057.16
442.12	29809.06
442.31	31094.02
442.50	30249.08
442.68	29640.54
442.87	29745.87
443.05	29631.18
443.24	29874.60
443.43	30639.95
443.61	31019.12
443.80	31173.60
443.98	30089.93
444.17	29546.92
444.35	31143.17
444.54	31660.43
444.73	31161.89
444.91	29186.48
445.10	28865.83
445.28	27714.28
445.47	27810.25
445.65	27606.62
445.84	28816.68
446.02	29137.33
446.21	29694.38
446.39	29780.98
446.58	30171.85
446.77	31229.77
446.95	31101.04
447.14	32037.25
447.32	32802.61
447.51	31997.46
447.69	30576.76
447.88	30480.80
448.06	31065.93
448.25	30895.07
448.43	31079.97
448.62	30714.85
448.80	30759.32
448.99	30558.03
449.17	31606.59
449.36	32016.19
449.54	32252.58
449.73	32711.33
449.91	33495.41
450.10	34703.12
450.28	34560.35
450.46	34759.30
450.65	34398.85
450.83	34068.84
451.02	33717.76
451.20	33310.50
451.39	33516.47
451.57	33216.88
451.76	33233.27
451.94	32994.53
452.13	31648.72
452.31	30057.16
452.49	29315.21
452.68	29795.02
452.86	30370.79
453.05	30890.39
453.23	32439.82
453.42	32418.76
453.60	33450.94
453.78	33055.39
453.97	32938.36
454.15	32823.67
454.34	31040.18
454.52	31615.96
454.70	31344.45
454.89	32229.18
455.07	32271.31
455.26	32774.52
455.44	33549.24
455.62	34295.87
455.81	34352.04
455.99	33790.31
456.17	34455.03
456.36	34937.18
456.54	34967.60
456.73	34483.11
456.91	35393.58
457.09	35182.93
457.28	36325.11
457.46	34314.59
457.64	34487.79
457.83	33528.17
458.01	33724.78
458.19	34452.69
458.38	35229.74
458.56	35562.10
458.74	35489.54
458.93	34330.98
459.11	33813.72
459.29	33773.93
459.48	34508.86
459.66	34036.07
459.84	34106.29
460.03	34548.65
460.21	35468.48
460.39	36137.87
460.57	35255.49
460.76	35566.78
460.94	35976.37
461.12	36140.21
461.31	36257.24
461.49	36418.74
461.67	36435.12
461.85	37069.40
462.04	36854.08
462.22	37029.62
462.40	36821.31
462.59	35964.67
462.77	36180.00
462.95	36428.10
463.13	36308.73
463.32	35777.43
463.50	35761.05
463.68	35548.06
463.86	36065.31
464.05	34991.01
464.23	34377.79
464.41	34352.04
464.59	34057.14
464.78	35318.68
464.96	34885.68
465.14	34686.74
465.32	36711.30
465.50	37111.53
465.69	37895.61
465.87	36673.85
466.05	35679.13
466.23	34181.18
466.41	33097.52
466.60	34700.78
466.78	33949.47
466.96	34845.90
467.14	35882.75
467.32	35559.76
467.51	35573.80
467.69	34036.07
467.87	35154.85
468.05	35629.98
468.23	35484.86
468.41	35819.56
468.60	36053.61
468.78	36458.52
468.96	35934.24
469.14	36730.03
469.32	36610.66
469.50	35030.80
469.69	35648.70
469.87	34803.77
470.05	34429.28
470.23	34602.48
470.41	35056.54
470.59	35475.50
470.77	35138.46
470.95	35812.54
471.14	36945.36
471.32	36825.99
471.50	39218.02
471.68	38850.55
471.86	39164.18
472.04	38951.20
472.22	38880.98
472.40	37556.24
472.58	37607.73
472.77	37048.34
472.95	37886.25
473.13	38866.94
473.31	37383.04
473.49	37752.84
473.67	38352.02
473.85	39335.04
474.03	40402.33
474.21	40612.98
474.39	40538.08
474.57	40474.88
474.75	40631.70
474.93	40163.59
475.12	39409.94
475.30	39145.46
475.48	38958.22
475.66	39606.55
475.84	38600.12
476.02	39243.76
476.20	38682.03
476.38	39782.09
476.56	40825.96
476.74	41020.23
476.92	41387.69
477.10	41317.48
477.28	43037.77
477.46	42754.57
477.64	43908.45
477.82	43606.52
478.00	43941.22
478.18	42724.14
478.36	42279.44
478.54	42728.82
478.72	43709.50
478.90	45081.06
479.08	46803.69
479.26	46169.41
479.44	46902.00
479.62	45722.37
479.80	46600.07
479.98	46316.86
480.16	46583.68
480.34	45741.09
480.52	46993.28
480.70	47070.51
480.88	46071.10
481.06	46770.93
481.24	47571.39
481.41	48624.63
481.59	49467.22
481.77	48093.33
481.95	47681.39
482.13	47702.46
482.31	48392.92
482.49	49392.33
482.67	48390.58
482.85	48397.60
483.03	48500.58
483.21	49888.52
483.39	49617.02
483.57	49076.35
483.74	49085.72
483.92	49268.28
484.10	49172.31
484.28	49270.62
484.46	49448.50
484.64	50820.05
484.82	49900.22
485.00	49282.32
485.18	48671.44
485.35	46176.43
485.53	41287.05
485.71	39037.80
485.89	39835.92
486.07	43342.04
486.25	45270.64
486.43	47540.96
486.61	48311.00
486.78	47746.93
486.96	49165.29
487.14	50052.36
487.32	51056.45
487.50	51543.28
487.68	52842.27
487.85	53509.33
488.03	52610.56
488.21	52456.09
488.39	52247.78
488.57	50770.90
488.75	50848.14
488.92	52325.02
489.10	54267.66
489.28	54555.55
489.46	55896.67
489.64	55653.26
489.81	55941.14
489.99	55009.61
490.17	55545.59
490.35	55552.62
490.53	55496.44
490.70	54829.39
490.88	55030.68
491.06	56013.70
491.24	56362.44
491.41	55454.31
491.59	53806.58
491.77	53396.98
491.95	54511.08
492.13	56086.26
492.30	56439.68
492.48	56959.28
492.66	57406.32
492.84	56713.52
493.01	56727.56
493.19	56636.28
493.37	56062.85
493.54	56416.27
493.72	57551.43
493.90	57668.46
494.08	58260.62
494.25	58398.71
494.43	58726.38
494.61	59189.81
494.79	59028.31
494.96	59299.81
495.14	58628.08
495.32	57375.89
495.49	57717.61
495.67	58660.85
495.85	59412.16
496.02	60011.34
496.20	59337.26
496.38	58869.15
496.55	58808.30
496.73	59618.13
496.91	60041.76
497.09	59812.39
497.26	60402.21
497.44	59952.82
497.62	59056.40
497.79	58497.01
497.97	57549.09
498.14	58260.62
498.32	59274.07
498.50	59386.41
498.67	59288.11
498.85	59505.78
499.03	60030.06
499.20	60282.84
499.38	59524.50
499.56	58953.41
499.73	59245.98
499.91	58993.20
500.08	58361.26
500.26	58000.82
500.44	58756.81
500.61	59250.66
500.79	59028.31
500.97	58965.12
501.14	58087.42
501.32	57794.85
501.49	57963.37
501.67	58848.09
501.84	58747.45
502.02	59320.88
502.20	59941.12
502.37	59861.54
502.55	59884.95
502.72	60610.51
502.90	60919.46
503.07	60626.90
503.25	59571.32
503.43	58944.05
503.60	58679.57
503.78	58492.33
503.95	58712.34
504.13	59882.61
504.30	60444.33
504.48	59723.45
504.65	59943.46
504.83	60027.72
505.01	60893.72
505.18	60994.36
505.36	61492.89
505.53	61361.82
505.71	61436.72
505.88	61757.38
506.06	61380.55
506.23	60963.93
506.41	60743.92
506.58	60870.31
506.76	60889.04
506.93	60163.47
507.11	60292.20
507.28	60556.68
507.46	59784.30
507.63	60090.91
507.81	59634.51
507.98	59917.71
508.16	61020.11
508.33	60928.83
508.50	61197.99
508.68	61535.02
508.85	61822.91
509.03	62209.10
509.20	61570.13
509.38	60629.24
509.55	60786.05
509.73	60851.59
509.90	60931.17
510.08	61244.80
510.25	60725.20
510.42	60552.00
510.60	60898.40
510.77	61350.12
510.95	61333.74
511.12	61694.18
511.30	62251.23
511.47	62653.80
511.64	62307.40
511.82	62443.15
511.99	61364.17
512.17	61322.04
512.34	60767.33
512.51	60982.66
512.69	61394.59
512.86	60863.29
513.04	61265.86
513.21	60741.58
513.38	59929.42
513.56	59461.31
513.73	59517.48
513.90	60411.57
514.08	60261.77
514.25	60357.74
514.43	60734.56
514.60	61041.17
514.77	61069.26
514.95	60935.85
515.12	61123.09
515.29	61502.26
515.47	61911.85
515.64	61783.12
515.81	61509.28
515.99	60346.03
516.16	58464.24
516.33	56882.04
516.51	56605.86
516.68	55641.56
516.85	54555.55
517.03	56322.65
517.20	58595.31
517.37	60449.02
517.54	61172.24
517.72	59927.08
517.89	57190.99
518.06	55950.51
518.24	56818.84
518.41	59157.04
518.58	59861.54
518.75	60128.36
518.93	60020.70
519.10	59381.73
519.27	60470.08
519.45	60945.21
519.62	61581.84
519.79	61778.44
519.96	61062.24
520.14	60732.22
520.31	59709.41
520.48	59887.29
520.65	60746.26
520.83	61946.96
521.00	61504.60
521.17	60992.02
521.34	61219.05
521.52	61722.27
521.69	61815.89
521.86	62056.96
522.03	61977.39
522.20	60364.76
522.38	59906.01
522.55	60207.94
522.72	60552.00
522.89	60261.77
523.07	61464.81
523.24	61523.32
523.41	62401.02
523.58	62522.73
523.75	62688.91
523.92	62410.38
524.10	62138.88
524.27	61680.14
524.44	61478.85
524.61	61212.03
524.78	61621.62
524.96	61684.82
525.13	61542.05
525.30	62218.46
525.47	62550.82
525.64	62651.46
525.81	61675.46
525.98	59796.01
526.16	58588.29
526.33	58775.53
526.50	58365.94
526.67	58649.14
526.84	58979.16
527.01	59985.59
527.18	60343.69
527.36	60931.17
527.53	62078.03
527.70	61520.98
527.87	60346.03
528.04	61071.60
528.21	61654.39
528.38	62131.86
528.55	63121.91
528.72	62803.59
528.89	62323.78
529.07	62450.17
529.24	61050.53
529.41	61087.98
529.58	60877.33
529.75	61614.60
529.92	61998.45
530.09	61881.42
530.26	62405.70
530.43	63166.38
530.60	62216.12
530.77	63152.33
530.94	63135.95
531.11	62078.03
531.28	62117.82
531.46	62192.72
531.63	62101.43
531.80	61715.25
531.97	61279.91
532.14	61291.61
532.31	60030.06
532.48	59398.12
532.65	59503.44
532.82	60229.01
532.99	61893.13
533.16	62021.86
533.33	61872.06
533.50	62204.42
533.67	61822.91
533.84	61221.39
534.01	61661.41
534.18	61638.01
534.35	61277.57
534.52	60851.59
534.69	61453.11
534.86	61930.58
535.03	62321.44
535.20	62354.21
535.37	63061.05
535.54	63140.63
535.71	62759.12
535.88	62885.51
536.05	61542.05
536.22	61048.19
536.38	61099.68
536.55	60364.76
536.72	59866.22
536.89	60659.66
537.06	60793.07
537.23	61130.11
537.40	60940.53
537.57	61045.85
537.74	61190.97
537.91	61453.11
538.08	61448.42
538.25	61499.92
538.42	62148.24
538.59	61609.92
538.75	61193.31
538.92	60240.71
539.09	60652.64
539.26	60615.19
539.43	60395.18
539.60	60233.69
539.77	60999.04
539.94	60516.89
540.11	60037.08
540.28	59494.08
540.44	59264.70
540.61	59337.26
540.78	59849.84
540.95	60519.23
541.12	60566.04
541.29	61113.73
541.46	61078.62
541.62	61380.55
541.79	60577.75
541.96	60137.72
542.13	60306.24
542.30	60383.48
542.47	60732.22
542.63	60720.52
542.80	60432.63
542.97	59901.33
543.14	60013.68
543.31	60268.79
543.48	61366.51
543.64	61528.00
543.81	62199.74
543.98	61881.42
544.15	60687.75
544.32	61106.71
544.48	60680.73
544.65	60652.64
544.82	61265.86
544.99	59980.91
545.16	59690.68
545.32	59873.24
545.49	60781.37
545.66	60650.30
545.83	60575.40
546.00	61106.71
546.16	60753.29
546.33	60308.58
546.50	60582.43
546.67	61291.61
546.83	60502.85
547.00	60797.76
547.17	59613.44
547.34	59131.29
547.50	59133.63
547.67	59943.46
547.84	60662.00
548.00	60701.79
548.17	60350.71
548.34	60919.46
548.51	61071.60
548.67	60828.18
548.84	60968.61
549.01	60952.23
549.18	60402.21
549.34	60339.01
549.51	60860.95
549.68	60975.64
549.84	60301.56
550.01	59749.20
550.18	59784.30
550.34	60095.60
550.51	60137.72
550.68	60795.42
550.84	60690.09
551.01	59629.83
551.18	59725.79
551.34	59360.67
551.51	60549.66
551.68	60451.36
551.84	60938.19
552.01	60430.29
552.18	60133.04
552.34	59454.29
552.51	59168.74
552.68	59082.14
552.84	59643.87
553.01	59346.62
553.18	59842.82
553.34	59859.20
553.51	60261.77
553.67	60025.38
553.84	60198.58
554.01	60477.10
554.17	59842.82
554.34	60039.42
554.51	59920.05
554.67	59276.41
554.84	59491.74
555.00	59070.44
555.17	59632.17
555.33	59248.32
555.50	58782.55
555.67	59456.63
555.83	59458.97
556.00	58993.20
556.16	59007.25
556.33	58564.88
556.50	59110.23
556.66	59014.27
556.83	58887.88
556.99	58471.26
557.16	58937.03
557.32	58398.71
557.49	59011.93
557.65	58740.42
557.82	59358.33
557.98	59414.50
558.15	58457.22
558.32	58101.46
558.48	57308.02
558.65	57352.49
558.81	57911.88
558.98	58660.85
559.14	58817.66
559.31	58628.08
559.47	58241.89
559.64	58195.08
559.80	57525.69
559.97	58344.87
560.13	58873.84
560.30	59739.83
560.46	59952.82
560.63	60374.12
560.79	60121.34
560.96	59220.23
561.12	58157.63
561.29	57961.03
561.45	57827.62
561.61	59068.10
561.78	58333.17
561.94	58763.83
562.11	58604.67
562.27	57853.36
562.44	59011.93
562.60	58869.15
562.77	59175.76
562.93	58436.16
563.10	58422.11
563.26	58567.23
563.42	58890.22
563.59	58431.47
563.75	58239.55
563.92	57797.19
564.08	57743.36
564.24	58637.44
564.41	57743.36
564.57	58920.65
564.74	58674.89
564.90	57811.23
565.07	57640.37
565.23	56865.66
565.39	56306.27
565.56	57080.98
565.72	57132.48
565.88	56324.99
566.05	58028.90
566.21	58300.40
566.38	57633.35
566.54	58258.27
566.70	58733.40
566.87	58176.36
567.03	58021.88
567.19	59040.01
567.36	59295.13
567.52	57804.21
567.68	57345.47
567.85	56697.14
568.01	57296.31
568.17	57221.42
568.34	57415.68
568.50	56748.63
568.66	56781.40
568.83	56615.22
568.99	56453.72
569.15	56622.24
569.32	56704.16
569.48	56566.07
569.64	56491.17
569.81	56435.00
569.97	56163.50
570.13	55428.57
570.30	55117.28
570.46	54813.01
570.62	54073.40
570.78	54623.42
570.95	55206.22
571.11	55332.60
571.27	55299.84
571.43	55599.43
571.60	55461.33
571.76	56427.98
571.92	56507.55
572.09	57069.28
572.25	56659.69
572.41	56828.21
572.57	56631.60
572.74	56994.39
572.90	57972.73
573.06	57359.51
573.22	57286.95
573.38	57265.89
573.55	58178.70
573.71	56835.23
573.87	56669.05
574.03	56814.16
574.20	56376.48
574.36	56310.95
574.52	55880.29
574.68	55655.60
574.84	55075.15
575.01	55150.04
575.17	54934.71
575.33	55604.11
575.49	55643.90
575.65	54803.64
575.82	54665.55
575.98	55065.78
576.14	56135.41
576.30	56842.25
576.46	55585.38
576.62	55288.13
576.79	55629.85
576.95	55676.66
577.11	56037.11
577.27	55681.34
577.43	55950.51
577.59	55330.26
577.75	54356.60
577.92	54475.97
578.08	54581.29
578.24	54705.34
578.40	54761.51
578.56	53762.11
578.72	54183.40
578.88	54078.08
579.04	54656.19
579.21	54314.47
579.37	54520.44
579.53	54988.55
579.69	54380.01
579.85	54513.42
580.01	54340.22
580.17	53909.56
580.33	54822.37
580.49	55325.58
580.65	53942.33
580.82	54445.54
580.98	55042.38
581.14	55077.49
581.30	54482.99
581.46	54258.30
581.62	54630.44
581.78	55360.69
581.94	55512.83
582.10	55517.51
582.26	55231.96
582.42	55297.50
582.58	54230.21
582.74	54513.42
582.90	54585.97
583.06	55138.34
583.22	54932.37
583.38	54899.61
583.54	55372.39
583.70	55426.23
583.86	55407.50
584.02	54157.66
584.18	54417.46
584.34	53801.89
584.50	53916.58
584.66	54237.23
584.82	54129.57
584.98	54178.72
585.14	53212.08
585.30	53389.96
