SpectraSuite Data File
++++++++++++++++++++++++++++++++++++
Date: Mon Oct 07 14:55:02 GMT-05:00 2013
User: price-jones
Dark Spectrum Present: No
Reference Spectrum Present: No
Number of Sampled Component Spectra: 1
Spectrometers: USB2+H05261
Integration Time (usec): 10000 (USB2+H05261)
Spectra Averaged: 1 (USB2+H05261)
Boxcar Smoothing: 0 (USB2+H05261)
Correct for Electrical Dark: No (USB2+H05261)
Strobe/Lamp Enabled: No (USB2+H05261)
Correct for Detector Non-linearity: No (USB2+H05261)
Correct for Stray Light: No (USB2+H05261)
Number of Pixels in Processed Spectrum: 2048
>>>>>Begin Processed Spectral Data<<<<<
365.73	0.00
365.92	0.00
366.12	0.00
366.32	0.00
366.52	0.00
366.72	0.00
366.91	0.00
367.11	0.00
367.31	0.00
367.51	0.00
367.70	0.00
367.90	0.00
368.10	0.00
368.30	0.00
368.49	0.00
368.69	0.00
368.89	0.00
369.09	0.00
369.28	0.00
369.48	0.00
369.68	0.00
369.87	0.00
370.07	0.00
370.27	0.00
370.47	496.19
370.66	2663.53
370.86	3145.68
371.06	3475.70
371.25	3344.63
371.45	2923.33
371.65	2698.64
371.84	2670.55
372.04	2904.60
372.24	3101.21
372.44	3239.30
372.63	3138.66
372.83	2848.43
373.03	2579.27
373.22	2321.81
373.42	2635.44
373.62	2974.82
373.81	3159.72
374.01	3056.74
374.21	2750.13
374.40	2579.27
374.60	2862.48
374.79	3234.62
374.99	3756.56
375.19	3859.54
375.38	3904.01
375.58	3634.85
375.78	3634.85
375.97	3637.19
376.17	3833.80
376.37	3744.86
376.56	4084.23
376.76	4280.84
376.95	4517.23
377.15	4765.33
377.35	4933.85
377.54	5029.81
377.74	5296.63
377.93	5247.48
378.13	4957.25
378.33	4737.24
378.52	4388.50
378.72	4236.37
378.91	4266.80
379.11	4086.58
379.31	3875.93
379.50	4079.55
379.70	4383.82
379.89	4805.12
380.09	4961.94
380.28	5156.20
380.48	5102.37
380.68	5013.43
380.87	4842.57
381.07	4425.95
381.26	4135.73
381.46	3885.29
381.65	3721.45
381.85	3831.46
382.04	3487.40
382.24	3183.13
382.43	3218.24
382.63	3045.04
382.83	3066.10
383.02	3105.89
383.22	3080.14
383.41	3185.47
383.61	3536.55
383.80	3948.48
384.00	4545.32
384.19	4943.21
384.39	5179.61
384.58	5121.09
384.78	4915.12
384.97	4762.99
385.17	4620.22
385.36	4493.83
385.56	4304.25
385.75	4533.62
385.95	5123.43
386.14	5338.76
386.34	5259.18
386.53	4985.34
386.72	4741.93
386.92	5062.58
387.11	5090.67
387.31	5277.91
387.50	5394.93
387.70	4961.94
387.89	5179.61
388.09	5083.64
388.28	5013.43
388.48	5167.90
388.67	5717.93
388.86	6291.36
389.06	6649.46
389.25	7030.97
389.45	7066.08
389.64	6869.47
389.84	6707.98
390.03	6581.59
390.22	6967.77
390.42	7323.54
390.61	7660.57
390.81	8077.19
391.00	8086.55
391.19	8100.59
391.39	7754.19
391.58	7236.94
391.78	6841.39
391.97	6689.25
392.16	6310.08
392.36	5430.04
392.55	4131.05
392.75	3471.01
392.94	2799.28
393.13	2951.42
393.33	3644.21
393.52	4795.76
393.71	5778.78
393.91	6485.62
394.10	6998.20
394.29	7613.76
394.49	8201.24
394.68	8730.20
394.88	8741.90
395.07	8861.27
395.26	8929.14
395.46	8503.17
395.65	7920.37
395.84	6810.96
396.04	5591.54
396.23	4538.30
396.42	3777.62
396.62	4100.62
396.81	5055.56
397.00	6232.85
397.19	7721.43
397.39	9242.78
397.58	10132.18
397.77	10525.39
397.97	10974.77
398.16	10988.82
398.35	11492.03
398.55	11665.23
398.74	12428.24
398.93	12369.73
399.12	12037.38
399.32	11421.81
399.51	12013.97
399.70	12793.37
399.90	12683.36
400.09	12503.14
400.28	12477.40
400.47	12910.40
400.67	13558.72
400.86	13607.87
401.05	13411.27
401.24	13638.30
401.44	13958.96
401.63	14246.84
401.82	14162.58
402.01	14153.22
402.21	14366.21
402.40	14326.42
402.59	13689.79
402.78	13092.96
402.97	13167.85
403.17	13837.25
403.36	14607.28
403.55	14885.81
403.74	14958.36
403.93	14008.11
404.13	12975.93
404.32	13224.03
404.51	13830.23
404.70	14656.43
404.89	14387.27
405.09	14347.48
405.28	14132.15
405.47	14061.94
405.66	13879.38
405.85	13675.75
406.05	13315.31
406.24	13682.77
406.43	14125.13
406.62	14480.89
406.81	14668.14
407.00	14420.04
407.20	13788.10
407.39	14075.98
407.58	14956.02
407.77	15363.28
407.96	16053.73
408.15	16418.86
408.34	16163.74
408.54	16620.14
408.73	16592.06
408.92	16496.10
409.11	15758.83
409.30	15075.39
409.49	13888.74
409.68	13362.12
409.87	13170.19
410.07	14209.39
410.26	14937.30
410.45	15887.56
410.64	16318.22
410.83	16931.44
411.02	17202.94
411.21	17956.59
411.40	17404.22
411.59	17963.61
411.78	17820.84
411.98	17411.25
412.17	17923.82
412.36	17804.46
412.55	17563.38
412.74	17027.40
412.93	16716.11
413.12	17664.02
413.31	19066.00
413.50	18892.80
413.69	19271.97
413.88	18178.94
414.07	17963.61
414.26	18555.77
414.45	18906.85
414.64	18780.46
414.83	18504.28
415.02	18511.30
415.22	18614.28
415.41	18953.66
415.60	19747.10
415.79	20231.59
415.98	20776.94
416.17	20130.95
416.36	19967.11
416.55	19819.66
416.74	19171.33
416.93	18789.82
417.12	18916.21
417.31	19040.26
417.50	19447.51
417.69	19889.87
417.88	19910.94
418.07	19637.09
418.26	19674.54
418.45	20004.56
418.64	20430.54
418.83	21518.89
419.02	20688.00
419.21	20348.62
419.39	19704.97
419.58	18787.48
419.77	18836.63
419.96	19903.92
420.15	20980.56
420.34	21568.04
420.53	22272.54
420.72	22579.15
420.91	22300.62
421.10	21713.15
421.29	21736.56
421.48	20999.29
421.67	22199.98
421.86	21216.96
422.05	19428.79
422.24	18071.28
422.43	18537.04
422.61	20706.72
422.80	21551.65
422.99	20959.50
423.18	20402.45
423.37	20231.59
423.56	20683.31
423.75	21106.95
423.94	21640.59
424.13	20318.19
424.32	20297.13
424.50	20332.23
424.69	20311.17
424.88	20566.29
425.07	20301.81
425.26	20404.79
425.45	19405.38
425.64	19325.80
425.83	19917.96
426.01	20676.29
426.20	21376.11
426.39	20823.75
426.58	18998.13
426.77	18092.34
426.96	17818.50
427.15	18726.63
427.33	20170.74
427.52	20510.11
427.71	20936.09
427.90	20304.15
428.09	20341.60
428.28	19510.71
428.46	18787.48
428.65	18771.10
428.84	19742.42
429.03	19356.23
429.22	18288.95
429.40	17053.14
429.59	15243.91
429.78	14125.13
429.97	14342.80
430.16	14267.91
430.34	14171.94
430.53	14689.20
430.72	15367.96
430.91	17200.60
431.10	20311.17
431.28	23075.34
431.47	24498.39
431.66	24350.93
431.85	21380.79
432.03	19838.38
432.22	19747.10
432.41	21486.12
432.60	23082.36
432.79	23887.51
432.97	24254.97
433.16	23302.37
433.35	20882.26
433.54	18824.93
433.72	18403.63
433.91	19447.51
434.10	22143.81
434.28	23159.60
434.47	24304.12
434.66	23166.62
434.85	22707.88
435.03	23452.17
435.22	23665.16
435.41	24617.75
435.59	24978.20
435.78	25336.30
435.97	25628.87
436.16	25741.21
436.34	25439.28
436.53	24751.17
436.72	25202.89
436.90	23749.42
437.09	23779.84
437.28	23585.58
437.46	24379.02
437.65	23494.30
437.84	21488.46
438.02	21010.99
438.21	21029.71
438.40	21553.99
438.58	23269.61
438.77	24484.34
438.96	24219.86
439.14	25696.74
439.33	25862.92
439.52	26583.80
439.70	25523.54
439.89	24575.62
440.08	24334.55
440.26	24327.53
440.45	25668.66
440.63	27442.78
440.82	28512.41
441.01	27960.04
441.19	27644.07
441.38	28966.47
441.57	29296.49
441.75	29081.16
441.94	30071.20
442.12	29453.30
442.31	30213.98
442.50	29979.92
442.68	29642.88
442.87	29589.05
443.05	28924.34
443.24	29614.80
443.43	30574.42
443.61	30450.37
443.80	30998.06
443.98	29626.50
444.17	29404.15
444.35	30824.86
444.54	31625.32
444.73	30623.57
444.91	29364.36
445.10	28226.86
445.28	27454.48
445.47	27381.93
445.65	27220.43
445.84	28666.88
446.02	28655.18
446.21	29663.95
446.39	29619.48
446.58	30415.26
446.77	31070.61
446.95	30932.52
447.14	31639.36
447.32	32208.11
447.51	31431.05
447.69	29921.41
447.88	30094.61
448.06	30806.13
448.25	31035.50
448.43	30738.26
448.62	30103.97
448.80	30520.59
448.99	30410.58
449.17	30986.35
449.36	31449.78
449.54	32442.17
449.73	32404.72
449.91	32851.76
450.10	33846.49
450.28	34129.69
450.46	34328.64
450.65	34136.71
450.83	33806.70
451.02	32835.38
451.20	33567.96
451.39	33170.07
451.57	33383.06
451.76	33120.92
451.94	32168.32
452.13	31601.91
452.31	29841.83
452.49	28800.29
452.68	29762.25
452.86	30384.83
453.05	30628.25
453.23	31751.71
453.42	32091.09
453.60	33296.46
453.78	32371.95
453.97	32355.57
454.15	32271.31
454.34	31098.70
454.52	31084.65
454.70	31115.08
454.89	31749.37
455.07	32048.96
455.26	32194.07
455.44	33617.11
455.62	34136.71
455.81	33809.04
455.99	33666.27
456.17	34328.64
456.36	34642.27
456.54	35292.94
456.73	34155.44
456.91	34684.40
457.09	34735.89
457.28	35868.71
457.46	34347.36
457.64	34012.66
457.83	33251.99
458.01	32877.51
458.19	34115.65
458.38	35332.73
458.56	35154.85
458.74	34822.49
458.93	34031.39
459.11	33521.15
459.29	33139.65
459.48	34270.12
459.66	33624.14
459.84	34101.61
460.03	34848.24
460.21	35379.54
460.39	35992.76
460.57	35199.32
460.76	35339.75
460.94	35665.08
461.12	35573.80
461.31	35892.12
461.49	35817.22
461.67	35892.12
461.85	36467.89
462.04	36477.25
462.22	36355.54
462.40	36589.59
462.59	36149.57
462.77	36079.36
462.95	36109.78
463.13	35934.24
463.32	35201.66
463.50	35152.51
463.68	35482.52
463.86	35260.17
464.05	35204.00
464.23	34242.04
464.41	34347.36
464.59	33865.21
464.78	35306.98
464.96	35339.75
465.14	34347.36
465.32	35634.66
465.50	37350.27
465.69	37481.34
465.87	35962.33
466.05	35192.30
466.23	33769.25
466.41	32987.51
466.60	34141.39
466.78	34099.26
466.96	34682.06
467.14	35461.46
467.32	35037.82
467.51	35901.48
467.69	33905.00
467.87	34623.54
468.05	35372.52
468.23	35271.87
468.41	35344.43
468.60	35587.85
468.78	36135.53
468.96	35807.86
469.14	36058.29
469.32	36378.95
469.50	33921.38
469.69	35253.15
469.87	34593.12
470.05	34171.82
470.23	34340.34
470.41	34916.11
470.59	34827.17
470.77	35086.97
470.95	35882.75
471.14	36741.73
471.32	36833.01
471.50	38459.68
471.68	38330.95
471.86	39063.54
472.04	38663.31
472.22	38808.42
472.40	37457.93
472.58	36999.19
472.77	36924.29
472.95	37364.31
473.13	38396.49
473.31	36975.78
473.49	36987.49
473.67	38054.77
473.85	38543.94
474.03	40596.59
474.21	40449.14
474.39	40280.62
474.57	40297.00
474.75	40708.94
474.93	39351.43
475.12	38590.75
475.30	39047.16
475.48	38359.04
475.66	39166.52
475.84	38265.42
476.02	38616.50
476.20	37741.14
476.38	39119.71
476.56	40463.18
476.74	41214.49
476.92	40924.27
477.10	41352.58
477.28	42679.67
477.46	42574.34
477.64	43569.07
477.82	43702.48
478.00	43716.53
478.18	42106.24
478.36	41668.56
478.54	42485.40
478.72	43344.38
478.90	44903.18
479.08	46087.49
479.26	45797.26
479.44	46555.60
479.62	45350.22
479.80	46085.15
479.98	45811.31
480.16	46410.48
480.34	45642.79
480.52	46513.47
480.70	46974.55
480.88	46124.94
481.06	47264.78
481.24	47641.60
481.41	47957.58
481.59	49275.30
481.77	47274.14
481.95	47339.68
482.13	47107.96
482.31	47985.66
482.49	48306.32
482.67	47812.46
482.85	48336.74
483.03	48626.97
483.21	49251.89
483.39	48626.97
483.57	48439.73
483.74	48208.01
483.92	48964.01
484.10	48886.77
484.28	48629.31
484.46	48907.83
484.64	50749.84
484.82	49712.98
485.00	49118.48
485.18	48268.87
485.35	46363.67
485.53	41003.85
485.71	39241.42
485.89	39667.40
486.07	42979.26
486.25	45010.84
486.43	47613.52
486.61	47351.38
486.78	47187.54
486.96	48715.91
487.14	49897.88
487.32	50679.62
487.50	51285.82
487.68	52669.08
487.85	53085.69
488.03	52332.04
488.21	51978.62
488.39	51653.28
488.57	50370.67
488.75	50518.12
488.92	51889.68
489.10	53869.77
489.28	54677.25
489.46	55945.83
489.64	55505.80
489.81	55557.30
489.99	54759.17
490.17	54808.32
490.35	55157.06
490.53	55002.59
490.70	54309.79
490.88	54436.18
491.06	55426.23
491.24	55903.70
491.41	54862.16
491.59	53345.49
491.77	53279.96
491.95	54382.35
492.13	55814.76
492.30	55915.40
492.48	56772.03
492.66	57029.49
492.84	56652.67
493.01	56470.11
493.19	56554.36
493.37	55779.65
493.54	56119.02
493.72	57200.35
493.90	57406.32
494.08	57785.49
494.25	57970.39
494.43	58368.28
494.61	58885.54
494.79	58915.96
494.96	59304.49
495.14	58672.55
495.32	57303.34
495.49	57609.95
495.67	58599.99
495.85	59250.66
496.02	59709.41
496.20	59231.94
496.38	58885.54
496.55	58719.36
496.73	59491.74
496.91	59604.08
497.09	59641.53
497.26	59828.77
497.44	59496.42
497.62	58787.24
497.79	57869.75
497.97	57368.87
498.14	57764.42
498.32	59107.89
498.50	58988.52
498.67	58972.14
498.85	59393.43
499.03	59669.62
499.20	60214.96
499.38	59508.12
499.56	59058.74
499.73	58878.52
499.91	58550.84
500.08	58059.33
500.26	57626.33
500.44	58363.60
500.61	58876.18
500.79	58663.19
500.97	59023.63
501.14	57743.36
501.32	57668.46
501.49	58024.22
501.67	58525.10
501.84	58567.23
502.02	58883.20
502.20	59686.00
502.37	59709.41
502.55	59840.48
502.72	60214.96
502.90	60598.81
503.07	60549.66
503.25	59224.92
503.43	58452.54
503.60	58298.06
503.78	58155.29
503.95	58155.29
504.13	59678.98
504.30	59997.29
504.48	59358.33
504.65	59709.41
504.83	59796.01
505.01	60456.04
505.18	60804.78
505.36	60959.25
505.53	61221.39
505.71	61228.41
505.88	61366.51
506.06	60821.16
506.23	60708.82
506.41	60575.40
506.58	60711.16
506.76	60594.13
506.93	60037.08
507.11	60009.00
507.28	60177.51
507.46	59707.07
507.63	59770.26
507.81	59093.85
507.98	59770.26
508.16	60968.61
508.33	60748.60
508.50	60910.10
508.68	61399.27
508.85	61572.47
509.03	61970.36
509.20	60942.87
509.38	60083.89
509.55	60310.92
509.73	60346.03
509.90	60762.65
510.08	60764.99
510.25	60416.25
510.42	60210.28
510.60	60697.11
510.77	61181.60
510.95	61167.56
511.12	61476.51
511.30	61975.05
511.47	62295.70
511.64	62033.56
511.82	62017.17
511.99	61069.26
512.17	61031.81
512.34	60423.27
512.51	60556.68
512.69	61090.32
512.86	60849.25
513.04	61120.75
513.21	60622.22
513.38	59847.50
513.56	59557.27
513.73	59131.29
513.90	60048.78
514.08	60011.34
514.25	59985.59
514.43	60521.57
514.60	60542.64
514.77	60879.67
514.95	60921.80
515.12	60762.65
515.29	61092.66
515.47	61712.91
515.64	61656.73
515.81	61099.68
515.99	60240.71
516.16	58314.45
516.33	56516.92
516.51	56268.82
516.68	54817.69
516.85	54279.36
517.03	56212.65
517.20	58375.30
517.37	60264.11
517.54	60907.76
517.72	59473.01
517.89	56638.62
518.06	55442.61
518.24	56685.43
518.41	58658.51
518.58	59599.40
518.75	59501.10
518.93	59657.91
519.10	59180.45
519.27	60257.09
519.45	60570.72
519.62	61043.51
519.79	61256.50
519.96	60612.85
520.14	60441.99
520.31	59339.60
520.48	59564.29
520.65	60456.04
520.83	61382.89
521.00	61242.46
521.17	60664.35
521.34	60832.86
521.52	61125.43
521.69	61293.95
521.86	61780.78
522.03	61645.03
522.20	60212.62
522.38	59718.77
522.55	60310.92
522.72	60605.83
522.89	59868.56
523.07	60680.73
523.24	61179.26
523.41	62136.54
523.58	62054.62
523.75	62349.53
523.92	62148.24
524.10	61904.83
524.27	61687.16
524.44	61577.15
524.61	61104.37
524.78	61654.39
524.96	61595.88
525.13	61410.98
525.30	61970.36
525.47	62363.57
525.64	62230.16
525.81	61263.52
525.98	59737.49
526.16	58457.22
526.33	58436.16
526.50	57916.56
526.67	58115.50
526.84	58513.39
527.01	59536.21
527.18	59966.87
527.36	60980.32
527.53	61825.25
527.70	61102.03
527.87	59952.82
528.04	60863.29
528.21	61623.96
528.38	61930.58
528.55	62805.94
528.72	62496.98
528.89	61921.21
529.07	62173.99
529.24	60889.04
529.41	60750.94
529.58	60619.88
529.75	61476.51
529.92	61705.88
530.09	61415.66
530.26	62309.74
530.43	62850.41
530.60	61726.95
530.77	62576.56
530.94	62752.10
531.11	61790.14
531.28	61717.59
531.46	62230.16
531.63	61937.60
531.80	61497.58
531.97	60872.65
532.14	61036.49
532.31	59393.43
532.48	59035.33
532.65	59372.37
532.82	59913.03
532.99	61759.72
533.16	61602.90
533.33	61502.26
533.50	61888.45
533.67	61722.27
533.84	60931.17
534.01	61347.78
534.18	61436.72
534.35	60966.27
534.52	60537.96
534.69	61228.41
534.86	61579.49
535.03	61829.93
535.20	61675.46
535.37	62534.43
535.54	62761.47
535.71	62466.56
535.88	62499.33
536.05	61251.82
536.22	60772.01
536.38	60711.16
536.55	59976.23
536.72	59662.60
536.89	60500.51
537.06	60374.12
537.23	60985.00
537.40	60926.49
537.57	60617.53
537.74	61212.03
537.91	61169.90
538.08	61080.96
538.25	60961.59
538.42	62021.86
538.59	61242.46
538.75	60296.88
538.92	59852.18
539.09	60348.37
539.26	60126.02
539.43	59908.35
539.60	60165.81
539.77	60832.86
539.94	60357.74
540.11	59592.38
540.28	59400.46
540.44	59023.63
540.61	59089.16
540.78	59922.40
540.95	60479.44
541.12	60308.58
541.29	60788.39
541.46	60900.74
541.62	61183.94
541.79	60310.92
541.96	59772.60
542.13	59805.37
542.30	59992.61
542.47	60542.64
542.63	60610.51
542.80	60348.37
542.97	59774.94
543.14	59447.27
543.31	59758.56
543.48	60886.70
543.64	60940.53
543.81	61975.05
543.98	61813.55
544.15	60324.97
544.32	60952.23
544.48	60540.30
544.65	60643.28
544.82	61045.85
544.99	59739.83
545.16	59346.62
545.32	59697.70
545.49	60392.84
545.66	60364.76
545.83	60360.08
546.00	60671.37
546.16	60797.76
546.33	60149.43
546.50	60348.37
546.67	61193.31
546.83	60285.18
547.00	60823.50
547.17	59583.02
547.34	58747.45
547.50	59018.95
547.67	59887.29
547.84	60535.62
548.00	60357.74
548.17	60313.26
548.34	60523.91
548.51	60568.38
548.67	60959.25
548.84	60802.44
549.01	60680.73
549.18	60275.82
549.34	60355.39
549.51	60678.39
549.68	60477.10
549.84	60147.09
550.01	59587.70
550.18	59393.43
550.34	59620.47
550.51	59966.87
550.68	60296.88
550.84	59952.82
551.01	59440.24
551.18	59313.86
551.34	59028.31
551.51	60250.07
551.68	60137.72
551.84	60177.51
552.01	60217.30
552.18	59700.04
552.34	58988.52
552.51	59089.16
552.68	58862.13
552.84	59014.27
553.01	59093.85
553.18	59840.48
553.34	59831.11
553.51	60088.57
553.67	59749.20
553.84	59803.03
554.01	60039.42
554.17	59494.08
554.34	59866.22
554.51	59852.18
554.67	59152.36
554.84	59344.28
555.00	58838.73
555.17	59098.53
555.33	58953.41
555.50	58401.05
555.67	59412.16
555.83	59496.42
556.00	59157.04
556.16	58962.78
556.33	58396.37
556.50	58791.92
556.66	58913.62
556.83	58424.45
556.99	58103.80
557.16	58791.92
557.32	58370.62
557.49	58728.72
557.65	58239.55
557.82	58932.35
557.98	59334.92
558.15	58021.88
558.32	57530.37
558.48	57008.43
558.65	57001.41
558.81	57284.61
558.98	58241.89
559.14	58300.40
559.31	58080.39
559.47	57792.51
559.64	57743.36
559.80	57085.67
559.97	57867.40
560.13	58656.17
560.30	59545.57
560.46	59697.70
560.63	60114.32
560.79	59915.37
560.96	59082.14
561.12	57832.30
561.29	57523.35
561.45	57460.15
561.61	58754.47
561.78	58040.60
561.94	58578.93
562.11	58569.57
562.27	57778.46
562.44	58546.16
562.60	58805.96
562.77	58836.39
562.93	57860.38
563.10	57783.15
563.26	58246.57
563.42	58482.97
563.59	58024.22
563.75	57846.34
563.92	57558.45
564.08	57183.97
564.24	58143.59
564.41	57513.98
564.57	58426.79
564.74	58117.84
564.90	57523.35
565.07	57275.25
565.23	56498.19
565.39	56177.54
565.56	56430.32
565.72	56903.10
565.88	55679.00
566.05	57652.08
566.21	58218.49
566.38	57396.96
566.54	57628.67
566.70	58293.38
566.87	57909.53
567.03	57102.05
567.19	58223.17
567.36	58740.42
567.52	57265.89
567.68	57080.98
567.85	56446.70
568.01	56608.20
568.17	56521.60
568.34	56980.34
568.50	56685.43
568.66	56636.28
568.83	56198.60
568.99	56112.00
569.15	56430.32
569.32	56591.81
569.48	56224.35
569.64	56182.22
569.81	55938.80
569.97	55615.81
570.13	55377.08
570.30	55379.42
570.46	54405.75
570.62	53626.35
570.78	53984.46
570.95	55121.96
571.11	54859.82
571.27	54782.58
571.43	54972.16
571.60	54593.00
571.76	56100.30
571.92	56378.82
572.09	56362.44
572.25	56486.49
572.41	56879.70
572.57	56481.81
572.74	56542.66
572.90	57453.13
573.06	56910.13
573.22	56931.19
573.38	56720.54
573.55	57549.09
573.71	56481.81
573.87	56423.29
574.03	56435.00
574.20	55957.53
574.36	55952.85
574.52	55260.05
574.68	55217.92
574.84	54424.48
575.01	54836.41
575.17	55168.77
575.33	55246.00
575.49	55295.16
575.65	54246.60
575.82	54836.41
575.98	54513.42
576.14	55711.77
576.30	56229.03
576.46	55086.85
576.62	55194.51
576.79	55199.19
576.95	54993.23
577.11	55220.26
577.27	55313.88
577.43	55426.23
577.59	54593.00
577.75	53745.72
577.92	53827.64
578.08	54188.08
578.24	54688.96
578.40	54419.80
578.56	53588.91
578.72	54202.13
578.88	53675.51
579.04	54440.86
579.21	53932.96
579.37	54274.68
579.53	54695.98
579.69	53954.03
579.85	54108.50
580.01	54202.13
580.17	53712.95
580.33	54621.08
580.49	54656.19
580.65	53385.28
580.82	54082.76
580.98	54635.13
581.14	54557.89
581.30	54546.18
581.46	54134.25
581.62	54199.79
581.78	54951.10
581.94	55093.87
582.10	55285.79
582.26	55187.49
582.42	55110.25
582.58	53876.79
582.74	53972.75
582.90	54162.34
583.06	54419.80
583.22	54588.31
583.38	54628.10
583.54	54784.92
583.70	55241.32
583.86	54745.13
584.02	53939.99
584.18	53932.96
584.34	53495.28
584.50	53336.13
584.66	53722.32
584.82	53691.89
584.98	53963.39
585.14	53123.14
585.30	53230.80
