SpectraSuite Data File
++++++++++++++++++++++++++++++++++++
Date: Mon Oct 07 14:55:01 GMT-05:00 2013
User: price-jones
Dark Spectrum Present: No
Reference Spectrum Present: No
Number of Sampled Component Spectra: 1
Spectrometers: USB2+H05261
Integration Time (usec): 10000 (USB2+H05261)
Spectra Averaged: 1 (USB2+H05261)
Boxcar Smoothing: 0 (USB2+H05261)
Correct for Electrical Dark: No (USB2+H05261)
Strobe/Lamp Enabled: No (USB2+H05261)
Correct for Detector Non-linearity: No (USB2+H05261)
Correct for Stray Light: No (USB2+H05261)
Number of Pixels in Processed Spectrum: 2048
>>>>>Begin Processed Spectral Data<<<<<
365.73	0.00
365.92	0.00
366.12	0.00
366.32	0.00
366.52	0.00
366.72	0.00
366.91	0.00
367.11	0.00
367.31	0.00
367.51	0.00
367.70	0.00
367.90	0.00
368.10	0.00
368.30	0.00
368.49	0.00
368.69	0.00
368.89	0.00
369.09	0.00
369.28	0.00
369.48	0.00
369.68	0.00
369.87	0.00
370.07	0.00
370.27	0.00
370.47	315.97
370.66	2340.54
370.86	2796.94
371.06	2939.71
371.25	2862.48
371.45	2555.86
371.65	2328.83
371.84	2218.83
372.04	2478.63
372.24	2787.58
372.44	2832.05
372.63	2654.17
372.83	2382.67
373.03	2129.89
373.22	2094.78
373.42	2202.44
373.62	2586.29
373.81	2654.17
374.01	2656.51
374.21	2310.11
374.40	2305.43
374.60	2499.69
374.79	2792.26
374.99	3164.40
375.19	3346.97
375.38	3211.22
375.58	3155.04
375.78	3080.14
375.97	3141.00
376.17	3279.09
376.37	3211.22
376.56	3428.88
376.76	3655.92
376.95	3922.74
377.15	4187.22
377.35	4304.25
377.54	4346.37
377.74	4674.05
377.93	4425.95
378.13	4374.46
378.33	4135.73
378.52	3922.74
378.72	3854.86
378.91	3658.26
379.11	3435.91
379.31	3417.18
379.50	3520.17
379.70	3782.31
379.89	4236.37
380.09	4440.00
380.28	4435.32
380.48	4545.32
380.68	4386.16
380.87	4283.18
381.07	3735.50
381.26	3609.11
381.46	3463.99
381.65	3269.73
381.85	3330.58
382.04	3101.21
382.24	2853.11
382.43	2890.56
382.63	2785.24
382.83	2583.95
383.02	2628.42
383.22	2752.47
383.41	2766.51
383.61	3014.61
383.80	3407.82
384.00	3901.67
384.19	4395.53
384.39	4519.57
384.58	4519.57
384.78	4454.04
384.97	4205.94
385.17	4107.64
385.36	3819.75
385.56	3852.52
385.75	4147.43
385.95	4463.40
386.14	4725.54
386.34	4608.51
386.53	4269.14
386.72	4217.65
386.92	4170.83
387.11	4599.15
387.31	4777.03
387.50	4573.41
387.70	4346.37
387.89	4358.08
388.09	4414.25
388.28	4365.10
388.48	4667.03
388.67	4777.03
388.86	5626.65
389.06	5675.80
389.25	6031.56
389.45	6148.59
389.64	6022.20
389.84	5926.24
390.03	5858.36
390.22	5841.98
390.42	6218.80
390.61	6771.17
390.81	6939.69
391.00	7077.78
391.19	7000.54
391.39	6806.28
391.58	6284.34
391.78	6087.73
391.97	5818.57
392.16	5331.74
392.36	4643.62
392.55	3805.71
392.75	2988.86
392.94	2441.18
393.13	2691.62
393.33	3279.09
393.52	4133.39
393.71	4922.15
393.91	5448.77
394.10	6010.50
394.29	6717.34
394.49	7218.21
394.68	7833.77
394.88	7611.42
395.07	7803.35
395.26	7796.32
395.46	7335.24
395.65	6895.22
395.84	5933.26
396.04	5041.51
396.23	3889.97
396.42	3473.36
396.62	3597.40
396.81	4234.03
397.00	5530.69
397.19	6853.09
397.39	7967.18
397.58	8739.56
397.77	9242.78
397.97	9605.56
398.16	9687.48
398.35	10012.81
398.55	10094.73
398.74	10670.50
398.93	10721.99
399.12	10883.49
399.32	10303.04
399.51	10822.64
399.70	11241.59
399.90	10937.32
400.09	11033.29
400.28	10977.11
400.47	11274.36
400.67	11698.00
400.86	11859.49
401.05	12156.74
401.24	11997.59
401.44	12250.36
401.63	12505.48
401.82	12177.81
402.01	12231.64
402.21	12538.25
402.40	12437.61
402.59	12088.87
402.78	11246.27
402.97	11440.54
403.17	11995.25
403.36	12650.60
403.55	12996.99
403.74	13022.74
403.93	12231.64
404.13	11232.23
404.32	11304.79
404.51	11978.86
404.70	12559.31
404.89	12662.30
405.09	12437.61
405.28	12231.64
405.47	12451.65
405.66	12229.30
405.85	12086.53
406.05	11854.81
406.24	12264.41
406.43	12446.97
406.62	12716.13
406.81	12713.79
407.00	12781.67
407.20	12077.16
407.39	12046.74
407.58	12940.82
407.77	13310.63
407.96	13771.71
408.15	13867.67
408.34	14061.94
408.54	14661.12
408.73	14576.86
408.92	14370.89
409.11	13682.77
409.30	13144.45
409.49	12381.43
409.68	11599.70
409.87	11515.44
410.07	12367.39
410.26	13102.32
410.45	13865.33
410.64	14066.62
410.83	15000.49
411.02	15213.48
411.21	15929.69
411.40	15442.85
411.59	15658.18
411.78	15410.09
411.98	15297.74
412.17	15480.30
412.36	15435.83
412.55	15037.94
412.74	15005.17
412.93	14707.93
413.12	15131.56
413.31	16662.27
413.50	16463.33
413.69	16453.97
413.88	15686.27
414.07	15634.78
414.26	15978.84
414.45	16453.97
414.64	15836.06
414.83	16166.08
415.02	15981.18
415.22	16126.29
415.41	16669.30
415.60	17280.18
415.79	17879.35
415.98	18302.99
416.17	17984.68
416.36	17633.60
416.55	17268.47
416.74	16425.88
416.93	16320.56
417.12	16435.24
417.31	16690.36
417.50	17102.29
417.69	17408.90
417.88	17263.79
418.07	16971.22
418.26	17025.06
418.45	17401.88
418.64	18197.67
418.83	19077.71
419.02	18352.14
419.21	17614.87
419.39	17282.52
419.58	16355.66
419.77	16751.21
419.96	17898.08
420.15	18490.23
420.34	18897.49
420.53	19634.75
420.72	19536.45
420.91	19351.55
421.10	19300.06
421.29	19145.58
421.48	18284.26
421.67	19604.33
421.86	18466.83
422.05	17165.49
422.24	15831.38
422.43	16240.98
422.61	17926.16
422.80	18799.18
422.99	18370.86
423.18	18090.00
423.37	18061.91
423.56	18012.76
423.75	18677.48
423.94	19101.11
424.13	17706.15
424.32	17488.48
424.50	17743.60
424.69	17862.97
424.88	18054.89
425.07	17633.60
425.26	17989.36
425.45	17242.73
425.64	16940.80
425.83	17310.60
426.01	18436.40
426.20	18593.22
426.39	18380.23
426.58	16606.10
426.77	15513.07
426.96	15573.92
427.15	16224.59
427.33	17745.94
427.52	17928.50
427.71	18197.67
427.90	17989.36
428.09	17476.78
428.28	17209.96
428.46	16327.58
428.65	16081.82
428.84	17277.83
429.03	16973.56
429.22	16152.04
429.40	14888.15
429.59	13596.17
429.78	12219.94
429.97	12685.70
430.16	12475.06
430.34	12435.27
430.53	12655.28
430.72	13319.99
430.91	14846.02
431.10	17647.64
431.28	20208.19
431.47	21722.51
431.66	20798.00
431.85	18712.58
432.03	17802.11
432.22	17757.64
432.41	18728.97
432.60	20341.60
432.79	20968.86
432.97	21200.57
433.16	20334.57
433.35	18625.98
433.54	16620.14
433.72	16425.88
433.91	17334.01
434.10	18939.62
434.28	20042.01
434.47	20776.94
434.66	20144.99
434.85	19906.26
435.03	20432.88
435.22	20622.46
435.41	21509.52
435.59	22270.20
435.78	22064.23
435.97	22707.88
436.16	22611.92
436.34	22129.77
436.53	22064.23
436.72	22010.40
436.90	20893.96
437.09	20821.41
437.28	20718.42
437.46	21427.60
437.65	20844.81
437.84	18848.33
438.02	18237.45
438.21	18300.65
438.40	18993.45
438.58	20428.20
438.77	21415.90
438.96	21998.70
439.14	22511.27
439.33	22518.29
439.52	22824.90
439.70	22373.18
439.89	21635.91
440.08	21120.99
440.26	21912.10
440.45	22452.76
440.63	24208.16
440.82	24692.65
441.01	24332.21
441.19	24491.37
441.38	24957.13
441.57	25881.64
441.75	25797.38
441.94	26141.44
442.12	25436.94
442.31	26827.22
442.50	26061.87
442.68	25645.25
442.87	25696.74
443.05	24985.22
443.24	26066.55
443.43	26684.45
443.61	26742.96
443.80	26948.93
443.98	26178.89
444.17	26352.09
444.35	27339.80
444.54	27318.73
444.73	26792.11
444.91	25469.71
445.10	25039.05
445.28	24444.56
445.47	23775.16
445.65	23735.37
445.84	24800.32
446.02	24952.45
446.21	25750.57
446.39	26068.89
446.58	25935.48
446.77	26799.13
446.95	27316.39
447.14	27990.47
447.32	28666.88
447.51	27585.55
447.69	26639.98
447.88	26639.98
448.06	27070.64
448.25	27843.01
448.43	27063.61
448.62	26876.37
448.80	26958.29
448.99	27274.26
449.17	26998.08
449.36	27688.54
449.54	28481.98
449.73	29022.64
449.91	28638.80
450.10	29570.33
450.28	29694.38
450.46	30256.11
450.65	29696.72
450.83	29385.43
451.02	29247.33
451.20	28893.91
451.39	28968.81
451.57	28790.93
451.76	29179.46
451.94	28311.12
452.13	27648.75
452.31	26408.26
452.49	25188.85
452.68	26298.26
452.86	26462.10
453.05	26576.78
453.23	27594.92
453.42	28088.77
453.60	28858.81
453.78	28580.28
453.97	28584.96
454.15	28435.17
454.34	27318.73
454.52	27398.31
454.70	27009.78
454.89	27843.01
455.07	27857.06
455.26	28638.80
455.44	29364.36
455.62	29528.20
455.81	29652.25
455.99	29778.64
456.17	29638.20
456.36	30052.48
456.54	30143.76
456.73	30394.20
456.91	30785.07
457.09	30920.82
457.28	31592.55
457.46	29921.41
457.64	29933.11
457.83	29144.35
458.01	29090.52
458.19	29654.59
458.38	29982.26
458.56	30958.27
458.74	30347.39
458.93	29682.67
459.11	29298.83
459.29	29818.42
459.48	29879.28
459.66	29188.82
459.84	29818.42
460.03	29848.85
460.21	30522.93
460.39	30953.58
460.57	31014.44
460.76	31417.01
460.94	31115.08
461.12	31445.10
461.31	31445.10
461.49	31587.87
461.67	31250.83
461.85	32421.10
462.04	31962.36
462.22	31847.67
462.40	31922.57
462.59	31819.58
462.77	32231.52
462.95	31725.96
463.13	31541.06
463.32	30962.95
463.50	31199.34
463.68	31035.50
463.86	31178.28
464.05	30150.78
464.23	29996.31
464.41	29710.76
464.59	29631.18
464.78	31189.98
464.96	30441.01
465.14	29600.76
465.32	31587.87
465.50	32240.88
465.69	33427.53
465.87	31962.36
466.05	31054.23
466.23	29591.39
466.41	29142.01
466.60	30120.35
466.78	29596.07
466.96	29654.59
467.14	30829.54
467.32	30934.86
467.51	30904.43
467.69	29266.06
467.87	30363.77
468.05	31173.60
468.23	30824.86
468.41	31236.79
468.60	31538.72
468.78	31007.42
468.96	31391.26
469.14	32194.07
469.32	31828.95
469.50	30321.64
469.69	30464.41
469.87	30251.42
470.05	29612.46
470.23	30078.22
470.41	30221.00
470.59	30696.13
470.77	30277.17
470.95	31070.61
471.14	32299.39
471.32	32081.72
471.50	34010.32
471.68	33727.12
471.86	34225.65
472.04	33876.91
472.22	34036.07
472.40	32130.87
472.58	32121.51
472.77	32229.18
472.95	32844.74
473.13	33783.29
473.31	32488.98
473.49	33034.32
473.67	33195.82
473.85	34253.74
474.03	35108.04
474.21	35337.41
474.39	35173.57
474.57	35227.40
474.75	35697.85
474.93	34873.98
475.12	33418.17
475.30	34232.68
475.48	33795.00
475.66	34962.92
475.84	33776.27
476.02	34600.14
476.20	33376.04
476.38	34377.79
476.56	35019.10
476.74	35662.74
476.92	36285.33
477.10	36273.62
477.28	37504.74
477.46	37537.51
477.64	37551.56
477.82	38195.20
478.00	37729.44
478.18	37446.23
478.36	37221.54
478.54	37453.25
478.72	38218.61
478.90	39363.13
479.08	40947.67
479.26	40205.72
479.44	40706.60
479.62	40311.05
479.80	40297.00
479.98	40226.79
480.16	40547.44
480.34	39922.52
480.52	40844.69
480.70	40165.93
480.88	39861.66
481.06	41413.44
481.24	41530.47
481.41	42808.40
481.59	43566.73
481.77	42227.95
481.95	41979.85
482.13	42380.08
482.31	42880.95
482.49	43407.58
482.67	42721.80
482.85	42581.37
483.03	43049.47
483.21	44161.23
483.39	44467.84
483.57	43627.59
483.74	43564.39
483.92	42976.92
484.10	43063.52
484.28	44006.75
484.46	43936.54
484.64	44989.78
484.82	44135.48
485.00	43826.53
485.18	43009.68
485.35	41488.34
485.53	36739.39
485.71	33539.88
485.89	34691.42
486.07	37893.27
486.25	39798.47
486.43	42017.30
486.61	42838.83
486.78	42120.28
486.96	43700.14
487.14	44832.96
487.32	46120.26
487.50	46824.76
487.68	47100.94
487.85	48287.59
488.03	47894.38
488.21	46677.30
488.39	46934.76
488.57	44989.78
488.75	45221.49
488.92	47122.01
489.10	49638.08
489.28	49696.59
489.46	51887.34
489.64	50724.09
489.81	51332.63
489.99	51133.68
490.17	50740.47
490.35	51604.13
490.53	50923.04
490.70	50784.94
490.88	50700.68
491.06	51863.93
491.24	52196.29
491.41	50492.38
491.59	48811.87
491.77	48177.59
491.95	49741.06
492.13	51480.08
492.30	52105.01
492.48	53261.23
492.66	53209.74
492.84	52474.81
493.01	52435.02
493.19	52360.12
493.37	52004.36
493.54	52100.32
493.72	53102.07
493.90	53860.41
494.08	54562.57
494.25	54789.60
494.43	55206.22
494.61	55543.25
494.79	54745.13
494.96	55021.31
495.14	55007.27
495.32	53104.41
495.49	53544.44
495.67	54380.01
495.85	55451.97
496.02	56116.68
496.20	55302.18
496.38	54766.20
496.55	55096.21
496.73	55608.79
496.91	56009.02
497.09	56065.19
497.26	57043.54
497.44	55634.53
497.62	54831.73
497.79	54401.07
497.97	53066.97
498.14	54246.60
498.32	55096.21
498.50	55341.97
498.67	55545.59
498.85	55334.95
499.03	56257.12
499.20	56257.12
499.38	55650.92
499.56	54724.07
499.73	54780.24
499.91	55033.02
500.08	54342.56
500.26	54007.86
500.44	54581.29
500.61	55487.08
500.79	55194.51
500.97	54878.54
501.14	54178.72
501.32	53315.06
501.49	53808.92
501.67	54667.89
501.84	55086.85
502.02	55360.69
502.20	55664.96
502.37	55828.80
502.55	56254.78
502.72	57020.13
502.90	57298.65
503.07	56776.72
503.25	55842.84
503.43	54904.29
503.60	54562.57
503.78	54429.16
503.95	55281.11
504.13	56135.41
504.30	56975.66
504.48	56430.32
504.65	56435.00
504.83	56135.41
505.01	57406.32
505.18	57326.74
505.36	58066.35
505.53	57989.11
505.71	57612.29
505.88	58092.10
506.06	57677.82
506.23	57247.16
506.41	56767.35
506.58	57144.18
506.76	57167.58
506.93	56580.11
507.11	56542.66
507.28	56753.31
507.46	56048.81
507.63	56048.81
507.81	55962.21
507.98	55931.78
508.16	57296.31
508.33	57427.38
508.50	57586.54
508.68	57865.06
508.85	58197.42
509.03	58592.97
509.20	58382.32
509.38	57371.21
509.55	57584.20
509.73	56942.89
509.90	57286.95
510.08	57364.19
510.25	56872.68
510.42	56713.52
510.60	57003.75
510.77	57888.47
510.95	58042.95
511.12	58239.55
511.30	58915.96
511.47	59007.25
511.64	58866.81
511.82	58604.67
511.99	57308.02
512.17	57350.15
512.34	56959.28
512.51	57354.83
512.69	57745.70
512.86	56975.66
513.04	57406.32
513.21	57120.77
513.38	56275.84
513.56	56081.58
513.73	55561.98
513.90	57158.22
514.08	56603.52
514.25	56582.45
514.43	56830.55
514.60	56996.73
514.77	57333.76
514.95	57518.67
515.12	57415.68
515.29	58052.31
515.47	58213.80
515.64	58220.83
515.81	57752.72
515.99	56739.27
516.16	54768.54
516.33	52430.34
516.51	52261.82
516.68	50831.75
516.85	49813.62
517.03	51498.81
517.20	54372.99
517.37	56640.96
517.54	57425.04
517.72	56385.85
517.89	53169.95
518.06	51650.94
518.24	52746.31
518.41	54944.08
518.58	56313.29
518.75	56271.16
518.93	56172.86
519.10	55753.90
519.27	56842.25
519.45	57022.47
519.62	57965.71
519.79	57951.66
519.96	57326.74
520.14	57495.26
520.31	56287.54
520.48	56332.01
520.65	57120.77
520.83	58403.39
521.00	57755.06
521.17	57041.20
521.34	57790.17
521.52	58361.26
521.69	58667.87
521.86	59079.80
522.03	58108.48
522.20	56666.71
522.38	55931.78
522.55	56114.34
522.72	56219.67
522.89	56540.32
523.07	57513.98
523.24	57893.15
523.41	58272.32
523.58	58728.72
523.75	58944.05
523.92	59140.66
524.10	58754.47
524.27	58042.95
524.44	57497.60
524.61	57195.67
524.78	57846.34
524.96	58052.31
525.13	58010.18
525.30	58637.44
525.47	58897.24
525.64	58843.41
525.81	57490.58
525.98	56086.26
526.16	54323.83
526.33	54417.46
526.50	53851.05
526.67	54363.62
526.84	55192.17
527.01	56116.68
527.18	56610.54
527.36	57223.76
527.53	58159.97
527.70	57677.82
527.87	56381.16
528.04	57172.27
528.21	57631.01
528.38	58340.19
528.55	59522.16
528.72	59271.73
528.89	58761.49
529.07	58770.85
529.24	57558.45
529.41	57228.44
529.58	57130.14
529.75	58012.52
529.92	58485.31
530.09	58323.81
530.26	58707.66
530.43	59395.77
530.60	58944.05
530.77	59114.91
530.94	59442.59
531.11	58667.87
531.28	58475.94
531.46	58445.52
531.63	58248.91
531.80	58059.33
531.97	57612.29
532.14	57607.61
532.31	56350.74
532.48	55571.34
532.65	55718.79
532.82	56460.74
532.99	58328.49
533.16	58492.33
533.33	58394.03
533.50	58511.05
533.67	57855.70
533.84	57909.53
534.01	57900.17
534.18	58049.97
534.35	57780.81
534.52	57380.57
534.69	57579.52
534.86	58417.43
535.03	58761.49
535.20	59292.79
535.37	59678.98
535.54	59615.79
535.71	58904.26
535.88	58848.09
536.05	58061.67
536.22	57006.09
536.38	57361.85
536.55	56905.44
536.72	56343.72
536.89	57207.37
537.06	57378.23
537.23	57605.26
537.40	57303.34
537.57	57460.15
537.74	57460.15
537.91	57612.29
538.08	57450.79
538.25	57963.37
538.42	58632.76
538.59	57769.10
538.75	57308.02
538.92	56545.00
539.09	56781.40
539.26	56739.27
539.43	57036.51
539.60	56388.19
539.77	57207.37
539.94	56624.58
540.11	56226.69
540.28	55781.99
540.44	55723.47
540.61	55700.07
540.78	56212.65
540.95	56584.79
541.12	56673.73
541.29	57202.69
541.46	57069.28
541.62	57422.70
541.79	56425.64
541.96	56254.78
542.13	56956.94
542.30	56886.72
542.47	56931.19
542.63	56905.44
542.80	56631.60
542.97	55732.84
543.14	56364.78
543.31	57015.45
543.48	57387.60
543.64	58061.67
543.81	58157.63
543.98	58272.32
544.15	57251.84
544.32	57495.26
544.48	57120.77
544.65	56802.46
544.82	57600.58
544.99	56512.23
545.16	56144.77
545.32	56591.81
545.49	57212.06
545.66	57619.31
545.83	57298.65
546.00	57598.24
546.16	56734.59
546.33	56409.25
546.50	56453.72
546.67	57352.49
546.83	57083.33
547.00	56999.07
547.17	55679.00
547.34	55021.31
547.50	55011.95
547.67	55936.46
547.84	56765.01
548.00	57198.01
548.17	57010.77
548.34	57179.29
548.51	57198.01
548.67	56788.42
548.84	56823.53
549.01	57242.48
549.18	56495.85
549.34	56622.24
549.51	57279.93
549.68	57687.18
549.84	56624.58
550.01	55744.54
550.18	56172.86
550.34	56168.18
550.51	56453.72
550.68	56727.56
550.84	56954.60
551.01	56137.75
551.18	56285.20
551.34	55985.61
551.51	56816.50
551.68	57097.37
551.84	57385.25
552.01	56612.88
552.18	56526.28
552.34	55599.43
552.51	55150.04
552.68	55157.06
552.84	55845.18
553.01	55718.79
553.18	55856.88
553.34	55838.16
553.51	55906.04
553.67	56446.70
553.84	56603.52
554.01	56999.07
554.17	56413.93
554.34	56121.37
554.51	56294.56
554.67	55622.83
554.84	55718.79
555.00	55217.92
555.17	56013.70
555.33	55730.50
555.50	55159.41
555.67	55552.62
555.83	55657.94
556.00	55208.56
556.16	54775.56
556.33	54864.50
556.50	55377.08
556.66	55136.00
556.83	54829.39
556.99	54344.90
557.16	54944.08
557.32	54611.72
557.49	55458.99
557.65	55110.25
557.82	55632.19
557.98	55798.37
558.15	54623.42
558.32	54131.91
558.48	53406.34
558.65	53020.16
558.81	53549.12
558.98	54576.61
559.14	54307.45
559.31	54536.82
559.47	53963.39
559.64	54183.40
559.80	53432.09
559.97	54021.90
560.13	54431.50
560.30	55870.93
560.46	56030.08
560.63	56329.67
560.79	56278.18
560.96	55253.03
561.12	54176.38
561.29	54649.17
561.45	54464.27
561.61	55126.64
561.78	54305.11
561.94	54452.56
562.11	54024.25
562.27	53609.97
562.44	55070.46
562.60	54822.37
562.77	55227.28
562.93	54876.20
563.10	54866.84
563.26	54817.69
563.42	54794.28
563.59	54703.00
563.75	54501.71
563.92	53811.26
564.08	54110.85
564.24	55194.51
564.41	53977.43
564.57	54993.23
564.74	54536.82
564.90	53993.82
565.07	53432.09
565.23	52882.06
565.39	52191.61
565.56	52343.74
565.72	53450.81
565.88	52317.99
566.05	54246.60
566.21	53598.27
566.38	53705.93
566.54	54621.08
566.70	54824.71
566.87	54518.10
567.03	54707.68
567.19	55742.20
567.36	55569.00
567.52	54049.99
567.68	53755.08
567.85	52896.11
568.01	53097.39
568.17	53052.92
568.34	53289.32
568.50	52605.88
568.66	52278.21
568.83	52481.83
568.99	52067.56
569.15	52287.57
569.32	52378.85
569.48	52254.80
569.64	52385.87
569.81	52381.19
569.97	51929.47
570.13	51433.27
570.30	50621.11
570.46	50220.87
570.62	49666.17
570.78	50658.56
570.95	50578.98
571.11	51562.00
571.27	50986.23
571.43	51819.46
571.60	51725.84
571.76	52018.41
571.92	52355.44
572.09	52711.20
572.25	52182.24
572.41	52055.85
572.57	52369.49
572.74	53099.73
572.90	53567.84
573.06	53619.33
573.22	53591.25
573.38	53263.57
573.55	54085.10
573.71	52971.00
573.87	52236.08
574.03	52673.76
574.20	51751.59
574.36	51522.21
574.52	51559.66
574.68	51281.14
574.84	50534.51
575.01	50358.97
575.17	50148.32
575.33	51023.68
575.49	51262.41
575.65	50101.51
575.82	50539.19
575.98	51533.92
576.14	51810.10
576.30	52275.87
576.46	51510.51
576.62	50763.88
576.79	51129.00
576.95	51522.21
577.11	51758.61
577.27	50745.15
577.43	51311.56
577.59	50923.04
577.75	50424.50
577.92	49808.94
578.08	50244.28
578.24	50117.89
578.40	49996.18
578.56	49130.19
578.72	49448.50
578.88	49799.58
579.04	50110.87
579.21	49481.27
579.37	49319.77
579.53	50293.43
579.69	49373.60
579.85	49317.43
580.01	49364.24
580.17	49380.62
580.33	50784.94
580.49	50761.54
580.65	50073.42
580.82	50586.00
580.98	50506.42
581.14	49993.84
581.30	49469.56
581.46	49382.96
581.62	50447.91
581.78	50951.12
581.94	51117.30
582.10	51131.34
582.26	50951.12
582.42	50899.63
582.58	49911.92
582.74	49584.25
582.90	49748.09
583.06	50939.42
583.22	50569.61
583.38	50712.39
583.54	50901.97
583.70	50258.32
583.86	50777.92
584.02	49116.14
584.18	49666.17
584.34	49083.37
584.50	49059.97
584.66	49261.26
584.82	48856.34
584.98	49324.45
585.14	48289.93
585.30	48119.07
