SpectraSuite Data File
++++++++++++++++++++++++++++++++++++
Date: Mon Oct 07 14:54:57 GMT-05:00 2013
User: price-jones
Dark Spectrum Present: No
Reference Spectrum Present: No
Number of Sampled Component Spectra: 1
Spectrometers: USB2+H05261
Integration Time (usec): 10000 (USB2+H05261)
Spectra Averaged: 1 (USB2+H05261)
Boxcar Smoothing: 0 (USB2+H05261)
Correct for Electrical Dark: No (USB2+H05261)
Strobe/Lamp Enabled: No (USB2+H05261)
Correct for Detector Non-linearity: No (USB2+H05261)
Correct for Stray Light: No (USB2+H05261)
Number of Pixels in Processed Spectrum: 2048
>>>>>Begin Processed Spectral Data<<<<<
365.73	0.00
365.92	0.00
366.12	0.00
366.32	0.00
366.52	0.00
366.72	0.00
366.91	0.00
367.11	0.00
367.31	0.00
367.51	0.00
367.70	0.00
367.90	0.00
368.10	0.00
368.30	0.00
368.49	0.00
368.69	0.00
368.89	0.00
369.09	0.00
369.28	0.00
369.48	0.00
369.68	0.00
369.87	0.00
370.07	0.00
370.27	0.00
370.47	81.92
370.66	1446.45
370.86	1621.99
371.06	1720.29
371.25	1708.59
371.45	1392.62
371.65	1313.04
371.84	1284.95
372.04	1476.88
372.24	1607.95
372.44	1638.38
372.63	1514.33
372.83	1413.68
373.03	1177.29
373.22	1219.42
373.42	1327.08
373.62	1507.30
373.81	1664.12
374.01	1497.94
374.21	1380.92
374.40	1336.45
374.60	1483.90
374.79	1668.80
374.99	1762.42
375.19	1902.86
375.38	1937.96
375.58	1849.02
375.78	1888.81
375.97	1893.49
376.17	1895.83
376.37	2029.24
376.56	2064.35
376.76	2209.47
376.95	2296.07
377.15	2413.09
377.35	2640.12
377.54	2736.09
377.74	2731.41
377.93	2684.59
378.13	2642.46
378.33	2307.77
378.52	2118.18
378.72	2150.95
378.91	2031.58
379.11	2062.01
379.31	2015.20
379.50	1987.11
379.70	2263.30
379.89	2401.39
380.09	2560.55
380.28	2614.38
380.48	2658.85
380.68	2534.80
380.87	2452.88
381.07	2181.38
381.26	1907.54
381.46	1984.77
381.65	1792.85
381.85	1799.87
382.04	1657.10
382.24	1603.27
382.43	1591.56
382.63	1474.54
382.83	1514.33
383.02	1441.77
383.22	1575.18
383.41	1551.78
383.61	1673.48
383.80	1970.73
384.00	2275.00
384.19	2455.22
384.39	2637.78
384.58	2530.12
384.78	2558.21
384.97	2471.61
385.17	2331.17
385.36	2179.04
385.56	2108.82
385.75	2251.60
385.95	2480.97
386.14	2583.95
386.34	2656.51
386.53	2530.12
386.72	2406.07
386.92	2476.29
387.11	2537.14
387.31	2661.19
387.50	2597.99
387.70	2523.10
387.89	2509.05
388.09	2574.59
388.28	2401.39
388.48	2600.34
388.67	2899.92
388.86	3232.28
389.06	3290.79
389.25	3471.01
389.45	3377.39
389.64	3351.65
389.84	3342.28
390.03	3349.31
390.22	3293.13
390.42	3578.68
390.61	3932.10
390.81	3892.31
391.00	4102.96
391.19	3988.27
391.39	3810.39
391.58	3618.47
391.78	3265.05
391.97	3309.52
392.16	2986.52
392.36	2637.78
392.55	2005.84
392.75	1537.73
392.94	1394.96
393.13	1373.89
393.33	1710.93
393.52	2263.30
393.71	2672.89
393.91	3038.02
394.10	3389.10
394.29	3777.62
394.49	3939.12
394.68	4290.20
394.88	4241.05
395.07	4381.48
395.26	4311.27
395.46	4191.90
395.65	3751.88
395.84	3133.98
396.04	2644.81
396.23	2040.95
396.42	1949.67
396.62	1975.41
396.81	2406.07
397.00	3145.68
397.19	3730.81
397.39	4510.21
397.58	4791.08
397.77	5139.82
397.97	5331.74
398.16	5359.83
398.35	5596.22
398.55	5860.70
398.74	5912.19
398.93	6150.93
399.12	5949.64
399.32	5743.67
399.51	5743.67
399.70	6197.74
399.90	6031.56
400.09	6167.31
400.28	6289.02
400.47	6370.94
400.67	6511.37
400.86	6544.14
401.05	6602.65
401.24	6719.68
401.44	6747.76
401.63	6712.66
401.82	6820.32
402.01	6904.58
402.21	6939.69
402.40	7009.90
402.59	6785.21
402.78	6441.15
402.97	6413.07
403.17	6497.33
403.36	6899.90
403.55	7225.23
403.74	7094.16
403.93	6853.09
404.13	6338.17
404.32	6483.28
404.51	6745.42
404.70	7119.91
404.89	7180.76
405.09	6920.96
405.28	6789.89
405.47	6555.84
405.66	6644.78
405.85	6532.44
406.05	6282.00
406.24	6497.33
406.43	6857.77
406.62	6850.75
406.81	7115.23
407.00	6705.63
407.20	6326.47
407.39	6569.88
407.58	7164.38
407.77	7218.21
407.96	7410.14
408.15	7510.78
408.34	7726.11
408.54	7953.14
408.73	8009.31
408.92	7899.31
409.11	7300.13
409.30	7232.26
409.49	6724.36
409.68	6230.51
409.87	6448.18
410.07	6771.17
410.26	7108.21
410.45	7548.23
410.64	7843.14
410.83	8016.33
411.02	8521.89
411.21	8652.96
411.40	8477.42
411.59	8500.83
411.78	8512.53
411.98	8203.58
412.17	8306.56
412.36	8126.34
412.55	7976.55
412.74	7772.92
412.93	7866.54
413.12	8051.44
413.31	8617.85
413.50	8828.50
413.69	8795.73
413.88	8463.38
414.07	8355.71
414.26	8557.00
414.45	8755.94
414.64	8833.18
414.83	8889.35
415.02	8432.95
415.22	8566.36
415.41	8849.57
415.60	9151.49
415.79	9385.55
415.98	9703.86
416.17	9432.36
416.36	9341.08
416.55	9125.75
416.74	8837.86
416.93	8578.06
417.12	8678.71
417.31	8692.75
417.50	8861.27
417.69	9170.22
417.88	9090.64
418.07	8788.71
418.26	9153.84
418.45	9254.48
418.64	9603.22
418.83	9961.32
419.02	9490.87
419.21	9273.20
419.39	9018.08
419.58	8634.24
419.77	8769.99
419.96	9121.07
420.15	9710.88
420.34	9858.34
420.53	10352.19
420.72	10061.96
420.91	9982.38
421.10	9951.96
421.29	10064.30
421.48	9734.29
421.67	10043.24
421.86	9675.77
422.05	8856.59
422.24	8180.17
422.43	8262.09
422.61	9198.31
422.80	10040.90
422.99	9657.05
423.18	9193.62
423.37	9352.78
423.56	9605.56
423.75	9577.47
423.94	9785.78
424.13	9261.50
424.32	9336.40
424.50	9055.53
424.69	8954.89
424.88	9312.99
425.07	9132.77
425.26	9004.04
425.45	9167.88
425.64	8959.57
425.83	9104.68
426.01	9614.92
426.20	9638.33
426.39	9301.29
426.58	8521.89
426.77	8088.89
426.96	8102.93
427.15	8372.10
427.33	9011.06
427.52	9252.14
427.71	9057.87
427.90	8802.75
428.09	8772.33
428.28	8718.50
428.46	8601.47
428.65	8472.74
428.84	8725.52
429.03	8444.65
429.22	8107.62
429.40	7672.28
429.59	6960.75
429.78	6148.59
429.97	6223.48
430.16	6134.54
430.34	6195.40
430.53	6551.16
430.72	6693.93
430.91	7737.81
431.10	8851.91
431.28	9853.66
431.47	10565.18
431.66	10555.82
431.85	9699.18
432.03	8713.81
432.22	8863.61
432.41	9558.75
432.60	10066.64
432.79	10808.59
432.97	10789.87
433.16	10225.80
433.35	9277.88
433.54	8526.57
433.72	8379.12
433.91	8688.07
434.10	9600.88
434.28	10286.65
434.47	10391.98
434.66	10186.01
434.85	10260.91
435.03	10434.11
435.22	10054.94
435.41	10817.96
435.59	10946.69
435.78	10796.89
435.97	11117.54
436.16	11297.77
436.34	11000.52
436.53	11089.46
436.72	11068.39
436.90	10361.55
437.09	10286.65
437.28	10118.14
437.46	10544.11
437.65	10399.00
437.84	9423.00
438.02	8950.21
438.21	9048.51
438.40	9886.42
438.58	10155.58
438.77	10574.54
438.96	10633.05
439.14	11094.14
439.33	11150.31
439.52	11578.63
439.70	11302.45
439.89	10897.53
440.08	10492.62
440.26	10672.84
440.45	11115.20
440.63	11981.20
440.82	12484.42
441.01	12060.78
441.19	12100.57
441.38	12404.84
441.57	12395.48
441.75	12549.95
441.94	13071.89
442.12	12683.36
442.31	13348.08
442.50	13476.80
442.68	13095.30
442.87	12706.77
443.05	12533.57
443.24	13013.38
443.43	12870.61
443.61	13212.32
443.80	13432.33
443.98	12500.80
444.17	12547.61
444.35	13844.27
444.54	13689.79
444.73	13444.04
444.91	12451.65
445.10	12264.41
445.28	11988.22
445.47	11700.34
445.65	11955.46
445.84	12100.57
446.02	12327.60
446.21	12512.50
446.39	12608.47
446.58	13123.38
446.77	13298.92
446.95	13387.86
447.14	13226.37
447.32	13736.60
447.51	13441.70
447.69	12666.98
447.88	12807.41
448.06	12889.33
448.25	13263.82
448.43	13331.69
448.62	12844.86
448.80	12840.18
448.99	13069.55
449.17	13149.13
449.36	13303.60
449.54	13509.57
449.73	13802.14
449.91	13947.25
450.10	14710.27
450.28	14548.77
450.46	14185.99
450.65	13947.25
450.83	13872.36
451.02	13743.63
451.20	13760.01
451.39	13502.55
451.57	13380.84
451.76	13584.47
451.94	13659.37
452.13	13631.28
452.31	12772.30
452.49	12231.64
452.68	12425.90
452.86	12596.76
453.05	12727.83
453.23	13308.29
453.42	13741.29
453.60	13570.43
453.78	13689.79
453.97	13312.97
454.15	13233.39
454.34	13064.87
454.52	13373.82
454.70	13355.10
454.89	13259.13
455.07	13001.68
455.26	13404.25
455.44	13624.26
455.62	13996.40
455.81	14305.35
455.99	13710.86
456.17	13884.06
456.36	13963.64
456.54	14352.16
456.73	14122.79
456.91	14754.74
457.09	14544.09
457.28	14855.38
457.46	14555.79
457.64	14031.51
457.83	13652.34
458.01	13345.73
458.19	14136.84
458.38	13652.34
458.56	14324.08
458.74	14286.63
458.93	14092.37
459.11	13914.48
459.29	13652.34
459.48	13975.34
459.66	13652.34
459.84	13813.84
460.03	14244.50
460.21	14033.85
460.39	14497.28
460.57	14611.96
460.76	14726.65
460.94	14249.18
461.12	14366.21
461.31	14281.95
461.49	14703.25
461.67	14787.50
461.85	15026.24
462.04	14951.34
462.22	14848.36
462.40	14806.23
462.59	14333.44
462.77	14480.89
462.95	14623.67
463.13	15042.62
463.32	14822.61
463.50	14092.37
463.68	14328.76
463.86	14347.48
464.05	14303.01
464.23	13724.90
464.41	13657.03
464.59	13671.07
464.78	14111.09
464.96	14008.11
465.14	13919.17
465.32	14464.51
465.50	14541.75
465.69	14759.42
465.87	14232.80
466.05	13755.33
466.23	13540.00
466.41	13469.78
466.60	14001.08
466.78	13795.12
466.96	13715.54
467.14	13762.35
467.32	14111.09
467.51	14057.26
467.69	13720.22
467.87	13977.68
468.05	14040.87
468.23	14218.75
468.41	14115.77
468.60	13994.06
468.78	14136.84
468.96	14324.08
469.14	14162.58
469.32	14789.85
469.50	13713.20
469.69	13865.33
469.87	13336.37
470.05	13607.87
470.23	13600.85
470.41	14139.18
470.59	14232.80
470.77	14026.83
470.95	13996.40
471.14	14295.99
471.32	14438.76
471.50	15517.75
471.68	15515.41
471.86	15374.98
472.04	15115.18
472.22	15136.24
472.40	14555.79
472.58	14455.15
472.77	14450.47
472.95	15014.54
473.13	15227.53
473.31	15016.88
473.49	14820.27
473.67	15002.83
473.85	14862.40
474.03	15208.80
474.21	15496.69
474.39	15269.66
474.57	15110.50
474.75	15709.68
474.93	15536.48
475.12	15208.80
475.30	15044.96
475.48	15066.03
475.66	15587.97
475.84	15161.99
476.02	15449.88
476.20	14841.34
476.38	15353.91
476.56	15531.80
476.74	15791.59
476.92	15992.88
477.10	16208.21
477.28	16620.14
477.46	16446.94
477.64	16568.65
477.82	16823.77
478.00	16868.24
478.18	16666.95
478.36	16400.13
478.54	16140.33
478.72	16849.52
478.90	17392.52
479.08	17263.79
479.26	17898.08
479.44	17362.09
479.62	17832.54
479.80	17357.41
479.98	17621.89
480.16	17654.66
480.34	17781.05
480.52	17879.35
480.70	17905.10
480.88	17575.08
481.06	18120.43
481.24	18717.26
481.41	19070.68
481.59	19119.84
481.77	18780.46
481.95	18342.78
482.13	19019.19
482.31	18408.31
482.49	19295.38
482.67	18618.96
482.85	18586.19
483.03	18787.48
483.21	19033.24
483.39	19042.60
483.57	19033.24
483.74	18782.80
483.92	18668.11
484.10	19021.53
484.28	19723.69
484.46	19510.71
484.64	19215.80
484.82	19309.42
485.00	19150.26
485.18	18401.29
485.35	17539.97
485.53	15740.10
485.71	14621.33
485.89	15213.48
486.07	16137.99
486.25	17355.07
486.43	18230.43
486.61	17877.01
486.78	18106.38
486.96	18841.31
487.14	19386.66
487.32	20053.71
487.50	20006.90
487.68	20084.14
487.85	20994.61
488.03	20713.74
488.21	20306.49
488.39	19653.48
488.57	20088.82
488.75	19625.39
488.92	20678.63
489.10	22457.44
489.28	22841.29
489.46	23154.92
489.64	23524.72
489.81	23124.49
489.99	22780.43
490.17	22867.03
490.35	23316.42
490.53	22562.76
490.70	22211.68
490.88	22412.97
491.06	22927.89
491.24	22838.95
491.41	22061.89
491.59	21338.66
491.77	20350.96
491.95	21568.04
492.13	22443.40
492.30	22623.62
492.48	23536.43
492.66	24395.40
492.84	23754.10
493.01	23428.76
493.19	22970.02
493.37	22024.44
493.54	22415.31
493.72	23419.40
493.90	24006.87
494.08	24533.50
494.25	25336.30
494.43	25348.00
494.61	25968.24
494.79	25846.54
494.96	25418.22
495.14	24381.36
495.32	23878.15
495.49	24208.16
495.67	24140.29
495.85	25891.01
496.02	26188.25
496.20	25802.07
496.38	25348.00
496.55	25062.46
496.73	25345.66
496.91	24964.15
497.09	25724.83
497.26	25692.06
497.44	25982.29
497.62	25633.55
497.79	24891.60
497.97	24041.98
498.14	24257.31
498.32	24975.86
498.50	25474.39
498.67	26150.81
498.85	25443.96
499.03	25032.03
499.20	25862.92
499.38	25722.49
499.56	24828.40
499.73	25017.99
499.91	24786.27
500.08	24109.86
500.26	23648.77
500.44	24250.29
500.61	25270.76
500.79	24348.59
500.97	24367.32
501.14	24423.49
501.32	24049.00
501.49	23957.72
501.67	24156.67
501.84	25254.38
502.02	25191.19
502.20	24622.44
502.37	25411.20
502.55	25685.04
502.72	26221.02
502.90	26534.65
503.07	25661.63
503.25	25535.24
503.43	25362.04
503.60	23969.43
503.78	23501.32
503.95	24666.91
504.13	25102.25
504.30	26228.04
504.48	26279.54
504.65	25628.87
504.83	25954.20
505.01	25944.84
505.18	25771.64
505.36	26576.78
505.53	26892.76
505.71	27267.24
505.88	26962.97
506.06	27192.34
506.23	26157.83
506.41	26068.89
506.58	26284.22
506.76	25715.47
506.93	26087.61
507.11	24704.35
507.28	26089.95
507.46	25085.86
507.63	24989.90
507.81	24870.53
507.98	24982.88
508.16	25692.06
508.33	25692.06
508.50	25369.07
508.68	26391.88
508.85	27021.48
509.03	26841.26
509.20	26197.62
509.38	25755.26
509.55	25465.03
509.73	25968.24
509.90	26410.60
510.08	25270.76
510.25	25518.86
510.42	25785.68
510.60	25743.55
510.77	26352.09
510.95	26881.05
511.12	26146.12
511.30	26836.58
511.47	27936.63
511.64	26714.87
511.82	26551.04
511.99	26218.68
512.17	26139.10
512.34	25518.86
512.51	25432.26
512.69	25539.93
512.86	25940.16
513.04	26017.40
513.21	26174.21
513.38	26061.87
513.56	25528.22
513.73	24400.08
513.90	24505.41
514.08	24725.42
514.25	25165.44
514.43	25991.65
514.60	25727.17
514.77	25895.69
514.95	25781.00
515.12	25865.26
515.29	25806.75
515.47	26593.17
515.64	25858.24
515.81	26398.90
515.99	25502.48
516.16	23646.43
516.33	21823.16
516.51	20943.11
516.68	20194.14
516.85	19700.29
517.03	20496.07
517.20	22293.60
517.37	24671.59
517.54	24926.71
517.72	23644.09
517.89	22204.66
518.06	21226.32
518.24	21720.17
518.41	23318.76
518.58	23967.09
518.75	23988.15
518.93	24166.03
519.10	23796.23
519.27	24219.86
519.45	24884.58
519.62	25443.96
519.79	25453.33
519.96	25565.67
520.14	24779.25
520.31	24297.10
520.48	24744.14
520.65	24907.98
520.83	24971.18
521.00	25252.04
521.17	25020.33
521.34	24720.74
521.52	24868.19
521.69	25441.62
521.86	25551.63
522.03	25275.45
522.20	24353.27
522.38	23391.31
522.55	23754.10
522.72	24266.67
522.89	23974.11
523.07	24196.46
523.24	24929.05
523.41	25027.35
523.58	25671.00
523.75	24844.79
523.92	25853.56
524.10	26043.14
524.27	25909.73
524.44	25635.89
524.61	25860.58
524.78	25755.26
524.96	25106.93
525.13	25427.58
525.30	26452.73
525.47	26621.25
525.64	25795.04
525.81	24570.94
525.98	23484.94
526.16	21715.49
526.33	21776.34
526.50	21633.57
526.67	22134.45
526.84	21930.82
527.01	23274.29
527.18	23871.12
527.36	24219.86
527.53	25678.02
527.70	25046.07
527.87	24065.39
528.04	24077.09
528.21	24720.74
528.38	25027.35
528.55	25900.37
528.72	25993.99
528.89	25518.86
529.07	26410.60
529.24	24205.82
529.41	24713.72
529.58	24474.98
529.75	24559.24
529.92	24844.79
530.09	24851.81
530.26	24900.96
530.43	23800.91
530.60	25378.43
530.77	25736.53
530.94	26511.25
531.11	25472.05
531.28	25158.42
531.46	24652.86
531.63	25436.94
531.80	25465.03
531.97	24451.58
532.14	23463.87
532.31	22583.83
532.48	22038.48
532.65	21790.39
532.82	22728.94
532.99	23580.90
533.16	24442.21
533.33	25783.34
533.50	24816.70
533.67	24126.24
533.84	24194.12
534.01	23950.70
534.18	24034.96
534.35	23674.52
534.52	23868.78
534.69	24325.19
534.86	24414.13
535.03	24294.76
535.20	24978.20
535.37	25240.34
535.54	25523.54
535.71	24418.81
535.88	24390.72
536.05	23779.84
536.22	23810.27
536.38	22883.42
536.55	23278.97
536.72	23351.52
536.89	23190.03
537.06	23936.66
537.23	24056.03
537.40	24093.47
537.57	24187.10
537.74	23150.24
537.91	23192.37
538.08	24540.52
538.25	24542.86
538.42	23515.36
538.59	23922.62
538.75	23723.67
538.92	23749.42
539.09	23349.18
539.26	22551.06
539.43	21947.20
539.60	22052.53
539.77	22209.34
539.94	21743.58
540.11	21270.79
540.28	21067.16
540.44	21561.02
540.61	21610.17
540.78	21933.16
540.95	23103.43
541.12	22464.46
541.29	23234.50
541.46	22628.30
541.62	22686.81
541.79	22551.06
541.96	22015.08
542.13	23285.99
542.30	22991.08
542.47	22850.65
542.63	22314.67
542.80	21619.53
542.97	22089.98
543.14	21841.88
543.31	22396.59
543.48	23084.70
543.64	23396.00
543.81	23679.20
543.98	23218.11
544.15	22890.44
544.32	22305.31
544.48	22934.91
544.65	22148.49
544.82	22473.82
544.99	22635.32
545.16	22792.14
545.32	23140.88
545.49	23510.68
545.66	22684.47
545.83	22967.68
546.00	22623.62
546.16	22237.43
546.33	22162.53
546.50	22892.78
546.67	22794.48
546.83	22225.73
547.00	22068.91
547.17	21820.81
547.34	21710.81
547.50	21568.04
547.67	21612.51
547.84	21614.85
548.00	21947.20
548.17	21570.38
548.34	21738.90
548.51	21858.26
548.67	22766.39
548.84	22431.69
549.01	22607.23
549.18	22541.70
549.34	22717.24
549.51	22434.03
549.68	22157.85
549.84	22015.08
550.01	21942.52
550.18	21221.64
550.34	21319.94
550.51	21343.35
550.68	20943.11
550.84	20648.21
551.01	20758.21
551.18	20208.19
551.34	20577.99
551.51	21144.40
551.68	22590.85
551.84	21214.62
552.01	21867.63
552.18	21514.20
552.34	21362.07
552.51	21252.06
552.68	21507.18
552.84	20919.71
553.01	21053.12
553.18	21802.09
553.34	21558.67
553.51	21277.81
553.67	20957.16
553.84	21710.81
554.01	21696.77
554.17	21160.78
554.34	21432.29
554.51	21844.22
554.67	21682.72
554.84	20655.23
555.00	20912.69
555.17	21156.10
555.33	20830.77
555.50	21598.46
555.67	21345.69
555.83	21476.76
556.00	21617.19
556.16	21125.68
556.33	20231.59
556.50	20526.50
556.66	20325.21
556.83	19805.61
556.99	20215.21
557.16	20540.54
557.32	20456.28
557.49	20556.93
557.65	20456.28
557.82	19758.80
557.98	20002.22
558.15	20215.21
558.32	19522.41
558.48	19103.45
558.65	19105.79
558.81	18775.78
558.98	19295.38
559.14	19672.20
559.31	19894.55
559.47	19831.36
559.64	18916.21
559.80	19644.12
559.97	19660.50
560.13	20105.20
560.30	20336.91
560.46	20276.06
560.63	20685.65
560.79	20767.57
560.96	19754.12
561.12	19412.40
561.29	19295.38
561.45	19150.26
561.61	19061.32
561.78	18972.38
561.94	19400.70
562.11	19232.18
562.27	19527.09
562.44	19805.61
562.60	19786.89
562.77	19995.20
562.93	19417.08
563.10	19534.11
563.26	19021.53
563.42	18911.53
563.59	18920.89
563.75	19330.48
563.92	18913.87
564.08	19281.33
564.24	18988.77
564.41	18401.29
564.57	18869.40
564.74	18572.15
564.90	18431.72
565.07	18415.34
565.23	17949.57
565.39	17741.26
565.56	18277.24
565.72	18476.19
565.88	18878.76
566.05	18345.12
566.21	18450.44
566.38	18097.02
566.54	17982.34
566.70	18085.32
566.87	18462.15
567.03	19452.19
567.19	19601.99
567.36	18420.02
567.52	19133.88
567.68	18450.44
567.85	18370.86
568.01	18410.65
568.17	17743.60
568.34	17270.81
568.50	17125.70
568.66	17444.01
568.83	17811.48
568.99	18457.46
569.15	18141.49
569.32	18349.80
569.48	18148.51
569.64	17582.10
569.81	17006.33
569.97	17444.01
570.13	17696.79
570.30	16947.82
570.46	16898.67
570.62	16358.00
570.78	15791.59
570.95	16229.27
571.11	16805.05
571.27	17069.53
571.43	16973.56
571.60	17294.22
571.76	17734.24
571.92	17593.81
572.09	17589.13
572.25	17530.61
572.41	17998.72
572.57	17680.41
572.74	17399.54
572.90	17444.01
573.06	17542.32
573.22	17055.48
573.38	17172.51
573.55	16430.56
573.71	17085.91
573.87	16987.61
574.03	16959.52
574.20	17401.88
574.36	17118.68
574.52	16837.81
574.68	16713.77
574.84	16695.04
575.01	16718.45
575.17	16695.04
575.33	16863.56
575.49	16751.21
575.65	16535.88
575.82	16542.91
575.98	16458.65
576.14	16496.10
576.30	16285.45
576.46	16194.17
576.62	16606.10
576.79	16287.79
576.95	15681.59
577.11	15716.70
577.27	15922.66
577.43	16058.42
577.59	15974.16
577.75	16163.74
577.92	15768.19
578.08	15639.46
578.24	15548.18
578.40	15744.78
578.56	15583.29
578.72	15529.45
578.88	16091.18
579.04	15875.85
579.21	15981.18
579.37	16269.06
579.53	15861.81
579.69	15580.95
579.85	15468.60
580.01	15632.44
580.17	15665.21
580.33	15758.83
580.49	15709.68
580.65	15922.66
580.82	15613.71
580.98	15784.57
581.14	15878.19
581.30	16365.03
581.46	15810.32
581.62	15536.48
581.78	15978.84
581.94	16163.74
582.10	16053.73
582.26	15929.69
582.42	15957.77
582.58	16442.26
582.74	16201.19
582.90	15885.22
583.06	15899.26
583.22	15707.34
583.38	16072.46
583.54	16020.97
583.70	15948.41
583.86	15826.70
584.02	16016.29
584.18	15740.10
584.34	15857.13
584.50	16301.83
584.66	16074.80
584.82	15246.25
584.98	15613.71
585.14	15377.32
585.30	14963.04
585.46	14726.65
585.62	14651.75
585.78	14951.34
585.94	14991.13
586.10	15267.31
586.26	15178.37
586.42	15363.28
586.58	15260.29
586.74	14801.55
586.90	15208.80
587.06	15314.13
