SpectraSuite Data File
++++++++++++++++++++++++++++++++++++
Date: Mon Oct 07 14:53:46 GMT-05:00 2013
User: price-jones
Dark Spectrum Present: No
Reference Spectrum Present: No
Number of Sampled Component Spectra: 1
Spectrometers: USB2+H05261
Integration Time (usec): 100000 (USB2+H05261)
Spectra Averaged: 1 (USB2+H05261)
Boxcar Smoothing: 0 (USB2+H05261)
Correct for Electrical Dark: No (USB2+H05261)
Strobe/Lamp Enabled: No (USB2+H05261)
Correct for Detector Non-linearity: No (USB2+H05261)
Correct for Stray Light: No (USB2+H05261)
Number of Pixels in Processed Spectrum: 2048
>>>>>Begin Processed Spectral Data<<<<<
365.73	0.00
365.92	0.00
366.12	0.00
366.32	0.00
366.52	0.00
366.72	0.00
366.91	0.00
367.11	0.00
367.31	0.00
367.51	0.00
367.70	0.00
367.90	0.00
368.10	0.00
368.30	0.00
368.49	0.00
368.69	0.00
368.89	0.00
369.09	0.00
369.28	0.00
369.48	0.00
369.68	0.00
369.87	0.00
370.07	0.00
370.27	0.00
370.47	500.87
370.66	2913.97
370.86	3485.06
371.06	3880.61
371.25	3906.35
371.45	3440.59
371.65	3059.08
371.84	2911.63
372.04	2972.48
372.24	3412.50
372.44	3566.98
372.63	3398.46
372.83	3358.67
373.03	2883.54
373.22	2623.74
373.42	2684.59
373.62	3311.86
373.81	3449.95
374.01	3559.95
374.21	3307.18
374.40	2904.60
374.60	3122.27
374.79	3501.44
374.99	3957.85
375.19	4292.54
375.38	4472.76
375.58	4070.19
375.78	3983.59
375.97	3920.40
376.17	4273.82
376.37	4269.14
376.56	4395.53
376.76	4812.14
376.95	5022.79
377.15	5221.74
377.35	5465.15
377.54	5640.69
377.74	5879.43
377.93	6024.54
378.13	5715.59
378.33	5397.28
378.52	5022.79
378.72	4777.03
378.91	4699.80
379.11	4554.68
379.31	4510.21
379.50	4381.48
379.70	4650.64
379.89	5280.25
380.09	5514.30
380.28	5776.44
380.48	5802.19
380.68	5668.78
380.87	5568.13
381.07	5139.82
381.26	4667.03
381.46	4351.06
381.65	4035.08
381.85	4044.45
382.04	4051.47
382.24	3791.67
382.43	3517.83
382.63	3468.67
382.83	3442.93
383.02	3396.12
383.22	3433.57
383.41	3328.24
383.61	3707.41
383.80	4184.88
384.00	4940.87
384.19	5327.06
384.39	5865.38
384.58	5818.57
384.78	5521.32
384.97	5444.09
385.17	5263.86
385.36	4940.87
385.56	4671.71
385.75	4828.53
385.95	5561.11
386.14	5858.36
386.34	5870.06
386.53	5561.11
386.72	5380.89
386.92	5254.50
387.11	5617.29
387.31	5984.75
387.50	5640.69
387.70	5614.95
387.89	5453.45
388.09	5568.13
388.28	5589.20
388.48	5647.71
388.67	5940.28
388.86	6640.10
389.06	7173.74
389.25	7583.34
389.45	7618.44
389.64	7709.72
389.84	7440.56
390.03	7342.26
390.22	7480.35
390.42	7641.85
390.61	7985.91
390.81	8655.30
391.00	8980.64
391.19	8755.94
391.39	8512.53
391.58	8044.42
391.78	7611.42
391.97	7265.02
392.16	6869.47
392.36	6249.23
392.55	5055.56
392.75	4037.42
392.94	3133.98
393.13	3171.43
393.33	3564.64
393.52	4755.97
393.71	6101.78
393.91	6747.76
394.10	7332.90
394.29	7906.33
394.49	8765.31
394.68	9170.22
394.88	9287.25
395.07	9575.13
395.26	9331.72
395.46	9252.14
395.65	8709.13
395.84	7768.24
396.04	6462.22
396.23	5263.86
396.42	4482.13
396.62	4285.52
396.81	4793.42
397.00	6057.31
397.19	7854.84
397.39	9207.67
397.58	10401.34
397.77	11410.11
397.97	11688.64
398.16	11637.14
398.35	12280.79
398.55	12468.03
398.74	13055.51
398.93	13165.51
399.12	13167.85
399.32	12554.63
399.51	12842.52
399.70	13432.33
399.90	13352.76
400.09	13675.75
400.28	13231.05
400.47	13434.68
400.67	14221.10
400.86	14658.78
401.05	14630.69
401.24	14703.25
401.44	14958.36
401.63	14822.61
401.82	15094.11
402.01	15087.09
402.21	14993.47
402.40	15321.15
402.59	14888.15
402.78	14113.43
402.97	13720.22
403.17	14183.65
403.36	14934.96
403.55	15620.74
403.74	16142.67
403.93	15159.65
404.13	14342.80
404.32	13652.34
404.51	14361.53
404.70	15524.77
404.89	15531.80
405.09	15143.27
405.28	14920.92
405.47	14738.35
405.66	14633.03
405.85	14427.06
406.05	13961.30
406.24	13926.19
406.43	14916.23
406.62	15393.70
406.81	15456.90
407.00	14930.28
407.20	14389.61
407.39	14604.94
407.58	15499.03
407.77	15917.98
407.96	16554.61
408.15	16552.27
408.34	16833.13
408.54	17465.08
408.73	17710.83
408.92	17207.62
409.11	16929.09
409.30	16051.39
409.49	15136.24
409.68	14036.19
409.87	13804.48
410.07	14410.68
410.26	15620.74
410.45	16594.40
410.64	17036.76
410.83	17582.10
411.02	18066.60
411.21	18700.88
411.40	18562.79
411.59	18724.29
411.78	18438.74
411.98	18080.64
412.17	18523.00
412.36	18211.71
412.55	18462.15
412.74	18015.10
412.93	17357.41
413.12	17434.65
413.31	19648.80
413.50	19583.26
413.69	19943.70
413.88	19026.21
414.07	18452.78
414.26	18728.97
414.45	19513.05
414.64	19529.43
414.83	19475.60
415.02	18930.25
415.22	18853.02
415.41	19616.03
415.60	20116.90
415.79	20732.47
415.98	21226.32
416.17	21425.26
416.36	20776.94
416.55	20556.93
416.74	19981.15
416.93	19194.73
417.12	19077.71
417.31	19609.01
417.50	20109.88
417.69	20329.89
417.88	20631.82
418.07	20226.91
418.26	20173.08
418.45	20025.62
418.64	20999.29
418.83	21570.38
419.02	21270.79
419.21	21085.89
419.39	20226.91
419.58	19239.20
419.77	19220.48
419.96	20074.77
420.15	21221.64
420.34	21853.58
420.53	23124.49
420.72	23381.95
420.91	22998.10
421.10	22590.85
421.29	22235.09
421.48	21565.70
421.67	22927.89
421.86	22026.78
422.05	20762.89
422.24	18436.40
422.43	17907.44
422.61	19910.94
422.80	21944.86
422.99	21717.83
423.18	21280.15
423.37	20563.95
423.56	20915.03
423.75	21212.28
423.94	21446.33
424.13	20585.01
424.32	20994.61
424.50	20486.71
424.69	20322.87
424.88	20556.93
425.07	20414.15
425.26	20325.21
425.45	20091.16
425.64	19889.87
425.83	19789.23
426.01	20926.73
426.20	21401.86
426.39	21263.77
426.58	19779.87
426.77	18551.09
426.96	17706.15
427.15	18171.92
427.33	19995.20
427.52	20706.72
427.71	20397.77
427.90	20266.70
428.09	20276.06
428.28	19978.81
428.46	19145.58
428.65	18845.99
428.84	19353.89
429.03	19524.75
429.22	18560.45
429.40	17809.14
429.59	16079.48
429.78	14043.21
429.97	14363.87
430.16	14209.39
430.34	14642.39
430.53	14633.03
430.72	14637.71
430.91	16233.96
431.10	19339.85
431.28	22387.22
431.47	24404.77
431.66	24627.12
431.85	22520.63
432.03	21149.08
432.22	19948.39
432.41	20521.82
432.60	22764.05
432.79	23651.11
432.97	24580.31
433.16	23931.98
433.35	22223.39
433.54	19566.88
433.72	18164.90
433.91	18621.30
434.10	20889.28
434.28	22394.25
434.47	24149.65
434.66	23524.72
434.85	22831.93
435.03	22647.02
435.22	23161.94
435.41	24830.74
435.59	24727.76
435.78	25226.29
435.97	25944.84
436.16	25970.58
436.34	25528.22
436.53	24980.54
436.72	24680.95
436.90	23770.48
437.09	23531.75
437.28	23171.30
437.46	24360.30
437.65	23749.42
437.84	22586.17
438.02	20512.46
438.21	20388.41
438.40	21710.81
438.58	23215.77
438.77	23885.17
438.96	24159.01
439.14	25453.33
439.33	25626.53
439.52	26160.17
439.70	25741.21
439.89	25172.46
440.08	24599.03
440.26	24400.08
440.45	24966.49
440.63	26480.82
440.82	28465.60
441.01	28067.70
441.19	27562.15
441.38	27765.78
441.57	29235.63
441.75	29200.52
441.94	29811.40
442.12	29151.37
442.31	29809.06
442.50	29825.45
442.68	29247.33
442.87	28732.42
443.05	28575.60
443.24	28877.53
443.43	29598.41
443.61	30291.21
443.80	30698.47
443.98	28889.23
444.17	28933.70
444.35	30525.27
444.54	31323.39
444.73	30831.88
444.91	29755.23
445.10	28208.14
445.28	27152.55
445.47	26810.84
445.65	27091.70
445.84	27597.26
446.02	28388.36
446.21	28905.62
446.39	28938.38
446.58	29486.07
446.77	30307.60
446.95	30204.61
447.14	31391.26
447.32	31761.07
447.51	30728.89
447.69	29797.36
447.88	29312.87
448.06	30022.05
448.25	30515.90
448.43	30553.35
448.62	30015.03
448.80	30209.29
448.99	30167.16
449.17	30249.08
449.36	30469.09
449.54	31442.76
449.73	31857.03
449.91	32603.66
450.10	33373.70
450.28	34139.05
450.46	33600.73
450.65	33713.08
450.83	33301.14
451.02	32130.87
451.20	32287.69
451.39	32591.96
451.57	31999.80
451.76	32224.50
451.94	32077.04
452.13	31571.49
452.31	30256.11
452.49	28650.50
452.68	28952.43
452.86	29329.25
453.05	29453.30
453.23	30316.96
453.42	31166.57
453.60	31751.71
453.78	32023.21
453.97	31484.89
454.15	31981.08
454.34	31220.41
454.52	30979.33
454.70	30450.37
454.89	31129.12
455.07	30838.90
455.26	31346.79
455.44	32301.73
455.62	33516.47
455.81	33291.78
455.99	33186.46
456.17	32996.87
456.36	32535.79
456.54	33383.06
456.73	33729.46
456.91	34218.63
457.09	34361.40
457.28	35122.08
457.46	34132.03
457.64	33418.17
457.83	32694.94
458.01	31634.68
458.19	32816.65
458.38	32751.12
458.56	34075.86
458.74	33874.57
458.93	33085.81
459.11	33266.03
459.29	32751.12
459.48	33127.94
459.66	33006.23
459.84	33392.42
460.03	33961.17
460.21	33247.31
460.39	33993.94
460.57	34522.90
460.76	34768.66
460.94	34431.62
461.12	34396.51
461.31	34623.54
461.49	34412.90
461.67	34714.83
461.85	35522.31
462.04	35264.85
462.22	35454.44
462.40	35711.89
462.59	35536.35
462.77	35260.17
462.95	35321.02
463.13	34714.83
463.32	34761.64
463.50	34595.46
463.68	34293.53
463.86	34440.98
464.05	33675.63
464.23	33462.64
464.41	33656.90
464.59	32577.92
464.78	34274.80
464.96	34501.84
465.14	33816.06
465.32	34927.81
465.50	35442.73
465.69	35508.27
465.87	35150.17
466.05	34054.79
466.23	32755.80
466.41	31957.67
466.60	32886.87
466.78	33116.24
466.96	33202.84
467.14	33823.08
467.32	34286.51
467.51	34333.32
467.69	32851.76
467.87	33600.73
468.05	33940.11
468.23	34157.78
468.41	34230.33
468.60	34103.95
468.78	34925.47
468.96	34202.25
469.14	34843.56
469.32	35033.14
469.50	33551.58
469.69	33942.45
469.87	32907.93
470.05	33024.96
470.23	33420.51
470.41	33104.54
470.59	33628.82
470.77	33832.44
470.95	34703.12
471.14	34881.00
471.32	35084.63
471.50	37202.82
471.68	37387.72
471.86	37434.53
472.04	37401.76
472.22	37408.78
472.40	35718.92
472.58	35639.34
472.77	35021.44
472.95	36030.21
473.13	36893.86
473.31	35730.62
473.49	36025.53
473.67	36772.16
473.85	37163.03
474.03	37659.22
474.21	37745.82
474.39	38485.43
474.57	38382.45
474.75	38368.40
474.93	37635.81
475.12	37368.99
475.30	37675.60
475.48	37734.12
475.66	37745.82
475.84	37776.25
476.02	37247.29
476.20	36830.67
476.38	37383.04
476.56	38569.69
476.74	39014.39
476.92	39239.08
477.10	39784.43
477.28	40835.33
477.46	40652.76
477.64	41560.89
477.82	42057.09
478.00	41965.81
478.18	40762.77
478.36	40751.07
478.54	41209.81
478.72	41766.86
478.90	42178.79
479.08	43625.25
479.26	43482.47
479.44	43709.50
479.62	43363.11
479.80	43115.01
479.98	43447.36
480.16	44009.09
480.34	43320.98
480.52	43910.79
480.70	44055.90
480.88	44257.19
481.06	44814.24
481.24	45174.68
481.41	46045.36
481.59	46714.75
481.77	46445.59
481.95	45656.83
482.13	45825.35
482.31	45717.68
482.49	46408.14
482.67	46321.54
482.85	46274.73
483.03	47030.72
483.21	47676.71
483.39	47751.61
483.57	46347.29
483.74	46553.26
483.92	46841.14
484.10	46649.22
484.28	47784.38
484.46	48112.05
484.64	48786.13
484.82	47812.46
485.00	47388.83
485.18	46349.63
485.35	45191.06
485.53	42089.85
485.71	38532.24
485.89	37691.99
486.07	39903.79
486.25	43100.97
486.43	45371.28
486.61	45972.80
486.78	46248.99
486.96	46532.19
487.14	48137.80
487.32	48694.85
487.50	49820.64
487.68	50431.52
487.85	51042.40
488.03	51318.59
488.21	50700.68
488.39	50096.83
488.57	49181.68
488.75	48999.12
488.92	50157.68
489.10	51997.34
489.28	53581.88
489.46	54089.78
489.64	54003.18
489.81	54049.99
489.99	53930.62
490.17	53783.17
490.35	54302.77
490.53	53528.05
490.70	53230.80
490.88	53282.30
491.06	54288.73
491.24	53961.05
491.41	53389.96
491.59	51812.44
491.77	50813.03
491.95	52112.03
492.13	53158.25
492.30	54124.89
492.48	55086.85
492.66	55594.74
492.84	55648.58
493.01	55164.09
493.19	54901.95
493.37	54506.40
493.54	54225.53
493.72	54836.41
493.90	55870.93
494.08	56601.18
494.25	56774.37
494.43	57216.74
494.61	57387.60
494.79	57415.68
494.96	57265.89
495.14	56561.39
495.32	55650.92
495.49	55145.36
495.67	56158.81
495.85	57455.47
496.02	57794.85
496.20	57546.75
496.38	57375.89
496.55	57202.69
496.73	57612.29
496.91	57549.09
497.09	58021.88
497.26	58665.53
497.44	57930.60
497.62	57553.77
497.79	56832.89
497.97	55533.89
498.14	55725.81
498.32	56769.69
498.50	57525.69
498.67	58078.05
498.85	58059.33
499.03	58003.16
499.20	58115.50
499.38	58468.92
499.56	58134.23
499.73	57792.51
499.91	57696.55
500.08	57090.35
500.26	56259.46
500.44	56736.93
500.61	57375.89
500.79	57160.56
500.97	56790.76
501.14	56463.08
501.32	56446.70
501.49	56659.69
501.67	56509.89
501.84	57361.85
502.02	57635.69
502.20	57907.19
502.37	57956.35
502.55	57902.51
502.72	58440.84
502.90	58955.75
503.07	58663.19
503.25	58169.33
503.43	57553.77
503.60	57085.67
503.78	56327.33
503.95	56500.53
504.13	58038.26
504.30	58768.51
504.48	58618.72
504.65	58251.25
504.83	58265.30
505.01	58990.86
505.18	59217.89
505.36	59908.35
505.53	59845.16
505.71	60086.23
505.88	60030.06
506.06	59625.15
506.23	59288.11
506.41	58930.01
506.58	58995.54
506.76	58993.20
506.93	59140.66
507.11	58789.58
507.28	58843.41
507.46	58506.37
507.63	57822.93
507.81	57748.04
507.98	57872.09
508.16	58712.34
508.33	59028.31
508.50	59407.48
508.68	59852.18
508.85	60147.09
509.03	60079.21
509.20	60067.51
509.38	59552.59
509.55	58695.95
509.73	58656.17
509.90	59222.58
510.08	59405.14
510.25	59302.15
510.42	59196.83
510.60	58918.31
510.77	59449.61
510.95	59880.27
511.12	59950.48
511.30	60278.16
511.47	60650.30
511.64	60566.04
511.82	60123.68
511.99	59533.87
512.17	59114.91
512.34	58649.14
512.51	58892.56
512.69	58958.09
512.86	59002.56
513.04	59426.20
513.21	59512.80
513.38	59360.67
513.56	58515.73
513.73	58258.27
513.90	58389.34
514.08	58515.73
514.25	58752.13
514.43	58904.26
514.60	58960.44
514.77	59262.36
514.95	59409.82
515.12	59025.97
515.29	59309.18
515.47	59760.90
515.64	60158.79
515.81	59667.28
515.99	59302.15
516.16	57797.19
516.33	55533.89
516.51	54150.63
516.68	53429.75
516.85	53095.05
517.03	53333.79
517.20	55735.18
517.37	58326.15
517.54	59255.34
517.72	58773.19
517.89	56699.48
518.06	54092.12
518.24	54225.53
518.41	56779.06
518.58	57752.72
518.75	58253.59
518.93	58248.91
519.10	58155.29
519.27	58511.05
519.45	58616.38
519.62	59220.23
519.79	59873.24
519.96	59599.40
520.14	59194.49
520.31	58251.25
520.48	58326.15
520.65	58639.78
520.83	59758.56
521.00	60034.74
521.17	59660.26
521.34	59220.23
521.52	59526.84
521.69	59917.71
521.86	60552.00
522.03	60111.98
522.20	59147.68
522.38	57865.06
522.55	58031.24
522.72	58457.22
522.89	58775.53
523.07	58918.31
523.24	59269.39
523.41	60083.89
523.58	60348.37
523.75	60701.79
523.92	60842.23
524.10	60528.59
524.27	60371.78
524.44	60273.48
524.61	60388.16
524.78	60182.19
524.96	59915.37
525.13	60102.62
525.30	60126.02
525.47	60617.53
525.64	60657.32
525.81	59898.99
525.98	58473.60
526.16	57291.63
526.33	56467.76
526.50	56418.61
526.67	55744.54
526.84	56432.66
527.01	57586.54
527.18	58138.91
527.36	58960.44
527.53	59803.03
527.70	60079.21
527.87	59585.36
528.04	58892.56
528.21	59613.44
528.38	60236.03
528.55	60734.56
528.72	61097.34
528.89	61340.76
529.07	60952.23
529.24	60285.18
529.41	59721.11
529.58	59138.32
529.75	59210.87
529.92	59512.80
530.09	60179.85
530.26	60453.70
530.43	60734.56
530.60	60594.13
530.77	60877.33
530.94	61240.12
531.11	60566.04
531.28	60299.22
531.46	60140.07
531.63	60385.82
531.80	60205.60
531.97	59999.63
532.14	59030.65
532.31	57944.64
532.48	57645.05
532.65	57425.04
532.82	58274.66
532.99	59587.70
533.16	59749.20
533.33	60367.10
533.50	60170.49
533.67	59437.90
533.84	58915.96
534.01	59365.35
534.18	59423.86
534.35	59660.26
534.52	59330.24
534.69	59819.41
534.86	60037.08
535.03	60186.88
535.20	60643.28
535.37	61284.59
535.54	61130.11
535.71	60680.73
535.88	60528.59
536.05	60039.42
536.22	59412.16
536.38	59173.42
536.55	58644.46
536.72	58267.64
536.89	58127.20
537.06	59093.85
537.23	59817.07
537.40	59835.80
537.57	59831.11
537.74	59938.78
537.91	59901.33
538.08	59568.97
538.25	59781.96
538.42	59999.63
538.59	59744.51
538.75	59063.42
538.92	58597.65
539.09	58972.14
539.26	58609.35
539.43	58534.46
539.60	58450.20
539.77	58752.13
539.94	58628.08
540.11	57958.69
540.28	57373.55
540.44	57549.09
540.61	57799.53
540.78	58061.67
540.95	58342.53
541.12	58635.10
541.29	58972.14
541.46	59302.15
541.62	59405.14
541.79	59276.41
541.96	58693.61
542.13	58588.29
542.30	58817.66
542.47	58911.28
542.63	58642.12
542.80	58520.41
542.97	58738.08
543.14	58478.28
543.31	58745.11
543.48	58869.15
543.64	59868.56
543.81	60130.70
543.98	59744.51
544.15	59222.58
544.32	58492.33
544.48	58712.34
544.65	59238.96
544.82	59444.93
544.99	59196.83
545.16	58883.20
545.32	58464.24
545.49	59430.88
545.66	59774.94
545.83	59491.74
546.00	59213.21
546.16	58623.40
546.33	58604.67
546.50	58871.49
546.67	59374.71
546.83	58962.78
547.00	58803.62
547.17	58309.77
547.34	57670.80
547.50	57581.86
547.67	58127.20
547.84	58052.31
548.00	58450.20
548.17	58761.49
548.34	58780.21
548.51	58862.13
548.67	58766.17
548.84	58953.41
549.01	58789.58
549.18	58677.23
549.34	58728.72
549.51	58614.04
549.68	58550.84
549.84	58415.09
550.01	58279.34
550.18	58117.84
550.34	58335.51
550.51	58391.68
550.68	58454.88
550.84	58152.95
551.01	57951.66
551.18	57972.73
551.34	57970.39
551.51	58674.89
551.68	58742.77
551.84	58815.32
552.01	58611.70
552.18	58557.86
552.34	57818.25
552.51	57230.78
552.68	57286.95
552.84	57839.32
553.01	58110.82
553.18	57946.98
553.34	58005.50
553.51	58162.31
553.67	58497.01
553.84	58616.38
554.01	58543.82
554.17	58241.89
554.34	58195.08
554.51	58452.54
554.67	58738.08
554.84	58532.12
555.00	58218.49
555.17	58113.16
555.33	58033.58
555.50	57888.47
555.67	58003.16
555.83	57801.87
556.00	57612.29
556.16	57605.26
556.33	56905.44
556.50	57050.56
556.66	56952.26
556.83	56849.27
556.99	57179.29
557.16	56966.30
557.32	57331.42
557.49	57654.42
557.65	57490.58
557.82	57579.52
557.98	57455.47
558.15	57088.01
558.32	56229.03
558.48	55283.45
558.65	55320.90
558.81	55882.63
558.98	56123.71
559.14	56198.60
559.31	56327.33
559.47	56163.50
559.64	56086.26
559.80	55700.07
559.97	55824.12
560.13	56231.37
560.30	57078.64
560.46	57572.50
560.63	57785.49
560.79	57954.00
560.96	57623.99
561.12	56329.67
561.29	55611.13
561.45	55398.14
561.61	56044.13
561.78	56659.69
561.94	56664.37
562.11	56395.21
562.27	56238.39
562.44	56521.60
562.60	56992.04
562.77	56853.95
562.93	56779.06
563.10	56743.95
563.26	56200.94
563.42	56231.37
563.59	56067.53
563.75	56214.99
563.92	56151.79
564.08	56135.41
564.24	56537.98
564.41	56444.36
564.57	56170.52
564.74	56280.52
564.90	56016.04
565.07	55798.37
565.23	55496.44
565.39	55084.51
565.56	54843.43
565.72	54616.40
565.88	54803.64
566.05	55030.68
566.21	55238.98
566.38	55573.68
566.54	55353.67
566.70	56048.81
566.87	56053.49
567.03	56179.88
567.19	56301.59
567.36	56088.60
567.52	55728.16
567.68	55833.48
567.85	54843.43
568.01	54738.11
568.17	54316.81
568.34	54368.30
568.50	54244.26
568.66	54394.05
568.83	54609.38
568.99	54674.91
569.15	55103.23
569.32	54742.79
569.48	54695.98
569.64	54838.75
569.81	54328.52
569.97	54078.08
570.13	54160.00
570.30	53663.80
570.46	53207.40
570.62	52762.70
570.78	52624.60
570.95	53116.12
571.11	53607.63
571.27	53827.64
571.43	53989.14
571.60	54103.82
571.76	54611.72
571.92	54700.66
572.09	54965.14
572.25	54890.24
572.41	54782.58
572.57	54780.24
572.74	54887.90
572.90	54333.20
573.06	54129.57
573.22	54391.71
573.38	54300.43
573.55	54396.39
573.71	54693.64
573.87	54122.55
574.03	54082.76
574.20	54003.18
574.36	53932.96
574.52	53989.14
574.68	53638.06
574.84	53052.92
575.01	52509.92
575.17	52636.31
575.33	52708.86
575.49	53120.80
575.65	53251.87
575.82	53085.69
575.98	52921.85
576.14	53392.30
576.30	53506.99
576.46	53305.70
576.62	53537.41
576.79	53462.52
576.95	53125.48
577.11	52966.32
577.27	53324.43
577.43	53333.79
577.59	52655.03
577.75	52420.98
577.92	51683.71
578.08	51496.47
578.24	51763.29
578.40	52053.51
578.56	52207.99
578.72	52376.51
578.88	52472.47
579.04	52481.83
579.21	52505.24
579.37	52905.47
579.53	53066.97
579.69	52767.38
579.85	53045.90
580.01	52711.20
580.17	52315.65
580.33	52023.09
580.49	52357.78
580.65	52435.02
580.82	53109.10
580.98	52741.63
581.14	52484.17
581.30	52587.16
581.46	52664.39
581.62	52584.82
581.78	52746.31
581.94	53200.38
582.10	52846.96
582.26	52865.68
582.42	52989.73
582.58	52914.83
582.74	53050.58
582.90	52797.80
583.06	52853.98
583.22	52961.64
583.38	52381.19
583.54	52364.81
583.70	52430.34
583.86	52650.35
584.02	52374.17
584.18	52678.44
584.34	52479.49
584.50	52257.14
584.66	52184.58
584.82	52006.70
584.98	51606.47
585.14	51349.01
585.30	50340.24
