SpectraSuite Data File
++++++++++++++++++++++++++++++++++++
Date: Mon Oct 07 14:53:41 GMT-05:00 2013
User: price-jones
Dark Spectrum Present: No
Reference Spectrum Present: No
Number of Sampled Component Spectra: 1
Spectrometers: USB2+H05261
Integration Time (usec): 100000 (USB2+H05261)
Spectra Averaged: 1 (USB2+H05261)
Boxcar Smoothing: 0 (USB2+H05261)
Correct for Electrical Dark: No (USB2+H05261)
Strobe/Lamp Enabled: No (USB2+H05261)
Correct for Detector Non-linearity: No (USB2+H05261)
Correct for Stray Light: No (USB2+H05261)
Number of Pixels in Processed Spectrum: 2048
>>>>>Begin Processed Spectral Data<<<<<
365.73	0.00
365.92	0.00
366.12	0.00
366.32	0.00
366.52	0.00
366.72	0.00
366.91	0.00
367.11	0.00
367.31	0.00
367.51	0.00
367.70	0.00
367.90	0.00
368.10	0.00
368.30	0.00
368.49	0.00
368.69	0.00
368.89	0.00
369.09	0.00
369.28	0.00
369.48	0.00
369.68	0.00
369.87	0.00
370.07	0.00
370.27	0.00
370.47	458.74
370.66	2340.54
370.86	2822.69
371.06	3180.79
371.25	3213.56
371.45	2883.54
371.65	2590.97
371.84	2441.18
372.04	2525.44
372.24	2923.33
372.44	2988.86
372.63	3045.04
372.83	2766.51
373.03	2445.86
373.22	2251.60
373.42	2413.09
373.62	2642.46
373.81	2998.23
374.01	3103.55
374.21	2574.59
374.40	2457.56
374.60	2499.69
374.79	2885.88
374.99	3473.36
375.19	3616.13
375.38	3684.00
375.58	3384.41
375.78	3386.76
375.97	3492.08
376.17	3609.11
376.37	3581.02
376.56	3705.07
376.76	3885.29
376.95	4081.89
377.15	4388.50
377.35	4585.11
377.54	4746.61
377.74	4791.08
377.93	5020.45
378.13	4854.27
378.33	4479.79
378.52	4170.83
378.72	4039.76
378.91	4037.42
379.11	3845.50
379.31	3728.47
379.50	3562.30
379.70	4030.40
379.89	4517.23
380.09	4608.51
380.28	4798.10
380.48	4826.18
380.68	4629.58
380.87	4791.08
381.07	4320.63
381.26	4060.83
381.46	3648.90
381.65	3536.55
381.85	3552.93
382.04	3328.24
382.24	3117.59
382.43	2899.92
382.63	2796.94
382.83	2951.42
383.02	2986.52
383.22	2984.18
383.41	3021.63
383.61	3045.04
383.80	3641.87
384.00	4135.73
384.19	4571.07
384.39	4807.46
384.58	4823.84
384.78	4723.20
384.97	4566.39
385.17	4421.27
385.36	4264.46
385.56	4098.28
385.75	4170.83
385.95	4608.51
386.14	4933.85
386.34	4863.63
386.53	4718.52
386.72	4470.42
386.92	4416.59
387.11	4774.69
387.31	4882.36
387.50	4952.57
387.70	4912.78
387.89	4620.22
388.09	4624.90
388.28	4730.22
388.48	4823.84
388.67	5104.71
388.86	5671.12
389.06	5984.75
389.25	6462.22
389.45	6462.22
389.64	6340.51
389.84	6363.92
390.03	6244.55
390.22	6359.24
390.42	6518.39
390.61	6885.86
390.81	7337.58
391.00	7644.19
391.19	7440.56
391.39	7178.42
391.58	6867.13
391.78	6326.47
391.97	6223.48
392.16	5696.86
392.36	5273.23
392.55	4283.18
392.75	3405.48
392.94	2787.58
393.13	2682.25
393.33	3155.04
393.52	4112.32
393.71	4980.66
393.91	5617.29
394.10	6127.52
394.29	6871.81
394.49	7405.46
394.68	7812.71
394.88	7925.05
395.07	8292.52
395.26	8161.45
395.46	7992.93
395.65	7384.39
395.84	6607.33
396.04	5488.56
396.23	4383.82
396.42	3742.52
396.62	3559.95
396.81	4234.03
397.00	5366.85
397.19	6619.04
397.39	8079.53
397.58	9001.70
397.77	9371.50
397.97	9982.38
398.16	10001.11
398.35	10277.29
398.55	10836.68
398.74	11030.94
398.93	11463.94
399.12	10967.75
399.32	10703.27
399.51	11040.31
399.70	11747.15
399.90	11421.81
400.09	11421.81
400.28	11494.37
400.47	11737.79
400.67	12098.23
400.86	12414.20
401.05	12255.04
401.24	12500.80
401.44	12858.90
401.63	12767.62
401.82	12769.96
402.01	12905.71
402.21	12886.99
402.40	12769.96
402.59	12624.85
402.78	12114.61
402.97	11616.08
403.17	12074.82
403.36	13060.19
403.55	13378.50
403.74	13509.57
403.93	13240.41
404.13	12219.94
404.32	11747.15
404.51	12329.94
404.70	13055.51
404.89	13057.85
405.09	13085.94
405.28	12688.04
405.47	12844.86
405.66	12526.55
405.85	12552.29
406.05	12126.32
406.24	12166.10
406.43	12674.00
406.62	13266.16
406.81	13071.89
407.00	12772.30
407.20	12458.67
407.39	12475.06
407.58	13427.65
407.77	13493.19
407.96	14263.22
408.15	14185.99
408.34	14501.96
408.54	15044.96
408.73	15190.08
408.92	14965.39
409.11	14637.71
409.30	13605.53
409.49	12903.37
409.68	11990.56
409.87	11604.38
410.07	12498.46
410.26	13200.62
410.45	14235.14
410.64	14691.54
410.83	15028.58
411.02	15243.91
411.21	16161.40
411.40	15967.13
411.59	16016.29
411.78	15590.31
411.98	15543.50
412.17	15864.15
412.36	15480.30
412.55	15548.18
412.74	15398.38
412.93	14855.38
413.12	14967.73
413.31	16470.35
413.50	16559.29
413.69	16924.41
413.88	16325.24
414.07	15730.74
414.26	16154.38
414.45	16767.60
414.64	16676.32
414.83	16666.95
415.02	16198.85
415.22	16629.51
415.41	16809.73
415.60	17188.89
415.79	17996.38
415.98	18483.21
416.17	18314.69
416.36	17877.01
416.55	17448.69
416.74	17282.52
416.93	16641.21
417.12	16528.86
417.31	16823.77
417.50	17034.42
417.69	17404.22
417.88	17617.21
418.07	17315.28
418.26	17153.79
418.45	17343.37
418.64	18120.43
418.83	18391.93
419.02	18146.17
419.21	18090.00
419.39	17287.20
419.58	16517.16
419.77	16882.28
419.96	17467.42
420.15	18368.52
420.34	18995.79
420.53	19491.98
420.72	20154.35
420.91	19496.66
421.10	19360.91
421.29	19243.88
421.48	18391.93
421.67	19424.11
421.86	19037.92
422.05	17624.23
422.24	15889.90
422.43	15763.51
422.61	17530.61
422.80	18862.38
422.99	18717.26
423.18	18417.68
423.37	17879.35
423.56	18045.53
423.75	18113.41
423.94	18476.19
424.13	17488.48
424.32	17600.83
424.50	17860.63
424.69	17912.12
424.88	17593.81
425.07	17532.95
425.26	17350.39
425.45	17434.65
425.64	17130.38
425.83	17022.72
426.01	18185.96
426.20	18508.96
426.39	18101.70
426.58	16872.92
426.77	16109.91
426.96	15227.53
427.15	15688.61
427.33	16793.34
427.52	17757.64
427.71	17869.99
427.90	17268.47
428.09	17266.13
428.28	17060.16
428.46	16603.76
428.65	16322.90
428.84	16554.61
429.03	17055.48
429.22	16123.95
429.40	15279.02
429.59	13940.23
429.78	12264.41
429.97	12018.65
430.16	12458.67
430.34	12524.21
430.53	12510.16
430.72	12683.36
430.91	14267.91
431.10	16592.06
431.28	19389.00
431.47	21092.91
431.66	21153.76
431.85	19468.58
432.03	17956.59
432.22	17011.01
432.41	17846.58
432.60	19749.44
432.79	20395.43
432.97	20957.16
433.16	20648.21
433.35	18806.20
433.54	17006.33
433.72	16030.33
433.91	16264.38
434.10	18305.33
434.28	19508.37
434.47	20292.44
434.66	20304.15
434.85	19854.76
435.03	19461.55
435.22	20252.66
435.41	21802.09
435.59	21729.53
435.78	21696.77
435.97	22274.88
436.16	22478.50
436.34	22256.15
436.53	21717.83
436.72	21586.76
436.90	20819.07
437.09	20262.02
437.28	20212.87
437.46	20702.04
437.65	20837.79
437.84	19412.40
438.02	17912.12
438.21	17453.37
438.40	18682.16
438.58	20180.10
438.77	20648.21
438.96	21160.78
439.14	21872.31
439.33	22094.66
439.52	22750.01
439.70	22431.69
439.89	21720.17
440.08	21312.92
440.26	20737.15
440.45	22019.76
440.63	23239.18
440.82	24526.47
441.01	24528.81
441.19	23744.73
441.38	24128.58
441.57	25067.14
441.75	25504.82
441.94	26136.76
442.12	25017.99
442.31	25795.04
442.50	25797.38
442.68	25205.23
442.87	25418.22
443.05	25198.21
443.24	25359.70
443.43	25549.29
443.61	26286.56
443.80	26749.98
443.98	24926.71
444.17	24814.36
444.35	26693.81
444.54	26909.14
444.73	26761.69
444.91	25542.27
445.10	24702.01
445.28	23672.18
445.47	22778.09
445.65	23398.34
445.84	23983.47
446.02	24945.43
446.21	25226.29
446.39	25235.66
446.58	25727.17
446.77	25734.19
446.95	26206.98
447.14	26663.38
447.32	27215.75
447.51	26967.65
447.69	25593.76
447.88	25289.49
448.06	25905.05
448.25	26501.89
448.43	26712.53
448.62	25853.56
448.80	25720.15
448.99	26096.97
449.17	26560.40
449.36	26331.03
449.54	27239.15
449.73	27887.48
449.91	27882.80
450.10	29223.93
450.28	29205.20
450.46	29137.33
450.65	28926.68
450.83	28922.00
451.02	28198.77
451.20	27969.40
451.39	28006.85
451.57	27737.69
451.76	28133.24
451.94	28074.73
452.13	27374.91
452.31	26452.73
452.49	24664.57
452.68	25348.00
452.86	25149.06
453.05	25827.81
453.23	26579.12
453.42	26939.57
453.60	27608.96
453.78	28060.68
453.97	27740.03
454.15	27796.20
454.34	27182.98
454.52	26962.97
454.70	26438.69
454.89	26787.43
455.07	26902.12
455.26	27056.59
455.44	28294.74
455.62	28751.14
455.81	28819.02
455.99	29010.94
456.17	28568.58
456.36	28496.02
456.54	29633.52
456.73	29457.98
456.91	29741.19
457.09	30045.46
457.28	30239.72
457.46	29422.87
457.64	29338.62
457.83	28149.62
458.01	27491.93
458.19	28325.16
458.38	28652.84
458.56	29563.31
458.74	29560.97
458.93	28676.24
459.11	28697.31
459.29	28613.05
459.48	28603.69
459.66	28701.99
459.84	28964.13
460.03	29680.33
460.21	29029.66
460.39	29715.44
460.57	30122.69
460.76	30361.43
460.94	30073.54
461.12	30005.67
461.31	29923.75
461.49	29797.36
461.67	30148.44
461.85	30941.88
462.04	30630.59
462.22	30948.90
462.40	30820.17
462.59	30614.21
462.77	30714.85
462.95	30569.74
463.13	30148.44
463.32	29986.94
463.50	29921.41
463.68	30031.41
463.86	29804.38
464.05	30008.01
464.23	28819.02
464.41	28957.11
464.59	28636.45
464.78	30015.03
464.96	29696.72
465.14	29352.66
465.32	30244.40
465.50	31442.76
465.69	31311.69
465.87	30665.70
466.05	29818.42
466.23	28528.79
466.41	27700.24
466.60	28615.39
466.78	28570.92
466.96	29053.07
467.14	29996.31
467.32	30185.89
467.51	30089.93
467.69	29034.35
467.87	29057.75
468.05	29734.17
468.23	30026.73
468.41	30143.76
468.60	30429.30
468.78	30328.66
468.96	29572.67
469.14	30405.90
469.32	30707.83
469.50	29624.16
469.69	29652.25
469.87	29027.32
470.05	28849.44
470.23	29172.44
470.41	29291.80
470.59	29305.85
470.77	29579.69
470.95	30815.49
471.14	30761.66
471.32	30412.92
471.50	32453.87
471.68	32367.27
471.86	32559.19
472.04	32936.02
472.22	33207.52
472.40	31433.39
472.58	31171.25
472.77	30478.46
472.95	31452.12
473.13	31608.93
473.31	31484.89
473.49	31096.36
473.67	32301.73
473.85	32119.17
474.03	33137.30
474.21	33198.16
474.39	33614.77
474.57	33359.66
474.75	34054.79
474.93	33586.69
475.12	32264.28
475.30	32624.73
475.48	32961.76
475.66	33085.81
475.84	33050.70
476.02	32484.30
476.20	32084.06
476.38	33088.15
476.56	33895.64
476.74	34340.34
476.92	34258.42
477.10	34864.62
477.28	35955.31
477.46	35503.59
477.64	36540.44
477.82	36297.03
478.00	36598.96
478.18	36018.50
478.36	35999.78
478.54	35929.56
478.72	36009.14
478.90	36952.38
479.08	38040.73
479.26	38476.07
479.44	38433.94
479.62	38464.36
479.80	37984.55
479.98	38412.87
480.16	38572.03
480.34	38440.96
480.52	38340.32
480.70	38684.37
480.88	38838.85
481.06	39852.30
481.24	39931.88
481.41	40474.88
481.59	41338.54
481.77	40538.08
481.95	39957.63
482.13	40229.13
482.31	40233.81
482.49	40959.38
482.67	40732.34
482.85	41277.69
483.03	42024.32
483.21	42073.47
483.39	42146.03
483.57	41315.14
483.74	40800.22
483.92	41544.51
484.10	41727.07
484.28	42487.74
484.46	42749.88
484.64	43157.14
484.82	42462.00
485.00	41422.80
485.18	41443.87
485.35	39756.34
485.53	37172.39
485.71	34230.33
485.89	33083.47
486.07	34799.08
486.25	38059.45
486.43	40226.79
486.61	41050.66
486.78	40891.50
486.96	40732.34
487.14	42920.74
487.32	43814.83
487.50	44893.82
487.68	45535.12
487.85	46129.62
488.03	46099.19
488.21	46164.73
488.39	45015.52
488.57	44325.07
488.75	43746.95
488.92	45172.34
489.10	47695.44
489.28	49099.76
489.46	49748.09
489.64	49605.31
489.81	49783.19
489.99	49521.05
490.17	49389.98
490.35	49890.86
490.53	49322.11
490.70	48837.62
490.88	48839.96
491.06	49998.52
491.24	49851.07
491.41	48921.88
491.59	46674.96
491.77	45820.67
491.95	47459.04
492.13	48505.26
492.30	49698.94
492.48	51395.82
492.66	51714.14
492.84	51489.45
493.01	51428.59
493.19	50483.01
493.37	50398.76
493.54	49890.86
493.72	50564.93
493.90	52095.64
494.08	52617.58
494.25	53066.97
494.43	53113.78
494.61	53354.85
494.79	53947.01
494.96	53476.56
495.14	52928.87
495.32	51639.24
495.49	50995.59
495.67	52465.45
495.85	53783.17
496.02	54152.97
496.20	53893.18
496.38	53598.27
496.55	53146.54
496.73	54071.06
496.91	53951.69
497.09	54705.34
497.26	54794.28
497.44	54485.33
497.62	53860.41
497.79	52879.72
497.97	51723.50
498.14	51810.10
498.32	52963.98
498.50	54096.80
498.67	54567.25
498.85	54457.24
499.03	54410.43
499.20	54951.10
499.38	55000.25
499.56	54770.88
499.73	53996.16
499.91	53883.81
500.08	53305.70
500.26	52493.54
500.44	52818.87
500.61	53675.51
500.79	53502.31
500.97	53181.65
501.14	52968.66
501.32	52765.04
501.49	52821.21
501.67	52945.26
501.84	53743.38
502.02	53787.85
502.20	54457.24
502.37	54417.46
502.55	54529.80
502.72	55164.09
502.90	55391.12
503.07	54897.27
503.25	55028.34
503.43	54141.27
503.60	53387.62
503.78	52554.39
503.95	52935.90
504.13	54578.95
504.30	55419.20
504.48	55075.15
504.65	54911.31
504.83	54593.00
505.01	55325.58
505.18	55770.28
505.36	56430.32
505.53	56493.51
505.71	56603.52
505.88	56750.97
506.06	56168.18
506.23	55697.73
506.41	55461.33
506.58	55728.16
506.76	55487.08
506.93	55683.69
507.11	55484.74
507.28	55599.43
507.46	55089.19
507.63	54340.22
507.81	54150.63
507.98	54520.44
508.16	55124.30
508.33	55751.56
508.50	56011.36
508.68	56385.85
508.85	56945.23
509.03	56793.10
509.20	56788.42
509.38	56212.65
509.55	55009.61
509.73	55203.88
509.90	55758.58
510.08	56439.68
510.25	55793.69
510.42	55856.88
510.60	55753.90
510.77	56023.06
510.95	56563.73
511.12	56690.12
511.30	57008.43
511.47	57511.64
511.64	57387.60
511.82	56875.02
511.99	55983.27
512.17	55688.37
512.34	55203.88
512.51	55313.88
512.69	55585.38
512.86	55667.30
513.04	56074.55
513.21	56055.83
513.38	55899.01
513.56	55339.63
513.73	54639.81
513.90	54967.48
514.08	55117.28
514.25	55381.76
514.43	55550.27
514.60	55655.60
514.77	55870.93
514.95	55751.56
515.12	55835.82
515.29	55889.65
515.47	56582.45
515.64	56853.95
515.81	56530.96
515.99	55976.25
516.16	54600.02
516.33	52126.07
516.51	49769.15
516.68	49317.43
516.85	48896.13
517.03	49074.01
517.20	52006.70
517.37	54901.95
517.54	56041.79
517.72	55526.87
517.89	52828.23
518.06	50234.92
518.24	50473.65
518.41	52853.98
518.58	54511.08
518.75	54733.43
518.93	54801.30
519.10	54759.17
519.27	55065.78
519.45	55503.46
519.62	56378.82
519.79	56488.83
519.96	56376.48
520.14	56018.38
520.31	54958.12
520.48	54857.48
520.65	55419.20
520.83	56385.85
521.00	56839.91
521.17	56472.45
521.34	55985.61
521.52	56133.07
521.69	56900.76
521.86	57254.18
522.03	57219.08
522.20	56088.60
522.38	54831.73
522.55	54419.80
522.72	55339.63
522.89	55531.55
523.07	55604.11
523.24	55917.74
523.41	56807.14
523.58	57155.88
523.75	57413.34
523.92	57394.62
524.10	57408.66
524.27	57535.05
524.44	57293.97
524.61	56938.21
524.78	57078.64
524.96	56664.37
525.13	56760.33
525.30	57183.97
525.47	57595.90
525.64	57326.74
525.81	56601.18
525.98	55274.09
526.16	53600.61
526.33	53099.73
526.50	52755.68
526.67	52322.68
526.84	52879.72
527.01	53696.57
527.18	54798.96
527.36	55730.50
527.53	56523.94
527.70	57027.15
527.87	56224.35
528.04	55786.67
528.21	56563.73
528.38	57020.13
528.55	57614.63
528.72	57993.79
528.89	58099.12
529.07	58014.86
529.24	57134.82
529.41	56552.02
529.58	55875.61
529.75	56107.32
529.92	56568.41
530.09	56875.02
530.26	57483.56
530.43	57450.79
530.60	57741.02
530.77	58075.71
530.94	57993.79
531.11	57481.22
531.28	57214.40
531.46	56947.57
531.63	57305.68
531.80	56877.36
531.97	56596.49
532.14	55994.98
532.31	54930.03
532.48	54281.70
532.65	54094.46
532.82	55021.31
532.99	56179.88
533.16	56545.00
533.33	57125.46
533.50	57020.13
533.67	56437.34
533.84	55866.25
534.01	56095.62
534.18	56310.95
534.35	56430.32
534.52	56362.44
534.69	56622.24
534.86	56992.04
535.03	57167.58
535.20	57666.12
535.37	57825.28
535.54	58042.95
535.71	57605.26
535.88	57411.00
536.05	56612.88
536.22	56327.33
536.38	55849.86
536.55	55753.90
536.72	54838.75
536.89	54815.35
537.06	55671.98
537.23	56577.77
537.40	56788.42
537.57	56765.01
537.74	56594.15
537.91	56708.84
538.08	56650.33
538.25	56624.58
538.42	56875.02
538.59	56495.85
538.75	56025.40
538.92	55845.18
539.09	55646.24
539.26	55358.35
539.43	55227.28
539.60	55292.82
539.77	55370.05
539.94	55285.79
540.11	54548.53
540.28	53858.07
540.44	54096.80
540.61	54457.24
540.78	54328.52
540.95	55185.15
541.12	55515.17
541.29	55936.46
541.46	56182.22
541.62	56200.94
541.79	55959.87
541.96	55423.89
542.13	55302.18
542.30	55805.39
542.47	55683.69
542.63	55618.15
542.80	55458.99
542.97	55339.63
543.14	54901.95
543.31	55519.85
543.48	55760.92
543.64	56631.60
543.81	56999.07
543.98	56779.06
544.15	56266.48
544.32	55702.41
544.48	55447.29
544.65	56184.56
544.82	56362.44
544.99	56104.98
545.16	55709.43
545.32	55274.09
545.49	56252.44
545.66	56631.60
545.83	56301.59
546.00	56030.08
546.16	55330.26
546.33	55569.00
546.50	55496.44
546.67	56245.41
546.83	55601.77
547.00	55791.35
547.17	54866.84
547.34	54464.27
547.50	54298.09
547.67	54536.82
547.84	54997.91
548.00	55150.04
548.17	55632.19
548.34	55615.81
548.51	55435.59
548.67	55728.16
548.84	55653.26
549.01	55796.03
549.18	55585.38
549.34	55529.21
549.51	55337.29
549.68	55470.70
549.84	55133.66
550.01	55269.41
550.18	55004.93
550.34	55098.55
550.51	54986.21
550.68	55044.72
550.84	54567.25
551.01	54787.26
551.18	54803.64
551.34	55281.11
551.51	55461.33
551.68	55529.21
551.84	55702.41
552.01	55498.78
552.18	55363.03
552.34	54742.79
552.51	54274.68
552.68	54096.80
552.84	54623.42
553.01	54700.66
553.18	54899.61
553.34	54478.31
553.51	55007.27
553.67	55316.22
553.84	55458.99
554.01	55079.83
554.17	55128.98
554.34	55320.90
554.51	55423.89
554.67	55454.31
554.84	55547.93
555.00	54923.01
555.17	54738.11
555.33	54604.70
555.50	54761.51
555.67	54735.77
555.83	54632.78
556.00	54248.94
556.16	54106.16
556.33	53827.64
556.50	53682.53
556.66	53738.70
556.83	53200.38
556.99	53532.73
557.16	53626.35
557.32	54092.12
557.49	54349.58
557.65	54220.85
557.82	54370.64
557.98	54010.20
558.15	53553.80
558.32	52683.12
558.48	51643.92
558.65	52079.26
558.81	52257.14
558.98	52559.07
559.14	52952.28
559.31	52999.09
559.47	53382.94
559.64	52678.44
559.80	52280.55
559.97	52406.94
560.13	53024.84
560.30	53982.12
560.46	54349.58
560.63	54784.92
560.79	54721.72
560.96	54183.40
561.12	53116.12
561.29	51983.30
561.45	52095.64
561.61	52748.65
561.78	53176.97
561.94	53205.06
562.11	52933.56
562.27	52807.17
562.44	52870.36
562.60	53462.52
562.77	53792.53
562.93	53530.39
563.10	53631.04
563.26	52769.72
563.42	52662.05
563.59	52676.10
563.75	52882.06
563.92	52458.43
564.08	52339.06
564.24	52846.96
564.41	53134.84
564.57	52851.64
564.74	52568.43
564.90	52678.44
565.07	52493.54
565.23	52067.56
565.39	51283.48
565.56	51236.67
565.72	50920.70
565.88	51248.37
566.05	51444.98
566.21	51569.02
566.38	51800.74
566.54	52093.30
566.70	52664.39
566.87	52877.38
567.03	52715.89
567.19	52760.36
567.36	52697.16
567.52	52390.55
567.68	52086.28
567.85	51255.39
568.01	50808.35
568.17	50513.44
568.34	50560.25
568.50	50796.65
568.66	50862.18
568.83	51016.66
568.99	51529.23
569.15	51758.61
569.32	51405.19
569.48	51349.01
569.64	50749.84
569.81	50522.80
569.97	50653.87
570.13	50316.84
570.30	49771.49
570.46	49598.29
570.62	48821.23
570.78	48758.04
570.95	49038.90
571.11	49528.08
571.27	50103.85
571.43	50365.99
571.60	50735.79
571.76	50908.99
571.92	51082.19
572.09	51529.23
572.25	51351.35
572.41	51306.88
572.57	51152.41
572.74	51231.99
572.90	50740.47
573.06	50738.13
573.22	50494.72
573.38	50522.80
573.55	50614.08
573.71	50670.26
573.87	50803.67
574.03	50295.77
574.20	50492.38
574.36	49769.15
574.52	49839.37
574.68	49595.95
574.84	49371.26
575.01	48811.87
575.17	48582.50
575.33	49237.85
575.49	48971.03
575.65	49448.50
575.82	49247.21
575.98	48582.50
576.14	49654.47
576.30	49516.37
576.46	49818.30
576.62	49642.76
576.79	49624.04
576.95	49092.74
577.11	49179.34
577.27	49198.06
577.43	49158.27
577.59	49041.24
577.75	48456.11
577.92	47531.60
578.08	47517.56
578.24	47196.90
578.40	47838.21
578.56	47983.32
578.72	48329.72
578.88	48484.20
579.04	48975.71
579.21	49059.97
579.37	48891.45
579.53	48673.78
579.69	48978.05
579.85	49207.42
580.01	48905.49
580.17	48039.50
580.33	48367.17
580.49	48275.89
580.65	48636.33
580.82	48381.21
580.98	48811.87
581.14	48500.58
581.30	48940.60
581.46	48435.05
581.62	48830.60
581.78	48804.85
581.94	48893.79
582.10	49027.20
582.26	49095.08
582.42	48924.22
582.58	49092.74
582.74	49052.95
582.90	48615.27
583.06	49052.95
583.22	48601.22
583.38	48699.53
583.54	48285.25
583.70	48505.26
583.86	48535.69
584.02	48287.59
584.18	48680.80
584.34	48044.18
584.50	48229.08
584.66	48385.89
584.82	47700.12
584.98	47187.54
585.14	47000.30
585.30	46368.35
