SpectraSuite Data File
++++++++++++++++++++++++++++++++++++
Date: Mon Oct 07 14:53:40 GMT-05:00 2013
User: price-jones
Dark Spectrum Present: No
Reference Spectrum Present: No
Number of Sampled Component Spectra: 1
Spectrometers: USB2+H05261
Integration Time (usec): 100000 (USB2+H05261)
Spectra Averaged: 1 (USB2+H05261)
Boxcar Smoothing: 0 (USB2+H05261)
Correct for Electrical Dark: No (USB2+H05261)
Strobe/Lamp Enabled: No (USB2+H05261)
Correct for Detector Non-linearity: No (USB2+H05261)
Correct for Stray Light: No (USB2+H05261)
Number of Pixels in Processed Spectrum: 2048
>>>>>Begin Processed Spectral Data<<<<<
365.73	0.00
365.92	0.00
366.12	0.00
366.32	0.00
366.52	0.00
366.72	0.00
366.91	0.00
367.11	0.00
367.31	0.00
367.51	0.00
367.70	0.00
367.90	0.00
368.10	0.00
368.30	0.00
368.49	0.00
368.69	0.00
368.89	0.00
369.09	0.00
369.28	0.00
369.48	0.00
369.68	0.00
369.87	0.00
370.07	0.00
370.27	0.00
370.47	465.77
370.66	2448.20
370.86	2829.71
371.06	3157.38
371.25	3288.45
371.45	2993.55
371.65	2679.91
371.84	2455.22
372.04	2401.39
372.24	2855.45
372.44	2932.69
372.63	3000.57
372.83	2787.58
373.03	2406.07
373.22	2284.36
373.42	2338.20
373.62	2729.06
373.81	2902.26
374.01	3023.97
374.21	2672.89
374.40	2572.25
374.60	2621.40
374.79	2918.65
374.99	3405.48
375.19	3768.26
375.38	3681.66
375.58	3452.29
375.78	3520.17
375.97	3452.29
376.17	3496.76
376.37	3555.27
376.56	3712.09
376.76	3789.33
376.95	4107.64
377.15	4510.21
377.35	4781.71
377.54	4755.97
377.74	4819.16
377.93	4880.02
378.13	4739.58
378.33	4540.64
378.52	4182.54
378.72	4053.81
378.91	3939.12
379.11	3913.38
379.31	3822.09
379.50	3693.37
379.70	4025.72
379.89	4414.25
380.09	4629.58
380.28	4847.25
380.48	4830.87
380.68	4826.18
380.87	4648.30
381.07	4285.52
381.26	3985.93
381.46	3749.54
381.65	3613.79
381.85	3559.95
382.04	3218.24
382.24	3208.87
382.43	3155.04
382.63	2920.99
382.83	2885.88
383.02	2876.52
383.22	2794.60
383.41	2974.82
383.61	3136.32
383.80	3424.20
384.00	4079.55
384.19	4482.13
384.39	4964.28
384.58	4821.50
384.78	4699.80
384.97	4753.63
385.17	4465.74
385.36	4198.92
385.56	4128.70
385.75	4182.54
385.95	4559.36
386.14	4873.00
386.34	5011.09
386.53	4739.58
386.72	4479.79
386.92	4491.49
387.11	4748.95
387.31	5048.54
387.50	4844.91
387.70	4561.70
387.89	4615.54
388.09	4748.95
388.28	4641.28
388.48	4905.76
388.67	5240.46
388.86	5687.50
389.06	5982.41
389.25	6537.12
389.45	6551.16
389.64	6499.67
389.84	6310.08
390.03	6218.80
390.22	6434.13
390.42	6359.24
390.61	7075.44
390.81	7265.02
391.00	7573.97
391.19	7386.73
391.39	7300.13
391.58	6785.21
391.78	6289.02
391.97	6197.74
392.16	5760.06
392.36	5273.23
392.55	4287.86
392.75	3370.37
392.94	2717.36
393.13	2656.51
393.33	3105.89
393.52	4018.70
393.71	5039.17
393.91	5841.98
394.10	6389.66
394.29	6803.94
394.49	7300.13
394.68	7728.45
394.88	7901.65
395.07	8407.20
395.26	8081.87
395.46	7735.47
395.65	7302.47
395.84	6626.06
396.04	5542.39
396.23	4566.39
396.42	3747.20
396.62	3527.19
396.81	4191.90
397.00	5252.16
397.19	6703.29
397.39	8030.38
397.58	8999.36
397.77	9451.08
397.97	10045.58
398.16	9853.66
398.35	10265.59
398.55	10867.11
398.74	10832.00
398.93	11199.46
399.12	11234.57
399.32	10700.93
399.51	10808.59
399.70	11587.99
399.90	11433.52
400.09	11590.33
400.28	11585.65
400.47	11445.22
400.67	12100.57
400.86	12449.31
401.05	12470.37
401.24	12475.06
401.44	12547.61
401.63	12702.09
401.82	12716.13
402.01	12840.18
402.21	12823.80
402.40	12877.63
402.59	12549.95
402.78	12133.34
402.97	11690.98
403.17	11925.03
403.36	12662.30
403.55	13291.90
403.74	13647.66
403.93	12772.30
404.13	12011.63
404.32	11728.42
404.51	12205.89
404.70	13294.24
404.89	13069.55
405.09	12861.24
405.28	12603.78
405.47	12578.04
405.66	12697.41
405.85	12219.94
406.05	11943.75
406.24	11976.52
406.43	12650.60
406.62	13013.38
406.81	13097.64
407.00	12863.58
407.20	12524.21
407.39	12407.18
407.58	13191.26
407.77	13502.55
407.96	14015.13
408.15	14410.68
408.34	14183.65
408.54	14862.40
408.73	15124.54
408.92	15157.31
409.11	14258.54
409.30	13900.44
409.49	13041.46
409.68	12105.25
409.87	11854.81
410.07	12318.24
410.26	13465.10
410.45	14319.40
410.64	14726.65
410.83	14979.43
411.02	15133.90
411.21	15819.68
411.40	16051.39
411.59	15840.75
411.78	15768.19
411.98	15707.34
412.17	15833.72
412.36	15627.76
412.55	15536.48
412.74	15143.27
412.93	14911.55
413.12	15136.24
413.31	16383.75
413.50	16650.57
413.69	17029.74
413.88	16308.85
414.07	15793.94
414.26	15934.37
414.45	16173.10
414.64	16460.99
414.83	16631.85
415.02	16631.85
415.22	16184.80
415.41	16524.18
415.60	17268.47
415.79	18066.60
415.98	18499.59
416.17	18295.97
416.36	17884.03
416.55	17708.49
416.74	17163.15
416.93	16596.74
417.12	16505.46
417.31	16692.70
417.50	17123.36
417.69	17525.93
417.88	17598.49
418.07	17404.22
418.26	17224.00
418.45	17224.00
418.64	17738.92
418.83	18801.52
419.02	18209.37
419.21	18075.96
419.39	17455.72
419.58	16465.67
419.77	16840.15
419.96	17474.44
420.15	18361.50
420.34	18420.02
420.53	19433.47
420.72	19470.92
420.91	19620.71
421.10	19293.04
421.29	19360.91
421.48	18593.22
421.67	19470.92
421.86	18991.11
422.05	17975.31
422.24	15927.35
422.43	15428.81
422.61	17205.28
422.80	18941.96
422.99	19192.39
423.18	17865.31
423.37	17837.22
423.56	18010.42
423.75	18160.22
423.94	18677.48
424.13	17530.61
424.32	17853.61
424.50	18031.49
424.69	17577.42
424.88	17792.75
425.07	17380.82
425.26	17600.83
425.45	17317.62
425.64	17022.72
425.83	17029.74
426.01	18043.19
426.20	18373.21
426.39	18317.03
426.58	17043.78
426.77	15688.61
426.96	15129.22
427.15	15644.14
427.33	16947.82
427.52	17846.58
427.71	17811.48
427.90	17582.10
428.09	17401.88
428.28	17139.74
428.46	16634.19
428.65	16079.48
428.84	16613.12
429.03	16886.97
429.22	16301.83
429.40	15360.94
429.59	13467.44
429.78	11960.14
429.97	12142.70
430.16	12556.97
430.34	12655.28
430.53	12376.75
430.72	12437.61
430.91	13855.97
431.10	16170.76
431.28	19431.13
431.47	21123.33
431.66	21219.30
431.85	19541.13
432.03	17799.77
432.22	16954.84
432.41	17598.49
432.60	19573.90
432.79	20786.30
432.97	20954.82
433.16	20615.44
433.35	18892.80
433.54	17156.13
433.72	15929.69
433.91	16470.35
434.10	18225.75
434.28	18902.17
434.47	20430.54
434.66	20081.80
434.85	19599.65
435.03	19494.32
435.22	20215.21
435.41	21067.16
435.59	21322.28
435.78	21699.11
435.97	22511.27
436.16	22314.67
436.34	22087.64
436.53	21216.96
436.72	21914.44
436.90	20503.09
437.09	20477.35
437.28	19814.98
437.46	20720.76
437.65	20608.42
437.84	19220.48
438.02	17970.63
438.21	17642.96
438.40	18569.81
438.58	20255.00
438.77	20936.09
438.96	20765.23
439.14	21827.84
439.33	22209.34
439.52	22604.89
439.70	22377.86
439.89	21860.60
440.08	21385.47
440.26	21137.38
440.45	21867.63
440.63	23119.81
440.82	24474.98
441.01	24020.92
441.19	23761.12
441.38	24336.89
441.57	25392.47
441.75	25294.17
441.94	25436.94
442.12	25612.48
442.31	25729.51
442.50	25565.67
442.68	25467.37
442.87	25113.95
443.05	24819.04
443.24	25191.19
443.43	25621.84
443.61	26288.90
443.80	26595.51
443.98	25088.20
444.17	25017.99
444.35	26022.08
444.54	27112.77
444.73	26630.62
444.91	25699.08
445.10	24809.68
445.28	23393.65
445.47	23321.10
445.65	23307.05
445.84	24203.48
446.02	24875.21
446.21	25207.57
446.39	25364.39
446.58	25659.29
446.77	25804.41
446.95	26174.21
447.14	26600.19
447.32	27314.05
447.51	26972.33
447.69	25628.87
447.88	25565.67
448.06	25633.55
448.25	26649.34
448.43	26663.38
448.62	26008.03
448.80	25984.63
448.99	25898.03
449.17	26560.40
449.36	26349.75
449.54	27461.51
449.73	27929.61
449.91	28191.75
450.10	29022.64
450.28	29462.66
450.46	29259.04
450.65	29596.07
450.83	29015.62
451.02	28166.01
451.20	28273.67
451.39	28383.68
451.57	27847.69
451.76	27840.67
451.94	27683.86
452.13	27292.99
452.31	26148.46
452.49	24716.06
452.68	25017.99
452.86	25621.84
453.05	25329.28
453.23	26178.89
453.42	26979.36
453.60	27688.54
453.78	27981.10
453.97	27433.42
454.15	27662.79
454.34	26930.20
454.52	27175.96
454.70	26590.83
454.89	27248.52
455.07	26867.01
455.26	27206.39
455.44	28479.64
455.62	28994.56
455.81	28973.49
455.99	28994.56
456.17	28276.01
456.36	28346.23
456.54	29359.68
456.73	29329.25
456.91	29867.58
457.09	29986.94
457.28	30881.03
457.46	29188.82
457.64	29048.39
457.83	28222.18
458.01	27475.55
458.19	28496.02
458.38	28362.61
458.56	29380.74
458.74	29619.48
458.93	28950.09
459.11	28982.85
459.29	28861.15
459.48	28400.06
459.66	28877.53
459.84	29193.50
460.03	29228.61
460.21	29476.71
460.39	30110.99
460.57	30075.88
460.76	30417.60
460.94	30309.94
461.12	30190.57
461.31	29937.79
461.49	29986.94
461.67	30146.10
461.85	31290.62
462.04	31037.84
462.22	31529.36
462.40	30841.24
462.59	30785.07
462.77	31033.16
462.95	30712.51
463.13	30600.16
463.32	30122.69
463.50	29947.15
463.68	30015.03
463.86	30621.23
464.05	29773.95
464.23	29008.60
464.41	29347.98
464.59	28596.67
464.78	29993.97
464.96	29722.46
465.14	29338.62
465.32	30015.03
465.50	30621.23
465.69	30895.07
465.87	30611.87
466.05	29839.49
466.23	28701.99
466.41	28032.60
466.60	28472.62
466.78	28524.11
466.96	29329.25
467.14	29853.53
467.32	30089.93
467.51	30438.67
467.69	28795.61
467.87	29675.65
468.05	29654.59
468.23	29717.78
468.41	29921.41
468.60	29855.87
468.78	30405.90
468.96	29486.07
469.14	30136.74
469.32	30630.59
469.50	29315.21
469.69	29387.77
469.87	28779.23
470.05	28971.15
470.23	28816.68
470.41	29163.08
470.59	29060.09
470.77	29956.52
470.95	29958.86
471.14	30462.07
471.32	30972.31
471.50	32596.64
471.68	32645.79
471.86	32821.33
472.04	32594.30
472.22	33205.18
472.40	31197.00
472.58	30878.69
472.77	30543.99
472.95	31321.05
473.13	32437.48
473.31	31538.72
473.49	31372.54
473.67	31803.20
473.85	32425.78
474.03	33273.06
474.21	33118.58
474.39	33481.36
474.57	33687.33
474.75	33504.77
474.93	33605.41
475.12	32903.25
475.30	32954.74
475.48	32676.22
475.66	33619.46
475.84	33118.58
476.02	32730.05
476.20	32416.42
476.38	33123.26
476.56	33455.62
476.74	34466.73
476.92	34689.08
477.10	35049.52
477.28	35957.65
477.46	36205.75
477.64	36299.37
477.82	36402.35
478.00	36503.00
478.18	35800.83
478.36	35515.29
478.54	36018.50
478.72	36062.97
478.90	37301.12
479.08	38038.39
479.26	38330.95
479.44	38206.90
479.62	38022.00
479.80	37996.26
479.98	38291.16
480.16	38902.04
480.34	38171.80
480.52	38700.76
480.70	38600.12
480.88	38859.91
481.06	39405.26
481.24	39709.53
481.41	40884.48
481.59	41720.05
481.77	41062.36
481.95	40662.13
482.13	40215.08
482.31	40383.60
482.49	41050.66
482.67	40952.35
482.85	41565.57
483.03	41670.90
483.21	41808.99
483.39	42117.94
483.57	41450.89
483.74	41067.04
483.92	41486.00
484.10	41682.60
484.28	42415.19
484.46	43185.22
484.64	43550.35
484.82	42043.04
485.00	42108.58
485.18	41240.24
485.35	39746.98
485.53	37158.34
485.71	34258.42
485.89	33233.27
486.07	34653.97
486.25	37977.53
486.43	39625.27
486.61	41184.07
486.78	40744.05
486.96	41310.46
487.14	43002.66
487.32	43807.81
487.50	44818.92
487.68	45670.87
487.85	46143.66
488.03	46349.63
488.21	45855.78
488.39	45027.23
488.57	44460.82
488.75	43899.09
488.92	44910.20
489.10	47365.42
489.28	49125.50
489.46	50080.44
489.64	49380.62
489.81	49918.95
489.99	49481.27
490.17	49720.00
490.35	50033.63
490.53	49497.65
490.70	49041.24
490.88	49066.99
491.06	50211.51
491.24	49944.69
491.41	49024.86
491.59	46822.42
491.77	45792.58
491.95	47306.91
492.13	48832.94
492.30	49937.67
492.48	50981.55
492.66	51515.19
492.84	51554.98
493.01	51278.80
493.19	50735.79
493.37	50431.52
493.54	50078.10
493.72	50756.86
493.90	51931.81
494.08	52828.23
494.25	53219.10
494.43	53223.78
494.61	53607.63
494.79	53876.79
494.96	53631.04
495.14	52966.32
495.32	51959.89
495.49	51072.83
495.67	52449.06
495.85	53822.96
496.02	54185.74
496.20	53970.41
496.38	53455.50
496.55	53408.68
496.73	53865.09
496.91	54092.12
497.09	54738.11
497.26	55093.87
497.44	54328.52
497.62	54110.85
497.79	53336.13
497.97	51641.58
498.14	51774.99
498.32	53155.91
498.50	53736.36
498.67	54834.07
498.85	54581.29
499.03	54602.36
499.20	54901.95
499.38	54955.78
499.56	54600.02
499.73	54314.47
499.91	53808.92
500.08	53244.85
500.26	52472.47
500.44	52945.26
500.61	53914.24
500.79	53511.67
500.97	53169.95
501.14	53029.52
501.32	52495.88
501.49	52814.19
501.67	53331.45
501.84	53542.10
502.02	54071.06
502.20	54061.69
502.37	54623.42
502.55	54651.51
502.72	55222.60
502.90	55676.66
503.07	55098.55
503.25	54754.49
503.43	54124.89
503.60	53375.92
503.78	52538.01
503.95	53038.88
504.13	54571.93
504.30	55458.99
504.48	55227.28
504.65	54923.01
504.83	54937.05
505.01	55468.36
505.18	55817.10
505.36	56619.90
505.53	56416.27
505.71	56797.78
505.88	56750.97
506.06	56268.82
506.23	56013.70
506.41	55449.63
506.58	55760.92
506.76	55693.05
506.93	55833.48
507.11	55419.20
507.28	55358.35
507.46	55042.38
507.63	54494.69
507.81	54227.87
507.98	54335.54
508.16	55330.26
508.33	55753.90
508.50	56137.75
508.68	56418.61
508.85	57010.77
509.03	57041.20
509.20	56659.69
509.38	56198.60
509.55	55323.24
509.73	55374.73
509.90	55927.10
510.08	56156.47
510.25	56214.99
510.42	56104.98
510.60	55828.80
510.77	56163.50
510.95	56507.55
511.12	56868.00
511.30	57263.55
511.47	57570.16
511.64	57298.65
511.82	57003.75
511.99	56200.94
512.17	55821.78
512.34	55283.45
512.51	55657.94
512.69	55887.31
512.86	55821.78
513.04	56165.84
513.21	56236.05
513.38	55952.85
513.56	55285.79
513.73	54805.98
513.90	55063.44
514.08	54979.18
514.25	55391.12
514.43	55725.81
514.60	55676.66
514.77	55966.89
514.95	56041.79
515.12	55908.38
515.29	56161.15
515.47	56619.90
515.64	56811.82
515.81	56367.12
515.99	55901.36
516.16	54354.26
516.33	51945.85
516.51	50319.18
516.68	49247.21
516.85	48767.40
517.03	49261.26
517.20	52149.48
517.37	54981.52
517.54	56254.78
517.72	55721.13
517.89	52978.03
518.06	50263.00
518.24	50586.00
518.41	52886.74
518.58	54684.28
518.75	54831.73
518.93	54784.92
519.10	54740.45
519.27	55316.22
519.45	55491.76
519.62	56268.82
519.79	56619.90
519.96	56285.20
520.14	55983.27
520.31	55281.11
520.48	55185.15
520.65	55447.29
520.83	56308.61
521.00	56800.12
521.17	56399.89
521.34	56203.28
521.52	56254.78
521.69	56903.10
521.86	57530.37
522.03	57076.30
522.20	55997.32
522.38	54937.05
522.55	54700.66
522.72	55145.36
522.89	55536.23
523.07	55487.08
523.24	55994.98
523.41	56788.42
523.58	57113.75
523.75	57855.70
523.92	57361.85
524.10	57518.67
524.27	57560.79
524.44	57364.19
524.61	57205.03
524.78	57029.49
524.96	56676.07
525.13	56851.61
525.30	57057.58
525.47	57757.40
525.64	57621.65
525.81	56800.12
525.98	55292.82
526.16	53628.69
526.33	53216.76
526.50	52446.72
526.67	52193.95
526.84	52919.51
527.01	53954.03
527.18	55082.17
527.36	55847.52
527.53	56704.16
527.70	57242.48
527.87	56430.32
528.04	55936.46
528.21	56519.26
528.38	57029.49
528.55	57916.56
528.72	58138.91
528.89	58094.44
529.07	57846.34
529.24	57256.53
529.41	56685.43
529.58	56016.04
529.75	56149.45
529.92	56516.92
530.09	56807.14
530.26	57462.49
530.43	57633.35
530.60	57811.23
530.77	57928.26
530.94	58005.50
531.11	57698.89
531.28	57336.10
531.46	57209.71
531.63	57270.57
531.80	56989.70
531.97	56673.73
532.14	56172.86
532.31	55040.04
532.48	54328.52
532.65	54391.71
532.82	54972.16
532.99	56275.84
533.16	56647.99
533.33	57347.81
533.50	56891.40
533.67	56308.61
533.84	55819.44
534.01	55999.66
534.18	56481.81
534.35	56685.43
534.52	56460.74
534.69	56549.68
534.86	56879.70
535.03	57209.71
535.20	57483.56
535.37	58190.40
535.54	58054.65
535.71	57818.25
535.88	57460.15
536.05	56734.59
536.22	56329.67
536.38	56161.15
536.55	55622.83
536.72	55044.72
536.89	54880.88
537.06	55959.87
537.23	56725.22
537.40	56886.72
537.57	56795.44
537.74	56882.04
537.91	56765.01
538.08	56736.93
538.25	56718.20
538.42	57017.79
538.59	56734.59
538.75	56076.90
538.92	55873.27
539.09	55714.11
539.26	55501.12
539.43	55222.60
539.60	55356.01
539.77	55627.51
539.94	55667.30
540.11	54798.96
540.28	54262.98
540.44	54068.72
540.61	54520.44
540.78	54754.49
540.95	55147.70
541.12	55480.06
541.29	55990.30
541.46	56135.41
541.62	56200.94
541.79	56093.28
541.96	55365.37
542.13	55271.75
542.30	55552.62
542.47	56371.80
542.63	55636.87
542.80	55302.18
542.97	55608.79
543.14	55470.70
543.31	55437.93
543.48	55779.65
543.64	56905.44
543.81	57141.84
543.98	56945.23
544.15	56467.76
544.32	55372.39
544.48	55807.73
544.65	56074.55
544.82	56577.77
544.99	56196.26
545.16	55877.95
545.32	55463.67
545.49	56275.84
545.66	56692.46
545.83	56458.40
546.00	56156.47
546.16	55784.33
546.33	55826.46
546.50	55817.10
546.67	56168.18
546.83	55667.30
547.00	55753.90
547.17	55091.53
547.34	54742.79
547.50	54461.93
547.67	54829.39
547.84	55136.00
548.00	55398.14
548.17	55810.07
548.34	55868.59
548.51	55470.70
548.67	55767.94
548.84	55948.17
549.01	55875.61
549.18	55889.65
549.34	55875.61
549.51	55732.84
549.68	55531.55
549.84	55302.18
550.01	55246.00
550.18	55009.61
550.34	54899.61
550.51	55271.75
550.68	55554.96
550.84	54918.33
551.01	54873.86
551.18	55042.38
551.34	55133.66
551.51	55580.70
551.68	55590.06
551.84	55873.27
552.01	55573.68
552.18	55468.36
552.34	54887.90
552.51	54045.31
552.68	54003.18
552.84	54658.53
553.01	54808.32
553.18	54541.50
553.34	54969.82
553.51	54855.14
553.67	55292.82
553.84	55732.84
554.01	55295.16
554.17	55285.79
554.34	55473.04
554.51	55482.40
554.67	55887.31
554.84	55477.72
555.00	55201.53
555.17	54944.08
555.33	55037.70
555.50	55011.95
555.67	54597.68
555.83	54897.27
556.00	54480.65
556.16	54426.82
556.33	53804.24
556.50	54010.20
556.66	53743.38
556.83	53577.20
556.99	53551.46
557.16	53600.61
557.32	53982.12
557.49	54452.56
557.65	54328.52
557.82	54349.58
557.98	53799.55
558.15	53724.66
558.32	52928.87
558.48	51756.27
558.65	52306.29
558.81	52378.85
558.98	52980.37
559.14	53024.84
559.31	52933.56
559.47	53195.70
559.64	52648.01
559.80	52456.09
559.97	52418.64
560.13	52931.22
560.30	54096.80
560.46	54321.49
560.63	54522.78
560.79	54871.52
560.96	54417.46
561.12	53404.00
561.29	52116.71
561.45	52217.35
561.61	52528.64
561.78	53198.04
561.94	53396.98
562.11	53296.34
562.27	53006.11
562.44	53275.27
562.60	53743.38
562.77	53925.94
562.93	53841.68
563.10	53546.78
563.26	52790.78
563.42	53088.03
563.59	52772.06
563.75	52619.92
563.92	52828.23
564.08	52952.28
564.24	53132.50
564.41	53258.89
564.57	52891.43
564.74	52809.51
564.90	52863.34
565.07	52472.47
565.23	52095.64
565.39	51440.29
565.56	51442.63
565.72	51019.00
565.88	51271.78
566.05	51449.66
566.21	51892.02
566.38	51997.34
566.54	52184.58
566.70	52484.17
566.87	52690.14
567.03	52952.28
567.19	53109.10
567.36	52673.76
567.52	52746.31
567.68	52402.25
567.85	51512.85
568.01	50951.12
568.17	50611.74
568.34	50698.34
568.50	50745.15
568.66	50583.66
568.83	51491.79
568.99	51573.70
569.15	51498.81
569.32	51529.23
569.48	51447.32
569.64	50883.25
569.81	50389.39
569.97	50962.82
570.13	50375.35
570.30	50169.38
570.46	49600.63
570.62	48439.73
570.78	48809.53
570.95	49242.53
571.11	49963.42
571.27	50328.54
571.43	50429.18
571.60	50740.47
571.76	51110.28
571.92	51372.42
572.09	51501.15
572.25	51526.89
572.41	51318.59
572.57	51065.81
572.74	51316.25
572.90	50590.68
573.06	50518.12
573.22	50752.18
573.38	50773.24
573.55	50761.54
573.71	50780.26
573.87	50930.06
574.03	50497.06
574.20	50344.92
574.36	50080.44
574.52	50501.74
574.68	49752.77
574.84	49329.13
575.01	49137.21
575.17	48687.82
575.33	49141.89
575.49	49404.03
575.65	49530.42
575.82	49319.77
575.98	49059.97
576.14	49233.17
576.30	49888.52
576.46	49764.47
576.62	49792.56
576.79	49844.05
576.95	49272.96
577.11	49282.32
577.27	49233.17
577.43	49652.12
577.59	49141.89
577.75	48641.01
577.92	48044.18
578.08	47421.59
578.24	47587.77
578.40	47906.08
578.56	48425.68
578.72	48355.47
578.88	48846.98
579.04	48914.86
579.21	49134.87
579.37	48837.62
579.53	49261.26
579.69	49279.98
579.85	49244.87
580.01	49380.62
580.17	48641.01
580.33	47903.74
580.49	48362.49
580.65	49076.35
580.82	49069.33
580.98	48994.43
581.14	48823.58
581.30	48994.43
581.46	48886.77
581.62	49017.84
581.78	49048.27
581.94	49361.90
582.10	49055.29
582.26	49265.94
582.42	49462.54
582.58	49221.47
582.74	49057.63
582.90	49198.06
583.06	49024.86
583.22	48996.77
583.38	48619.95
583.54	48648.03
583.70	48825.92
583.86	48732.29
584.02	48465.47
584.18	48552.07
584.34	48257.17
584.50	48046.52
584.66	48381.21
584.82	47587.77
584.98	47718.84
585.14	47395.85
585.30	46340.27
