SpectraSuite Data File
++++++++++++++++++++++++++++++++++++
Date: Mon Oct 07 14:53:26 GMT-05:00 2013
User: price-jones
Dark Spectrum Present: No
Reference Spectrum Present: No
Number of Sampled Component Spectra: 1
Spectrometers: USB2+H05261
Integration Time (usec): 100000 (USB2+H05261)
Spectra Averaged: 1 (USB2+H05261)
Boxcar Smoothing: 0 (USB2+H05261)
Correct for Electrical Dark: No (USB2+H05261)
Strobe/Lamp Enabled: No (USB2+H05261)
Correct for Detector Non-linearity: No (USB2+H05261)
Correct for Stray Light: No (USB2+H05261)
Number of Pixels in Processed Spectrum: 2048
>>>>>Begin Processed Spectral Data<<<<<
365.73	0.00
365.92	0.00
366.12	0.00
366.32	0.00
366.52	0.00
366.72	0.00
366.91	0.00
367.11	0.00
367.31	0.00
367.51	0.00
367.70	0.00
367.90	0.00
368.10	0.00
368.30	0.00
368.49	0.00
368.69	0.00
368.89	0.00
369.09	0.00
369.28	0.00
369.48	0.00
369.68	0.00
369.87	0.00
370.07	0.00
370.27	0.00
370.47	566.41
370.66	3478.04
370.86	3974.23
371.06	4294.88
371.25	4418.93
371.45	3962.53
371.65	3585.70
371.84	3358.67
372.04	3616.13
372.24	3990.61
372.44	4156.79
372.63	4018.70
372.83	3995.29
373.03	3356.33
373.22	3002.91
373.42	3241.64
373.62	3548.25
373.81	3981.25
374.01	4138.07
374.21	3578.68
374.40	3433.57
374.60	3585.70
374.79	3976.57
374.99	4613.20
375.19	4971.30
375.38	4966.62
375.58	4500.85
375.78	4629.58
375.97	4678.73
376.17	4882.36
376.37	4723.20
376.56	4990.02
376.76	5277.91
376.95	5460.47
377.15	6101.78
377.35	6143.91
377.54	6499.67
377.74	6633.08
377.93	6572.22
378.13	6221.14
378.33	5968.37
378.52	5682.82
378.72	5277.91
378.91	5212.37
379.11	5137.48
379.31	4957.25
379.50	4950.23
379.70	5289.61
379.89	5991.77
380.09	6293.70
380.28	6377.96
380.48	6403.71
380.68	6202.42
380.87	6265.61
381.07	5790.49
381.26	5172.58
381.46	4917.47
381.65	4779.37
381.85	4713.84
382.04	4447.02
382.24	4325.31
382.43	4081.89
382.63	3637.19
382.83	4067.85
383.02	3786.99
383.22	3751.88
383.41	3861.88
383.61	4187.22
383.80	4774.69
384.00	5352.81
384.19	5998.79
384.39	6368.60
384.58	6583.93
384.78	6211.78
384.97	6218.80
385.17	6061.99
385.36	5584.52
385.56	5514.30
385.75	5643.03
385.95	6008.16
386.14	6415.41
386.34	6621.38
386.53	6424.77
386.72	6040.92
386.92	5839.64
387.11	6305.40
387.31	6572.22
387.50	6478.60
387.70	6415.41
387.89	6064.33
388.09	6242.21
388.28	6270.30
388.48	6328.81
388.67	6768.83
388.86	7487.37
389.06	7995.27
389.25	8393.16
389.45	8594.45
389.64	8446.99
389.84	8344.01
390.03	8304.22
390.22	8297.20
390.42	8840.20
390.61	8954.89
390.81	9792.80
391.00	9736.63
391.19	9879.40
391.39	9362.14
391.58	8959.57
391.78	8425.93
391.97	8065.49
392.16	7716.75
392.36	7066.08
392.55	5406.64
392.75	4500.85
392.94	3726.13
393.13	3644.21
393.33	4215.30
393.52	5331.74
393.71	6644.78
393.91	7433.54
394.10	8028.04
394.29	9055.53
394.49	9657.05
394.68	10663.48
394.88	10246.87
395.07	10864.77
395.26	10445.81
395.46	10204.74
395.65	9605.56
395.84	8496.14
396.04	7178.42
396.23	5753.04
396.42	4926.83
396.62	4725.54
396.81	5584.52
397.00	7110.55
397.19	8947.87
397.39	10480.92
397.58	11854.81
397.77	12538.25
397.97	12989.97
398.16	13069.55
398.35	13652.34
398.55	13675.75
398.74	14633.03
398.93	15220.50
399.12	14478.55
399.32	13973.00
399.51	14361.53
399.70	15246.25
399.90	15094.11
400.09	15410.09
400.28	14960.70
400.47	15496.69
400.67	15817.34
400.86	16395.45
401.05	16350.98
401.24	16329.92
401.44	16704.40
401.63	16596.74
401.82	16985.27
402.01	16496.10
402.21	17088.25
402.40	17256.77
402.59	16271.40
402.78	15756.49
402.97	15468.60
403.17	16009.26
403.36	16854.20
403.55	17401.88
403.74	17694.45
403.93	16964.20
404.13	16039.69
404.32	15279.02
404.51	16297.15
404.70	17329.33
404.89	17095.27
405.09	16999.31
405.28	16404.81
405.47	16451.63
405.66	16730.15
405.85	16002.24
406.05	15707.34
406.24	15903.94
406.43	16563.97
406.62	17455.72
406.81	17525.93
407.00	16861.22
407.20	16465.67
407.39	16100.55
407.58	17186.55
407.77	17809.14
407.96	18412.99
408.15	18405.97
408.34	18628.32
408.54	19468.58
408.73	19506.02
408.92	19594.96
409.11	18946.64
409.30	17827.86
409.49	17015.69
409.68	15817.34
409.87	15059.01
410.07	16217.57
410.26	17453.37
410.45	18494.91
410.64	19007.49
410.83	19765.82
411.02	19997.54
411.21	21013.33
411.40	20900.98
411.59	20765.23
411.78	20673.95
411.98	20467.98
412.17	20774.60
412.36	20074.77
412.55	20067.75
412.74	19880.51
412.93	19438.15
413.12	19566.88
413.31	21596.12
413.50	21589.10
413.69	22040.82
413.88	21247.38
414.07	20563.95
414.26	20758.21
414.45	21991.67
414.64	21404.20
414.83	21818.47
415.02	21399.52
415.22	21247.38
415.41	21888.69
415.60	22319.35
415.79	23435.78
415.98	23711.97
416.17	23845.38
416.36	23166.62
416.55	22677.45
416.74	22155.51
416.93	21483.78
417.12	21579.74
417.31	21820.81
417.50	22061.89
417.69	23087.04
417.88	22862.35
418.07	22464.46
418.26	22548.72
418.45	22558.08
418.64	23325.78
418.83	24397.74
419.02	23707.29
419.21	23709.63
419.39	22581.49
419.58	21446.33
419.77	21287.17
419.96	22551.06
420.15	23990.49
420.34	24685.63
420.53	25525.88
420.72	25888.67
420.91	25797.38
421.10	25259.06
421.29	24952.45
421.48	24123.90
421.67	25352.68
421.86	24580.31
422.05	22841.29
422.24	20531.18
422.43	20535.86
422.61	22504.25
422.80	24474.98
422.99	24570.94
423.18	23480.25
423.37	23014.49
423.56	23185.35
423.75	23522.38
423.94	24058.37
424.13	22656.39
424.32	22871.72
424.50	23393.65
424.69	22707.88
424.88	22745.33
425.07	22487.87
425.26	22539.36
425.45	22352.12
425.64	21954.22
425.83	22045.51
426.01	23754.10
426.20	23894.53
426.39	23749.42
426.58	22129.77
426.77	20428.20
426.96	19557.52
427.15	20336.91
427.33	22345.09
427.52	22876.40
427.71	22916.19
427.90	22684.47
428.09	22508.93
428.28	22026.78
428.46	21200.57
428.65	21233.34
428.84	21458.03
429.03	21958.91
429.22	21060.14
429.40	19571.56
429.59	17902.76
429.78	15719.04
429.97	15882.88
430.16	15936.71
430.34	16243.32
430.53	16056.08
430.72	16439.92
430.91	18118.09
431.10	21577.40
431.28	25343.32
431.47	27367.88
431.66	27498.95
431.85	24950.11
432.03	23019.17
432.22	22260.84
432.41	23026.19
432.60	25544.61
432.79	26513.59
432.97	27428.74
433.16	26228.04
433.35	24430.51
433.54	21785.71
433.72	20446.92
433.91	21003.97
434.10	23608.98
434.28	25013.31
434.47	26579.12
434.66	25844.20
434.85	25223.95
435.03	25530.56
435.22	25811.43
435.41	27480.23
435.59	27417.04
435.78	27714.28
435.97	28507.72
436.16	28877.53
436.34	28329.84
436.53	27845.35
436.72	27751.73
436.90	26529.97
437.09	26441.03
437.28	25745.89
437.46	26588.49
437.65	26740.62
437.84	24987.56
438.02	22871.72
438.21	22244.45
438.40	24009.22
438.58	26047.82
438.77	26651.68
438.96	26878.71
439.14	28203.46
439.33	28643.48
439.52	28994.56
439.70	28472.62
439.89	27592.58
440.08	27061.27
440.26	26913.82
440.45	27803.22
440.63	29752.89
440.82	31337.43
441.01	31089.34
441.19	30644.63
441.38	31124.44
441.57	32247.90
441.75	32737.07
441.94	33259.01
442.12	32191.73
442.31	33593.71
442.50	32870.48
442.68	32786.22
442.87	32299.39
443.05	31632.34
443.24	32641.11
443.43	32968.79
443.61	33567.96
443.80	34078.20
443.98	32275.99
444.17	32086.40
444.35	34263.10
444.54	34316.93
444.73	34490.13
444.91	32858.78
445.10	31189.98
445.28	30125.04
445.47	29186.48
445.65	30323.98
445.84	30888.05
446.02	31845.33
446.21	32437.48
446.39	32662.18
446.58	32470.25
446.77	33198.16
446.95	33759.89
447.14	34651.63
447.32	35072.93
447.51	34258.42
447.69	32809.63
447.88	32643.45
448.06	33057.73
448.25	33858.19
448.43	34267.78
448.62	33757.55
448.80	33684.99
448.99	33425.19
449.17	33949.47
449.36	33596.05
449.54	35159.53
449.73	35196.98
449.91	36168.30
450.10	37310.48
450.28	37523.47
450.46	36943.02
450.65	36996.85
450.83	36542.78
451.02	35866.37
451.20	35700.19
451.39	35859.35
451.57	35672.10
451.76	35903.82
451.94	35749.34
452.13	34993.35
452.31	33610.09
452.49	31740.00
452.68	32098.11
452.86	32357.91
453.05	32638.77
453.23	33448.60
453.42	34260.76
453.60	35215.70
453.78	35826.58
453.97	34796.74
454.15	35508.27
454.34	34178.84
454.52	34843.56
454.70	33912.02
454.89	34480.77
455.07	34338.00
455.26	35330.39
455.44	36163.62
455.62	37064.72
455.81	37228.56
455.99	36704.28
456.17	36643.43
456.36	36966.42
456.54	37177.07
456.73	37408.78
456.91	38113.28
457.09	38005.62
457.28	38511.17
457.46	37518.79
457.64	37106.85
457.83	36121.49
458.01	34817.81
458.19	36491.29
458.38	36549.81
458.56	37504.74
458.74	37970.51
458.93	36725.35
459.11	36673.85
459.29	36481.93
459.48	36285.33
459.66	36299.37
459.84	36870.46
460.03	37514.11
460.21	36912.59
460.39	37909.66
460.57	38092.22
460.76	38799.06
460.94	38513.52
461.12	38162.43
461.31	38490.11
461.49	38391.81
461.67	37834.76
461.85	39283.55
462.04	38679.69
462.22	39503.56
462.40	39328.02
462.59	38909.07
462.77	39236.74
462.95	39538.67
463.13	38394.15
463.32	38487.77
463.50	38136.69
463.68	38017.32
463.86	38361.38
464.05	37694.33
464.23	36814.29
464.41	36510.02
464.59	36545.12
464.78	37790.29
464.96	37663.90
465.14	37315.16
465.32	38267.76
465.50	39655.70
465.69	39658.04
465.87	39253.12
466.05	38356.70
466.23	36217.45
466.41	35047.18
466.60	36648.11
466.78	36746.41
466.96	36940.68
467.14	37631.13
467.32	38188.18
467.51	38110.94
467.69	36477.25
467.87	37163.03
468.05	37750.50
468.23	38211.59
468.41	37858.17
468.60	37947.11
468.78	38527.56
468.96	37244.94
469.14	38438.62
469.32	39014.39
469.50	37392.40
469.69	37535.17
469.87	36615.34
470.05	36701.94
470.23	37017.91
470.41	37078.77
470.59	37399.42
470.77	37574.96
470.95	38562.67
471.14	38864.60
471.32	38550.96
471.50	41060.02
471.68	40788.52
471.86	41603.02
472.04	41291.73
472.22	41474.29
472.40	39536.33
472.58	39278.87
472.77	39398.24
472.95	39974.01
473.13	40760.43
473.31	39358.45
473.49	40046.57
473.67	40446.80
473.85	41001.50
474.03	41577.28
474.21	41708.35
474.39	42415.19
474.57	42539.24
474.75	42747.54
474.93	42225.60
475.12	41329.18
475.30	41336.20
475.48	41497.70
475.66	42209.22
475.84	41757.50
476.02	41291.73
476.20	40545.10
476.38	41518.76
476.56	42735.84
476.74	43159.48
476.92	43505.88
477.10	44119.10
477.28	44854.03
477.46	44985.10
477.64	45799.60
477.82	45734.07
478.00	45605.34
478.18	45106.80
478.36	45041.27
478.54	45221.49
478.72	45378.31
478.90	46422.19
479.08	47257.76
479.26	47920.13
479.44	47445.00
479.62	47129.03
479.80	47269.46
479.98	47655.65
480.16	47889.70
480.34	47435.64
480.52	47709.48
480.70	47866.30
480.88	48165.88
481.06	48725.27
481.24	48889.11
481.41	49844.05
481.59	50134.28
481.77	50185.77
481.95	49610.00
482.13	49549.14
482.31	49633.40
482.49	50176.40
482.67	50351.94
482.85	50143.64
483.03	50859.84
483.21	51133.68
483.39	50901.97
483.57	50532.17
483.74	50464.29
483.92	50358.97
484.10	50656.21
484.28	51379.44
484.46	51751.59
484.64	51999.68
484.82	51203.90
485.00	50841.12
485.18	50267.69
485.35	49106.78
485.53	46527.51
485.71	42487.74
485.89	41855.80
486.07	44121.44
486.25	47487.13
486.43	49663.83
486.61	50218.53
486.78	49940.01
486.96	50087.46
487.14	51358.38
487.32	52547.37
487.50	53223.78
487.68	53848.71
487.85	54419.80
488.03	54237.23
488.21	54164.68
488.39	53305.70
488.57	52940.58
488.75	52498.22
488.92	53446.13
489.10	55267.07
489.28	56692.46
489.46	57160.56
489.64	56849.27
489.81	57254.18
489.99	56566.07
490.17	56868.00
490.35	57172.27
490.53	56617.56
490.70	56484.15
490.88	56212.65
491.06	57038.86
491.24	57172.27
491.41	56458.40
491.59	54834.07
491.77	54372.99
491.95	55086.85
492.13	56207.97
492.30	57062.26
492.48	58003.16
492.66	58473.60
492.84	58422.11
493.01	58244.23
493.19	57874.43
493.37	57439.09
493.54	57202.69
493.72	57619.31
493.90	58752.13
494.08	59166.40
494.25	59512.80
494.43	59512.80
494.61	60095.60
494.79	60111.98
494.96	60001.97
495.14	59491.74
495.32	58553.18
495.49	58218.49
495.67	58866.81
495.85	60233.69
496.02	60573.06
496.20	60355.39
496.38	59950.48
496.55	59751.54
496.73	60142.41
496.91	60357.74
497.09	60753.29
497.26	61024.79
497.44	60617.53
497.62	59990.27
497.79	59388.75
497.97	58344.87
498.14	58377.64
498.32	59461.31
498.50	60441.99
498.67	60818.82
498.85	60528.59
499.03	60741.58
499.20	60858.61
499.38	60800.10
499.56	60882.02
499.73	60390.50
499.91	59807.71
500.08	59704.73
500.26	59096.19
500.44	59613.44
500.61	60193.90
500.79	60226.66
500.97	59451.95
501.14	59611.10
501.32	59089.16
501.49	59131.29
501.67	59576.00
501.84	59913.03
502.02	60310.92
502.20	60608.17
502.37	60687.75
502.55	60523.91
502.72	61183.94
502.90	61469.49
503.07	61403.95
503.25	60839.89
503.43	60121.34
503.60	59615.79
503.78	59037.67
503.95	59365.35
504.13	60575.40
504.30	61439.06
504.48	61083.30
504.65	60786.05
504.83	61029.47
505.01	61518.64
505.18	61811.21
505.36	62415.07
505.53	62389.32
505.71	62534.43
505.88	62635.08
506.06	62085.05
506.23	61656.73
506.41	61357.14
506.58	61488.21
506.76	61588.86
506.93	61675.46
507.11	61511.62
507.28	61448.42
507.46	61097.34
507.63	60582.43
507.81	60502.85
507.98	60629.24
508.16	61207.35
508.33	61808.87
508.50	62024.20
508.68	62246.55
508.85	62707.63
509.03	62606.99
509.20	62606.99
509.38	61923.55
509.55	61109.05
509.73	61244.80
509.90	61904.83
510.08	62101.43
510.25	62014.83
510.42	61778.44
510.60	61843.98
510.77	62173.99
510.95	62401.02
511.12	62557.84
511.30	62827.00
511.47	62941.69
511.64	63093.82
511.82	62728.70
511.99	61865.04
512.17	61539.71
512.34	61209.69
512.51	61420.34
512.69	61731.63
512.86	61733.97
513.04	62192.72
513.21	62227.82
513.38	61813.55
513.56	61357.14
513.73	60764.99
513.90	60865.63
514.08	61104.37
514.25	61251.82
514.43	61492.89
514.60	61710.56
514.77	61773.76
514.95	61991.43
515.12	61951.64
515.29	61921.21
515.47	62295.70
515.64	62564.86
515.81	62148.24
515.99	61794.82
516.16	60285.18
516.33	58389.34
516.51	57134.82
516.68	56528.62
516.85	56083.92
517.03	56406.91
517.20	58852.77
517.37	61006.06
517.54	61890.79
517.72	61537.36
517.89	59311.52
518.06	57200.35
518.24	57485.90
518.41	59426.20
518.58	60720.52
518.75	60783.71
518.93	60877.33
519.10	60598.81
519.27	61284.59
519.45	61373.53
519.62	62113.14
519.79	62307.40
519.96	62321.44
520.14	61705.88
520.31	61048.19
520.48	60900.74
520.65	61357.14
520.83	62080.37
521.00	62550.82
521.17	61998.45
521.34	61715.25
521.52	62143.56
521.69	62541.45
521.86	62670.18
522.03	62831.68
522.20	61729.29
522.38	60650.30
522.55	60584.77
522.72	61247.14
522.89	61450.77
523.07	61516.30
523.24	61939.94
523.41	62707.63
523.58	62953.39
523.75	63318.51
523.92	63063.39
524.10	63274.04
524.27	63084.46
524.44	62869.13
524.61	62667.84
524.78	62539.11
524.96	62429.11
525.13	62621.03
525.30	62899.56
525.47	63208.51
525.64	63061.05
525.81	62356.55
525.98	61268.20
526.16	59884.95
526.33	59526.84
526.50	59070.44
526.67	58880.86
526.84	59065.76
527.01	60198.58
527.18	61001.38
527.36	61616.94
527.53	62457.20
527.70	62485.28
527.87	62061.64
528.04	61722.27
528.21	62260.59
528.38	62791.89
528.55	63405.11
528.72	63561.93
528.89	63674.27
529.07	63531.50
529.24	62925.30
529.41	62298.04
529.58	61808.87
529.75	61834.61
529.92	62220.80
530.09	62728.70
530.26	63100.84
530.43	63358.30
530.60	63203.83
530.77	63421.50
530.94	63709.38
531.11	63105.52
531.28	62883.17
531.46	62679.55
531.63	63004.88
531.80	62906.58
531.97	62342.51
532.14	61689.50
532.31	60846.91
532.48	60229.01
532.65	60303.90
532.82	60987.34
532.99	62026.54
533.16	62457.20
533.33	62798.91
533.50	62681.89
533.67	61923.55
533.84	61745.67
534.01	61766.74
534.18	61991.43
534.35	62227.82
534.52	62216.12
534.69	62328.47
534.86	62724.02
535.03	62766.15
535.20	63203.83
535.37	63482.35
535.54	63524.48
535.71	63325.53
535.88	62969.77
536.05	62515.71
536.22	62007.81
536.38	61822.91
536.55	61319.70
536.72	60832.86
536.89	60821.16
537.06	61614.60
537.23	62419.75
537.40	62653.80
537.57	62761.47
537.74	62499.33
537.91	62480.60
538.08	62335.49
538.25	62136.54
538.42	62419.75
538.59	62309.74
538.75	61609.92
538.92	61598.22
539.09	61378.21
539.26	61272.88
539.43	60987.34
539.60	61137.13
539.77	61378.21
539.94	61389.91
540.11	60580.09
540.28	60030.06
540.44	60243.05
540.61	60203.26
540.78	60509.87
540.95	61113.73
541.12	61169.90
541.29	61680.14
541.46	61858.02
541.62	61769.08
541.79	61794.82
541.96	61186.28
542.13	61233.10
542.30	61595.88
542.47	61544.39
542.63	61291.61
542.80	61256.50
542.97	61399.27
543.14	61254.16
543.31	61165.22
543.48	61843.98
543.64	62429.11
543.81	62567.20
543.98	62326.13
544.15	61918.87
544.32	61247.14
544.48	61307.99
544.65	61808.87
544.82	62312.08
544.99	61867.38
545.16	61666.09
545.32	61385.23
545.49	61970.36
545.66	62405.70
545.83	61944.62
546.00	61799.50
546.16	61326.72
546.33	61492.89
546.50	61326.72
546.67	61975.05
546.83	61509.28
547.00	61509.28
547.17	60926.49
547.34	60168.15
547.50	60516.89
547.67	60757.97
547.84	60647.96
548.00	61151.18
548.17	61469.49
548.34	61460.13
548.51	61446.08
548.67	61497.58
548.84	61422.68
549.01	61509.28
549.18	61490.55
549.34	61251.82
549.51	61272.88
549.68	61441.40
549.84	61010.74
550.01	61123.09
550.18	61062.24
550.34	60992.02
550.51	61179.26
550.68	60947.55
550.84	60617.53
551.01	60615.19
551.18	60856.27
551.34	60863.29
551.51	61200.33
551.68	61359.48
551.84	61329.06
552.01	61186.28
552.18	61160.54
552.34	60315.61
552.51	60247.73
552.68	60083.89
552.84	60544.98
553.01	60788.39
553.18	60554.34
553.34	60825.84
553.51	60865.63
553.67	61078.62
553.84	61256.50
554.01	61031.81
554.17	61123.09
554.34	61134.79
554.51	61207.35
554.67	61352.46
554.84	61261.18
555.00	60935.85
555.17	60795.42
555.33	60903.08
555.50	60615.19
555.67	60804.78
555.83	60514.55
556.00	60353.05
556.16	60339.01
556.33	60095.60
556.50	59877.93
556.66	60137.72
556.83	59517.48
556.99	59730.47
557.16	59711.75
557.32	60226.66
557.49	60261.77
557.65	60156.45
557.82	60289.86
557.98	60189.22
558.15	59840.48
558.32	59138.32
558.48	58152.95
558.65	58447.86
558.81	58497.01
558.98	58972.14
559.14	59180.45
559.31	59393.43
559.47	59245.98
559.64	59100.87
559.80	58621.06
559.97	58714.68
560.13	59178.10
560.30	59875.58
560.46	60603.49
560.63	60598.81
560.79	60563.70
560.96	60200.92
561.12	59245.98
561.29	58426.79
561.45	58480.63
561.61	58995.54
561.78	59309.18
561.94	59255.34
562.11	59299.81
562.27	58927.67
562.44	59547.91
562.60	59531.53
562.77	59992.61
562.93	59585.36
563.10	59566.63
563.26	59140.66
563.42	59086.82
563.59	59086.82
563.75	59007.25
563.92	59070.44
564.08	59009.59
564.24	59243.64
564.41	59229.60
564.57	59124.27
564.74	59154.70
564.90	59021.29
565.07	58780.21
565.23	58354.24
565.39	57944.64
565.56	57895.49
565.72	57560.79
565.88	57911.88
566.05	58075.71
566.21	58115.50
566.38	58377.64
566.54	58431.47
566.70	58768.51
566.87	59025.97
567.03	58979.16
567.19	59203.85
567.36	58738.08
567.52	58927.67
567.68	58518.07
567.85	57949.32
568.01	57715.27
568.17	57535.05
568.34	57556.11
568.50	57322.06
568.66	57478.88
568.83	57729.31
568.99	57902.51
569.15	57958.69
569.32	57923.58
569.48	57614.63
569.64	57743.36
569.81	57317.38
569.97	57109.07
570.13	57165.24
570.30	56748.63
570.46	56617.56
570.62	55702.41
570.78	55950.51
570.95	55866.25
571.11	56783.74
571.27	56755.65
571.43	57029.49
571.60	57116.09
571.76	57359.51
571.92	57977.41
572.09	58035.92
572.25	58007.84
572.41	57755.06
572.57	57645.05
572.74	57750.38
572.90	57326.74
573.06	57368.87
573.22	57221.42
573.38	57457.81
573.55	57413.34
573.71	57710.59
573.87	57256.53
574.03	57233.12
574.20	57205.03
574.36	57116.09
574.52	56917.15
574.68	56659.69
574.84	56332.01
575.01	55999.66
575.17	55728.16
575.33	56334.35
575.49	56409.25
575.65	56556.70
575.82	56371.80
575.98	56088.60
576.14	56591.81
576.30	56666.71
576.46	56533.30
576.62	56472.45
576.79	56437.34
576.95	56009.02
577.11	56310.95
577.27	56395.21
577.43	56439.68
577.59	55938.80
577.75	55786.67
577.92	55105.57
578.08	54899.61
578.24	54892.58
578.40	55306.86
578.56	55430.91
578.72	55732.84
578.88	55662.62
579.04	55924.76
579.21	56093.28
579.37	55948.17
579.53	56039.45
579.69	56207.97
579.85	56156.47
580.01	56109.66
580.17	55550.27
580.33	55381.76
580.49	55681.34
580.65	55894.33
580.82	56102.64
580.98	56025.40
581.14	55856.88
581.30	56093.28
581.46	55845.18
581.62	55936.46
581.78	56165.84
581.94	56062.85
582.10	56023.06
582.26	56126.05
582.42	56011.36
582.58	56081.58
582.74	55880.29
582.90	56069.87
583.06	56177.54
583.22	55856.88
583.38	55924.76
583.54	55650.92
583.70	55929.44
583.86	55826.46
584.02	55365.37
584.18	55723.47
584.34	55646.24
584.50	55709.43
584.66	55323.24
584.82	55288.13
584.98	55000.25
585.14	54754.49
