SpectraSuite Data File
++++++++++++++++++++++++++++++++++++
Date: Mon Oct 07 14:53:17 GMT-05:00 2013
User: price-jones
Dark Spectrum Present: No
Reference Spectrum Present: No
Number of Sampled Component Spectra: 1
Spectrometers: USB2+H05261
Integration Time (usec): 100000 (USB2+H05261)
Spectra Averaged: 1 (USB2+H05261)
Boxcar Smoothing: 0 (USB2+H05261)
Correct for Electrical Dark: No (USB2+H05261)
Strobe/Lamp Enabled: No (USB2+H05261)
Correct for Detector Non-linearity: No (USB2+H05261)
Correct for Stray Light: No (USB2+H05261)
Number of Pixels in Processed Spectrum: 2048
>>>>>Begin Processed Spectral Data<<<<<
365.73	0.00
365.92	0.00
366.12	0.00
366.32	0.00
366.52	0.00
366.72	0.00
366.91	0.00
367.11	0.00
367.31	0.00
367.51	0.00
367.70	0.00
367.90	0.00
368.10	0.00
368.30	0.00
368.49	0.00
368.69	0.00
368.89	0.00
369.09	0.00
369.28	0.00
369.48	0.00
369.68	0.00
369.87	0.00
370.07	0.00
370.27	0.00
370.47	1493.26
370.66	6546.48
370.86	7536.52
371.06	8135.70
371.25	8065.49
371.45	7288.43
371.65	6736.06
371.84	6352.21
372.04	6459.88
372.24	7300.13
372.44	7449.93
372.63	7253.32
372.83	6782.87
373.03	6139.23
373.22	5715.59
373.42	6106.46
373.62	6977.14
373.81	7246.30
374.01	7077.78
374.21	6359.24
374.40	6143.91
374.60	6668.19
374.79	7449.93
374.99	8304.22
375.19	8751.26
375.38	8875.31
375.58	8334.65
375.78	8365.07
375.97	8395.50
376.17	8697.43
376.37	8704.45
376.56	8931.48
376.76	9355.12
376.95	9954.30
377.15	10544.11
377.35	11145.63
377.54	11290.74
377.74	11688.64
377.93	11632.46
378.13	11204.14
378.33	10548.79
378.52	9671.09
378.72	9762.37
378.91	9537.68
379.11	9137.45
379.31	8861.27
379.50	9167.88
379.70	9542.36
379.89	10778.17
380.09	11096.48
380.28	11379.68
380.48	11204.14
380.68	11152.65
380.87	10567.52
381.07	9951.96
381.26	9060.21
381.46	8594.45
381.65	8271.45
381.85	8248.05
382.04	8030.38
382.24	7253.32
382.43	6942.03
382.63	6801.60
382.83	6717.34
383.02	6703.29
383.22	6759.47
383.41	6965.43
383.61	7492.05
383.80	8533.59
384.00	9565.77
384.19	10548.79
384.39	11250.96
384.58	11014.56
384.78	10696.25
384.97	10696.25
385.17	9956.64
385.36	9490.87
385.56	9202.99
385.75	9785.78
385.95	10553.48
386.14	11274.36
386.34	11056.69
386.53	10574.54
386.72	10260.91
386.92	10303.04
387.11	10953.71
387.31	11461.60
387.50	11250.96
387.70	10721.99
387.89	10370.91
388.09	10757.10
388.28	10572.20
388.48	11005.20
388.67	11922.69
388.86	12889.33
389.06	13830.23
389.25	14396.64
389.45	14576.86
389.64	14651.75
389.84	14136.84
390.03	14003.43
390.22	14146.20
390.42	14616.65
390.61	15534.14
390.81	16650.57
391.00	16725.47
391.19	16315.87
391.39	16238.64
391.58	14991.13
391.78	14024.49
391.97	13486.17
392.16	12573.36
392.36	11529.48
392.55	9057.87
392.75	7124.59
392.94	6167.31
393.13	6223.48
393.33	7431.20
393.52	9378.53
393.71	11414.79
393.91	12856.56
394.10	13668.73
394.29	15112.84
394.49	16147.36
394.68	17231.02
394.88	17441.67
395.07	17837.22
395.26	18038.51
395.46	17378.48
395.65	16163.74
395.84	14094.71
396.04	11489.69
396.23	9628.96
396.42	8187.19
396.62	7957.82
396.81	9378.53
397.00	12023.33
397.19	15115.18
397.39	17752.96
397.58	19723.69
397.77	20627.14
397.97	21568.04
398.16	21848.90
398.35	22939.59
398.55	23316.42
398.74	23964.75
398.93	24107.52
399.12	24100.50
399.32	22991.08
399.51	24077.09
399.70	25415.88
399.90	25221.61
400.09	24891.60
400.28	24650.52
400.47	25179.48
400.67	25926.11
400.86	26595.51
401.05	26492.52
401.24	26773.39
401.44	27730.67
401.63	27360.86
401.82	27557.47
402.01	27758.75
402.21	28070.04
402.40	28238.56
402.59	27199.37
402.78	25406.52
402.97	25514.18
403.17	26132.08
403.36	27819.61
403.55	28477.30
403.74	29270.74
403.93	27962.38
404.13	25790.36
404.32	25228.63
404.51	26426.99
404.70	28519.43
404.89	28444.53
405.09	27681.52
405.28	27082.34
405.47	27171.28
405.66	26876.37
405.85	26075.91
406.05	25717.81
406.24	26466.78
406.43	27468.53
406.62	27735.35
406.81	28107.49
407.00	26948.93
407.20	26654.02
407.39	26637.64
407.58	28126.22
407.77	28786.25
407.96	29837.15
408.15	30298.23
408.34	30136.74
408.54	31784.48
408.73	31796.18
408.92	31346.79
409.11	30347.39
409.30	28936.04
409.49	27136.17
409.68	25830.15
409.87	24882.24
410.07	26597.85
410.26	28739.44
410.45	30684.42
410.64	31377.22
410.83	32161.30
411.02	32870.48
411.21	33483.70
411.40	33078.79
411.59	33460.30
411.78	33146.67
411.98	32678.56
412.17	33085.81
412.36	32769.84
412.55	33153.69
412.74	32238.54
412.93	31627.66
413.12	31683.83
413.31	35136.12
413.50	34890.37
413.69	35594.87
413.88	33984.58
414.07	33277.74
414.26	33551.58
414.45	34998.03
414.64	35328.05
414.83	35117.40
415.02	34373.11
415.22	34349.70
415.41	35213.36
415.60	36650.45
415.79	37848.80
415.98	38249.03
416.17	37923.70
416.36	36762.79
416.55	36940.68
416.74	35353.79
416.93	34763.98
417.12	34043.09
417.31	35204.00
417.50	35594.87
417.69	36655.13
417.88	36917.27
418.07	35950.63
418.26	35702.53
418.45	36364.90
418.64	37446.23
418.83	38178.82
419.02	37876.89
419.21	37553.90
419.39	35765.73
419.58	34462.05
419.77	34534.60
419.96	36378.95
420.15	37626.45
420.34	38782.68
420.53	40308.71
420.72	40549.78
420.91	41010.87
421.10	40430.41
421.29	40016.14
421.48	38382.45
421.67	40409.35
421.86	38663.31
422.05	36194.04
422.24	33158.37
422.43	32914.95
422.61	35964.67
422.80	39033.11
422.99	38485.43
423.18	37476.66
423.37	37046.00
423.56	37216.86
423.75	37689.65
423.94	38387.13
424.13	36175.32
424.32	36975.78
424.50	36547.47
424.69	36058.29
424.88	36622.36
425.07	36538.10
425.26	36126.17
425.45	35552.74
425.64	35412.31
425.83	35452.09
426.01	37350.27
426.20	37872.21
426.39	37914.34
426.58	35166.55
426.77	32996.87
426.96	31285.94
427.15	32613.02
427.33	35473.16
427.52	36776.84
427.71	36376.61
427.90	36140.21
428.09	36027.87
428.28	35276.55
428.46	33752.87
428.65	33858.19
428.84	34972.28
429.03	34829.51
429.22	33226.24
429.40	31557.44
429.59	28341.55
429.78	25238.00
429.97	25759.94
430.16	25371.41
430.34	25560.99
430.53	26024.42
430.72	26478.48
430.91	29586.71
431.10	34558.01
431.28	40069.97
431.47	42192.84
431.66	42663.28
431.85	39557.39
432.03	36030.21
432.22	35056.54
432.41	36858.76
432.60	40292.32
432.79	41865.16
432.97	42623.50
433.16	40865.75
433.35	37666.24
433.54	33963.51
433.72	32725.37
433.91	33963.51
434.10	37848.80
434.28	40027.84
434.47	42073.47
434.66	41127.89
434.85	40201.04
435.03	39976.35
435.22	41242.58
435.41	42960.53
435.59	42752.23
435.78	43831.21
435.97	44591.89
436.16	44671.46
436.34	44081.65
436.53	43555.03
436.72	44018.46
436.90	41684.94
437.09	41418.12
437.28	40336.79
437.46	42019.64
437.65	42012.62
437.84	39159.50
438.02	36158.94
438.21	36481.93
438.40	38181.16
438.58	40596.59
438.77	42204.54
438.96	42581.37
439.14	43988.03
439.33	44779.13
439.52	45553.85
439.70	44285.28
439.89	43796.10
440.08	42504.13
440.26	42590.73
440.45	44093.35
440.63	45918.97
440.82	48193.97
441.01	47208.61
441.19	47288.18
441.38	48488.88
441.57	49146.57
441.75	49485.95
441.94	49895.54
442.12	49661.49
442.31	50532.17
442.50	50473.65
442.68	49764.47
442.87	49462.54
443.05	48893.79
443.24	49750.43
443.43	50351.94
443.61	50478.33
443.80	50962.82
443.98	49092.74
444.17	49160.61
444.35	50983.89
444.54	51686.05
444.73	51407.53
444.91	49485.95
445.10	48367.17
445.28	46796.67
445.47	45940.04
445.65	46452.61
445.84	47887.36
446.02	48619.95
446.21	49502.33
446.39	49518.71
446.58	49827.66
446.77	50499.40
446.95	50623.45
447.14	51842.87
447.32	52058.20
447.51	51327.95
447.69	49813.62
447.88	49895.54
448.06	50504.08
448.25	51213.26
448.43	51332.63
448.62	50143.64
448.80	50073.42
448.99	50492.38
449.17	50815.37
449.36	50387.05
449.54	51915.42
449.73	52332.04
449.91	52905.47
450.10	53818.28
450.28	53972.75
450.46	53804.24
450.65	54003.18
450.83	53481.24
451.02	52982.71
451.20	52837.59
451.39	52772.06
451.57	52872.70
451.76	52739.29
451.94	52322.68
452.13	51798.40
452.31	49890.86
452.49	48409.30
452.68	48804.85
452.86	49017.84
453.05	49923.63
453.23	50951.12
453.42	51489.45
453.60	52102.67
453.78	52423.32
453.97	52229.05
454.15	52406.94
454.34	51615.83
454.52	51777.33
454.70	51047.08
454.89	51124.32
455.07	51274.12
455.26	51908.40
455.44	52896.11
455.62	53708.27
455.81	53371.24
455.99	53687.21
456.17	53242.51
456.36	53155.91
456.54	54089.78
456.73	54436.18
456.91	54773.22
457.09	54843.43
457.28	55306.86
457.46	54124.89
457.64	53696.57
457.83	52797.80
458.01	52215.01
458.19	53324.43
458.38	53406.34
458.56	54590.66
458.74	54120.21
458.93	53708.27
459.11	53394.64
459.29	53144.20
459.48	53614.65
459.66	53226.12
459.84	53642.74
460.03	54167.02
460.21	54085.10
460.39	54834.07
460.57	54574.27
460.76	54986.21
460.94	54791.94
461.12	54534.48
461.31	54937.05
461.49	54822.37
461.67	54717.04
461.85	55674.32
462.04	55557.30
462.22	55451.97
462.40	55402.82
462.59	55470.70
462.77	55463.67
462.95	55538.57
463.13	54810.67
463.32	54691.30
463.50	54691.30
463.68	54714.70
463.86	54604.70
464.05	54202.13
464.23	53521.03
464.41	53481.24
464.59	53214.42
464.78	54773.22
464.96	54665.55
465.14	54031.27
465.32	55114.94
465.50	55657.94
465.69	56130.73
465.87	55103.23
466.05	54471.29
466.23	52765.04
466.41	52528.64
466.60	53308.04
466.78	53226.12
466.96	53834.66
467.14	54178.72
467.32	54607.04
467.51	55018.97
467.69	53251.87
467.87	53951.69
468.05	54321.49
468.23	54213.83
468.41	54319.15
468.60	54213.83
468.78	54527.46
468.96	54164.68
469.14	55021.31
469.32	55358.35
469.50	53771.47
469.69	53951.69
469.87	53481.24
470.05	53268.25
470.23	53357.19
470.41	53757.42
470.59	53773.81
470.77	54176.38
470.95	54691.30
471.14	54913.65
471.32	54965.14
471.50	56779.06
471.68	56526.28
471.86	56889.06
472.04	57104.39
472.22	57055.24
472.40	55805.39
472.58	55674.32
472.77	55061.10
472.95	55531.55
473.13	56467.76
473.31	55987.95
473.49	55828.80
473.67	56324.99
473.85	56530.96
474.03	57420.36
474.21	57261.21
474.39	57279.93
474.57	57497.60
474.75	57542.07
474.93	57223.76
475.12	56755.65
475.30	56664.37
475.48	57083.33
475.66	57324.40
475.84	57176.95
476.02	56900.76
476.20	56638.62
476.38	57127.80
476.56	57766.76
476.74	57970.39
476.92	58307.43
477.10	58525.10
477.28	59461.31
477.46	59346.62
477.64	59494.08
477.82	59393.43
478.00	59547.91
478.18	59042.35
478.36	59299.81
478.54	59229.60
478.72	59629.83
478.90	60074.53
479.08	60547.32
479.26	60921.80
479.44	60818.82
479.62	60662.00
479.80	60516.89
479.98	60786.05
480.16	60781.37
480.34	60591.79
480.52	60935.85
480.70	61078.62
480.88	61329.06
481.06	61577.15
481.24	61745.67
481.41	62485.28
481.59	62967.43
481.77	62702.95
481.95	62106.12
482.13	61935.26
482.31	62089.73
482.49	62585.92
482.67	62489.96
482.85	62705.29
483.03	62922.96
483.21	63224.89
483.39	63222.55
483.57	62555.50
483.74	62501.67
483.92	62649.12
484.10	62698.27
484.28	63234.25
484.46	63643.85
484.64	63945.78
484.82	63414.47
485.00	63089.14
485.18	62429.11
485.35	61808.87
485.53	59620.47
485.71	57308.02
485.89	57190.99
486.07	58721.70
486.25	60994.36
486.43	62049.94
486.61	62337.83
486.78	62377.62
486.96	62314.42
487.14	63285.75
487.32	63901.31
487.50	64530.91
487.68	65083.28
487.85	65364.14
488.03	65457.76
488.21	65076.26
488.39	64509.85
488.57	64048.76
488.75	64165.79
488.92	64779.01
489.10	65535.00
489.28	65535.00
489.46	65535.00
489.64	65535.00
489.81	65535.00
489.99	65535.00
490.17	65535.00
490.35	65535.00
490.53	65535.00
490.70	65535.00
490.88	65535.00
491.06	65535.00
491.24	65535.00
491.41	65535.00
491.59	65535.00
491.77	65535.00
491.95	65535.00
492.13	65535.00
492.30	65535.00
492.48	65535.00
492.66	65535.00
492.84	65535.00
493.01	65535.00
493.19	65535.00
493.37	65535.00
493.54	65535.00
493.72	65535.00
493.90	65535.00
494.08	65535.00
494.25	65535.00
494.43	65535.00
494.61	65535.00
494.79	65535.00
494.96	65535.00
495.14	65535.00
495.32	65535.00
495.49	65535.00
495.67	65535.00
495.85	65535.00
496.02	65535.00
496.20	65535.00
496.38	65535.00
496.55	65535.00
496.73	65535.00
496.91	65535.00
497.09	65535.00
497.26	65535.00
497.44	65535.00
497.62	65535.00
497.79	65535.00
497.97	65535.00
498.14	65535.00
498.32	65535.00
498.50	65535.00
498.67	65535.00
498.85	65535.00
499.03	65535.00
499.20	65535.00
499.38	65535.00
499.56	65535.00
499.73	65535.00
499.91	65535.00
500.08	65535.00
500.26	65535.00
500.44	65535.00
500.61	65535.00
500.79	65535.00
500.97	65535.00
501.14	65535.00
501.32	65535.00
501.49	65535.00
501.67	65535.00
501.84	65535.00
502.02	65535.00
502.20	65535.00
502.37	65535.00
502.55	65535.00
502.72	65535.00
502.90	65535.00
503.07	65535.00
503.25	65535.00
503.43	65535.00
503.60	65535.00
503.78	65535.00
503.95	65535.00
504.13	65535.00
504.30	65535.00
504.48	65535.00
504.65	65535.00
504.83	65535.00
505.01	65535.00
505.18	65535.00
505.36	65535.00
505.53	65535.00
505.71	65535.00
505.88	65535.00
506.06	65535.00
506.23	65535.00
506.41	65535.00
506.58	65535.00
506.76	65535.00
506.93	65535.00
507.11	65535.00
507.28	65535.00
507.46	65535.00
507.63	65535.00
507.81	65535.00
507.98	65535.00
508.16	65535.00
508.33	65535.00
508.50	65535.00
508.68	65535.00
508.85	65535.00
509.03	65535.00
509.20	65535.00
509.38	65535.00
509.55	65535.00
509.73	65535.00
509.90	65535.00
510.08	65535.00
510.25	65535.00
510.42	65535.00
510.60	65535.00
510.77	65535.00
510.95	65535.00
511.12	65535.00
511.30	65535.00
511.47	65535.00
511.64	65535.00
511.82	65535.00
511.99	65535.00
512.17	65535.00
512.34	65535.00
512.51	65535.00
512.69	65535.00
512.86	65535.00
513.04	65535.00
513.21	65535.00
513.38	65535.00
513.56	65535.00
513.73	65535.00
513.90	65535.00
514.08	65535.00
514.25	65535.00
514.43	65535.00
514.60	65535.00
514.77	65535.00
514.95	65535.00
515.12	65535.00
515.29	65535.00
515.47	65535.00
515.64	65535.00
515.81	65535.00
515.99	65535.00
516.16	65535.00
516.33	65535.00
516.51	65535.00
516.68	65535.00
516.85	65535.00
517.03	65535.00
517.20	65535.00
517.37	65535.00
517.54	65535.00
517.72	65535.00
517.89	65535.00
518.06	65535.00
518.24	65535.00
518.41	65535.00
518.58	65535.00
518.75	65535.00
518.93	65535.00
519.10	65535.00
519.27	65535.00
519.45	65535.00
519.62	65535.00
519.79	65535.00
519.96	65535.00
520.14	65535.00
520.31	65535.00
520.48	65535.00
520.65	65535.00
520.83	65535.00
521.00	65535.00
521.17	65535.00
521.34	65535.00
521.52	65535.00
521.69	65535.00
521.86	65535.00
522.03	65535.00
522.20	65535.00
522.38	65535.00
522.55	65535.00
522.72	65535.00
522.89	65535.00
523.07	65535.00
523.24	65535.00
523.41	65535.00
523.58	65535.00
523.75	65535.00
523.92	65535.00
524.10	65535.00
524.27	65535.00
524.44	65535.00
524.61	65535.00
524.78	65535.00
524.96	65535.00
525.13	65535.00
525.30	65535.00
525.47	65535.00
525.64	65535.00
525.81	65535.00
525.98	65535.00
526.16	65535.00
526.33	65535.00
526.50	65535.00
526.67	65535.00
526.84	65535.00
527.01	65535.00
527.18	65535.00
527.36	65535.00
527.53	65535.00
527.70	65535.00
527.87	65535.00
528.04	65535.00
528.21	65535.00
528.38	65535.00
528.55	65535.00
528.72	65535.00
528.89	65535.00
529.07	65535.00
529.24	65535.00
529.41	65535.00
529.58	65535.00
529.75	65535.00
529.92	65535.00
530.09	65535.00
530.26	65535.00
530.43	65535.00
530.60	65535.00
530.77	65535.00
530.94	65535.00
531.11	65535.00
531.28	65535.00
531.46	65535.00
531.63	65535.00
531.80	65535.00
531.97	65535.00
532.14	65535.00
532.31	65535.00
532.48	65535.00
532.65	65535.00
532.82	65535.00
532.99	65535.00
533.16	65535.00
533.33	65535.00
533.50	65535.00
533.67	65535.00
533.84	65535.00
534.01	65535.00
534.18	65535.00
534.35	65535.00
534.52	65535.00
534.69	65535.00
534.86	65535.00
535.03	65535.00
535.20	65535.00
535.37	65535.00
535.54	65535.00
535.71	65535.00
535.88	65535.00
536.05	65535.00
536.22	65535.00
536.38	65535.00
536.55	65535.00
536.72	65535.00
536.89	65535.00
537.06	65535.00
537.23	65535.00
537.40	65535.00
537.57	65535.00
537.74	65535.00
537.91	65535.00
538.08	65535.00
538.25	65535.00
538.42	65535.00
538.59	65535.00
538.75	65535.00
538.92	65535.00
539.09	65535.00
539.26	65535.00
539.43	65535.00
539.60	65535.00
539.77	65535.00
539.94	65535.00
540.11	65535.00
540.28	65535.00
540.44	65535.00
540.61	65535.00
540.78	65535.00
540.95	65535.00
541.12	65535.00
541.29	65535.00
541.46	65535.00
541.62	65535.00
541.79	65535.00
541.96	65535.00
542.13	65535.00
542.30	65535.00
542.47	65535.00
542.63	65535.00
542.80	65535.00
542.97	65535.00
543.14	65535.00
543.31	65535.00
543.48	65535.00
543.64	65535.00
543.81	65535.00
543.98	65535.00
544.15	65535.00
544.32	65535.00
544.48	65535.00
544.65	65535.00
544.82	65535.00
544.99	65535.00
545.16	65535.00
545.32	65535.00
545.49	65535.00
545.66	65535.00
545.83	65535.00
546.00	65535.00
546.16	65535.00
546.33	65535.00
546.50	65535.00
546.67	65535.00
546.83	65535.00
547.00	65535.00
547.17	65535.00
547.34	65535.00
547.50	65535.00
547.67	65535.00
547.84	65535.00
548.00	65535.00
548.17	65535.00
548.34	65535.00
548.51	65535.00
548.67	65535.00
548.84	65535.00
549.01	65535.00
549.18	65535.00
549.34	65535.00
549.51	65535.00
549.68	65535.00
549.84	65535.00
550.01	65535.00
550.18	65535.00
550.34	65535.00
550.51	65535.00
550.68	65535.00
550.84	65535.00
551.01	65535.00
551.18	65535.00
551.34	65535.00
551.51	65535.00
551.68	65535.00
551.84	65535.00
552.01	65535.00
552.18	65535.00
552.34	65535.00
552.51	65535.00
552.68	65535.00
552.84	65535.00
553.01	65535.00
553.18	65535.00
553.34	65535.00
553.51	65535.00
553.67	65535.00
553.84	65535.00
554.01	65535.00
554.17	65535.00
554.34	65535.00
554.51	65535.00
554.67	65535.00
554.84	65535.00
555.00	65535.00
555.17	65535.00
555.33	65535.00
555.50	65535.00
555.67	65535.00
555.83	65535.00
556.00	65535.00
556.16	65535.00
556.33	65535.00
556.50	65535.00
556.66	65535.00
556.83	65535.00
556.99	65535.00
557.16	65535.00
557.32	65535.00
557.49	65535.00
557.65	65535.00
557.82	65535.00
557.98	65535.00
558.15	65535.00
558.32	65535.00
558.48	65535.00
558.65	65535.00
558.81	65535.00
558.98	65535.00
559.14	65535.00
559.31	65535.00
559.47	65535.00
559.64	65535.00
559.80	65535.00
559.97	65535.00
560.13	65535.00
560.30	65535.00
560.46	65535.00
560.63	65535.00
560.79	65535.00
560.96	65535.00
561.12	65535.00
561.29	65535.00
561.45	65535.00
561.61	65535.00
561.78	65535.00
561.94	65535.00
562.11	65535.00
562.27	65535.00
562.44	65535.00
562.60	65535.00
562.77	65535.00
562.93	65535.00
563.10	65535.00
563.26	65535.00
563.42	65535.00
563.59	65535.00
563.75	65535.00
563.92	65535.00
564.08	65535.00
564.24	65535.00
564.41	65535.00
564.57	65535.00
564.74	65535.00
564.90	65535.00
565.07	65535.00
565.23	65535.00
565.39	65535.00
565.56	65535.00
565.72	65535.00
565.88	65535.00
566.05	65535.00
566.21	65535.00
566.38	65535.00
566.54	65535.00
566.70	65535.00
566.87	65535.00
567.03	65535.00
567.19	65535.00
567.36	65535.00
567.52	65535.00
567.68	65535.00
567.85	65535.00
568.01	65535.00
568.17	65535.00
568.34	65535.00
568.50	65535.00
568.66	65535.00
568.83	65535.00
568.99	65535.00
569.15	65535.00
569.32	65535.00
569.48	65535.00
569.64	65535.00
569.81	65535.00
569.97	65535.00
570.13	65535.00
570.30	65535.00
570.46	65535.00
570.62	65535.00
570.78	65535.00
570.95	65535.00
571.11	65535.00
571.27	65535.00
571.43	65535.00
571.60	65535.00
571.76	65535.00
571.92	65535.00
572.09	65535.00
572.25	65535.00
572.41	65535.00
572.57	65535.00
572.74	65535.00
572.90	65535.00
573.06	65535.00
573.22	65535.00
573.38	65535.00
573.55	65535.00
573.71	65535.00
573.87	65535.00
574.03	65535.00
574.20	65535.00
574.36	65535.00
574.52	65535.00
574.68	65535.00
574.84	65535.00
575.01	65535.00
575.17	65535.00
575.33	65535.00
575.49	65535.00
575.65	65535.00
575.82	65535.00
575.98	65535.00
576.14	65535.00
576.30	65535.00
576.46	65535.00
576.62	65535.00
576.79	65535.00
576.95	65535.00
577.11	65535.00
577.27	65535.00
577.43	65535.00
577.59	65535.00
577.75	65535.00
577.92	65535.00
578.08	65535.00
578.24	65535.00
578.40	65535.00
578.56	65535.00
578.72	65535.00
578.88	65535.00
579.04	65535.00
579.21	65535.00
579.37	65535.00
579.53	65535.00
579.69	65535.00
579.85	65535.00
580.01	65535.00
580.17	65535.00
580.33	65535.00
580.49	65535.00
580.65	65535.00
580.82	65535.00
580.98	65535.00
581.14	65535.00
581.30	65535.00
581.46	65535.00
581.62	65535.00
581.78	65535.00
581.94	65535.00
582.10	65535.00
582.26	65535.00
582.42	65535.00
582.58	65535.00
582.74	65535.00
582.90	65535.00
583.06	65535.00
583.22	65535.00
583.38	65535.00
583.54	65535.00
583.70	65535.00
583.86	65535.00
584.02	65535.00
584.18	65535.00
584.34	65535.00
584.50	65535.00
