SpectraSuite Data File
++++++++++++++++++++++++++++++++++++
Date: Mon Oct 07 14:52:56 GMT-05:00 2013
User: price-jones
Dark Spectrum Present: No
Reference Spectrum Present: No
Number of Sampled Component Spectra: 1
Spectrometers: USB2+H05261
Integration Time (usec): 100000 (USB2+H05261)
Spectra Averaged: 1 (USB2+H05261)
Boxcar Smoothing: 0 (USB2+H05261)
Correct for Electrical Dark: No (USB2+H05261)
Strobe/Lamp Enabled: No (USB2+H05261)
Correct for Detector Non-linearity: No (USB2+H05261)
Correct for Stray Light: No (USB2+H05261)
Number of Pixels in Processed Spectrum: 2048
>>>>>Begin Processed Spectral Data<<<<<
365.73	0.00
365.92	0.00
366.12	0.00
366.32	0.00
366.52	0.00
366.72	0.00
366.91	0.00
367.11	0.00
367.31	0.00
367.51	0.00
367.70	0.00
367.90	0.00
368.10	0.00
368.30	0.00
368.49	0.00
368.69	0.00
368.89	0.00
369.09	0.00
369.28	0.00
369.48	0.00
369.68	0.00
369.87	0.00
370.07	0.00
370.27	0.00
370.47	390.87
370.66	2345.22
370.86	2679.91
371.06	2925.67
371.25	3103.55
371.45	2764.17
371.65	2495.01
371.84	2267.98
372.04	2436.50
372.24	2693.96
372.44	2813.32
372.63	2932.69
372.83	2600.34
373.03	2230.53
373.22	2092.44
373.42	2293.72
373.62	2616.72
373.81	2787.58
374.01	2832.05
374.21	2476.29
374.40	2347.56
374.60	2434.16
374.79	2808.64
374.99	3138.66
375.19	3417.18
375.38	3452.29
375.58	3234.62
375.78	3295.47
375.97	3232.28
376.17	3372.71
376.37	3421.86
376.56	3536.55
376.76	3588.04
376.95	3918.06
377.15	4126.36
377.35	4287.86
377.54	4294.88
377.74	4573.41
377.93	4454.04
378.13	4477.44
378.33	4152.11
378.52	3941.46
378.72	3744.86
378.91	3765.92
379.11	3541.23
379.31	3459.31
379.50	3555.27
379.70	3651.24
379.89	4109.98
380.09	4325.31
380.28	4425.95
380.48	4503.19
380.68	4414.25
380.87	4175.52
381.07	3885.29
381.26	3779.97
381.46	3571.66
381.65	3412.50
381.85	3152.70
382.04	3094.19
382.24	2967.80
382.43	2703.32
382.63	2614.38
382.83	2717.36
383.02	2719.70
383.22	2668.21
383.41	2691.62
383.61	2930.35
383.80	3382.07
384.00	4046.79
384.19	4271.48
384.39	4486.81
384.58	4440.00
384.78	4376.80
384.97	4222.33
385.17	4053.81
385.36	3810.39
385.56	3691.02
385.75	3911.04
385.95	4215.30
386.14	4557.02
386.34	4456.38
386.53	4355.74
386.72	4021.04
386.92	4112.32
387.11	4496.17
387.31	4554.68
387.50	4395.53
387.70	4306.59
387.89	4248.07
388.09	4297.22
388.28	4383.82
388.48	4421.27
388.67	4865.97
388.86	5210.03
389.06	5727.29
389.25	5870.06
389.45	6129.86
389.64	5834.96
389.84	5757.72
390.03	5778.78
390.22	5687.50
390.42	6239.87
390.61	6375.62
390.81	6836.70
391.00	7070.76
391.19	6843.73
391.39	6649.46
391.58	6326.47
391.78	5837.30
391.97	5685.16
392.16	5289.61
392.36	4753.63
392.55	3705.07
392.75	2998.23
392.94	2553.52
393.13	2464.58
393.33	3054.40
393.52	3854.86
393.71	4622.56
393.91	5221.74
394.10	5907.51
394.29	6413.07
394.49	6759.47
394.68	7368.01
394.88	7332.90
395.07	7655.89
395.26	7400.77
395.46	7328.22
395.65	6860.11
395.84	5902.83
396.04	5107.05
396.23	4067.85
396.42	3445.27
396.62	3330.58
396.81	3981.25
397.00	5078.96
397.19	6312.42
397.39	7335.24
397.58	8236.35
397.77	8872.97
397.97	9137.45
398.16	9399.59
398.35	9572.79
398.55	10092.39
398.74	10242.18
398.93	10619.01
399.12	10408.36
399.32	9966.00
399.51	10132.18
399.70	10817.96
399.90	10733.70
400.09	10782.85
400.28	10420.06
400.47	10609.65
400.67	11218.19
400.86	11489.69
401.05	11545.86
401.24	11726.08
401.44	11845.45
401.63	11899.28
401.82	11861.84
402.01	11698.00
402.21	11918.01
402.40	12035.03
402.59	11669.91
402.78	11082.44
402.97	11044.99
403.17	11449.90
403.36	12020.99
403.55	12369.73
403.74	12634.21
403.93	12016.31
404.13	11154.99
404.32	10923.28
404.51	11358.62
404.70	12446.97
404.89	12107.59
405.09	12044.40
405.28	11712.04
405.47	11815.02
405.66	11655.87
405.85	11096.48
406.05	11293.08
406.24	11328.19
406.43	11791.62
406.62	12271.43
406.81	12285.47
407.00	11836.09
407.20	11587.99
407.39	11667.57
407.58	12215.26
407.77	12470.37
407.96	13036.78
408.15	13130.41
408.34	13102.32
408.54	14136.84
408.73	14015.13
408.92	13689.79
409.11	13504.89
409.30	12533.57
409.49	11978.86
409.68	11145.63
409.87	10925.62
410.07	11648.85
410.26	12491.44
410.45	13032.10
410.64	13692.13
410.83	13804.48
411.02	14349.82
411.21	14796.87
411.40	14780.48
411.59	14757.08
411.78	14469.19
411.98	14375.57
412.17	14588.56
412.36	14480.89
412.55	14635.37
412.74	14291.31
412.93	13893.42
413.12	14017.47
413.31	15290.72
413.50	15391.36
413.69	15653.50
413.88	15440.51
414.07	14946.66
414.26	15117.52
414.45	15602.01
414.64	15419.45
414.83	15363.28
415.02	15328.17
415.22	15028.58
415.41	15487.32
415.60	15894.58
415.79	16898.67
415.98	17034.42
416.17	17228.68
416.36	16479.71
416.55	16493.76
416.74	16013.95
416.93	15286.04
417.12	15524.77
417.31	15510.73
417.50	15712.02
417.69	16507.80
417.88	16554.61
418.07	16271.40
418.26	15913.30
418.45	16198.85
418.64	16681.00
418.83	17331.67
419.02	17081.23
419.21	17081.23
419.39	16367.37
419.58	15477.96
419.77	15653.50
419.96	16049.05
420.15	16957.18
420.34	17607.85
420.53	18005.74
420.72	18068.94
420.91	18150.85
421.10	17905.10
421.29	17598.49
421.48	17530.61
421.67	18214.05
421.86	17628.92
422.05	16161.40
422.24	14829.63
422.43	14562.81
422.61	16329.92
422.80	17514.23
422.99	17619.55
423.18	17015.69
423.37	16655.25
423.56	16582.70
423.75	17167.83
423.94	17198.26
424.13	16390.77
424.32	16329.92
424.50	16685.68
424.69	16243.32
424.88	16318.22
425.07	16500.78
425.26	16248.00
425.45	16156.72
425.64	15756.49
425.83	15896.92
426.01	16870.58
426.20	17228.68
426.39	17149.11
426.58	15822.02
426.77	14836.66
426.96	14174.28
427.15	14970.07
427.33	15845.43
427.52	16486.73
427.71	16498.44
427.90	16208.21
428.09	15925.00
428.28	15836.06
428.46	15389.02
428.65	15197.10
428.84	15473.28
429.03	15763.51
429.22	14949.00
429.40	13778.73
429.59	12938.48
429.78	11459.26
429.97	11625.44
430.16	11573.95
430.34	11660.55
430.53	11676.93
430.72	11957.80
430.91	13160.83
431.10	15833.72
431.28	18359.16
431.47	19578.58
431.66	19885.19
431.85	17980.00
432.03	16695.04
432.22	16044.37
432.41	16662.27
432.60	18298.31
432.79	19262.61
432.97	19445.17
433.16	19311.76
433.35	17149.11
433.54	15658.18
433.72	14923.26
433.91	15351.57
434.10	17060.16
434.28	18476.19
434.47	19183.03
434.66	18757.05
434.85	18586.19
435.03	18705.56
435.22	19014.51
435.41	20308.83
435.59	20144.99
435.78	19974.13
435.97	20535.86
436.16	20924.39
436.34	20453.94
436.53	19541.13
436.72	20112.22
436.90	19073.03
437.09	19073.03
437.28	18691.52
437.46	19311.76
437.65	19293.04
437.84	18104.04
438.02	16453.97
438.21	16599.08
438.40	17476.78
438.58	18766.42
438.77	19276.65
438.96	19665.18
439.14	20231.59
439.33	20861.19
439.52	21001.63
439.70	20704.38
439.89	20437.56
440.08	19719.01
440.26	19644.12
440.45	20404.79
440.63	21898.05
440.82	22883.42
441.01	22614.26
441.19	22305.31
441.38	22696.17
441.57	23466.21
441.75	24261.99
441.94	24308.80
442.12	24102.84
442.31	24482.00
442.50	24460.94
442.68	23728.35
442.87	23639.41
443.05	23042.57
443.24	23901.55
443.43	23889.85
443.61	24503.07
443.80	24936.07
443.98	23728.35
444.17	23470.89
444.35	24596.69
444.54	25074.16
444.73	24875.21
444.91	23939.00
445.10	22750.01
445.28	21867.63
445.47	21802.09
445.65	22066.57
445.84	22352.12
446.02	23424.08
446.21	23695.58
446.39	23564.51
446.58	24182.42
446.77	24346.25
446.95	24493.71
447.14	25310.55
447.32	25827.81
447.51	24971.18
447.69	23840.70
447.88	23749.42
448.06	24402.43
448.25	24634.14
448.43	24919.68
448.62	24503.07
448.80	24182.42
448.99	24306.46
449.17	24849.47
449.36	24734.78
449.54	25579.71
449.73	26143.78
449.91	26548.70
450.10	26806.16
450.28	27489.59
450.46	27290.65
450.65	27466.19
450.83	27173.62
451.02	26258.47
451.20	26258.47
451.39	26469.12
451.57	26532.31
451.76	26176.55
451.94	25928.45
452.13	25645.25
452.31	24432.85
452.49	23119.81
452.68	23608.98
452.86	23733.03
453.05	24184.76
453.23	24900.96
453.42	25216.93
453.60	25848.88
453.78	26305.28
453.97	25635.89
454.15	25942.50
454.34	25305.87
454.52	25048.41
454.70	24999.26
454.89	25514.18
455.07	25848.88
455.26	25858.24
455.44	26703.17
455.62	27105.74
455.81	27208.73
455.99	27005.10
456.17	26663.38
456.36	26787.43
456.54	27686.20
456.73	27463.85
456.91	28077.07
457.09	28130.90
457.28	28701.99
457.46	27482.57
457.64	27386.61
457.83	26366.13
458.01	25844.20
458.19	26714.87
458.38	26916.16
458.56	27541.08
458.74	27522.36
458.93	26993.40
459.11	26925.52
459.29	27136.17
459.48	27314.05
459.66	26586.15
459.84	27288.31
460.03	27761.09
460.21	27353.84
460.39	28339.21
460.57	28276.01
460.76	28819.02
460.94	28437.51
461.12	28112.17
461.31	28276.01
461.49	28180.05
461.67	28261.97
461.85	29296.49
462.04	29132.65
462.22	29460.32
462.40	28879.87
462.59	28889.23
462.77	29326.91
462.95	28748.80
463.13	29022.64
463.32	28219.84
463.50	28086.43
463.68	28346.23
463.86	28367.29
464.05	27728.33
464.23	27222.77
464.41	27477.89
464.59	26766.37
464.78	28297.08
464.96	28140.26
465.14	27885.14
465.32	28414.10
465.50	29347.98
465.69	29003.92
465.87	28627.09
466.05	28243.24
466.23	26918.50
466.41	26223.36
466.60	26881.05
466.78	27201.71
466.96	27484.91
467.14	28116.86
467.32	28458.57
467.51	28229.20
467.69	27335.12
467.87	27501.29
468.05	28144.94
468.23	27831.31
468.41	28203.46
468.60	28280.69
468.78	28697.31
468.96	28072.39
469.14	28573.26
469.32	28882.21
469.50	27737.69
469.69	27548.11
469.87	27166.60
470.05	27351.50
470.23	27042.55
470.41	27234.47
470.59	28084.09
470.77	28041.96
470.95	28315.80
471.14	28943.06
471.32	28917.32
471.50	30441.01
471.68	30401.22
471.86	30710.17
472.04	30721.87
472.22	31159.55
472.40	29343.30
472.58	29352.66
472.77	28947.75
472.95	29645.23
473.13	30455.05
473.31	29586.71
473.49	29689.70
473.67	30368.45
473.85	30352.07
474.03	31136.15
474.21	31487.23
474.39	31835.97
474.57	31880.44
474.75	31924.91
474.93	31417.01
475.12	30719.53
475.30	30998.06
475.48	30874.01
475.66	31583.19
475.84	30934.86
476.02	30438.67
476.20	30010.35
476.38	31056.57
476.56	31810.22
476.74	32414.08
476.92	32886.87
477.10	32615.37
477.28	34019.69
477.46	33830.10
477.64	34047.77
477.82	34277.15
478.00	34665.67
478.18	34316.93
478.36	33853.51
478.54	33694.35
478.72	34382.47
478.90	35033.14
479.08	35969.35
479.26	36535.76
479.44	36282.98
479.62	36165.96
479.80	35655.72
479.98	36287.67
480.16	36547.47
480.34	35838.28
480.52	36226.81
480.70	36861.10
480.88	36788.54
481.06	37591.34
481.24	37720.07
481.41	38934.81
481.59	38909.07
481.77	38967.58
481.95	38298.19
482.13	38206.90
482.31	38136.69
482.49	38892.68
482.67	38773.31
482.85	38986.30
483.03	39573.78
483.21	39952.94
483.39	40179.98
483.57	38990.98
483.74	39049.50
483.92	39166.52
484.10	39182.91
484.28	40481.91
484.46	40830.65
484.64	41364.29
484.82	39988.05
485.00	39880.39
485.18	39084.61
485.35	37780.93
485.53	34749.93
485.71	31716.60
485.89	31274.24
486.07	33404.13
486.25	36196.38
486.43	38148.39
486.61	38878.64
486.78	38719.48
486.96	39126.74
487.14	40828.30
487.32	41408.76
487.50	42787.33
487.68	43627.59
487.85	43889.73
488.03	43716.53
488.21	43257.78
488.39	42981.60
488.57	41670.90
488.75	41668.56
488.92	43054.15
489.10	45338.52
489.28	47063.49
489.46	47632.24
489.64	47660.33
489.81	47775.02
489.99	47386.49
490.17	47732.89
490.35	48088.65
490.53	47278.82
490.70	46885.61
490.88	47037.75
491.06	47934.17
491.24	47859.27
491.41	46511.13
491.59	44563.80
491.77	43613.54
491.95	45588.95
492.13	46670.28
492.30	48425.68
492.48	49326.79
492.66	49783.19
492.84	49610.00
493.01	49563.18
493.19	49064.65
493.37	48404.62
493.54	47849.91
493.72	48755.70
493.90	49848.73
494.08	51222.62
494.25	51323.27
494.43	51791.37
494.61	52315.65
494.79	52306.29
494.96	51885.00
495.14	50958.14
495.32	50286.41
495.49	49511.69
495.67	50677.28
495.85	51859.25
496.02	52573.11
496.20	52629.29
496.38	51980.96
496.55	51767.97
496.73	52395.23
496.91	52411.62
497.09	53237.83
497.26	53450.81
497.44	52699.50
497.62	51969.26
497.79	51136.02
497.97	49834.69
498.14	50122.57
498.32	51384.12
498.50	52186.92
498.67	52980.37
498.85	52933.56
499.03	52846.96
499.20	53326.77
499.38	53392.30
499.56	53251.87
499.73	52453.75
499.91	52229.05
500.08	51613.49
500.26	50822.39
500.44	51360.72
500.61	52418.64
500.79	52067.56
500.97	51770.31
501.14	50925.38
501.32	51098.58
501.49	51103.26
501.67	51650.94
501.84	52060.54
502.02	52163.52
502.20	52741.63
502.37	52678.44
502.55	52868.02
502.72	53741.04
502.90	53961.05
503.07	53677.85
503.25	53284.64
503.43	51901.38
503.60	51475.40
503.78	51114.96
503.95	51124.32
504.13	52889.09
504.30	54127.23
504.48	53563.16
504.65	53010.79
504.83	53233.14
505.01	54206.81
505.18	54480.65
505.36	55047.06
505.53	55040.04
505.71	55250.69
505.88	55030.68
506.06	54611.72
506.23	54277.02
506.41	53722.32
506.58	54274.68
506.76	53972.75
506.93	54014.88
507.11	53900.20
507.28	53799.55
507.46	53272.93
507.63	52746.31
507.81	52928.87
507.98	53027.18
508.16	53614.65
508.33	54117.87
508.50	54539.16
508.68	55133.66
508.85	55456.65
509.03	55751.56
509.20	55140.68
509.38	54609.38
509.55	53719.98
509.73	54087.44
509.90	54422.14
510.08	54915.99
510.25	54642.15
510.42	54305.11
510.60	54342.56
510.77	54614.06
510.95	55278.77
511.12	55566.66
511.30	55653.26
511.47	55777.31
511.64	55849.86
511.82	55470.70
511.99	54656.19
512.17	54384.69
512.34	53593.59
512.51	53993.82
512.69	54108.50
512.86	54396.39
513.04	54611.72
513.21	54555.55
513.38	54417.46
513.56	53710.61
513.73	52858.66
513.90	53549.12
514.08	53347.83
514.25	53951.69
514.43	54218.51
514.60	54223.19
514.77	54494.69
514.95	54508.74
515.12	54555.55
515.29	54520.44
515.47	55030.68
515.64	55421.55
515.81	54794.28
515.99	54213.83
516.16	52596.52
516.33	49745.75
516.51	48268.87
516.68	47021.36
516.85	46576.66
517.03	47585.43
517.20	50988.57
517.37	53647.42
517.54	54756.83
517.72	53851.05
517.89	50569.61
518.06	48495.90
518.24	48982.73
518.41	51650.94
518.58	52844.62
518.75	53242.51
518.93	53350.17
519.10	53401.66
519.27	53804.24
519.45	54160.00
519.62	54663.21
519.79	55159.41
519.96	54894.92
520.14	54171.70
520.31	53478.90
520.48	53420.39
520.65	53858.07
520.83	55044.72
521.00	55454.31
521.17	54948.76
521.34	54625.76
521.52	55023.65
521.69	55454.31
521.86	56020.72
522.03	55622.83
522.20	54192.76
522.38	53261.23
522.55	53064.63
522.72	53886.15
522.89	54054.67
523.07	54382.35
523.24	54632.78
523.41	55533.89
523.58	55957.53
523.75	56411.59
523.92	56112.00
524.10	56203.28
524.27	55896.67
524.44	56046.47
524.61	55721.13
524.78	55480.06
524.96	55437.93
525.13	55398.14
525.30	55798.37
525.47	55922.42
525.64	56128.39
525.81	55241.32
525.98	53609.97
526.16	52182.24
526.33	51393.48
526.50	51124.32
526.67	50255.98
526.84	51290.50
527.01	52446.72
527.18	53366.55
527.36	54527.46
527.53	55522.19
527.70	55313.88
527.87	54939.39
528.04	54504.06
528.21	55203.88
528.38	55831.14
528.55	56622.24
528.72	56683.09
528.89	56793.10
529.07	56523.94
529.24	55824.12
529.41	54920.67
529.58	54646.83
529.75	54616.40
529.92	54925.35
530.09	55400.48
530.26	56002.00
530.43	56367.12
530.60	56348.40
530.77	56603.52
530.94	57013.11
531.11	56203.28
531.28	55683.69
531.46	55639.22
531.63	55810.07
531.80	55641.56
531.97	55409.84
532.14	54356.60
532.31	53017.82
532.48	52743.97
532.65	52774.40
532.82	53762.11
532.99	54988.55
533.16	54972.16
533.33	55915.40
533.50	55557.30
533.67	55145.36
533.84	54506.40
534.01	54995.57
534.18	55030.68
534.35	55442.61
534.52	54834.07
534.69	55356.01
534.86	55583.04
535.03	55833.48
535.20	56430.32
535.37	56535.64
535.54	56809.48
535.71	56306.27
535.88	55901.36
536.05	55470.70
536.22	54901.95
536.38	54333.20
536.55	54099.14
536.72	53366.55
536.89	53434.43
537.06	54408.09
537.23	55461.33
537.40	55554.96
537.57	55590.06
537.74	55334.95
537.91	54972.16
538.08	55449.63
538.25	55248.35
538.42	55639.22
538.59	55353.67
538.75	54485.33
538.92	54473.63
539.09	54171.70
539.26	54003.18
539.43	53918.92
539.60	53947.01
539.77	54225.53
539.94	53993.82
540.11	53263.57
540.28	52519.28
540.44	52989.73
540.61	52982.71
540.78	53373.58
540.95	53708.27
541.12	54286.39
541.29	54328.52
541.46	54639.81
541.62	54843.43
541.79	54557.89
541.96	53937.65
542.13	53918.92
542.30	54567.25
542.47	54171.70
542.63	54314.47
542.80	54141.27
542.97	54073.40
543.14	53925.94
543.31	53829.98
543.48	54691.30
543.64	55599.43
543.81	55777.31
543.98	55494.10
544.15	54609.38
544.32	54429.16
544.48	54284.04
544.65	54794.28
544.82	55175.79
544.99	54695.98
545.16	54199.79
545.32	54071.06
545.49	54855.14
545.66	55461.33
545.83	54955.78
546.00	54600.02
546.16	54361.28
546.33	54279.36
546.50	54452.56
546.67	54571.93
546.83	54003.18
547.00	54326.17
547.17	53467.20
547.34	53160.59
547.50	53062.29
547.67	53450.81
547.84	53551.46
548.00	53841.68
548.17	54557.89
548.34	54394.05
548.51	54342.56
548.67	54532.14
548.84	54422.14
549.01	54410.43
549.18	54305.11
549.34	54035.95
549.51	54021.90
549.68	54206.81
549.84	53783.17
550.01	53818.28
550.18	53687.21
550.34	53965.73
550.51	53673.16
550.68	53808.92
550.84	53183.99
551.01	53256.55
551.18	53727.00
551.34	53954.03
551.51	54057.01
551.68	54155.32
551.84	54274.68
552.01	54049.99
552.18	53930.62
552.34	53083.35
552.51	52992.07
552.68	52795.46
552.84	53109.10
553.01	53584.22
553.18	53488.26
553.34	53645.08
553.51	53745.72
553.67	54199.79
553.84	53984.46
554.01	53895.52
554.17	53965.73
554.34	54110.85
554.51	54066.38
554.67	54410.43
554.84	53998.50
555.00	53759.76
555.17	53448.47
555.33	53570.18
555.50	53375.92
555.67	53411.02
555.83	53057.60
556.00	53097.39
556.16	52851.64
556.33	52645.67
556.50	52360.12
556.66	52568.43
556.83	52130.75
556.99	52591.84
557.16	52500.56
557.32	52781.42
557.49	52879.72
557.65	52832.91
557.82	52582.48
557.98	52690.14
558.15	51985.64
558.32	51281.14
558.48	50520.46
558.65	50761.54
558.81	50930.06
558.98	51304.54
559.14	51372.42
559.31	51608.81
559.47	51199.22
559.64	50988.57
559.80	50878.57
559.97	50784.94
560.13	51657.96
560.30	52191.61
560.46	52940.58
560.63	53137.18
560.79	53167.61
560.96	53092.71
561.12	51721.16
561.29	50295.77
561.45	50752.18
561.61	51381.78
561.78	51660.30
561.94	51351.35
562.11	51550.30
562.27	51323.27
562.44	51943.51
562.60	51917.76
562.77	52374.17
562.93	52282.89
563.10	52186.92
563.26	51339.65
563.42	51416.89
563.59	51166.45
563.75	51463.70
563.92	51346.67
564.08	51517.53
564.24	51861.59
564.41	51569.02
564.57	51459.02
564.74	51391.14
564.90	51058.79
565.07	50873.88
565.23	50452.59
565.39	50174.06
565.56	50066.40
565.72	49792.56
565.88	49923.63
566.05	50113.21
566.21	50529.83
566.38	50569.61
566.54	50302.79
566.70	50958.14
566.87	51089.21
567.03	51398.16
567.19	51683.71
567.36	50967.51
567.52	51016.66
567.68	50347.26
567.85	49874.48
568.01	49446.16
568.17	48769.74
568.34	49097.42
568.50	49085.72
568.66	49111.46
568.83	49631.06
568.99	49642.76
569.15	49839.37
569.32	49811.28
569.48	49418.07
569.64	49294.02
569.81	49270.62
569.97	48914.86
570.13	49031.88
570.30	47943.53
570.46	47863.96
570.62	47004.98
570.78	46953.49
570.95	47374.78
571.11	48383.55
571.27	48357.81
571.43	48666.76
571.60	49127.84
571.76	49455.52
571.92	49865.11
572.09	49893.20
572.25	49888.52
572.41	49855.75
572.57	49633.40
572.74	49467.22
572.90	49193.38
573.06	49022.52
573.22	48875.07
573.38	49057.63
573.55	49017.84
573.71	49212.10
573.87	49127.84
574.03	48921.88
574.20	49064.65
574.36	48264.19
574.52	48163.54
574.68	47866.30
574.84	47533.94
575.01	47402.87
575.17	47089.24
575.33	47409.89
575.49	47805.44
575.65	47887.36
575.82	47660.33
575.98	47423.93
576.14	47985.66
576.30	48055.88
576.46	48020.77
576.62	47885.02
576.79	48222.06
576.95	47580.75
577.11	47393.51
577.27	47388.83
577.43	47948.21
577.59	47004.98
577.75	46806.03
577.92	46066.42
578.08	45717.68
578.24	45560.87
578.40	45881.52
578.56	46394.10
578.72	46466.66
578.88	46831.78
579.04	47136.05
579.21	47061.15
579.37	47047.11
579.53	47243.71
579.69	47313.93
579.85	47526.92
580.01	47388.83
580.17	46696.03
580.33	46410.48
580.49	46707.73
580.65	47047.11
580.82	47426.28
580.98	47559.69
581.14	46621.13
581.30	46759.22
581.46	47056.47
581.62	47140.73
581.78	47283.50
581.94	47484.79
582.10	47812.46
582.26	47531.60
582.42	47393.51
582.58	47147.75
582.74	47419.25
582.90	47552.66
583.06	47583.09
583.22	46911.36
583.38	46923.06
583.54	46724.11
583.70	46831.78
583.86	46836.46
584.02	46850.50
584.18	46848.16
584.34	46501.76
584.50	46768.58
584.66	46700.71
584.82	46026.63
584.98	46110.89
585.14	45553.85
585.30	44224.42
