SpectraSuite Data File
++++++++++++++++++++++++++++++++++++
Date: Mon Oct 07 14:54:56 GMT-05:00 2013
User: price-jones
Dark Spectrum Present: No
Reference Spectrum Present: No
Number of Sampled Component Spectra: 1
Spectrometers: USB2+H05261
Integration Time (usec): 10000 (USB2+H05261)
Spectra Averaged: 1 (USB2+H05261)
Boxcar Smoothing: 0 (USB2+H05261)
Correct for Electrical Dark: No (USB2+H05261)
Strobe/Lamp Enabled: No (USB2+H05261)
Correct for Detector Non-linearity: No (USB2+H05261)
Correct for Stray Light: No (USB2+H05261)
Number of Pixels in Processed Spectrum: 2048
>>>>>Begin Processed Spectral Data<<<<<
365.73	0.00
365.92	0.00
366.12	0.00
366.32	0.00
366.52	0.00
366.72	0.00
366.91	0.00
367.11	0.00
367.31	0.00
367.51	0.00
367.70	0.00
367.90	0.00
368.10	0.00
368.30	0.00
368.49	0.00
368.69	0.00
368.89	0.00
369.09	0.00
369.28	0.00
369.48	0.00
369.68	0.00
369.87	0.00
370.07	0.00
370.27	0.00
370.47	0.00
370.66	194.26
370.86	315.97
371.06	369.80
371.25	355.76
371.45	283.20
371.65	238.73
371.84	224.69
372.04	283.20
372.24	306.61
372.44	388.53
372.63	325.33
372.83	301.93
373.03	330.02
373.22	175.54
373.42	234.05
373.62	215.33
373.81	379.17
374.01	414.27
374.21	294.91
374.40	224.69
374.60	297.25
374.79	386.19
374.99	491.51
375.19	498.53
375.38	517.26
375.58	390.87
375.78	376.83
375.97	447.04
376.17	475.13
376.37	407.25
376.56	428.32
376.76	475.13
376.95	484.49
377.15	599.18
377.35	718.54
377.54	645.99
377.74	580.45
377.93	732.59
378.13	690.46
378.33	608.54
378.52	514.92
378.72	514.92
378.91	482.15
379.11	449.38
379.31	454.06
379.50	475.13
379.70	564.07
379.89	615.56
380.09	638.97
380.28	638.97
380.48	664.71
380.68	676.41
380.87	575.77
381.07	564.07
381.26	458.74
381.46	470.45
381.65	444.70
381.85	533.64
382.04	306.61
382.24	318.31
382.43	306.61
382.63	231.71
382.83	198.95
383.02	299.59
383.22	306.61
383.41	320.65
383.61	320.65
383.80	435.34
384.00	369.80
384.19	573.43
384.39	683.44
384.58	645.99
384.78	601.52
384.97	489.17
385.17	552.37
385.36	561.73
385.56	449.38
385.75	449.38
385.95	505.56
386.14	615.56
386.34	613.22
386.53	695.14
386.72	468.11
386.92	580.45
387.11	517.26
387.31	610.88
387.50	545.34
387.70	603.86
387.89	545.34
388.09	641.31
388.28	554.71
388.48	540.66
388.67	648.33
388.86	758.33
389.06	779.40
389.25	840.25
389.45	908.13
389.64	844.93
389.84	772.38
390.03	821.53
390.22	833.23
390.42	915.15
390.61	922.17
390.81	985.37
391.00	1004.09
391.19	978.34
391.39	992.39
391.58	894.08
391.78	844.93
391.97	744.29
392.16	800.46
392.36	697.48
392.55	479.81
392.75	390.87
392.94	173.20
393.13	257.46
393.33	318.31
393.52	456.40
393.71	564.07
393.91	713.86
394.10	802.80
394.29	915.15
394.49	922.17
394.68	1071.97
394.88	1048.56
395.07	1053.24
395.26	1067.28
395.46	1043.88
395.65	952.60
395.84	779.40
396.04	746.63
396.23	594.50
396.42	325.33
396.62	299.59
396.81	414.27
397.00	617.90
397.19	880.04
397.39	1088.35
397.58	1177.29
397.77	1256.87
397.97	1299.00
398.16	1366.87
398.35	1451.13
398.55	1380.92
398.74	1507.30
398.93	1568.16
399.12	1533.05
399.32	1453.47
399.51	1589.22
399.70	1603.27
399.90	1570.50
400.09	1549.43
400.28	1610.29
400.47	1647.74
400.67	1645.40
400.86	1764.76
401.05	1530.71
401.24	1647.74
401.44	1734.34
401.63	1760.08
401.82	1699.23
402.01	1830.30
402.21	1820.94
402.40	1753.06
402.59	1647.74
402.78	1612.63
402.97	1495.60
403.17	1664.12
403.36	1816.26
403.55	1851.36
403.74	1839.66
403.93	1764.76
404.13	1659.44
404.32	1551.78
404.51	1706.25
404.70	1724.97
404.89	1914.56
405.09	1739.02
405.28	1624.33
405.47	1708.59
405.66	1696.89
405.85	1654.76
406.05	1591.56
406.24	1465.18
406.43	1774.13
406.62	1809.23
406.81	1713.27
407.00	1673.48
407.20	1706.25
407.39	1685.19
407.58	1664.12
407.77	1879.45
407.96	1874.77
408.15	1853.70
408.34	1975.41
408.54	1959.03
408.73	2005.84
408.92	1940.30
409.11	1966.05
409.30	1778.81
409.49	1675.82
409.68	1533.05
409.87	1493.26
410.07	1643.06
410.26	1757.74
410.45	1914.56
410.64	1942.64
410.83	2019.88
411.02	1984.77
411.21	2085.42
411.40	2015.20
411.59	2054.99
411.78	2052.65
411.98	1998.82
412.17	2127.55
412.36	2129.89
412.55	1914.56
412.74	1970.73
412.93	1898.17
413.12	2062.01
413.31	2118.18
413.50	2136.91
413.69	2129.89
413.88	2022.22
414.07	2036.27
414.26	2108.82
414.45	2122.87
414.64	2279.68
414.83	2076.06
415.02	2172.02
415.22	2127.55
415.41	2249.25
415.60	2232.87
415.79	2253.94
415.98	2370.96
416.17	2436.50
416.36	2251.60
416.55	2225.85
416.74	2253.94
416.93	2211.81
417.12	2157.97
417.31	2143.93
417.50	2249.25
417.69	2335.85
417.88	2239.89
418.07	2256.28
418.26	2094.78
418.45	2223.51
418.64	2331.17
418.83	2406.07
419.02	2429.48
419.21	2420.11
419.39	2188.40
419.58	2176.70
419.77	2057.33
419.96	2221.17
420.15	2363.94
420.34	2443.52
420.53	2406.07
420.72	2574.59
420.91	2539.48
421.10	2525.44
421.29	2478.63
421.48	2356.92
421.67	2415.43
421.86	2445.86
422.05	2275.00
422.24	1961.37
422.43	1966.05
422.61	2305.43
422.80	2480.97
422.99	2403.73
423.18	2291.38
423.37	2317.13
423.56	2286.70
423.75	2258.62
423.94	2265.64
424.13	2146.27
424.32	2129.89
424.50	2195.42
424.69	2282.02
424.88	2197.76
425.07	2157.97
425.26	2066.69
425.45	2190.74
425.64	2101.80
425.83	2132.23
426.01	2146.27
426.20	2207.13
426.39	2291.38
426.58	2099.46
426.77	1973.07
426.96	1732.00
427.15	1973.07
427.33	2113.50
427.52	2232.87
427.71	2181.38
427.90	2115.84
428.09	2129.89
428.28	2113.50
428.46	1956.69
428.65	2022.22
428.84	2047.97
429.03	2090.10
429.22	1966.05
429.40	1820.94
429.59	1643.06
429.78	1481.56
429.97	1437.09
430.16	1493.26
430.34	1490.92
430.53	1504.96
430.72	1493.26
430.91	1577.52
431.10	1977.75
431.28	2417.77
431.47	2546.50
431.66	2628.42
431.85	2370.96
432.03	2165.00
432.22	2005.84
432.41	2059.67
432.60	2377.98
432.79	2427.14
432.97	2553.52
433.16	2565.23
433.35	2263.30
433.54	2036.27
433.72	1996.48
433.91	1989.46
434.10	2211.81
434.28	2504.37
434.47	2485.65
434.66	2368.62
434.85	2431.82
435.03	2394.37
435.22	2361.60
435.41	2546.50
435.59	2483.31
435.78	2623.74
435.97	2569.91
436.16	2644.81
436.34	2696.30
436.53	2593.31
436.72	2429.48
436.90	2445.86
437.09	2499.69
437.28	2485.65
437.46	2534.80
437.65	2443.52
437.84	2326.49
438.02	2094.78
438.21	2031.58
438.40	2347.56
438.58	2473.95
438.77	2478.63
438.96	2455.22
439.14	2607.36
439.33	2780.56
439.52	2703.32
439.70	2757.15
439.89	2541.82
440.08	2424.80
440.26	2576.93
440.45	2572.25
440.63	2813.32
440.82	2892.90
441.01	2874.18
441.19	2885.88
441.38	2906.95
441.57	2956.10
441.75	3056.74
441.94	3199.51
442.12	3000.57
442.31	3155.04
442.50	3229.94
442.68	3087.17
442.87	2911.63
443.05	3016.95
443.24	3040.36
443.43	2995.89
443.61	3131.64
443.80	3148.02
443.98	3033.33
444.17	2963.12
444.35	3180.79
444.54	3176.11
444.73	3208.87
444.91	3063.76
445.10	2848.43
445.28	2696.30
445.47	2813.32
445.65	2796.94
445.84	2829.71
446.02	2834.39
446.21	3021.63
446.39	2932.69
446.58	3040.36
446.77	3070.78
446.95	3094.19
447.14	3148.02
447.32	3206.53
447.51	3243.98
447.69	3075.46
447.88	3014.61
448.06	3110.57
448.25	3136.32
448.43	3138.66
448.62	3103.55
448.80	3075.46
448.99	3077.80
449.17	3190.15
449.36	3122.27
449.54	3169.09
449.73	3321.22
449.91	3492.08
450.10	3428.88
450.28	3368.03
450.46	3487.40
450.65	3442.93
450.83	3372.71
451.02	3438.25
451.20	3337.60
451.39	3426.54
451.57	3300.16
451.76	3241.64
451.94	3246.32
452.13	3293.13
452.31	3033.33
452.49	2836.73
452.68	2958.44
452.86	2864.82
453.05	3049.72
453.23	2953.76
453.42	3129.30
453.60	3243.98
453.78	3314.20
453.97	3199.51
454.15	3077.80
454.34	3197.17
454.52	3124.62
454.70	3028.65
454.89	3119.93
455.07	3005.25
455.26	3162.06
455.44	3361.01
455.62	3440.59
455.81	3251.00
455.99	3297.81
456.17	3251.00
456.36	3361.01
456.54	3276.75
456.73	3440.59
456.91	3471.01
457.09	3405.48
457.28	3576.34
457.46	3475.70
457.64	3302.50
457.83	3323.56
458.01	3070.78
458.19	3410.16
458.38	3279.09
458.56	3372.71
458.74	3431.23
458.93	3417.18
459.11	3300.16
459.29	3426.54
459.48	3346.97
459.66	3269.73
459.84	3424.20
460.03	3377.39
460.21	3344.63
460.39	3375.05
460.57	3492.08
460.76	3517.83
460.94	3536.55
461.12	3365.69
461.31	3454.63
461.49	3398.46
461.67	3461.65
461.85	3550.59
462.04	3520.17
462.22	3487.40
462.40	3637.19
462.59	3515.48
462.77	3515.48
462.95	3510.80
463.13	3468.67
463.32	3442.93
463.50	3363.35
463.68	3426.54
463.86	3604.42
464.05	3412.50
464.23	3407.82
464.41	3232.28
464.59	3169.09
464.78	3468.67
464.96	3442.93
465.14	3281.43
465.32	3393.78
465.50	3459.31
465.69	3456.97
465.87	3314.20
466.05	3424.20
466.23	3171.43
466.41	3180.79
466.60	3187.81
466.78	3286.11
466.96	3206.53
467.14	3384.41
467.32	3433.57
467.51	3407.82
467.69	3243.98
467.87	3330.58
468.05	3272.07
468.23	3300.16
468.41	3272.07
468.60	3398.46
468.78	3487.40
468.96	3309.52
469.14	3564.64
469.32	3529.53
469.50	3178.45
469.69	3283.77
469.87	3260.37
470.05	3342.28
470.23	3330.58
470.41	3325.90
470.59	3255.69
470.77	3330.58
470.95	3492.08
471.14	3375.05
471.32	3522.51
471.50	3716.77
471.68	3653.58
471.86	3686.34
472.04	3653.58
472.22	3693.37
472.40	3646.55
472.58	3442.93
472.77	3368.03
472.95	3478.04
473.13	3466.33
473.31	3494.42
473.49	3473.36
473.67	3714.43
473.85	3611.45
474.03	3705.07
474.21	3662.94
474.39	3630.17
474.57	3695.71
474.75	3747.20
474.93	3709.75
475.12	3749.54
475.30	3592.72
475.48	3634.85
475.66	3581.02
475.84	3574.00
476.02	3726.13
476.20	3705.07
476.38	3698.05
476.56	3691.02
476.74	3875.93
476.92	3908.69
477.10	3971.89
477.28	4044.45
477.46	3957.85
477.64	3880.61
477.82	4072.53
478.00	4154.45
478.18	3957.85
478.36	3932.10
478.54	3964.87
478.72	3983.59
478.90	4313.61
479.08	4175.52
479.26	4311.27
479.44	4091.26
479.62	4285.52
479.80	4203.60
479.98	4259.78
480.16	4285.52
480.34	4222.33
480.52	4236.37
480.70	4299.56
480.88	4297.22
481.06	4388.50
481.24	4432.97
481.41	4620.22
481.59	4599.15
481.77	4552.34
481.95	4652.98
482.13	4447.02
482.31	4528.94
482.49	4533.62
482.67	4442.34
482.85	4660.01
483.03	4697.46
483.21	4784.06
483.39	4753.63
483.57	4587.45
483.74	4505.53
483.92	4613.20
484.10	4652.98
484.28	4760.65
484.46	4887.04
484.64	4854.27
484.82	4744.27
485.00	4554.68
485.18	4447.02
485.35	4388.50
485.53	4079.55
485.71	3630.17
485.89	3602.08
486.07	3864.22
486.25	4241.05
486.43	4358.08
486.61	4524.26
486.78	4493.83
486.96	4489.15
487.14	4791.08
487.32	4746.61
487.50	4908.10
487.68	4990.02
487.85	5151.52
488.03	5036.83
488.21	4975.98
488.39	5039.17
488.57	4826.18
488.75	4842.57
488.92	4931.51
489.10	5411.32
489.28	5577.50
489.46	5572.82
489.64	5570.48
489.81	5612.60
489.99	5703.89
490.17	5533.03
490.35	5518.98
490.53	5706.23
490.70	5406.64
490.88	5446.43
491.06	5544.73
491.24	5614.95
491.41	5369.19
491.59	5238.12
491.77	4999.38
491.95	5242.80
492.13	5425.36
492.30	5760.06
492.48	5802.19
492.66	5912.19
492.84	5867.72
493.01	5846.66
493.19	5923.90
493.37	5636.01
493.54	5713.25
493.72	5874.74
493.90	5959.00
494.08	6171.99
494.25	6310.08
494.43	6359.24
494.61	6382.64
494.79	6305.40
494.96	6286.68
495.14	6160.29
495.32	5973.05
495.49	5970.71
495.67	6113.48
495.85	6420.09
496.02	6282.00
496.20	6441.15
496.38	6223.48
496.55	6235.19
496.73	6457.54
496.91	6314.77
497.09	6520.73
497.26	6441.15
497.44	6487.96
497.62	6354.55
497.79	6097.10
497.97	6005.81
498.14	5799.85
498.32	6061.99
498.50	6445.84
498.67	6459.88
498.85	6380.30
499.03	6420.09
499.20	6438.81
499.38	6661.16
499.56	6504.35
499.73	6338.17
499.91	6459.88
500.08	6216.46
500.26	6097.10
500.44	6160.29
500.61	6462.22
500.79	6188.38
500.97	6258.59
501.14	6085.39
501.32	6059.65
501.49	6139.23
501.67	6244.55
501.84	6193.06
502.02	6143.91
502.20	6375.62
502.37	6370.94
502.55	6579.25
502.72	6722.02
502.90	6717.34
503.07	6530.09
503.25	6593.29
503.43	6181.35
503.60	6087.73
503.78	6040.92
503.95	6052.63
504.13	6380.30
504.30	6668.19
504.48	6668.19
504.65	6464.56
504.83	6612.01
505.01	6771.17
505.18	6803.94
505.36	7007.56
505.53	7026.29
505.71	6848.41
505.88	6920.96
506.06	6684.57
506.23	6686.91
506.41	6518.39
506.58	6478.60
506.76	6691.59
506.93	6532.44
507.11	6520.73
507.28	6523.07
507.46	6480.94
507.63	6183.70
507.81	6445.84
507.98	6417.75
508.16	6696.27
508.33	6511.37
508.50	6661.16
508.68	6796.92
508.85	6923.30
509.03	7077.78
509.20	6885.86
509.38	6717.34
509.55	6480.94
509.73	6476.26
509.90	6565.20
510.08	6707.98
510.25	6750.10
510.42	6665.85
510.60	6581.59
510.77	6780.53
510.95	6890.54
511.12	6909.26
511.30	6892.88
511.47	6836.70
511.64	7016.93
511.82	7145.66
511.99	6799.26
512.17	6527.75
512.34	6534.78
512.51	6668.19
512.69	6637.76
512.86	6604.99
513.04	6642.44
513.21	6703.29
513.38	6743.08
513.56	6532.44
513.73	6305.40
513.90	6525.41
514.08	6347.53
514.25	6415.41
514.43	6434.13
514.60	6537.12
514.77	6668.19
514.95	6815.64
515.12	6478.60
515.29	6476.26
515.47	6675.21
515.64	6853.09
515.81	6839.05
515.99	6593.29
516.16	6282.00
516.33	5778.78
516.51	5446.43
516.68	5369.19
516.85	5317.70
517.03	5315.36
517.20	5811.55
517.37	6331.15
517.54	6597.97
517.72	6581.59
517.89	5984.75
518.06	5565.79
518.24	5479.19
518.41	5860.70
518.58	6134.54
518.75	6260.93
518.93	6310.08
519.10	6157.95
519.27	6394.34
519.45	6279.66
519.62	6686.91
519.79	6768.83
519.96	6569.88
520.14	6567.54
520.31	6321.79
520.48	6427.11
520.65	6312.42
520.83	6443.49
521.00	7000.54
521.17	6640.10
521.34	6736.06
521.52	6644.78
521.69	6850.75
521.86	6988.84
522.03	6750.10
522.20	6352.21
522.38	6455.20
522.55	6176.67
522.72	6368.60
522.89	6312.42
523.07	6417.75
523.24	6569.88
523.41	6745.42
523.58	6733.72
523.75	6885.86
523.92	6925.65
524.10	6761.81
524.27	7073.10
524.44	6876.49
524.61	6808.62
524.78	6707.98
524.96	6867.13
525.13	6679.89
525.30	6874.15
525.47	6991.18
525.64	6822.66
525.81	6747.76
525.98	6305.40
526.16	5912.19
526.33	5949.64
526.50	5638.35
526.67	5722.61
526.84	5790.49
527.01	6017.52
527.18	6228.17
527.36	6445.84
527.53	6647.12
527.70	6738.40
527.87	6710.32
528.04	6399.02
528.21	6642.44
528.38	6862.45
528.55	6958.41
528.72	6967.77
528.89	6960.75
529.07	6796.92
529.24	6642.44
529.41	6483.28
529.58	6429.45
529.75	6445.84
529.92	6637.76
530.09	6731.38
530.26	6909.26
530.43	6850.75
530.60	6775.85
530.77	6937.35
530.94	6939.69
531.11	7009.90
531.28	6792.23
531.46	6855.43
531.63	6768.83
531.80	6724.36
531.97	6469.24
532.14	6389.66
532.31	6127.52
532.48	6094.76
532.65	6005.81
532.82	6225.82
532.99	6534.78
533.16	6541.80
533.33	6612.01
533.50	6661.16
533.67	6434.13
533.84	6436.47
534.01	6434.13
534.18	6558.18
534.35	6579.25
534.52	6553.50
534.69	6462.22
534.86	6747.76
535.03	6684.57
535.20	6874.15
535.37	6897.56
535.54	6885.86
535.71	6995.86
535.88	6661.16
536.05	6604.99
536.22	6448.18
536.38	6415.41
536.55	6296.04
536.72	6101.78
536.89	6083.05
537.06	6319.45
537.23	6588.61
537.40	6607.33
537.57	6670.53
537.74	6497.33
537.91	6583.93
538.08	6534.78
538.25	6389.66
538.42	6593.29
538.59	6619.04
538.75	6487.96
538.92	6310.08
539.09	6356.90
539.26	6267.95
539.43	6218.80
539.60	6256.25
539.77	6345.19
539.94	6246.89
540.11	6008.16
540.28	5713.25
540.44	5994.11
540.61	5954.32
540.78	6085.39
540.95	6272.64
541.12	6377.96
541.29	6399.02
541.46	6431.79
541.62	6473.92
541.79	6438.81
541.96	6239.87
542.13	5975.39
542.30	6279.66
542.47	6319.45
542.63	6244.55
542.80	6190.72
542.97	6143.91
543.14	6272.64
543.31	6267.95
543.48	6420.09
543.64	6551.16
543.81	6583.93
543.98	6396.68
544.15	6298.38
544.32	6139.23
544.48	6284.34
544.65	6274.98
544.82	6352.21
544.99	6424.77
545.16	6441.15
545.32	6134.54
545.49	6274.98
545.66	6452.86
545.83	6352.21
546.00	6410.73
546.16	6289.02
546.33	6289.02
546.50	6125.18
546.67	6342.85
546.83	6228.17
547.00	6289.02
547.17	6008.16
547.34	6052.63
547.50	5888.79
547.67	6080.71
547.84	6094.76
548.00	6087.73
548.17	6490.31
548.34	6277.32
548.51	6132.20
548.67	6445.84
548.84	6249.23
549.01	6136.88
549.18	6434.13
549.34	6333.49
549.51	6120.50
549.68	6019.86
549.84	6115.82
550.01	6282.00
550.18	6162.63
550.34	6321.79
550.51	6125.18
550.68	6111.14
550.84	6003.47
551.01	6050.28
551.18	6150.93
551.34	6061.99
551.51	6111.14
551.68	6237.53
551.84	6303.06
552.01	6139.23
552.18	6164.97
552.34	5987.09
552.51	5942.62
552.68	5865.38
552.84	6052.63
553.01	6031.56
553.18	5914.53
553.34	5973.05
553.51	6064.33
553.67	6122.84
553.84	6174.33
554.01	6052.63
554.17	6029.22
554.34	6108.80
554.51	6045.60
554.67	6094.76
554.84	6328.81
555.00	6111.14
555.17	5877.09
555.33	5926.24
555.50	5937.94
555.67	5989.43
555.83	5907.51
556.00	5863.04
556.16	5813.89
556.33	5769.42
556.50	5741.33
556.66	5696.86
556.83	5617.29
556.99	5666.44
557.16	5781.12
557.32	5809.21
557.49	5912.19
557.65	5757.72
557.82	5923.90
557.98	5783.46
558.15	5727.29
558.32	5731.97
558.48	5362.17
558.65	5420.68
558.81	5341.10
558.98	5500.26
559.14	5631.33
559.31	5701.54
559.47	5607.92
559.64	5509.62
559.80	5504.94
559.97	5383.23
560.13	5530.69
560.30	5816.23
560.46	5734.31
560.63	5881.77
560.79	5994.11
560.96	5748.36
561.12	5458.13
561.29	5399.62
561.45	5472.17
561.61	5474.51
561.78	5666.44
561.94	5643.03
562.11	5687.50
562.27	5556.43
562.44	5661.76
562.60	5715.59
562.77	5584.52
562.93	5610.26
563.10	5549.41
563.26	5434.72
563.42	5437.06
563.59	5565.79
563.75	5327.06
563.92	5614.95
564.08	5572.82
564.24	5514.30
564.41	5479.19
564.57	5514.30
564.74	5441.75
564.90	5420.68
565.07	5364.51
565.23	5376.21
565.39	5095.35
565.56	5125.77
565.72	5095.35
565.88	5184.29
566.05	5144.50
566.21	5322.38
566.38	5350.46
566.54	5465.15
566.70	5479.19
566.87	5441.75
567.03	5446.43
567.19	5579.84
567.36	5416.00
567.52	5497.92
567.68	5392.59
567.85	5315.36
568.01	5217.05
568.17	5172.58
568.34	5156.20
568.50	5062.58
568.66	5177.26
568.83	5109.39
568.99	5275.57
569.15	5252.16
569.32	5060.24
569.48	5249.82
569.64	5214.71
569.81	4936.19
569.97	5067.26
570.13	5034.49
570.30	4985.34
570.46	4964.28
570.62	4821.50
570.78	4830.87
570.95	4924.49
571.11	5060.24
571.27	5034.49
571.43	5032.15
571.60	5142.16
571.76	5128.11
571.92	5123.43
572.09	5195.99
572.25	5263.86
572.41	5158.54
572.57	5273.23
572.74	5179.61
572.90	5078.96
573.06	4987.68
573.22	4978.32
573.38	5097.69
573.55	4978.32
573.71	5095.35
573.87	5074.28
574.03	5132.79
574.20	5071.94
574.36	5032.15
574.52	4926.83
574.68	4926.83
574.84	4889.38
575.01	4903.42
575.17	4798.10
575.33	4821.50
575.49	4788.74
575.65	4826.18
575.82	4760.65
575.98	4622.56
576.14	4800.44
576.30	4807.46
576.46	4961.94
576.62	4865.97
576.79	4882.36
576.95	4849.59
577.11	4877.68
577.27	4924.49
577.43	4779.37
577.59	4901.08
577.75	4844.91
577.92	4507.87
578.08	4601.49
578.24	4573.41
578.40	4678.73
578.56	4748.95
578.72	4652.98
578.88	4727.88
579.04	4784.06
579.21	4711.50
579.37	4718.52
579.53	4795.76
579.69	4746.61
579.85	4643.62
580.01	4823.84
580.17	4835.55
580.33	4695.11
580.49	4627.24
580.65	4657.67
580.82	4786.40
580.98	4847.25
581.14	4657.67
581.30	4695.11
581.46	4788.74
581.62	4711.50
581.78	4737.24
581.94	4779.37
582.10	4748.95
582.26	4961.94
582.42	4678.73
582.58	4898.74
582.74	4739.58
582.90	4748.95
583.06	4821.50
583.22	4489.15
583.38	4692.77
583.54	4669.37
583.70	4734.90
583.86	4727.88
584.02	4631.92
584.18	4706.82
584.34	4732.56
584.50	4585.11
584.66	4671.71
584.82	4535.96
584.98	4533.62
585.14	4442.34
585.30	4423.61
585.46	4409.57
585.62	4388.50
585.78	4461.06
585.94	4489.15
586.10	4486.81
586.26	4430.63
586.42	4580.43
586.58	4631.92
586.74	4568.73
586.90	4428.29
587.06	4521.92
587.22	4479.79
587.38	4599.15
587.54	4470.42
587.70	4416.59
587.86	4369.78
588.02	4411.91
588.18	4168.49
588.34	4201.26
588.49	3929.76
588.65	3737.84
588.81	3744.86
588.97	3754.22
589.13	3730.81
589.29	3691.02
589.45	3847.84
589.61	3932.10
589.77	3990.61
589.93	4318.29
590.08	4313.61
590.24	4306.59
590.40	4348.72
590.56	4262.12
590.72	4341.69
590.88	4215.30
591.04	4304.25
591.20	4198.92
591.35	4184.88
591.51	4262.12
591.67	4152.11
591.83	4072.53
591.99	4140.41
592.15	4227.01
592.31	4180.20
592.46	4079.55
592.62	4138.07
592.78	4119.34
592.94	4182.54
593.10	4182.54
593.26	4224.67
593.41	4252.75
593.57	4234.03
593.73	4161.47
593.89	3978.91
594.05	4007.00
594.20	4011.68
594.36	3894.65
594.52	3929.76
594.68	3894.65
594.84	3791.67
594.99	4025.72
595.15	4025.72
595.31	3971.89
595.47	4056.15
595.62	4173.18
595.78	4114.66
595.94	4067.85
596.10	4067.85
596.25	4180.20
596.41	3962.53
596.57	3948.48
596.73	4084.23
596.88	4161.47
597.04	4175.52
597.20	3913.38
597.36	3976.57
597.51	3932.10
597.67	4037.42
597.83	4079.55
