SpectraSuite Data File
++++++++++++++++++++++++++++++++++++
Date: Mon Oct 07 14:53:41 GMT-05:00 2013
User: price-jones
Dark Spectrum Present: No
Reference Spectrum Present: No
Number of Sampled Component Spectra: 1
Spectrometers: USB2+H05261
Integration Time (usec): 100000 (USB2+H05261)
Spectra Averaged: 1 (USB2+H05261)
Boxcar Smoothing: 0 (USB2+H05261)
Correct for Electrical Dark: No (USB2+H05261)
Strobe/Lamp Enabled: No (USB2+H05261)
Correct for Detector Non-linearity: No (USB2+H05261)
Correct for Stray Light: No (USB2+H05261)
Number of Pixels in Processed Spectrum: 2048
>>>>>Begin Processed Spectral Data<<<<<
365.73	0.00
365.92	0.00
366.12	0.00
366.32	0.00
366.52	0.00
366.72	0.00
366.91	0.00
367.11	0.00
367.31	0.00
367.51	0.00
367.70	0.00
367.90	0.00
368.10	0.00
368.30	0.00
368.49	0.00
368.69	0.00
368.89	0.00
369.09	0.00
369.28	0.00
369.48	0.00
369.68	0.00
369.87	0.00
370.07	0.00
370.27	0.00
370.47	589.82
370.66	2684.59
370.86	3199.51
371.06	3389.10
371.25	3604.42
371.45	3330.58
371.65	2904.60
371.84	2700.98
372.04	2818.00
372.24	3143.34
372.44	3239.30
372.63	3302.50
372.83	3148.02
373.03	2661.19
373.22	2466.92
373.42	2551.18
373.62	3136.32
373.81	3353.99
374.01	3473.36
374.21	2888.22
374.40	2745.45
374.60	2808.64
374.79	3297.81
374.99	3831.46
375.19	4088.92
375.38	4011.68
375.58	3761.24
375.78	3726.13
375.97	3784.65
376.17	4095.94
376.37	3955.51
376.56	4180.20
376.76	4383.82
376.95	4685.75
377.15	4837.89
377.35	5130.45
377.54	5350.46
377.74	5537.71
377.93	5432.38
378.13	5235.78
378.33	4919.81
378.52	4685.75
378.72	4425.95
378.91	4341.69
379.11	4149.77
379.31	4215.30
379.50	4063.17
379.70	4313.61
379.89	4917.47
380.09	5167.90
380.28	5362.17
380.48	5397.28
380.68	5376.21
380.87	5083.64
381.07	4795.76
381.26	4524.26
381.46	4100.62
381.65	3836.14
381.85	3878.27
382.04	3826.78
382.24	3471.01
382.43	3398.46
382.63	3234.62
382.83	3176.11
383.02	3346.97
383.22	3229.94
383.41	3309.52
383.61	3529.53
383.80	4049.13
384.00	4524.26
384.19	4931.51
384.39	5298.97
384.58	5425.36
384.78	5282.59
384.97	5305.99
385.17	4961.94
385.36	4685.75
385.56	4561.70
385.75	4613.20
385.95	4954.91
386.14	5593.88
386.34	5427.70
386.53	5165.56
386.72	4922.15
386.92	4968.96
387.11	5308.34
387.31	5593.88
387.50	5462.81
387.70	5135.14
387.89	5198.33
388.09	5158.54
388.28	5170.24
388.48	5507.28
388.67	5720.27
388.86	6296.04
389.06	6810.96
389.25	7059.06
389.45	7194.81
389.64	7133.95
389.84	7054.37
390.03	6827.34
390.22	7016.93
390.42	7239.28
390.61	7515.46
390.81	8311.24
391.00	8465.72
391.19	8271.45
391.39	7906.33
391.58	7468.65
391.78	7286.09
391.97	6892.88
392.16	6539.46
392.36	6008.16
392.55	4795.76
392.75	3808.05
392.94	2993.55
393.13	2822.69
393.33	3545.91
393.52	4498.51
393.71	5612.60
393.91	6455.20
394.10	6857.77
394.29	7564.61
394.49	8285.50
394.68	8819.14
394.88	8760.63
395.07	9097.66
395.26	8994.68
395.46	8716.16
395.65	8222.30
395.84	7349.28
396.04	6003.47
396.23	4940.87
396.42	4142.75
396.62	3882.95
396.81	4554.68
397.00	5877.09
397.19	7260.34
397.39	8732.54
397.58	9745.99
397.77	10258.57
397.97	10768.80
398.16	10803.91
398.35	11215.85
398.55	11679.27
398.74	12362.71
398.93	12519.53
399.12	12379.09
399.32	11681.61
399.51	12074.82
399.70	13116.36
399.90	12510.16
400.09	12659.96
400.28	12713.79
400.47	12870.61
400.67	13352.76
400.86	13909.80
401.05	13657.03
401.24	13764.69
401.44	14026.83
401.63	14083.00
401.82	14106.41
402.01	14132.15
402.21	14394.29
402.40	14298.33
402.59	14270.25
402.78	13425.31
402.97	12837.84
403.17	13376.16
403.36	14136.84
403.55	14672.82
403.74	14857.72
403.93	14258.54
404.13	13294.24
404.32	13137.43
404.51	13605.53
404.70	14485.58
404.89	14775.80
405.09	14417.70
405.28	14054.92
405.47	14136.84
405.66	14143.86
405.85	13781.07
406.05	13291.90
406.24	13434.68
406.43	13947.25
406.62	14637.71
406.81	14518.34
407.00	14115.77
407.20	13582.13
407.39	13947.25
407.58	14368.55
407.77	15147.95
407.96	15316.47
408.15	15751.81
408.34	15936.71
408.54	16624.83
408.73	16723.13
408.92	16393.11
409.11	16009.26
409.30	15056.67
409.49	14260.88
409.68	13469.78
409.87	12884.65
410.07	13617.24
410.26	15110.50
410.45	15630.10
410.64	16205.87
410.83	16533.54
411.02	17034.42
411.21	17846.58
411.40	17715.51
411.59	17624.23
411.78	17572.74
411.98	17326.99
412.17	17710.83
412.36	17167.83
412.55	17245.07
412.74	17128.04
412.93	16540.57
413.12	16676.32
413.31	17994.04
413.50	18567.47
413.69	18555.77
413.88	17984.68
414.07	17373.80
414.26	17776.37
414.45	18490.23
414.64	18274.90
414.83	18761.73
415.02	18171.92
415.22	18176.60
415.41	18661.09
415.60	18991.11
415.79	19939.02
415.98	20278.40
416.17	20549.90
416.36	20009.24
416.55	19302.40
416.74	19353.89
416.93	18284.26
417.12	18377.89
417.31	18396.61
417.50	18939.62
417.69	19569.22
417.88	19784.55
418.07	19400.70
418.26	18967.70
418.45	19094.09
418.64	19934.34
418.83	20449.26
419.02	20395.43
419.21	20510.11
419.39	19180.69
419.58	18370.86
419.77	17902.76
419.96	19047.28
420.15	20308.83
420.34	20711.40
420.53	21596.12
420.72	22003.38
420.91	21804.43
421.10	21692.08
421.29	21451.01
421.48	20526.50
421.67	21542.29
421.86	21207.59
422.05	19847.74
422.24	17434.65
422.43	17308.26
422.61	19391.34
422.80	20968.86
422.99	21041.42
423.18	20313.51
423.37	19431.13
423.56	19955.41
423.75	20072.43
423.94	20327.55
424.13	19260.27
424.32	19683.91
424.50	19557.52
424.69	19613.69
424.88	19721.35
425.07	19264.95
425.26	19253.25
425.45	18984.09
425.64	18960.68
425.83	18895.14
426.01	19878.17
426.20	20418.83
426.39	20409.47
426.58	18707.90
426.77	17376.14
426.96	16861.22
427.15	17706.15
427.33	18899.83
427.52	19648.80
427.71	19316.44
427.90	19391.34
428.09	19180.69
428.28	19049.62
428.46	18436.40
428.65	17741.26
428.84	18405.97
429.03	18871.74
429.22	17598.49
429.40	16992.29
429.59	15311.78
429.78	13427.65
429.97	13591.49
430.16	13523.62
430.34	13839.59
430.53	13659.37
430.72	13984.70
430.91	15517.75
431.10	18005.74
431.28	21525.91
431.47	23211.09
431.66	23534.09
431.85	21713.15
432.03	20013.92
432.22	18799.18
432.41	19630.07
432.60	21741.24
432.79	22735.96
432.97	23023.85
433.16	22707.88
433.35	20926.73
433.54	18876.42
433.72	17401.88
433.91	18232.77
434.10	20353.30
434.28	21607.83
434.47	22991.08
434.66	22389.56
434.85	22008.06
435.03	21790.39
435.22	22022.10
435.41	23803.25
435.59	23393.65
435.78	24194.12
435.97	24575.62
436.16	24566.26
436.34	24292.42
436.53	23864.10
436.72	23672.18
436.90	22574.47
437.09	22698.52
437.28	22078.27
437.46	23161.94
437.65	23253.22
437.84	21296.53
438.02	19482.62
438.21	19463.90
438.40	20554.58
438.58	22375.52
438.77	23122.15
438.96	22974.70
439.14	24116.88
439.33	24411.79
439.52	25120.97
439.70	24779.25
439.89	23831.33
440.08	23426.42
440.26	23157.26
440.45	23999.85
440.63	25930.80
440.82	26810.84
441.01	26817.86
441.19	26359.11
441.38	26888.07
441.57	27702.58
441.75	27901.53
441.94	28276.01
442.12	28271.33
442.31	28645.82
442.50	28704.33
442.68	28266.65
442.87	27873.44
443.05	27524.70
443.24	27934.29
443.43	28383.68
443.61	29071.79
443.80	29399.47
443.98	27770.46
444.17	27379.59
444.35	29099.88
444.54	29883.96
444.73	28987.53
444.91	28739.44
445.10	27204.05
445.28	26024.42
445.47	25905.05
445.65	25773.98
445.84	26778.07
446.02	27498.95
446.21	27672.15
446.39	27957.70
446.58	28243.24
446.77	28510.07
446.95	28847.10
447.14	29797.36
447.32	30403.56
447.51	29326.91
447.69	28507.72
447.88	28088.77
448.06	28737.10
448.25	29404.15
448.43	29420.53
448.62	28840.08
448.80	28489.00
448.99	28957.11
449.17	29303.51
449.36	29153.71
449.54	30305.26
449.73	30691.44
449.91	31409.99
450.10	31969.38
450.28	32161.30
450.46	32196.41
450.65	32025.55
450.83	31730.64
451.02	31065.93
451.20	30986.35
451.39	30937.20
451.57	30862.30
451.76	31035.50
451.94	30558.03
452.13	29876.94
452.31	28868.17
452.49	27260.22
452.68	27641.73
452.86	27861.74
453.05	28318.14
453.23	28807.31
453.42	29921.41
453.60	30389.52
453.78	30604.84
453.97	30560.37
454.15	30352.07
454.34	29914.39
454.52	30146.10
454.70	29081.16
454.89	29916.73
455.07	29970.56
455.26	30120.35
455.44	31267.22
455.62	31828.95
455.81	32079.38
455.99	31873.42
456.17	31592.55
456.36	31735.32
456.54	32598.98
456.73	32149.60
456.91	32919.63
457.09	32929.00
457.28	33837.12
457.46	32437.48
457.64	32058.32
457.83	31115.08
458.01	30464.41
458.19	31505.95
458.38	31271.90
458.56	32521.74
458.74	32575.58
458.93	32058.32
459.11	31655.75
459.29	31365.52
459.48	31812.56
459.66	31407.65
459.84	32261.94
460.03	32315.78
460.21	32477.27
460.39	32858.78
460.57	32919.63
460.76	33270.72
460.94	33530.51
461.12	33111.56
461.31	33474.34
461.49	32985.17
461.67	33200.50
461.85	34309.91
462.04	33961.17
462.22	33724.78
462.40	33982.24
462.59	34066.50
462.77	34206.93
462.95	34150.76
463.13	33598.39
463.32	32973.47
463.50	33170.07
463.68	32931.34
463.86	33460.30
464.05	33177.09
464.23	32320.46
464.41	31976.40
464.59	31281.26
464.78	32994.53
464.96	32746.44
465.14	32659.84
465.32	33401.79
465.50	34174.16
465.69	34555.67
465.87	33893.30
466.05	32975.81
466.23	31515.31
466.41	30604.84
466.60	31527.02
466.78	31524.68
466.96	32587.28
467.14	32882.19
467.32	32898.57
467.51	33474.34
467.69	31732.98
467.87	32278.33
468.05	32781.54
468.23	32776.86
468.41	33141.99
468.60	32938.36
468.78	33055.39
468.96	32795.59
469.14	33703.71
469.32	33670.95
469.50	32346.20
469.69	32587.28
469.87	31887.46
470.05	31812.56
470.23	31957.67
470.41	31974.06
470.59	32397.70
470.77	32507.70
470.95	33467.32
471.14	33558.60
471.32	33684.99
471.50	35571.46
471.68	36002.12
471.86	36212.77
472.04	35845.30
472.22	36074.68
472.40	34565.03
472.58	34190.55
472.77	33598.39
472.95	35075.27
473.13	35566.78
473.31	34277.15
473.49	34752.27
473.67	35285.92
473.85	35758.70
474.03	36561.51
474.21	36205.75
474.39	37092.81
474.57	37046.00
474.75	36961.74
474.93	36634.06
475.12	36304.05
475.30	35857.01
475.48	36158.94
475.66	36842.37
475.84	36664.49
476.02	36259.58
476.20	35232.08
476.38	36481.93
476.56	37392.40
476.74	37794.97
476.92	38029.02
477.10	38307.55
477.28	39459.09
477.46	39683.78
477.64	40018.48
477.82	40156.57
478.00	40177.64
478.18	39955.29
478.36	39550.37
478.54	39381.85
478.72	39995.07
478.90	40980.44
479.08	41940.06
479.26	42237.31
479.44	42127.30
479.62	41813.67
479.80	41638.13
479.98	42422.21
480.16	42707.76
480.34	42007.94
480.52	42501.79
480.70	42576.69
480.88	42536.90
481.06	43377.15
481.24	43739.93
481.41	44942.97
481.59	44900.84
481.77	44584.86
481.95	44048.88
482.13	44048.88
482.31	44280.60
482.49	44734.66
482.67	44357.83
482.85	45162.98
483.03	45263.62
483.21	46253.67
483.39	46073.45
483.57	45097.44
483.74	45067.02
483.92	44891.48
484.10	45724.71
484.28	46494.74
484.46	47014.34
484.64	47175.84
484.82	46583.68
485.00	45858.12
485.18	45116.17
485.35	43744.61
485.53	41010.87
485.71	37284.73
485.89	36620.02
486.07	38232.65
486.25	41848.78
486.43	44116.76
486.61	44910.20
486.78	44638.70
486.96	44858.71
487.14	46824.76
487.32	47421.59
487.50	48676.12
487.68	49366.58
487.85	50038.31
488.03	50000.86
488.21	49638.08
488.39	48893.79
488.57	48114.39
488.75	47976.30
488.92	49113.80
489.10	51068.15
489.28	52542.69
489.46	53083.35
489.64	53006.11
489.81	53308.04
489.99	53036.54
490.17	52633.97
490.35	53198.04
490.53	52561.41
490.70	52538.01
490.88	52388.21
491.06	53102.07
491.24	53286.98
491.41	51924.78
491.59	50471.31
491.77	49668.51
491.95	50415.14
492.13	52060.54
492.30	52863.34
492.48	54279.36
492.66	54628.10
492.84	54630.44
493.01	54321.49
493.19	53984.46
493.37	53619.33
493.54	53406.34
493.72	53869.77
493.90	55168.77
494.08	55564.32
494.25	55884.97
494.43	56142.43
494.61	56458.40
494.79	56701.82
494.96	56385.85
495.14	55646.24
495.32	54953.44
495.49	54190.42
495.67	55381.76
495.85	56420.95
496.02	57130.14
496.20	56807.14
496.38	56341.38
496.55	56222.01
496.73	56790.76
496.91	56659.69
497.09	57513.98
497.26	57806.55
497.44	57132.48
497.62	56573.09
497.79	55739.86
497.97	54726.41
498.14	54557.89
498.32	55852.20
498.50	56914.81
498.67	57361.85
498.85	57076.30
499.03	57123.11
499.20	57549.09
499.38	57726.97
499.56	57350.15
499.73	56978.00
499.91	56596.49
500.08	56140.09
500.26	55229.62
500.44	55648.58
500.61	56509.89
500.79	56306.27
500.97	56004.34
501.14	55915.40
501.32	55753.90
501.49	55697.73
501.67	55735.18
501.84	56369.46
502.02	56659.69
502.20	57193.33
502.37	57080.98
502.55	57315.04
502.72	57638.03
502.90	58206.78
503.07	57911.88
503.25	57249.50
503.43	56804.80
503.60	56327.33
503.78	55664.96
503.95	55917.74
504.13	57069.28
504.30	57963.37
504.48	57886.13
504.65	57609.95
504.83	57752.72
505.01	58047.63
505.18	58553.18
505.36	59044.69
505.53	59114.91
505.71	59234.28
505.88	59454.29
506.06	58614.04
506.23	58695.95
506.41	58120.18
506.58	58422.11
506.76	58408.07
506.93	58101.46
507.11	58190.40
507.28	57984.43
507.46	57652.08
507.63	57366.53
507.81	57015.45
507.98	57244.82
508.16	57897.83
508.33	58382.32
508.50	58658.51
508.68	58906.60
508.85	59447.27
509.03	59316.20
509.20	59299.81
509.38	58859.79
509.55	57829.96
509.73	57818.25
509.90	58497.01
510.08	58995.54
510.25	58644.46
510.42	58478.28
510.60	58394.03
510.77	58714.68
510.95	59241.30
511.12	59283.43
511.30	59655.57
511.47	59793.67
511.64	59934.10
511.82	59721.11
511.99	58567.23
512.17	58255.93
512.34	57862.72
512.51	58099.12
512.69	58298.06
512.86	58424.45
513.04	58700.64
513.21	58738.08
513.38	58541.48
513.56	57832.30
513.73	57261.21
513.90	57719.95
514.08	57736.34
514.25	57930.60
514.43	58157.63
514.60	58213.80
514.77	58445.52
514.95	58408.07
515.12	58298.06
515.29	58464.24
515.47	59000.22
515.64	59465.99
515.81	58857.45
515.99	58433.81
516.16	57174.61
516.33	54724.07
516.51	53057.60
516.68	52502.90
516.85	51690.73
517.03	52182.24
517.20	55105.57
517.37	57513.98
517.54	58525.10
517.72	58066.35
517.89	55870.93
518.06	53233.14
518.24	53408.68
518.41	55774.97
518.58	57230.78
518.75	57368.87
518.93	57403.98
519.10	57448.45
519.27	57773.78
519.45	57986.77
519.62	58864.47
519.79	59070.44
519.96	58988.52
520.14	58581.27
520.31	57708.25
520.48	57911.88
520.65	58073.37
520.83	58852.77
521.00	59384.07
521.17	58859.79
521.34	58368.28
521.52	58845.75
521.69	59355.99
521.86	59732.81
522.03	59601.74
522.20	58368.28
522.38	57373.55
522.55	57202.69
522.72	57961.03
522.89	58239.55
523.07	58202.10
523.24	58466.58
523.41	59524.50
523.58	59681.32
523.75	60243.05
523.92	59847.50
524.10	59849.84
524.27	59866.22
524.44	59746.86
524.61	59402.80
524.78	59192.15
524.96	59412.16
525.13	59208.53
525.30	59613.44
525.47	59924.74
525.64	60001.97
525.81	59145.34
525.98	58092.10
526.16	56591.81
526.33	55695.39
526.50	55510.49
526.67	55196.85
526.84	55669.64
527.01	56666.71
527.18	57551.43
527.36	58314.45
527.53	59135.98
527.70	59444.93
527.87	59035.33
528.04	58382.32
528.21	58915.96
528.38	59435.56
528.55	60104.96
528.72	60308.58
528.89	60591.79
529.07	60357.74
529.24	59753.88
529.41	58927.67
529.58	58379.98
529.75	58616.38
529.92	59004.91
530.09	59360.67
530.26	59906.01
530.43	60240.71
530.60	60278.16
530.77	60224.32
530.94	60327.31
531.11	60140.07
531.28	59597.06
531.46	59601.74
531.63	59648.55
531.80	59365.35
531.97	59072.78
532.14	58623.40
532.31	57457.81
532.48	56659.69
532.65	56809.48
532.82	57513.98
532.99	58740.42
533.16	59114.91
533.33	59370.03
533.50	59451.95
533.67	58864.47
533.84	58358.92
534.01	58506.37
534.18	58777.87
534.35	59000.22
534.52	59084.48
534.69	59086.82
534.86	59465.99
535.03	59620.47
535.20	60102.62
535.37	60355.39
535.54	60568.38
535.71	60198.58
535.88	59849.84
536.05	59341.94
536.22	58700.64
536.38	58539.14
536.55	58085.07
536.72	57778.46
536.89	57808.89
537.06	58277.00
537.23	59133.63
537.40	59334.92
537.57	59297.47
537.74	59351.30
537.91	59250.66
538.08	59049.38
538.25	59299.81
538.42	59213.21
538.59	59049.38
538.75	58337.85
538.92	58468.92
539.09	58049.97
539.26	57954.00
539.43	57801.87
539.60	57867.40
539.77	57970.39
539.94	57848.68
540.11	57303.34
540.28	56442.02
540.44	56940.55
540.61	57020.13
540.78	57455.47
540.95	57780.81
541.12	58181.04
541.29	58621.06
541.46	58632.76
541.62	58684.25
541.79	58571.91
541.96	57902.51
542.13	57970.39
542.30	58052.31
542.47	58419.77
542.63	58202.10
542.80	57682.50
542.97	58181.04
543.14	57848.68
543.31	58017.20
543.48	58379.98
543.64	59327.90
543.81	59353.65
543.98	59150.02
544.15	58576.59
544.32	57965.71
544.48	57965.71
544.65	58562.54
544.82	59093.85
544.99	58553.18
545.16	58183.38
545.32	58049.97
545.49	58822.34
545.66	59187.47
545.83	58845.75
546.00	58585.95
546.16	58056.99
546.33	58258.27
546.50	58426.79
546.67	58759.15
546.83	58312.11
547.00	58307.43
547.17	57715.27
547.34	57237.80
547.50	56959.28
547.67	57413.34
547.84	57537.39
548.00	57897.83
548.17	58227.85
548.34	58260.62
548.51	58230.19
548.67	58244.23
548.84	58384.66
549.01	58501.69
549.18	58438.50
549.34	58047.63
549.51	57996.13
549.68	58134.23
549.84	57792.51
550.01	57659.10
550.18	57530.37
550.34	57719.95
550.51	57682.50
550.68	57916.56
550.84	57478.88
551.01	57549.09
551.18	57773.78
551.34	57918.90
551.51	57916.56
551.68	58515.73
551.84	58403.39
552.01	58073.37
552.18	58103.80
552.34	57134.82
552.51	57013.11
552.68	56821.19
552.84	57301.00
553.01	57612.29
553.18	57413.34
553.34	57446.11
553.51	57521.01
553.67	57970.39
553.84	58068.69
554.01	58017.20
554.17	57766.76
554.34	57670.80
554.51	57867.40
554.67	58197.42
554.84	58253.59
555.00	57675.48
555.17	57462.49
555.33	57612.29
555.50	57382.91
555.67	57460.15
555.83	57446.11
556.00	57186.31
556.16	57059.92
556.33	56528.62
556.50	56619.90
556.66	56596.49
556.83	56044.13
556.99	56577.77
557.16	56381.16
557.32	56793.10
557.49	56947.57
557.65	56757.99
557.82	56722.88
557.98	56809.48
558.15	56601.18
558.32	55601.77
558.48	54630.44
558.65	55033.02
558.81	55564.32
558.98	55744.54
559.14	55704.75
559.31	55880.29
559.47	56107.32
559.64	55531.55
559.80	55292.82
559.97	55033.02
560.13	55494.10
560.30	56715.86
560.46	57102.05
560.63	57389.94
560.79	57408.66
560.96	56935.87
561.12	56074.55
561.29	54930.03
561.45	55185.15
561.61	55569.00
561.78	55924.76
561.94	56039.45
562.11	55693.05
562.27	55377.08
562.44	56037.11
562.60	56278.18
562.77	56631.60
562.93	56236.05
563.10	56275.84
563.26	55679.00
563.42	56048.81
563.59	55370.05
563.75	55512.83
563.92	55679.00
564.08	55304.52
564.24	55906.04
564.41	56060.51
564.57	55913.06
564.74	55592.40
564.90	55650.92
565.07	55260.05
565.23	54953.44
565.39	54377.67
565.56	54319.15
565.72	53787.85
565.88	54429.16
566.05	54267.66
566.21	54815.35
566.38	54941.74
566.54	54813.01
566.70	55367.71
566.87	55697.73
567.03	55611.13
567.19	55931.78
567.36	55295.16
567.52	55442.61
567.68	55346.65
567.85	54457.24
568.01	54120.21
568.17	53752.74
568.34	53642.74
568.50	53556.14
568.66	53509.33
568.83	54120.21
568.99	54578.95
569.15	54288.73
569.32	54351.92
569.48	54148.29
569.64	53982.12
569.81	53663.80
569.97	54017.22
570.13	53602.95
570.30	53078.67
570.46	52699.50
570.62	52135.43
570.78	52102.67
570.95	52395.23
571.11	53282.30
571.27	53043.56
571.43	53235.48
571.60	53708.27
571.76	53954.03
571.92	54279.36
572.09	54461.93
572.25	54253.62
572.41	54255.96
572.57	54270.00
572.74	54052.33
572.90	53682.53
573.06	53668.48
573.22	53521.03
573.38	53642.74
573.55	53703.59
573.71	53968.07
573.87	53773.81
574.03	53673.16
574.20	53862.75
574.36	53268.25
574.52	53352.51
574.68	52945.26
574.84	52463.11
575.01	52175.22
575.17	52065.22
575.33	52612.90
575.49	52772.06
575.65	52928.87
575.82	52577.79
575.98	52575.45
576.14	52640.99
576.30	52973.34
576.46	52985.05
576.62	53153.57
576.79	53085.69
576.95	52460.77
577.11	52271.18
577.27	52437.36
577.43	52491.19
577.59	52215.01
577.75	51917.76
577.92	50911.33
578.08	50995.59
578.24	50836.44
578.40	51344.33
578.56	51821.80
578.72	51590.09
578.88	52090.96
579.04	51868.61
579.21	52238.42
579.37	52196.29
579.53	52280.55
579.69	52416.30
579.85	52353.10
580.01	52135.43
580.17	51985.64
580.33	51718.82
580.49	51798.40
580.65	52060.54
580.82	52280.55
580.98	52069.90
581.14	52044.15
581.30	52308.63
581.46	52006.70
581.62	52643.33
581.78	52217.35
581.94	52245.44
582.10	52392.89
582.26	52409.28
582.42	52446.72
582.58	52392.89
582.74	52158.84
582.90	52336.72
583.06	52264.16
583.22	52238.42
583.38	52025.43
583.54	52107.35
583.70	51966.91
583.86	51805.42
584.02	52051.17
584.18	51945.85
584.34	51840.53
584.50	51835.84
584.66	51826.48
584.82	51178.15
584.98	50988.57
585.14	50822.39
585.30	50101.51
