SpectraSuite Data File
++++++++++++++++++++++++++++++++++++
Date: Mon Oct 07 14:53:45 GMT-05:00 2013
User: price-jones
Dark Spectrum Present: No
Reference Spectrum Present: No
Number of Sampled Component Spectra: 1
Spectrometers: USB2+H05261
Integration Time (usec): 100000 (USB2+H05261)
Spectra Averaged: 1 (USB2+H05261)
Boxcar Smoothing: 0 (USB2+H05261)
Correct for Electrical Dark: No (USB2+H05261)
Strobe/Lamp Enabled: No (USB2+H05261)
Correct for Detector Non-linearity: No (USB2+H05261)
Correct for Stray Light: No (USB2+H05261)
Number of Pixels in Processed Spectrum: 2048
>>>>>Begin Processed Spectral Data<<<<<
365.73	0.00
365.92	0.00
366.12	0.00
366.32	0.00
366.52	0.00
366.72	0.00
366.91	0.00
367.11	0.00
367.31	0.00
367.51	0.00
367.70	0.00
367.90	0.00
368.10	0.00
368.30	0.00
368.49	0.00
368.69	0.00
368.89	0.00
369.09	0.00
369.28	0.00
369.48	0.00
369.68	0.00
369.87	0.00
370.07	0.00
370.27	0.00
370.47	512.58
370.66	3040.36
370.86	3541.23
371.06	3915.72
371.25	3836.14
371.45	3604.42
371.65	3180.79
371.84	2949.08
372.04	3162.06
372.24	3564.64
372.44	3667.62
372.63	3686.34
372.83	3468.67
373.03	3211.22
373.22	2818.00
373.42	2991.20
373.62	3330.58
373.81	3555.27
374.01	3641.87
374.21	3435.91
374.40	3117.59
374.60	3162.06
374.79	3590.38
374.99	4215.30
375.19	4477.44
375.38	4535.96
375.58	4297.22
375.78	4152.11
375.97	4292.54
376.17	4521.92
376.37	4402.55
376.56	4535.96
376.76	4571.07
376.95	5130.45
377.15	5441.75
377.35	5582.18
377.54	5746.02
377.74	6019.86
377.93	6179.01
378.13	5937.94
378.33	5727.29
378.52	5146.84
378.72	4964.28
378.91	4849.59
379.11	4760.65
379.31	4627.24
379.50	4402.55
379.70	4889.38
379.89	5397.28
380.09	5678.14
380.28	5930.92
380.48	5940.28
380.68	5937.94
380.87	5825.59
381.07	5270.89
381.26	5055.56
381.46	4592.13
381.65	4493.83
381.85	4374.46
382.04	4093.60
382.24	3840.82
382.43	3801.03
382.63	3611.45
382.83	3550.59
383.02	3592.72
383.22	3527.19
383.41	3454.63
383.61	3817.41
383.80	4498.51
384.00	5039.17
384.19	5650.05
384.39	5888.79
384.58	5825.59
384.78	5849.00
384.97	5682.82
385.17	5439.40
385.36	5163.22
385.56	4821.50
385.75	5137.48
385.95	5577.50
386.14	6005.81
386.34	6052.63
386.53	5893.47
386.72	5394.93
386.92	5544.73
387.11	5874.74
387.31	6125.18
387.50	5970.71
387.70	5865.38
387.89	5699.20
388.09	5710.91
388.28	5785.80
388.48	5919.21
388.67	6106.46
388.86	6825.00
389.06	7421.84
389.25	7786.96
389.45	7997.61
389.64	7850.16
389.84	7744.83
390.03	7655.89
390.22	7768.24
390.42	7999.95
390.61	8552.32
390.81	8987.66
391.00	9308.31
391.19	9245.12
391.39	8795.73
391.58	8444.65
391.78	7796.32
391.97	7588.02
392.16	7061.40
392.36	6684.57
392.55	5191.31
392.75	4250.41
392.94	3426.54
393.13	3321.22
393.33	3852.52
393.52	5057.90
393.71	6223.48
393.91	6979.48
394.10	7543.55
394.29	8175.49
394.49	8968.93
394.68	9575.13
394.88	9614.92
395.07	9881.74
395.26	9994.09
395.46	9628.96
395.65	8872.97
395.84	7826.75
396.04	6801.60
396.23	5554.09
396.42	4542.98
396.62	4430.63
396.81	5195.99
397.00	6480.94
397.19	8271.45
397.39	9633.64
397.58	10799.23
397.77	11531.82
397.97	11889.92
398.16	12023.33
398.35	12561.66
398.55	12959.55
398.74	13537.66
398.93	13731.92
399.12	13963.64
399.32	13118.70
399.51	13303.60
399.70	14193.01
399.90	13872.36
400.09	14209.39
400.28	13837.25
400.47	14129.81
400.67	15089.43
400.86	15349.23
401.05	14946.66
401.24	15311.78
401.44	15463.92
401.63	15407.75
401.82	15585.63
402.01	15655.84
402.21	15810.32
402.40	15915.64
402.59	15482.64
402.78	14822.61
402.97	14225.78
403.17	14630.69
403.36	15815.00
403.55	16737.17
403.74	16662.27
403.93	15765.85
404.13	14579.20
404.32	14373.23
404.51	14841.34
404.70	15969.48
404.89	15985.86
405.09	15697.97
405.28	15424.13
405.47	15377.32
405.66	15321.15
405.85	14846.02
406.05	14530.05
406.24	14703.25
406.43	15426.47
406.62	16175.44
406.81	16159.06
407.00	15264.97
407.20	15272.00
407.39	15398.38
407.58	15693.29
407.77	16582.70
407.96	17163.15
408.15	17029.74
408.34	17233.36
408.54	18239.79
408.73	18288.95
408.92	17748.28
409.11	17467.42
409.30	16807.39
409.49	15917.98
409.68	14448.13
409.87	14443.45
410.07	15166.67
410.26	16163.74
410.45	17554.02
410.64	17799.77
410.83	18200.01
411.02	18780.46
411.21	19669.86
411.40	19110.47
411.59	19564.54
411.78	19255.59
411.98	18698.54
412.17	19061.32
412.36	19229.84
412.55	18860.04
412.74	18555.77
412.93	18008.08
413.12	18420.02
413.31	20039.67
413.50	20102.86
413.69	20861.19
413.88	19838.38
414.07	18995.79
414.26	19325.80
414.45	20102.86
414.64	20348.62
414.83	20318.19
415.02	20032.65
415.22	20077.12
415.41	20601.40
415.60	20828.43
415.79	21912.10
415.98	22445.74
416.17	22644.68
416.36	21694.43
416.55	21383.13
416.74	20723.10
416.93	19934.34
417.12	20231.59
417.31	20238.61
417.50	20636.50
417.69	21348.03
417.88	21687.40
418.07	21177.17
418.26	20875.24
418.45	20767.57
418.64	21750.60
418.83	22462.12
419.02	22333.39
419.21	22153.17
419.39	20788.64
419.58	20116.90
419.77	20109.88
419.96	21055.46
420.15	22136.79
420.34	23143.22
420.53	23721.33
420.72	24027.94
420.91	23917.93
421.10	23845.38
421.29	23597.28
421.48	22604.89
421.67	23899.21
421.86	22852.99
422.05	21558.67
422.24	19440.49
422.43	18743.01
422.61	21006.31
422.80	22742.99
422.99	22857.67
423.18	22288.92
423.37	21757.62
423.56	21645.27
423.75	21958.91
423.94	22602.55
424.13	21118.65
424.32	21600.80
424.50	21626.55
424.69	21022.69
424.88	21287.17
425.07	21186.53
425.26	21097.59
425.45	20779.28
425.64	20566.29
425.83	20463.30
426.01	21825.50
426.20	22209.34
426.39	22469.14
426.58	20493.73
426.77	19047.28
426.96	18141.49
427.15	19007.49
427.33	20765.23
427.52	21493.14
427.71	21748.26
427.90	21369.09
428.09	21322.28
428.28	20753.53
428.46	20297.13
428.65	19604.33
428.84	20159.03
429.03	20407.13
429.22	19716.67
429.40	18560.45
429.59	16748.87
429.78	14991.13
429.97	14733.67
430.16	15117.52
430.34	15051.99
430.53	15019.22
430.72	15405.41
430.91	16634.19
431.10	20006.90
431.28	23828.99
431.47	25425.24
431.66	25839.51
431.85	23761.12
432.03	21722.51
432.22	20741.83
432.41	21387.82
432.60	23924.96
432.79	25106.93
432.97	25628.87
433.16	24945.43
433.35	22590.85
433.54	20561.61
433.72	19168.99
433.91	19784.55
434.10	22153.17
434.28	23866.44
434.47	25050.75
434.66	24795.64
434.85	24301.78
435.03	23845.38
435.22	24393.06
435.41	26031.44
435.59	25748.23
435.78	26331.03
435.97	27065.96
436.16	26953.61
436.34	26752.32
436.53	25947.18
436.72	26099.31
436.90	24350.93
437.09	24610.73
437.28	24334.55
437.46	25319.92
437.65	25371.41
437.84	23309.40
438.02	21516.54
438.21	21252.06
438.40	22424.67
438.58	24343.91
438.77	25120.97
438.96	25233.32
439.14	26293.58
439.33	26827.22
439.52	27253.20
439.70	27253.20
439.89	26148.46
440.08	25387.79
440.26	25635.89
440.45	26398.90
440.63	28048.98
440.82	29158.39
441.01	28985.19
441.19	28664.54
441.38	29132.65
441.57	30000.99
441.75	30764.00
441.94	30703.15
442.12	30904.43
442.31	31386.58
442.50	31234.45
442.68	30925.50
442.87	30394.20
443.05	29830.13
443.24	30295.89
443.43	30948.90
443.61	31641.70
443.80	32041.93
443.98	30169.51
444.17	29893.32
444.35	32072.36
444.54	32306.41
444.73	32364.93
444.91	30881.03
445.10	30071.20
445.28	28397.72
445.47	27934.29
445.65	28119.20
445.84	28922.00
446.02	30073.54
446.21	30377.81
446.39	30607.19
446.58	30815.49
446.77	31365.52
446.95	31264.88
447.14	32346.20
447.32	33266.03
447.51	32318.12
447.69	30993.37
447.88	30686.76
448.06	31108.06
448.25	31688.51
448.43	32219.81
448.62	31374.88
448.80	30986.35
448.99	31627.66
449.17	31899.16
449.36	31585.53
449.54	33261.35
449.73	33254.33
449.91	34092.24
450.10	35388.90
450.28	35131.44
450.46	35035.48
450.65	35108.04
450.83	34869.30
451.02	33846.49
451.20	33844.15
451.39	33802.02
451.57	33390.08
451.76	33865.21
451.94	33675.63
452.13	33198.16
452.31	31508.29
452.49	30197.59
452.68	29900.34
452.86	30529.95
453.05	30768.68
453.23	31723.62
453.42	32594.30
453.60	33343.27
453.78	33647.54
453.97	33060.07
454.15	33277.74
454.34	32385.99
454.52	32907.93
454.70	31845.33
454.89	31917.89
455.07	32374.29
455.26	32968.79
455.44	33752.87
455.62	34733.55
455.81	35112.72
455.99	34972.28
456.17	34192.89
456.36	34197.57
456.54	35484.86
456.73	35311.66
456.91	35751.68
457.09	36030.21
457.28	36748.75
457.46	35456.78
457.64	35274.21
457.83	33816.06
458.01	32856.44
458.19	34160.12
458.38	34192.89
458.56	35517.63
458.74	34953.56
458.93	34394.17
459.11	34412.90
459.29	34483.11
459.48	34719.51
459.66	34403.53
459.84	34747.59
460.03	35016.75
460.21	35260.17
460.39	35861.69
460.57	36027.87
460.76	36517.04
460.94	36673.85
461.12	35784.45
461.31	36133.19
461.49	35995.10
461.67	35660.40
461.85	37064.72
462.04	36837.69
462.22	36921.95
462.40	37390.06
462.59	36500.65
462.77	37165.37
462.95	37619.43
463.13	36238.51
463.32	36444.48
463.50	36041.91
463.68	35559.76
463.86	36217.45
464.05	35344.43
464.23	35154.85
464.41	34644.61
464.59	34024.37
464.78	36011.48
464.96	35632.32
465.14	35358.47
465.32	35931.90
465.50	37191.11
465.69	37397.08
465.87	37219.20
466.05	35725.94
466.23	34338.00
466.41	33401.79
466.60	34340.34
466.78	34593.12
466.96	35215.70
467.14	35566.78
467.32	35777.43
467.51	36446.82
467.69	34747.59
467.87	35421.67
468.05	35524.65
468.23	35571.46
468.41	35615.93
468.60	35929.56
468.78	36130.85
468.96	35852.33
469.14	36294.69
469.32	36809.61
469.50	35201.66
469.69	35461.46
469.87	35098.67
470.05	34504.18
470.23	34745.25
470.41	35030.80
470.59	35466.14
470.77	35613.59
470.95	36357.88
471.14	36477.25
471.32	36545.12
471.50	38707.78
471.68	38815.44
471.86	39246.10
472.04	39129.08
472.22	39604.20
472.40	37661.56
472.58	37361.97
472.77	36786.20
472.95	37535.17
473.13	38466.70
473.31	37251.97
473.49	37462.61
473.67	38319.25
473.85	38368.40
474.03	39442.71
474.21	39426.32
474.39	40055.93
474.57	40704.26
474.75	40641.06
474.93	39707.19
475.12	39075.24
475.30	39089.29
475.48	39199.29
475.66	39835.92
475.84	39538.67
476.02	39447.39
476.20	38480.75
476.38	39206.31
476.56	39934.22
476.74	40762.77
476.92	41343.22
477.10	41790.27
477.28	42543.92
477.46	42335.61
477.64	43447.36
477.82	43580.78
478.00	43578.43
478.18	42728.82
478.36	42700.73
478.54	42478.38
478.72	42939.47
478.90	43761.00
479.08	45350.22
479.26	45556.19
479.44	45535.12
479.62	45436.82
479.80	45265.96
479.98	45158.30
480.16	45469.59
480.34	44844.66
480.52	45624.06
480.70	45984.51
480.88	46014.93
481.06	46887.95
481.24	46700.71
481.41	47643.94
481.59	48549.73
481.77	48252.48
481.95	47187.54
482.13	47920.13
482.31	47503.51
482.49	48009.07
482.67	47842.89
482.85	48353.13
483.03	48858.68
483.21	49291.68
483.39	49174.66
483.57	48121.41
483.74	48353.13
483.92	48268.87
484.10	48753.36
484.28	49741.06
484.46	49668.51
484.64	50150.66
484.82	49673.19
485.00	49055.29
485.18	48030.13
485.35	46993.28
485.53	43995.05
485.71	40395.31
485.89	39758.68
486.07	41254.28
486.25	44921.90
486.43	47201.58
486.61	47800.76
486.78	47964.60
486.96	48004.39
487.14	49794.90
487.32	50555.57
487.50	51278.80
487.68	52009.04
487.85	52580.13
488.03	52818.87
488.21	52121.39
488.39	51353.69
488.57	51356.03
488.75	50658.56
488.92	51660.30
489.10	53584.22
489.28	54773.22
489.46	55456.65
489.64	55267.07
489.81	55533.89
489.99	55058.76
490.17	55220.26
490.35	55693.05
490.53	54986.21
490.70	54712.36
490.88	54693.64
491.06	55402.82
491.24	55444.95
491.41	54782.58
491.59	53205.06
491.77	52013.73
491.95	53233.14
492.13	54487.67
492.30	55477.72
492.48	56402.23
492.66	56774.37
492.84	56938.21
493.01	56437.34
493.19	56254.78
493.37	55821.78
493.54	55650.92
493.72	56229.03
493.90	57305.68
494.08	57769.10
494.25	58033.58
494.43	58089.76
494.61	58541.48
494.79	58728.72
494.96	58335.51
495.14	57954.00
495.32	57073.96
495.49	56519.26
495.67	57492.92
495.85	58560.20
496.02	59018.95
496.20	59002.56
496.38	58457.22
496.55	58351.90
496.73	58749.79
496.91	59032.99
497.09	59554.93
497.26	59669.62
497.44	59058.74
497.62	58759.15
497.79	58003.16
497.97	56825.87
498.14	57006.09
498.32	57979.75
498.50	58997.88
498.67	59363.01
498.85	59189.81
499.03	59419.18
499.20	59695.36
499.38	59730.47
499.56	59435.56
499.73	59030.65
499.91	58616.38
500.08	58286.36
500.26	57626.33
500.44	57879.11
500.61	58597.65
500.79	58408.07
500.97	58056.99
501.14	58113.16
501.32	57736.34
501.49	57785.49
501.67	58115.50
501.84	58447.86
502.02	58803.62
502.20	59128.95
502.37	59178.10
502.55	59114.91
502.72	59655.57
502.90	60102.62
503.07	59831.11
503.25	59517.48
503.43	58754.47
503.60	58099.12
503.78	57453.13
503.95	57928.26
504.13	59260.02
504.30	59980.91
504.48	59994.95
504.65	59604.08
504.83	59515.14
505.01	60151.77
505.18	60247.73
505.36	60856.27
505.53	60870.31
505.71	61116.07
505.88	61181.60
506.06	60657.32
506.23	60343.69
506.41	59980.91
506.58	60203.26
506.76	60191.56
506.93	60252.41
507.11	59985.59
507.28	60184.54
507.46	59587.70
507.63	59171.08
507.81	58827.02
507.98	59042.35
508.16	59788.98
508.33	60533.28
508.50	60516.89
508.68	60949.89
508.85	61350.12
509.03	61230.75
509.20	61092.66
509.38	60395.18
509.55	59831.11
509.73	59678.98
509.90	60376.46
510.08	60617.53
510.25	60591.79
510.42	60456.04
510.60	60285.18
510.77	60631.58
510.95	61034.15
511.12	61031.81
511.30	61345.44
511.47	61869.72
511.64	61623.96
511.82	61504.60
511.99	60568.38
512.17	60353.05
512.34	59849.84
512.51	60163.47
512.69	60191.56
512.86	60268.79
513.04	60580.09
513.21	60774.35
513.38	60268.79
513.56	59847.50
513.73	59393.43
513.90	59578.34
514.08	59751.54
514.25	59973.89
514.43	60123.68
514.60	60198.58
514.77	60322.63
514.95	60512.21
515.12	60360.08
515.29	60537.96
515.47	61078.62
515.64	61144.16
515.81	60818.82
515.99	60315.61
516.16	59030.65
516.33	56898.42
516.51	55480.06
516.68	54775.56
516.85	54518.10
517.03	54672.57
517.20	57286.95
517.37	59564.29
517.54	60336.67
517.72	60081.55
517.89	57797.19
518.06	55344.31
518.24	55667.30
518.41	57890.81
518.58	59138.32
518.75	59440.24
518.93	59728.13
519.10	59444.93
519.27	59833.46
519.45	60072.19
519.62	60516.89
519.79	61010.74
519.96	60903.08
520.14	60360.08
520.31	59653.23
520.48	59552.59
520.65	59639.19
520.83	60786.05
521.00	61162.88
521.17	60659.66
521.34	60413.91
521.52	60800.10
521.69	61160.54
521.86	61757.38
522.03	61188.63
522.20	60388.16
522.38	59201.51
522.55	59182.79
522.72	59718.77
522.89	59957.50
523.07	60088.57
523.24	60427.95
523.41	61188.63
523.58	61492.89
523.75	61855.68
523.92	61853.34
524.10	61836.95
524.27	61815.89
524.44	61357.14
524.61	61415.66
524.78	61134.79
524.96	61043.51
525.13	61197.99
525.30	61354.80
525.47	61886.10
525.64	61745.67
525.81	61118.41
525.98	59695.36
526.16	58394.03
526.33	57996.13
526.50	57542.07
526.67	57212.06
526.84	57712.93
527.01	58670.21
527.18	59484.72
527.36	60095.60
527.53	61111.39
527.70	61354.80
527.87	60760.31
528.04	60481.78
528.21	60694.77
528.38	61284.59
528.55	62019.52
528.72	62230.16
528.89	62452.51
529.07	62063.99
529.24	61750.35
529.41	60884.36
529.58	60420.93
529.75	60418.59
529.92	60898.40
530.09	61261.18
530.26	61708.22
530.43	61881.42
530.60	62124.84
530.77	62155.27
530.94	62569.54
531.11	61895.47
531.28	61490.55
531.46	61319.70
531.63	61375.87
531.80	61469.49
531.97	60886.70
532.14	60362.42
532.31	59276.41
532.48	58562.54
532.65	58578.93
532.82	59426.20
532.99	60587.11
533.16	61043.51
533.33	61312.67
533.50	61359.48
533.67	60760.31
533.84	60212.62
534.01	60603.49
534.18	60762.65
534.35	60952.23
534.52	60669.03
534.69	60910.10
534.86	61254.16
535.03	61315.01
535.20	61872.06
535.37	62284.00
535.54	62136.54
535.71	61797.16
535.88	61577.15
536.05	61151.18
536.22	60631.58
536.38	60406.89
536.55	60034.74
536.72	59550.25
536.89	59339.60
537.06	60119.00
537.23	61050.53
537.40	61165.22
537.57	61216.71
537.74	60919.46
537.91	60975.64
538.08	60748.60
538.25	61113.73
538.42	61080.96
538.59	60940.53
538.75	60456.04
538.92	60158.79
539.09	59863.88
539.26	59819.41
539.43	59473.01
539.60	59707.07
539.77	59901.33
539.94	59831.11
540.11	59044.69
540.28	58520.41
540.44	58855.11
540.61	59100.87
540.78	59288.11
540.95	59615.79
541.12	59994.95
541.29	60119.00
541.46	60434.97
541.62	60369.44
541.79	60502.85
541.96	59936.44
542.13	59671.96
542.30	59877.93
542.47	60123.68
542.63	59716.43
542.80	59559.61
542.97	59943.46
543.14	59955.16
543.31	59887.29
543.48	60320.29
543.64	60980.32
543.81	61331.40
543.98	61087.98
544.15	60491.15
544.32	59650.89
544.48	60086.23
544.65	60430.29
544.82	60715.84
544.99	60449.02
545.16	59987.93
545.32	59760.90
545.49	60509.87
545.66	60898.40
545.83	60594.13
546.00	60406.89
546.16	60074.53
546.33	59992.61
546.50	60009.00
546.67	60460.72
546.83	60095.60
547.00	60205.60
547.17	59381.73
547.34	59035.33
547.50	59018.95
547.67	59353.65
547.84	59224.92
548.00	59522.16
548.17	60135.38
548.34	60168.15
548.51	59814.73
548.67	59997.29
548.84	59997.29
549.01	60231.35
549.18	60034.74
549.34	60069.85
549.51	60009.00
549.68	59737.49
549.84	59807.71
550.01	59561.95
550.18	59306.83
550.34	59449.61
550.51	59496.42
550.68	59732.81
550.84	59208.53
551.01	59407.48
551.18	59220.23
551.34	59625.15
551.51	59786.64
551.68	59990.27
551.84	60013.68
552.01	59643.87
552.18	60093.25
552.34	58941.71
552.51	58614.04
552.68	58733.40
552.84	59075.12
553.01	59430.88
553.18	59098.53
553.34	59395.77
553.51	59494.08
553.67	59695.36
553.84	59693.02
554.01	59594.72
554.17	59363.01
554.34	59632.17
554.51	59725.79
554.67	59971.55
554.84	59849.84
555.00	59585.36
555.17	59161.72
555.33	59194.49
555.50	59475.35
555.67	59386.41
555.83	59278.75
556.00	58482.97
556.16	59054.06
556.33	58401.05
556.50	58216.14
556.66	58433.81
556.83	58012.52
556.99	58244.23
557.16	58150.61
557.32	58478.28
557.49	58986.18
557.65	58672.55
557.82	58789.58
557.98	58695.95
558.15	58253.59
558.32	57556.11
558.48	56519.26
558.65	56842.25
558.81	57205.03
558.98	57474.20
559.14	57640.37
559.31	57813.57
559.47	57811.23
559.64	57460.15
559.80	57205.03
559.97	57097.37
560.13	57474.20
560.30	58136.57
560.46	58885.54
560.63	59168.74
560.79	59243.64
560.96	58724.04
561.12	57570.16
561.29	56989.70
561.45	56889.06
561.61	57368.87
561.78	57759.74
561.94	57546.75
562.11	57696.55
562.27	57434.41
562.44	57680.16
562.60	58134.23
562.77	58117.84
562.93	58073.37
563.10	58014.86
563.26	57586.54
563.42	57511.64
563.59	57392.28
563.75	57385.25
563.92	57668.46
564.08	57535.05
564.24	57872.09
564.41	57858.04
564.57	57645.05
564.74	57375.89
564.90	57244.82
565.07	57230.78
565.23	56793.10
565.39	56512.23
565.56	56079.24
565.72	56055.83
565.88	56275.84
566.05	56573.09
566.21	56456.06
566.38	56846.93
566.54	56750.97
566.70	57235.46
566.87	57284.61
567.03	57574.84
567.19	57654.42
567.36	57319.72
567.52	57247.16
567.68	57034.17
567.85	56388.19
568.01	55854.54
568.17	55845.18
568.34	55873.27
568.50	55613.47
568.66	55884.97
568.83	56294.56
568.99	56339.04
569.15	56378.82
569.32	56229.03
569.48	56238.39
569.64	55983.27
569.81	55826.46
569.97	55650.92
570.13	55407.50
570.30	55384.10
570.46	54803.64
570.62	54246.60
570.78	53939.99
570.95	54459.58
571.11	55189.83
571.27	55363.03
571.43	55613.47
571.60	55814.76
571.76	55903.70
571.92	56090.94
572.09	56451.38
572.25	56140.09
572.41	56299.25
572.57	56182.22
572.74	56051.15
572.90	55597.09
573.06	55756.24
573.22	55917.74
573.38	55793.69
573.55	55540.91
573.71	55796.03
573.87	55730.50
574.03	55533.89
574.20	55613.47
574.36	55189.83
574.52	55140.68
574.68	55154.72
574.84	54740.45
575.01	54281.70
575.17	54363.62
575.33	54223.19
575.49	54798.96
575.65	54731.09
575.82	54700.66
575.98	54251.28
576.14	54703.00
576.30	54850.45
576.46	54986.21
576.62	54768.54
576.79	54780.24
576.95	54265.32
577.11	54557.89
577.27	54382.35
577.43	54681.94
577.59	54101.48
577.75	53801.89
577.92	53396.98
578.08	53151.23
578.24	53176.97
578.40	53551.46
578.56	54028.93
578.72	53712.95
578.88	53829.98
579.04	54176.38
579.21	54344.90
579.37	54291.07
579.53	54597.68
579.69	54426.82
579.85	54515.76
580.01	54555.55
580.17	53869.77
580.33	53549.12
580.49	54003.18
580.65	54195.10
580.82	54220.85
580.98	54384.69
581.14	53860.41
581.30	54426.82
581.46	53965.73
581.62	54349.58
581.78	54225.53
581.94	54672.57
582.10	54518.10
582.26	54639.81
582.42	54433.84
582.58	54630.44
582.74	54368.30
582.90	54508.74
583.06	54440.86
583.22	54433.84
583.38	54124.89
583.54	54138.93
583.70	53794.87
583.86	53956.37
584.02	54052.33
584.18	54258.30
584.34	53979.78
584.50	53694.23
584.66	53766.79
584.82	53441.45
584.98	53389.96
585.14	52680.78
585.30	52477.15
