SpectraSuite Data File
++++++++++++++++++++++++++++++++++++
Date: Mon Oct 07 14:55:46 GMT-05:00 2013
User: price-jones
Dark Spectrum Present: No
Reference Spectrum Present: No
Number of Sampled Component Spectra: 1
Spectrometers: USB2+H05261
Integration Time (usec): 1000000 (USB2+H05261)
Spectra Averaged: 1 (USB2+H05261)
Boxcar Smoothing: 0 (USB2+H05261)
Correct for Electrical Dark: No (USB2+H05261)
Strobe/Lamp Enabled: No (USB2+H05261)
Correct for Detector Non-linearity: No (USB2+H05261)
Correct for Stray Light: No (USB2+H05261)
Number of Pixels in Processed Spectrum: 2048
>>>>>Begin Processed Spectral Data<<<<<
365.73	0.00
365.92	0.00
366.12	0.00
366.32	0.00
366.52	0.00
366.72	117.03
366.91	0.00
367.11	175.54
367.31	88.94
367.51	173.20
367.70	189.58
367.90	477.47
368.10	208.31
368.30	166.18
368.49	0.00
368.69	447.04
368.89	217.67
369.09	0.00
369.28	77.24
369.48	0.00
369.68	42.13
369.87	194.26
370.07	86.60
370.27	470.45
370.47	1217.08
370.66	3529.53
370.86	3939.12
371.06	4690.43
371.25	4870.65
371.45	3819.75
371.65	3775.28
371.84	3246.32
372.04	3346.97
372.24	3936.78
372.44	3946.14
372.63	4077.21
372.83	4042.11
373.03	3204.19
373.22	3145.68
373.42	3213.56
373.62	3735.50
373.81	3960.19
374.01	4046.79
374.21	3805.71
374.40	3227.60
374.60	3948.48
374.79	3976.57
374.99	4374.46
375.19	4772.35
375.38	4711.50
375.58	4425.95
375.78	4587.45
375.97	4758.31
376.17	5067.26
376.37	4463.40
376.56	4840.23
376.76	4884.70
376.95	5088.32
377.15	5610.26
377.35	5717.93
377.54	6085.39
377.74	5783.46
377.93	5968.37
378.13	5823.25
378.33	5727.29
378.52	5025.13
378.72	5158.54
378.91	5076.62
379.11	4517.23
379.31	4547.66
379.50	4440.00
379.70	5350.46
379.89	5722.61
380.09	5561.11
380.28	5778.78
380.48	5898.15
380.68	5509.62
380.87	5390.25
381.07	5181.95
381.26	5100.03
381.46	4739.58
381.65	4706.82
381.85	4081.89
382.04	4390.84
382.24	4060.83
382.43	3709.75
382.63	3499.10
382.83	3604.42
383.02	3899.33
383.22	4102.96
383.41	3578.68
383.61	4011.68
383.80	4816.82
384.00	4971.30
384.19	5273.23
384.39	5753.04
384.58	5591.54
384.78	5647.71
384.97	5537.71
385.17	5231.10
385.36	4959.60
385.56	5067.26
385.75	4741.93
385.95	5453.45
386.14	6050.28
386.34	5633.67
386.53	5549.41
386.72	5195.99
386.92	5755.38
387.11	5778.78
387.31	5902.83
387.50	5565.79
387.70	5277.91
387.89	5432.38
388.09	5394.93
388.28	5296.63
388.48	5301.31
388.67	6181.35
388.86	6448.18
389.06	6977.14
389.25	7234.60
389.45	7428.86
389.64	7183.10
389.84	7527.16
390.03	6998.20
390.22	7140.97
390.42	7290.77
390.61	7501.42
390.81	7789.30
391.00	8159.11
391.19	8273.79
391.39	7953.14
391.58	7562.27
391.78	7110.55
391.97	6923.30
392.16	6188.38
392.36	6127.52
392.55	4978.32
392.75	3772.94
392.94	3229.94
393.13	3499.10
393.33	3838.48
393.52	4858.95
393.71	6230.51
393.91	6441.15
394.10	6581.59
394.29	7683.98
394.49	7927.39
394.68	8695.09
394.88	8681.05
395.07	8968.93
395.26	8669.34
395.46	8435.29
395.65	8149.75
395.84	6897.56
396.04	6789.89
396.23	5001.72
396.42	4306.59
396.62	4308.93
396.81	5046.20
397.00	6249.23
397.19	7482.69
397.39	8475.08
397.58	10066.64
397.77	10029.20
397.97	10532.41
398.16	10434.11
398.35	11180.74
398.55	11154.99
398.74	11674.59
398.93	12095.89
399.12	11564.59
399.32	11339.90
399.51	11475.65
399.70	12435.27
399.90	12250.36
400.09	11962.48
400.28	12512.50
400.47	12037.38
400.67	12966.57
400.86	12765.28
401.05	13195.94
401.24	13373.82
401.44	13298.92
401.63	13373.82
401.82	13308.29
402.01	12896.35
402.21	13469.78
402.40	13572.77
402.59	12823.80
402.78	12250.36
402.97	12271.43
403.17	12688.04
403.36	13429.99
403.55	13860.65
403.74	14029.17
403.93	13441.70
404.13	12999.34
404.32	12861.24
404.51	13439.36
404.70	14352.16
404.89	13394.89
405.09	13790.44
405.28	12926.78
405.47	13008.70
405.66	13146.79
405.85	12940.82
406.05	12126.32
406.24	12468.03
406.43	13359.78
406.62	13640.64
406.81	14059.60
407.00	13352.76
407.20	12650.60
407.39	13053.17
407.58	13675.75
407.77	14176.62
407.96	14654.09
408.15	14743.03
408.34	14668.14
408.54	15342.21
408.73	15267.31
408.92	14925.60
409.11	14857.72
409.30	14054.92
409.49	12800.39
409.68	12191.85
409.87	12063.12
410.07	12521.87
410.26	13661.71
410.45	14345.14
410.64	14546.43
410.83	15185.40
411.02	15482.64
411.21	16163.74
411.40	15955.43
411.59	15899.26
411.78	15906.28
411.98	15536.48
412.17	15676.91
412.36	15637.12
412.55	15363.28
412.74	15122.20
412.93	15332.85
413.12	15164.33
413.31	16578.01
413.50	16582.70
413.69	16395.45
413.88	16409.50
414.07	15704.99
414.26	16088.84
414.45	16369.71
414.64	16559.29
414.83	16531.20
415.02	16119.27
415.22	16430.56
415.41	17097.61
415.60	16966.54
415.79	17661.68
415.98	18370.86
416.17	18171.92
416.36	17397.20
416.55	17305.92
416.74	16833.13
416.93	16423.54
417.12	16161.40
417.31	16762.92
417.50	16865.90
417.69	17483.80
417.88	16681.00
418.07	16709.08
418.26	16765.26
418.45	16851.86
418.64	18120.43
418.83	18183.62
419.02	17659.34
419.21	17425.29
419.39	16950.16
419.58	15817.34
419.77	16175.44
419.96	17106.98
420.15	18415.34
420.34	18361.50
420.53	18944.30
420.72	19297.72
420.91	18806.20
421.10	18471.51
421.29	18668.11
421.48	18015.10
421.67	19087.07
421.86	18031.49
422.05	16760.58
422.24	15059.01
422.43	15655.84
422.61	16826.11
422.80	18258.52
422.99	17994.04
423.18	17252.09
423.37	17193.58
423.56	17338.69
423.75	17355.07
423.94	17343.37
424.13	16786.32
424.32	16521.84
424.50	16940.80
424.69	16659.93
424.88	17500.19
425.07	16723.13
425.26	17027.40
425.45	16327.58
425.64	15974.16
425.83	16348.64
426.01	17654.66
426.20	17439.33
426.39	17209.96
426.58	15957.77
426.77	14686.86
426.96	14750.06
427.15	15138.58
427.33	16273.74
427.52	16849.52
427.71	16446.94
427.90	16676.32
428.09	16500.78
428.28	15964.79
428.46	15494.35
428.65	15552.86
428.84	16154.38
429.03	16430.56
429.22	15028.58
429.40	13811.50
429.59	12905.71
429.78	12325.26
429.97	11892.26
430.16	11669.91
430.34	11955.46
430.53	11878.22
430.72	12262.07
430.91	14045.55
431.10	15943.73
431.28	18333.42
431.47	19878.17
431.66	19470.92
431.85	17495.50
432.03	16414.18
432.22	16786.32
432.41	16856.54
432.60	18700.88
432.79	18733.65
432.97	19353.89
433.16	18853.02
433.35	16924.41
433.54	15456.90
433.72	15063.69
433.91	15805.64
434.10	17221.66
434.28	18445.76
434.47	19026.21
434.66	18731.31
434.85	18094.68
435.03	19232.18
435.22	21642.93
435.41	24774.57
435.59	24528.81
435.78	23000.44
435.97	21542.29
436.16	21219.30
436.34	20215.21
436.53	19758.80
436.72	20159.03
436.90	19026.21
437.09	18726.63
437.28	18651.73
437.46	19063.66
437.65	19321.12
437.84	17600.83
438.02	16290.13
438.21	16575.67
438.40	17104.64
438.58	18359.16
438.77	18890.46
438.96	19143.24
439.14	19910.94
439.33	20526.50
439.52	20610.76
439.70	19992.86
439.89	19658.16
440.08	19220.48
440.26	19124.52
440.45	20198.82
440.63	21036.74
440.82	21790.39
441.01	21626.55
441.19	21369.09
441.38	21745.92
441.57	22644.68
441.75	22939.59
441.94	23548.13
442.12	22742.99
442.31	23295.35
442.50	22892.78
442.68	22864.69
442.87	22401.27
443.05	21984.65
443.24	22064.23
443.43	23180.67
443.61	23880.49
443.80	23405.36
443.98	22216.36
444.17	22214.02
444.35	24027.94
444.54	23831.33
444.73	23384.29
444.91	22995.76
445.10	21287.17
445.28	20690.34
445.47	20938.43
445.65	20835.45
445.84	21144.40
446.02	22073.59
446.21	22183.60
446.39	22223.39
446.58	22764.05
446.77	22799.16
446.95	23185.35
447.14	23683.88
447.32	24474.98
447.51	23325.78
447.69	22511.27
447.88	22499.57
448.06	23304.71
448.25	23379.61
448.43	23276.63
448.62	22881.08
448.80	22527.66
448.99	22890.44
449.17	23175.98
449.36	22813.20
449.54	24442.21
449.73	24006.87
449.91	24718.40
450.10	25010.96
450.28	26230.38
450.46	25640.57
450.65	25399.49
450.83	25212.25
451.02	24346.25
451.20	24135.60
451.39	24254.97
451.57	23983.47
451.76	23960.06
451.94	23859.42
452.13	23576.22
452.31	22724.26
452.49	21769.32
452.68	21486.12
452.86	22047.85
453.05	22515.95
453.23	22895.12
453.42	22630.64
453.60	23903.89
453.78	24460.94
453.97	23524.72
454.15	23545.79
454.34	23096.41
454.52	23035.55
454.70	23108.11
454.89	23487.28
455.07	23241.52
455.26	23887.51
455.44	24580.31
455.62	24533.50
455.81	25025.01
455.99	24683.29
456.17	24226.89
456.36	24657.54
456.54	25071.82
456.73	24936.07
456.91	25106.93
457.09	25549.29
457.28	25998.67
457.46	24931.39
457.64	24570.94
457.83	24135.60
458.01	23435.78
458.19	24222.20
458.38	24013.90
458.56	24922.02
458.74	24584.99
458.93	24346.25
459.11	24596.69
459.29	24027.94
459.48	24472.64
459.66	24842.45
459.84	24599.03
460.03	26010.37
460.21	24961.81
460.39	25268.42
460.57	25357.36
460.76	25724.83
460.94	25689.72
461.12	25678.02
461.31	25675.68
461.49	25137.35
461.67	25142.03
461.85	25965.90
462.04	25560.99
462.22	32575.58
462.40	25902.71
462.59	25804.41
462.77	25998.67
462.95	25781.00
463.13	24929.05
463.32	25238.00
463.50	24945.43
463.68	25439.28
463.86	25226.29
464.05	24599.03
464.23	24254.97
464.41	24130.92
464.59	23847.72
464.78	24711.38
464.96	24269.01
465.14	24627.12
465.32	25083.52
465.50	25905.05
465.69	26019.74
465.87	24830.74
466.05	24540.52
466.23	23248.54
466.41	23056.62
466.60	23800.91
466.78	23646.43
466.96	24627.12
467.14	24697.33
467.32	24706.70
467.51	25207.57
467.69	23697.92
467.87	24236.25
468.05	24802.66
468.23	25317.57
468.41	24634.14
468.60	24549.88
468.78	24774.57
468.96	25151.40
469.14	25125.65
469.32	24430.51
469.50	23779.84
469.69	24566.26
469.87	23845.38
470.05	23592.60
470.23	23543.45
470.41	23370.25
470.59	24116.88
470.77	24329.87
470.95	24631.80
471.14	25579.71
471.32	24924.36
471.50	27005.10
471.68	26576.78
471.86	26513.59
472.04	26295.92
472.22	26581.46
472.40	25137.35
472.58	24491.37
472.77	24671.59
472.95	25727.17
473.13	26934.88
473.31	25642.91
473.49	25242.68
473.67	25560.99
473.85	26141.44
474.03	26857.65
474.21	26565.08
474.39	27555.13
474.57	27573.85
474.75	27016.80
474.93	26869.35
475.12	25862.92
475.30	26387.20
475.48	26417.63
475.66	27187.66
475.84	26483.16
476.02	26246.77
476.20	25865.26
476.38	26366.13
476.56	27363.20
476.74	27009.78
476.92	27548.11
477.10	28170.69
477.28	29092.86
477.46	29060.09
477.64	28692.63
477.82	28882.21
478.00	28875.19
478.18	28528.79
478.36	28474.96
478.54	29022.64
478.72	28388.36
478.90	29802.04
479.08	30504.20
479.26	30174.19
479.44	30518.25
479.62	30221.00
479.80	30342.70
479.98	30253.76
480.16	30485.48
480.34	30284.19
480.52	30555.69
480.70	31140.83
480.88	30558.03
481.06	31065.93
481.24	31424.03
481.41	32020.87
481.59	32704.31
481.77	32470.25
481.95	32247.90
482.13	32063.00
482.31	32081.72
482.49	32526.42
482.67	32362.59
482.85	33141.99
483.03	33275.40
483.21	33574.98
483.39	33546.90
483.57	32308.76
483.74	33003.89
483.92	33003.89
484.10	32552.17
484.28	33783.29
484.46	34918.45
484.64	34246.72
484.82	33769.25
485.00	33092.83
485.18	32580.26
485.35	31388.92
485.53	28474.96
485.71	26850.63
485.89	26487.84
486.07	28676.24
486.25	31000.40
486.43	32287.69
486.61	32561.53
486.78	32259.60
486.96	32442.17
487.14	34033.73
487.32	34338.00
487.50	35676.79
487.68	36435.12
487.85	36561.51
488.03	36540.44
488.21	36751.09
488.39	35147.82
488.57	34785.04
488.75	34721.85
488.92	39175.89
489.10	38480.75
489.28	39735.27
489.46	39426.32
489.64	39908.47
489.81	39957.63
489.99	39559.73
490.17	39496.54
490.35	41045.97
490.53	38988.64
490.70	38815.44
490.88	39201.63
491.06	39927.20
491.24	40030.18
491.41	38342.66
491.59	36584.91
491.77	36535.76
491.95	36793.22
492.13	38581.39
492.30	40479.57
492.48	40884.48
492.66	41881.55
492.84	41027.25
493.01	40568.51
493.19	40095.72
493.37	40161.25
493.54	39704.85
493.72	40612.98
493.90	42064.11
494.08	42373.06
494.25	43213.31
494.43	43316.29
494.61	43042.45
494.79	43253.10
494.96	43206.29
495.14	42480.72
495.32	41137.26
495.49	40907.88
495.67	42422.21
495.85	43667.37
496.02	43812.49
496.20	44451.45
496.38	43571.41
496.55	43372.47
496.73	44587.21
496.91	43988.03
497.09	45635.77
497.26	44790.83
497.44	43707.16
497.62	43519.92
497.79	42415.19
497.97	40842.35
498.14	41471.95
498.32	42646.90
498.50	43667.37
498.67	44612.95
498.85	44329.75
499.03	44561.46
499.20	44683.17
499.38	44818.92
499.56	44406.98
499.73	43964.62
499.91	43653.33
500.08	42689.03
500.26	41528.13
500.44	42405.83
500.61	43459.07
500.79	42225.60
500.97	42249.01
501.14	42740.52
501.32	41720.05
501.49	42370.72
501.67	42010.28
501.84	43428.64
502.02	43236.72
502.20	44561.46
502.37	43643.97
502.55	44406.98
502.72	44711.25
502.90	45020.20
503.07	44788.49
503.25	43962.28
503.43	43187.56
503.60	41741.11
503.78	41134.92
503.95	42199.86
504.13	43959.94
504.30	45219.15
504.48	44685.51
504.65	44505.29
504.83	44308.68
505.01	44765.09
505.18	45251.92
505.36	46724.11
505.53	46644.54
505.71	46190.47
505.88	47152.43
506.06	45633.42
506.23	45670.87
506.41	44498.26
506.58	45287.03
506.76	44900.84
506.93	45329.16
507.11	45160.64
507.28	44516.99
507.46	43519.92
507.63	42965.21
507.81	42747.54
507.98	43536.30
508.16	44343.79
508.33	45366.60
508.50	45546.82
508.68	46122.60
508.85	46775.61
509.03	46777.95
509.20	46059.40
509.38	45038.93
509.55	44311.02
509.73	45074.04
509.90	45794.92
510.08	45471.93
510.25	45677.90
510.42	44711.25
510.60	44949.99
510.77	45361.92
510.95	46513.47
511.12	46157.70
511.30	47522.24
511.47	47604.16
511.64	47138.39
511.82	46703.05
511.99	45500.01
512.17	44495.92
512.34	44395.28
512.51	44896.16
512.69	44870.41
512.86	44910.20
513.04	45551.51
513.21	45734.07
513.38	44659.76
513.56	44032.50
513.73	43269.48
513.90	43611.20
514.08	43800.79
514.25	44751.04
514.43	44957.01
514.60	44406.98
514.77	44603.59
514.95	45460.23
515.12	44676.15
515.29	45345.54
515.47	46412.82
515.64	46665.60
515.81	45490.65
515.99	44856.37
516.16	42480.72
516.33	39578.46
516.51	38141.37
516.68	37268.35
516.85	36203.41
517.03	37406.44
517.20	40868.09
517.37	43484.81
517.54	45088.08
517.72	43681.42
517.89	40158.91
518.06	37453.25
518.24	39316.32
518.41	42349.65
518.58	42993.30
518.75	43356.08
518.93	43442.68
519.10	43480.13
519.27	43842.92
519.45	44449.11
519.62	45689.60
519.79	45743.43
519.96	45394.69
520.14	44917.22
520.31	44039.52
520.48	43964.62
520.65	44306.34
520.83	45977.48
521.00	46050.04
521.17	45893.22
521.34	45106.80
521.52	45916.63
521.69	46429.21
521.86	46782.63
522.03	46384.74
522.20	45034.25
522.38	42557.96
522.55	43115.01
522.72	43835.89
522.89	44739.34
523.07	45167.66
523.24	45425.12
523.41	46146.00
523.58	46698.37
523.75	47456.70
523.92	46714.75
524.10	47192.22
524.27	47033.07
524.44	46429.21
524.61	46873.91
524.78	46384.74
524.96	46206.86
525.13	46232.60
525.30	46773.27
525.47	47468.40
525.64	46342.61
525.81	45745.77
525.98	43503.54
526.16	41738.77
526.33	41127.89
526.50	39704.85
526.67	39934.22
526.84	40847.03
527.01	41755.16
527.18	43215.65
527.36	44802.53
527.53	45830.03
527.70	45975.14
527.87	45500.01
528.04	44980.42
528.21	45272.98
528.38	46438.57
528.55	47318.61
528.72	48081.63
528.89	48280.57
529.07	47742.25
529.24	45986.85
529.41	45670.87
529.58	45015.52
529.75	44751.04
529.92	45911.95
530.09	45982.16
530.26	46923.06
530.43	47517.56
530.60	47325.63
530.77	47512.88
530.94	48444.41
531.11	47246.05
531.28	46754.54
531.46	46426.87
531.63	46506.44
531.80	46176.43
531.97	45436.82
532.14	44315.70
532.31	43220.33
532.48	42398.80
532.65	42679.67
532.82	43901.43
532.99	45633.42
533.16	45925.99
533.33	46637.51
533.50	46445.59
533.67	45272.98
533.84	44617.63
534.01	45069.36
534.18	45043.61
534.35	45249.58
534.52	45361.92
534.69	46071.10
534.86	46190.47
535.03	46604.75
535.20	47129.03
535.37	48076.94
535.54	47793.74
535.71	47269.46
535.88	47213.29
536.05	46300.48
536.22	45675.55
536.38	44987.44
536.55	44282.94
536.72	44016.11
536.89	43810.15
537.06	45230.85
537.23	46092.17
537.40	46190.47
537.57	46394.10
537.74	46356.65
537.91	46417.50
538.08	46263.03
538.25	46354.31
538.42	46707.73
538.59	46103.87
538.75	45436.82
538.92	45132.55
539.09	45659.17
539.26	45045.95
539.43	44755.72
539.60	45631.08
539.77	45862.80
539.94	45893.22
540.11	44814.24
540.28	44952.33
540.44	45251.92
540.61	45399.37
540.78	46382.40
540.95	47320.95
541.12	48556.75
541.29	48626.97
541.46	49434.45
541.62	49411.05
541.79	49132.53
541.96	48509.94
542.13	48215.04
542.30	48479.52
542.47	49125.50
542.63	47765.65
542.80	48126.10
542.97	48341.42
543.14	47763.31
543.31	48158.86
543.48	48797.83
543.64	49776.17
543.81	50089.80
543.98	49317.43
544.15	48807.19
544.32	47723.52
544.48	48067.58
544.65	48383.55
544.82	48921.88
544.99	48189.29
545.16	48374.19
545.32	48554.41
545.49	52004.36
545.66	54986.21
545.83	55318.56
546.00	53221.44
546.16	50344.92
546.33	48622.29
546.50	47735.23
546.67	47711.82
546.83	46663.26
547.00	46789.65
547.17	45247.24
547.34	45029.57
547.50	44821.26
547.67	45375.97
547.84	45581.93
548.00	46096.85
548.17	45897.91
548.34	46096.85
548.51	46340.27
548.67	46059.40
548.84	45713.00
549.01	46099.19
549.18	45570.23
549.34	45818.33
549.51	45668.53
549.68	45315.11
549.84	44928.92
550.01	44516.99
550.18	45759.81
550.34	45263.62
550.51	44828.28
550.68	45162.98
550.84	43753.97
551.01	44074.63
551.18	44418.69
551.34	43992.71
551.51	44533.37
551.68	44891.48
551.84	45427.46
552.01	44488.90
552.18	44437.41
552.34	43014.37
552.51	42466.68
552.68	42462.00
552.84	43026.07
553.01	43641.63
553.18	43878.02
553.34	43185.22
553.51	43030.75
553.67	43580.78
553.84	44498.26
554.01	43606.52
554.17	43711.84
554.34	42759.25
554.51	43606.52
554.67	43901.43
554.84	43505.88
555.00	43227.35
555.17	42614.13
555.33	42845.85
555.50	43049.47
555.67	42433.91
555.83	42127.30
556.00	42314.55
556.16	44526.35
556.33	41404.08
556.50	41806.65
556.66	41706.01
556.83	40985.12
556.99	41233.22
557.16	41560.89
557.32	41738.77
557.49	41855.80
557.65	41811.33
557.82	41497.70
557.98	41490.68
558.15	40605.95
558.32	39533.99
558.48	38541.60
558.65	38808.42
558.81	39866.34
558.98	39873.37
559.14	39934.22
559.31	40243.17
559.47	40285.30
559.64	39819.53
559.80	39086.95
559.97	39618.25
560.13	40163.59
560.30	40975.76
560.46	41539.83
560.63	42246.67
560.79	42103.90
560.96	40950.01
561.12	39431.01
561.29	38581.39
561.45	38831.83
561.61	39454.41
561.78	41095.13
561.94	40058.27
562.11	39931.88
562.27	39711.87
562.44	39915.50
562.60	40973.42
562.77	40610.64
562.93	41282.37
563.10	40325.09
563.26	39508.24
563.42	39997.41
563.59	39555.05
563.75	38712.46
563.92	39538.67
564.08	39267.17
564.24	39604.20
564.41	39746.98
564.57	39763.36
564.74	39236.74
564.90	39423.98
565.07	39328.02
565.23	38763.95
565.39	37560.92
565.56	37633.47
565.72	37261.33
565.88	37607.73
566.05	37766.88
566.21	37799.65
566.38	38059.45
566.54	38059.45
566.70	39145.46
566.87	39100.99
567.03	39248.44
567.19	39363.13
567.36	39243.76
567.52	38574.37
567.68	38263.08
567.85	38298.19
568.01	37448.57
568.17	36474.91
568.34	36517.04
568.50	37291.76
568.66	36561.51
568.83	38541.60
568.99	37205.16
569.15	37722.41
569.32	37453.25
569.48	37244.94
569.64	36978.12
569.81	36622.36
569.97	36411.71
570.13	36392.99
570.30	36163.62
570.46	35405.28
570.62	34756.96
570.78	34745.25
570.95	35012.07
571.11	36472.57
571.27	36343.84
571.43	36168.30
571.60	36992.17
571.76	36767.48
571.92	37287.07
572.09	37226.22
572.25	37312.82
572.41	37390.06
572.57	36746.41
572.74	37713.05
572.90	37191.11
573.06	36940.68
573.22	36535.76
573.38	37146.64
573.55	36814.29
573.71	36830.67
573.87	36917.27
574.03	36074.68
574.20	36411.71
574.36	36243.20
574.52	35700.19
574.68	35709.55
574.84	35433.37
575.01	34480.77
575.17	34993.35
575.33	35246.13
575.49	36137.87
575.65	36123.83
575.82	35234.42
575.98	35784.45
576.14	35449.75
576.30	36524.06
576.46	37731.78
576.62	38396.49
576.79	38473.73
576.95	36854.08
577.11	35782.11
577.27	35786.79
577.43	35772.75
577.59	35367.84
577.75	34871.64
577.92	33867.55
578.08	33701.37
578.24	34038.41
578.40	35044.84
578.56	36470.23
578.72	36950.04
578.88	37125.58
579.04	36201.07
579.21	35487.20
579.37	35412.31
579.53	35847.64
579.69	35995.10
579.85	35751.68
580.01	35793.81
580.17	35037.82
580.33	34958.24
580.49	34864.62
580.65	35407.62
580.82	35688.49
580.98	35496.56
581.14	35098.67
581.30	35798.49
581.46	34796.74
581.62	35938.93
581.78	35700.19
581.94	36077.02
582.10	35590.19
582.26	35772.75
582.42	35538.69
582.58	36102.76
582.74	35735.30
582.90	35913.18
583.06	36212.77
583.22	35718.92
583.38	35592.53
583.54	35676.79
583.70	36013.82
583.86	36236.17
584.02	35285.92
584.18	36147.23
584.34	35550.40
584.50	35384.22
584.66	35133.78
584.82	34073.52
584.98	35098.67
