SpectraSuite Data File
++++++++++++++++++++++++++++++++++++
Date: Mon Oct 07 14:54:57 GMT-05:00 2013
User: price-jones
Dark Spectrum Present: No
Reference Spectrum Present: No
Number of Sampled Component Spectra: 1
Spectrometers: USB2+H05261
Integration Time (usec): 10000 (USB2+H05261)
Spectra Averaged: 1 (USB2+H05261)
Boxcar Smoothing: 0 (USB2+H05261)
Correct for Electrical Dark: No (USB2+H05261)
Strobe/Lamp Enabled: No (USB2+H05261)
Correct for Detector Non-linearity: No (USB2+H05261)
Correct for Stray Light: No (USB2+H05261)
Number of Pixels in Processed Spectrum: 2048
>>>>>Begin Processed Spectral Data<<<<<
365.73	0.00
365.92	0.00
366.12	0.00
366.32	0.00
366.52	0.00
366.72	0.00
366.91	0.00
367.11	0.00
367.31	0.00
367.51	0.00
367.70	0.00
367.90	0.00
368.10	0.00
368.30	0.00
368.49	0.00
368.69	0.00
368.89	0.00
369.09	0.00
369.28	0.00
369.48	0.00
369.68	0.00
369.87	0.00
370.07	0.00
370.27	0.00
370.47	645.99
370.66	3665.28
370.86	4227.01
371.06	4596.81
371.25	4505.53
371.45	3939.12
371.65	3712.09
371.84	3627.83
372.04	3735.50
372.24	4105.30
372.44	4198.92
372.63	4133.39
372.83	3906.35
373.03	3370.37
373.22	3119.93
373.42	3510.80
373.62	3978.91
373.81	4294.88
374.01	4063.17
374.21	3679.32
374.40	3433.57
374.60	3623.15
374.79	4224.67
374.99	4990.02
375.19	5275.57
375.38	5097.69
375.58	4835.55
375.78	4826.18
375.97	4863.63
376.17	5114.07
376.37	5090.67
376.56	5205.35
376.76	5605.58
376.95	5977.73
377.15	6230.51
377.35	6396.68
377.54	6684.57
377.74	6913.94
377.93	6864.79
378.13	6731.38
378.33	6319.45
378.52	5802.19
378.72	5668.78
378.91	5530.69
379.11	5427.70
379.31	5284.93
379.50	5313.02
379.70	5750.70
379.89	6342.85
380.09	6796.92
380.28	6883.52
380.48	6619.04
380.68	6757.13
380.87	6431.79
381.07	6029.22
381.26	5516.64
381.46	5416.00
381.65	5071.94
381.85	4931.51
382.04	4627.24
382.24	4229.35
382.43	4243.39
382.63	4023.38
382.83	4056.15
383.02	4072.53
383.22	4210.62
383.41	4203.60
383.61	4557.02
383.80	5186.63
384.00	5973.05
384.19	6602.65
384.39	7143.32
384.58	6895.22
384.78	6672.87
384.97	6712.66
385.17	6394.34
385.36	5996.45
385.56	5746.02
385.75	6136.88
385.95	6780.53
386.14	7131.61
386.34	6988.84
386.53	6782.87
386.72	6296.04
386.92	6487.96
387.11	6988.84
387.31	7194.81
387.50	6960.75
387.70	6679.89
387.89	6775.85
388.09	6771.17
388.28	6628.40
388.48	6925.65
388.67	7562.27
388.86	8259.75
389.06	8788.71
389.25	9254.48
389.45	9193.62
389.64	9359.80
389.84	8875.31
390.03	8978.30
390.22	9235.75
390.42	9617.26
390.61	10251.55
390.81	10843.70
391.00	11033.29
391.19	10888.17
391.39	10530.07
391.58	9764.72
391.78	9376.19
391.97	8990.00
392.16	8283.16
392.36	7391.41
392.55	5727.29
392.75	4660.01
392.94	3939.12
393.13	4053.81
393.33	5083.64
393.52	6424.77
393.71	7508.44
393.91	8484.44
394.10	9434.70
394.29	10087.71
394.49	10895.19
394.68	11716.72
394.88	11665.23
395.07	12020.99
395.26	11751.83
395.46	11162.01
395.65	10553.48
395.84	8997.02
396.04	7555.25
396.23	6162.63
396.42	5317.70
396.62	5406.64
396.81	6384.98
397.00	8156.77
397.19	10164.95
397.39	11999.93
397.58	13305.95
397.77	14092.37
397.97	14553.45
398.16	15014.54
398.35	15323.49
398.55	15859.47
398.74	16428.22
398.93	16573.33
399.12	16524.18
399.32	15964.79
399.51	16432.90
399.70	17577.42
399.90	16926.75
400.09	16812.07
400.28	17062.51
400.47	17530.61
400.67	17916.80
400.86	18609.60
401.05	18546.40
401.24	18845.99
401.44	19342.19
401.63	18988.77
401.82	19274.31
402.01	19012.17
402.21	19138.56
402.40	19089.41
402.59	18740.67
402.78	17862.97
402.97	17481.46
403.17	18693.86
403.36	19435.81
403.55	20407.13
403.74	20320.53
403.93	19260.27
404.13	17525.93
404.32	18080.64
404.51	18890.46
404.70	20058.39
404.89	19800.93
405.09	19243.88
405.28	18897.49
405.47	19318.78
405.66	19290.70
405.85	18738.33
406.05	17886.37
406.24	18401.29
406.43	19103.45
406.62	20013.92
406.81	20381.38
407.00	19403.04
407.20	18991.11
407.39	19342.19
407.58	20152.01
407.77	20936.09
407.96	21270.79
408.15	21570.38
408.34	21958.91
408.54	23000.44
408.73	22703.20
408.92	22347.44
409.11	21553.99
409.30	20329.89
409.49	19346.87
409.68	17678.07
409.87	17806.80
410.07	19482.62
410.26	20924.39
410.45	21788.05
410.64	22190.62
410.83	22764.05
411.02	23501.32
411.21	24430.51
411.40	23920.28
411.59	24290.08
411.78	24299.44
411.98	23903.89
412.17	24404.77
412.36	23770.48
412.55	23379.61
412.74	23173.64
412.93	22333.39
413.12	23206.41
413.31	25493.12
413.50	25483.75
413.69	26015.05
413.88	24776.91
414.07	24575.62
414.26	25263.74
414.45	25415.88
414.64	24985.22
414.83	25247.36
415.02	25418.22
415.22	25518.86
415.41	26099.31
415.60	26932.54
415.79	27838.33
415.98	28442.19
416.17	28577.94
416.36	27964.72
416.55	26920.84
416.74	25614.82
416.93	25205.23
417.12	25390.13
417.31	25823.13
417.50	26656.36
417.69	27351.50
417.88	26890.41
418.07	26883.39
418.26	26209.32
418.45	27056.59
418.64	28002.17
418.83	29071.79
419.02	28514.75
419.21	27896.85
419.39	26644.66
419.58	25947.18
419.77	26164.85
419.96	27480.23
420.15	28566.24
420.34	28840.08
420.53	30590.80
420.72	30661.02
420.91	30553.35
421.10	30178.87
421.29	29806.72
421.48	28926.68
421.67	30136.74
421.86	29270.74
422.05	26637.64
422.24	24484.34
422.43	25427.58
422.61	28180.05
422.80	29603.10
422.99	29546.92
423.18	27955.36
423.37	28137.92
423.56	28467.94
423.75	28903.28
423.94	29340.96
424.13	27632.36
424.32	27351.50
424.50	27695.56
424.69	27850.03
424.88	28109.83
425.07	27922.59
425.26	28037.28
425.45	26754.66
425.64	26319.32
425.83	27267.24
426.01	28774.55
426.20	28982.85
426.39	28776.89
426.58	26562.74
426.77	24357.96
426.96	24058.37
427.15	25532.90
427.33	27531.72
427.52	27997.49
427.71	28257.29
427.90	27758.75
428.09	27517.68
428.28	27419.38
428.46	26059.52
428.65	26143.78
428.84	26824.88
429.03	26904.46
429.22	25291.83
429.40	23768.14
429.59	21476.76
429.78	19543.47
429.97	19997.54
430.16	19992.86
430.34	19648.80
430.53	20067.75
430.72	20823.75
430.91	23447.49
431.10	27651.09
431.28	31875.76
431.47	33537.54
431.66	33535.20
431.85	30033.75
432.03	27843.01
432.22	27618.32
432.41	29652.25
432.60	32229.18
432.79	33046.02
432.97	33579.67
433.16	32320.46
433.35	28952.43
433.54	26171.87
433.72	25891.01
433.91	27044.89
434.10	30616.55
434.28	32573.24
434.47	33713.08
434.66	31971.72
434.85	31381.90
435.03	31995.12
435.22	32371.95
435.41	33949.47
435.59	34342.68
435.78	34876.32
435.97	36109.78
436.16	35707.21
436.34	35131.44
436.53	34452.69
436.72	34611.84
436.90	32961.76
437.09	32594.30
437.28	32964.10
437.46	34639.93
437.65	33223.90
437.84	30216.32
438.02	28809.65
438.21	29209.89
438.40	30298.23
438.58	32751.12
438.77	34026.71
438.96	33860.53
439.14	35431.03
439.33	36545.12
439.52	36547.47
439.70	35641.68
439.89	34508.86
440.08	33862.87
440.26	34330.98
440.45	35690.83
440.63	37879.23
440.82	39892.09
441.01	39044.82
441.19	38635.22
441.38	39541.01
441.57	40821.28
441.75	41139.60
441.94	41216.83
442.12	41549.19
442.31	42653.92
442.50	41855.80
442.68	41504.72
442.87	40526.38
443.05	40076.99
443.24	41624.09
443.43	42696.05
443.61	42302.84
443.80	42562.64
443.98	40261.90
444.17	40694.89
444.35	42520.51
444.54	43409.92
444.73	42944.15
444.91	40091.04
445.10	39110.35
445.28	38007.96
445.47	37670.92
445.65	38726.50
445.84	39681.44
446.02	40720.64
446.21	41167.68
446.39	40627.02
446.58	41296.41
446.77	42724.14
446.95	43393.53
447.14	44002.07
447.32	44208.04
447.51	42724.14
447.69	41762.18
447.88	42260.71
448.06	43311.61
448.25	43129.05
448.43	42927.77
448.62	42274.76
448.80	42253.69
448.99	42574.34
449.17	43374.81
449.36	43445.02
449.54	44233.78
449.73	45144.25
449.91	45663.85
450.10	47288.18
450.28	47662.67
450.46	46988.60
450.65	47210.95
450.83	46806.03
451.02	45640.45
451.20	44865.73
451.39	45790.24
451.57	45705.98
451.76	44842.32
451.94	44165.91
452.13	43503.54
452.31	41577.28
452.49	40451.48
452.68	42244.33
452.86	41668.56
453.05	42043.04
453.23	44528.69
453.42	44978.07
453.60	45354.90
453.78	45881.52
453.97	45106.80
454.15	44538.05
454.34	43962.28
454.52	44353.15
454.70	43608.86
454.89	44748.70
455.07	44264.21
455.26	45312.77
455.44	47049.45
455.62	47435.64
455.81	46983.91
455.99	45963.44
456.17	46490.06
456.36	46791.99
456.54	47711.82
456.73	47915.45
456.91	48369.51
457.09	48343.77
457.28	49340.83
457.46	47173.50
457.64	46457.29
457.83	45638.11
458.01	45497.67
458.19	46866.89
458.38	47653.31
458.56	47927.15
458.74	48128.44
458.93	47182.86
459.11	46555.60
459.29	46838.80
459.48	47051.79
459.66	46848.16
459.84	47299.89
460.03	47358.40
460.21	47056.47
460.39	49282.32
460.57	48147.16
460.76	49478.92
460.94	48708.89
461.12	48608.25
461.31	48858.68
461.49	48257.17
461.67	48584.84
461.85	50258.32
462.04	49991.50
462.22	49556.16
462.40	50564.93
462.59	49572.55
462.77	49378.28
462.95	49371.26
463.13	49076.35
463.32	47887.36
463.50	48559.09
463.68	49134.87
463.86	49425.09
464.05	48624.63
464.23	48360.15
464.41	47178.18
464.59	47091.58
464.78	48846.98
464.96	49085.72
465.14	48636.33
465.32	49207.42
465.50	50564.93
465.69	50408.12
465.87	49401.69
466.05	48516.96
466.23	46525.17
466.41	46286.43
466.60	47821.83
466.78	47840.55
466.96	47662.67
467.14	49254.23
467.32	49148.91
467.51	48907.83
467.69	47676.71
467.87	48032.47
468.05	48147.16
468.23	48278.23
468.41	48959.33
468.60	49120.82
468.78	50185.77
468.96	49600.63
469.14	50211.51
469.32	49659.15
469.50	48329.72
469.69	48191.63
469.87	47370.10
470.05	48402.28
470.23	47454.36
470.41	47887.36
470.59	48751.02
470.77	48992.09
470.95	49167.63
471.14	50122.57
471.32	50316.84
471.50	52411.62
471.68	51950.53
471.86	52451.41
472.04	52561.41
472.22	52364.81
472.40	50885.59
472.58	50581.32
472.77	50373.01
472.95	50953.46
473.13	51278.80
473.31	50703.03
473.49	51583.07
473.67	51887.34
473.85	52081.60
474.03	52608.22
474.21	52580.13
474.39	53242.51
474.57	53174.63
474.75	52959.30
474.93	52779.08
475.12	52072.24
475.30	52278.21
475.48	52388.21
475.66	53502.31
475.84	52516.94
476.02	52105.01
476.20	52224.37
476.38	52538.01
476.56	53741.04
476.74	54377.67
476.92	54042.97
477.10	54906.63
477.28	55510.49
477.46	55863.91
477.64	55552.62
477.82	55697.73
478.00	55856.88
478.18	55805.39
478.36	55110.25
478.54	55154.72
478.72	55662.62
478.90	56275.84
479.08	56811.82
479.26	56500.53
479.44	56596.49
479.62	57130.14
479.80	56769.69
479.98	57134.82
480.16	57792.51
480.34	57183.97
480.52	57146.52
480.70	57478.88
480.88	57631.01
481.06	58305.09
481.24	58312.11
481.41	59009.59
481.59	59079.80
481.77	58885.54
481.95	58782.55
482.13	58698.30
482.31	58616.38
482.49	59070.44
482.67	59004.91
482.85	59449.61
483.03	59835.80
483.21	59681.32
483.39	59552.59
483.57	59061.08
483.74	59072.78
483.92	59203.85
484.10	59302.15
484.28	60067.51
484.46	60423.27
484.64	60743.92
484.82	59845.16
485.00	59412.16
485.18	59100.87
485.35	58375.30
485.53	55870.93
485.71	53081.01
485.89	54197.44
486.07	56261.80
486.25	57623.99
486.43	59201.51
486.61	59297.47
486.78	58871.49
486.96	59849.84
487.14	60411.57
487.32	61193.31
487.50	61502.26
487.68	61616.94
487.85	62384.64
488.03	62089.73
488.21	61474.17
488.39	61441.40
488.57	61144.16
488.75	61511.62
488.92	62080.37
489.10	63824.07
489.28	64535.59
489.46	64612.83
489.64	64257.07
489.81	65010.72
489.99	64661.98
490.17	64521.55
490.35	64722.83
490.53	64334.31
490.70	64776.67
490.88	64507.50
491.06	64807.09
491.24	64193.87
491.41	63884.92
491.59	63084.46
491.77	62225.48
491.95	63594.70
492.13	64111.95
492.30	64975.61
492.48	65502.23
492.66	65535.00
492.84	65535.00
493.01	65535.00
493.19	65535.00
493.37	65258.82
493.54	65090.30
493.72	65535.00
493.90	65535.00
494.08	65535.00
494.25	65535.00
494.43	65535.00
494.61	65535.00
494.79	65535.00
494.96	65535.00
495.14	65535.00
495.32	65535.00
495.49	65535.00
495.67	65535.00
495.85	65535.00
496.02	65535.00
496.20	65535.00
496.38	65535.00
496.55	65535.00
496.73	65535.00
496.91	65535.00
497.09	65535.00
497.26	65535.00
497.44	65535.00
497.62	65535.00
497.79	65535.00
497.97	65535.00
498.14	65535.00
498.32	65535.00
498.50	65535.00
498.67	65535.00
498.85	65535.00
499.03	65535.00
499.20	65535.00
499.38	65535.00
499.56	65535.00
499.73	65535.00
499.91	65535.00
500.08	65535.00
500.26	65535.00
500.44	65535.00
500.61	65535.00
500.79	65535.00
500.97	65535.00
501.14	65535.00
501.32	65535.00
501.49	65535.00
501.67	65535.00
501.84	65535.00
502.02	65535.00
502.20	65535.00
502.37	65535.00
502.55	65535.00
502.72	65535.00
502.90	65535.00
503.07	65535.00
503.25	65535.00
503.43	65535.00
503.60	65535.00
503.78	65535.00
503.95	65535.00
504.13	65535.00
504.30	65535.00
504.48	65535.00
504.65	65535.00
504.83	65535.00
505.01	65535.00
505.18	65535.00
505.36	65535.00
505.53	65535.00
505.71	65535.00
505.88	65535.00
506.06	65535.00
506.23	65535.00
506.41	65535.00
506.58	65535.00
506.76	65535.00
506.93	65535.00
507.11	65535.00
507.28	65535.00
507.46	65535.00
507.63	65535.00
507.81	65535.00
507.98	65535.00
508.16	65535.00
508.33	65535.00
508.50	65535.00
508.68	65535.00
508.85	65535.00
509.03	65535.00
509.20	65535.00
509.38	65535.00
509.55	65535.00
509.73	65535.00
509.90	65535.00
510.08	65535.00
510.25	65535.00
510.42	65535.00
510.60	65535.00
510.77	65535.00
510.95	65535.00
511.12	65535.00
511.30	65535.00
511.47	65535.00
511.64	65535.00
511.82	65535.00
511.99	65535.00
512.17	65535.00
512.34	65535.00
512.51	65535.00
512.69	65535.00
512.86	65535.00
513.04	65535.00
513.21	65535.00
513.38	65535.00
513.56	65535.00
513.73	65535.00
513.90	65535.00
514.08	65535.00
514.25	65535.00
514.43	65535.00
514.60	65535.00
514.77	65535.00
514.95	65535.00
515.12	65535.00
515.29	65535.00
515.47	65535.00
515.64	65535.00
515.81	65535.00
515.99	65535.00
516.16	65535.00
516.33	65535.00
516.51	65535.00
516.68	65535.00
516.85	64427.93
517.03	65535.00
517.20	65535.00
517.37	65535.00
517.54	65535.00
517.72	65535.00
517.89	65535.00
518.06	65535.00
518.24	65535.00
518.41	65535.00
518.58	65535.00
518.75	65535.00
518.93	65535.00
519.10	65535.00
519.27	65535.00
519.45	65535.00
519.62	65535.00
519.79	65535.00
519.96	65535.00
520.14	65535.00
520.31	65535.00
520.48	65535.00
520.65	65535.00
520.83	65535.00
521.00	65535.00
521.17	65535.00
521.34	65535.00
521.52	65535.00
521.69	65535.00
521.86	65535.00
522.03	65535.00
522.20	65535.00
522.38	65535.00
522.55	65535.00
522.72	65535.00
522.89	65535.00
523.07	65535.00
523.24	65535.00
523.41	65535.00
523.58	65535.00
523.75	65535.00
523.92	65535.00
524.10	65535.00
524.27	65535.00
524.44	65535.00
524.61	65535.00
524.78	65535.00
524.96	65535.00
525.13	65535.00
525.30	65535.00
525.47	65535.00
525.64	65535.00
525.81	65535.00
525.98	65535.00
526.16	65535.00
526.33	65535.00
526.50	65535.00
526.67	65535.00
526.84	65535.00
527.01	65535.00
527.18	65535.00
527.36	65535.00
527.53	65535.00
527.70	65535.00
527.87	65535.00
528.04	65535.00
528.21	65535.00
528.38	65535.00
528.55	65535.00
528.72	65535.00
528.89	65535.00
529.07	65535.00
529.24	65535.00
529.41	65535.00
529.58	65535.00
529.75	65535.00
529.92	65535.00
530.09	65535.00
530.26	65535.00
530.43	65535.00
530.60	65535.00
530.77	65535.00
530.94	65535.00
531.11	65535.00
531.28	65535.00
531.46	65535.00
531.63	65535.00
531.80	65535.00
531.97	65535.00
532.14	65535.00
532.31	65535.00
532.48	65535.00
532.65	65535.00
532.82	65535.00
532.99	65535.00
533.16	65535.00
533.33	65535.00
533.50	65535.00
533.67	65535.00
533.84	65535.00
534.01	65535.00
534.18	65535.00
534.35	65535.00
534.52	65535.00
534.69	65535.00
534.86	65535.00
535.03	65535.00
535.20	65535.00
535.37	65535.00
535.54	65535.00
535.71	65535.00
535.88	65535.00
536.05	65535.00
536.22	65535.00
536.38	65535.00
536.55	65535.00
536.72	65535.00
536.89	65535.00
537.06	65535.00
537.23	65535.00
537.40	65535.00
537.57	65535.00
537.74	65535.00
537.91	65535.00
538.08	65535.00
538.25	65535.00
538.42	65535.00
538.59	65535.00
538.75	65535.00
538.92	65535.00
539.09	65535.00
539.26	65535.00
539.43	65535.00
539.60	65535.00
539.77	65535.00
539.94	65535.00
540.11	65535.00
540.28	65535.00
540.44	65535.00
540.61	65535.00
540.78	65535.00
540.95	65535.00
541.12	65535.00
541.29	65535.00
541.46	65535.00
541.62	65535.00
541.79	65535.00
541.96	65535.00
542.13	65535.00
542.30	65535.00
542.47	65535.00
542.63	65535.00
542.80	65535.00
542.97	65535.00
543.14	65535.00
543.31	65535.00
543.48	65535.00
543.64	65535.00
543.81	65535.00
543.98	65535.00
544.15	65535.00
544.32	65535.00
544.48	65535.00
544.65	65535.00
544.82	65535.00
544.99	65535.00
545.16	65535.00
545.32	65535.00
545.49	65535.00
545.66	65535.00
545.83	65535.00
546.00	65535.00
546.16	65535.00
546.33	65535.00
546.50	65535.00
546.67	65535.00
546.83	65535.00
547.00	65535.00
547.17	65535.00
547.34	65535.00
547.50	65535.00
547.67	65535.00
547.84	65535.00
548.00	65535.00
548.17	65535.00
548.34	65535.00
548.51	65535.00
548.67	65535.00
548.84	65535.00
549.01	65535.00
549.18	65535.00
549.34	65535.00
549.51	65535.00
549.68	65535.00
549.84	65535.00
550.01	65535.00
550.18	65535.00
550.34	65535.00
550.51	65535.00
550.68	65535.00
550.84	65535.00
551.01	65535.00
551.18	65535.00
551.34	65535.00
551.51	65535.00
551.68	65535.00
551.84	65535.00
552.01	65535.00
552.18	65535.00
552.34	65535.00
552.51	65535.00
552.68	65535.00
552.84	65535.00
553.01	65535.00
553.18	65535.00
553.34	65535.00
553.51	65535.00
553.67	65535.00
553.84	65535.00
554.01	65535.00
554.17	65535.00
554.34	65535.00
554.51	65535.00
554.67	65535.00
554.84	65535.00
555.00	65535.00
555.17	65535.00
555.33	65535.00
555.50	65535.00
555.67	65535.00
555.83	65535.00
556.00	65535.00
556.16	65535.00
556.33	65535.00
556.50	65535.00
556.66	65535.00
556.83	65535.00
556.99	65535.00
557.16	65535.00
557.32	65535.00
557.49	65535.00
557.65	65535.00
557.82	65535.00
557.98	65535.00
558.15	65535.00
558.32	65535.00
558.48	65535.00
558.65	65535.00
558.81	65535.00
558.98	65535.00
559.14	65535.00
559.31	65535.00
559.47	65535.00
559.64	65535.00
559.80	65535.00
559.97	65535.00
560.13	65535.00
560.30	65535.00
560.46	65535.00
560.63	65535.00
560.79	65535.00
560.96	65535.00
561.12	65535.00
561.29	65535.00
561.45	65535.00
561.61	65535.00
561.78	65535.00
561.94	65535.00
562.11	65535.00
562.27	65535.00
562.44	65535.00
562.60	65535.00
562.77	65535.00
562.93	65535.00
563.10	65535.00
563.26	65535.00
563.42	65535.00
563.59	65535.00
563.75	65535.00
563.92	65535.00
564.08	65535.00
564.24	65535.00
564.41	65535.00
564.57	65535.00
564.74	65535.00
564.90	65535.00
565.07	65535.00
565.23	65535.00
565.39	65535.00
565.56	65535.00
565.72	65535.00
565.88	65535.00
566.05	65535.00
566.21	65535.00
566.38	65535.00
566.54	65535.00
566.70	65535.00
566.87	65535.00
567.03	65535.00
567.19	65535.00
567.36	65535.00
567.52	65535.00
567.68	65535.00
567.85	65535.00
568.01	65535.00
568.17	65535.00
568.34	65535.00
568.50	65535.00
568.66	65535.00
568.83	65535.00
568.99	65535.00
569.15	65535.00
569.32	65535.00
569.48	65535.00
569.64	65535.00
569.81	65535.00
569.97	65535.00
570.13	65535.00
570.30	65535.00
570.46	65219.03
570.62	65183.92
570.78	65535.00
570.95	65535.00
571.11	65535.00
571.27	65535.00
571.43	65535.00
571.60	65535.00
571.76	65535.00
571.92	65535.00
572.09	65535.00
572.25	65535.00
572.41	65535.00
572.57	65535.00
572.74	65535.00
572.90	65535.00
573.06	65535.00
573.22	65535.00
573.38	65535.00
573.55	65535.00
573.71	65535.00
573.87	65535.00
574.03	65535.00
574.20	65535.00
574.36	65535.00
574.52	65535.00
574.68	65535.00
574.84	65535.00
575.01	65403.93
575.17	65535.00
575.33	65535.00
575.49	65535.00
575.65	65535.00
575.82	65535.00
575.98	65535.00
576.14	65535.00
576.30	65535.00
576.46	65535.00
576.62	65535.00
576.79	65535.00
576.95	65535.00
577.11	65535.00
577.27	65535.00
577.43	65535.00
577.59	65535.00
577.75	65382.87
577.92	65333.71
578.08	65535.00
578.24	65399.25
578.40	65535.00
578.56	65535.00
578.72	65535.00
578.88	65535.00
579.04	65535.00
579.21	65535.00
579.37	65535.00
579.53	65535.00
579.69	65413.29
579.85	65535.00
580.01	65535.00
580.17	65535.00
580.33	65535.00
580.49	65527.98
580.65	65417.97
580.82	64980.29
580.98	64680.70
581.14	65343.08
581.30	65162.85
581.46	65535.00
581.62	65417.97
581.78	65272.86
581.94	65506.91
582.10	65535.00
582.26	65535.00
582.42	65535.00
582.58	65535.00
582.74	65535.00
582.90	65535.00
583.06	65535.00
583.22	65535.00
583.38	65535.00
583.54	65535.00
583.70	65535.00
583.86	65535.00
584.02	65535.00
584.18	65535.00
584.34	65535.00
584.50	65183.92
584.66	64776.67
584.82	64676.02
584.98	64889.01
585.14	65137.11
