SpectraSuite Data File
++++++++++++++++++++++++++++++++++++
Date: Mon Oct 07 14:53:30 GMT-05:00 2013
User: price-jones
Dark Spectrum Present: No
Reference Spectrum Present: No
Number of Sampled Component Spectra: 1
Spectrometers: USB2+H05261
Integration Time (usec): 100000 (USB2+H05261)
Spectra Averaged: 1 (USB2+H05261)
Boxcar Smoothing: 0 (USB2+H05261)
Correct for Electrical Dark: No (USB2+H05261)
Strobe/Lamp Enabled: No (USB2+H05261)
Correct for Detector Non-linearity: No (USB2+H05261)
Correct for Stray Light: No (USB2+H05261)
Number of Pixels in Processed Spectrum: 2048
>>>>>Begin Processed Spectral Data<<<<<
365.73	0.00
365.92	0.00
366.12	0.00
366.32	0.00
366.52	0.00
366.72	0.00
366.91	0.00
367.11	0.00
367.31	0.00
367.51	0.00
367.70	0.00
367.90	0.00
368.10	0.00
368.30	0.00
368.49	0.00
368.69	0.00
368.89	0.00
369.09	0.00
369.28	0.00
369.48	0.00
369.68	0.00
369.87	0.00
370.07	0.00
370.27	0.00
370.47	592.16
370.66	3077.80
370.86	3602.08
371.06	4088.92
371.25	4009.34
371.45	3721.45
371.65	3286.11
371.84	3033.33
372.04	3295.47
372.24	3620.81
372.44	3796.35
372.63	3840.82
372.83	3585.70
373.03	3187.81
373.22	2818.00
373.42	2972.48
373.62	3426.54
373.81	3684.00
374.01	3714.43
374.21	3442.93
374.40	3143.34
374.60	3290.79
374.79	3686.34
374.99	4285.52
375.19	4711.50
375.38	4627.24
375.58	4423.61
375.78	4315.95
375.97	4271.48
376.17	4622.56
376.37	4578.09
376.56	4568.73
376.76	4898.74
376.95	5268.55
377.15	5673.46
377.35	5841.98
377.54	5923.90
377.74	6176.67
377.93	6244.55
378.13	6066.67
378.33	5870.06
378.52	5350.46
378.72	5123.43
378.91	4973.64
379.11	4983.00
379.31	4779.37
379.50	4620.22
379.70	5102.37
379.89	5652.39
380.09	5790.49
380.28	5935.60
380.48	6005.81
380.68	6090.07
380.87	5729.63
381.07	5329.40
381.26	4812.14
381.46	4566.39
381.65	4486.81
381.85	4477.44
382.04	4147.43
382.24	3845.50
382.43	3772.94
382.63	3742.52
382.83	3651.24
383.02	3613.79
383.22	3669.96
383.41	3662.94
383.61	3950.82
383.80	4376.80
384.00	5195.99
384.19	5687.50
384.39	5944.96
384.58	6031.56
384.78	5984.75
384.97	6078.37
385.17	5528.35
385.36	5252.16
385.56	5088.32
385.75	5371.53
385.95	5680.48
386.14	6132.20
386.34	6118.16
386.53	5879.43
386.72	5591.54
386.92	5610.26
387.11	6029.22
387.31	6120.50
387.50	6132.20
387.70	5944.96
387.89	5797.51
388.09	5902.83
388.28	5970.71
388.48	6176.67
388.67	6558.18
388.86	7194.81
389.06	7534.18
389.25	8006.97
389.45	8140.38
389.64	8147.40
389.84	7864.20
390.03	7932.08
390.22	7850.16
390.42	8128.68
390.61	8545.30
390.81	9109.36
391.00	9598.54
391.19	9188.94
391.39	9015.74
391.58	8339.33
391.78	7749.51
391.97	7836.11
392.16	7248.64
392.36	6555.84
392.55	5247.48
392.75	4271.48
392.94	3478.04
393.13	3332.92
393.33	3911.04
393.52	5118.75
393.71	6274.98
393.91	7030.97
394.10	7630.15
394.29	8285.50
394.49	9128.09
394.68	9762.37
394.88	9687.48
395.07	10157.92
395.26	10050.26
395.46	9863.02
395.65	9123.41
395.84	8147.40
396.04	6651.80
396.23	5554.09
396.42	4669.37
396.62	4496.17
396.81	4997.04
397.00	6455.20
397.19	8028.04
397.39	9832.59
397.58	11002.86
397.77	11634.80
397.97	12262.07
398.16	12318.24
398.35	12875.29
398.55	13029.76
398.74	13640.64
398.93	13949.59
399.12	13460.42
399.32	13385.52
399.51	13451.06
399.70	14417.70
399.90	14342.80
400.09	14455.15
400.28	14012.79
400.47	14455.15
400.67	15232.21
400.86	15419.45
401.05	15297.74
401.24	15712.02
401.44	15836.06
401.63	15903.94
401.82	15829.04
402.01	15999.90
402.21	16058.42
402.40	16222.25
402.59	15648.82
402.78	14497.28
402.97	14363.87
403.17	14953.68
403.36	15943.73
403.55	16716.11
403.74	16816.75
403.93	15857.13
404.13	14754.74
404.32	14445.79
404.51	14972.41
404.70	16327.58
404.89	16512.48
405.09	16128.63
405.28	15854.79
405.47	15726.06
405.66	15510.73
405.85	15161.99
406.05	14827.29
406.24	14876.44
406.43	15674.57
406.62	16259.70
406.81	16236.30
407.00	15658.18
407.20	15426.47
407.39	15651.16
407.58	16035.01
407.77	16879.94
407.96	17577.42
408.15	17593.81
408.34	17654.66
408.54	18593.22
408.73	18438.74
408.92	18176.60
409.11	17982.34
409.30	16781.64
409.49	15936.71
409.68	14984.11
409.87	14394.29
410.07	15293.06
410.26	16505.46
410.45	17256.77
410.64	18157.88
410.83	18380.23
411.02	18930.25
411.21	19403.04
411.40	19559.86
411.59	19400.70
411.78	19426.45
411.98	19035.58
412.17	19637.09
412.36	19372.61
412.55	19358.57
412.74	18658.75
412.93	18534.70
413.12	18492.57
413.31	20320.53
413.50	20685.65
413.69	20795.66
413.88	20156.69
414.07	19356.23
414.26	19786.89
414.45	20465.64
414.64	20666.93
414.83	20765.23
415.02	19941.36
415.22	20189.46
415.41	20152.01
415.60	21097.59
415.79	21874.65
415.98	22581.49
416.17	22396.59
416.36	22132.11
416.55	21687.40
416.74	21022.69
416.93	20332.23
417.12	20397.77
417.31	20465.64
417.50	20910.35
417.69	21317.60
417.88	21563.36
418.07	21460.37
418.26	20971.20
418.45	21238.02
418.64	22286.58
418.83	22820.22
419.02	22677.45
419.21	22228.07
419.39	21142.06
419.58	20166.06
419.77	20379.04
419.96	21128.02
420.15	22726.60
420.34	22801.50
420.53	23723.67
420.72	24451.58
420.91	24313.48
421.10	23585.58
421.29	23606.64
421.48	22857.67
421.67	23948.36
421.86	23089.38
422.05	21832.52
422.24	19477.94
422.43	19026.21
422.61	21205.25
422.80	23105.77
422.99	23297.69
423.18	22302.96
423.37	21694.43
423.56	21958.91
423.75	22286.58
423.94	22740.64
424.13	21312.92
424.32	21563.36
424.50	21825.50
424.69	21284.83
424.88	21530.59
425.07	21766.98
425.26	21245.04
425.45	20912.69
425.64	20971.20
425.83	20659.91
426.01	21909.75
426.20	22618.94
426.39	22700.86
426.58	20863.54
426.77	19311.76
426.96	18635.35
427.15	19489.64
427.33	20840.13
427.52	21682.72
427.71	21762.30
427.90	21544.63
428.09	21287.17
428.28	20917.37
428.46	20184.78
428.65	19690.93
428.84	20114.56
429.03	20549.90
429.22	19730.72
429.40	18745.35
429.59	16865.90
429.78	14656.43
429.97	14972.41
430.16	15218.16
430.34	15541.16
430.53	15194.76
430.72	15335.19
430.91	17326.99
431.10	20201.16
431.28	23730.69
431.47	25858.24
431.66	26061.87
431.85	23765.80
432.03	21951.88
432.22	20772.25
432.41	21762.30
432.60	23939.00
432.79	24767.55
432.97	25422.90
433.16	24886.92
433.35	23166.62
433.54	20690.34
433.72	19358.57
433.91	19723.69
434.10	21994.01
434.28	23667.50
434.47	25310.55
434.66	24987.56
434.85	24081.77
435.03	23718.99
435.22	24456.26
435.41	26066.55
435.59	26075.91
435.78	26462.10
435.97	27269.58
436.16	27461.51
436.34	26525.29
436.53	26321.66
436.72	26143.78
436.90	24807.34
437.09	24542.86
437.28	24566.26
437.46	25422.90
437.65	25223.95
437.84	23482.59
438.02	21322.28
438.21	21106.95
438.40	22663.41
438.58	24545.20
438.77	25174.80
438.96	25614.82
439.14	26597.85
439.33	27098.72
439.52	27559.81
439.70	27037.87
439.89	26611.89
440.08	25621.84
440.26	25425.24
440.45	26328.69
440.63	28484.32
440.82	29797.36
441.01	29291.80
441.19	29142.01
441.38	29252.02
441.57	30541.65
441.75	30778.04
441.94	31255.51
442.12	30618.89
442.31	31491.91
442.50	31587.87
442.68	30845.92
442.87	30302.92
443.05	30092.27
443.24	30733.57
443.43	31068.27
443.61	31639.36
443.80	32498.34
443.98	30431.65
444.17	30272.49
444.35	31971.72
444.54	32634.09
444.73	32439.82
444.91	31065.93
445.10	29717.78
445.28	28872.85
445.47	27908.55
445.65	28489.00
445.84	28828.38
446.02	30008.01
446.21	30646.97
446.39	30719.53
446.58	30991.03
446.77	31662.77
446.95	31510.63
447.14	32790.91
447.32	33457.96
447.51	32826.01
447.69	31309.35
447.88	30764.00
448.06	31388.92
448.25	32524.08
448.43	32133.21
448.62	31571.49
448.80	31484.89
448.99	31592.55
449.17	31798.52
449.36	31908.52
449.54	33317.53
449.73	33577.33
449.91	33933.09
450.10	34993.35
450.28	35407.62
450.46	35110.38
450.65	35166.55
450.83	35075.27
451.02	34309.91
451.20	34220.97
451.39	34040.75
451.57	33675.63
451.76	33773.93
451.94	33366.68
452.13	33015.60
452.31	31683.83
452.49	29811.40
452.68	30209.29
452.86	30841.24
453.05	30808.47
453.23	31637.02
453.42	32591.96
453.60	33427.53
453.78	33277.74
453.97	33275.40
454.15	33235.61
454.34	32622.39
454.52	32706.65
454.70	31868.73
454.89	32259.60
455.07	32580.26
455.26	32804.95
455.44	34155.44
455.62	35042.50
455.81	35082.29
455.99	34986.33
456.17	34380.13
456.36	34274.80
456.54	35370.18
456.73	35669.76
456.91	36154.26
457.09	36381.29
457.28	37020.25
457.46	35269.53
457.64	34813.13
457.83	34209.27
458.01	33439.23
458.19	34113.31
458.38	34415.24
458.56	35580.82
458.74	35377.20
458.93	34773.34
459.11	34525.24
459.29	34424.60
459.48	34813.13
459.66	34501.84
459.84	35218.04
460.03	35555.08
460.21	35194.64
460.39	36142.55
460.57	36355.54
460.76	36821.31
460.94	36575.55
461.12	36044.25
461.31	36215.11
461.49	36205.75
461.67	36275.96
461.85	37593.68
462.04	37024.93
462.22	37703.69
462.40	37127.92
462.59	36905.57
462.77	37090.47
462.95	36966.42
463.13	36545.12
463.32	36177.66
463.50	36282.98
463.68	36168.30
463.86	36545.12
464.05	35730.62
464.23	34843.56
464.41	34923.13
464.59	34637.59
464.78	36034.89
464.96	35517.63
465.14	35468.48
465.32	36306.39
465.50	37345.59
465.69	37860.51
465.87	36732.37
466.05	36282.98
466.23	34136.71
466.41	33415.83
466.60	34689.08
466.78	34429.28
466.96	35115.06
467.14	35571.46
467.32	36463.21
467.51	36107.44
467.69	34485.45
467.87	35096.33
468.05	35295.28
468.23	35714.23
468.41	35526.99
468.60	35938.93
468.78	36629.38
468.96	35697.85
469.14	36978.12
469.32	36746.41
469.50	35646.36
469.69	35566.78
469.87	35157.19
470.05	34766.32
470.23	34703.12
470.41	34808.45
470.59	35548.06
470.77	35861.69
470.95	36320.43
471.14	36535.76
471.32	37017.91
471.50	38808.42
471.68	38700.76
471.86	38974.60
472.04	39526.97
472.22	40062.95
472.40	37497.72
472.58	37528.15
472.77	36561.51
472.95	37593.68
473.13	38602.46
473.31	37219.20
473.49	37488.36
473.67	38925.45
473.85	39030.77
474.03	39693.15
474.21	39576.12
474.39	40151.89
474.57	40364.88
474.75	40772.13
474.93	40350.84
475.12	38895.02
475.30	38824.81
475.48	39555.05
475.66	40208.06
475.84	39653.36
476.02	39222.70
476.20	38607.14
476.38	39239.08
476.56	40425.73
476.74	41008.53
476.92	41303.43
477.10	41975.17
477.28	42749.88
477.46	42780.31
477.64	42962.87
477.82	43718.87
478.00	43653.33
478.18	42960.53
478.36	42724.14
478.54	42749.88
478.72	42831.80
478.90	44215.06
479.08	45244.90
479.26	46057.06
479.44	45319.79
479.62	45422.78
479.80	45170.00
479.98	45401.71
480.16	46176.43
480.34	44940.63
480.52	46068.76
480.70	45855.78
480.88	46136.64
481.06	46749.86
481.24	47007.32
481.41	47941.19
481.59	48435.05
481.77	48233.76
481.95	47459.04
482.13	47564.37
482.31	47445.00
482.49	48322.70
482.67	48545.05
482.85	48165.88
483.03	48956.99
483.21	49130.19
483.39	48921.88
483.57	48280.57
483.74	48552.07
483.92	48631.65
484.10	48584.84
484.28	49773.83
484.46	50035.97
484.64	50490.04
484.82	49434.45
485.00	48982.73
485.18	48423.34
485.35	47433.30
485.53	43882.70
485.71	40655.11
485.89	39915.50
486.07	41652.17
486.25	45251.92
486.43	47297.55
486.61	48128.44
486.78	47950.56
486.96	48161.20
487.14	49703.62
487.32	50852.82
487.50	51573.70
487.68	52631.63
487.85	52765.04
488.03	52685.46
488.21	52596.52
488.39	51765.63
488.57	50939.42
488.75	50660.90
488.92	51660.30
489.10	53897.86
489.28	55105.57
489.46	55599.43
489.64	55416.86
489.81	55655.60
489.99	55288.13
490.17	55341.97
490.35	55653.26
490.53	54988.55
490.70	54656.19
490.88	54625.76
491.06	55789.01
491.24	55723.47
491.41	54590.66
491.59	53282.30
491.77	52563.75
491.95	53563.16
492.13	54621.08
492.30	55611.13
492.48	56610.54
492.66	56956.94
492.84	57006.09
493.01	56940.55
493.19	56140.09
493.37	55901.36
493.54	55753.90
493.72	56006.68
493.90	57148.86
494.08	57921.24
494.25	58176.36
494.43	58223.17
494.61	58546.16
494.79	58700.64
494.96	58534.46
495.14	57869.75
495.32	57006.09
495.49	56451.38
495.67	57495.26
495.85	58817.66
496.02	59182.79
496.20	59075.12
496.38	58543.82
496.55	58501.69
496.73	58892.56
496.91	58862.13
497.09	59559.61
497.26	59590.04
497.44	59051.72
497.62	58756.81
497.79	58035.92
497.97	56846.93
498.14	56882.04
498.32	58197.42
498.50	58775.53
498.67	59409.82
498.85	59325.56
499.03	59643.87
499.20	59758.56
499.38	59697.70
499.56	59437.90
499.73	59007.25
499.91	58628.08
500.08	58232.53
500.26	57783.15
500.44	57944.64
500.61	58700.64
500.79	58543.82
500.97	57984.43
501.14	57932.94
501.32	57719.95
501.49	57867.40
501.67	58101.46
501.84	58642.12
502.02	58618.72
502.20	59304.49
502.37	59189.81
502.55	59147.68
502.72	59842.82
502.90	60009.00
503.07	59784.30
503.25	59632.17
503.43	58862.13
503.60	58232.53
503.78	57441.43
503.95	58117.84
504.13	59157.04
504.30	60016.02
504.48	59908.35
504.65	59437.90
504.83	59402.80
505.01	60140.07
505.18	60397.52
505.36	61099.68
505.53	61078.62
505.71	61275.22
505.88	61153.52
506.06	60708.82
506.23	60336.67
506.41	60044.10
506.58	60306.24
506.76	60348.37
506.93	60196.24
507.11	60039.42
507.28	60079.21
507.46	59529.19
507.63	59114.91
507.81	59063.42
507.98	59302.15
508.16	59941.12
508.33	60294.54
508.50	60764.99
508.68	61064.58
508.85	61457.79
509.03	61558.43
509.20	61364.17
509.38	60615.19
509.55	59992.61
509.73	59969.21
509.90	60250.07
510.08	60669.03
510.25	60549.66
510.42	60243.05
510.60	60324.97
510.77	60652.64
510.95	60945.21
511.12	61144.16
511.30	61560.77
511.47	61874.40
511.64	61780.78
511.82	61504.60
511.99	60849.25
512.17	60378.80
512.34	60027.72
512.51	60210.28
512.69	60243.05
512.86	60346.03
513.04	60774.35
513.21	60603.49
513.38	60378.80
513.56	59924.74
513.73	59215.55
513.90	59634.51
514.08	59608.76
514.25	60062.83
514.43	60238.37
514.60	60528.59
514.77	60434.97
514.95	60430.29
515.12	60378.80
515.29	60605.83
515.47	61062.24
515.64	61275.22
515.81	60823.50
515.99	60392.84
516.16	59056.40
516.33	57048.22
516.51	55601.77
516.68	54831.73
516.85	54550.87
517.03	55002.59
517.20	57258.87
517.37	59561.95
517.54	60587.11
517.72	59894.31
517.89	57888.47
518.06	55667.30
518.24	55842.84
518.41	57872.09
518.58	59227.26
518.75	59454.29
518.93	59435.56
519.10	59421.52
519.27	59938.78
519.45	60034.74
519.62	60673.71
519.79	61092.66
519.96	60900.74
520.14	60334.33
520.31	59433.22
520.48	59585.36
520.65	59826.43
520.83	60999.04
521.00	61200.33
521.17	60797.76
521.34	60505.19
521.52	60905.42
521.69	61361.82
521.86	61518.64
522.03	61375.87
522.20	60210.28
522.38	59363.01
522.55	59320.88
522.72	59943.46
522.89	59938.78
523.07	60266.45
523.24	60460.72
523.41	61214.37
523.58	61434.38
523.75	62089.73
523.92	62042.92
524.10	61787.80
524.27	61794.82
524.44	61591.20
524.61	61439.06
524.78	61247.14
524.96	61144.16
525.13	61214.37
525.30	61450.77
525.47	61963.34
525.64	61771.42
525.81	61235.44
525.98	59920.05
526.16	58543.82
526.33	57705.91
526.50	57464.83
526.67	57240.14
526.84	57799.53
527.01	58672.55
527.18	59573.66
527.36	60371.78
527.53	61125.43
527.70	61312.67
527.87	60963.93
528.04	60402.21
528.21	60774.35
528.38	61520.98
528.55	62026.54
528.72	62457.20
528.89	62321.44
529.07	62148.24
529.24	61551.41
529.41	61062.24
529.58	60310.92
529.75	60467.74
529.92	60797.76
530.09	61410.98
530.26	61694.18
530.43	62148.24
530.60	62085.05
530.77	62328.47
530.94	62379.96
531.11	61684.82
531.28	61448.42
531.46	61462.47
531.63	61588.86
531.80	61291.61
531.97	60898.40
532.14	60406.89
532.31	59334.92
532.48	58848.09
532.65	58646.80
532.82	59756.22
532.99	60662.00
533.16	60940.53
533.33	61434.38
533.50	61118.41
533.67	60659.66
533.84	60310.92
534.01	60640.94
534.18	60755.63
534.35	60921.80
534.52	60708.82
534.69	61031.81
534.86	61350.12
535.03	61511.62
535.20	61991.43
535.37	62379.96
535.54	62276.97
535.71	62010.15
535.88	61745.67
536.05	61155.86
536.22	60680.73
536.38	60392.84
536.55	59959.84
536.72	59503.44
536.89	59503.44
537.06	60119.00
537.23	61085.64
537.40	61181.60
537.57	61240.12
537.74	60987.34
537.91	61132.45
538.08	60865.63
538.25	60985.00
538.42	61003.72
538.59	61076.28
538.75	60427.95
538.92	60275.82
539.09	60069.85
539.26	59758.56
539.43	59793.67
539.60	59639.19
539.77	59987.93
539.94	59798.35
540.11	59100.87
540.28	58700.64
540.44	58897.24
540.61	59000.22
540.78	59192.15
540.95	59681.32
541.12	60032.40
541.29	60336.67
541.46	60736.90
541.62	60582.43
541.79	60299.22
541.96	59957.50
542.13	59655.57
542.30	60088.57
542.47	60296.88
542.63	59943.46
542.80	59655.57
542.97	59969.21
543.14	59788.98
543.31	59910.69
543.48	60214.96
543.64	61190.97
543.81	61432.04
543.98	61034.15
544.15	60458.38
544.32	59983.25
544.48	60053.47
544.65	60402.21
544.82	60867.97
544.99	60671.37
545.16	60186.88
545.32	59796.01
545.49	60514.55
545.66	61055.21
545.83	60580.09
546.00	60154.11
546.16	59882.61
546.33	60072.19
546.50	60217.30
546.67	60566.04
546.83	60121.34
547.00	60053.47
547.17	59449.61
547.34	58803.62
547.50	58628.08
547.67	59402.80
547.84	59501.10
548.00	59774.94
548.17	60076.87
548.34	59891.97
548.51	60023.04
548.67	60067.51
548.84	60182.19
549.01	60243.05
549.18	59936.44
549.34	60074.53
549.51	60114.32
549.68	60086.23
549.84	60025.38
550.01	59625.15
550.18	59508.12
550.34	59545.57
550.51	59622.81
550.68	59826.43
550.84	59374.71
551.01	59416.84
551.18	59175.76
551.34	59482.37
551.51	59796.01
551.68	60116.66
551.84	60243.05
552.01	59856.86
552.18	60142.41
552.34	59121.93
552.51	58981.50
552.68	58717.02
552.84	59185.13
553.01	59463.65
553.18	59299.81
553.34	59337.26
553.51	59447.27
553.67	59835.80
553.84	59999.63
554.01	59992.61
554.17	59585.36
554.34	59650.89
554.51	59922.40
554.67	60011.34
554.84	60088.57
555.00	59576.00
555.17	59402.80
555.33	59283.43
555.50	59388.75
555.67	59398.12
555.83	59128.95
556.00	58831.71
556.16	58925.33
556.33	58424.45
556.50	58576.59
556.66	58539.14
556.83	57951.66
556.99	58220.83
557.16	58323.81
557.32	58611.70
557.49	58997.88
557.65	58841.07
557.82	58820.00
557.98	58515.73
558.15	58454.88
558.32	57464.83
558.48	56715.86
558.65	56975.66
558.81	57116.09
558.98	57748.04
559.14	57764.42
559.31	57677.82
559.47	57792.51
559.64	57605.26
559.80	57085.67
559.97	57174.61
560.13	57556.11
560.30	58773.19
560.46	58983.84
560.63	59199.17
560.79	59363.01
560.96	58646.80
561.12	57696.55
561.29	56963.96
561.45	57214.40
561.61	57598.24
561.78	57825.28
561.94	57921.24
562.11	57820.59
562.27	57521.01
562.44	57939.96
562.60	58288.70
562.77	58286.36
562.93	58183.38
563.10	58138.91
563.26	57811.23
563.42	57712.93
563.59	57609.95
563.75	57769.10
563.92	57556.11
564.08	57591.22
564.24	57862.72
564.41	57982.09
564.57	57659.10
564.74	57701.23
564.90	57607.61
565.07	57340.78
565.23	56919.49
565.39	56582.45
565.56	56172.86
565.72	56374.14
565.88	56292.22
566.05	56507.55
566.21	56636.28
566.38	56762.67
566.54	56856.29
566.70	57350.15
566.87	57516.32
567.03	57673.14
567.19	57701.23
567.36	57392.28
567.52	57382.91
567.68	57027.15
567.85	56540.32
568.01	56233.71
568.17	55784.33
568.34	55889.65
568.50	55828.80
568.66	55812.41
568.83	56397.55
568.99	56339.04
569.15	56535.64
569.32	56769.69
569.48	56252.44
569.64	55957.53
569.81	55646.24
569.97	55660.28
570.13	55629.85
570.30	55068.12
570.46	54794.28
570.62	54171.70
570.78	54127.23
570.95	54396.39
571.11	55334.95
571.27	55540.91
571.43	55524.53
571.60	55870.93
571.76	55880.29
571.92	56137.75
572.09	56371.80
572.25	56537.98
572.41	56392.87
572.57	56222.01
572.74	56182.22
572.90	55770.28
573.06	55608.79
573.22	55934.12
573.38	55873.27
573.55	55856.88
573.71	56107.32
573.87	55889.65
574.03	55653.26
574.20	55618.15
574.36	55552.62
574.52	55061.10
574.68	55285.79
574.84	54625.76
575.01	54330.86
575.17	54251.28
575.33	54564.91
575.49	54766.20
575.65	54801.30
575.82	54686.62
575.98	54349.58
576.14	54770.88
576.30	54862.16
576.46	55035.36
576.62	55011.95
576.79	54997.91
576.95	54560.23
577.11	54490.01
577.27	54649.17
577.43	54901.95
577.59	54377.67
577.75	54019.56
577.92	53616.99
578.08	53162.93
578.24	53265.91
578.40	53724.66
578.56	53916.58
578.72	53778.49
578.88	54155.32
579.04	54279.36
579.21	54270.00
579.37	54424.48
579.53	54644.49
579.69	54307.45
579.85	54658.53
580.01	54546.18
580.17	53652.10
580.33	53712.95
580.49	53965.73
580.65	54106.16
580.82	54443.20
580.98	54335.54
581.14	54204.47
581.30	54274.68
581.46	53923.60
581.62	54415.11
581.78	54368.30
581.94	54529.80
582.10	54223.19
582.26	54497.03
582.42	54511.08
582.58	54494.69
582.74	54440.86
582.90	54590.66
583.06	54204.47
583.22	54333.20
583.38	54124.89
583.54	54127.23
583.70	54085.10
583.86	54019.56
584.02	53998.50
584.18	54160.00
584.34	54122.55
584.50	53762.11
584.66	53797.21
584.82	53619.33
584.98	53469.54
585.14	53200.38
