SpectraSuite Data File
++++++++++++++++++++++++++++++++++++
Date: Mon Oct 07 14:55:02 GMT-05:00 2013
User: price-jones
Dark Spectrum Present: No
Reference Spectrum Present: No
Number of Sampled Component Spectra: 1
Spectrometers: USB2+H05261
Integration Time (usec): 10000 (USB2+H05261)
Spectra Averaged: 1 (USB2+H05261)
Boxcar Smoothing: 0 (USB2+H05261)
Correct for Electrical Dark: No (USB2+H05261)
Strobe/Lamp Enabled: No (USB2+H05261)
Correct for Detector Non-linearity: No (USB2+H05261)
Correct for Stray Light: No (USB2+H05261)
Number of Pixels in Processed Spectrum: 2048
>>>>>Begin Processed Spectral Data<<<<<
365.73	0.00
365.92	0.00
366.12	0.00
366.32	0.00
366.52	0.00
366.72	0.00
366.91	0.00
367.11	0.00
367.31	0.00
367.51	0.00
367.70	0.00
367.90	0.00
368.10	0.00
368.30	0.00
368.49	0.00
368.69	0.00
368.89	0.00
369.09	0.00
369.28	0.00
369.48	0.00
369.68	0.00
369.87	0.00
370.07	0.00
370.27	0.00
370.47	521.94
370.66	2743.11
370.86	3316.54
371.06	3597.40
371.25	3342.28
371.45	3145.68
371.65	2810.98
371.84	2715.02
372.04	2939.71
372.24	3255.69
372.44	3232.28
372.63	3105.89
372.83	2881.20
373.03	2605.02
373.22	2504.37
373.42	2789.92
373.62	3138.66
373.81	3258.03
374.01	3155.04
374.21	2944.39
374.40	2710.34
374.60	2942.05
374.79	3339.94
374.99	3845.50
375.19	4065.51
375.38	3882.95
375.58	3740.18
375.78	3691.02
375.97	3829.12
376.17	3831.46
376.37	3978.91
376.56	3964.87
376.76	4264.46
376.95	4645.96
377.15	4950.23
377.35	4954.91
377.54	5380.89
377.74	5500.26
377.93	5310.68
378.13	5195.99
378.33	4690.43
378.52	4393.19
378.72	4322.97
378.91	4341.69
379.11	4217.65
379.31	4025.72
379.50	4117.00
379.70	4449.36
379.89	5008.75
380.09	5109.39
380.28	5294.29
380.48	5310.68
380.68	5139.82
380.87	4938.53
381.07	4641.28
381.26	4341.69
381.46	4119.34
381.65	3810.39
381.85	3768.26
382.04	3403.14
382.24	3475.70
382.43	3204.19
382.63	3061.42
382.83	3248.66
383.02	3075.46
383.22	3173.77
383.41	3290.79
383.61	3363.35
383.80	4095.94
384.00	4732.56
384.19	5128.11
384.39	5163.22
384.58	5245.14
384.78	5137.48
384.97	5123.43
385.17	4765.33
385.36	4383.82
385.56	4358.08
385.75	4676.39
385.95	5411.32
386.14	5495.58
386.34	5270.89
386.53	4975.98
386.72	4837.89
386.92	5015.77
387.11	5296.63
387.31	5481.53
387.50	5376.21
387.70	5109.39
387.89	5151.52
388.09	5179.61
388.28	5132.79
388.48	5256.84
388.67	5886.45
388.86	6403.71
389.06	6958.41
389.25	7126.93
389.45	7229.91
389.64	7140.97
389.84	6963.09
390.03	6885.86
390.22	7253.32
390.42	7276.73
390.61	7796.32
390.81	8435.29
391.00	8489.12
391.19	8217.62
391.39	7859.52
391.58	7344.60
391.78	7159.70
391.97	6810.96
392.16	6340.51
392.36	5664.10
392.55	4320.63
392.75	3548.25
392.94	2897.58
393.13	3190.15
393.33	3866.56
393.52	4901.08
393.71	5792.83
393.91	6644.78
394.10	7042.67
394.29	7791.64
394.49	8409.54
394.68	8922.12
394.88	8826.16
395.07	9104.68
395.26	9095.32
395.46	8659.98
395.65	8102.93
395.84	6752.45
396.04	5753.04
396.23	4737.24
396.42	3955.51
396.62	4142.75
396.81	4929.17
397.00	6459.88
397.19	7953.14
397.39	9277.88
397.58	10284.31
397.77	10696.25
397.97	11272.02
398.16	11295.43
398.35	11815.02
398.55	11929.71
398.74	12669.32
398.93	12650.60
399.12	12493.78
399.32	11838.43
399.51	12610.81
399.70	13378.50
399.90	13132.75
400.09	12877.63
400.28	12725.49
400.47	13165.51
400.67	13949.59
400.86	14003.43
401.05	14207.05
401.24	14382.59
401.44	14382.59
401.63	14558.13
401.82	14438.76
402.01	14586.22
402.21	14824.95
402.40	14614.30
402.59	14068.96
402.78	13582.13
402.97	13160.83
403.17	14104.07
403.36	14944.32
403.55	15318.81
403.74	15229.87
403.93	14506.64
404.13	13411.27
404.32	13476.80
404.51	14267.91
404.70	15241.57
404.89	15014.54
405.09	14710.27
405.28	14160.24
405.47	14422.38
405.66	14413.02
405.85	13781.07
406.05	13612.56
406.24	13947.25
406.43	14555.79
406.62	14775.80
406.81	15138.58
407.00	14686.86
407.20	14139.18
407.39	14377.91
407.58	15037.94
407.77	15840.75
407.96	16470.35
408.15	16681.00
408.34	16641.21
408.54	17752.96
408.73	17071.87
408.92	16954.84
409.11	16123.95
409.30	15545.84
409.49	14544.09
409.68	13387.86
409.87	13411.27
410.07	14614.30
410.26	15599.67
410.45	16278.43
410.64	17053.14
410.83	17593.81
411.02	17720.20
411.21	18239.79
411.40	18209.37
411.59	18677.48
411.78	18422.36
411.98	18162.56
412.17	18530.02
412.36	18015.10
412.55	17944.89
412.74	17458.06
412.93	17488.48
413.12	17951.91
413.31	19536.45
413.50	19389.00
413.69	19473.26
413.88	18855.36
414.07	18370.86
414.26	18958.34
414.45	19463.90
414.64	19309.42
414.83	19124.52
415.02	18930.25
415.22	18998.13
415.41	19665.18
415.60	20255.00
415.79	20908.01
415.98	21029.71
416.17	21076.52
416.36	20636.50
416.55	20453.94
416.74	19630.07
416.93	19269.63
417.12	19534.11
417.31	19281.33
417.50	19695.61
417.69	20739.49
417.88	20437.56
418.07	20233.93
418.26	20112.22
418.45	20240.95
418.64	21406.54
418.83	22204.66
419.02	21041.42
419.21	20884.60
419.39	19983.49
419.58	19482.62
419.77	19864.13
419.96	20648.21
420.15	21741.24
420.34	22689.15
420.53	22670.43
420.72	23424.08
420.91	22892.78
421.10	22480.85
421.29	22068.91
421.48	21972.95
421.67	23278.97
421.86	21902.73
422.05	20168.40
422.24	18405.97
422.43	19136.22
422.61	21525.91
422.80	22317.01
422.99	21860.60
423.18	21029.71
423.37	21106.95
423.56	21422.92
423.75	22003.38
423.94	22033.80
424.13	21256.75
424.32	20856.51
424.50	20980.56
424.69	21179.51
424.88	21282.49
425.07	20805.02
425.26	20978.22
425.45	20163.72
425.64	20194.14
425.83	20137.97
426.01	21221.64
426.20	22059.55
426.39	21446.33
426.58	19997.54
426.77	18424.70
426.96	18700.88
427.15	19190.05
427.33	20828.43
427.52	21535.27
427.71	21343.35
427.90	20685.65
428.09	21057.80
428.28	20058.39
428.46	19372.61
428.65	19452.19
428.84	19943.70
429.03	19964.77
429.22	18948.98
429.40	17607.85
429.59	15653.50
429.78	14321.74
429.97	14621.33
430.16	14600.26
430.34	14995.81
430.53	15117.52
430.72	16067.78
430.91	17832.54
431.10	20538.20
431.28	23810.27
431.47	25369.07
431.66	24987.56
431.85	22148.49
432.03	21048.44
432.22	20641.18
432.41	22291.26
432.60	23927.30
432.79	24671.59
432.97	25116.29
433.16	23985.81
433.35	21645.27
433.54	19318.78
433.72	18656.41
433.91	20180.10
434.10	22714.90
434.28	23817.29
434.47	25106.93
434.66	23889.85
434.85	23550.47
435.03	24102.84
435.22	24500.73
435.41	25577.37
435.59	26085.27
435.78	26232.72
435.97	27075.32
436.16	27014.46
436.34	26218.68
436.53	25844.20
436.72	25869.94
436.90	24687.97
437.09	24783.93
437.28	24217.52
437.46	25455.67
437.65	24215.18
437.84	22438.72
438.02	21341.00
438.21	21757.62
438.40	22508.93
438.58	24673.93
438.77	25324.60
438.96	25640.57
439.14	26977.01
439.33	26637.64
439.52	27227.45
439.70	26235.06
439.89	25235.66
440.08	25120.97
440.26	25621.84
440.45	26302.94
440.63	28423.47
440.82	29214.57
441.01	28547.51
441.19	28664.54
441.38	29867.58
441.57	30239.72
441.75	30164.82
441.94	30831.88
442.12	30768.68
442.31	31409.99
442.50	31049.55
442.68	30396.54
442.87	30588.46
443.05	29958.86
443.24	30728.89
443.43	31091.68
443.61	31765.75
443.80	32238.54
443.98	31140.83
444.17	30515.90
444.35	31985.76
444.54	32460.89
444.73	31587.87
444.91	30242.06
445.10	29455.64
445.28	28732.42
445.47	27936.63
445.65	28278.35
445.84	29490.75
446.02	30040.78
446.21	30433.99
446.39	30363.77
446.58	31192.32
446.77	31999.80
446.95	32275.99
447.14	32978.15
447.32	33504.77
447.51	32388.33
447.69	31108.06
447.88	31311.69
448.06	31779.79
448.25	31976.40
448.43	31496.59
448.62	31536.38
448.80	31721.28
448.99	31789.16
449.17	32100.45
449.36	32414.08
449.54	33867.55
449.73	33532.86
449.91	34213.95
450.10	35225.06
450.28	35906.16
450.46	35538.69
450.65	35557.42
450.83	34813.13
451.02	35014.41
451.20	34155.44
451.39	34522.90
451.57	34352.04
451.76	34129.69
451.94	33504.77
452.13	32594.30
452.31	31068.27
452.49	29553.94
452.68	31007.42
452.86	31012.10
453.05	31246.15
453.23	32669.20
453.42	33118.58
453.60	34089.90
453.78	33748.18
453.97	33509.45
454.15	33661.58
454.34	32151.94
454.52	32254.92
454.70	32339.18
454.89	32582.60
455.07	32746.44
455.26	33558.60
455.44	34899.73
455.62	35309.32
455.81	34618.86
455.99	34976.97
456.17	34742.91
456.36	35828.92
456.54	36175.32
456.73	35557.42
456.91	36060.63
457.09	36142.55
457.28	37443.89
457.46	35311.66
457.64	34993.35
457.83	34382.47
458.01	34071.18
458.19	35363.15
458.38	35737.64
458.56	36460.87
458.74	36563.85
458.93	35379.54
459.11	34705.46
459.29	34691.42
459.48	35363.15
459.66	34485.45
459.84	34902.07
460.03	35194.64
460.21	36247.88
460.39	36748.75
460.57	36528.74
460.76	36327.45
460.94	37076.43
461.12	37111.53
461.31	36978.12
461.49	37207.50
461.67	37069.40
461.85	38347.34
462.04	37542.19
462.22	37720.07
462.40	37390.06
462.59	36690.24
462.77	37537.51
462.95	37010.89
463.13	37331.54
463.32	36549.81
463.50	35868.71
463.68	36273.62
463.86	36847.05
464.05	36067.66
464.23	35356.13
464.41	35601.89
464.59	34288.85
464.78	36849.39
464.96	35995.10
465.14	35573.80
465.32	37214.52
465.50	38443.30
465.69	38909.07
465.87	36907.91
466.05	36467.89
466.23	34829.51
466.41	33759.89
466.60	35489.54
466.78	35056.54
466.96	35473.16
467.14	36432.78
467.32	36498.31
467.51	36840.03
467.69	34941.86
467.87	36706.62
468.05	36615.34
468.23	36451.50
468.41	36795.56
468.60	36790.88
468.78	37537.51
468.96	36807.26
469.14	37890.93
469.32	37708.37
469.50	35889.77
469.69	36313.41
469.87	35716.58
470.05	35452.09
470.23	35426.35
470.41	36378.95
470.59	36322.77
470.77	35861.69
470.95	37338.57
471.14	37631.13
471.32	37935.40
471.50	40067.63
471.68	39779.74
471.86	39950.60
472.04	39428.66
472.22	40243.17
472.40	38328.61
472.58	38665.65
472.77	38108.60
472.95	38888.00
473.13	39849.96
473.31	38277.12
473.49	38279.46
473.67	39363.13
473.85	39728.25
474.03	41617.07
474.21	41940.06
474.39	41773.88
474.57	41785.58
474.75	41811.33
474.93	40952.35
475.12	39634.63
475.30	40449.14
475.48	39878.05
475.66	40201.04
475.84	39878.05
476.02	40273.60
476.20	39709.53
476.38	40292.32
476.56	41621.75
476.74	42717.12
476.92	42373.06
477.10	42579.03
477.28	43515.24
477.46	43880.36
477.64	44797.85
477.82	44608.27
478.00	44945.31
478.18	43803.13
478.36	43239.06
478.54	43487.15
478.72	44250.17
478.90	46328.56
479.08	47416.91
479.26	46806.03
479.44	47779.70
479.62	46885.61
479.80	47395.85
479.98	47061.15
480.16	47295.21
480.34	47021.36
480.52	47419.25
480.70	47613.52
480.88	47615.86
481.06	48123.75
481.24	48484.20
481.41	49516.37
481.59	50099.17
481.77	48921.88
481.95	48783.79
482.13	48975.71
482.31	49263.60
482.49	49738.72
482.67	48868.05
482.85	49518.71
483.03	49474.24
483.21	50625.79
483.39	50148.32
483.57	49516.37
483.74	49811.28
483.92	50398.76
484.10	49942.35
484.28	50461.95
484.46	50181.09
484.64	51786.69
484.82	50831.75
485.00	50483.01
485.18	49734.04
485.35	47557.35
485.53	42249.01
485.71	39817.19
485.89	41013.21
486.07	44430.39
486.25	46209.20
486.43	48516.96
486.61	49247.21
486.78	48753.36
486.96	50012.57
487.14	51124.32
487.32	52170.54
487.50	52540.35
487.68	53635.72
487.85	54403.41
488.03	53317.40
488.21	52917.17
488.39	52779.08
488.57	51664.99
488.75	51739.88
488.92	53261.23
489.10	54876.20
489.28	55510.49
489.46	56659.69
489.64	56577.77
489.81	56678.41
489.99	55877.95
490.17	56329.67
490.35	56243.07
490.53	56140.09
490.70	55765.60
490.88	55613.47
491.06	56570.75
491.24	57059.92
491.41	55852.20
491.59	54382.35
491.77	54295.75
491.95	55458.99
492.13	56643.30
492.30	57048.22
492.48	57846.34
492.66	58035.92
492.84	57626.33
493.01	57537.39
493.19	57235.46
493.37	56837.57
493.54	57139.50
493.72	58195.08
493.90	58300.40
494.08	58822.34
494.25	58773.19
494.43	59728.13
494.61	59894.31
494.79	59917.71
494.96	59922.40
495.14	59320.88
495.32	58190.40
495.49	58504.03
495.67	59498.76
495.85	60224.32
496.02	60523.91
496.20	59999.63
496.38	59522.16
496.55	59763.24
496.73	60434.97
496.91	60596.47
497.09	60533.28
497.26	60884.36
497.44	60357.74
497.62	59716.43
497.79	58930.01
497.97	58129.54
498.14	58871.49
498.32	59934.10
498.50	59938.78
498.67	59987.93
498.85	60032.40
499.03	60755.63
499.20	61043.51
499.38	60444.33
499.56	59599.40
499.73	59702.38
499.91	59487.06
500.08	59091.51
500.26	58581.27
500.44	59334.92
500.61	59590.04
500.79	59545.57
500.97	59676.64
501.14	58768.51
501.32	58511.05
501.49	58735.74
501.67	59316.20
501.84	59150.02
502.02	59945.80
502.20	60364.76
502.37	60533.28
502.55	60470.08
502.72	61179.26
502.90	61673.12
503.07	61310.33
503.25	60317.95
503.43	59381.73
503.60	59180.45
503.78	59292.79
503.95	59494.08
504.13	60739.24
504.30	61020.11
504.48	60416.25
504.65	60512.21
504.83	60683.07
505.01	61504.60
505.18	61855.68
505.36	62052.28
505.53	62085.05
505.71	61951.64
505.88	62365.91
506.06	61839.29
506.23	61567.79
506.41	61425.02
506.58	61752.69
506.76	61478.85
506.93	60715.84
507.11	60865.63
507.28	61076.28
507.46	60474.76
507.63	60650.30
507.81	60111.98
507.98	60816.48
508.16	61511.62
508.33	61408.64
508.50	61668.44
508.68	62141.22
508.85	62555.50
509.03	62817.64
509.20	61991.43
509.38	61078.62
509.55	61272.88
509.73	61455.45
509.90	61495.24
510.08	61659.07
510.25	61310.33
510.42	61310.33
510.60	61649.71
510.77	62042.92
510.95	62017.17
511.12	62349.53
511.30	62873.81
511.47	63220.21
511.64	63110.20
511.82	63004.88
511.99	62010.15
512.17	61748.01
512.34	61247.14
512.51	61563.11
512.69	62068.67
512.86	61757.38
513.04	62005.47
513.21	61422.68
513.38	60725.20
513.56	60339.01
513.73	60219.64
513.90	61127.77
514.08	60994.36
514.25	61102.03
514.43	61474.17
514.60	61382.89
514.77	61937.60
514.95	62014.83
515.12	61642.69
515.29	62096.75
515.47	62419.75
515.64	62494.64
515.81	62127.18
515.99	61045.85
516.16	59732.81
516.33	57591.22
516.51	57490.58
516.68	55962.21
516.85	55611.13
517.03	56907.79
517.20	59377.05
517.37	61169.90
517.54	61701.20
517.72	60617.53
517.89	57757.40
518.06	56470.11
518.24	57783.15
518.41	59695.36
518.58	60690.09
518.75	60821.16
518.93	60652.64
519.10	60212.62
519.27	61364.17
519.45	61375.87
519.62	62148.24
519.79	62213.78
519.96	61499.92
520.14	61558.43
520.31	60189.22
520.48	60493.49
520.65	61422.68
520.83	62269.95
521.00	62401.02
521.17	61694.18
521.34	61778.44
521.52	62066.33
521.69	62309.74
521.86	62855.09
522.03	62464.22
522.20	61104.37
522.38	60552.00
522.55	61038.83
522.72	61577.15
522.89	60856.27
523.07	61684.82
523.24	62197.40
523.41	62960.41
523.58	63117.23
523.75	63171.06
523.92	63007.22
524.10	62789.55
524.27	62845.72
524.44	62293.36
524.61	62078.03
524.78	62408.04
524.96	62450.17
525.13	62258.25
525.30	62819.98
525.47	63302.13
525.64	63054.03
525.81	62218.46
525.98	60772.01
526.16	59440.24
526.33	59468.33
526.50	59028.31
526.67	58908.94
526.84	59597.06
527.01	60453.70
527.18	60802.44
527.36	61937.60
527.53	62632.74
527.70	62176.33
527.87	60713.50
528.04	61736.31
528.21	62066.33
528.38	62958.07
528.55	63515.12
528.72	63278.72
528.89	62972.11
529.07	62986.16
529.24	61670.78
529.41	61773.76
529.58	61347.78
529.75	62344.85
529.92	62651.46
530.09	62707.63
530.26	63325.53
530.43	63959.82
530.60	62817.64
530.77	63568.95
530.94	63690.66
531.11	62646.78
531.28	62550.82
531.46	63007.22
531.63	62702.95
531.80	62513.37
531.97	61998.45
532.14	61928.23
532.31	60472.42
532.48	59971.55
532.65	60327.31
532.82	60823.50
532.99	62576.56
533.16	62592.95
533.33	62534.43
533.50	62878.49
533.67	62464.22
533.84	62035.90
534.01	62417.41
534.18	62363.57
534.35	61825.25
534.52	61307.99
534.69	62181.01
534.86	62445.49
535.03	62995.52
535.20	62621.03
535.37	63327.87
535.54	63491.71
535.71	63421.50
535.88	63461.29
536.05	62274.63
536.22	61670.78
536.38	61689.50
536.55	61132.45
536.72	60666.69
536.89	61408.64
537.06	61289.27
537.23	61755.03
537.40	61670.78
537.57	61586.52
537.74	62101.43
537.91	62143.56
538.08	62101.43
538.25	62258.25
538.42	63037.65
538.59	62408.04
538.75	61750.35
538.92	61057.56
539.09	61347.78
539.26	61286.93
539.43	61214.37
539.60	60786.05
539.77	61638.01
539.94	61485.87
540.11	60615.19
540.28	60392.84
540.44	60067.51
540.61	60336.67
540.78	60800.10
540.95	61265.86
541.12	61549.07
541.29	61740.99
541.46	61923.55
541.62	62159.95
541.79	61364.17
541.96	60919.46
542.13	60870.31
542.30	60996.70
542.47	61532.68
542.63	61467.15
542.80	61352.46
542.97	60828.18
543.14	60711.16
543.31	60898.40
543.48	61836.95
543.64	62003.13
543.81	62869.13
543.98	62873.81
544.15	61263.52
544.32	61851.00
544.48	61483.53
544.65	61457.79
544.82	61900.15
544.99	60853.93
545.16	60282.84
545.32	60706.47
545.49	61495.24
545.66	61415.66
545.83	61233.10
546.00	61729.29
546.16	61663.75
546.33	61338.42
546.50	61310.33
546.67	61998.45
546.83	61286.93
547.00	61638.01
547.17	60526.25
547.34	59788.98
547.50	59847.50
547.67	60863.29
547.84	61659.07
548.00	61516.30
548.17	61361.82
548.34	61485.87
548.51	61684.82
548.67	61647.37
548.84	61593.54
549.01	61616.94
549.18	61179.26
549.34	61212.03
549.51	61635.67
549.68	61890.79
549.84	61146.50
550.01	60495.83
550.18	60449.02
550.34	60561.36
550.51	61017.77
550.68	61375.87
550.84	61307.99
551.01	60411.57
551.18	60535.62
551.34	60430.29
551.51	61303.31
551.68	61378.21
551.84	61595.88
552.01	61080.96
552.18	60804.78
552.34	60072.19
552.51	60041.76
552.68	59758.56
552.84	60104.96
553.01	60385.82
553.18	60554.34
553.34	60678.39
553.51	60886.70
553.67	60905.42
553.84	60797.76
554.01	61258.84
554.17	60591.79
554.34	60823.50
554.51	60755.63
554.67	60294.54
554.84	60252.41
555.00	60025.38
555.17	60083.89
555.33	60011.34
555.50	59444.93
555.67	60357.74
555.83	60678.39
556.00	59962.18
556.16	59924.74
556.33	59458.97
556.50	59936.44
556.66	59704.73
556.83	59435.56
556.99	58993.20
557.16	59671.96
557.32	59367.69
557.49	59728.13
557.65	59505.78
557.82	60097.94
557.98	60257.09
558.15	59199.17
558.32	58742.77
558.48	58155.29
558.65	58536.80
558.81	58408.07
558.98	59217.89
559.14	59423.86
559.31	59157.04
559.47	58775.53
559.64	58780.21
559.80	58408.07
559.97	59018.95
560.13	59622.81
560.30	60580.09
560.46	60846.91
560.63	61113.73
560.79	60692.43
560.96	59920.05
561.12	59044.69
561.29	58812.98
561.45	58578.93
561.61	59611.10
561.78	58852.77
561.94	59489.40
562.11	59393.43
562.27	58862.13
562.44	59653.23
562.60	59945.80
562.77	60058.15
562.93	59241.30
563.10	59157.04
563.26	59292.79
563.42	59784.30
563.59	59290.45
563.75	58946.39
563.92	58665.53
564.08	58365.94
564.24	59180.45
564.41	58822.34
564.57	59606.42
564.74	59276.41
564.90	58693.61
565.07	58539.14
565.23	57375.89
565.39	57352.49
565.56	57696.55
565.72	57935.28
565.88	57043.54
566.05	58635.10
566.21	59016.61
566.38	58702.98
566.54	58918.31
566.70	59386.41
566.87	59217.89
567.03	58464.24
567.19	59697.70
567.36	59873.24
567.52	58663.19
567.68	58005.50
567.85	57673.14
568.01	57946.98
568.17	57949.32
568.34	58468.92
568.50	57598.24
568.66	57453.13
568.83	57291.63
568.99	57256.53
569.15	57462.49
569.32	57441.43
569.48	57525.69
569.64	57464.83
569.81	57207.37
569.97	56690.12
570.13	56336.69
570.30	55899.01
570.46	55475.38
570.62	54712.36
570.78	55140.68
570.95	55884.97
571.11	56390.53
571.27	55980.93
571.43	56301.59
571.60	55931.78
571.76	57286.95
571.92	57443.77
572.09	57764.42
572.25	57244.82
572.41	57481.22
572.57	57272.91
572.74	57717.61
572.90	58848.09
573.06	57982.09
573.22	58298.06
573.38	57790.17
573.55	58635.10
573.71	57609.95
573.87	57659.10
574.03	57785.49
574.20	57272.91
574.36	57088.01
574.52	56322.65
574.68	56540.32
574.84	55964.55
575.01	55908.38
575.17	55966.89
575.33	56245.41
575.49	56612.88
575.65	55627.51
575.82	55735.18
575.98	55552.62
576.14	56816.50
576.30	57521.01
576.46	55978.59
576.62	56072.21
576.79	56486.49
576.95	56493.51
577.11	56823.53
577.27	56245.41
577.43	56851.61
577.59	56172.86
577.75	55058.76
577.92	55154.72
578.08	55250.69
578.24	55697.73
578.40	56114.34
578.56	54733.43
578.72	55253.03
578.88	54923.01
579.04	55964.55
579.21	55337.29
579.37	55451.97
579.53	55901.36
579.69	55442.61
579.85	55311.54
580.01	55255.37
580.17	55040.04
580.33	55952.85
580.49	56027.74
580.65	54834.07
580.82	55360.69
580.98	56093.28
581.14	55597.09
581.30	55606.45
581.46	55187.49
581.62	55711.77
581.78	56069.87
581.94	56390.53
582.10	55896.67
582.26	56378.82
582.42	56210.31
582.58	55473.04
582.74	55365.37
582.90	55487.08
583.06	55774.97
583.22	55866.25
583.38	55992.64
583.54	56254.78
583.70	56259.46
583.86	56172.86
584.02	55281.11
584.18	54997.91
584.34	55002.59
584.50	54686.62
584.66	54855.14
584.82	55241.32
584.98	55264.73
585.14	54319.15
585.30	54351.92
