SpectraSuite Data File
++++++++++++++++++++++++++++++++++++
Date: Mon Oct 07 14:54:03 GMT-05:00 2013
User: price-jones
Dark Spectrum Present: No
Reference Spectrum Present: No
Number of Sampled Component Spectra: 1
Spectrometers: USB2+H05261
Integration Time (usec): 100000 (USB2+H05261)
Spectra Averaged: 1 (USB2+H05261)
Boxcar Smoothing: 0 (USB2+H05261)
Correct for Electrical Dark: No (USB2+H05261)
Strobe/Lamp Enabled: No (USB2+H05261)
Correct for Detector Non-linearity: No (USB2+H05261)
Correct for Stray Light: No (USB2+H05261)
Number of Pixels in Processed Spectrum: 2048
>>>>>Begin Processed Spectral Data<<<<<
365.73	0.00
365.92	0.00
366.12	0.00
366.32	0.00
366.52	0.00
366.72	0.00
366.91	0.00
367.11	0.00
367.31	0.00
367.51	0.00
367.70	0.00
367.90	0.00
368.10	0.00
368.30	0.00
368.49	0.00
368.69	0.00
368.89	0.00
369.09	0.00
369.28	0.00
369.48	0.00
369.68	0.00
369.87	0.00
370.07	0.00
370.27	0.00
370.47	606.20
370.66	3337.60
370.86	3845.50
371.06	4180.20
371.25	4252.75
371.45	3899.33
371.65	3445.27
371.84	3194.83
372.04	3248.66
372.24	3772.94
372.44	3868.91
372.63	3840.82
372.83	3578.68
373.03	3314.20
373.22	2928.01
373.42	3098.87
373.62	3595.06
373.81	3915.72
374.01	3873.59
374.21	3482.72
374.40	3173.77
374.60	3398.46
374.79	3751.88
374.99	4348.72
375.19	4858.95
375.38	4777.03
375.58	4526.60
375.78	4475.10
375.97	4512.55
376.17	4678.73
376.37	4692.77
376.56	4821.50
376.76	5100.03
376.95	5369.19
377.15	5748.36
377.35	6054.97
377.54	6122.84
377.74	6176.67
377.93	6363.92
378.13	6244.55
378.33	5837.30
378.52	5535.37
378.72	5203.01
378.91	5170.24
379.11	4891.72
379.31	4898.74
379.50	4819.16
379.70	5074.28
379.89	5750.70
380.09	5982.41
380.28	6188.38
380.48	6204.76
380.68	6174.33
380.87	5851.34
381.07	5537.71
381.26	5156.20
381.46	4718.52
381.65	4650.64
381.85	4479.79
382.04	4264.46
382.24	4074.87
382.43	3786.99
382.63	3709.75
382.83	3936.78
383.02	3679.32
383.22	3763.58
383.41	3882.95
383.61	4016.36
383.80	4709.16
384.00	5270.89
384.19	6047.94
384.39	6141.57
384.58	6078.37
384.78	6106.46
384.97	5991.77
385.17	5610.26
385.36	5493.24
385.56	5179.61
385.75	5228.76
385.95	5872.40
386.14	6497.33
386.34	6345.19
386.53	6106.46
386.72	5776.44
386.92	5703.89
387.11	6150.93
387.31	6326.47
387.50	6438.81
387.70	6022.20
387.89	5909.85
388.09	6090.07
388.28	5959.00
388.48	6193.06
388.67	6600.31
388.86	7063.74
389.06	7665.25
389.25	8042.08
389.45	8049.10
389.64	8072.51
389.84	8255.07
390.03	7997.61
390.22	8138.04
390.42	8355.71
390.61	8779.35
390.81	9336.40
391.00	9547.05
391.19	9479.17
391.39	9184.26
391.58	8608.49
391.78	8011.65
391.97	7817.39
392.16	7187.79
392.36	6670.53
392.55	5383.23
392.75	4292.54
392.94	3508.46
393.13	3522.51
393.33	3913.38
393.52	5322.38
393.71	6321.79
393.91	7014.59
394.10	7934.42
394.29	8549.98
394.49	9149.15
394.68	9951.96
394.88	10003.45
395.07	10134.52
395.26	10235.16
395.46	9933.23
395.65	9263.84
395.84	8255.07
396.04	7026.29
396.23	5769.42
396.42	4655.33
396.62	4498.51
396.81	5406.64
397.00	6766.49
397.19	8451.67
397.39	9940.26
397.58	11286.06
397.77	11887.58
397.97	12297.17
398.16	12800.39
398.35	13125.72
398.55	13170.19
398.74	13514.25
398.93	14265.57
399.12	13809.16
399.32	13277.86
399.51	13816.18
399.70	14668.14
399.90	14396.64
400.09	14647.07
400.28	14401.32
400.47	14869.42
400.67	15241.57
400.86	15655.84
401.05	15681.59
401.24	15957.77
401.44	15857.13
401.63	15850.11
401.82	15939.05
402.01	15768.19
402.21	16439.92
402.40	16397.79
402.59	15520.09
402.78	14869.42
402.97	14597.92
403.17	15229.87
403.36	16016.29
403.55	16879.94
403.74	17291.88
403.93	16215.23
404.13	14958.36
404.32	14607.28
404.51	15080.07
404.70	16596.74
404.89	16439.92
405.09	16217.57
405.28	15873.51
405.47	15559.88
405.66	15751.81
405.85	15269.66
406.05	15147.95
406.24	15059.01
406.43	15477.96
406.62	16545.25
406.81	16311.19
407.00	15805.64
407.20	15566.90
407.39	15712.02
407.58	16262.04
407.77	16823.77
407.96	17336.35
408.15	17823.18
408.34	17860.63
408.54	18473.85
408.73	18593.22
408.92	18431.72
409.11	17685.09
409.30	16933.78
409.49	15775.21
409.68	14916.23
409.87	14642.39
410.07	15246.25
410.26	16695.04
410.45	17619.55
410.64	17804.46
410.83	18651.73
411.02	18750.03
411.21	19871.15
411.40	19370.27
411.59	19555.18
411.78	19538.79
411.98	19185.37
412.17	19405.38
412.36	18974.72
412.55	19346.87
412.74	18609.60
412.93	18396.61
413.12	18422.36
413.31	20594.37
413.50	20531.18
413.69	21366.75
413.88	19969.45
414.07	19494.32
414.26	20088.82
414.45	20634.16
414.64	20500.75
414.83	20388.41
415.02	20023.28
415.22	19927.32
415.41	20311.17
415.60	20966.52
415.79	22082.95
415.98	22405.95
416.17	22618.94
416.36	22036.14
416.55	21502.50
416.74	21013.33
416.93	20133.29
417.12	20098.18
417.31	20617.78
417.50	20772.25
417.69	21621.87
417.88	21397.18
418.07	21352.71
418.26	21001.63
418.45	21177.17
418.64	22136.79
418.83	22668.09
419.02	22258.49
419.21	22317.01
419.39	21338.66
419.58	20276.06
419.77	20313.51
419.96	21088.23
420.15	22211.68
420.34	23206.41
420.53	23969.43
420.72	24299.44
420.91	23924.96
421.10	23850.06
421.29	23616.01
421.48	22733.62
421.67	24049.00
421.86	23522.38
422.05	21645.27
422.24	19159.63
422.43	19016.85
422.61	21357.39
422.80	22775.75
422.99	22871.72
423.18	22197.64
423.37	21846.56
423.56	21860.60
423.75	22132.11
423.94	22382.54
424.13	21289.51
424.32	21720.17
424.50	21624.21
424.69	21488.46
424.88	21511.86
425.07	21397.18
425.26	21186.53
425.45	21123.33
425.64	20606.08
425.83	20699.70
426.01	21989.33
426.20	22677.45
426.39	22466.80
426.58	20840.13
426.77	19318.78
426.96	18354.48
427.15	18972.38
427.33	20968.86
427.52	21717.83
427.71	21895.71
427.90	21282.49
428.09	21177.17
428.28	20856.51
428.46	20067.75
428.65	19597.31
428.84	20163.72
429.03	20500.75
429.22	19499.00
429.40	18427.04
429.59	16917.39
429.78	14581.54
429.97	14544.09
430.16	15208.80
430.34	14850.70
430.53	15178.37
430.72	15482.64
430.91	16547.59
431.10	19878.17
431.28	23220.45
431.47	25598.44
431.66	25757.60
431.85	23374.93
432.03	21642.93
432.22	20559.27
432.41	21539.95
432.60	23915.59
432.79	24727.76
432.97	25472.05
433.16	24772.23
433.35	22834.27
433.54	20496.07
433.72	18838.97
433.91	19704.97
434.10	21848.90
434.28	23293.01
434.47	24975.86
434.66	24215.18
434.85	23850.06
435.03	23386.63
435.22	24231.57
435.41	25928.45
435.59	25528.22
435.78	26080.59
435.97	26553.38
436.16	27166.60
436.34	26499.55
436.53	25837.17
436.72	25963.56
436.90	24652.86
437.09	24987.56
437.28	23985.81
437.46	25069.48
437.65	24865.85
437.84	23686.22
438.02	21137.38
438.21	21003.97
438.40	22398.93
438.58	24177.73
438.77	25064.80
438.96	25167.78
439.14	26373.16
439.33	27009.78
439.52	27473.21
439.70	26848.29
439.89	25998.67
440.08	25420.56
440.26	25315.23
440.45	26214.00
440.63	27695.56
440.82	28966.47
441.01	29123.29
441.19	28510.07
441.38	29252.02
441.57	29598.41
441.75	30443.35
441.94	30672.72
442.12	30359.09
442.31	30864.64
442.50	31021.46
442.68	30176.53
442.87	30396.54
443.05	29422.87
443.24	29860.55
443.43	30497.18
443.61	31192.32
443.80	31531.70
443.98	29991.62
444.17	29806.72
444.35	31438.08
444.54	31967.04
444.73	31742.35
444.91	30483.14
445.10	29118.60
445.28	28067.70
445.47	27672.15
445.65	27812.59
445.84	28304.10
446.02	29638.20
446.21	29881.62
446.39	29979.92
446.58	30349.73
446.77	30960.61
446.95	31173.60
447.14	32018.53
447.32	32849.42
447.51	31534.04
447.69	30923.16
447.88	30469.09
448.06	30656.34
448.25	31524.68
448.43	31454.46
448.62	30934.86
448.80	30962.95
448.99	30934.86
449.17	31199.34
449.36	31304.67
449.54	32472.59
449.73	32629.41
449.91	33500.09
450.10	34218.63
450.28	34677.38
450.46	34251.40
450.65	34609.50
450.83	33787.97
451.02	32858.78
451.20	33020.28
451.39	33273.06
451.57	32842.40
451.76	32753.46
451.94	32783.88
452.13	32072.36
452.31	30916.14
452.49	29333.93
452.68	29685.01
452.86	29701.40
453.05	30120.35
453.23	30892.73
453.42	31395.95
453.60	32718.35
453.78	32568.55
453.97	32556.85
454.15	32608.34
454.34	31578.51
454.52	32343.86
454.70	31281.26
454.89	31798.52
455.07	31821.92
455.26	32280.67
455.44	33493.07
455.62	33757.55
455.81	34267.78
455.99	34066.50
456.17	33479.02
456.36	33567.96
456.54	34869.30
456.73	34298.21
456.91	34827.17
457.09	35489.54
457.28	36233.83
457.46	34541.63
457.64	34328.64
457.83	33378.38
458.01	32528.77
458.19	33511.79
458.38	33479.02
458.56	34785.04
458.74	34440.98
458.93	34148.42
459.11	33757.55
459.29	33572.64
459.48	33589.03
459.66	33509.45
459.84	33668.61
460.03	33902.66
460.21	34377.79
460.39	35325.71
460.57	35288.26
460.76	35627.63
460.94	35452.09
461.12	34951.22
461.31	35096.33
461.49	35594.87
461.67	34976.97
461.85	36191.70
462.04	35955.31
462.22	36355.54
462.40	36088.72
462.59	35976.37
462.77	35580.82
462.95	36294.69
463.13	35211.02
463.32	35026.12
463.50	35264.85
463.68	34696.10
463.86	35421.67
464.05	34574.39
464.23	33830.10
464.41	33605.41
464.59	33305.82
464.78	34969.94
464.96	34962.92
465.14	34295.87
465.32	34876.32
465.50	35952.97
465.69	36425.76
465.87	35545.72
466.05	34380.13
466.23	33251.99
466.41	32184.71
466.60	33277.74
466.78	33130.28
466.96	33745.84
467.14	34642.27
467.32	34639.93
467.51	35337.41
467.69	33043.68
467.87	34567.37
468.05	34684.40
468.23	34506.52
468.41	34525.24
468.60	34728.87
468.78	35075.27
468.96	34597.80
469.14	35573.80
469.32	35211.02
469.50	34361.40
469.69	34113.31
469.87	34019.69
470.05	33373.70
470.23	33500.09
470.41	33776.27
470.59	34085.22
470.77	34614.18
470.95	34845.90
471.14	35915.52
471.32	35255.49
471.50	37287.07
471.68	37415.80
471.86	37385.38
472.04	38227.97
472.22	38010.30
472.40	36074.68
472.58	35945.95
472.77	35323.36
472.95	36149.57
473.13	37090.47
473.31	36093.40
473.49	36240.86
473.67	36879.82
473.85	37406.44
474.03	38117.96
474.21	38181.16
474.39	38616.50
474.57	38738.21
474.75	39002.69
474.93	38637.56
475.12	37504.74
475.30	37645.18
475.48	37794.97
475.66	38623.52
475.84	37851.14
476.02	37642.84
476.20	36945.36
476.38	37469.64
476.56	38782.68
476.74	39042.48
476.92	39466.11
477.10	40369.56
477.28	41502.38
477.46	41127.89
477.64	41773.88
477.82	41628.77
478.00	41993.89
478.18	41237.90
478.36	41448.55
478.54	41024.91
478.72	40992.14
478.90	41968.15
479.08	43217.99
479.26	43571.41
479.44	43707.16
479.62	43533.96
479.80	43576.09
479.98	43716.53
480.16	44093.35
480.34	43629.93
480.52	44191.65
480.70	44212.72
480.88	44079.31
481.06	45265.96
481.24	45237.87
481.41	46473.68
481.59	46532.19
481.77	46759.22
481.95	45593.64
482.13	45373.63
482.31	46192.81
482.49	46518.15
482.67	46195.15
482.85	46827.10
483.03	47456.70
483.21	47744.59
483.39	47557.35
483.57	46857.52
483.74	46291.12
483.92	46799.01
484.10	46670.28
484.28	47878.00
484.46	48273.55
484.64	48346.11
484.82	47449.68
485.00	47730.54
485.18	46312.18
485.35	45598.32
485.53	42124.96
485.71	38593.09
485.89	37851.14
486.07	39784.43
486.25	42904.36
486.43	45329.16
486.61	46284.09
486.78	45869.82
486.96	46326.22
487.14	47831.19
487.32	48692.50
487.50	49525.74
487.68	50518.12
487.85	51288.16
488.03	51133.68
488.21	50864.52
488.39	49895.54
488.57	49389.98
488.75	49041.24
488.92	49977.46
489.10	52079.26
489.28	53371.24
489.46	54160.00
489.64	53879.13
489.81	54164.68
489.99	53757.42
490.17	53689.55
490.35	54211.49
490.53	53722.32
490.70	53200.38
490.88	53052.92
491.06	54270.00
491.24	53998.50
491.41	53408.68
491.59	51611.15
491.77	50827.07
491.95	51777.33
492.13	52823.55
492.30	54272.34
492.48	54939.39
492.66	55501.12
492.84	55498.78
493.01	55143.02
493.19	54590.66
493.37	54457.24
493.54	54145.95
493.72	54848.11
493.90	55774.97
494.08	56306.27
494.25	56603.52
494.43	56781.40
494.61	57186.31
494.79	57434.41
494.96	56942.89
495.14	56493.51
495.32	55622.83
495.49	55047.06
495.67	56250.09
495.85	57483.56
496.02	57633.35
496.20	57467.17
496.38	56961.62
496.55	56985.02
496.73	57574.84
496.91	57499.94
497.09	57993.79
497.26	58379.98
497.44	57612.29
497.62	57439.09
497.79	56437.34
497.97	55372.39
498.14	55327.92
498.32	56683.09
498.50	57387.60
498.67	57874.43
498.85	57626.33
499.03	58110.82
499.20	58176.36
499.38	58255.93
499.56	58131.89
499.73	57738.68
499.91	57120.77
500.08	56638.62
500.26	56011.36
500.44	56535.64
500.61	57293.97
500.79	57092.69
500.97	56828.21
501.14	56507.55
501.32	56329.67
501.49	56303.93
501.67	56715.86
501.84	57233.12
502.02	57181.63
502.20	57581.86
502.37	57652.08
502.55	57717.61
502.72	58141.25
502.90	58677.23
503.07	58560.20
503.25	58035.92
503.43	57214.40
503.60	56701.82
503.78	56104.98
503.95	56381.16
504.13	57743.36
504.30	58410.41
504.48	58307.43
504.65	58064.01
504.83	57888.47
505.01	58815.32
505.18	58759.15
505.36	59543.23
505.53	59402.80
505.71	59835.80
505.88	59756.22
506.06	59168.74
506.23	58885.54
506.41	58576.59
506.58	58578.93
506.76	58642.12
506.93	58686.59
507.11	58611.70
507.28	58714.68
507.46	58143.59
507.63	57570.16
507.81	57422.70
507.98	57462.49
508.16	58284.02
508.33	58553.18
508.50	59250.66
508.68	59351.30
508.85	59800.69
509.03	59793.67
509.20	59863.88
509.38	58920.65
509.55	58344.87
509.73	58344.87
509.90	58801.28
510.08	59093.85
510.25	58918.31
510.42	58834.05
510.60	58747.45
510.77	58934.69
510.95	59505.78
511.12	59547.91
511.30	59826.43
511.47	60111.98
511.64	60341.35
511.82	59800.69
511.99	59011.93
512.17	58742.77
512.34	58340.19
512.51	58365.94
512.69	58649.14
512.86	58719.36
513.04	59100.87
513.21	59049.38
513.38	58941.71
513.56	58206.78
513.73	57586.54
513.90	57841.66
514.08	57914.22
514.25	58213.80
514.43	58494.67
514.60	58623.40
514.77	58471.26
514.95	58653.82
515.12	58637.44
515.29	58908.94
515.47	59416.84
515.64	59451.95
515.81	59274.07
515.99	58656.17
516.16	57158.22
516.33	55253.03
516.51	53514.01
516.68	52765.04
516.85	52245.44
517.03	52729.93
517.20	55206.22
517.37	57698.89
517.54	58731.06
517.72	58246.57
517.89	55985.61
518.06	53411.02
518.24	53633.38
518.41	56025.40
518.58	57277.59
518.75	57717.61
518.93	57558.45
519.10	57490.58
519.27	58042.95
519.45	58246.57
519.62	58714.68
519.79	59231.94
519.96	59082.14
520.14	58564.88
520.31	57869.75
520.48	57694.21
520.65	58096.78
520.83	59054.06
521.00	59458.97
521.17	59372.37
521.34	58677.23
521.52	59171.08
521.69	59559.61
521.86	59920.05
522.03	59669.62
522.20	58412.75
522.38	57422.70
522.55	57593.56
522.72	58230.19
522.89	58176.36
523.07	58482.97
523.24	58810.64
523.41	59526.84
523.58	59594.72
523.75	60264.11
523.92	59863.88
524.10	60067.51
524.27	59959.84
524.44	59875.58
524.61	59487.06
524.78	59568.97
524.96	59559.61
525.13	59629.83
525.30	59683.66
525.47	60067.51
525.64	59906.01
525.81	59245.98
525.98	58127.20
526.16	56500.53
526.33	55873.27
526.50	55536.23
526.67	55391.12
526.84	55835.82
527.01	56760.33
527.18	57453.13
527.36	58576.59
527.53	59260.02
527.70	59667.28
527.87	58939.37
528.04	58485.31
528.21	58948.73
528.38	59599.40
528.55	60151.77
528.72	60301.56
528.89	60374.12
529.07	60245.39
529.24	59597.06
529.41	59028.31
529.58	58567.23
529.75	58585.95
529.92	59054.06
530.09	59243.64
530.26	59777.28
530.43	60020.70
530.60	60051.12
530.77	60245.39
530.94	60491.15
531.11	60027.72
531.28	59697.70
531.46	59522.16
531.63	59681.32
531.80	59477.69
531.97	59004.91
532.14	58431.47
532.31	57612.29
532.48	56706.50
532.65	56605.86
532.82	57628.67
532.99	58820.00
533.16	58993.20
533.33	59405.14
533.50	59135.98
533.67	58714.68
533.84	58274.66
534.01	58450.20
534.18	58780.21
534.35	59075.12
534.52	58607.01
534.69	58859.79
534.86	59475.35
535.03	59531.53
535.20	59997.29
535.37	60310.92
535.54	60350.71
535.71	59990.27
535.88	59662.60
536.05	59119.59
536.22	58754.47
536.38	58419.77
536.55	58021.88
536.72	57471.85
536.89	57361.85
537.06	58279.34
537.23	59056.40
537.40	59306.83
537.57	59178.10
537.74	58939.37
537.91	59119.59
538.08	58707.66
538.25	58904.26
538.42	59030.65
538.59	58864.47
538.75	58415.09
538.92	57867.40
539.09	57996.13
539.26	57858.04
539.43	57616.97
539.60	57701.23
539.77	57879.11
539.94	57638.03
540.11	57198.01
540.28	56521.60
540.44	56673.73
540.61	56743.95
540.78	56921.83
540.95	57357.17
541.12	57914.22
541.29	58354.24
541.46	58312.11
541.62	58639.78
541.79	58218.49
541.96	57883.79
542.13	57602.92
542.30	58059.33
542.47	58120.18
542.63	57986.77
542.80	57633.35
542.97	57780.81
543.14	57623.99
543.31	57776.12
543.48	58246.57
543.64	58908.94
543.81	59341.94
543.98	59049.38
544.15	58515.73
544.32	57726.97
544.48	57776.12
544.65	57956.35
544.82	58646.80
544.99	58277.00
545.16	58024.22
545.32	57600.58
545.49	58515.73
545.66	58747.45
545.83	58438.50
546.00	58291.04
546.16	57670.80
546.33	57876.77
546.50	57874.43
546.67	58539.14
546.83	57979.75
547.00	58024.22
547.17	57270.57
547.34	56587.13
547.50	56570.75
547.67	57207.37
547.84	57261.21
548.00	57462.49
548.17	57939.96
548.34	58035.92
548.51	57703.57
548.67	57759.74
548.84	57902.51
549.01	57876.77
549.18	57808.89
549.34	57661.44
549.51	57708.25
549.68	57570.16
549.84	57378.23
550.01	57291.63
550.18	57315.04
550.34	57296.31
550.51	57427.38
550.68	57556.11
550.84	57212.06
551.01	56938.21
551.18	56945.23
551.34	57146.52
551.51	57506.96
551.68	57684.84
551.84	57869.75
552.01	57694.21
552.18	57518.67
552.34	56800.12
552.51	56240.73
552.68	56200.94
552.84	56835.23
553.01	56999.07
553.18	57034.17
553.34	57024.81
553.51	57080.98
553.67	57509.30
553.84	57471.85
554.01	57368.87
554.17	57354.83
554.34	57324.40
554.51	57289.29
554.67	57523.35
554.84	57471.85
555.00	57006.09
555.17	57027.15
555.33	56975.66
555.50	56877.36
555.67	57134.82
555.83	56914.81
556.00	56575.43
556.16	56355.42
556.33	56023.06
556.50	55894.33
556.66	55765.60
556.83	55667.30
556.99	55444.95
557.16	55803.05
557.32	56205.62
557.49	56535.64
557.65	56385.85
557.82	56170.52
557.98	56163.50
558.15	55536.23
558.32	54995.57
558.48	53970.41
558.65	54038.29
558.81	54665.55
558.98	54981.52
559.14	55004.93
559.31	55332.60
559.47	55367.71
559.64	54733.43
559.80	54703.00
559.97	54431.50
560.13	54878.54
560.30	55789.01
560.46	56528.62
560.63	56673.73
560.79	56743.95
560.96	56240.73
561.12	55187.49
561.29	54157.66
561.45	54394.05
561.61	54639.81
561.78	55203.88
561.94	54866.84
562.11	54925.35
562.27	55016.63
562.44	55351.33
562.60	55688.37
562.77	55868.59
562.93	55580.70
563.10	55426.23
563.26	55089.19
563.42	55023.65
563.59	54728.75
563.75	54735.77
563.92	55002.59
564.08	54782.58
564.24	54908.97
564.41	55283.45
564.57	54899.61
564.74	55089.19
564.90	54925.35
565.07	54644.49
565.23	54019.56
565.39	53631.04
565.56	53687.21
565.72	52938.24
565.88	53640.40
566.05	53481.24
566.21	54117.87
566.38	53970.41
566.54	54049.99
566.70	54642.15
566.87	54574.27
567.03	54588.31
567.19	54803.64
567.36	54724.07
567.52	54330.86
567.68	54326.17
567.85	53570.18
568.01	53441.45
568.17	52779.08
568.34	52743.97
568.50	52729.93
568.66	52640.99
568.83	53167.61
568.99	53291.66
569.15	53492.94
569.32	53352.51
569.48	53401.66
569.64	52996.75
569.81	52444.38
569.97	52406.94
570.13	52708.86
570.30	52126.07
570.46	51615.83
570.62	51089.21
570.78	50838.78
570.95	51402.85
571.11	52231.40
571.27	52268.84
571.43	52416.30
571.60	52439.70
571.76	52830.57
571.92	53305.70
572.09	53373.58
572.25	53233.14
572.41	53336.13
572.57	53310.38
572.74	52963.98
572.90	52666.73
573.06	52640.99
573.22	52580.13
573.38	52828.23
573.55	52697.16
573.71	52666.73
573.87	52769.72
574.03	52617.58
574.20	52680.78
574.36	52123.73
574.52	52126.07
574.68	51847.55
574.84	51629.88
575.01	50480.67
575.17	50894.95
575.33	51290.50
575.49	51456.68
575.65	51648.60
575.82	50958.14
575.98	50810.69
576.14	51662.64
576.30	51454.34
576.46	51922.44
576.62	51894.36
576.79	51807.76
576.95	51103.26
577.11	51157.09
577.27	51341.99
577.43	51562.00
577.59	50951.12
577.75	50382.37
577.92	50075.76
578.08	49326.79
578.24	49507.01
578.40	50263.00
578.56	50651.53
578.72	50019.59
578.88	50632.81
579.04	50822.39
579.21	50916.01
579.37	51136.02
579.53	51065.81
579.69	51004.95
579.85	51126.66
580.01	50775.58
580.17	50485.36
580.33	50319.18
580.49	50515.78
580.65	50405.78
580.82	51100.92
580.98	50866.86
581.14	50642.17
581.30	50908.99
581.46	50543.87
581.62	51079.85
581.78	50876.22
581.94	51100.92
582.10	51096.24
582.26	50845.80
582.42	50859.84
582.58	51068.15
582.74	51082.19
582.90	51112.62
583.06	51196.88
583.22	50892.61
583.38	50684.30
583.54	50497.06
583.70	50660.90
583.86	50576.64
584.02	50497.06
584.18	50780.26
584.34	50209.17
584.50	50492.38
584.66	50279.39
584.82	49834.69
584.98	49813.62
585.14	49146.57
