SpectraSuite Data File
++++++++++++++++++++++++++++++++++++
Date: Mon Oct 07 14:54:58 GMT-05:00 2013
User: price-jones
Dark Spectrum Present: No
Reference Spectrum Present: No
Number of Sampled Component Spectra: 1
Spectrometers: USB2+H05261
Integration Time (usec): 10000 (USB2+H05261)
Spectra Averaged: 1 (USB2+H05261)
Boxcar Smoothing: 0 (USB2+H05261)
Correct for Electrical Dark: No (USB2+H05261)
Strobe/Lamp Enabled: No (USB2+H05261)
Correct for Detector Non-linearity: No (USB2+H05261)
Correct for Stray Light: No (USB2+H05261)
Number of Pixels in Processed Spectrum: 2048
>>>>>Begin Processed Spectral Data<<<<<
365.73	0.00
365.92	0.00
366.12	0.00
366.32	0.00
366.52	0.00
366.72	0.00
366.91	0.00
367.11	0.00
367.31	0.00
367.51	0.00
367.70	0.00
367.90	0.00
368.10	0.00
368.30	0.00
368.49	0.00
368.69	0.00
368.89	0.00
369.09	0.00
369.28	0.00
369.48	0.00
369.68	0.00
369.87	0.00
370.07	0.00
370.27	0.00
370.47	32.77
370.66	922.17
370.86	1149.20
371.06	1200.69
371.25	1135.16
371.45	950.26
371.65	957.28
371.84	887.06
372.04	985.37
372.24	1048.56
372.44	1128.14
372.63	1064.94
372.83	887.06
373.03	767.70
373.22	788.76
373.42	926.85
373.62	1048.56
373.81	1275.59
374.01	1004.09
374.21	985.37
374.40	873.02
374.60	987.71
374.79	1191.33
374.99	1376.24
375.19	1401.98
375.38	1378.58
375.58	1287.29
375.78	1303.68
375.97	1280.27
376.17	1451.13
376.37	1430.07
376.56	1418.36
376.76	1514.33
376.95	1626.67
377.15	1781.15
377.35	1804.55
377.54	1834.98
377.74	1952.01
377.93	1940.30
378.13	1790.51
378.33	1678.16
378.52	1579.86
378.72	1526.03
378.91	1483.90
379.11	1371.55
379.31	1352.83
379.50	1366.87
379.70	1678.16
379.89	1722.63
380.09	1703.91
380.28	1907.54
380.48	1844.34
380.68	1809.23
380.87	1741.36
381.07	1561.14
381.26	1481.56
381.46	1385.60
381.65	1315.38
381.85	1261.55
382.04	1142.18
382.24	1137.50
382.43	1057.92
382.63	1001.75
382.83	1132.82
383.02	1032.18
383.22	1076.65
383.41	1153.88
383.61	1078.99
383.80	1348.15
384.00	1549.43
384.19	1797.53
384.39	1853.70
384.58	1863.07
384.78	1682.85
384.97	1734.34
385.17	1589.22
385.36	1493.26
385.56	1558.80
385.75	1636.03
385.95	1664.12
386.14	1952.01
386.34	1856.04
386.53	1638.38
386.72	1626.67
386.92	1746.04
387.11	1750.72
387.31	1802.21
387.50	1872.43
387.70	1708.59
387.89	1706.25
388.09	1678.16
388.28	1802.21
388.48	1825.62
388.67	1905.20
388.86	2223.51
389.06	2321.81
389.25	2431.82
389.45	2476.29
389.64	2520.76
389.84	2394.37
390.03	2553.52
390.22	2406.07
390.42	2480.97
390.61	2775.88
390.81	2895.24
391.00	2792.26
391.19	2801.62
391.39	2715.02
391.58	2605.02
391.78	2359.26
391.97	2338.20
392.16	2071.37
392.36	1795.19
392.55	1404.32
392.75	1097.71
392.94	959.62
393.13	1039.20
393.33	1181.97
393.52	1500.28
393.71	1874.77
393.91	2118.18
394.10	2406.07
394.29	2675.23
394.49	2782.90
394.68	3096.53
394.88	2998.23
395.07	3052.06
395.26	3061.42
395.46	2925.67
395.65	2633.10
395.84	2190.74
396.04	1818.60
396.23	1432.41
396.42	1252.19
396.62	1423.05
396.81	1612.63
397.00	2024.56
397.19	2717.36
397.39	3218.24
397.58	3410.16
397.77	3604.42
397.97	3749.54
398.16	3803.37
398.35	4039.76
398.55	4025.72
398.74	4058.49
398.93	4332.33
399.12	4177.86
399.32	4114.66
399.51	4418.93
399.70	4479.79
399.90	4278.50
400.09	4313.61
400.28	4442.34
400.47	4472.76
400.67	4540.64
400.86	4662.35
401.05	4685.75
401.24	4814.48
401.44	4877.68
401.63	4842.57
401.82	4905.76
402.01	4940.87
402.21	4940.87
402.40	4807.46
402.59	4634.26
402.78	4465.74
402.97	4566.39
403.17	4821.50
403.36	5067.26
403.55	4936.19
403.74	4975.98
403.93	4844.91
404.13	4444.68
404.32	4631.92
404.51	4657.67
404.70	5004.07
404.89	4961.94
405.09	4933.85
405.28	4861.29
405.47	4798.10
405.66	4709.16
405.85	4573.41
406.05	4538.30
406.24	4688.09
406.43	4795.76
406.62	5011.09
406.81	4936.19
407.00	4755.97
407.20	4758.31
407.39	4641.28
407.58	4992.36
407.77	5144.50
407.96	5224.08
408.15	5210.03
408.34	5291.95
408.54	5598.56
408.73	5465.15
408.92	5425.36
409.11	5212.37
409.30	5034.49
409.49	4678.73
409.68	4409.57
409.87	4491.49
410.07	4891.72
410.26	5121.09
410.45	5149.18
410.64	5472.17
410.83	5682.82
411.02	5846.66
411.21	5959.00
411.40	5991.77
411.59	5961.34
411.78	6033.90
411.98	5755.38
412.17	5888.79
412.36	5621.97
412.55	5863.04
412.74	5640.69
412.93	5741.33
413.12	5834.96
413.31	6092.41
413.50	6012.84
413.69	6214.12
413.88	5933.26
414.07	5928.58
414.26	5977.73
414.45	6052.63
414.64	6108.80
414.83	6211.78
415.02	6094.76
415.22	6162.63
415.41	6246.89
415.60	6487.96
415.79	6623.72
415.98	6857.77
416.17	6888.20
416.36	6663.51
416.55	6504.35
416.74	6115.82
416.93	5994.11
417.12	6157.95
417.31	6083.05
417.50	6221.14
417.69	6452.86
417.88	6389.66
418.07	6476.26
418.26	6265.61
418.45	6532.44
418.64	6768.83
418.83	6988.84
419.02	6621.38
419.21	6686.91
419.39	6246.89
419.58	6078.37
419.77	6235.19
419.96	6356.90
420.15	6675.21
420.34	7000.54
420.53	7091.82
420.72	7307.15
420.91	6979.48
421.10	7023.95
421.29	7059.06
421.48	6890.54
421.67	7171.40
421.86	6567.54
422.05	6087.73
422.24	5708.57
422.43	5853.68
422.61	6502.01
422.80	6820.32
422.99	6878.83
423.18	6497.33
423.37	6431.79
423.56	6686.91
423.75	6722.02
423.94	6754.79
424.13	6333.49
424.32	6384.98
424.50	6312.42
424.69	6370.94
424.88	6401.37
425.07	6511.37
425.26	6286.68
425.45	6239.87
425.64	6265.61
425.83	6338.17
426.01	6623.72
426.20	6731.38
426.39	6630.74
426.58	5975.39
426.77	5720.27
426.96	5547.07
427.15	5834.96
427.33	6218.80
427.52	6410.73
427.71	6333.49
427.90	6207.10
428.09	6237.53
428.28	6078.37
428.46	5856.02
428.65	5940.28
428.84	5951.98
429.03	5994.11
429.22	5617.29
429.40	5252.16
429.59	5008.75
429.78	4280.84
429.97	4241.05
430.16	4390.84
430.34	4306.59
430.53	4493.83
430.72	4594.47
430.91	5102.37
431.10	6183.70
431.28	7021.61
431.47	7679.30
431.66	7485.03
431.85	6544.14
432.03	5991.77
432.22	5921.56
432.41	6527.75
432.60	7136.29
432.79	7400.77
432.97	7410.14
433.16	7054.37
433.35	6272.64
433.54	5856.02
433.72	5888.79
433.91	5963.68
434.10	6590.95
434.28	6836.70
434.47	7148.00
434.66	6801.60
434.85	6920.96
435.03	7192.47
435.22	7129.27
435.41	7599.72
435.59	7452.27
435.78	7700.36
435.97	7719.09
436.16	7716.75
436.34	7494.40
436.53	7662.91
436.72	7756.54
436.90	7192.47
437.09	7358.64
437.28	6927.99
437.46	7360.98
437.65	7307.15
437.84	6532.44
438.02	6384.98
438.21	6403.71
438.40	6679.89
438.58	7049.69
438.77	7255.66
438.96	7309.49
439.14	7777.60
439.33	7798.66
439.52	7735.47
439.70	7817.39
439.89	7269.70
440.08	7159.70
440.26	7410.14
440.45	7531.84
440.63	8095.91
440.82	8409.54
441.01	8056.12
441.19	8262.09
441.38	8425.93
441.57	8620.19
441.75	8592.11
441.94	8753.60
442.12	8791.05
442.31	8718.50
442.50	9048.51
442.68	8760.63
442.87	8540.61
443.05	8627.21
443.24	8720.84
443.43	8823.82
443.61	9041.49
443.80	9207.67
443.98	8755.94
444.17	8685.73
444.35	9214.69
444.54	9324.69
444.73	9095.32
444.91	8664.66
445.10	8278.47
445.28	8128.68
445.47	7913.35
445.65	7969.52
445.84	8203.58
446.02	8568.70
446.21	8734.88
446.39	8858.93
446.58	8758.28
446.77	8823.82
446.95	8903.40
447.14	9261.50
447.32	9336.40
447.51	9219.37
447.69	8755.94
447.88	8585.08
448.06	8711.47
448.25	8835.52
448.43	9034.47
448.62	8786.37
448.80	8800.41
448.99	8891.70
449.17	8650.62
449.36	8929.14
449.54	9025.11
449.73	9525.98
449.91	9542.36
450.10	9748.33
450.28	10040.90
450.46	9678.12
450.65	9816.21
450.83	9715.56
451.02	9514.28
451.20	9207.67
451.39	9521.30
451.57	9151.49
451.76	9287.25
451.94	9221.71
452.13	9008.72
452.31	8650.62
452.49	8329.97
452.68	8374.44
452.86	8166.13
453.05	8650.62
453.23	9146.81
453.42	9104.68
453.60	9296.61
453.78	9305.97
453.97	9160.86
454.15	8954.89
454.34	8767.65
454.52	8999.36
454.70	8519.55
454.89	8968.93
455.07	8835.52
455.26	9062.55
455.44	9341.08
455.62	9593.86
455.81	9458.10
455.99	9432.36
456.17	9366.82
456.36	9287.25
456.54	9696.84
456.73	9593.86
456.91	9685.14
457.09	9912.17
457.28	10015.15
457.46	9596.20
457.64	9336.40
457.83	9020.42
458.01	8968.93
458.19	9268.52
458.38	9303.63
458.56	9420.66
458.74	9493.21
458.93	9174.90
459.11	9282.56
459.29	9327.03
459.48	9430.02
459.66	9219.37
459.84	9149.15
460.03	9385.55
460.21	9287.25
460.39	9591.52
460.57	9745.99
460.76	9813.87
460.94	9586.83
461.12	9715.56
461.31	9617.26
461.49	10022.17
461.67	9659.39
461.85	10054.94
462.04	9937.91
462.22	9741.31
462.40	9853.66
462.59	9530.66
462.77	9877.06
462.95	9851.31
463.13	9856.00
463.32	9970.68
463.50	9483.85
463.68	9647.69
463.86	9561.09
464.05	9322.35
464.23	9305.97
464.41	9408.95
464.59	8954.89
464.78	9392.57
464.96	9528.32
465.14	9357.46
465.32	9647.69
465.50	9715.56
465.69	9853.66
465.87	9399.59
466.05	9046.17
466.23	8959.57
466.41	8821.48
466.60	9167.88
466.78	9392.57
466.96	9233.41
467.14	9380.87
467.32	9619.60
467.51	9441.72
467.69	8781.69
467.87	8887.01
468.05	9385.55
468.23	9312.99
468.41	9404.27
468.60	9111.71
468.78	9320.01
468.96	9287.25
469.14	9357.46
469.32	9488.53
469.50	8912.76
469.69	8784.03
469.87	8954.89
470.05	9013.40
470.23	8784.03
470.41	9137.45
470.59	9217.03
470.77	9200.65
470.95	9404.27
471.14	9579.81
471.32	9460.45
471.50	10106.43
471.68	9879.40
471.86	9966.00
472.04	9956.64
472.22	10235.16
472.40	9638.33
472.58	9617.26
472.77	9516.62
472.95	9561.09
473.13	9980.04
473.31	9610.24
473.49	9586.83
473.67	9640.67
473.85	9586.83
474.03	9790.46
474.21	10125.16
474.39	10216.44
474.57	10228.14
474.75	10228.14
474.93	10242.18
475.12	9884.08
475.30	9722.59
475.48	10286.65
475.66	10059.62
475.84	9902.81
476.02	9816.21
476.20	9556.41
476.38	9834.93
476.56	10052.60
476.74	10331.12
476.92	10696.25
477.10	10719.65
477.28	10693.91
477.46	10796.89
477.64	10998.18
477.82	11009.88
478.00	10995.84
478.18	10729.02
478.36	10635.39
478.54	10501.98
478.72	10824.98
478.90	10956.05
479.08	11222.87
479.26	11260.32
479.44	11117.54
479.62	11236.91
479.80	10979.45
479.98	11103.50
480.16	11337.56
480.34	11281.38
480.52	11400.75
480.70	11442.88
480.88	11452.24
481.06	12049.08
481.24	11784.60
481.41	12131.00
481.59	12388.46
481.77	11826.73
481.95	12056.10
482.13	12273.77
482.31	12037.38
482.49	12292.49
482.67	12023.33
482.85	12147.38
483.03	12224.62
483.21	12531.23
483.39	12004.61
483.57	12121.63
483.74	12152.06
483.92	11964.82
484.10	12170.79
484.28	12217.60
484.46	12219.94
484.64	12418.88
484.82	12404.84
485.00	12402.50
485.18	11754.17
485.35	11527.14
485.53	10195.37
485.71	9408.95
485.89	9514.28
486.07	10356.87
486.25	11122.23
486.43	11524.80
486.61	11580.97
486.78	11463.94
486.96	11946.09
487.14	12341.64
487.32	12870.61
487.50	12894.01
487.68	13245.09
487.85	13245.09
488.03	13205.30
488.21	13039.12
488.39	12767.62
488.57	12856.56
488.75	12652.94
488.92	13280.20
489.10	14195.35
489.28	14506.64
489.46	14539.41
489.64	14714.95
489.81	14597.92
489.99	14539.41
490.17	14317.06
490.35	15166.67
490.53	14506.64
490.70	14539.41
490.88	14728.99
491.06	14925.60
491.24	14562.81
491.41	13792.78
491.59	13408.93
491.77	13142.11
491.95	13743.63
492.13	14052.58
492.30	14698.56
492.48	15232.21
492.66	15449.88
492.84	15337.53
493.01	15122.20
493.19	14771.12
493.37	14455.15
493.54	14235.14
493.72	15059.01
493.90	15356.25
494.08	15534.14
494.25	15932.03
494.43	16432.90
494.61	16343.96
494.79	16102.89
494.96	16013.95
495.14	15419.45
495.32	15089.43
495.49	14951.34
495.67	15826.70
495.85	16011.60
496.02	16489.07
496.20	16135.65
496.38	15934.37
496.55	15655.84
496.73	16035.01
496.91	16257.36
497.09	16641.21
497.26	16428.22
497.44	16381.41
497.62	16013.95
497.79	15616.05
497.97	14740.69
498.14	15241.57
498.32	15775.21
498.50	16065.44
498.67	16650.57
498.85	16486.73
499.03	15754.15
499.20	16460.99
499.38	16294.81
499.56	16100.55
499.73	15831.38
499.91	15690.95
500.08	15517.75
500.26	15129.22
500.44	15379.66
500.61	16112.25
500.79	15768.19
500.97	15459.24
501.14	15194.76
501.32	15396.04
501.49	15344.55
501.67	15367.96
501.84	15782.23
502.02	16130.97
502.20	15955.43
502.37	16208.21
502.55	16105.23
502.72	16245.66
502.90	16910.37
503.07	16219.91
503.25	15957.77
503.43	15370.30
503.60	14888.15
503.78	14707.93
503.95	15105.82
504.13	15618.39
504.30	16531.20
504.48	16123.95
504.65	16212.89
504.83	15978.84
505.01	15946.07
505.18	16688.02
505.36	17114.00
505.53	17034.42
505.71	17085.91
505.88	17050.80
506.06	16648.23
506.23	16402.47
506.41	16587.38
506.58	16329.92
506.76	16175.44
506.93	16549.93
507.11	16084.16
507.28	16472.69
507.46	15826.70
507.63	15616.05
507.81	15295.40
507.98	15438.17
508.16	15871.17
508.33	16072.46
508.50	16470.35
508.68	16547.59
508.85	17123.36
509.03	16872.92
509.20	16528.86
509.38	16037.35
509.55	15625.42
509.73	16006.92
509.90	16582.70
510.08	16308.85
510.25	16203.53
510.42	15772.87
510.60	16432.90
510.77	16503.12
510.95	16652.91
511.12	16893.99
511.30	17029.74
511.47	17357.41
511.64	16964.20
511.82	16891.65
511.99	16217.57
512.17	16032.67
512.34	15819.68
512.51	15632.44
512.69	15836.06
512.86	16056.08
513.04	16156.72
513.21	16044.37
513.38	16070.12
513.56	15580.95
513.73	15295.40
513.90	15073.05
514.08	15316.47
514.25	15506.05
514.43	16081.82
514.60	16067.78
514.77	15880.53
514.95	16091.18
515.12	16023.31
515.29	16058.42
515.47	15953.09
515.64	16287.79
515.81	16411.84
515.99	16250.34
516.16	14876.44
516.33	13734.26
516.51	12922.10
516.68	12341.64
516.85	12393.14
517.03	12545.27
517.20	13930.87
517.37	15197.10
517.54	15468.60
517.72	15026.24
517.89	13640.64
518.06	12753.58
518.24	13256.79
518.41	14195.35
518.58	14787.50
518.75	14623.67
518.93	15080.07
519.10	15178.37
519.27	15089.43
519.45	15150.29
519.62	15573.92
519.79	15620.74
519.96	15946.07
520.14	15721.38
520.31	14871.76
520.48	14890.49
520.65	15522.43
520.83	15655.84
521.00	15833.72
521.17	15470.94
521.34	15410.09
521.52	15730.74
521.69	15775.21
521.86	15868.83
522.03	15522.43
522.20	14841.34
522.38	14127.47
522.55	14525.36
522.72	15077.73
522.89	14902.19
523.07	15293.06
523.24	15393.70
523.41	15800.96
523.58	15838.41
523.75	15789.25
523.92	15974.16
524.10	16042.03
524.27	16243.32
524.44	16177.78
524.61	16002.24
524.78	15632.44
524.96	15552.86
525.13	15721.38
525.30	16105.23
525.47	16269.06
525.64	16105.23
525.81	15442.85
525.98	14663.46
526.16	13741.29
526.33	13703.84
526.50	13345.73
526.67	13397.23
526.84	13687.45
527.01	14141.52
527.18	14614.30
527.36	15171.35
527.53	15950.75
527.70	15557.54
527.87	14970.07
528.04	14890.49
528.21	15358.60
528.38	15730.74
528.55	16196.51
528.72	15850.11
528.89	16264.38
529.07	15836.06
529.24	15431.15
529.41	15534.14
529.58	15028.58
529.75	14892.83
529.92	15147.95
530.09	15288.38
530.26	15311.78
530.43	15131.56
530.60	15672.23
530.77	16037.35
530.94	15726.06
531.11	15517.75
531.28	15279.02
531.46	15288.38
531.63	15250.93
531.80	15302.42
531.97	15089.43
532.14	14129.81
532.31	13858.31
532.48	13584.47
532.65	13802.14
532.82	14129.81
532.99	14647.07
533.16	15030.92
533.33	15484.98
533.50	15204.12
533.67	14876.44
533.84	14523.02
534.01	14595.58
534.18	14984.11
534.35	14771.12
534.52	14689.20
534.69	14855.38
534.86	15094.11
535.03	15592.65
535.20	15314.13
535.37	15229.87
535.54	15447.54
535.71	15302.42
535.88	15122.20
536.05	14843.68
536.22	14581.54
536.38	14492.60
536.55	14277.27
536.72	14160.24
536.89	14319.40
537.06	14153.22
537.23	14525.36
537.40	14789.85
537.57	14740.69
537.74	14342.80
537.91	14508.98
538.08	14595.58
538.25	14860.06
538.42	14836.66
538.59	14581.54
538.75	14342.80
538.92	14342.80
539.09	13633.62
539.26	13465.10
539.43	13610.22
539.60	13497.87
539.77	13425.31
539.94	13331.69
540.11	13179.56
540.28	12865.92
540.44	13310.63
540.61	13261.48
540.78	13277.86
540.95	14223.44
541.12	13523.62
541.29	13722.56
541.46	13912.14
541.62	13895.76
541.79	14033.85
541.96	13544.68
542.13	13881.72
542.30	14106.41
542.47	14185.99
542.63	13926.19
542.80	13467.44
542.97	13493.19
543.14	13511.91
543.31	13598.51
543.48	13818.52
543.64	14200.03
543.81	14281.95
543.98	13956.61
544.15	13884.06
544.32	13429.99
544.48	14005.77
544.65	13830.23
544.82	13870.01
544.99	13554.04
545.16	13687.45
545.32	13973.00
545.49	14260.88
545.66	14256.20
545.83	14132.15
546.00	14197.69
546.16	13635.96
546.33	13650.00
546.50	13912.14
546.67	14087.68
546.83	13823.20
547.00	13549.36
547.17	13277.86
547.34	13228.71
547.50	13359.78
547.67	13476.80
547.84	13357.44
548.00	13378.50
548.17	13378.50
548.34	13575.11
548.51	13554.04
548.67	13935.55
548.84	14195.35
549.01	13802.14
549.18	13514.25
549.34	13813.84
549.51	13572.77
549.68	13621.92
549.84	13256.79
550.01	13476.80
550.18	13338.71
550.34	13165.51
550.51	13163.17
550.68	13022.74
550.84	12713.79
551.01	12634.21
551.18	12678.68
551.34	12870.61
551.51	13488.51
551.68	13476.80
551.84	13125.72
552.01	13266.16
552.18	12894.01
552.34	12828.48
552.51	12624.85
552.68	12854.22
552.84	12786.35
553.01	12994.65
553.18	13111.68
553.34	13228.71
553.51	12746.56
553.67	12886.99
553.84	13280.20
554.01	13263.82
554.17	12975.93
554.34	13217.01
554.51	13226.37
554.67	13212.32
554.84	12994.65
555.00	13102.32
555.17	13207.64
555.33	12973.59
555.50	13341.05
555.67	13081.25
555.83	12870.61
556.00	12739.54
556.16	12746.56
556.33	12416.54
556.50	12514.84
556.66	12299.52
556.83	12065.46
556.99	12177.81
557.16	12128.66
557.32	12271.43
557.49	12301.86
557.65	12266.75
557.82	12131.00
557.98	12432.93
558.15	12727.83
558.32	11953.12
558.48	11850.13
558.65	11698.00
558.81	11831.41
558.98	11772.89
559.14	11922.69
559.31	12058.44
559.47	11899.28
559.64	11955.46
559.80	11978.86
559.97	11985.88
560.13	12128.66
560.30	12217.60
560.46	12648.26
560.63	12388.46
560.79	12669.32
560.96	12257.39
561.12	12025.67
561.29	11538.84
561.45	11506.07
561.61	11527.14
561.78	11634.80
561.94	11777.58
562.11	11625.44
562.27	11822.05
562.44	11981.20
562.60	12116.95
562.77	12430.59
562.93	11955.46
563.10	11882.90
563.26	11822.05
563.42	11625.44
563.59	11405.43
563.75	11665.23
563.92	12044.40
564.08	11747.15
564.24	11796.30
564.41	11398.41
564.57	11648.85
564.74	11693.32
564.90	11452.24
565.07	11344.58
565.23	10853.06
565.39	11073.07
565.56	11026.26
565.72	11248.61
565.88	11323.51
566.05	11112.86
566.21	11328.19
566.38	11033.29
566.54	11173.72
566.70	11154.99
566.87	11377.34
567.03	11477.99
567.19	11758.85
567.36	11482.67
567.52	11377.34
567.68	11307.13
567.85	10977.11
568.01	10869.45
568.17	10600.29
568.34	10651.78
568.50	10757.10
568.66	10658.80
568.83	10937.32
568.99	10700.93
569.15	10995.84
569.32	11073.07
569.48	11171.38
569.64	10925.62
569.81	10721.99
569.97	10736.04
570.13	10696.25
570.30	10441.13
570.46	10207.08
570.62	10214.10
570.78	9802.16
570.95	9809.19
571.11	10242.18
571.27	10476.24
571.43	10415.38
571.60	10511.35
571.76	10562.84
571.92	10523.05
572.09	10710.29
572.25	10560.50
572.41	10675.18
572.57	10640.08
572.74	10801.57
572.90	10541.77
573.06	10707.95
573.22	10548.79
573.38	10682.20
573.55	10621.35
573.71	10586.24
573.87	10759.44
574.03	10733.70
574.20	10506.66
574.36	10569.86
574.52	10305.38
574.68	10111.11
574.84	10076.01
575.01	9994.09
575.17	9998.77
575.33	10073.67
575.49	9923.87
575.65	10059.62
575.82	9830.25
575.98	9961.32
576.14	10031.54
576.30	10174.31
576.46	9968.34
576.62	10101.75
576.79	9973.02
576.95	9930.89
577.11	9956.64
577.27	9886.42
577.43	9935.57
577.59	9753.01
577.75	9830.25
577.92	9762.37
578.08	9551.73
578.24	9575.13
578.40	9577.47
578.56	9558.75
578.72	9357.46
578.88	9610.24
579.04	9753.01
579.21	9806.84
579.37	9666.41
579.53	9837.27
579.69	9643.01
579.85	9514.28
580.01	9320.01
580.17	9427.68
580.33	9647.69
580.49	9715.56
580.65	9731.95
580.82	9430.02
580.98	9694.50
581.14	9671.09
581.30	9951.96
581.46	9860.68
581.62	9956.64
581.78	9949.62
581.94	10228.14
582.10	9727.27
582.26	9692.16
582.42	9565.77
582.58	9881.74
582.74	9771.74
582.90	9476.83
583.06	9914.51
583.22	10017.49
583.38	10047.92
583.54	9757.69
583.70	9919.19
583.86	9762.37
584.02	9795.14
584.18	9940.26
584.34	9888.76
584.50	9989.41
584.66	9577.47
584.82	9724.93
584.98	9362.14
585.14	9238.09
585.30	9177.24
585.46	8982.98
585.62	8926.80
585.78	9200.65
585.94	8826.16
586.10	9261.50
586.26	9355.12
586.42	9144.47
586.58	9359.80
586.74	8868.29
586.90	9165.54
587.06	9170.22
587.22	8957.23
587.38	9090.64
587.54	9095.32
587.70	9041.49
587.86	8730.20
588.02	8645.94
588.18	8697.43
588.34	8379.12
588.49	8147.40
588.65	7543.55
588.81	7489.71
588.97	7625.47
589.13	7438.22
589.29	7688.66
589.45	7859.52
589.61	8182.51
589.77	8159.11
589.93	8627.21
590.08	8737.22
590.24	8828.50
590.40	8585.08
