SpectraSuite Data File
++++++++++++++++++++++++++++++++++++
Date: Mon Oct 07 14:53:17 GMT-05:00 2013
User: price-jones
Dark Spectrum Present: No
Reference Spectrum Present: No
Number of Sampled Component Spectra: 1
Spectrometers: USB2+H05261
Integration Time (usec): 100000 (USB2+H05261)
Spectra Averaged: 1 (USB2+H05261)
Boxcar Smoothing: 0 (USB2+H05261)
Correct for Electrical Dark: No (USB2+H05261)
Strobe/Lamp Enabled: No (USB2+H05261)
Correct for Detector Non-linearity: No (USB2+H05261)
Correct for Stray Light: No (USB2+H05261)
Number of Pixels in Processed Spectrum: 2048
>>>>>Begin Processed Spectral Data<<<<<
365.73	0.00
365.92	0.00
366.12	0.00
366.32	0.00
366.52	0.00
366.72	0.00
366.91	0.00
367.11	0.00
367.31	0.00
367.51	0.00
367.70	0.00
367.90	0.00
368.10	0.00
368.30	0.00
368.49	0.00
368.69	0.00
368.89	0.00
369.09	0.00
369.28	0.00
369.48	0.00
369.68	0.00
369.87	0.00
370.07	0.00
370.27	0.00
370.47	1088.35
370.66	5198.33
370.86	5926.24
371.06	6546.48
371.25	6494.99
371.45	5856.02
371.65	5392.59
371.84	4940.87
372.04	5394.93
372.24	5767.08
372.44	6132.20
372.63	5933.26
372.83	5631.33
373.03	4924.49
373.22	4545.32
373.42	4858.95
373.62	5521.32
373.81	5877.09
374.01	5710.91
374.21	5151.52
374.40	4870.65
374.60	5116.41
374.79	5935.60
374.99	6635.42
375.19	7243.96
375.38	7101.19
375.58	6715.00
375.78	6736.06
375.97	6724.36
376.17	6927.99
376.37	6874.15
376.56	7253.32
376.76	7543.55
376.95	7880.58
377.15	8688.07
377.35	8802.75
377.54	9032.13
377.74	9343.42
377.93	9378.53
378.13	9046.17
378.33	8706.79
378.52	8121.66
378.72	7981.23
378.91	7585.68
379.11	7272.04
379.31	7084.80
379.50	7201.83
379.70	7765.90
379.89	8643.60
380.09	9015.74
380.28	9277.88
380.48	9078.94
380.68	9067.24
380.87	8587.43
381.07	8105.28
381.26	7616.10
381.46	7087.14
381.65	6932.67
381.85	6738.40
382.04	6052.63
382.24	6054.97
382.43	5713.25
382.63	5554.09
382.83	5488.56
383.02	5568.13
383.22	5565.79
383.41	5540.05
383.61	5916.87
383.80	6832.02
384.00	7597.38
384.19	8872.97
384.39	9210.01
384.58	9034.47
384.78	8912.76
384.97	8468.06
385.17	8198.90
385.36	7941.44
385.56	7578.65
385.75	7754.19
385.95	8681.05
386.14	9139.79
386.34	9200.65
386.53	8814.46
386.72	8226.98
386.92	8430.61
387.11	8758.28
387.31	9142.13
387.50	8957.23
387.70	8830.84
387.89	8585.08
388.09	8741.90
388.28	8894.04
388.48	8908.08
388.67	9490.87
388.86	10363.89
389.06	11248.61
389.25	11782.26
389.45	11655.87
389.64	11922.69
389.84	11613.74
390.03	11386.71
390.22	11679.27
390.42	12009.29
390.61	12781.67
390.81	13497.87
391.00	13818.52
391.19	13476.80
391.39	12973.59
391.58	12182.49
391.78	11480.33
391.97	11030.94
392.16	10476.24
392.36	9366.82
392.55	7459.29
392.75	6218.80
392.94	5135.14
393.13	5050.88
393.33	6010.50
393.52	7700.36
393.71	9298.95
393.91	10443.47
394.10	11197.12
394.29	12681.02
394.49	13259.13
394.68	14476.21
394.88	14260.88
395.07	14726.65
395.26	14839.00
395.46	14197.69
395.65	12929.12
395.84	11534.16
396.04	9799.82
396.23	7894.63
396.42	6686.91
396.62	6586.27
396.81	7658.23
397.00	9736.63
397.19	12166.10
397.39	14731.33
397.58	16222.25
397.77	17406.56
397.97	17451.03
398.16	17818.50
398.35	18588.53
398.55	19269.63
398.74	19868.81
398.93	20219.89
399.12	20013.92
399.32	19346.87
399.51	19742.42
399.70	21022.69
399.90	20680.97
400.09	20500.75
400.28	20505.43
400.47	20861.19
400.67	21666.34
400.86	22380.20
401.05	22300.62
401.24	22539.36
401.44	22476.16
401.63	23145.56
401.82	23126.83
402.01	22946.61
402.21	23115.13
402.40	23330.46
402.59	22202.32
402.78	21514.20
402.97	20982.90
403.17	21647.61
403.36	22668.09
403.55	23791.55
403.74	24081.77
403.93	23037.89
404.13	21535.27
404.32	20919.71
404.51	21975.29
404.70	23452.17
404.89	23351.52
405.09	23166.62
405.28	22445.74
405.47	22405.95
405.66	22750.01
405.85	21792.73
406.05	21397.18
406.24	21703.79
406.43	22668.09
406.62	23304.71
406.81	23501.32
407.00	22499.57
407.20	21783.37
407.39	22207.00
407.58	23192.37
407.77	24196.46
407.96	24814.36
408.15	25118.63
408.34	25537.59
408.54	26314.64
408.73	26038.46
408.92	26368.48
409.11	25413.54
409.30	24095.82
409.49	22768.73
409.68	21226.32
409.87	20620.12
410.07	21862.94
410.26	24013.90
410.45	25570.35
410.64	25785.68
410.83	26618.91
411.02	27576.19
411.21	27922.59
411.40	27665.13
411.59	28404.74
411.78	27679.18
411.98	27246.18
412.17	28318.14
412.36	27578.53
412.55	27737.69
412.74	26881.05
412.93	26375.50
413.12	26827.22
413.31	28959.45
413.50	29277.76
413.69	29900.34
413.88	28807.31
414.07	27852.38
414.26	28533.47
414.45	29202.86
414.64	29422.87
414.83	29411.17
415.02	28980.51
415.22	29134.99
415.41	29453.30
415.60	30527.61
415.79	31840.65
415.98	32079.38
416.17	32381.31
416.36	31405.31
416.55	31033.16
416.74	30188.23
416.93	29104.56
417.12	29088.18
417.31	29703.74
417.50	29916.73
417.69	30976.99
417.88	30941.88
418.07	30569.74
418.26	29673.31
418.45	30459.73
418.64	31274.24
418.83	32608.34
419.02	32332.16
419.21	31690.85
419.39	29970.56
419.58	29017.96
419.77	28980.51
419.96	30782.73
420.15	32020.87
420.34	32802.61
420.53	33736.48
420.72	34550.99
420.91	34401.19
421.10	33638.18
421.29	33553.92
421.48	33020.28
421.67	34040.75
421.86	32858.78
422.05	30621.23
422.24	27665.13
422.43	27496.61
422.61	30380.15
422.80	33144.33
422.99	32868.14
423.18	31386.58
423.37	31016.78
423.56	31271.90
423.75	31594.89
423.94	32535.79
424.13	30710.17
424.32	30827.20
424.50	31028.48
424.69	30410.58
424.88	31519.99
425.07	30686.76
425.26	30822.51
425.45	29827.79
425.64	29736.51
425.83	29762.25
426.01	31768.09
426.20	32259.60
426.39	31892.14
426.58	29586.71
426.77	27398.31
426.96	26705.51
427.15	27716.62
427.33	29874.60
427.52	30911.46
427.71	30930.18
427.90	30623.57
428.09	30405.90
428.28	29727.14
428.46	29160.73
428.65	28390.70
428.84	29392.45
429.03	29993.97
429.22	27702.58
429.40	26466.78
429.59	24278.38
429.78	20978.22
429.97	21558.67
430.16	21724.85
430.34	22045.51
430.53	21563.36
430.72	22354.46
430.91	24957.13
431.10	29118.60
431.28	34396.51
431.47	36224.47
431.66	36680.88
431.85	33593.71
432.03	30845.92
432.22	29991.62
432.41	31040.18
432.60	34075.86
432.79	35779.77
432.97	36348.52
433.16	35388.90
433.35	32414.08
433.54	29401.81
433.72	27660.45
433.91	28720.71
434.10	31885.12
434.28	34178.84
434.47	35952.97
434.66	34632.91
434.85	34429.28
435.03	33820.74
435.22	35232.08
435.41	36973.44
435.59	36875.14
435.78	37095.15
435.97	38429.26
436.16	38473.73
436.34	38146.05
436.53	37013.23
436.72	37397.08
436.90	35360.81
437.09	35161.87
437.28	34859.94
437.46	35929.56
437.65	35653.38
437.84	32940.70
438.02	31206.36
438.21	31047.21
438.40	32393.01
438.58	35253.15
438.77	36051.27
438.96	36510.02
439.14	37724.75
439.33	38768.63
439.52	38990.98
439.70	38560.33
439.89	37280.05
440.08	36285.33
440.26	36280.64
440.45	37975.19
440.63	40107.42
440.82	42054.75
441.01	41523.44
441.19	40931.29
441.38	41652.17
441.57	43229.69
441.75	43452.05
441.94	43753.97
442.12	43426.30
442.31	44336.77
442.50	43917.81
442.68	43686.10
442.87	43356.08
443.05	42515.83
443.24	42960.53
443.43	44404.64
443.61	44875.09
443.80	45244.90
443.98	42958.19
444.17	43232.04
444.35	45031.91
444.54	45986.85
444.73	45434.48
444.91	43629.93
445.10	41797.29
445.28	40664.47
445.47	40102.74
445.65	40184.66
445.84	41408.76
446.02	42347.31
446.21	43042.45
446.39	42923.08
446.58	43590.14
446.77	44758.06
446.95	44917.22
447.14	45677.90
447.32	46433.89
447.51	45343.20
447.69	43840.57
447.88	43650.99
448.06	44065.27
448.25	45184.04
448.43	45191.06
448.62	44720.62
448.80	44236.12
448.99	44720.62
449.17	44889.13
449.36	45022.54
449.54	46230.26
449.73	46979.23
449.91	47629.90
450.10	48474.84
450.28	48814.21
450.46	48549.73
450.65	48858.68
450.83	48636.33
451.02	47667.35
451.20	47615.86
451.39	47590.11
451.57	46829.44
451.76	47239.03
451.94	46733.48
452.13	46305.16
452.31	44472.52
452.49	42625.84
452.68	43129.05
452.86	43035.43
453.05	44041.86
453.23	45031.91
453.42	45787.90
453.60	47033.07
453.78	46859.87
453.97	46333.24
454.15	46932.42
454.34	45785.56
454.52	46050.04
454.70	44980.42
454.89	45916.63
455.07	45677.90
455.26	46813.05
455.44	47999.71
455.62	48088.65
455.81	48388.24
455.99	48203.33
456.17	47934.17
456.36	47899.06
456.54	49186.36
456.73	48973.37
456.91	49420.41
457.09	49712.98
457.28	50382.37
457.46	49052.95
457.64	49017.84
457.83	47695.44
458.01	46894.97
458.19	48083.97
458.38	48371.85
458.56	49195.72
458.74	49050.61
458.93	48193.97
459.11	48322.70
459.29	48175.25
459.48	48442.07
459.66	48011.41
459.84	48655.06
460.03	48484.20
460.21	48898.47
460.39	49565.52
460.57	49801.92
460.76	49799.58
460.94	50457.27
461.12	49722.34
461.31	50092.15
461.49	50145.98
461.67	49654.47
461.85	50876.22
462.04	50571.96
462.22	50869.20
462.40	50789.62
462.59	50408.12
462.77	50958.14
462.95	50892.61
463.13	50206.83
463.32	50328.54
463.50	50110.87
463.68	49771.49
463.86	49818.30
464.05	49375.94
464.23	48540.37
464.41	48095.67
464.59	48250.14
464.78	50190.45
464.96	49366.58
465.14	49064.65
465.32	50394.07
465.50	51075.17
465.69	51264.75
465.87	50452.59
466.05	49174.66
466.23	47885.02
466.41	46953.49
466.60	48119.07
466.78	47866.30
466.96	48910.17
467.14	49474.24
467.32	49701.28
467.51	49708.30
467.69	48289.93
467.87	48729.95
468.05	49558.50
468.23	49556.16
468.41	49488.29
468.60	49874.48
468.78	50433.86
468.96	49511.69
469.14	50368.33
469.32	50553.23
469.50	48638.67
469.69	48914.86
469.87	48659.74
470.05	48165.88
470.23	48460.79
470.41	48619.95
470.59	48851.66
470.77	49270.62
470.95	50120.23
471.14	50244.28
471.32	50124.91
471.50	52339.06
471.68	52437.36
471.86	52423.32
472.04	52797.80
472.22	52772.06
472.40	51105.60
472.58	50904.31
472.77	50298.11
472.95	51332.63
473.13	52196.29
473.31	51129.00
473.49	51423.91
473.67	51976.28
473.85	52161.18
474.03	53041.22
474.21	53413.37
474.39	53450.81
474.57	53462.52
474.75	53523.37
474.93	53326.77
475.12	52835.25
475.30	52535.66
475.48	52715.89
475.66	53202.72
475.84	52905.47
476.02	52725.25
476.20	52046.49
476.38	53029.52
476.56	53935.30
476.74	54101.48
476.92	54370.64
477.10	54522.78
477.28	55470.70
477.46	55468.36
477.64	55906.04
477.82	55746.88
478.00	55803.05
478.18	55440.27
478.36	55508.14
478.54	55313.88
478.72	55545.59
478.90	56491.17
479.08	57144.18
479.26	57436.75
479.44	57031.83
479.62	57057.58
479.80	57137.16
479.98	57272.91
480.16	57354.83
480.34	57305.68
480.52	57130.14
480.70	57579.52
480.88	57467.17
481.06	57932.94
481.24	58501.69
481.41	58812.98
481.59	59405.14
481.77	59140.66
481.95	58562.54
482.13	58377.64
482.31	58555.52
482.49	59112.57
482.67	58890.22
482.85	59245.98
483.03	59571.32
483.21	59653.23
483.39	59810.05
483.57	59189.81
483.74	59119.59
483.92	59517.48
484.10	59381.73
484.28	60123.68
484.46	60212.62
484.64	60566.04
484.82	59835.80
485.00	59571.32
485.18	58981.50
485.35	58024.22
485.53	56065.19
485.71	53467.20
485.89	53389.96
486.07	55042.38
486.25	57237.80
486.43	58499.35
486.61	59023.63
486.78	58922.99
486.96	59011.93
487.14	60121.34
487.32	60767.33
487.50	61237.78
487.68	61825.25
487.85	62267.61
488.03	62059.30
488.21	61827.59
488.39	61413.32
488.57	60935.85
488.75	60795.42
488.92	61509.28
489.10	63274.04
489.28	64025.35
489.46	64542.61
489.64	64292.18
489.81	64516.87
489.99	64395.16
490.17	64203.24
490.35	64516.87
490.53	64020.67
490.70	63688.32
490.88	63788.96
491.06	64741.56
491.24	64647.94
491.41	63786.62
491.59	62508.69
491.77	62103.77
491.95	62880.83
492.13	63828.75
492.30	64542.61
492.48	65340.74
492.66	65535.00
492.84	65535.00
493.01	65396.91
493.19	65085.62
493.37	64867.95
493.54	64746.24
493.72	65226.05
493.90	65535.00
494.08	65535.00
494.25	65535.00
494.43	65535.00
494.61	65535.00
494.79	65535.00
494.96	65535.00
495.14	65535.00
495.32	65535.00
495.49	65535.00
495.67	65535.00
495.85	65535.00
496.02	65535.00
496.20	65535.00
496.38	65535.00
496.55	65535.00
496.73	65535.00
496.91	65535.00
497.09	65535.00
497.26	65535.00
497.44	65535.00
497.62	65535.00
497.79	65535.00
497.97	65535.00
498.14	65535.00
498.32	65535.00
498.50	65535.00
498.67	65535.00
498.85	65535.00
499.03	65535.00
499.20	65535.00
499.38	65535.00
499.56	65535.00
499.73	65535.00
499.91	65535.00
500.08	65535.00
500.26	65535.00
500.44	65535.00
500.61	65535.00
500.79	65535.00
500.97	65535.00
501.14	65535.00
501.32	65535.00
501.49	65535.00
501.67	65535.00
501.84	65535.00
502.02	65535.00
502.20	65535.00
502.37	65535.00
502.55	65535.00
502.72	65535.00
502.90	65535.00
503.07	65535.00
503.25	65535.00
503.43	65535.00
503.60	65535.00
503.78	65535.00
503.95	65535.00
504.13	65535.00
504.30	65535.00
504.48	65535.00
504.65	65535.00
504.83	65535.00
505.01	65535.00
505.18	65535.00
505.36	65535.00
505.53	65535.00
505.71	65535.00
505.88	65535.00
506.06	65535.00
506.23	65535.00
506.41	65535.00
506.58	65535.00
506.76	65535.00
506.93	65535.00
507.11	65535.00
507.28	65535.00
507.46	65535.00
507.63	65535.00
507.81	65535.00
507.98	65535.00
508.16	65535.00
508.33	65535.00
508.50	65535.00
508.68	65535.00
508.85	65535.00
509.03	65535.00
509.20	65535.00
509.38	65535.00
509.55	65535.00
509.73	65535.00
509.90	65535.00
510.08	65535.00
510.25	65535.00
510.42	65535.00
510.60	65535.00
510.77	65535.00
510.95	65535.00
511.12	65535.00
511.30	65535.00
511.47	65535.00
511.64	65535.00
511.82	65535.00
511.99	65535.00
512.17	65535.00
512.34	65535.00
512.51	65535.00
512.69	65535.00
512.86	65535.00
513.04	65535.00
513.21	65535.00
513.38	65535.00
513.56	65535.00
513.73	65535.00
513.90	65535.00
514.08	65535.00
514.25	65535.00
514.43	65535.00
514.60	65535.00
514.77	65535.00
514.95	65535.00
515.12	65535.00
515.29	65535.00
515.47	65535.00
515.64	65535.00
515.81	65535.00
515.99	65535.00
516.16	65535.00
516.33	65535.00
516.51	65535.00
516.68	64236.00
516.85	63721.08
517.03	64008.97
517.20	65535.00
517.37	65535.00
517.54	65535.00
517.72	65535.00
517.89	65535.00
518.06	65535.00
518.24	65392.23
518.41	65535.00
518.58	65535.00
518.75	65535.00
518.93	65535.00
519.10	65535.00
519.27	65535.00
519.45	65535.00
519.62	65535.00
519.79	65535.00
519.96	65535.00
520.14	65535.00
520.31	65535.00
520.48	65535.00
520.65	65535.00
520.83	65535.00
521.00	65535.00
521.17	65535.00
521.34	65535.00
521.52	65535.00
521.69	65535.00
521.86	65535.00
522.03	65535.00
522.20	65535.00
522.38	65535.00
522.55	65535.00
522.72	65535.00
522.89	65535.00
523.07	65535.00
523.24	65535.00
523.41	65535.00
523.58	65535.00
523.75	65535.00
523.92	65535.00
524.10	65535.00
524.27	65535.00
524.44	65535.00
524.61	65535.00
524.78	65535.00
524.96	65535.00
525.13	65535.00
525.30	65535.00
525.47	65535.00
525.64	65535.00
525.81	65535.00
525.98	65535.00
526.16	65535.00
526.33	65535.00
526.50	65535.00
526.67	65535.00
526.84	65535.00
527.01	65535.00
527.18	65535.00
527.36	65535.00
527.53	65535.00
527.70	65535.00
527.87	65535.00
528.04	65535.00
528.21	65535.00
528.38	65535.00
528.55	65535.00
528.72	65535.00
528.89	65535.00
529.07	65535.00
529.24	65535.00
529.41	65535.00
529.58	65535.00
529.75	65535.00
529.92	65535.00
530.09	65535.00
530.26	65535.00
530.43	65535.00
530.60	65535.00
530.77	65535.00
530.94	65535.00
531.11	65535.00
531.28	65535.00
531.46	65535.00
531.63	65535.00
531.80	65535.00
531.97	65535.00
532.14	65535.00
532.31	65535.00
532.48	65535.00
532.65	65535.00
532.82	65535.00
532.99	65535.00
533.16	65535.00
533.33	65535.00
533.50	65535.00
533.67	65535.00
533.84	65535.00
534.01	65535.00
534.18	65535.00
534.35	65535.00
534.52	65535.00
534.69	65535.00
534.86	65535.00
535.03	65535.00
535.20	65535.00
535.37	65535.00
535.54	65535.00
535.71	65535.00
535.88	65535.00
536.05	65535.00
536.22	65535.00
536.38	65535.00
536.55	65535.00
536.72	65535.00
536.89	65535.00
537.06	65535.00
537.23	65535.00
537.40	65535.00
537.57	65535.00
537.74	65535.00
537.91	65535.00
538.08	65535.00
538.25	65535.00
538.42	65535.00
538.59	65535.00
538.75	65535.00
538.92	65535.00
539.09	65535.00
539.26	65535.00
539.43	65535.00
539.60	65535.00
539.77	65535.00
539.94	65535.00
540.11	65535.00
540.28	65535.00
540.44	65535.00
540.61	65535.00
540.78	65535.00
540.95	65535.00
541.12	65535.00
541.29	65535.00
541.46	65535.00
541.62	65535.00
541.79	65535.00
541.96	65535.00
542.13	65535.00
542.30	65535.00
542.47	65535.00
542.63	65535.00
542.80	65535.00
542.97	65535.00
543.14	65535.00
543.31	65535.00
543.48	65535.00
543.64	65535.00
543.81	65535.00
543.98	65535.00
544.15	65535.00
544.32	65535.00
544.48	65535.00
544.65	65535.00
544.82	65535.00
544.99	65535.00
545.16	65535.00
545.32	65535.00
545.49	65535.00
545.66	65535.00
545.83	65535.00
546.00	65535.00
546.16	65535.00
546.33	65535.00
546.50	65535.00
546.67	65535.00
546.83	65535.00
547.00	65535.00
547.17	65535.00
547.34	65535.00
547.50	65535.00
547.67	65535.00
547.84	65535.00
548.00	65535.00
548.17	65535.00
548.34	65535.00
548.51	65535.00
548.67	65535.00
548.84	65535.00
549.01	65535.00
549.18	65535.00
549.34	65535.00
549.51	65535.00
549.68	65535.00
549.84	65535.00
550.01	65535.00
550.18	65535.00
550.34	65535.00
550.51	65535.00
550.68	65535.00
550.84	65535.00
551.01	65535.00
551.18	65535.00
551.34	65535.00
551.51	65535.00
551.68	65535.00
551.84	65535.00
552.01	65535.00
552.18	65535.00
552.34	65535.00
552.51	65535.00
552.68	65535.00
552.84	65535.00
553.01	65535.00
553.18	65535.00
553.34	65535.00
553.51	65535.00
553.67	65535.00
553.84	65535.00
554.01	65535.00
554.17	65535.00
554.34	65535.00
554.51	65535.00
554.67	65535.00
554.84	65535.00
555.00	65535.00
555.17	65535.00
555.33	65535.00
555.50	65535.00
555.67	65535.00
555.83	65535.00
556.00	65535.00
556.16	65535.00
556.33	65535.00
556.50	65535.00
556.66	65535.00
556.83	65535.00
556.99	65535.00
557.16	65535.00
557.32	65535.00
557.49	65535.00
557.65	65535.00
557.82	65535.00
557.98	65535.00
558.15	65535.00
558.32	65535.00
558.48	65535.00
558.65	65535.00
558.81	65535.00
558.98	65535.00
559.14	65535.00
559.31	65535.00
559.47	65535.00
559.64	65535.00
559.80	65535.00
559.97	65535.00
560.13	65535.00
560.30	65535.00
560.46	65535.00
560.63	65535.00
560.79	65535.00
560.96	65535.00
561.12	65535.00
561.29	65535.00
561.45	65535.00
561.61	65535.00
561.78	65535.00
561.94	65535.00
562.11	65535.00
562.27	65535.00
562.44	65535.00
562.60	65535.00
562.77	65535.00
562.93	65535.00
563.10	65535.00
563.26	65535.00
563.42	65535.00
563.59	65535.00
563.75	65535.00
563.92	65535.00
564.08	65535.00
564.24	65535.00
564.41	65535.00
564.57	65535.00
564.74	65535.00
564.90	65535.00
565.07	65535.00
565.23	65535.00
565.39	65535.00
565.56	65535.00
565.72	65420.31
565.88	65535.00
566.05	65535.00
566.21	65535.00
566.38	65535.00
566.54	65535.00
566.70	65535.00
566.87	65535.00
567.03	65535.00
567.19	65535.00
567.36	65535.00
567.52	65535.00
567.68	65535.00
567.85	65535.00
568.01	65535.00
568.17	65284.56
568.34	65200.30
568.50	65219.03
568.66	65286.90
568.83	65535.00
568.99	65535.00
569.15	65535.00
569.32	65535.00
569.48	65535.00
569.64	65535.00
569.81	65221.37
569.97	65123.07
570.13	65176.90
570.30	64807.09
570.46	64460.69
570.62	64046.42
570.78	63959.82
570.95	64205.58
571.11	64863.27
571.27	65099.66
571.43	65172.22
571.60	65331.37
571.76	65535.00
571.92	65535.00
572.09	65535.00
572.25	65535.00
572.41	65535.00
572.57	65535.00
572.74	65535.00
572.90	65420.31
573.06	65272.86
573.22	65492.87
573.38	65366.48
573.55	65317.33
573.71	65471.81
573.87	65378.18
574.03	65261.16
574.20	65413.29
574.36	65020.08
574.52	64849.22
574.68	64839.86
574.84	64390.48
575.01	64228.98
575.17	64186.85
575.33	64453.67
575.49	64685.39
575.65	64809.43
575.82	64493.46
575.98	64163.45
576.14	64402.18
576.30	64458.35
576.46	64659.64
576.62	64764.96
576.79	64725.17
576.95	64341.33
577.11	64535.59
577.27	64427.93
577.43	64441.97
577.59	64100.25
577.75	63805.34
577.92	63379.37
578.08	63367.66
578.24	63337.24
578.40	63711.72
578.56	63590.01
578.72	63723.43
578.88	64046.42
579.04	63994.93
579.21	64186.85
579.37	64055.78
579.53	64240.68
579.69	64177.49
579.85	64313.24
580.01	64069.82
580.17	63711.72
580.33	63388.73
580.49	63880.24
580.65	63891.94
580.82	64210.26
580.98	64090.89
581.14	64086.21
581.30	64118.98
581.46	64104.93
581.62	64292.18
581.78	64062.80
581.94	64488.78
582.10	64420.90
582.26	64338.99
582.42	64306.22
582.58	64320.26
582.74	64334.31
582.90	64399.84
583.06	64219.62
583.22	64090.89
583.38	64102.59
583.54	63983.22
583.70	63929.39
583.86	63913.01
584.02	63924.71
584.18	64030.04
584.34	63898.97
584.50	63861.52
584.66	63737.47
584.82	63267.02
584.98	63313.83
