SpectraSuite Data File
++++++++++++++++++++++++++++++++++++
Date: Mon Oct 07 14:55:00 GMT-05:00 2013
User: price-jones
Dark Spectrum Present: No
Reference Spectrum Present: No
Number of Sampled Component Spectra: 1
Spectrometers: USB2+H05261
Integration Time (usec): 10000 (USB2+H05261)
Spectra Averaged: 1 (USB2+H05261)
Boxcar Smoothing: 0 (USB2+H05261)
Correct for Electrical Dark: No (USB2+H05261)
Strobe/Lamp Enabled: No (USB2+H05261)
Correct for Detector Non-linearity: No (USB2+H05261)
Correct for Stray Light: No (USB2+H05261)
Number of Pixels in Processed Spectrum: 2048
>>>>>Begin Processed Spectral Data<<<<<
365.73	0.00
365.92	0.00
366.12	0.00
366.32	0.00
366.52	0.00
366.72	0.00
366.91	0.00
367.11	0.00
367.31	0.00
367.51	0.00
367.70	0.00
367.90	0.00
368.10	0.00
368.30	0.00
368.49	0.00
368.69	0.00
368.89	0.00
369.09	0.00
369.28	0.00
369.48	0.00
369.68	0.00
369.87	0.00
370.07	0.00
370.27	0.00
370.47	138.09
370.66	1441.77
370.86	1879.45
371.06	1900.52
371.25	1909.88
371.45	1668.80
371.65	1547.09
371.84	1446.45
372.04	1586.88
372.24	1839.66
372.44	1715.61
372.63	1750.72
372.83	1547.09
373.03	1355.17
373.22	1376.24
373.42	1481.56
373.62	1631.35
373.81	1893.49
374.01	1739.02
374.21	1607.95
374.40	1423.05
374.60	1586.88
374.79	1816.26
374.99	1980.09
375.19	2232.87
375.38	2172.02
375.58	2155.63
375.78	2127.55
375.97	2136.91
376.17	2118.18
376.37	2223.51
376.56	2321.81
376.76	2408.41
376.95	2590.97
377.15	2752.47
377.35	2832.05
377.54	3002.91
377.74	3180.79
377.93	3105.89
378.13	2881.20
378.33	2642.46
378.52	2544.16
378.72	2373.30
378.91	2335.85
379.11	2310.11
379.31	2181.38
379.50	2251.60
379.70	2485.65
379.89	2743.11
380.09	2869.50
380.28	2932.69
380.48	2780.56
380.68	2944.39
380.87	2771.19
381.07	2518.42
381.26	2338.20
381.46	2235.21
381.65	2186.06
381.85	2083.08
382.04	1928.60
382.24	1865.41
382.43	1734.34
382.63	1813.92
382.83	1708.59
383.02	1678.16
383.22	1757.74
383.41	1722.63
383.61	1977.75
383.80	2312.45
384.00	2544.16
384.19	2988.86
384.39	2967.80
384.58	2909.29
384.78	2822.69
384.97	2988.86
385.17	2541.82
385.36	2499.69
385.56	2492.67
385.75	2651.83
385.95	2836.73
386.14	3091.85
386.34	3082.49
386.53	2970.14
386.72	2700.98
386.92	2841.41
387.11	2932.69
387.31	3077.80
387.50	2986.52
387.70	2878.86
387.89	2988.86
388.09	2846.09
388.28	2949.08
388.48	3084.83
388.67	3309.52
388.86	3456.97
389.06	3817.41
389.25	4114.66
389.45	3981.25
389.64	4053.81
389.84	3941.46
390.03	3988.27
390.22	4077.21
390.42	4159.13
390.61	4613.20
390.81	4648.30
391.00	4667.03
391.19	4683.41
391.39	4456.38
391.58	4173.18
391.78	3880.61
391.97	3861.88
392.16	3592.72
392.36	3056.74
392.55	2403.73
392.75	1797.53
392.94	1596.25
393.13	1710.93
393.33	2090.10
393.52	2679.91
393.71	3197.17
393.91	3667.62
394.10	3894.65
394.29	4339.35
394.49	4624.90
394.68	4994.70
394.88	5088.32
395.07	5069.60
395.26	5093.01
395.46	4889.38
395.65	4318.29
395.84	3754.22
396.04	3201.85
396.23	2527.78
396.42	2272.66
396.62	2218.83
396.81	2935.03
397.00	3651.24
397.19	4660.01
397.39	5181.95
397.58	5893.47
397.77	6012.84
397.97	6345.19
398.16	6396.68
398.35	6647.12
398.55	6918.62
398.74	6899.90
398.93	7091.82
399.12	7105.87
399.32	6747.76
399.51	7035.65
399.70	7398.43
399.90	7386.73
400.09	7433.54
400.28	7105.87
400.47	7204.17
400.67	7721.43
400.86	8149.75
401.05	7999.95
401.24	8028.04
401.44	8126.34
401.63	8088.89
401.82	8255.07
402.01	7995.27
402.21	8191.88
402.40	8128.68
402.59	7770.58
402.78	7534.18
402.97	7382.05
403.17	8126.34
403.36	8159.11
403.55	8444.65
403.74	8622.53
403.93	7990.59
404.13	7243.96
404.32	7805.69
404.51	8058.46
404.70	8542.96
404.89	8421.25
405.09	8028.04
405.28	8063.15
405.47	8081.87
405.66	7981.23
405.85	7889.95
406.05	7606.74
406.24	7573.97
406.43	8145.06
406.62	8439.97
406.81	8264.43
407.00	8065.49
407.20	7801.01
407.39	7864.20
407.58	8526.57
407.77	8887.01
407.96	9029.79
408.15	9083.62
408.34	9132.77
408.54	9469.81
408.73	9518.96
408.92	9500.23
409.11	9092.98
409.30	8826.16
409.49	7957.82
409.68	7674.62
409.87	7623.12
410.07	8299.54
410.26	8681.05
410.45	9025.11
410.64	9469.81
410.83	9729.61
411.02	9865.36
411.21	10139.20
411.40	10059.62
411.59	10260.91
411.78	10139.20
411.98	10017.49
412.17	10157.92
412.36	10045.58
412.55	10050.26
412.74	9954.30
412.93	9809.19
413.12	9975.36
413.31	10857.75
413.50	10698.59
413.69	10633.05
413.88	10005.79
414.07	10054.94
414.26	10169.63
414.45	10654.12
414.64	10647.10
414.83	10576.88
415.02	10305.38
415.22	10494.96
415.41	10766.46
415.60	11309.47
415.79	11754.17
415.98	11730.76
416.17	11754.17
416.36	11356.28
416.55	11115.20
416.74	10977.11
416.93	10511.35
417.12	10672.84
417.31	10853.06
417.50	11169.04
417.69	11265.00
417.88	11337.56
418.07	11213.51
418.26	11283.72
418.45	11227.55
418.64	11864.18
418.83	12329.94
419.02	11845.45
419.21	11599.70
419.39	10904.56
419.58	10520.71
419.77	10787.53
419.96	11461.60
420.15	12053.76
420.34	12191.85
420.53	12437.61
420.72	12683.36
420.91	12538.25
421.10	12372.07
421.29	12313.56
421.48	12252.70
421.67	12528.89
421.86	12114.61
422.05	11119.89
422.24	9933.23
422.43	10593.26
422.61	11836.09
422.80	12463.35
422.99	12035.03
423.18	11686.29
423.37	11162.01
423.56	11428.84
423.75	11742.47
423.94	12140.36
424.13	11255.64
424.32	11129.25
424.50	11260.32
424.69	11609.06
424.88	11297.77
425.07	11454.58
425.26	11494.37
425.45	11073.07
425.64	10841.36
425.83	11199.46
426.01	11737.79
426.20	11957.80
426.39	11742.47
426.58	10890.51
426.77	10043.24
426.96	9664.07
427.15	10616.67
427.33	11435.86
427.52	11510.75
427.71	11440.54
427.90	11480.33
428.09	11557.57
428.28	11007.54
428.46	10686.89
428.65	10670.50
428.84	11044.99
429.03	11087.12
429.22	10485.60
429.40	9816.21
429.59	8847.22
429.78	7950.80
429.97	8168.47
430.16	8042.08
430.34	7992.93
430.53	7990.59
430.72	8507.85
430.91	9661.73
431.10	11260.32
431.28	13076.57
431.47	14134.50
431.66	13799.80
431.85	12128.66
432.03	11435.86
432.22	11321.17
432.41	11983.54
432.60	13111.68
432.79	13628.94
432.97	13343.39
433.16	13020.40
433.35	11819.71
433.54	10576.88
433.72	10558.16
433.91	11052.01
434.10	12486.76
434.28	12980.61
434.47	13441.70
434.66	12915.08
434.85	13111.68
435.03	13069.55
435.22	13345.73
435.41	13942.57
435.59	13783.41
435.78	14115.77
435.97	14434.08
436.16	14417.70
436.34	14394.29
436.53	14333.44
436.72	14312.38
436.90	13289.56
437.09	13163.17
437.28	13301.26
437.46	13624.26
437.65	13650.00
437.84	12271.43
438.02	11852.47
438.21	11730.76
438.40	12173.13
438.58	13619.58
438.77	13973.00
438.96	13914.48
439.14	14424.72
439.33	14546.43
439.52	14750.06
439.70	14209.39
439.89	13509.57
440.08	13809.16
440.26	14008.11
440.45	14614.30
440.63	15555.20
440.82	16018.63
441.01	15630.10
441.19	15573.92
441.38	16231.62
441.57	16683.34
441.75	16870.58
441.94	16959.52
442.12	16999.31
442.31	17128.04
442.50	17249.75
442.68	16542.91
442.87	16692.70
443.05	16570.99
443.24	16589.72
443.43	17083.57
443.61	17153.79
443.80	17231.02
443.98	16409.50
444.17	16678.66
444.35	17228.68
444.54	17823.18
444.73	17497.84
444.91	16556.95
445.10	16238.64
445.28	14963.04
445.47	15220.50
445.65	15489.67
445.84	15779.89
446.02	16266.72
446.21	16725.47
446.39	16549.93
446.58	16828.45
446.77	17254.43
446.95	17387.84
447.14	17802.11
447.32	17827.86
447.51	17160.81
447.69	16996.97
447.88	17219.32
448.06	17551.68
448.25	17371.46
448.43	17434.65
448.62	17462.74
448.80	17341.03
448.99	17160.81
449.17	17558.70
449.36	17877.01
449.54	18237.45
449.73	18377.89
449.91	18359.16
450.10	18963.02
450.28	19679.22
450.46	19545.81
450.65	19337.51
450.83	19070.68
451.02	18565.13
451.20	18370.86
451.39	18420.02
451.57	18581.51
451.76	18396.61
451.94	18036.17
452.13	17755.30
452.31	16929.09
452.49	16006.92
452.68	16709.08
452.86	16425.88
453.05	16814.41
453.23	17422.95
453.42	17884.03
453.60	17827.86
453.78	18113.41
453.97	18143.83
454.15	18029.15
454.34	17589.13
454.52	17841.90
454.70	17542.32
454.89	17685.09
455.07	17984.68
455.26	18230.43
455.44	18808.54
455.62	19349.21
455.81	19187.71
455.99	18977.06
456.17	18810.89
456.36	19091.75
456.54	19613.69
456.73	19435.81
456.91	19381.98
457.09	19936.68
457.28	20102.86
457.46	19487.30
457.64	19087.07
457.83	18654.07
458.01	18670.45
458.19	19117.50
458.38	19061.32
458.56	19410.06
458.74	19278.99
458.93	18995.79
459.11	18946.64
459.29	18625.98
459.48	18841.31
459.66	18747.69
459.84	19019.19
460.03	19653.48
460.21	19662.84
460.39	20407.13
460.57	19843.06
460.76	19915.62
460.94	20400.11
461.12	19964.77
461.31	19578.58
461.49	20133.29
461.67	19796.25
461.85	20236.27
462.04	20744.17
462.22	20407.13
462.40	20807.36
462.59	20512.46
462.77	20372.02
462.95	20519.48
463.13	20283.08
463.32	19503.68
463.50	20123.93
463.68	20032.65
463.86	19969.45
464.05	19410.06
464.23	19145.58
464.41	18897.49
464.59	18675.13
464.78	20294.79
464.96	20037.33
465.14	19700.29
465.32	19812.63
465.50	20702.04
465.69	21022.69
465.87	20304.15
466.05	19564.54
466.23	18600.24
466.41	18405.97
466.60	19527.09
466.78	19150.26
466.96	19524.75
467.14	19681.56
467.32	19707.31
467.51	19733.06
467.69	18857.70
467.87	19822.00
468.05	19932.00
468.23	19786.89
468.41	19927.32
468.60	19962.43
468.78	20067.75
468.96	19611.35
469.14	20475.01
469.32	20552.24
469.50	18956.00
469.69	19154.94
469.87	18806.20
470.05	19697.95
470.23	19012.17
470.41	19381.98
470.59	19674.54
470.77	19679.22
470.95	20507.77
471.14	20475.01
471.32	20346.28
471.50	21493.14
471.68	21518.89
471.86	21708.47
472.04	21797.41
472.22	21504.84
472.40	20568.63
472.58	20325.21
472.77	20451.60
472.95	20800.34
473.13	21390.16
473.31	21029.71
473.49	21233.34
473.67	21343.35
473.85	21284.83
474.03	22104.02
474.21	22249.13
474.39	22387.22
474.57	22459.78
474.75	22534.68
474.93	22258.49
475.12	21926.14
475.30	21401.86
475.48	21135.04
475.66	22045.51
475.84	21944.86
476.02	21486.12
476.20	21404.20
476.38	22108.70
476.56	22663.41
476.74	23014.49
476.92	22881.08
477.10	23061.30
477.28	24257.31
477.46	23711.97
477.64	24154.33
477.82	24404.77
478.00	24425.83
478.18	23740.05
478.36	23971.77
478.54	24011.56
478.72	24512.43
478.90	25254.38
479.08	25788.02
479.26	25282.47
479.44	25357.36
479.62	24919.68
479.80	25233.32
479.98	25640.57
480.16	25949.52
480.34	25408.86
480.52	25862.92
480.70	26471.46
480.88	26061.87
481.06	26623.59
481.24	26487.84
481.41	27243.84
481.59	27864.08
481.77	27433.42
481.95	27615.98
482.13	27072.98
482.31	27637.05
482.49	28496.02
482.67	27571.51
482.85	27946.00
483.03	28683.27
483.21	28882.21
483.39	28081.75
483.57	27538.74
483.74	27206.39
483.92	27845.35
484.10	28121.54
484.28	28467.94
484.46	28671.56
484.64	28383.68
484.82	28226.86
485.00	28336.87
485.18	27185.32
485.35	26195.28
485.53	23564.51
485.71	21701.45
485.89	22171.89
486.07	23580.90
486.25	25926.11
486.43	27318.73
486.61	27623.00
486.78	27515.34
486.96	28250.27
487.14	28975.83
487.32	28694.97
487.50	30485.48
487.68	30590.80
487.85	31931.93
488.03	31566.81
488.21	31365.52
488.39	30494.84
488.57	29675.65
488.75	30284.19
488.92	31452.12
489.10	32732.39
489.28	33795.00
489.46	34321.62
489.64	34036.07
489.81	35044.84
489.99	34106.29
490.17	34925.47
490.35	34459.71
490.53	33872.23
490.70	33434.55
490.88	33263.69
491.06	34462.05
491.24	34284.17
491.41	32531.11
491.59	30885.71
491.77	30689.10
491.95	32467.91
492.13	33862.87
492.30	34370.77
492.48	36203.41
492.66	36194.04
492.84	35393.58
493.01	36053.61
493.19	35386.56
493.37	35297.62
493.54	35335.07
493.72	37191.11
493.90	36664.49
494.08	37305.80
494.25	38368.40
494.43	38574.37
494.61	38284.14
494.79	38707.78
494.96	38473.73
495.14	37088.13
495.32	36587.25
495.49	36545.12
495.67	37818.38
495.85	39229.72
496.02	39103.33
496.20	38792.04
496.38	38864.60
496.55	38401.17
496.73	38857.57
496.91	38759.27
497.09	40708.94
497.26	39885.07
497.44	39330.36
497.62	38539.26
497.79	37755.18
497.97	36304.05
498.14	37762.20
498.32	39388.88
498.50	39182.91
498.67	39763.36
498.85	39770.38
499.03	39782.09
499.20	40825.96
499.38	41081.08
499.56	40648.08
499.73	39253.12
499.91	38183.50
500.08	37378.36
500.26	36704.28
500.44	37954.13
500.61	38670.33
500.79	38377.76
500.97	37495.38
501.14	37584.32
501.32	37315.16
501.49	38085.20
501.67	38499.47
501.84	38667.99
502.02	39639.31
502.20	39393.56
502.37	40140.19
502.55	40119.12
502.72	41010.87
502.90	41303.43
503.07	40360.20
503.25	39175.89
503.43	38373.08
503.60	37560.92
503.78	36987.49
503.95	38588.41
504.13	39583.14
504.30	41102.15
504.48	40486.59
504.65	40058.27
504.83	39690.80
505.01	40659.79
505.18	40444.46
505.36	41523.44
505.53	41876.86
505.71	42913.72
505.88	43557.37
506.06	42396.46
506.23	41729.41
506.41	41193.43
506.58	41853.46
506.76	41191.09
506.93	40935.97
507.11	40488.93
507.28	40896.18
507.46	40332.11
507.63	39775.06
507.81	39313.98
507.98	39826.56
508.16	41041.29
508.33	41640.47
508.50	41827.71
508.68	42211.56
508.85	43351.40
509.03	42948.83
509.20	42948.83
509.38	41071.72
509.55	41270.67
509.73	41951.76
509.90	41453.23
510.08	40706.60
510.25	41120.87
510.42	40388.28
510.60	41347.90
510.77	42806.06
510.95	43730.57
511.12	43262.46
511.30	44451.45
511.47	43650.99
511.64	42960.53
511.82	42227.95
511.99	41235.56
512.17	41378.33
512.34	40893.84
512.51	40715.96
512.69	40322.75
512.86	40416.37
513.04	42024.32
513.21	42031.34
513.38	41045.97
513.56	39580.80
513.73	38918.43
513.90	39754.00
514.08	39866.34
514.25	40250.19
514.43	40685.53
514.60	40299.34
514.77	40133.17
514.95	42480.72
515.12	41736.43
515.29	41488.34
515.47	41858.14
515.64	43033.09
515.81	42291.14
515.99	40381.26
516.16	37495.38
516.33	35229.74
516.51	35089.31
516.68	33633.50
516.85	32814.31
517.03	34309.91
517.20	37687.31
517.37	40973.42
517.54	41247.26
517.72	39098.65
517.89	36746.41
518.06	35206.34
518.24	35927.22
518.41	38227.97
518.58	40538.08
518.75	41022.57
518.93	39920.18
519.10	40039.54
519.27	40404.67
519.45	41200.45
519.62	41713.03
519.79	41748.14
519.96	41713.03
520.14	40863.41
520.31	39768.04
520.48	39948.26
520.65	40912.56
520.83	42354.33
521.00	42335.61
521.17	41722.39
521.34	42466.68
521.52	42501.79
521.69	42733.50
521.86	42909.04
522.03	42267.73
522.20	40725.32
522.38	39737.62
522.55	40060.61
522.72	40694.89
522.89	40320.41
523.07	40774.47
523.24	41111.51
523.41	42574.34
523.58	42674.99
523.75	42859.89
523.92	43246.08
524.10	43168.84
524.27	43320.98
524.44	43185.22
524.61	42550.94
524.78	41832.39
524.96	41631.11
525.13	41462.59
525.30	42902.02
525.47	43330.34
525.64	43309.27
525.81	41158.32
525.98	38981.62
526.16	38148.39
526.33	36711.30
526.50	35594.87
526.67	35344.43
526.84	37628.79
527.01	39131.42
527.18	39948.26
527.36	41888.57
527.53	41102.15
527.70	41766.86
527.87	40950.01
528.04	41586.64
528.21	41787.92
528.38	43438.00
528.55	44610.61
528.72	45024.89
528.89	45148.93
529.07	44018.46
529.24	41383.01
529.41	41310.46
529.58	41034.27
529.75	41542.17
529.92	42876.27
530.09	43353.74
530.26	43934.20
530.43	44512.31
530.60	43962.28
530.77	43629.93
530.94	44137.82
531.11	42766.27
531.28	42260.71
531.46	41993.89
531.63	42150.71
531.80	41965.81
531.97	40844.69
532.14	40196.36
532.31	38403.51
532.48	39274.19
532.65	39082.27
532.82	40151.89
532.99	42281.78
533.16	42279.44
533.33	41572.60
533.50	40460.84
533.67	40828.30
533.84	41104.49
534.01	41397.06
534.18	41722.39
534.35	42134.32
534.52	41265.99
534.69	42766.27
534.86	43016.71
535.03	41619.41
535.20	42871.59
535.37	43814.83
535.54	44219.74
535.71	43466.09
535.88	42618.81
536.05	41792.61
536.22	41275.35
536.38	41385.35
536.55	39110.35
536.72	39454.41
536.89	39821.87
537.06	40266.58
537.23	41872.18
537.40	42375.40
537.57	42845.85
537.74	41965.81
537.91	42824.78
538.08	41453.23
538.25	41397.06
538.42	41574.94
538.59	41507.06
538.75	40449.14
538.92	40168.27
539.09	40481.91
539.26	40226.79
539.43	39861.66
539.60	40140.19
539.77	41844.10
539.94	40346.15
540.11	38665.65
540.28	37827.74
540.44	38127.33
540.61	39487.18
540.78	40500.63
540.95	41305.77
541.12	40259.55
541.29	40741.71
541.46	40718.30
541.62	41144.28
541.79	41797.29
541.96	40577.87
542.13	39519.95
542.30	39737.62
542.47	39856.98
542.63	40205.72
542.80	39990.39
542.97	40484.25
543.14	39281.21
543.31	40409.35
543.48	41354.93
543.64	41069.38
543.81	42394.12
543.98	41759.84
544.15	40437.44
544.32	40030.18
544.48	40982.78
544.65	41303.43
544.82	41610.04
544.99	40664.47
545.16	39878.05
545.32	39714.21
545.49	41890.91
545.66	40126.14
545.83	40196.36
546.00	39854.64
546.16	39845.28
546.33	40727.66
546.50	40336.79
546.67	41722.39
546.83	40320.41
547.00	40699.58
547.17	39569.10
547.34	38534.58
547.50	39538.67
547.67	39618.25
547.84	39365.47
548.00	40086.36
548.17	40627.02
548.34	39784.43
548.51	39665.06
548.67	41240.24
548.84	41413.44
549.01	41450.89
549.18	40517.01
549.34	39920.18
549.51	39978.69
549.68	40828.30
549.84	40502.97
550.01	39262.49
550.18	39234.40
550.34	39028.43
550.51	38983.96
550.68	39290.57
550.84	39538.67
551.01	39108.01
551.18	40142.53
551.34	40041.88
551.51	39739.96
551.68	40144.87
551.84	40641.06
552.01	40734.68
552.18	39765.70
552.34	39154.82
552.51	38983.96
552.68	39564.42
552.84	40123.80
553.01	39386.54
553.18	39234.40
553.34	39536.33
553.51	40144.87
553.67	40100.40
553.84	38988.64
554.01	39627.61
554.17	39709.53
554.34	39945.92
554.51	38843.53
554.67	38934.81
554.84	40360.20
555.00	39658.04
555.17	39028.43
555.33	37993.92
555.50	39573.78
555.67	38595.43
555.83	37479.00
556.00	36863.44
556.16	37598.37
556.33	36737.05
556.50	38071.15
556.66	39274.19
556.83	39068.22
556.99	38286.48
557.16	37888.59
557.32	38300.53
557.49	38698.42
557.65	38274.78
557.82	39435.69
557.98	38541.60
558.15	38576.71
558.32	37490.70
558.48	35445.07
558.65	35763.39
558.81	34974.63
558.98	36048.93
559.14	37010.89
559.31	37558.58
559.47	36290.01
559.64	35793.81
559.80	34838.87
559.97	36119.15
560.13	37589.00
560.30	38181.16
560.46	38218.61
560.63	39328.02
560.79	39882.73
560.96	38129.67
561.12	36215.11
561.29	35763.39
561.45	34988.67
561.61	36135.53
561.78	36301.71
561.94	36884.50
562.11	36938.33
562.27	37823.06
562.44	37954.13
562.60	38260.74
562.77	37954.13
562.93	37956.47
563.10	35978.72
563.26	36271.28
563.42	36467.89
563.59	35239.11
563.75	35950.63
563.92	36023.19
564.08	36355.54
564.24	36123.83
564.41	36016.16
564.57	37146.64
564.74	35880.41
564.90	35768.07
565.07	36215.11
565.23	34707.80
565.39	34684.40
565.56	34373.11
565.72	34309.91
565.88	34036.07
566.05	35070.59
566.21	36573.21
566.38	35056.54
566.54	35536.35
566.70	36266.60
566.87	37151.32
567.03	35899.14
567.19	35737.64
567.36	36201.07
567.52	35491.88
567.68	35665.08
567.85	34417.58
568.01	33308.16
568.17	34490.13
568.34	35019.10
568.50	34913.77
568.66	35810.20
568.83	35569.12
568.99	35145.48
569.15	35370.18
569.32	35620.61
569.48	34726.53
569.64	33549.24
569.81	34958.24
569.97	34593.12
570.13	35112.72
570.30	34459.71
570.46	33872.23
570.62	32992.19
570.78	33291.78
570.95	34059.48
571.11	34227.99
571.27	34696.10
571.43	34459.71
571.60	33776.27
571.76	35037.82
571.92	34665.67
572.09	34838.87
572.25	35770.41
572.41	36390.65
572.57	36334.48
572.74	36084.04
572.90	35391.24
573.06	34691.42
573.22	34206.93
573.38	34050.11
573.55	34249.06
573.71	33240.29
573.87	33722.44
574.03	34174.16
574.20	34558.01
574.36	34419.92
574.52	34841.21
574.68	33387.74
574.84	32528.77
575.01	32961.76
575.17	33579.67
575.33	33666.27
575.49	32929.00
575.65	32783.88
575.82	33366.68
575.98	32690.26
576.14	33179.43
576.30	32833.04
576.46	33251.99
576.62	33621.80
576.79	33315.19
576.95	32826.01
577.11	32182.37
577.27	32435.14
577.43	33371.36
577.59	32746.44
577.75	32725.37
577.92	31548.08
578.08	31260.20
578.24	32456.21
578.40	31311.69
578.56	31758.73
578.72	32116.83
578.88	32037.25
579.04	32524.08
579.21	31901.50
579.37	32325.14
579.53	33160.71
579.69	34178.84
579.85	32774.52
580.01	32477.27
580.17	32322.80
580.33	32570.90
580.49	32964.10
580.65	31786.82
580.82	32514.72
580.98	32900.91
581.14	33645.20
581.30	32917.29
581.46	32727.71
581.62	32486.64
581.78	32748.78
581.94	33097.52
582.10	33497.75
582.26	33214.54
582.42	32926.66
582.58	33287.10
582.74	32748.78
582.90	32898.57
583.06	33298.80
583.22	32760.48
583.38	33111.56
583.54	32699.62
583.70	33006.23
583.86	32697.28
584.02	33111.56
584.18	32638.77
584.34	32645.79
584.50	32315.78
584.66	31634.68
584.82	31662.77
584.98	32563.87
585.14	31344.45
585.30	31318.71
585.46	30965.29
585.62	30796.77
585.78	31084.65
585.94	31119.76
586.10	30029.07
