SpectraSuite Data File
++++++++++++++++++++++++++++++++++++
Date: Mon Oct 07 14:54:55 GMT-05:00 2013
User: price-jones
Dark Spectrum Present: No
Reference Spectrum Present: No
Number of Sampled Component Spectra: 1
Spectrometers: USB2+H05261
Integration Time (usec): 10000 (USB2+H05261)
Spectra Averaged: 1 (USB2+H05261)
Boxcar Smoothing: 0 (USB2+H05261)
Correct for Electrical Dark: No (USB2+H05261)
Strobe/Lamp Enabled: No (USB2+H05261)
Correct for Detector Non-linearity: No (USB2+H05261)
Correct for Stray Light: No (USB2+H05261)
Number of Pixels in Processed Spectrum: 2048
>>>>>Begin Processed Spectral Data<<<<<
365.73	0.00
365.92	0.00
366.12	0.00
366.32	0.00
366.52	0.00
366.72	0.00
366.91	0.00
367.11	0.00
367.31	0.00
367.51	0.00
367.70	0.00
367.90	0.00
368.10	0.00
368.30	0.00
368.49	0.00
368.69	0.00
368.89	0.00
369.09	0.00
369.28	0.00
369.48	0.00
369.68	0.00
369.87	0.00
370.07	0.00
370.27	0.00
370.47	0.00
370.66	0.00
370.86	0.00
371.06	84.26
371.25	4.68
371.45	65.54
371.65	0.00
371.84	0.00
372.04	0.00
372.24	18.72
372.44	114.69
372.63	86.60
372.83	44.47
373.03	32.77
373.22	0.00
373.42	7.02
373.62	51.49
373.81	121.71
374.01	86.60
374.21	102.98
374.40	46.81
374.60	32.77
374.79	0.00
374.99	79.58
375.19	217.67
375.38	161.50
375.58	203.63
375.78	159.16
375.97	135.75
376.17	175.54
376.37	159.16
376.56	212.99
376.76	257.46
376.95	131.07
377.15	173.20
377.35	259.80
377.54	259.80
377.74	290.23
377.93	278.52
378.13	245.76
378.33	220.01
378.52	245.76
378.72	229.37
378.91	147.45
379.11	212.99
379.31	117.03
379.50	102.98
379.70	154.48
379.89	175.54
380.09	285.55
380.28	264.48
380.48	264.48
380.68	292.57
380.87	252.78
381.07	182.56
381.26	175.54
381.46	112.35
381.65	149.79
381.85	133.41
382.04	77.24
382.24	0.00
382.43	42.13
382.63	16.38
382.83	49.15
383.02	77.24
383.22	77.24
383.41	14.04
383.61	187.24
383.80	100.64
384.00	156.82
384.19	220.01
384.39	198.95
384.58	269.16
384.78	217.67
384.97	245.76
385.17	262.14
385.36	138.09
385.56	205.97
385.75	210.65
385.95	203.63
386.14	243.42
386.34	241.08
386.53	201.29
386.72	264.48
386.92	257.46
387.11	243.42
387.31	322.99
387.50	250.44
387.70	250.44
387.89	234.05
388.09	210.65
388.28	308.95
388.48	257.46
388.67	330.02
388.86	287.89
389.06	390.87
389.25	463.43
389.45	395.55
389.64	468.11
389.84	386.19
390.03	334.70
390.22	346.40
390.42	407.25
390.61	484.49
390.81	571.09
391.00	543.00
391.19	540.66
391.39	477.47
391.58	559.39
391.78	390.87
391.97	393.21
392.16	339.38
392.36	379.17
392.55	170.86
392.75	84.26
392.94	81.92
393.13	93.62
393.33	63.19
393.52	156.82
393.71	231.71
393.91	339.38
394.10	330.02
394.29	500.87
394.49	482.15
394.68	592.16
394.88	540.66
395.07	573.43
395.26	582.79
395.46	526.62
395.65	493.85
395.84	456.40
396.04	299.59
396.23	201.29
396.42	133.41
396.62	161.50
396.81	187.24
397.00	315.97
397.19	514.92
397.39	636.63
397.58	678.76
397.77	674.07
397.97	784.08
398.16	777.06
398.35	751.31
398.55	837.91
398.74	802.80
398.93	898.77
399.12	980.68
399.32	877.70
399.51	802.80
399.70	1008.77
399.90	828.55
400.09	919.83
400.28	929.19
400.47	961.96
400.67	924.51
400.86	983.02
401.05	1071.97
401.24	973.66
401.44	1076.65
401.63	1043.88
401.82	1050.90
402.01	1118.78
402.21	968.98
402.40	1083.67
402.59	1004.09
402.78	1039.20
402.97	992.39
403.17	985.37
403.36	952.60
403.55	1125.80
403.74	1153.88
403.93	1025.15
404.13	1032.18
404.32	880.04
404.51	922.17
404.70	1081.33
404.89	1116.44
405.09	1071.97
405.28	1041.54
405.47	1057.92
405.66	1104.73
405.85	1015.79
406.05	938.55
406.24	1036.86
406.43	1053.24
406.62	1011.11
406.81	1020.47
407.00	966.64
407.20	929.19
407.39	987.71
407.58	992.39
407.77	1083.67
407.96	1181.97
408.15	1207.72
408.34	1156.22
408.54	1226.44
408.73	1315.38
408.92	1203.04
409.11	1198.35
409.30	985.37
409.49	973.66
409.68	880.04
409.87	912.81
410.07	992.39
410.26	1029.84
410.45	1165.59
410.64	1095.37
410.83	1266.23
411.02	1170.27
411.21	1303.68
411.40	1259.21
411.59	1263.89
411.78	1294.32
411.98	1188.99
412.17	1268.57
412.36	1301.34
412.55	1224.10
412.74	1200.69
412.93	1256.87
413.12	1181.97
413.31	1357.51
413.50	1430.07
413.69	1369.21
413.88	1238.14
414.07	1287.29
414.26	1270.91
414.45	1359.85
414.64	1362.19
414.83	1451.13
415.02	1355.17
415.22	1259.21
415.41	1306.02
415.60	1427.73
415.79	1430.07
415.98	1561.14
416.17	1598.59
416.36	1469.86
416.55	1380.92
416.74	1493.26
416.93	1284.95
417.12	1364.53
417.31	1483.90
417.50	1331.76
417.69	1371.55
417.88	1418.36
418.07	1394.96
418.26	1334.11
418.45	1430.07
418.64	1418.36
418.83	1497.94
419.02	1472.20
419.21	1493.26
419.39	1371.55
419.58	1256.87
419.77	1320.06
419.96	1413.68
420.15	1455.81
420.34	1617.31
420.53	1631.35
420.72	1643.06
420.91	1607.95
421.10	1650.08
421.29	1558.80
421.48	1483.90
421.67	1530.71
421.86	1586.88
422.05	1401.98
422.24	1273.25
422.43	1259.21
422.61	1549.43
422.80	1502.62
422.99	1469.86
423.18	1409.00
423.37	1397.30
423.56	1490.92
423.75	1488.58
423.94	1514.33
424.13	1399.64
424.32	1352.83
424.50	1317.72
424.69	1453.47
424.88	1411.34
425.07	1399.64
425.26	1418.36
425.45	1303.68
425.64	1448.79
425.83	1371.55
426.01	1446.45
426.20	1444.11
426.39	1472.20
426.58	1390.28
426.77	1130.48
426.96	1226.44
427.15	1167.93
427.33	1259.21
427.52	1355.17
427.71	1444.11
427.90	1439.43
428.09	1488.58
428.28	1376.24
428.46	1383.26
428.65	1263.89
428.84	1226.44
429.03	1336.45
429.22	1252.19
429.40	1165.59
429.59	1034.52
429.78	781.74
429.97	880.04
430.16	994.73
430.34	990.05
430.53	978.34
430.72	994.73
430.91	1118.78
431.10	1235.80
431.28	1565.82
431.47	1661.78
431.66	1638.38
431.85	1540.07
432.03	1383.26
432.22	1317.72
432.41	1401.98
432.60	1568.16
432.79	1575.18
432.97	1668.80
433.16	1675.82
433.35	1481.56
433.54	1387.94
433.72	1203.04
433.91	1315.38
434.10	1502.62
434.28	1537.73
434.47	1643.06
434.66	1664.12
434.85	1570.50
435.03	1647.74
435.22	1626.67
435.41	1668.80
435.59	1645.40
435.78	1647.74
435.97	1696.89
436.16	1790.51
436.34	1823.28
436.53	1755.40
436.72	1781.15
436.90	1650.08
437.09	1577.52
437.28	1612.63
437.46	1605.61
437.65	1678.16
437.84	1551.78
438.02	1383.26
438.21	1369.21
438.40	1448.79
438.58	1610.29
438.77	1572.84
438.96	1533.05
439.14	1736.68
439.33	1689.87
439.52	1741.36
439.70	1724.97
439.89	1650.08
440.08	1694.55
440.26	1678.16
440.45	1724.97
440.63	1781.15
440.82	1966.05
441.01	1982.43
441.19	1898.17
441.38	1963.71
441.57	2059.67
441.75	2026.90
441.94	2054.99
442.12	2050.31
442.31	2043.29
442.50	1998.82
442.68	2036.27
442.87	2099.46
443.05	2019.88
443.24	2080.74
443.43	2024.56
443.61	2069.03
443.80	2097.12
443.98	2012.86
444.17	2040.95
444.35	2062.01
444.54	2080.74
444.73	2036.27
444.91	2127.55
445.10	2005.84
445.28	1891.15
445.47	1921.58
445.65	1811.57
445.84	1701.57
446.02	2036.27
446.21	1933.28
446.39	1989.46
446.58	2090.10
446.77	1949.67
446.95	2054.99
447.14	2155.63
447.32	2188.40
447.51	2111.16
447.69	2083.08
447.88	1989.46
448.06	2026.90
448.25	2078.40
448.43	2127.55
448.62	2008.18
448.80	2129.89
448.99	2031.58
449.17	2094.78
449.36	2008.18
449.54	2176.70
449.73	2263.30
449.91	2239.89
450.10	2310.11
450.28	2249.25
450.46	2368.62
450.65	2363.94
450.83	2321.81
451.02	2162.66
451.20	2256.28
451.39	2207.13
451.57	2214.15
451.76	2216.49
451.94	2338.20
452.13	2249.25
452.31	2026.90
452.49	1916.90
452.68	1961.37
452.86	2012.86
453.05	2085.42
453.23	2132.23
453.42	2099.46
453.60	2087.76
453.78	2293.72
453.97	2148.61
454.15	2183.72
454.34	2010.52
454.52	2033.93
454.70	2176.70
454.89	2071.37
455.07	2148.61
455.26	2165.00
455.44	2310.11
455.62	2314.79
455.81	2239.89
455.99	2195.42
456.17	2258.62
456.36	2216.49
456.54	2354.58
456.73	2291.38
456.91	2359.26
457.09	2487.99
457.28	2457.56
457.46	2223.51
457.64	2186.06
457.83	2244.57
458.01	2132.23
458.19	2225.85
458.38	2282.02
458.56	2366.28
458.74	2389.69
458.93	2237.55
459.11	2239.89
459.29	2244.57
459.48	2225.85
459.66	2258.62
459.84	2272.66
460.03	2237.55
460.21	2333.51
460.39	2363.94
460.57	2319.47
460.76	2298.41
460.94	2399.05
461.12	2310.11
461.31	2174.36
461.49	2293.72
461.67	2319.47
461.85	2298.41
462.04	2335.85
462.22	2431.82
462.40	2401.39
462.59	2413.09
462.77	2464.58
462.95	2333.51
463.13	2387.35
463.32	2256.28
463.50	2298.41
463.68	2328.83
463.86	2321.81
464.05	2333.51
464.23	2260.96
464.41	2195.42
464.59	2127.55
464.78	2275.00
464.96	2265.64
465.14	2260.96
465.32	2228.19
465.50	2401.39
465.69	2518.42
465.87	2347.56
466.05	2230.53
466.23	2204.78
466.41	2092.44
466.60	2181.38
466.78	2232.87
466.96	2176.70
467.14	2286.70
467.32	2214.15
467.51	2305.43
467.69	2183.72
467.87	2263.30
468.05	2223.51
468.23	2267.98
468.41	2380.32
468.60	2363.94
468.78	2359.26
468.96	2335.85
469.14	2401.39
469.32	2331.17
469.50	2232.87
469.69	2263.30
469.87	2139.25
470.05	2251.60
470.23	2146.27
470.41	2193.08
470.59	2279.68
470.77	2263.30
470.95	2162.66
471.14	2385.01
471.32	2356.92
471.50	2527.78
471.68	2600.34
471.86	2590.97
472.04	2457.56
472.22	2581.61
472.40	2340.54
472.58	2303.09
472.77	2420.11
472.95	2382.67
473.13	2352.24
473.31	2375.64
473.49	2387.35
473.67	2443.52
473.85	2406.07
474.03	2574.59
474.21	2558.21
474.39	2605.02
474.57	2574.59
474.75	2644.81
474.93	2640.12
475.12	2455.22
475.30	2628.42
475.48	2464.58
475.66	2480.97
475.84	2588.63
476.02	2518.42
476.20	2361.60
476.38	2525.44
476.56	2462.24
476.74	2600.34
476.92	2712.68
477.10	2588.63
477.28	2799.28
477.46	2738.43
477.64	2768.85
477.82	2743.11
478.00	2785.24
478.18	2712.68
478.36	2818.00
478.54	2649.49
478.72	2700.98
478.90	2801.62
479.08	2885.88
479.26	2991.20
479.44	2857.79
479.62	2932.69
479.80	2897.58
479.98	2876.52
480.16	2895.24
480.34	2815.66
480.52	3047.38
480.70	2986.52
480.88	2949.08
481.06	3009.93
481.24	3021.63
481.41	3152.70
481.59	3164.40
481.77	3061.42
481.95	3061.42
482.13	2998.23
482.31	3190.15
482.49	3180.79
482.67	3096.53
482.85	3155.04
483.03	3204.19
483.21	3180.79
483.39	3215.90
483.57	3136.32
483.74	3262.71
483.92	3293.13
484.10	3204.19
484.28	3267.39
484.46	3351.65
484.64	3190.15
484.82	3178.45
485.00	3183.13
485.18	3101.21
485.35	2979.50
485.53	2799.28
485.71	2497.35
485.89	2537.14
486.07	2546.50
486.25	2998.23
486.43	2944.39
486.61	3009.93
486.78	2946.73
486.96	3082.49
487.14	3307.18
487.32	3370.37
487.50	3529.53
487.68	3571.66
487.85	3501.44
488.03	3590.38
488.21	3403.14
488.39	3531.87
488.57	3386.76
488.75	3447.61
488.92	3501.44
489.10	3737.84
489.28	3922.74
489.46	3964.87
489.64	3906.35
489.81	3967.21
489.99	3941.46
490.17	3847.84
490.35	4011.68
490.53	3885.29
490.70	3932.10
490.88	3777.62
491.06	4023.38
491.24	3871.25
491.41	3737.84
491.59	3768.26
491.77	3510.80
491.95	3555.27
492.13	3648.90
492.30	3918.06
492.48	4011.68
492.66	4046.79
492.84	4184.88
493.01	4074.87
493.19	3943.80
493.37	3941.46
493.54	3943.80
493.72	4065.51
493.90	4067.85
494.08	4353.40
494.25	4318.29
494.43	4255.09
494.61	4411.91
494.79	4437.66
494.96	4290.20
495.14	4156.79
495.32	4074.87
495.49	3936.78
495.67	4107.64
495.85	4404.89
496.02	4496.17
496.20	4622.56
496.38	4315.95
496.55	4294.88
496.73	4395.53
496.91	4348.72
497.09	4557.02
497.26	4711.50
497.44	4449.36
497.62	4425.95
497.79	4325.31
497.97	4109.98
498.14	4140.41
498.32	4269.14
498.50	4418.93
498.67	4369.78
498.85	4489.15
499.03	4477.44
499.20	4496.17
499.38	4578.09
499.56	4437.66
499.73	4561.70
499.91	4393.19
500.08	4231.69
500.26	4238.71
500.44	4072.53
500.61	4390.84
500.79	4287.86
500.97	4395.53
501.14	4227.01
501.32	4259.78
501.49	4117.00
501.67	4173.18
501.84	4327.65
502.02	4395.53
502.20	4463.40
502.37	4447.02
502.55	4521.92
502.72	4585.11
502.90	4664.69
503.07	4538.30
503.25	4566.39
503.43	4285.52
503.60	4313.61
503.78	4168.49
503.95	4210.62
504.13	4400.21
504.30	4545.32
504.48	4517.23
504.65	4566.39
504.83	4545.32
505.01	4657.67
505.18	4695.11
505.36	4655.33
505.53	4821.50
505.71	4732.56
505.88	4856.61
506.06	4610.86
506.23	4547.66
506.41	4416.59
506.58	4503.19
506.76	4585.11
506.93	4746.61
507.11	4461.06
507.28	4660.01
507.46	4542.98
507.63	4332.33
507.81	4360.42
507.98	4409.57
508.16	4648.30
508.33	4585.11
508.50	4725.54
508.68	4868.31
508.85	4959.60
509.03	4908.10
509.20	4786.40
509.38	4697.46
509.55	4557.02
509.73	4503.19
509.90	4791.08
510.08	4746.61
510.25	4695.11
510.42	4624.90
510.60	4652.98
510.77	4830.87
510.95	4858.95
511.12	4795.76
511.30	4781.71
511.47	4823.84
511.64	4898.74
511.82	4770.01
511.99	4702.14
512.17	4526.60
512.34	4603.83
512.51	4512.55
512.69	4606.17
512.86	4641.28
513.04	4638.94
513.21	4505.53
513.38	4660.01
513.56	4500.85
513.73	4418.93
513.90	4442.34
514.08	4486.81
514.25	4613.20
514.43	4601.49
514.60	4711.50
514.77	4615.54
514.95	4554.68
515.12	4519.57
515.29	4636.60
515.47	4678.73
515.64	4704.48
515.81	4709.16
515.99	4531.28
516.16	4264.46
516.33	4049.13
516.51	3850.18
516.68	3782.31
516.85	3653.58
517.03	3585.70
517.20	4021.04
517.37	4507.87
517.54	4573.41
517.72	4482.13
517.89	4292.54
518.06	3810.39
518.24	3859.54
518.41	4168.49
518.58	4393.19
518.75	4372.12
518.93	4369.78
519.10	4337.01
519.27	4404.89
519.45	4444.68
519.62	4592.13
519.79	4678.73
519.96	4617.88
520.14	4538.30
520.31	4526.60
520.48	4472.76
520.65	4489.15
520.83	4557.02
521.00	4695.11
521.17	4699.80
521.34	4606.17
521.52	4737.24
521.69	4751.29
521.86	4823.84
522.03	4685.75
522.20	4575.75
522.38	4297.22
522.55	4374.46
522.72	4374.46
522.89	4432.97
523.07	4512.55
523.24	4671.71
523.41	4634.26
523.58	4762.99
523.75	4772.35
523.92	5050.88
524.10	4765.33
524.27	4835.55
524.44	4746.61
524.61	4840.23
524.78	4617.88
524.96	4751.29
525.13	4638.94
525.30	4908.10
525.47	4912.78
525.64	4784.06
525.81	4620.22
525.98	4454.04
526.16	4184.88
526.33	4238.71
526.50	3999.98
526.67	4074.87
526.84	4046.79
527.01	4095.94
527.18	4283.18
527.36	4505.53
527.53	4669.37
527.70	4734.90
527.87	4564.04
528.04	4545.32
528.21	4540.64
528.38	4692.77
528.55	4973.64
528.72	4952.57
528.89	4863.63
529.07	4786.40
529.24	4624.90
529.41	4561.70
529.58	4580.43
529.75	4428.29
529.92	4692.77
530.09	4709.16
530.26	4765.33
530.43	4734.90
530.60	4828.53
530.77	4816.82
530.94	4945.55
531.11	4767.67
531.28	4688.09
531.46	4662.35
531.63	4688.09
531.80	4774.69
531.97	4404.89
532.14	4596.81
532.31	4219.99
532.48	4208.28
532.65	4234.03
532.82	4416.59
532.99	4503.19
533.16	4578.09
533.33	4652.98
533.50	4603.83
533.67	4472.76
533.84	4489.15
534.01	4582.77
534.18	4533.62
534.35	4568.73
534.52	4517.23
534.69	4643.62
534.86	4657.67
535.03	4702.14
535.20	4681.07
535.37	4746.61
535.54	4873.00
535.71	4807.46
535.88	4615.54
536.05	4599.15
536.22	4578.09
536.38	4404.89
536.55	4252.75
536.72	4465.74
536.89	4292.54
537.06	4365.10
537.23	4507.87
537.40	4561.70
537.57	4615.54
537.74	4463.40
537.91	4571.07
538.08	4648.30
538.25	4489.15
538.42	4627.24
538.59	4505.53
538.75	4568.73
538.92	4444.68
539.09	4414.25
539.26	4341.69
539.43	4283.18
539.60	4329.99
539.77	4550.00
539.94	4421.27
540.11	4243.39
540.28	4184.88
540.44	4121.68
540.61	4138.07
540.78	4280.84
540.95	4266.80
541.12	4414.25
541.29	4332.33
541.46	4613.20
541.62	4493.83
541.79	4395.53
541.96	4315.95
542.13	4486.81
542.30	4472.76
542.47	4425.95
542.63	4273.82
542.80	4320.63
542.97	4365.10
543.14	4454.04
543.31	4315.95
543.48	4491.49
543.64	4624.90
543.81	4500.85
543.98	4627.24
544.15	4512.55
544.32	4091.26
544.48	4257.43
544.65	4482.13
544.82	4578.09
544.99	4479.79
545.16	4241.05
545.32	4184.88
545.49	4421.27
545.66	4498.51
545.83	4414.25
546.00	4512.55
546.16	4423.61
546.33	4402.55
546.50	4297.22
546.67	4465.74
546.83	4442.34
547.00	4463.40
547.17	4208.28
547.34	4112.32
547.50	4208.28
547.67	4248.07
547.84	4173.18
548.00	4283.18
548.17	4388.50
548.34	4264.46
548.51	4351.06
548.67	4269.14
548.84	4362.76
549.01	4276.16
549.18	4395.53
549.34	4219.99
549.51	4344.03
549.68	4292.54
549.84	4290.20
550.01	4196.58
550.18	4131.05
550.34	4248.07
550.51	4301.90
550.68	4219.99
550.84	4177.86
551.01	4194.24
551.18	4227.01
551.34	4194.24
551.51	4355.74
551.68	4262.12
551.84	4306.59
552.01	4163.81
552.18	4334.67
552.34	4117.00
552.51	4084.23
552.68	4154.45
552.84	4208.28
553.01	4135.73
553.18	4163.81
553.34	4283.18
553.51	4140.41
553.67	4280.84
553.84	4315.95
554.01	4088.92
554.17	4374.46
554.34	4128.70
554.51	4217.65
554.67	4187.22
554.84	4255.09
555.00	4142.75
555.17	3957.85
555.33	4241.05
555.50	4135.73
555.67	4138.07
555.83	4119.34
556.00	4177.86
556.16	4163.81
556.33	4140.41
556.50	3995.29
556.66	4051.47
556.83	3911.04
556.99	3847.84
557.16	4060.83
557.32	3983.59
557.49	4095.94
557.65	4145.09
557.82	3964.87
557.98	3904.01
558.15	4060.83
558.32	3960.19
558.48	3880.61
558.65	3908.69
558.81	3840.82
558.98	3749.54
559.14	3817.41
559.31	3911.04
559.47	3915.72
559.64	3852.52
559.80	3850.18
559.97	3803.37
560.13	3833.80
560.30	4011.68
560.46	4032.74
560.63	4039.76
560.79	4112.32
560.96	4140.41
561.12	3925.08
561.29	3742.52
561.45	3716.77
561.61	3948.48
561.78	4037.42
561.94	3962.53
562.11	3908.69
562.27	4007.00
562.44	3756.56
562.60	3934.44
562.77	3887.63
562.93	3859.54
563.10	3906.35
563.26	3801.03
563.42	3873.59
563.59	3922.74
563.75	3826.78
563.92	3803.37
564.08	3946.14
564.24	3775.28
564.41	3854.86
564.57	3740.18
564.74	3875.93
564.90	3880.61
565.07	3831.46
565.23	3819.75
565.39	3822.09
565.56	3653.58
565.72	3597.40
565.88	3634.85
566.05	3585.70
566.21	3660.60
566.38	3719.11
566.54	3824.44
566.70	3751.88
566.87	3754.22
567.03	3698.05
567.19	3850.18
567.36	3829.12
567.52	3695.71
567.68	3763.58
567.85	3819.75
568.01	3639.53
568.17	3630.17
568.34	3578.68
568.50	3562.30
568.66	3637.19
568.83	3669.96
568.99	3648.90
569.15	3672.30
569.32	3770.60
569.48	3604.42
569.64	3599.74
569.81	3574.00
569.97	3557.61
570.13	3482.72
570.30	3361.01
570.46	3447.61
570.62	3384.41
570.78	3328.24
570.95	3461.65
571.11	3417.18
571.27	3536.55
571.43	3379.73
571.60	3616.13
571.76	3536.55
571.92	3688.68
572.09	3681.66
572.25	3583.36
572.41	3627.83
572.57	3681.66
572.74	3529.53
572.90	3419.52
573.06	3520.17
573.22	3548.25
573.38	3405.48
573.55	3632.51
573.71	3590.38
573.87	3524.85
574.03	3445.27
574.20	3658.26
574.36	3531.87
574.52	3386.76
574.68	3557.61
574.84	3480.38
575.01	3251.00
575.17	3253.34
575.33	3452.29
575.49	3494.42
575.65	3440.59
575.82	3337.60
575.98	3361.01
576.14	3417.18
576.30	3356.33
576.46	3473.36
576.62	3375.05
576.79	3349.31
576.95	3386.76
577.11	3356.33
577.27	3461.65
577.43	3398.46
577.59	3302.50
577.75	3255.69
577.92	3220.58
578.08	3199.51
578.24	3143.34
578.40	3255.69
578.56	3311.86
578.72	3290.79
578.88	3236.96
579.04	3356.33
579.21	3358.67
579.37	3368.03
579.53	3365.69
579.69	3276.75
579.85	3382.07
580.01	3353.99
580.17	3178.45
580.33	3269.73
580.49	3400.80
580.65	3421.86
580.82	3349.31
580.98	3346.97
581.14	3197.17
581.30	3346.97
581.46	3225.26
581.62	3421.86
581.78	3375.05
581.94	3246.32
582.10	3307.18
582.26	3311.86
582.42	3309.52
582.58	3323.56
582.74	3358.67
582.90	3281.43
583.06	3382.07
583.22	3206.53
583.38	3391.44
583.54	3370.37
583.70	3342.28
583.86	3236.96
584.02	3368.03
584.18	3372.71
584.34	3323.56
584.50	3377.39
584.66	3365.69
584.82	3192.49
584.98	3096.53
585.14	3101.21
585.30	3038.02
585.46	3068.44
585.62	3000.57
585.78	3054.40
585.94	3042.70
586.10	3141.00
586.26	3180.79
586.42	3145.68
586.58	3213.56
586.74	3178.45
586.90	3117.59
587.06	3187.81
587.22	3171.43
587.38	3145.68
587.54	3063.76
587.70	3028.65
587.86	2972.48
588.02	2928.01
588.18	2974.82
588.34	2977.16
588.49	2766.51
588.65	2635.44
588.81	2637.78
588.97	2562.89
589.13	2581.61
589.29	2541.82
589.45	2719.70
589.61	2731.41
589.77	2815.66
589.93	2979.50
590.08	3019.29
590.24	3082.49
590.40	3040.36
590.56	2876.52
590.72	3007.59
590.88	2937.37
591.04	2956.10
591.20	3012.27
591.35	2829.71
591.51	2951.42
591.67	2843.75
591.83	2956.10
591.99	3012.27
592.15	3009.93
592.31	2871.84
592.46	3091.85
592.62	2787.58
592.78	2974.82
592.94	2888.22
593.10	2841.41
593.26	3028.65
593.41	2977.16
593.57	2928.01
593.73	2855.45
593.89	2881.20
594.05	2782.90
594.20	2710.34
594.36	2722.04
594.52	2736.09
594.68	2656.51
594.84	2682.25
594.99	2843.75
595.15	2806.30
595.31	2796.94
595.47	2796.94
595.62	2909.29
595.78	2885.88
595.94	2977.16
596.10	2878.86
596.25	2717.36
596.41	2764.17
596.57	2881.20
596.73	2726.72
596.88	2862.48
597.04	2862.48
597.20	3021.63
597.36	2813.32
597.51	2829.71
597.67	2832.05
597.83	2698.64
597.99	2836.73
598.14	2726.72
598.30	2696.30
598.46	2686.94
598.61	2752.47
598.77	2848.43
