SpectraSuite Data File
++++++++++++++++++++++++++++++++++++
Date: Mon Oct 07 14:53:22 GMT-05:00 2013
User: price-jones
Dark Spectrum Present: No
Reference Spectrum Present: No
Number of Sampled Component Spectra: 1
Spectrometers: USB2+H05261
Integration Time (usec): 100000 (USB2+H05261)
Spectra Averaged: 1 (USB2+H05261)
Boxcar Smoothing: 0 (USB2+H05261)
Correct for Electrical Dark: No (USB2+H05261)
Strobe/Lamp Enabled: No (USB2+H05261)
Correct for Detector Non-linearity: No (USB2+H05261)
Correct for Stray Light: No (USB2+H05261)
Number of Pixels in Processed Spectrum: 2048
>>>>>Begin Processed Spectral Data<<<<<
365.73	0.00
365.92	0.00
366.12	0.00
366.32	0.00
366.52	0.00
366.72	0.00
366.91	0.00
367.11	0.00
367.31	0.00
367.51	0.00
367.70	0.00
367.90	0.00
368.10	0.00
368.30	0.00
368.49	0.00
368.69	0.00
368.89	0.00
369.09	0.00
369.28	0.00
369.48	0.00
369.68	0.00
369.87	0.00
370.07	0.00
370.27	0.00
370.47	608.54
370.66	2928.01
370.86	3370.37
371.06	3918.06
371.25	3786.99
371.45	3515.48
371.65	3145.68
371.84	3002.91
372.04	2920.99
372.24	3461.65
372.44	3564.64
372.63	3529.53
372.83	3180.79
373.03	3023.97
373.22	2712.68
373.42	2808.64
373.62	3318.88
373.81	3545.91
374.01	3513.14
374.21	3251.00
374.40	2843.75
374.60	3059.08
374.79	3461.65
374.99	4063.17
375.19	4383.82
375.38	4365.10
375.58	4152.11
375.78	4021.04
375.97	4109.98
376.17	4479.79
376.37	4308.93
376.56	4463.40
376.76	4636.60
376.95	4847.25
377.15	5191.31
377.35	5334.08
377.54	5579.84
377.74	5675.80
377.93	5851.34
378.13	5600.90
378.33	5507.28
378.52	4966.62
378.72	4655.33
378.91	4734.90
379.11	4786.40
379.31	4479.79
379.50	4416.59
379.70	4807.46
379.89	5139.82
380.09	5563.45
380.28	5757.72
380.48	5741.33
380.68	5657.07
380.87	5451.11
381.07	5025.13
381.26	4685.75
381.46	4454.04
381.65	4278.50
381.85	4250.41
382.04	4035.08
382.24	3576.34
382.43	3557.61
382.63	3442.93
382.83	3515.48
383.02	3442.93
383.22	3513.14
383.41	3489.74
383.61	3726.13
383.80	4447.02
384.00	4821.50
384.19	5430.04
384.39	5678.14
384.58	5668.78
384.78	5469.83
384.97	5509.62
385.17	5385.57
385.36	4830.87
385.56	4671.71
385.75	4875.34
385.95	5425.36
386.14	5898.15
386.34	5813.89
386.53	5493.24
386.72	5231.10
386.92	5266.21
387.11	5591.54
387.31	5928.58
387.50	5837.30
387.70	5720.27
387.89	5575.16
388.09	5462.81
388.28	5556.43
388.48	5724.95
388.67	6071.35
388.86	6553.50
389.06	7258.00
389.25	7473.33
389.45	7573.97
389.64	7632.49
389.84	7634.83
390.03	7358.64
390.22	7440.56
390.42	7576.31
390.61	8217.62
390.81	8603.81
391.00	8842.54
391.19	8798.07
391.39	8636.58
391.58	7864.20
391.78	7496.74
391.97	7288.43
392.16	6876.49
392.36	6167.31
392.55	5062.58
392.75	3758.90
392.94	3304.84
393.13	3332.92
393.33	3667.62
393.52	4931.51
393.71	5982.41
393.91	6630.74
394.10	7183.10
394.29	8072.51
394.49	8421.25
394.68	9125.75
394.88	9018.08
395.07	9605.56
395.26	9472.15
395.46	9308.31
395.65	8617.85
395.84	7564.61
396.04	6410.73
396.23	5275.57
396.42	4203.60
396.62	4093.60
396.81	4997.04
397.00	6132.20
397.19	7651.21
397.39	9404.27
397.58	10487.94
397.77	10984.13
397.97	11585.65
398.16	11892.26
398.35	11920.35
398.55	12521.87
398.74	12879.97
398.93	13046.15
399.12	13071.89
399.32	12603.78
399.51	12856.56
399.70	13600.85
399.90	13479.15
400.09	13589.15
400.28	13509.57
400.47	13427.65
400.67	14300.67
400.86	14684.52
401.05	14569.83
401.24	14593.24
401.44	14906.87
401.63	14984.11
401.82	14927.94
402.01	14857.72
402.21	14941.98
402.40	15117.52
402.59	14647.07
402.78	14141.52
402.97	13624.26
403.17	14232.80
403.36	14843.68
403.55	15517.75
403.74	15927.35
403.93	15412.43
404.13	14068.96
404.32	13547.02
404.51	14476.21
404.70	15255.61
404.89	15262.63
405.09	15281.36
405.28	15080.07
405.47	14721.97
405.66	14642.39
405.85	14626.01
406.05	13848.95
406.24	14066.62
406.43	14743.03
406.62	15379.66
406.81	15183.06
407.00	14766.44
407.20	14452.81
407.39	14700.90
407.58	15201.78
407.77	15990.54
407.96	16219.91
408.15	16547.59
408.34	16783.98
408.54	17717.86
408.73	17359.75
408.92	17324.65
409.11	16500.78
409.30	16025.65
409.49	15075.39
409.68	14176.62
409.87	13593.83
410.07	14642.39
410.26	15611.37
410.45	16702.06
410.64	17022.72
410.83	17635.94
411.02	17935.53
411.21	18417.68
411.40	18377.89
411.59	18438.74
411.78	18099.36
411.98	18085.32
412.17	18293.63
412.36	18104.04
412.55	18214.05
412.74	17600.83
412.93	17383.16
413.12	17619.55
413.31	19054.30
413.50	19337.51
413.69	19625.39
413.88	19009.83
414.07	18352.14
414.26	18806.20
414.45	19098.77
414.64	19297.72
414.83	19124.52
415.02	19140.90
415.22	19084.73
415.41	19332.82
415.60	20517.14
415.79	20805.02
415.98	21308.24
416.17	21469.73
416.36	20664.59
416.55	20493.73
416.74	19751.78
416.93	19236.86
417.12	19190.05
417.31	19442.83
417.50	20004.56
417.69	20238.61
417.88	20280.74
418.07	20168.40
418.26	19992.86
418.45	19985.83
418.64	20746.51
418.83	21181.85
419.02	21202.91
419.21	21034.39
419.39	20212.87
419.58	19201.76
419.77	19239.20
419.96	20081.80
420.15	21207.59
420.34	21811.45
420.53	22625.96
420.72	22941.93
420.91	22831.93
421.10	22321.69
421.29	21991.67
421.48	21387.82
421.67	22544.04
421.86	22047.85
422.05	20704.38
422.24	18436.40
422.43	17984.68
422.61	20231.59
422.80	21921.46
422.99	21905.07
423.18	21170.15
423.37	20577.99
423.56	20753.53
423.75	20870.56
423.94	21612.51
424.13	20173.08
424.32	20224.57
424.50	20467.98
424.69	20049.03
424.88	20315.85
425.07	20166.06
425.26	20177.76
425.45	19995.20
425.64	19740.08
425.83	19662.84
426.01	21013.33
426.20	21179.51
426.39	21151.42
426.58	19594.96
426.77	18181.28
426.96	17366.78
427.15	18204.69
427.33	19981.15
427.52	20435.22
427.71	20554.58
427.90	20287.76
428.09	20025.62
428.28	19711.99
428.46	18970.04
428.65	18640.03
428.84	19208.78
429.03	19655.82
429.22	18572.15
429.40	17500.19
429.59	16091.18
429.78	14066.62
429.97	14134.50
430.16	14122.79
430.34	14895.17
430.53	14253.86
430.72	14611.96
430.91	16453.97
431.10	19112.81
431.28	22265.52
431.47	24308.80
431.66	24355.61
431.85	22237.43
432.03	20489.05
432.22	19751.78
432.41	20262.02
432.60	22831.93
432.79	23697.92
432.97	24063.05
433.16	23316.42
433.35	21596.12
433.54	19501.34
433.72	18300.65
433.91	18890.46
434.10	21001.63
434.28	22700.86
434.47	23852.40
434.66	23117.47
434.85	22838.95
435.03	22522.98
435.22	23372.59
435.41	24451.58
435.59	24563.92
435.78	24903.30
435.97	25652.27
436.16	25954.20
436.34	25308.21
436.53	24737.12
436.72	25139.69
436.90	23543.45
437.09	23524.72
437.28	23222.80
437.46	23814.95
437.65	23590.26
437.84	21998.70
438.02	20432.88
438.21	20229.25
438.40	21591.44
438.58	23026.19
438.77	24105.18
438.96	24046.66
439.14	24994.58
439.33	25809.09
439.52	26089.95
439.70	25305.87
439.89	25282.47
440.08	23974.11
440.26	24177.73
440.45	25247.36
440.63	26359.11
440.82	27878.12
441.01	27583.21
441.19	27000.42
441.38	27424.06
441.57	28959.45
441.75	29142.01
441.94	29191.16
442.12	29214.57
442.31	29717.78
442.50	29668.63
442.68	29369.04
442.87	28957.11
443.05	28528.79
443.24	29317.55
443.43	29692.04
443.61	30321.64
443.80	30335.68
443.98	29050.73
444.17	28538.15
444.35	30471.43
444.54	31332.75
444.73	30618.89
444.91	29235.63
445.10	28142.60
445.28	27061.27
445.47	26780.41
445.65	26511.25
445.84	27480.23
446.02	28414.10
446.21	29062.43
446.39	28903.28
446.58	29188.82
446.77	29867.58
446.95	30221.00
447.14	30993.37
447.32	31084.65
447.51	30380.15
447.69	29443.94
447.88	29090.52
448.06	29654.59
448.25	30246.74
448.43	30298.23
448.62	29802.04
448.80	29553.94
448.99	29956.52
449.17	30127.38
449.36	30293.55
449.54	31363.18
449.73	31723.62
449.91	32273.65
450.10	33399.44
450.28	33654.56
450.46	33427.53
450.65	33205.18
450.83	32774.52
451.02	32479.61
451.20	32093.43
451.39	32201.09
451.57	31798.52
451.76	31798.52
451.94	31438.08
452.13	31225.09
452.31	29567.99
452.49	28458.57
452.68	29078.82
452.86	28933.70
453.05	29633.52
453.23	30368.45
453.42	30651.66
453.60	31555.10
453.78	31543.40
453.97	31351.48
454.15	31580.85
454.34	30455.05
454.52	30754.64
454.70	30319.30
454.89	30448.03
455.07	30558.03
455.26	31377.22
455.44	32535.79
455.62	32877.51
455.81	33212.20
455.99	32870.48
456.17	32596.64
456.36	32416.42
456.54	33858.19
456.73	33251.99
456.91	34232.68
457.09	34174.16
457.28	34801.43
457.46	33474.34
457.64	33092.83
457.83	32271.31
458.01	31496.59
458.19	32594.30
458.38	32627.07
458.56	33804.36
458.74	33567.96
458.93	32769.84
459.11	32954.74
459.29	32683.24
459.48	32959.42
459.66	32905.59
459.84	32772.18
460.03	33610.09
460.21	33010.92
460.39	34003.30
460.57	34520.56
460.76	34614.18
460.94	34724.19
461.12	34251.40
461.31	34389.49
461.49	34160.12
461.67	34085.22
461.85	35332.73
462.04	35309.32
462.22	35782.11
462.40	35522.31
462.59	34890.37
462.77	34808.45
462.95	35063.57
463.13	34665.67
463.32	34752.27
463.50	33986.92
463.68	33933.09
463.86	34719.51
464.05	33853.51
464.23	33462.64
464.41	33235.61
464.59	32519.40
464.78	34164.80
464.96	33905.00
465.14	33418.17
465.32	34522.90
465.50	35356.13
465.69	36137.87
465.87	34782.70
466.05	34237.36
466.23	32250.24
466.41	31660.43
466.60	32641.11
466.78	32418.76
466.96	33081.13
467.14	33919.04
467.32	34162.46
467.51	34630.57
467.69	32697.28
467.87	33542.22
468.05	33586.69
468.23	34188.21
468.41	34061.82
468.60	34349.70
468.78	34206.93
468.96	34094.58
469.14	34593.12
469.32	34567.37
469.50	33039.00
469.69	33970.54
469.87	32783.88
470.05	33174.75
470.23	32992.19
470.41	33088.15
470.59	33848.83
470.77	33825.42
470.95	34092.24
471.14	34485.45
471.32	34995.69
471.50	36774.50
471.68	36758.11
471.86	37343.25
472.04	37125.58
472.22	36978.12
472.40	35543.38
472.58	35299.96
472.77	34838.87
472.95	35786.79
473.13	36926.63
473.31	35498.91
473.49	35627.63
473.67	36512.36
473.85	36825.99
474.03	37481.34
474.21	37951.79
474.39	38148.39
474.57	38335.63
474.75	38132.01
474.93	37883.91
475.12	37188.77
475.30	37029.62
475.48	37186.43
475.66	38335.63
475.84	37530.49
476.02	37361.97
476.20	36692.58
476.38	37511.77
476.56	38363.72
476.74	38742.89
476.92	39201.63
477.10	40072.31
477.28	40498.29
477.46	40617.66
477.64	41074.06
477.82	41289.39
478.00	41364.29
478.18	40751.07
478.36	40289.98
478.54	40575.53
478.72	40978.10
478.90	41778.56
479.08	42937.13
479.26	43693.12
479.44	43040.11
479.62	43239.06
479.80	43391.19
479.98	43363.11
480.16	43964.62
480.34	43475.45
480.52	43480.13
480.70	43894.41
480.88	43772.70
481.06	44992.12
481.24	44446.77
481.41	46024.29
481.59	46443.25
481.77	46108.55
481.95	45551.51
482.13	45139.57
482.31	45446.18
482.49	45975.14
482.67	46131.96
482.85	46012.59
483.03	46857.52
483.21	47278.82
483.39	46784.97
483.57	46450.27
483.74	46014.93
483.92	46471.34
484.10	46497.08
484.28	47990.34
484.46	48175.25
484.64	48179.93
484.82	47147.75
485.00	46934.76
485.18	46368.35
485.35	45151.27
485.53	41759.84
485.71	38417.55
485.89	37479.00
486.07	39686.12
486.25	43178.20
486.43	45247.24
486.61	46075.79
486.78	45935.35
486.96	46134.30
487.14	47576.07
487.32	48531.01
487.50	49539.78
487.68	50419.82
487.85	51000.27
488.03	50850.48
488.21	50660.90
488.39	49724.68
488.57	49036.56
488.75	48755.70
488.92	49677.87
489.10	52339.06
489.28	53624.01
489.46	53818.28
489.64	53769.13
489.81	54288.73
489.99	53516.35
490.17	53418.05
490.35	54014.88
490.53	53535.07
490.70	53041.22
490.88	52851.64
491.06	53970.41
491.24	53963.39
491.41	52865.68
491.59	51231.99
491.77	50693.66
491.95	51672.01
492.13	52877.38
492.30	54344.90
492.48	55124.30
492.66	55688.37
492.84	55400.48
493.01	55110.25
493.19	54681.94
493.37	54504.06
493.54	54188.08
493.72	54801.30
493.90	55505.80
494.08	56329.67
494.25	56650.33
494.43	56928.85
494.61	57116.09
494.79	57474.20
494.96	57055.24
495.14	56465.42
495.32	55519.85
495.49	54958.12
495.67	56158.81
495.85	57148.86
496.02	57546.75
496.20	57401.64
496.38	57144.18
496.55	56938.21
496.73	57633.35
496.91	57443.77
497.09	57961.03
497.26	58281.68
497.44	57764.42
497.62	57308.02
497.79	56598.83
497.97	55299.84
498.14	55578.36
498.32	56472.45
498.50	57521.01
498.67	58141.25
498.85	57635.69
499.03	57982.09
499.20	58253.59
499.38	58176.36
499.56	58124.86
499.73	57502.28
499.91	57123.11
500.08	56966.30
500.26	55873.27
500.44	56554.36
500.61	57249.50
500.79	57038.86
500.97	56669.05
501.14	56591.81
501.32	56549.68
501.49	56222.01
501.67	56718.20
501.84	57190.99
502.02	57214.40
502.20	57682.50
502.37	57755.06
502.55	57696.55
502.72	58550.84
502.90	58836.39
503.07	58595.31
503.25	58117.84
503.43	57354.83
503.60	56369.46
503.78	56037.11
503.95	56629.26
504.13	57918.90
504.30	58745.11
504.48	58412.75
504.65	58166.99
504.83	58000.82
505.01	58789.58
505.18	59079.80
505.36	59870.90
505.53	59817.07
505.71	59718.77
505.88	59971.55
506.06	59292.79
506.23	58859.79
506.41	58738.08
506.58	58817.66
506.76	58890.22
506.93	58707.66
507.11	58667.87
507.28	58717.02
507.46	58384.66
507.63	57900.17
507.81	57631.01
507.98	57813.57
508.16	58548.50
508.33	58974.48
508.50	59430.88
508.68	59475.35
508.85	60238.37
509.03	60055.81
509.20	60030.06
509.38	59348.96
509.55	58541.48
509.73	58328.49
509.90	59178.10
510.08	59262.36
510.25	59377.05
510.42	59068.10
510.60	58871.49
510.77	59278.75
510.95	59955.16
511.12	59877.93
511.30	60322.63
511.47	60402.21
511.64	60420.93
511.82	60030.06
511.99	59318.54
512.17	58930.01
512.34	58712.34
512.51	58527.44
512.69	58988.52
512.86	58925.33
513.04	59267.05
513.21	59412.16
513.38	59119.59
513.56	58700.64
513.73	58047.63
513.90	58298.06
514.08	58192.74
514.25	58611.70
514.43	58639.78
514.60	58876.18
514.77	58983.84
514.95	59278.75
515.12	58915.96
515.29	59313.86
515.47	59655.57
515.64	59861.54
515.81	59367.69
515.99	59000.22
516.16	57722.29
516.33	55510.49
516.51	54155.32
516.68	53099.73
516.85	52692.48
517.03	53368.90
517.20	55903.70
517.37	58227.85
517.54	59180.45
517.72	58653.82
517.89	56067.53
518.06	53996.16
518.24	54328.52
518.41	56383.51
518.58	57705.91
518.75	57741.02
518.93	58099.12
519.10	58033.58
519.27	58206.78
519.45	58782.55
519.62	59348.96
519.79	59737.49
519.96	59229.60
520.14	58939.37
520.31	58033.58
520.48	58169.33
520.65	58569.57
520.83	59573.66
521.00	59896.65
521.17	59491.74
521.34	59047.04
521.52	59428.54
521.69	59999.63
521.86	60243.05
522.03	59973.89
522.20	58798.94
522.38	57939.96
522.55	57872.09
522.72	58511.05
522.89	58667.87
523.07	58745.11
523.24	59143.00
523.41	59760.90
523.58	60383.48
523.75	60516.89
523.92	60554.34
524.10	60465.40
524.27	60449.02
524.44	60044.10
524.61	59973.89
524.78	59875.58
524.96	59772.60
525.13	59997.29
525.30	60114.32
525.47	60472.42
525.64	60467.74
525.81	59686.00
525.98	58424.45
526.16	57116.09
526.33	56264.14
526.50	56002.00
526.67	55641.56
526.84	56310.95
527.01	57396.96
527.18	58232.53
527.36	59077.46
527.53	59810.05
527.70	60142.41
527.87	59494.08
528.04	58988.52
528.21	59697.70
528.38	60074.53
528.55	60697.11
528.72	60748.60
528.89	61106.71
529.07	60795.42
529.24	60233.69
529.41	59597.06
529.58	58965.12
529.75	58993.20
529.92	59451.95
530.09	59950.48
530.26	60364.76
530.43	60720.52
530.60	60587.11
530.77	60975.64
530.94	61125.43
531.11	60720.52
531.28	60207.94
531.46	59842.82
531.63	60097.94
531.80	60072.19
531.97	59779.62
532.14	58962.78
532.31	58127.20
532.48	57303.34
532.65	57537.39
532.82	58202.10
532.99	59147.68
533.16	59503.44
533.33	60046.44
533.50	60023.04
533.67	59201.51
533.84	58759.15
534.01	59140.66
534.18	59344.28
534.35	59498.76
534.52	59175.76
534.69	59730.47
534.86	59908.35
535.03	60193.90
535.20	60397.52
535.37	60750.94
535.54	61160.54
535.71	60619.88
535.88	60453.70
536.05	59749.20
536.22	59306.83
536.38	59086.82
536.55	58665.53
536.72	58251.25
536.89	58064.01
537.06	58880.86
537.23	59877.93
537.40	59990.27
537.57	59873.24
537.74	59793.67
537.91	59398.12
538.08	59421.52
538.25	59337.26
538.42	59835.80
538.59	59653.23
538.75	58972.14
538.92	58630.42
539.09	58705.32
539.26	58473.60
539.43	58202.10
539.60	58227.85
539.77	58536.80
539.94	58492.33
540.11	57764.42
540.28	57162.90
540.44	57312.70
540.61	57521.01
540.78	57769.10
540.95	58454.88
541.12	58553.18
541.29	58901.92
541.46	59044.69
541.62	59189.81
541.79	59002.56
541.96	58506.37
542.13	58454.88
542.30	58852.77
542.47	58869.15
542.63	58719.36
542.80	58478.28
542.97	58485.31
543.14	58468.92
543.31	58288.70
543.48	58962.78
543.64	59650.89
543.81	60121.34
543.98	59744.51
544.15	58838.73
544.32	58670.21
544.48	58614.04
544.65	59185.13
544.82	59084.48
544.99	59192.15
545.16	58784.90
545.32	58475.94
545.49	59288.11
545.66	59615.79
545.83	59269.39
546.00	58920.65
546.16	58473.60
546.33	58567.23
546.50	58712.34
546.67	59138.32
546.83	58665.53
547.00	58642.12
547.17	57970.39
547.34	57525.69
547.50	57394.62
547.67	58014.86
547.84	58064.01
548.00	58515.73
548.17	58913.62
548.34	58848.09
548.51	58782.55
548.67	58707.66
548.84	58960.44
549.01	58822.34
549.18	58576.59
549.34	58515.73
549.51	58543.82
549.68	58618.72
549.84	58351.90
550.01	58300.40
550.18	58042.95
550.34	58047.63
550.51	58166.99
550.68	58291.04
550.84	57752.72
551.01	58073.37
551.18	57897.83
551.34	58094.44
551.51	58419.77
551.68	58742.77
551.84	58536.80
552.01	58300.40
552.18	58309.77
552.34	57495.26
552.51	57347.81
552.68	57293.97
552.84	57829.96
553.01	57998.48
553.18	57689.52
553.34	57928.26
553.51	58152.95
553.67	58309.77
553.84	58464.24
554.01	58681.91
554.17	58117.84
554.34	58131.89
554.51	58335.51
554.67	58859.79
554.84	58511.05
555.00	58096.78
555.17	57961.03
555.33	57797.19
555.50	57984.43
555.67	57860.38
555.83	57647.39
556.00	57406.32
556.16	57485.90
556.33	57106.73
556.50	56949.92
556.66	57062.26
556.83	56779.06
556.99	56933.53
557.16	57062.26
557.32	57207.37
557.49	57769.10
557.65	57200.35
557.82	57368.87
557.98	57368.87
558.15	56825.87
558.32	56034.77
558.48	55435.59
558.65	55409.84
558.81	55760.92
558.98	56009.02
559.14	56437.34
559.31	56339.04
559.47	56315.63
559.64	55877.95
559.80	55650.92
559.97	55824.12
560.13	56065.19
560.30	57165.24
560.46	57565.48
560.63	57722.29
560.79	57549.09
560.96	57319.72
561.12	56460.74
561.29	55313.88
561.45	55407.50
561.61	56109.66
561.78	56706.50
561.94	56292.22
562.11	56186.90
562.27	56126.05
562.44	56477.13
562.60	56647.99
562.77	56933.53
562.93	56767.35
563.10	56797.78
563.26	56203.28
563.42	56266.48
563.59	56062.85
563.75	56116.68
563.92	56013.70
564.08	56034.77
564.24	56172.86
564.41	56413.93
564.57	56130.73
564.74	55814.76
564.90	55983.27
565.07	55760.92
565.23	55276.43
565.39	54836.41
565.56	54754.49
565.72	54447.88
565.88	54869.18
566.05	54841.09
566.21	55358.35
566.38	55091.53
566.54	55224.94
566.70	55632.19
566.87	56252.44
567.03	56053.49
567.19	56315.63
567.36	55913.06
567.52	55842.84
567.68	55451.97
567.85	54845.77
568.01	54766.20
568.17	54199.79
568.34	54354.26
568.50	53846.36
568.66	54363.62
568.83	54738.11
568.99	54726.41
569.15	54962.80
569.32	54944.08
569.48	54211.49
569.64	54431.50
569.81	54049.99
569.97	53869.77
570.13	53844.02
570.30	53326.77
570.46	53235.48
570.62	52425.66
570.78	52449.06
570.95	52795.46
571.11	53413.37
571.27	53476.56
571.43	53759.76
571.60	54389.37
571.76	54241.92
571.92	54326.17
572.09	55145.36
572.25	54698.32
572.41	54555.55
572.57	54387.03
572.74	54515.76
572.90	54260.64
573.06	53942.33
573.22	54202.13
573.38	54181.06
573.55	54120.21
573.71	54466.61
573.87	54365.96
574.03	54007.86
574.20	53860.41
574.36	53338.47
574.52	53553.80
574.68	53200.38
574.84	52743.97
575.01	52413.96
575.17	52540.35
575.33	52694.82
575.49	52992.07
575.65	53183.99
575.82	52978.03
575.98	52781.42
576.14	52952.28
576.30	53268.25
576.46	53205.06
576.62	53017.82
576.79	52994.41
576.95	52828.23
577.11	52451.41
577.27	53214.42
577.43	52566.09
577.59	52552.05
577.75	52240.76
577.92	51407.53
578.08	51274.12
578.24	51194.54
578.40	51770.31
578.56	52119.05
578.72	52048.83
578.88	52413.96
579.04	52603.54
579.21	52589.50
579.37	52559.07
579.53	52502.90
579.69	52694.82
579.85	52776.74
580.01	52458.43
580.17	52196.29
580.33	51943.51
580.49	52058.20
580.65	52463.11
580.82	52521.62
580.98	52479.49
581.14	52388.21
581.30	52486.51
581.46	52500.56
581.62	52685.46
581.78	52500.56
581.94	52982.71
582.10	52664.39
582.26	52636.31
582.42	52624.60
582.58	52853.98
582.74	52547.37
582.90	53144.20
583.06	52692.48
583.22	52306.29
583.38	52399.91
583.54	51992.66
583.70	52343.74
583.86	51920.10
584.02	52207.99
584.18	52507.58
584.34	51997.34
584.50	52027.77
584.66	51765.63
584.82	51681.37
584.98	51339.65
585.14	51203.90
585.30	50506.42
