SpectraSuite Data File
++++++++++++++++++++++++++++++++++++
Date: Mon Oct 07 14:53:32 GMT-05:00 2013
User: price-jones
Dark Spectrum Present: No
Reference Spectrum Present: No
Number of Sampled Component Spectra: 1
Spectrometers: USB2+H05261
Integration Time (usec): 100000 (USB2+H05261)
Spectra Averaged: 1 (USB2+H05261)
Boxcar Smoothing: 0 (USB2+H05261)
Correct for Electrical Dark: No (USB2+H05261)
Strobe/Lamp Enabled: No (USB2+H05261)
Correct for Detector Non-linearity: No (USB2+H05261)
Correct for Stray Light: No (USB2+H05261)
Number of Pixels in Processed Spectrum: 2048
>>>>>Begin Processed Spectral Data<<<<<
365.73	0.00
365.92	0.00
366.12	0.00
366.32	0.00
366.52	0.00
366.72	0.00
366.91	0.00
367.11	0.00
367.31	0.00
367.51	0.00
367.70	0.00
367.90	0.00
368.10	0.00
368.30	0.00
368.49	0.00
368.69	0.00
368.89	0.00
369.09	0.00
369.28	0.00
369.48	0.00
369.68	0.00
369.87	0.00
370.07	0.00
370.27	0.00
370.47	751.31
370.66	3295.47
370.86	4032.74
371.06	4138.07
371.25	4325.31
371.45	3955.51
371.65	3637.19
371.84	3297.81
372.04	3368.03
372.24	3892.31
372.44	3955.51
372.63	4070.19
372.83	3730.81
373.03	3267.39
373.22	3021.63
373.42	3295.47
373.62	3613.79
373.81	4119.34
374.01	3929.76
374.21	3524.85
374.40	3428.88
374.60	3431.23
374.79	3871.25
374.99	4622.56
375.19	4863.63
375.38	4957.25
375.58	4678.73
375.78	4477.44
375.97	4674.05
376.17	4966.62
376.37	4802.78
376.56	4950.23
376.76	5287.27
376.95	5540.05
377.15	5884.11
377.35	6258.59
377.54	6382.64
377.74	6434.13
377.93	6558.18
378.13	6455.20
378.33	6246.89
378.52	5631.33
378.72	5465.15
378.91	5392.59
379.11	5135.14
379.31	4908.10
379.50	4887.04
379.70	5465.15
379.89	5853.68
380.09	6225.82
380.28	6361.58
380.48	6628.40
380.68	6331.15
380.87	6186.04
381.07	5748.36
381.26	5373.87
381.46	4844.91
381.65	4753.63
381.85	4762.99
382.04	4484.47
382.24	4166.15
382.43	3960.19
382.63	3988.27
382.83	3922.74
383.02	3868.91
383.22	4009.34
383.41	3960.19
383.61	4374.46
383.80	4788.74
384.00	5432.38
384.19	6293.70
384.39	6494.99
384.58	6335.83
384.78	6099.44
384.97	6237.53
385.17	5942.62
385.36	5813.89
385.56	5266.21
385.75	5486.22
385.95	6029.22
386.14	6621.38
386.34	6492.65
386.53	6153.27
386.72	5928.58
386.92	5867.72
387.11	6340.51
387.31	6511.37
387.50	6576.91
387.70	6146.25
387.89	6394.34
388.09	6434.13
388.28	6363.92
388.48	6356.90
388.67	6829.68
388.86	7531.84
389.06	8212.94
389.25	8552.32
389.45	8568.70
389.64	8528.91
389.84	8449.33
390.03	8395.50
390.22	8362.73
390.42	8695.09
390.61	9181.92
390.81	9830.25
391.00	9947.28
391.19	9844.29
391.39	9607.90
391.58	8954.89
391.78	8709.13
391.97	8196.56
392.16	7548.23
392.36	7068.42
392.55	5540.05
392.75	4463.40
392.94	3648.90
393.13	3531.87
393.33	4163.81
393.52	5296.63
393.71	6656.48
393.91	7702.70
394.10	8255.07
394.29	8924.46
394.49	9621.94
394.68	10574.54
394.88	10340.49
395.07	10995.84
395.26	10909.24
395.46	10431.77
395.65	9764.72
395.84	8631.90
396.04	7276.73
396.23	5966.03
396.42	5074.28
396.62	4922.15
396.81	5425.36
397.00	7133.95
397.19	8793.39
397.39	10429.43
397.58	12044.40
397.77	12519.53
397.97	12915.08
398.16	13156.15
398.35	13626.60
398.55	13919.17
398.74	14310.04
398.93	14956.02
399.12	14450.47
399.32	14193.01
399.51	14569.83
399.70	15447.54
399.90	15166.67
400.09	15269.66
400.28	15124.54
400.47	15332.85
400.67	15850.11
400.86	16535.88
401.05	16549.93
401.24	16760.58
401.44	16720.79
401.63	16893.99
401.82	17121.02
402.01	17055.48
402.21	16870.58
402.40	17139.74
402.59	16886.97
402.78	15723.72
402.97	15482.64
403.17	15983.52
403.36	17085.91
403.55	17701.47
403.74	18178.94
403.93	17226.34
404.13	16030.33
404.32	15337.53
404.51	16147.36
404.70	17813.82
404.89	17392.52
405.09	17289.54
405.28	16482.05
405.47	16786.32
405.66	16428.22
405.85	16088.84
406.05	15712.02
406.24	15866.49
406.43	16659.93
406.62	17472.10
406.81	17284.86
407.00	17060.16
407.20	16383.75
407.39	16505.46
407.58	17326.99
407.77	17930.84
407.96	18391.93
408.15	18778.12
408.34	18946.64
408.54	19791.57
408.73	19770.51
408.92	19365.59
409.11	18583.85
409.30	18094.68
409.49	17006.33
409.68	15946.07
409.87	15461.58
410.07	16367.37
410.26	17708.49
410.45	18843.65
410.64	19344.53
410.83	19601.99
411.02	20266.70
411.21	21259.09
411.40	20795.66
411.59	20751.19
411.78	20456.28
411.98	20402.45
412.17	20706.72
412.36	20362.66
412.55	20224.57
412.74	19695.61
412.93	19197.07
413.12	19866.47
413.31	21720.17
413.50	21624.21
413.69	22445.74
413.88	21359.73
414.07	20830.77
414.26	20849.49
414.45	21530.59
414.64	22087.64
414.83	21642.93
415.02	21291.85
415.22	21266.11
415.41	21614.85
415.60	22735.96
415.79	23517.70
415.98	24051.34
416.17	23962.40
416.36	23477.91
416.55	22885.76
416.74	22057.21
416.93	21565.70
417.12	21434.63
417.31	22178.92
417.50	22480.85
417.69	23164.28
417.88	22939.59
418.07	22602.55
418.26	22544.04
418.45	22679.79
418.64	23152.58
418.83	24449.24
419.02	23838.36
419.21	23838.36
419.39	22719.58
419.58	21624.21
419.77	21546.97
419.96	22436.38
420.15	23749.42
420.34	24854.15
420.53	25139.69
420.72	25783.34
420.91	25661.63
421.10	25429.92
421.29	25539.93
421.48	24109.86
421.67	25294.17
421.86	24542.86
422.05	23222.80
422.24	20840.13
422.43	20301.81
422.61	22623.62
422.80	24112.20
422.99	24664.57
423.18	23728.35
423.37	23110.45
423.56	23140.88
423.75	23690.90
423.94	23880.49
424.13	22724.26
424.32	23164.28
424.50	22991.08
424.69	22705.54
424.88	23070.66
425.07	23213.43
425.26	22824.90
425.45	23073.00
425.64	22448.08
425.83	22398.93
426.01	23288.33
426.20	24390.72
426.39	23927.30
426.58	22256.15
426.77	20676.29
426.96	19728.38
427.15	20421.17
427.33	22160.19
427.52	23363.23
427.71	23012.15
427.90	23147.90
428.09	22590.85
428.28	22616.60
428.46	21851.24
428.65	21186.53
428.84	21724.85
429.03	22192.96
429.22	21125.68
429.40	19929.66
429.59	18174.26
429.78	15971.82
429.97	15864.15
430.16	16189.49
430.34	16489.07
430.53	16184.80
430.72	16573.33
430.91	18209.37
431.10	21752.94
431.28	25366.73
431.47	27508.32
431.66	27660.45
431.85	25355.02
432.03	23332.80
432.22	22141.47
432.41	22939.59
432.60	25687.38
432.79	26230.38
432.97	27246.18
433.16	26551.04
433.35	24460.94
433.54	22052.53
433.72	20877.58
433.91	21025.03
434.10	23737.71
434.28	25343.32
434.47	26960.63
434.66	26384.86
434.85	25422.90
435.03	25483.75
435.22	26302.94
435.41	27789.18
435.59	27604.28
435.78	28194.09
435.97	28697.31
436.16	29151.37
436.34	28638.80
436.53	27840.67
436.72	28198.77
436.90	26527.63
437.09	26635.30
437.28	26288.90
437.46	26925.52
437.65	26885.73
437.84	25151.40
438.02	23363.23
438.21	22764.05
438.40	24362.64
438.58	26019.74
438.77	26693.81
438.96	26735.94
439.14	28224.52
439.33	28989.88
439.52	29376.06
439.70	28629.43
439.89	28458.57
440.08	27061.27
440.26	27358.52
440.45	28570.92
440.63	30085.25
440.82	31798.52
441.01	30515.90
441.19	31117.42
441.38	31082.31
441.57	32425.78
441.75	33212.20
441.94	33127.94
442.12	32315.78
442.31	33558.60
442.50	33202.84
442.68	32936.02
442.87	32535.79
443.05	32371.95
443.24	32290.03
443.43	33137.30
443.61	33991.60
443.80	34525.24
443.98	32701.96
444.17	32243.22
444.35	34054.79
444.54	34572.05
444.73	34462.05
444.91	32919.63
445.10	31674.47
445.28	30754.64
445.47	29670.97
445.65	30312.28
445.84	30937.20
446.02	32194.07
446.21	32737.07
446.39	32865.80
446.58	33132.62
446.77	33624.14
446.95	33383.06
447.14	34967.60
447.32	35363.15
447.51	34581.42
447.69	33303.48
447.88	32940.70
448.06	33448.60
448.25	34345.02
448.43	34546.31
448.62	33755.21
448.80	33057.73
448.99	33680.31
449.17	33914.36
449.36	34295.87
449.54	35171.23
449.73	35744.66
449.91	36348.52
450.10	37102.17
450.28	37298.78
450.46	37228.56
450.65	37589.00
450.83	37132.60
451.02	36495.97
451.20	36114.47
451.39	36402.35
451.57	35730.62
451.76	35779.77
451.94	35585.50
452.13	35269.53
452.31	33701.37
452.49	32109.81
452.68	32446.85
452.86	32671.54
453.05	32879.85
453.23	34174.16
453.42	34672.70
453.60	35526.99
453.78	35999.78
453.97	35475.50
454.15	35505.93
454.34	34904.41
454.52	34817.81
454.70	34321.62
454.89	34370.77
455.07	34473.75
455.26	35276.55
455.44	36596.62
455.62	37158.34
455.81	37504.74
455.99	36966.42
456.17	36577.89
456.36	37015.57
456.54	37752.84
456.73	37675.60
456.91	38670.33
457.09	38534.58
457.28	39166.52
457.46	38057.11
457.64	37261.33
457.83	36397.67
458.01	35573.80
458.19	36669.17
458.38	36835.35
458.56	37853.48
458.74	38099.24
458.93	36645.77
459.11	37284.73
459.29	36699.60
459.48	37081.11
459.66	36746.41
459.84	37455.59
460.03	37516.45
460.21	37195.79
460.39	38195.20
460.57	38450.32
460.76	39016.73
460.94	38761.61
461.12	38450.32
461.31	38916.09
461.49	38806.08
461.67	38389.47
461.85	39658.04
462.04	39131.42
462.22	39882.73
462.40	39344.41
462.59	39108.01
462.77	39615.91
462.95	39388.88
463.13	39070.56
463.32	38333.29
463.50	38291.16
463.68	38602.46
463.86	38206.90
464.05	37993.92
464.23	36980.46
464.41	37242.60
464.59	36395.33
464.78	38705.44
464.96	38141.37
465.14	37750.50
465.32	38630.54
465.50	39746.98
465.69	39435.69
465.87	39220.36
466.05	38197.54
466.23	36175.32
466.41	35531.67
466.60	36582.57
466.78	36547.47
466.96	37343.25
467.14	37954.13
467.32	38810.76
467.51	38639.90
467.69	36708.96
467.87	37654.54
468.05	38480.75
468.23	38330.95
468.41	38066.47
468.60	38675.01
468.78	38733.53
468.96	37996.26
469.14	38646.93
469.32	38876.30
469.50	37392.40
469.69	37469.64
469.87	37160.69
470.05	36966.42
470.23	36924.29
470.41	37165.37
470.59	37460.27
470.77	37949.45
470.95	38342.66
471.14	39040.14
471.32	39260.15
471.50	41024.91
471.68	41106.83
471.86	41984.53
472.04	41610.04
472.22	42014.96
472.40	39552.71
472.58	39599.52
472.77	39335.04
472.95	40009.12
473.13	41125.55
473.31	39763.36
473.49	40105.08
473.67	41127.89
473.85	41228.54
474.03	41986.87
474.21	41993.89
474.39	42803.72
474.57	42808.40
474.75	43077.56
474.93	42387.10
475.12	41247.26
475.30	41773.88
475.48	41930.70
475.66	42415.19
475.84	41886.23
476.02	41986.87
476.20	41151.30
476.38	41511.74
476.56	43040.11
476.74	43227.35
476.92	43828.87
477.10	44315.70
477.28	45607.68
477.46	45319.79
477.64	45930.67
477.82	45801.94
478.00	45965.78
478.18	45343.20
478.36	45064.67
478.54	45223.83
478.72	45612.36
478.90	46480.70
479.08	47456.70
479.26	48076.94
479.44	48069.92
479.62	47536.28
479.80	47681.39
479.98	48198.65
480.16	48156.52
480.34	47842.89
480.52	48336.74
480.70	48589.52
480.88	48416.32
481.06	49289.34
481.24	49406.37
481.41	50197.47
481.59	50557.91
481.77	50237.26
481.95	50134.28
482.13	49654.47
482.31	49659.15
482.49	50658.56
482.67	50267.69
482.85	50527.48
483.03	51023.68
483.21	51374.76
483.39	51283.48
483.57	50445.57
483.74	50607.06
483.92	50597.70
484.10	50848.14
484.28	51842.87
484.46	51831.16
484.64	52451.41
484.82	51531.57
485.00	51295.18
485.18	50333.22
485.35	49457.86
485.53	46490.06
485.71	42899.68
485.89	41752.82
486.07	44210.38
486.25	47157.11
486.43	49457.86
486.61	50380.03
486.78	50279.39
486.96	50387.05
487.14	51971.60
487.32	52486.51
487.50	53333.79
487.68	53886.15
487.85	54548.53
488.03	54415.11
488.21	54255.96
488.39	53502.31
488.57	53104.41
488.75	52861.00
488.92	53682.53
489.10	55337.29
489.28	56622.24
489.46	57277.59
489.64	57055.24
489.81	57343.12
489.99	56952.26
490.17	57209.71
490.35	57223.76
490.53	56868.00
490.70	56491.17
490.88	56413.93
491.06	57408.66
491.24	57387.60
491.41	56442.02
491.59	55000.25
491.77	54251.28
491.95	55267.07
492.13	56142.43
492.30	57392.28
492.48	58035.92
492.66	58405.73
492.84	58616.38
493.01	58291.04
493.19	57670.80
493.37	57586.54
493.54	57357.17
493.72	57773.78
493.90	58724.04
494.08	59482.37
494.25	59742.17
494.43	59721.11
494.61	60193.90
494.79	60355.39
494.96	60086.23
495.14	59309.18
495.32	58925.33
495.49	58148.27
495.67	59175.76
495.85	60135.38
496.02	60523.91
496.20	60530.93
496.38	60083.89
496.55	59777.28
496.73	60196.24
496.91	60395.18
497.09	60956.91
497.26	61099.68
497.44	60659.66
497.62	60306.24
497.79	59358.33
497.97	58548.50
498.14	58595.31
498.32	59552.59
498.50	60296.88
498.67	60905.42
498.85	60739.24
499.03	60851.59
499.20	61097.34
499.38	60954.57
499.56	60825.84
499.73	60645.62
499.91	60104.96
500.08	59821.75
500.26	59227.26
500.44	59716.43
500.61	60147.09
500.79	59927.08
500.97	59501.10
501.14	59496.42
501.32	59332.58
501.49	59407.48
501.67	59552.59
501.84	59934.10
502.02	60245.39
502.20	60739.24
502.37	60823.50
502.55	60802.44
502.72	61315.01
502.90	61759.72
503.07	61305.65
503.25	61015.43
503.43	60385.82
503.60	59854.52
503.78	59206.19
503.95	59444.93
504.13	60832.86
504.30	61661.41
504.48	61441.40
504.65	60903.08
504.83	61099.68
505.01	61446.08
505.18	61975.05
505.36	62560.18
505.53	62553.16
505.71	62614.01
505.88	62859.77
506.06	62148.24
506.23	61881.42
506.41	61525.66
506.58	61649.71
506.76	61673.12
506.93	61731.63
507.11	61511.62
507.28	61605.24
507.46	61226.07
507.63	60589.45
507.81	60493.49
507.98	60795.42
508.16	61141.81
508.33	61986.75
508.50	62230.16
508.68	62382.30
508.85	62756.78
509.03	62890.19
509.20	62724.02
509.38	62080.37
509.55	61389.91
509.73	61577.15
509.90	62045.26
510.08	62078.03
510.25	61993.77
510.42	61949.30
510.60	61825.25
510.77	62082.71
510.95	62518.05
511.12	62595.29
511.30	63049.35
511.47	63194.46
511.64	63166.38
511.82	62756.78
511.99	62085.05
512.17	61808.87
512.34	61331.40
512.51	61570.13
512.69	61771.42
512.86	61792.48
513.04	62096.75
513.21	62363.57
513.38	61811.21
513.56	61340.76
513.73	60842.23
513.90	61263.52
514.08	61069.26
514.25	61736.31
514.43	61708.22
514.60	61656.73
514.77	61874.40
514.95	61895.47
515.12	61687.16
515.29	61799.50
515.47	62454.86
515.64	62698.27
515.81	62354.21
515.99	61904.83
516.16	60535.62
516.33	58485.31
516.51	57125.46
516.68	56577.77
516.85	56140.09
517.03	56526.28
517.20	58951.07
517.37	61092.66
517.54	62003.13
517.72	61499.92
517.89	59496.42
518.06	57188.65
518.24	57343.12
518.41	59744.51
518.58	60552.00
518.75	60828.18
518.93	61202.67
519.10	60985.00
519.27	61385.23
519.45	61537.36
519.62	62169.31
519.79	62522.73
519.96	62344.85
520.14	61799.50
520.31	61139.47
520.48	61050.53
520.65	61572.47
520.83	62164.63
521.00	62709.97
521.17	62316.76
521.34	61935.26
521.52	62220.80
521.69	62691.25
521.86	63114.89
522.03	62871.47
522.20	61677.80
522.38	60729.88
522.55	60640.94
522.72	61350.12
522.89	61647.37
523.07	61797.16
523.24	61918.87
523.41	62672.52
523.58	63037.65
523.75	63238.93
523.92	63121.91
524.10	63222.55
524.27	63061.05
524.44	63035.31
524.61	62808.28
524.78	62756.78
524.96	62557.84
525.13	62529.75
525.30	62883.17
525.47	63405.11
525.64	63063.39
525.81	62482.94
525.98	61190.97
526.16	59990.27
526.33	59374.71
526.50	59035.33
526.67	58922.99
526.84	59325.56
527.01	60303.90
527.18	60865.63
527.36	61621.62
527.53	62403.36
527.70	62663.16
527.87	62321.44
528.04	61698.86
528.21	62026.54
528.38	62761.47
528.55	63217.87
528.72	63484.69
528.89	63875.56
529.07	63587.67
529.24	62944.03
529.41	62344.85
529.58	61818.23
529.75	61829.93
529.92	62204.42
530.09	62693.59
530.26	63178.08
530.43	63524.48
530.60	63494.05
530.77	63693.00
530.94	63678.96
531.11	63400.43
531.28	62845.72
531.46	62665.50
531.63	63007.22
531.80	62852.75
531.97	62485.28
532.14	61804.19
532.31	60905.42
532.48	60123.68
532.65	60238.37
532.82	60975.64
532.99	62063.99
533.16	62548.48
533.33	62932.32
533.50	62726.36
533.67	61984.41
533.84	61691.84
534.01	62068.67
534.18	61982.07
534.35	62361.23
534.52	62019.52
534.69	62513.37
534.86	62522.73
535.03	62803.59
535.20	63304.47
535.37	63587.67
535.54	63742.15
535.71	63344.26
535.88	62965.09
536.05	62419.75
536.22	62099.09
536.38	61820.57
536.55	61682.48
536.72	60837.54
536.89	60781.37
537.06	61886.10
537.23	62384.64
537.40	62679.55
537.57	62625.71
537.74	62344.85
537.91	62358.89
538.08	62129.52
538.25	62408.04
538.42	62632.74
538.59	62569.54
538.75	61846.32
538.92	61443.74
539.09	61535.02
539.26	61410.98
539.43	61216.71
539.60	61064.58
539.77	61586.52
539.94	61333.74
540.11	60762.65
540.28	60217.30
540.44	60119.00
540.61	60353.05
540.78	60718.18
540.95	61059.90
541.12	61467.15
541.29	61623.96
541.46	61755.03
541.62	62066.33
541.79	61902.49
541.96	61179.26
542.13	61240.12
542.30	61441.40
542.47	61722.27
542.63	61441.40
542.80	61303.31
542.97	61418.00
543.14	61109.05
543.31	61249.48
543.48	61607.58
543.64	62457.20
543.81	62724.02
543.98	62550.82
544.15	61881.42
544.32	61366.51
544.48	61394.59
544.65	62047.60
544.82	62136.54
544.99	61792.48
545.16	61698.86
545.32	61216.71
545.49	62026.54
545.66	62412.73
545.83	62017.17
546.00	61848.66
546.16	61322.04
546.33	61268.20
546.50	61668.44
546.67	62042.92
546.83	61432.04
547.00	61560.77
547.17	60832.86
547.34	60577.75
547.50	60240.71
547.67	60825.84
547.84	60842.23
548.00	61176.92
548.17	61654.39
548.34	61549.07
548.51	61434.38
548.67	61656.73
548.84	61722.27
549.01	61441.40
549.18	61518.64
549.34	61410.98
549.51	61359.48
549.68	61298.63
549.84	61029.47
550.01	61024.79
550.18	60891.38
550.34	61022.45
550.51	61167.56
550.68	61031.81
550.84	60554.34
551.01	60764.99
551.18	60786.05
551.34	60999.04
551.51	61174.58
551.68	61656.73
551.84	61535.02
552.01	61338.42
552.18	61296.29
552.34	60582.43
552.51	60346.03
552.68	60186.88
552.84	60769.67
553.01	60910.10
553.18	60664.35
553.34	60666.69
553.51	60985.00
553.67	61265.86
553.84	61331.40
554.01	61127.77
554.17	60851.59
554.34	61045.85
554.51	61223.73
554.67	61537.36
554.84	61183.94
555.00	60865.63
555.17	60694.77
555.33	60828.18
555.50	60919.46
555.67	60741.58
555.83	60687.75
556.00	60505.19
556.16	60280.50
556.33	60037.08
556.50	59915.37
556.66	59875.58
556.83	59606.42
556.99	59798.35
557.16	59777.28
557.32	59884.95
557.49	60458.38
557.65	60275.82
557.82	60327.31
557.98	60107.30
558.15	59723.45
558.32	59061.08
558.48	58284.02
558.65	58330.83
558.81	58686.59
558.98	59075.12
559.14	59185.13
559.31	59051.72
559.47	59320.88
559.64	59070.44
559.80	58564.88
559.97	58873.84
560.13	59032.99
560.30	59990.27
560.46	60322.63
560.63	60512.21
560.79	60657.32
560.96	60261.77
561.12	59344.28
561.29	58543.82
561.45	58590.63
561.61	58962.78
561.78	59255.34
561.94	59288.11
562.11	59227.26
562.27	59297.47
562.44	59444.93
562.60	59732.81
562.77	59896.65
562.93	59489.40
563.10	59625.15
563.26	59086.82
563.42	59143.00
563.59	59004.91
563.75	59107.89
563.92	59056.40
564.08	58986.18
564.24	59363.01
564.41	59278.75
564.57	59063.42
564.74	59175.76
564.90	58906.60
565.07	58773.19
565.23	58260.62
565.39	58010.18
565.56	57794.85
565.72	57563.14
565.88	57897.83
566.05	58143.59
566.21	58258.27
566.38	58372.96
566.54	58394.03
566.70	58553.18
566.87	59009.59
567.03	58878.52
567.19	59182.79
567.36	59028.31
567.52	58749.79
567.68	58387.00
567.85	57911.88
568.01	57619.31
568.17	57509.30
568.34	57275.25
568.50	57382.91
568.66	57623.99
568.83	57862.72
568.99	57897.83
569.15	58113.16
569.32	57890.81
569.48	57609.95
569.64	57434.41
569.81	57240.14
569.97	57277.59
570.13	57155.88
570.30	56697.14
570.46	56261.80
570.62	56013.70
570.78	55845.18
570.95	56137.75
571.11	56804.80
571.27	56800.12
571.43	57118.43
571.60	57368.87
571.76	57483.56
571.92	57923.58
572.09	58138.91
572.25	57832.30
572.41	57939.96
572.57	57750.38
572.74	57661.44
572.90	57366.53
573.06	57277.59
573.22	57396.96
573.38	57448.45
573.55	57469.51
573.71	57483.56
573.87	57528.03
574.03	57080.98
574.20	57216.74
574.36	56884.38
574.52	56622.24
574.68	56554.36
574.84	56294.56
575.01	55662.62
575.17	55784.33
575.33	56100.30
575.49	56463.08
575.65	56537.98
575.82	56301.59
575.98	56016.04
576.14	56306.27
576.30	56435.00
576.46	56776.72
576.62	56615.22
576.79	56582.45
576.95	56266.48
577.11	56219.67
577.27	56360.10
577.43	56547.34
577.59	56041.79
577.75	55671.98
577.92	55100.89
578.08	54864.50
578.24	54958.12
578.40	55288.13
578.56	55533.89
578.72	55529.21
578.88	55753.90
579.04	55796.03
579.21	55945.83
579.37	56090.94
579.53	56191.58
579.69	56090.94
579.85	56210.31
580.01	55906.04
580.17	55470.70
580.33	55569.00
580.49	55547.93
580.65	55632.19
580.82	55894.33
580.98	56046.47
581.14	55929.44
581.30	55906.04
581.46	55817.10
581.62	55683.69
581.78	56044.13
581.94	56065.19
582.10	56074.55
582.26	56079.24
582.42	55969.23
582.58	56086.26
582.74	56126.05
582.90	56163.50
583.06	56039.45
583.22	55828.80
583.38	55707.09
583.54	55576.02
583.70	55566.66
583.86	55948.17
584.02	55494.10
584.18	55868.59
584.34	55599.43
584.50	55526.87
584.66	55540.91
584.82	55089.19
584.98	55084.51
585.14	54742.79
