SpectraSuite Data File
++++++++++++++++++++++++++++++++++++
Date: Mon Oct 07 14:53:36 GMT-05:00 2013
User: price-jones
Dark Spectrum Present: No
Reference Spectrum Present: No
Number of Sampled Component Spectra: 1
Spectrometers: USB2+H05261
Integration Time (usec): 100000 (USB2+H05261)
Spectra Averaged: 1 (USB2+H05261)
Boxcar Smoothing: 0 (USB2+H05261)
Correct for Electrical Dark: No (USB2+H05261)
Strobe/Lamp Enabled: No (USB2+H05261)
Correct for Detector Non-linearity: No (USB2+H05261)
Correct for Stray Light: No (USB2+H05261)
Number of Pixels in Processed Spectrum: 2048
>>>>>Begin Processed Spectral Data<<<<<
365.73	0.00
365.92	0.00
366.12	0.00
366.32	0.00
366.52	0.00
366.72	0.00
366.91	0.00
367.11	0.00
367.31	0.00
367.51	0.00
367.70	0.00
367.90	0.00
368.10	0.00
368.30	0.00
368.49	0.00
368.69	0.00
368.89	0.00
369.09	0.00
369.28	0.00
369.48	0.00
369.68	0.00
369.87	0.00
370.07	0.00
370.27	0.00
370.47	755.99
370.66	3913.38
370.86	4479.79
371.06	4971.30
371.25	5046.20
371.45	4493.83
371.65	4037.42
371.84	3770.60
372.04	3894.65
372.24	4430.63
372.44	4585.11
372.63	4578.09
372.83	4383.82
373.03	3726.13
373.22	3414.84
373.42	3709.75
373.62	4273.82
373.81	4470.42
374.01	4524.26
374.21	4180.20
374.40	3805.71
374.60	3983.59
374.79	4526.60
374.99	5135.14
375.19	5619.63
375.38	5736.65
375.58	5263.86
375.78	5137.48
375.97	5270.89
376.17	5357.49
376.37	5451.11
376.56	5666.44
376.76	5809.21
376.95	6303.06
377.15	6553.50
377.35	6937.35
377.54	7386.73
377.74	7550.57
377.93	7494.40
378.13	7391.41
378.33	6937.35
378.52	6436.47
378.72	6188.38
378.91	5891.13
379.11	6015.18
379.31	5720.27
379.50	5521.32
379.70	6078.37
379.89	6785.21
380.09	7208.85
380.28	7335.24
380.48	7330.56
380.68	7152.68
380.87	7012.24
381.07	6541.80
381.26	5921.56
381.46	5682.82
381.65	5380.89
381.85	5350.46
382.04	5039.17
382.24	4788.74
382.43	4440.00
382.63	4538.30
382.83	4461.06
383.02	4454.04
383.22	4379.14
383.41	4507.87
383.61	4660.01
383.80	5437.06
384.00	6143.91
384.19	6942.03
384.39	7307.15
384.58	7360.98
384.78	7049.69
384.97	6902.24
385.17	6574.56
385.36	6312.42
385.56	5959.00
385.75	6317.11
385.95	6785.21
386.14	7538.87
386.34	7414.82
386.53	7225.23
386.72	6757.13
386.92	6766.49
387.11	7122.25
387.31	7473.33
387.50	7503.76
387.70	7133.95
387.89	6881.18
388.09	7232.26
388.28	7293.11
388.48	7353.96
388.67	7803.35
388.86	8573.38
389.06	9067.24
389.25	9582.15
389.45	9715.56
389.64	9631.30
389.84	9561.09
390.03	9198.31
390.22	9350.44
390.42	9769.40
390.61	10190.69
390.81	11000.52
391.00	11330.53
391.19	11365.64
391.39	10904.56
391.58	10289.00
391.78	9266.18
391.97	9116.39
392.16	8781.69
392.36	7871.22
392.55	6555.84
392.75	5088.32
392.94	4140.41
393.13	4177.86
393.33	4873.00
393.52	6171.99
393.71	7456.95
393.91	8418.91
394.10	8968.93
394.29	9984.73
394.49	11005.20
394.68	11840.77
394.88	11908.65
395.07	12301.86
395.26	11948.43
395.46	11805.66
395.65	11297.77
395.84	9664.07
396.04	8379.12
396.23	6712.66
396.42	5654.73
396.62	5123.43
396.81	6349.87
397.00	7861.86
397.19	10040.90
397.39	11744.81
397.58	13486.17
397.77	14104.07
397.97	14885.81
398.16	14867.08
398.35	15564.56
398.55	15751.81
398.74	16493.76
398.93	16762.92
399.12	16411.84
399.32	15880.53
399.51	16442.26
399.70	17209.96
399.90	17090.59
400.09	17027.40
400.28	17013.35
400.47	17137.40
400.67	18284.26
400.86	18633.00
401.05	18408.31
401.24	18483.21
401.44	19082.39
401.63	18817.91
401.82	19246.23
402.01	19077.71
402.21	19515.39
402.40	19370.27
402.59	18876.42
402.78	18153.20
402.97	17575.08
403.17	18029.15
403.36	19014.51
403.55	19852.42
403.74	20383.73
403.93	19145.58
404.13	17984.68
404.32	17181.87
404.51	18111.07
404.70	19742.42
404.89	19697.95
405.09	19414.74
405.28	18867.06
405.47	18824.93
405.66	18525.34
405.85	18356.82
406.05	17919.14
406.24	17975.31
406.43	18586.19
406.62	19613.69
406.81	19609.01
407.00	18581.51
407.20	18401.29
407.39	18637.69
407.58	19419.42
407.77	20189.46
407.96	20964.18
408.15	21284.83
408.34	21191.21
408.54	22153.17
408.73	22141.47
408.92	22022.10
409.11	21146.74
409.30	20570.97
409.49	19124.52
409.68	17958.93
409.87	17474.44
410.07	18548.75
410.26	20088.82
410.45	20940.77
410.64	21563.36
410.83	22274.88
411.02	22988.74
411.21	23838.36
411.40	23613.66
411.59	23475.57
411.78	23145.56
411.98	23016.83
412.17	23491.96
412.36	22838.95
412.55	23000.44
412.74	22909.16
412.93	22075.93
413.12	22539.36
413.31	24065.39
413.50	24491.37
413.69	25015.65
413.88	23960.06
414.07	23494.30
414.26	23431.10
414.45	24315.83
414.64	24613.07
414.83	25116.29
415.02	24397.74
415.22	24287.74
415.41	24629.46
415.60	25259.06
415.79	26321.66
415.98	26752.32
416.17	27175.96
416.36	26728.92
416.55	26115.70
416.74	25287.15
416.93	24357.96
417.12	24603.71
417.31	24982.88
417.50	25078.84
417.69	26120.38
417.88	25921.43
418.07	25493.12
418.26	25303.53
418.45	25792.70
418.64	26492.52
418.83	27257.88
419.02	27412.35
419.21	26459.76
419.39	25944.84
419.58	24364.98
419.77	24690.31
419.96	25305.87
420.15	27068.30
420.34	27431.08
420.53	28767.52
420.72	29177.12
420.91	28678.58
421.10	28952.43
421.29	28203.46
421.48	27552.79
421.67	28652.84
421.86	28081.75
422.05	26118.04
422.24	23442.81
422.43	22913.84
422.61	25612.48
422.80	27410.01
422.99	28004.51
423.18	27021.48
423.37	26352.09
423.56	26291.24
423.75	26803.82
423.94	27044.89
424.13	25727.17
424.32	25909.73
424.50	26312.30
424.69	25692.06
424.88	26270.17
425.07	25802.07
425.26	25724.83
425.45	25544.61
425.64	24727.76
425.83	25003.94
426.01	26630.62
426.20	27529.38
426.39	27428.74
426.58	25619.50
426.77	23557.49
426.96	22391.91
427.15	22998.10
427.33	24919.68
427.52	26031.44
427.71	26239.75
427.90	25893.35
428.09	25942.50
428.28	25238.00
428.46	24521.79
428.65	24081.77
428.84	24177.73
429.03	25144.38
429.22	23735.37
429.40	22354.46
429.59	20287.76
429.78	17617.21
429.97	18010.42
430.16	18284.26
430.34	18537.04
430.53	18345.12
430.72	18670.45
430.91	20727.78
431.10	24051.34
431.28	28615.39
431.47	30515.90
431.66	31501.27
431.85	28573.26
432.03	26366.13
432.22	25160.76
432.41	26054.84
432.60	29113.92
432.79	30340.36
432.97	30827.20
433.16	30293.55
433.35	27627.68
433.54	24872.87
433.72	23248.54
433.91	23831.33
434.10	26623.59
434.28	28739.44
434.47	30242.06
434.66	29530.54
434.85	28744.12
435.03	28943.06
435.22	29376.06
435.41	31489.57
435.59	30909.11
435.78	31894.48
435.97	32694.94
436.16	33151.35
436.34	32488.98
436.53	31562.12
436.72	31578.51
436.90	29757.57
437.09	29979.92
437.28	29193.50
437.46	30555.69
437.65	30349.73
437.84	28449.21
438.02	26302.94
438.21	25411.20
438.40	27222.77
438.58	29610.12
438.77	30202.27
438.96	30902.09
439.14	32081.72
439.33	32734.73
439.52	33237.95
439.70	32538.13
439.89	31850.01
440.08	31047.21
440.26	30389.52
440.45	31761.07
440.63	33500.09
440.82	35576.14
441.01	35082.29
441.19	34733.55
441.38	35204.00
441.57	36879.82
441.75	37446.23
441.94	37163.03
442.12	37041.32
442.31	37933.06
442.50	37481.34
442.68	37237.92
442.87	36821.31
443.05	35981.06
443.24	36732.37
443.43	37645.18
443.61	38391.81
443.80	38916.09
443.98	36545.12
444.17	36589.59
444.35	38295.85
444.54	39173.55
444.73	39072.90
444.91	37626.45
445.10	35892.12
445.28	34459.71
445.47	33893.30
445.65	34061.82
445.84	34859.94
446.02	36229.15
446.21	36210.43
446.39	36996.85
446.58	37085.79
446.77	37717.73
446.95	38129.67
447.14	39550.37
447.32	39449.73
447.51	38955.88
447.69	37331.54
447.88	37102.17
448.06	37645.18
448.25	38632.88
448.43	38831.83
448.62	38171.80
448.80	37738.80
448.99	37769.22
449.17	38164.78
449.36	38178.82
449.54	40011.46
449.73	40055.93
449.91	40755.75
450.10	42029.00
450.28	42637.54
450.46	41689.62
450.65	42164.75
450.83	41827.71
451.02	40840.01
451.20	40573.19
451.39	40767.45
451.57	40596.59
451.76	40685.53
451.94	40556.80
452.13	39372.49
452.31	38293.50
452.49	36598.96
452.68	36332.14
452.86	37090.47
453.05	36699.60
453.23	38284.14
453.42	39194.61
453.60	39620.59
453.78	40524.04
453.97	40023.16
454.15	39983.37
454.34	39388.88
454.52	39721.23
454.70	38637.56
454.89	38862.26
455.07	39288.23
455.26	39674.42
455.44	41518.76
455.62	41818.35
455.81	42401.14
455.99	41944.74
456.17	41464.93
456.36	41193.43
456.54	42354.33
456.73	42752.23
456.91	43234.38
457.09	43395.87
457.28	44198.68
457.46	42288.80
457.64	42588.39
457.83	41226.20
458.01	39763.36
458.19	40769.79
458.38	41223.86
458.56	42230.29
458.74	42323.91
458.93	41808.99
459.11	42026.66
459.29	41130.23
459.48	41310.46
459.66	41380.67
459.84	41867.50
460.03	42270.08
460.21	42120.28
460.39	43194.59
460.57	43412.26
460.76	43545.67
460.94	43753.97
461.12	43199.27
461.31	43381.83
461.49	43498.86
461.67	43023.73
461.85	44432.73
462.04	44495.92
462.22	44659.76
462.40	44697.21
462.59	44231.44
462.77	44308.68
462.95	44264.21
463.13	44046.54
463.32	43454.39
463.50	42689.03
463.68	43175.86
463.86	42836.48
464.05	42550.94
464.23	41963.46
464.41	41593.66
464.59	41223.86
464.78	42682.01
464.96	42967.55
465.14	42644.56
465.32	43529.28
465.50	44479.54
465.69	44865.73
465.87	43999.73
466.05	42820.10
466.23	41088.10
466.41	40369.56
466.60	41280.03
466.78	41380.67
466.96	42820.10
467.14	42691.37
467.32	43428.64
467.51	43515.24
467.69	41181.73
467.87	42281.78
468.05	43075.22
468.23	43007.34
468.41	43070.54
468.60	43086.92
468.78	43648.65
468.96	43056.50
469.14	44098.03
469.32	43866.32
469.50	42122.62
469.69	42288.80
469.87	41876.86
470.05	41603.02
470.23	42178.79
470.41	41654.51
470.59	42609.45
470.77	42747.54
470.95	43491.83
471.14	44053.56
471.32	44058.24
471.50	45923.65
471.68	46412.82
471.86	46508.79
472.04	46663.26
472.22	47332.65
472.40	44858.71
472.58	44779.13
472.77	44030.16
472.95	44676.15
473.13	45418.10
473.31	44706.57
473.49	45057.65
473.67	45818.33
473.85	46183.45
474.03	47129.03
474.21	47075.19
474.39	47620.54
474.57	47730.54
474.75	47899.06
474.93	47751.61
475.12	46707.73
475.30	46220.90
475.48	46799.01
475.66	47203.92
475.84	46663.26
476.02	46848.16
476.20	45986.85
476.38	46841.14
476.56	47667.35
476.74	48453.77
476.92	48729.95
477.10	49275.30
477.28	50323.86
477.46	50342.58
477.64	50859.84
477.82	50756.86
478.00	50916.01
478.18	50129.59
478.36	49921.29
478.54	50347.26
478.72	50136.62
478.90	51562.00
479.08	51945.85
479.26	52760.36
479.44	52502.90
479.62	52399.91
479.80	52051.17
479.98	52514.60
480.16	52526.30
480.34	52296.93
480.52	52743.97
480.70	52528.64
480.88	52844.62
481.06	53504.65
481.24	53638.06
481.41	54356.60
481.59	54752.15
481.77	54677.25
481.95	53942.33
482.13	53694.23
482.31	54078.08
482.49	54695.98
482.67	54347.24
482.85	54560.23
483.03	55058.76
483.21	55334.95
483.39	55405.16
483.57	54782.58
483.74	54623.42
483.92	54911.31
484.10	54756.83
484.28	55494.10
484.46	55849.86
484.64	56217.33
484.82	55662.62
485.00	55213.24
485.18	54813.01
485.35	53893.18
485.53	51341.99
485.71	48025.45
485.89	47065.83
486.07	48921.88
486.25	52184.58
486.43	53710.61
486.61	54670.23
486.78	54653.85
486.96	54646.83
487.14	55725.81
487.32	56224.35
487.50	57193.33
487.68	57581.86
487.85	57925.92
488.03	57911.88
488.21	57743.36
488.39	57085.67
488.57	56860.97
488.75	56425.64
488.92	57088.01
489.10	58908.94
489.28	60018.36
489.46	60566.04
489.64	60392.84
489.81	60444.33
489.99	59992.61
490.17	60193.90
490.35	60697.11
490.53	60271.14
490.70	59938.78
490.88	59807.71
491.06	60465.40
491.24	60577.75
491.41	59707.07
491.59	58450.20
491.77	57815.91
491.95	58700.64
492.13	59669.62
492.30	60479.44
492.48	61373.53
492.66	61890.79
492.84	61729.29
493.01	61443.74
493.19	60947.55
493.37	60736.90
493.54	60701.79
493.72	60954.57
493.90	61787.80
494.08	62679.55
494.25	62656.14
494.43	62822.32
494.61	63201.49
494.79	63501.07
494.96	63241.28
495.14	62475.92
495.32	61907.17
495.49	61352.46
495.67	62190.37
495.85	63227.23
496.02	63702.36
496.20	63494.05
496.38	63283.40
496.55	62995.52
496.73	63597.04
496.91	63290.43
497.09	64090.89
497.26	64076.85
497.44	63690.66
497.62	63313.83
497.79	62747.42
497.97	61743.33
498.14	61787.80
498.32	62550.82
498.50	63360.64
498.67	64069.82
498.85	63896.62
499.03	63852.15
499.20	64111.95
499.38	64196.21
499.56	63983.22
499.73	63669.59
499.91	63468.31
500.08	63002.54
500.26	62457.20
500.44	62637.42
500.61	63173.40
500.79	63196.80
500.97	62693.59
501.14	62557.84
501.32	62574.22
501.49	62590.61
501.67	62604.65
501.84	63255.32
502.02	63393.41
502.20	63814.71
502.37	63868.54
502.55	63913.01
502.72	64147.06
502.90	64643.26
503.07	64549.63
503.25	64182.17
503.43	63341.92
503.60	62838.70
503.78	62253.57
503.95	62759.12
504.13	63707.04
504.30	64636.23
504.48	64388.14
504.65	64118.98
504.83	64067.48
505.01	64661.98
505.18	64863.27
505.36	65518.62
505.53	65535.00
505.71	65535.00
505.88	65535.00
506.06	65417.97
506.23	65144.13
506.41	64629.21
506.58	64891.35
506.76	64830.50
506.93	64786.03
507.11	64507.50
507.28	64711.13
507.46	64285.15
507.63	63765.56
507.81	63690.66
507.98	63943.44
508.16	64397.50
508.33	64870.29
508.50	65134.77
508.68	65448.40
508.85	65535.00
509.03	65535.00
509.20	65535.00
509.38	65289.24
509.55	64236.00
509.73	64570.70
509.90	65134.77
510.08	65045.83
510.25	65066.89
510.42	64795.39
510.60	64849.22
510.77	65249.45
510.95	65535.00
511.12	65535.00
511.30	65535.00
511.47	65535.00
511.64	65535.00
511.82	65535.00
511.99	65226.05
512.17	64980.29
512.34	64493.46
512.51	64807.09
512.69	64928.80
512.86	64926.46
513.04	65305.63
513.21	65151.15
513.38	65003.70
513.56	64423.25
513.73	63997.27
513.90	64224.30
514.08	64133.02
514.25	64521.55
514.43	64666.66
514.60	64811.77
514.77	65055.19
514.95	65045.83
515.12	64776.67
515.29	65055.19
515.47	65483.51
515.64	65535.00
515.81	65324.35
515.99	64928.80
516.16	63657.89
516.33	61797.16
516.51	60434.97
516.68	59941.12
516.85	59370.03
517.03	59901.33
517.20	62141.22
517.37	64179.83
517.54	64942.84
517.72	64699.43
517.89	62712.31
518.06	60650.30
518.24	60800.10
518.41	62717.00
518.58	63723.43
518.75	64015.99
518.93	64154.08
519.10	64069.82
519.27	64308.56
519.45	64547.29
519.62	65375.84
519.79	65523.30
519.96	65307.97
520.14	64919.44
520.31	64203.24
520.48	63969.18
520.65	64474.74
520.83	65434.36
521.00	65535.00
521.17	65467.12
521.34	64886.67
521.52	65214.35
521.69	65535.00
521.86	65535.00
522.03	65535.00
522.20	65015.40
522.38	63784.28
522.55	63814.71
522.72	64425.59
522.89	64676.02
523.07	64795.39
523.24	65083.28
523.41	65535.00
523.58	65535.00
523.75	65535.00
523.92	65535.00
524.10	65535.00
524.27	65535.00
524.44	65535.00
524.61	65535.00
524.78	65535.00
524.96	65535.00
525.13	65535.00
525.30	65535.00
525.47	65535.00
525.64	65535.00
525.81	65535.00
525.98	64484.10
526.16	63166.38
526.33	62698.27
526.50	62262.93
526.67	61977.39
526.84	62726.36
527.01	63358.30
527.18	64088.55
527.36	64711.13
527.53	65535.00
527.70	65535.00
527.87	65298.61
528.04	64926.46
528.21	65396.91
528.38	65535.00
528.55	65535.00
528.72	65535.00
528.89	65535.00
529.07	65535.00
529.24	65535.00
529.41	65446.06
529.58	64987.31
529.75	65041.15
529.92	65464.78
530.09	65535.00
530.26	65535.00
530.43	65535.00
530.60	65535.00
530.77	65535.00
530.94	65535.00
531.11	65535.00
531.28	65535.00
531.46	65535.00
531.63	65535.00
531.80	65535.00
531.97	65535.00
532.14	64856.24
532.31	64034.72
532.48	63412.13
532.65	63484.69
532.82	64275.79
532.99	65249.45
533.16	65535.00
533.33	65535.00
533.50	65535.00
533.67	65300.95
533.84	64858.59
534.01	64889.01
534.18	65244.77
534.35	65478.83
534.52	65186.26
534.69	65504.57
534.86	65535.00
535.03	65535.00
535.20	65535.00
535.37	65535.00
535.54	65535.00
535.71	65535.00
535.88	65535.00
536.05	65535.00
536.22	65478.83
536.38	65153.49
536.55	64690.07
536.72	64198.55
536.89	64069.82
537.06	64776.67
537.23	65436.70
537.40	65535.00
537.57	65535.00
537.74	65535.00
537.91	65535.00
538.08	65490.53
538.25	65389.89
538.42	65535.00
538.59	65535.00
538.75	64982.63
538.92	64678.36
539.09	64767.30
539.26	64317.92
539.43	64409.20
539.60	64453.67
539.77	64638.57
539.94	64514.53
540.11	63875.56
540.28	63285.75
540.44	63426.18
540.61	63639.17
540.78	64006.63
540.95	64175.15
541.12	64430.27
541.29	64879.65
541.46	65024.76
541.62	65090.30
541.79	64807.09
541.96	64575.38
542.13	64287.49
542.30	64736.88
542.47	64743.90
542.63	64676.02
542.80	64423.25
542.97	64505.16
543.14	64493.46
543.31	64463.03
543.48	64989.66
543.64	65535.00
543.81	65535.00
543.98	65535.00
544.15	65120.73
544.32	64521.55
544.48	64657.30
544.65	65010.72
544.82	65354.78
544.99	65102.00
545.16	64898.37
545.32	64425.59
545.49	65125.41
545.66	65535.00
545.83	65240.09
546.00	64727.52
546.16	64671.34
546.33	64640.92
546.50	64640.92
546.67	64956.89
546.83	64764.96
547.00	64647.94
547.17	64196.21
547.34	63622.78
547.50	63608.74
547.67	64116.64
547.84	64100.25
548.00	64409.20
548.17	64692.41
548.34	64753.26
548.51	64486.44
548.67	64640.92
548.84	64631.55
549.01	64692.41
549.18	64631.55
549.34	64645.60
549.51	64619.85
549.68	64427.93
549.84	64568.36
550.01	64081.53
550.18	64165.79
550.34	64219.62
550.51	64275.79
550.68	64217.28
550.84	64011.31
551.01	63999.61
551.18	63927.05
551.34	64292.18
551.51	64275.79
551.68	64769.64
551.84	64786.03
552.01	64549.63
552.18	64573.04
552.34	63838.11
552.51	63421.50
552.68	63377.03
552.84	63929.39
553.01	64161.11
553.18	63889.60
553.34	64140.04
553.51	64081.53
553.67	64341.33
553.84	64575.38
554.01	64460.69
554.17	64231.32
554.34	64362.39
554.51	64411.54
554.67	64610.49
554.84	64561.34
555.00	64463.03
555.17	63805.34
555.33	64011.31
555.50	64060.46
555.67	64001.95
555.83	63894.28
556.00	63746.83
556.16	63669.59
556.33	63325.53
556.50	63220.21
556.66	63182.76
556.83	62841.04
556.99	63009.56
557.16	63224.89
557.32	63449.58
557.49	63552.57
557.65	63409.79
557.82	63508.10
557.98	63470.65
558.15	63206.17
558.32	62155.27
558.48	61378.21
558.65	61895.47
558.81	62204.42
558.98	62424.43
559.14	62597.63
559.31	62543.80
559.47	62583.58
559.64	62225.48
559.80	61944.62
559.97	62028.88
560.13	62382.30
560.30	63213.19
560.46	63723.43
560.63	63866.20
560.79	63671.93
560.96	63529.16
561.12	62429.11
561.29	61968.02
561.45	62040.58
561.61	62358.89
561.78	62597.63
561.94	62625.71
562.11	62454.86
562.27	62253.57
562.44	62787.21
562.60	63117.23
562.77	63189.78
562.93	63119.57
563.10	62993.18
563.26	62401.02
563.42	62417.41
563.59	62246.55
563.75	62291.02
563.92	62408.04
564.08	62328.47
564.24	62637.42
564.41	62616.35
564.57	62569.54
564.74	62365.91
564.90	62440.81
565.07	62220.80
565.23	61815.89
565.39	61415.66
565.56	61202.67
565.72	60959.25
565.88	61460.13
566.05	61474.17
566.21	61448.42
566.38	61715.25
566.54	61836.95
566.70	61879.08
566.87	62386.98
567.03	62426.77
567.19	62569.54
567.36	62195.06
567.52	61956.32
567.68	61930.58
567.85	61359.48
568.01	61123.09
568.17	60795.42
568.34	60764.99
568.50	60647.96
568.66	60821.16
568.83	61144.16
568.99	61481.19
569.15	61413.32
569.32	61579.49
569.48	61095.00
569.64	61001.38
569.81	60828.18
569.97	60704.13
570.13	60804.78
570.30	60367.10
570.46	59962.18
570.62	59367.69
570.78	59428.54
570.95	59585.36
571.11	60252.41
571.27	60292.20
571.43	60470.08
571.60	60708.82
571.76	60907.76
571.92	61361.82
572.09	61511.62
572.25	61324.38
572.41	61366.51
572.57	61041.17
572.74	61221.39
572.90	60802.44
573.06	60757.97
573.22	60711.16
573.38	60725.20
573.55	60900.74
573.71	60877.33
573.87	60903.08
574.03	60633.92
574.20	60891.38
574.36	60495.83
574.52	60198.58
574.68	60252.41
574.84	60039.42
575.01	59873.24
575.17	59262.36
575.33	59728.13
575.49	59859.20
575.65	59866.22
575.82	59880.27
575.98	59707.07
576.14	59639.19
576.30	60123.68
576.46	60236.03
576.62	60072.19
576.79	60083.89
576.95	59678.98
577.11	59856.86
577.27	59891.97
577.43	60041.76
577.59	59519.82
577.75	59311.52
577.92	58808.30
578.08	58698.30
578.24	58988.52
578.40	58866.81
578.56	59068.10
578.72	59084.48
578.88	59428.54
579.04	59463.65
579.21	59430.88
579.37	59749.20
579.53	59618.13
579.69	59615.79
579.85	59819.41
580.01	59770.26
580.17	59391.09
580.33	59332.58
580.49	59297.47
580.65	59327.90
580.82	59620.47
580.98	59416.84
581.14	59358.33
581.30	59391.09
581.46	59363.01
581.62	59578.34
581.78	59604.08
581.94	60001.97
582.10	59564.29
582.26	59934.10
582.42	59845.16
582.58	59676.64
582.74	59627.49
582.90	59786.64
583.06	59561.95
583.22	59341.94
583.38	59423.86
583.54	59494.08
583.70	59295.13
583.86	59547.91
584.02	59192.15
584.18	59414.50
584.34	59241.30
584.50	59278.75
584.66	59145.34
584.82	58908.94
584.98	58941.71
585.14	58515.73
