SpectraSuite Data File
++++++++++++++++++++++++++++++++++++
Date: Mon Oct 07 14:53:06 GMT-05:00 2013
User: price-jones
Dark Spectrum Present: No
Reference Spectrum Present: No
Number of Sampled Component Spectra: 1
Spectrometers: USB2+H05261
Integration Time (usec): 100000 (USB2+H05261)
Spectra Averaged: 1 (USB2+H05261)
Boxcar Smoothing: 0 (USB2+H05261)
Correct for Electrical Dark: No (USB2+H05261)
Strobe/Lamp Enabled: No (USB2+H05261)
Correct for Detector Non-linearity: No (USB2+H05261)
Correct for Stray Light: No (USB2+H05261)
Number of Pixels in Processed Spectrum: 2048
>>>>>Begin Processed Spectral Data<<<<<
365.73	0.00
365.92	0.00
366.12	0.00
366.32	0.00
366.52	0.00
366.72	0.00
366.91	0.00
367.11	0.00
367.31	0.00
367.51	0.00
367.70	0.00
367.90	0.00
368.10	0.00
368.30	0.00
368.49	0.00
368.69	0.00
368.89	0.00
369.09	0.00
369.28	0.00
369.48	0.00
369.68	0.00
369.87	0.00
370.07	0.00
370.27	0.00
370.47	547.69
370.66	2808.64
370.86	3379.73
371.06	3669.96
371.25	3604.42
371.45	3304.84
371.65	3005.25
371.84	2761.83
372.04	3101.21
372.24	3190.15
372.44	3503.78
372.63	3400.80
372.83	3082.49
373.03	2789.92
373.22	2499.69
373.42	2785.24
373.62	3141.00
373.81	3414.84
374.01	3459.31
374.21	3152.70
374.40	2810.98
374.60	2984.18
374.79	3384.41
374.99	3962.53
375.19	4205.94
375.38	4219.99
375.58	3946.14
375.78	3962.53
375.97	3920.40
376.17	4037.42
376.37	4255.09
376.56	4112.32
376.76	4575.75
376.95	4828.53
377.15	5036.83
377.35	5254.50
377.54	5418.34
377.74	5589.20
377.93	5465.15
378.13	5521.32
378.33	5287.27
378.52	4692.77
378.72	4571.07
378.91	4505.53
379.11	4432.97
379.31	4212.96
379.50	4184.88
379.70	4461.06
379.89	5053.22
380.09	5188.97
380.28	5540.05
380.48	5376.21
380.68	5397.28
380.87	5132.79
381.07	4788.74
381.26	4465.74
381.46	4117.00
381.65	4084.23
381.85	4002.32
382.04	3655.92
382.24	3515.48
382.43	3295.47
382.63	3288.45
382.83	3288.45
383.02	3379.73
383.22	3368.03
383.41	3368.03
383.61	3618.47
383.80	4084.23
384.00	4552.34
384.19	5186.63
384.39	5413.66
384.58	5327.06
384.78	5338.76
384.97	5195.99
385.17	5093.01
385.36	4681.07
385.56	4608.51
385.75	4643.62
385.95	5165.56
386.14	5535.37
386.34	5689.84
386.53	5249.82
386.72	5132.79
386.92	5085.98
387.11	5327.06
387.31	5694.52
387.50	5584.52
387.70	5373.87
387.89	5252.16
388.09	5371.53
388.28	5390.25
388.48	5380.89
388.67	5874.74
388.86	6377.96
389.06	6958.41
389.25	7194.81
389.45	7325.88
389.64	7222.89
389.84	7232.26
390.03	7019.27
390.22	7073.10
390.42	7218.21
390.61	7903.99
390.81	8259.75
391.00	8299.54
391.19	8390.82
391.39	8152.09
391.58	7719.09
391.78	7077.78
391.97	6829.68
392.16	6504.35
392.36	6012.84
392.55	4784.06
392.75	3735.50
392.94	3110.57
393.13	3096.53
393.33	3747.20
393.52	4727.88
393.71	5832.62
393.91	6415.41
394.10	6939.69
394.29	7658.23
394.49	8332.31
394.68	9083.62
394.88	9046.17
395.07	9121.07
395.26	9055.53
395.46	8692.75
395.65	8329.97
395.84	7309.49
396.04	6125.18
396.23	4950.23
396.42	4060.83
396.62	3985.93
396.81	4657.67
397.00	6015.18
397.19	7515.46
397.39	8992.34
397.58	10047.92
397.77	10689.23
397.97	10977.11
398.16	11171.38
398.35	11857.15
398.55	11733.11
398.74	12444.63
398.93	12547.61
399.12	12549.95
399.32	11995.25
399.51	12248.02
399.70	13153.81
399.90	12903.37
400.09	13104.66
400.28	12655.28
400.47	12994.65
400.67	13495.53
400.86	14286.63
401.05	13900.44
401.24	14185.99
401.44	14235.14
401.63	14225.78
401.82	14368.55
402.01	14518.34
402.21	14497.28
402.40	14626.01
402.59	14204.71
402.78	13394.89
402.97	13078.91
403.17	13818.52
403.36	14494.94
403.55	15044.96
403.74	15398.38
403.93	14298.33
404.13	13378.50
404.32	13114.02
404.51	13898.10
404.70	15009.86
404.89	15185.40
405.09	14752.40
405.28	14211.73
405.47	14389.61
405.66	14459.83
405.85	14040.87
406.05	13425.31
406.24	13619.58
406.43	14424.72
406.62	14874.10
406.81	14883.47
407.00	14434.08
407.20	14064.28
407.39	13975.34
407.58	14785.16
407.77	15075.39
407.96	15758.83
408.15	15852.45
408.34	16006.92
408.54	16739.51
408.73	16856.54
408.92	16374.39
409.11	16353.32
409.30	15159.65
409.49	14368.55
409.68	13373.82
409.87	12915.08
410.07	13984.70
410.26	15012.20
410.45	16086.50
410.64	16308.85
410.83	16896.33
411.02	17167.83
411.21	18204.69
411.40	17750.62
411.59	17872.33
411.78	17767.01
411.98	17411.25
412.17	17991.70
412.36	17537.63
412.55	17561.04
412.74	17268.47
412.93	16716.11
413.12	16870.58
413.31	18448.10
413.50	18855.36
413.69	18960.68
413.88	18218.73
414.07	17593.81
414.26	18307.67
414.45	18668.11
414.64	18600.24
414.83	18888.12
415.02	18656.41
415.22	18600.24
415.41	18991.11
415.60	19372.61
415.79	20318.19
415.98	20561.61
416.17	20786.30
416.36	20161.37
416.55	20224.57
416.74	19208.78
416.93	18560.45
417.12	18677.48
417.31	19019.19
417.50	19330.48
417.69	19644.12
417.88	19829.02
418.07	19585.60
418.26	19166.65
418.45	19381.98
418.64	20531.18
418.83	20657.57
419.02	20636.50
419.21	20416.49
419.39	19438.15
419.58	18743.01
419.77	18820.25
419.96	19534.11
420.15	20734.81
420.34	21474.42
420.53	21759.96
420.72	22242.11
420.91	22075.93
421.10	21675.70
421.29	21572.72
421.48	20732.47
421.67	21841.88
421.86	21294.19
422.05	19768.16
422.24	18059.57
422.43	17905.10
422.61	19662.84
422.80	21231.00
422.99	21383.13
423.18	20545.22
423.37	20009.24
423.56	19761.14
423.75	20266.70
423.94	20959.50
424.13	19800.93
424.32	19831.36
424.50	20233.93
424.69	19662.84
424.88	19693.27
425.07	19583.26
425.26	19845.40
425.45	19496.66
425.64	19091.75
425.83	19398.36
426.01	20409.47
426.20	20877.58
426.39	20587.35
426.58	19136.22
426.77	17748.28
426.96	17303.58
427.15	17980.00
427.33	19426.45
427.52	20060.73
427.71	19964.77
427.90	19962.43
428.09	19601.99
428.28	19012.17
428.46	18745.35
428.65	18354.48
428.84	18698.54
429.03	19087.07
429.22	17877.01
429.40	16973.56
429.59	15623.08
429.78	13806.82
429.97	13839.59
430.16	14031.51
430.34	13895.76
430.53	13783.41
430.72	14480.89
430.91	16278.43
431.10	18567.47
431.28	22197.64
431.47	23903.89
431.66	23812.61
431.85	21631.23
432.03	20135.63
432.22	19260.27
432.41	20194.14
432.60	22134.45
432.79	23311.74
432.97	23468.55
433.16	22927.89
433.35	21085.89
433.54	18850.67
433.72	18012.76
433.91	18527.68
434.10	20510.11
434.28	21813.79
434.47	23019.17
434.66	22726.60
434.85	22188.28
435.03	21855.92
435.22	22754.69
435.41	24095.82
435.59	24212.84
435.78	24283.06
435.97	24844.79
436.16	25156.08
436.34	24795.64
436.53	24161.35
436.72	24430.51
436.90	22827.24
437.09	22944.27
437.28	22522.98
437.46	23658.14
437.65	23197.05
437.84	21912.10
438.02	20119.24
438.21	20222.23
438.40	20896.30
438.58	22864.69
438.77	23482.59
438.96	23618.35
439.14	24603.71
439.33	25025.01
439.52	25511.84
439.70	25067.14
439.89	24453.92
440.08	23562.17
440.26	23604.30
440.45	24636.48
440.63	26331.03
440.82	27463.85
441.01	27009.78
441.19	26995.74
441.38	27342.14
441.57	28474.96
441.75	28371.97
441.94	28627.09
442.12	28657.52
442.31	29104.56
442.50	28804.97
442.68	28978.17
442.87	28353.25
443.05	27913.23
443.24	28524.11
443.43	28943.06
443.61	29317.55
443.80	30103.97
443.98	28247.93
444.17	28100.47
444.35	29647.57
444.54	30387.18
444.73	29593.73
444.91	28790.93
445.10	27618.32
445.28	26363.79
445.47	26504.23
445.65	26171.87
445.84	27105.74
446.02	27962.38
446.21	28390.70
446.39	28645.82
446.58	28617.73
446.77	29567.99
446.95	29818.42
447.14	30333.34
447.32	30682.08
447.51	30438.67
447.69	29202.86
447.88	28631.77
448.06	28964.13
448.25	29905.02
448.43	30120.35
448.62	29483.73
448.80	29256.70
448.99	29551.60
449.17	29560.97
449.36	29722.46
449.54	30878.69
449.73	31187.64
449.91	31728.30
450.10	32655.15
450.28	33102.20
450.46	32797.93
450.65	33167.73
450.83	32151.94
451.02	31625.32
451.20	31894.48
451.39	31536.38
451.57	31426.37
451.76	31824.26
451.94	31208.70
452.13	30602.50
452.31	29567.99
452.49	27814.93
452.68	28093.45
452.86	28250.27
453.05	28568.58
453.23	30331.00
453.42	30541.65
453.60	30951.24
453.78	31063.59
453.97	30644.63
454.15	31152.53
454.34	29928.43
454.52	30749.96
454.70	30096.95
454.89	29951.84
455.07	30759.32
455.26	30735.92
455.44	32273.65
455.62	32334.50
455.81	32795.59
455.99	32692.60
456.17	32013.85
456.36	32070.02
456.54	33481.36
456.73	32835.38
456.91	33802.02
457.09	33844.15
457.28	34878.66
457.46	32940.70
457.64	32465.57
457.83	31655.75
458.01	31285.94
458.19	31936.61
458.38	32290.03
458.56	33542.22
458.74	33352.63
458.93	32673.88
459.11	32598.98
459.29	32151.94
459.48	32421.10
459.66	32383.65
459.84	32603.66
460.03	32919.63
460.21	32694.94
460.39	33879.25
460.57	34141.39
460.76	34071.18
460.94	34190.55
461.12	33738.82
461.31	34106.29
461.49	33858.19
461.67	34017.35
461.85	34555.67
462.04	34848.24
462.22	35447.41
462.40	35051.86
462.59	35077.61
462.77	34878.66
462.95	34679.72
463.13	34174.16
463.32	34127.35
463.50	33818.40
463.68	33991.60
463.86	33961.17
464.05	33731.80
464.23	33078.79
464.41	32723.03
464.59	32009.17
464.78	33926.07
464.96	33998.62
465.14	33088.15
465.32	33958.83
465.50	35072.93
465.69	35037.82
465.87	34721.85
466.05	33710.74
466.23	32126.19
466.41	31592.55
466.60	32402.38
466.78	32491.32
466.96	32975.81
467.14	33713.08
467.32	34087.56
467.51	33783.29
467.69	32730.05
467.87	33151.35
468.05	33490.73
468.23	33603.07
468.41	33369.02
468.60	33570.30
468.78	34075.86
468.96	33266.03
469.14	34291.19
469.32	34377.79
469.50	32912.61
469.69	33237.95
469.87	33071.77
470.05	32451.53
470.23	32919.63
470.41	33097.52
470.59	33432.21
470.77	33666.27
470.95	34085.22
471.14	34558.01
471.32	34745.25
471.50	36308.73
471.68	36552.15
471.86	37067.06
472.04	36982.80
472.22	36987.49
472.40	35054.20
472.58	34892.71
472.77	34902.07
472.95	35339.75
473.13	36130.85
473.31	35311.66
473.49	35749.34
473.67	36285.33
473.85	36833.01
474.03	37235.58
474.21	37876.89
474.39	37574.96
474.57	38188.18
474.75	38242.01
474.93	37792.63
475.12	37104.51
475.30	37095.15
475.48	37191.11
475.66	37961.15
475.84	37593.68
476.02	36849.39
476.20	36271.28
476.38	37156.00
476.56	37986.89
476.74	38763.95
476.92	38927.79
477.10	39587.82
477.28	40622.34
477.46	40425.73
477.64	40975.76
477.82	40797.88
478.00	41191.09
478.18	40797.88
478.36	40502.97
478.54	40755.75
478.72	40982.78
478.90	41532.81
479.08	42937.13
479.26	43540.99
479.44	43157.14
479.62	43269.48
479.80	43115.01
479.98	43459.07
480.16	43505.88
480.34	43047.13
480.52	43129.05
480.70	43730.57
480.88	43606.52
481.06	44287.62
481.24	44727.64
481.41	45764.49
481.59	46321.54
481.77	45603.00
481.95	45441.50
482.13	45228.51
482.31	45422.78
482.49	46190.47
482.67	45846.41
482.85	46291.12
483.03	46672.62
483.21	47391.17
483.39	47040.09
483.57	46555.60
483.74	46527.51
483.92	46263.03
484.10	46569.64
484.28	47311.59
484.46	47842.89
484.64	48090.99
484.82	47391.17
485.00	47288.18
485.18	45682.58
485.35	44655.08
485.53	41717.71
485.71	37968.17
485.89	38014.98
486.07	40105.08
486.25	43049.47
486.43	45326.81
486.61	45284.68
486.78	45640.45
486.96	46192.81
487.14	48090.99
487.32	48851.66
487.50	49626.38
487.68	50541.53
487.85	51086.87
488.03	51093.89
488.21	50129.59
488.39	50014.91
488.57	48547.39
488.75	48996.77
488.92	50164.70
489.10	52069.90
489.28	53434.43
489.46	53755.08
489.64	53853.39
489.81	54017.22
489.99	53560.82
490.17	53741.04
490.35	54239.57
490.53	53464.86
490.70	53137.18
490.88	53043.56
491.06	54085.10
491.24	53954.03
491.41	53202.72
491.59	51487.10
491.77	50979.21
491.95	51810.10
492.13	53144.20
492.30	54384.69
492.48	54986.21
492.66	55494.10
492.84	55271.75
493.01	55292.82
493.19	54712.36
493.37	54358.94
493.54	54209.15
493.72	54859.82
493.90	55891.99
494.08	56519.26
494.25	56877.36
494.43	56975.66
494.61	57345.47
494.79	57408.66
494.96	57279.93
495.14	56545.00
495.32	55576.02
495.49	55374.73
495.67	56437.34
495.85	57434.41
496.02	57647.39
496.20	57425.04
496.38	57165.24
496.55	57167.58
496.73	57710.59
496.91	57588.88
497.09	58145.93
497.26	58358.92
497.44	58019.54
497.62	57305.68
497.79	56591.81
497.97	55412.18
498.14	55686.03
498.32	56879.70
498.50	57460.15
498.67	58115.50
498.85	57958.69
499.03	58181.04
499.20	58419.77
499.38	58223.17
499.56	58265.30
499.73	57656.76
499.91	57200.35
500.08	57043.54
500.26	56123.71
500.44	56750.97
500.61	57471.85
500.79	57190.99
500.97	56952.26
501.14	56846.93
501.32	56657.35
501.49	56612.88
501.67	56926.51
501.84	57235.46
502.02	57544.41
502.20	57893.15
502.37	57949.32
502.55	58019.54
502.72	58581.27
502.90	58948.73
503.07	58684.25
503.25	58361.26
503.43	57457.81
503.60	56868.00
503.78	56044.13
503.95	56765.01
504.13	57998.48
504.30	58993.20
504.48	58583.61
504.65	58403.39
504.83	58375.30
505.01	59065.76
505.18	59260.02
505.36	59894.31
505.53	59842.82
505.71	60126.02
505.88	60114.32
506.06	59458.97
506.23	59227.26
506.41	58880.86
506.58	59245.98
506.76	59011.93
506.93	58965.12
507.11	58925.33
507.28	59040.01
507.46	58616.38
507.63	58103.80
507.81	57858.04
507.98	57968.05
508.16	58801.28
508.33	59241.30
508.50	59831.11
508.68	59819.41
508.85	60493.49
509.03	60360.08
509.20	60172.83
509.38	59320.88
509.55	58922.99
509.73	58908.94
509.90	59304.49
510.08	59454.29
510.25	59482.37
510.42	59363.01
510.60	59093.85
510.77	59435.56
510.95	60177.51
511.12	60172.83
511.30	60491.15
511.47	60732.22
511.64	60671.37
511.82	60402.21
511.99	59533.87
512.17	59215.55
512.34	58939.37
512.51	58955.75
512.69	59208.53
512.86	59234.28
513.04	59545.57
513.21	59655.57
513.38	59325.56
513.56	58824.68
513.73	58330.83
513.90	58511.05
514.08	58642.12
514.25	58899.58
514.43	59037.67
514.60	59278.75
514.77	59360.67
514.95	59508.12
515.12	59166.40
515.29	59309.18
515.47	59875.58
515.64	60175.17
515.81	59884.95
515.99	59245.98
516.16	57925.92
516.33	55531.55
516.51	54415.11
516.68	53602.95
516.85	53446.13
517.03	53734.02
517.20	56369.46
517.37	58653.82
517.54	59540.89
517.72	59086.82
517.89	56540.32
518.06	54337.88
518.24	54906.63
518.41	56928.85
518.58	58052.31
518.75	58265.30
518.93	58412.75
519.10	58269.98
519.27	58812.98
519.45	59138.32
519.62	59901.33
519.79	59917.71
519.96	59767.92
520.14	59405.14
520.31	58557.86
520.48	58576.59
520.65	59105.55
520.83	59840.48
521.00	60175.17
521.17	59924.74
521.34	59423.86
521.52	59868.56
521.69	60334.33
521.86	60523.91
522.03	60385.82
522.20	59182.79
522.38	58356.58
522.55	58539.14
522.72	59044.69
522.89	58937.03
523.07	59171.08
523.24	59765.58
523.41	60275.82
523.58	60500.51
523.75	61052.87
523.92	60837.54
524.10	60938.19
524.27	60903.08
524.44	60753.29
524.61	60458.38
524.78	60353.05
524.96	60341.35
525.13	60308.58
525.30	60537.96
525.47	61097.34
525.64	60863.29
525.81	60168.15
525.98	58672.55
526.16	57593.56
526.33	56942.89
526.50	56458.40
526.67	56329.67
526.84	57062.26
527.01	57729.31
527.18	58508.71
527.36	59407.48
527.53	60266.45
527.70	60371.78
527.87	59765.58
528.04	59613.44
528.21	60133.04
528.38	60598.81
528.55	61162.88
528.72	61329.06
528.89	61350.12
529.07	61048.19
529.24	60683.07
529.41	59941.12
529.58	59370.03
529.75	59641.53
529.92	59950.48
530.09	60271.14
530.26	60786.05
530.43	61118.41
530.60	61205.01
530.77	61345.44
530.94	61408.64
531.11	61090.32
531.28	60828.18
531.46	60495.83
531.63	60650.30
531.80	60446.68
531.97	60004.31
532.14	59524.50
532.31	58363.60
532.48	57963.37
532.65	57893.15
532.82	58637.44
532.99	59817.07
533.16	60020.70
533.33	60612.85
533.50	60381.14
533.67	59889.63
533.84	59440.24
534.01	59714.09
534.18	59730.47
534.35	59999.63
534.52	59910.69
534.69	60233.69
534.86	60530.93
535.03	60753.29
535.20	61205.01
535.37	61331.40
535.54	61366.51
535.71	61174.58
535.88	60802.44
536.05	60079.21
536.22	59957.50
536.38	59522.16
536.55	58979.16
536.72	58724.04
536.89	58791.92
537.06	59470.67
537.23	60378.80
537.40	60341.35
537.57	60266.45
537.74	60219.64
537.91	60107.30
538.08	59994.95
538.25	60275.82
538.42	60294.54
538.59	60093.25
538.75	59540.89
538.92	59451.95
539.09	59187.47
539.26	59040.01
539.43	58635.10
539.60	59192.15
539.77	59004.91
539.94	59086.82
540.11	58365.94
540.28	58082.73
540.44	57846.34
540.61	58302.74
540.78	58394.03
540.95	58710.00
541.12	59257.68
541.29	59255.34
541.46	59674.30
541.62	59777.28
541.79	59533.87
541.96	58946.39
542.13	58838.73
542.30	59391.09
542.47	59353.65
542.63	59147.68
542.80	58878.52
542.97	59133.63
543.14	59112.57
543.31	59243.64
543.48	59540.89
543.64	60137.72
543.81	60638.60
543.98	60280.50
544.15	59676.64
544.32	59185.13
544.48	59363.01
544.65	59793.67
544.82	59891.97
544.99	59592.38
545.16	59355.99
545.32	59112.57
545.49	59884.95
545.66	60331.99
545.83	59744.51
546.00	59297.47
546.16	59292.79
546.33	59309.18
546.50	59288.11
546.67	59852.18
546.83	59484.72
547.00	59400.46
547.17	58866.81
547.34	58408.07
547.50	58040.60
547.67	58700.64
547.84	58548.50
548.00	59030.65
548.17	59625.15
548.34	59423.86
548.51	59395.77
548.67	59234.28
548.84	59564.29
549.01	59437.90
549.18	59222.58
549.34	59203.85
549.51	59381.73
549.68	59288.11
549.84	58890.22
550.01	58885.54
550.18	58724.04
550.34	58904.26
550.51	59025.97
550.68	58979.16
550.84	58541.48
551.01	58693.61
551.18	58695.95
551.34	59037.67
551.51	59098.53
551.68	59568.97
551.84	59388.75
552.01	59126.61
552.18	59159.38
552.34	58466.58
552.51	57937.62
552.68	58131.89
552.84	58443.18
553.01	58445.52
553.18	58564.88
553.34	58899.58
553.51	58670.21
553.67	58976.82
553.84	59271.73
554.01	59147.68
554.17	58820.00
554.34	59068.10
554.51	59180.45
554.67	59353.65
554.84	59295.13
555.00	58918.31
555.17	58377.64
555.33	58681.91
555.50	58625.74
555.67	58684.25
555.83	58520.41
556.00	58094.44
556.16	58274.66
556.33	57928.26
556.50	57769.10
556.66	57764.42
556.83	57399.30
556.99	57621.65
557.16	57799.53
557.32	58152.95
557.49	58309.77
557.65	58099.12
557.82	58052.31
557.98	58155.29
558.15	57694.21
558.32	56575.43
558.48	56116.68
558.65	56329.67
558.81	56772.03
558.98	56970.98
559.14	56985.02
559.31	57137.16
559.47	57090.35
559.64	56868.00
559.80	56495.85
559.97	56610.54
560.13	57045.88
560.30	57696.55
560.46	58384.66
560.63	58478.28
560.79	58555.52
560.96	57986.77
561.12	57190.99
561.29	56142.43
561.45	56418.61
561.61	57233.12
561.78	57317.38
561.94	57134.82
562.11	57179.29
562.27	56863.32
562.44	57258.87
562.60	57567.82
562.77	57773.78
562.93	57523.35
563.10	57387.60
563.26	56924.17
563.42	57293.97
563.59	56783.74
563.75	56800.12
563.92	56968.64
564.08	56910.13
564.24	57296.31
564.41	57481.22
564.57	56994.39
564.74	56793.10
564.90	56926.51
565.07	56481.81
565.23	56193.92
565.39	55702.41
565.56	55601.77
565.72	55641.56
565.88	55957.53
566.05	55721.13
566.21	56371.80
566.38	56097.96
566.54	56439.68
566.70	56898.42
566.87	57076.30
567.03	56760.33
567.19	56942.89
567.36	56802.46
567.52	56823.53
567.68	56528.62
567.85	56009.02
568.01	55543.25
568.17	55082.17
568.34	55475.38
568.50	55318.56
568.66	55384.10
568.83	55643.90
568.99	55737.52
569.15	55817.10
569.32	55959.87
569.48	55351.33
569.64	55257.71
569.81	54901.95
569.97	54932.37
570.13	55157.06
570.30	54515.76
570.46	54356.60
570.62	53551.46
570.78	53497.62
570.95	53715.29
571.11	54614.06
571.27	54976.84
571.43	55021.31
571.60	55271.75
571.76	55393.46
571.92	55578.36
572.09	55594.74
572.25	55674.32
572.41	55812.41
572.57	55601.77
572.74	55796.03
572.90	55119.62
573.06	55023.65
573.22	55353.67
573.38	55356.01
573.55	55386.44
573.71	55444.95
573.87	55274.09
574.03	55049.40
574.20	55185.15
574.36	54733.43
574.52	54679.60
574.68	54480.65
574.84	53829.98
575.01	53691.89
575.17	53492.94
575.33	54085.10
575.49	54288.73
575.65	54459.58
575.82	54136.59
575.98	53727.00
576.14	54019.56
576.30	54218.51
576.46	54225.53
576.62	54410.43
576.79	54169.36
576.95	53951.69
577.11	54440.86
577.27	54302.77
577.43	54117.87
577.59	53514.01
577.75	53333.79
577.92	52893.77
578.08	52584.82
578.24	52769.72
578.40	53132.50
578.56	53144.20
578.72	53322.08
578.88	53275.27
579.04	53719.98
579.21	53956.37
579.37	53680.19
579.53	53886.15
579.69	53977.43
579.85	53900.20
580.01	53727.00
580.17	53389.96
580.33	53139.52
580.49	53282.30
580.65	53745.72
580.82	53872.11
580.98	53792.53
581.14	53684.87
581.30	53609.97
581.46	53778.49
581.62	53609.97
581.78	53818.28
581.94	54003.18
582.10	54155.32
582.26	54113.19
582.42	53921.26
582.58	54171.70
582.74	53689.55
582.90	53916.58
583.06	53839.34
583.22	53715.29
583.38	53621.67
583.54	53361.87
583.70	53579.54
583.86	53677.85
584.02	53783.17
584.18	53719.98
584.34	53528.05
584.50	53312.72
584.66	53411.02
584.82	52788.44
584.98	52849.30
585.14	52435.02
585.30	51716.48
