SpectraSuite Data File
++++++++++++++++++++++++++++++++++++
Date: Mon Oct 07 14:53:42 GMT-05:00 2013
User: price-jones
Dark Spectrum Present: No
Reference Spectrum Present: No
Number of Sampled Component Spectra: 1
Spectrometers: USB2+H05261
Integration Time (usec): 100000 (USB2+H05261)
Spectra Averaged: 1 (USB2+H05261)
Boxcar Smoothing: 0 (USB2+H05261)
Correct for Electrical Dark: No (USB2+H05261)
Strobe/Lamp Enabled: No (USB2+H05261)
Correct for Detector Non-linearity: No (USB2+H05261)
Correct for Stray Light: No (USB2+H05261)
Number of Pixels in Processed Spectrum: 2048
>>>>>Begin Processed Spectral Data<<<<<
365.73	0.00
365.92	0.00
366.12	0.00
366.32	0.00
366.52	0.00
366.72	0.00
366.91	0.00
367.11	0.00
367.31	0.00
367.51	0.00
367.70	0.00
367.90	0.00
368.10	0.00
368.30	0.00
368.49	0.00
368.69	0.00
368.89	0.00
369.09	0.00
369.28	0.00
369.48	0.00
369.68	0.00
369.87	0.00
370.07	0.00
370.27	0.00
370.47	727.91
370.66	3440.59
370.86	3999.98
371.06	4428.29
371.25	4573.41
371.45	3978.91
371.65	3733.15
371.84	3508.46
372.04	3541.23
372.24	3974.23
372.44	4346.37
372.63	4166.15
372.83	3887.63
373.03	3400.80
373.22	3173.77
373.42	3365.69
373.62	3875.93
373.81	4154.45
374.01	4210.62
374.21	3646.55
374.40	3454.63
374.60	3684.00
374.79	4154.45
374.99	4802.78
375.19	5172.58
375.38	5256.84
375.58	4772.35
375.78	4847.25
375.97	4882.36
376.17	4954.91
376.37	5046.20
376.56	5233.44
376.76	5488.56
376.95	5769.42
377.15	6307.74
377.35	6441.15
377.54	6516.05
377.74	6715.00
377.93	6876.49
378.13	6754.79
378.33	6342.85
378.52	5937.94
378.72	5582.18
378.91	5540.05
379.11	5394.93
379.31	5254.50
379.50	5139.82
379.70	5600.90
379.89	6232.85
380.09	6548.82
380.28	6867.13
380.48	6815.64
380.68	6485.62
380.87	6600.31
381.07	6047.94
381.26	5509.62
381.46	5256.84
381.65	4938.53
381.85	4959.60
382.04	4664.69
382.24	4517.23
382.43	4238.71
382.63	4208.28
382.83	4007.00
383.02	4131.05
383.22	4166.15
383.41	4098.28
383.61	4390.84
383.80	4971.30
384.00	5638.35
384.19	6569.88
384.39	6733.72
384.58	6665.85
384.78	6635.42
384.97	6518.39
385.17	6188.38
385.36	5895.81
385.56	5516.64
385.75	5916.87
385.95	6356.90
386.14	7002.88
386.34	7028.63
386.53	6684.57
386.72	6244.55
386.92	6059.65
387.11	6497.33
387.31	6846.07
387.50	6803.94
387.70	6466.90
387.89	6595.63
388.09	6635.42
388.28	6551.16
388.48	6796.92
388.67	7094.16
388.86	7873.56
389.06	8397.84
389.25	8945.53
389.45	8901.06
389.64	8910.42
389.84	8943.19
390.03	8861.27
390.22	8648.28
390.42	9111.71
390.61	9507.26
390.81	10387.30
391.00	10452.83
391.19	10232.82
391.39	10031.54
391.58	9486.19
391.78	8870.63
391.97	8540.61
392.16	8065.49
392.36	7269.70
392.55	5954.32
392.75	4690.43
392.94	3866.56
393.13	3833.80
393.33	4550.00
393.52	5776.44
393.71	7080.12
393.91	7843.14
394.10	8578.06
394.29	9256.82
394.49	9949.62
394.68	11129.25
394.88	10855.40
395.07	11358.62
395.26	11396.07
395.46	10850.72
395.65	10296.02
395.84	8917.44
396.04	7744.83
396.23	6160.29
396.42	5165.56
396.62	4926.83
396.81	5659.42
397.00	7461.63
397.19	9308.31
397.39	11321.17
397.58	12533.57
397.77	13130.41
397.97	13806.82
398.16	13848.95
398.35	14228.12
398.55	14710.27
398.74	15335.19
398.93	15690.95
399.12	15466.26
399.32	14705.59
399.51	14970.07
399.70	16077.14
399.90	16049.05
400.09	16009.26
400.28	15822.02
400.47	16372.05
400.67	16659.93
400.86	17399.54
401.05	17123.36
401.24	17528.27
401.44	17612.53
401.63	17837.22
401.82	17951.91
402.01	17806.80
402.21	18045.53
402.40	18047.87
402.59	17380.82
402.78	16636.53
402.97	16243.32
403.17	16835.47
403.36	17785.73
403.55	18452.78
403.74	18911.53
403.93	17727.22
404.13	16917.39
404.32	16170.76
404.51	17132.72
404.70	18331.08
404.89	18319.37
405.09	17937.87
405.28	17474.44
405.47	17879.35
405.66	17631.26
405.85	17137.40
406.05	16819.09
406.24	17069.53
406.43	17682.75
406.62	18469.17
406.81	18192.98
407.00	17820.84
407.20	17345.71
407.39	17390.18
407.58	18284.26
407.77	18773.44
407.96	19414.74
408.15	19606.67
408.34	19910.94
408.54	20547.56
408.73	20879.92
408.92	20397.77
409.11	19992.86
409.30	19105.79
409.49	17671.04
409.68	16886.97
409.87	16095.86
410.07	17202.94
410.26	18857.70
410.45	19782.21
410.64	20123.93
410.83	20807.36
411.02	21458.03
411.21	22307.65
411.40	21717.83
411.59	22047.85
411.78	21970.61
411.98	21577.40
412.17	22026.78
412.36	21640.59
412.55	21378.45
412.74	21467.39
412.93	20421.17
413.12	20856.51
413.31	22464.46
413.50	22965.34
413.69	23702.61
413.88	22499.57
414.07	21884.01
414.26	21982.31
414.45	22857.67
414.64	23035.55
414.83	22897.46
415.02	22654.05
415.22	22530.00
415.41	22845.97
415.60	23772.82
415.79	24758.19
415.98	25493.12
416.17	25259.06
416.36	24858.83
416.55	24278.38
416.74	23407.70
416.93	22782.77
417.12	22841.29
417.31	23080.02
417.50	23608.98
417.69	24086.45
417.88	24053.69
418.07	23943.68
418.26	23735.37
418.45	23807.93
418.64	24631.80
418.83	25252.04
419.02	25493.12
419.21	24985.22
419.39	24009.22
419.58	22742.99
419.77	22764.05
419.96	23667.50
420.15	25495.46
420.34	26092.29
420.53	27021.48
420.72	27225.11
420.91	26911.48
421.10	26700.83
421.29	26368.48
421.48	25631.21
421.67	26848.29
421.86	25947.18
422.05	24589.67
422.24	21734.21
422.43	21696.77
422.61	23583.24
422.80	26106.34
422.99	25837.17
423.18	25153.74
423.37	24952.45
423.56	24762.87
423.75	25467.37
423.94	25521.20
424.13	23999.85
424.32	24219.86
424.50	24416.47
424.69	24390.72
424.88	24233.91
425.07	24470.30
425.26	23985.81
425.45	23864.10
425.64	23051.94
425.83	23412.38
426.01	24788.61
426.20	25280.13
426.39	25535.24
426.58	23644.09
426.77	21570.38
426.96	20690.34
427.15	21764.64
427.33	23550.47
427.52	24514.77
427.71	24650.52
427.90	24196.46
428.09	23875.80
428.28	23630.05
428.46	22712.56
428.65	22207.00
428.84	22860.01
429.03	23396.00
429.22	22258.49
429.40	21003.97
429.59	19264.95
429.78	16617.80
429.97	16868.24
430.16	16854.20
430.34	17121.02
430.53	16992.29
430.72	17378.48
430.91	19330.48
431.10	22609.58
431.28	26728.92
431.47	28987.53
431.66	29448.62
431.85	26607.21
432.03	24690.31
432.22	23391.31
432.41	24217.52
432.60	27339.80
432.79	28072.39
432.97	28896.25
433.16	27941.32
433.35	25790.36
433.54	23353.87
433.72	21898.05
433.91	22265.52
434.10	25062.46
434.28	26857.65
434.47	27730.67
434.66	28009.19
434.85	27208.73
435.03	26829.56
435.22	27662.79
435.41	29390.11
435.59	29287.12
435.78	29989.28
435.97	30443.35
436.16	30820.17
436.34	30204.61
436.53	29617.14
436.72	29834.81
436.90	28032.60
437.09	28154.30
437.28	27503.64
437.46	28828.38
437.65	28416.44
437.84	26969.99
438.02	24357.96
438.21	24163.69
438.40	25708.44
438.58	27028.51
438.77	28439.85
438.96	29097.54
439.14	29610.12
439.33	30710.17
439.52	31262.54
439.70	30499.52
439.89	29605.44
440.08	29172.44
440.26	28704.33
440.45	29729.48
440.63	31529.36
440.82	33638.18
441.01	33064.75
441.19	32409.40
441.38	33022.62
441.57	34148.42
441.75	34590.78
441.94	34820.15
442.12	34520.56
442.31	35285.92
442.50	35311.66
442.68	34883.34
442.87	34541.63
443.05	33741.16
443.24	34258.42
443.43	34927.81
443.61	35747.00
443.80	36156.60
443.98	34485.45
444.17	33963.51
444.35	36439.80
444.54	36381.29
444.73	36615.34
444.91	34670.36
445.10	33472.00
445.28	32325.14
445.47	31707.24
445.65	31789.16
445.84	32779.20
446.02	34206.93
446.21	34389.49
446.39	34651.63
446.58	35299.96
446.77	35468.48
446.95	35548.06
447.14	36584.91
447.32	37532.83
447.51	36727.69
447.69	35082.29
447.88	34939.52
448.06	35353.79
448.25	36327.45
448.43	36271.28
448.62	35468.48
448.80	35297.62
448.99	35599.55
449.17	36112.13
449.36	36004.46
449.54	37596.03
449.73	37921.36
449.91	38560.33
450.10	39456.75
450.28	39360.79
450.46	39299.94
450.65	39470.79
450.83	39487.18
451.02	38499.47
451.20	38485.43
451.39	38206.90
451.57	38089.88
451.76	38050.09
451.94	37909.66
452.13	37368.99
452.31	35864.03
452.49	33944.79
452.68	34092.24
452.86	34122.67
453.05	34808.45
453.23	35910.84
453.42	36921.95
453.60	37446.23
453.78	38101.58
453.97	37511.77
454.15	37324.52
454.34	36430.44
454.52	36727.69
454.70	36584.91
454.89	36521.72
455.07	36388.31
455.26	37158.34
455.44	38913.75
455.62	38909.07
455.81	39208.65
455.99	39117.37
456.17	38515.86
456.36	38981.62
456.54	40175.30
456.73	40275.94
456.91	40678.51
457.09	40685.53
457.28	41062.36
457.46	40217.43
457.64	39751.66
457.83	38424.57
458.01	37713.05
458.19	38803.74
458.38	38857.57
458.56	40076.99
458.74	39901.45
458.93	39154.82
459.11	39175.89
459.29	38707.78
459.48	38700.76
459.66	39133.76
459.84	39835.92
460.03	39526.97
460.21	39428.66
460.39	40594.25
460.57	40500.63
460.76	41357.27
460.94	41375.99
461.12	40755.75
461.31	40823.62
461.49	40837.67
461.67	40718.30
461.85	41951.76
462.04	41841.76
462.22	41993.89
462.40	41727.07
462.59	41443.87
462.77	41766.86
462.95	41982.19
463.13	41240.24
463.32	41137.26
463.50	40964.06
463.68	40854.05
463.86	40524.04
464.05	40203.38
464.23	39791.45
464.41	39445.05
464.59	38401.17
464.78	40458.50
464.96	40416.37
465.14	40053.59
465.32	40416.37
465.50	41724.73
465.69	42131.98
465.87	40982.78
466.05	40271.26
466.23	38728.84
466.41	37799.65
466.60	38948.85
466.78	39117.37
466.96	39599.52
467.14	40308.71
467.32	40797.88
467.51	40818.94
467.69	38490.11
467.87	39508.24
468.05	40081.67
468.23	40196.36
468.41	40304.02
468.60	40732.34
468.78	40783.83
468.96	40266.58
469.14	40914.90
469.32	41034.27
469.50	39842.94
469.69	40046.57
469.87	38763.95
470.05	39276.53
470.23	39578.46
470.41	39714.21
470.59	39978.69
470.77	40128.48
470.95	40898.52
471.14	41691.96
471.32	41319.82
471.50	43751.63
471.68	43711.84
471.86	43594.82
472.04	44030.16
472.22	44231.44
472.40	42277.10
472.58	41670.90
472.77	41354.93
472.95	42096.88
473.13	43278.85
473.31	41984.53
473.49	42494.77
473.67	42974.58
473.85	43526.94
474.03	44186.97
474.21	44692.53
474.39	44816.58
474.57	44882.11
474.75	45366.60
474.93	45052.97
475.12	43529.28
475.30	44271.23
475.48	44175.27
475.66	45263.62
475.84	44638.70
476.02	44004.41
476.20	43313.95
476.38	44282.94
476.56	45113.83
476.74	46106.21
476.92	45869.82
477.10	46600.07
477.28	47690.76
477.46	48046.52
477.64	48083.97
477.82	48128.44
478.00	47959.92
478.18	47791.40
478.36	47334.99
478.54	47489.47
478.72	48196.31
478.90	49123.16
479.08	49839.37
479.26	50267.69
479.44	50188.11
479.62	50099.17
479.80	50054.70
479.98	50078.10
480.16	50529.83
480.34	50197.47
480.52	50253.64
480.70	50745.15
480.88	50780.26
481.06	51468.38
481.24	51487.10
481.41	52189.27
481.59	52645.67
481.77	52530.98
481.95	52200.97
482.13	51976.28
482.31	51995.00
482.49	52809.51
482.67	52210.33
482.85	52802.49
483.03	53226.12
483.21	53556.14
483.39	53345.49
483.57	52701.84
483.74	52566.09
483.92	52846.96
484.10	52671.42
484.28	53745.72
484.46	54145.95
484.64	54078.08
484.82	53638.06
485.00	53237.83
485.18	52552.05
485.35	51721.16
485.53	49059.97
485.71	45642.79
485.89	44666.78
486.07	46440.91
486.25	49806.60
486.43	51882.66
486.61	52383.53
486.78	52397.57
486.96	52666.73
487.14	53717.64
487.32	54593.00
487.50	55276.43
487.68	55597.09
487.85	56479.47
488.03	56226.69
488.21	56041.79
488.39	55466.02
488.57	54930.03
488.75	54642.15
488.92	55538.57
489.10	57237.80
489.28	58328.49
489.46	58836.39
489.64	58684.25
489.81	58948.73
489.99	58616.38
490.17	58714.68
490.35	58937.03
490.53	58443.18
490.70	58145.93
490.88	58033.58
491.06	59037.67
491.24	58979.16
491.41	57991.45
491.59	56640.96
491.77	56257.12
491.95	56907.79
492.13	57736.34
492.30	58897.24
492.48	59863.88
492.66	60324.97
492.84	60067.51
493.01	60079.21
493.19	59309.18
493.37	59152.36
493.54	59044.69
493.72	59388.75
493.90	60315.61
494.08	61111.39
494.25	61319.70
494.43	61396.93
494.61	61755.03
494.79	61684.82
494.96	61733.97
495.14	60982.66
495.32	60371.78
495.49	59833.46
495.67	60552.00
495.85	61736.31
496.02	62209.10
496.20	61968.02
496.38	61584.18
496.55	61523.32
496.73	61872.06
496.91	62087.39
497.09	62492.30
497.26	62599.97
497.44	62333.15
497.62	61773.76
497.79	61200.33
497.97	60020.70
498.14	60062.83
498.32	61141.81
498.50	61904.83
498.67	62560.18
498.85	62471.24
499.03	62255.91
499.20	62546.14
499.38	62738.06
499.56	62541.45
499.73	62202.08
499.91	61689.50
500.08	61406.30
500.26	60640.94
500.44	61146.50
500.61	61736.31
500.79	61574.81
500.97	61247.14
501.14	61209.69
501.32	60877.33
501.49	61008.40
501.67	60973.30
501.84	61724.61
502.02	61951.64
502.20	62284.00
502.37	62410.38
502.55	62244.21
502.72	62677.21
502.90	63203.83
503.07	62929.98
503.25	62719.34
503.43	61876.74
503.60	61380.55
503.78	60680.73
503.95	61073.94
504.13	62365.91
504.30	63210.85
504.48	62880.83
504.65	62426.77
504.83	62539.11
505.01	63245.96
505.18	63325.53
505.36	64090.89
505.53	64072.17
505.71	64048.76
505.88	64425.59
506.06	63683.64
506.23	63391.07
506.41	63009.56
506.58	63288.09
506.76	63295.11
506.93	63346.60
507.11	63009.56
507.28	63084.46
507.46	62824.66
507.63	62323.78
507.81	61951.64
507.98	62288.68
508.16	62845.72
508.33	63360.64
508.50	63821.73
508.68	63959.82
508.85	64252.39
509.03	64451.33
509.20	64158.76
509.38	63449.58
509.55	62965.09
509.73	62937.01
509.90	63585.33
510.08	63709.38
510.25	63625.12
510.42	63302.13
510.60	63442.56
510.77	63756.19
510.95	63987.91
511.12	64212.60
511.30	64397.50
511.47	64732.20
511.64	64783.69
511.82	64236.00
511.99	63767.90
512.17	63412.13
512.34	62944.03
512.51	63276.38
512.69	63229.57
512.86	63449.58
513.04	63709.38
513.21	63667.25
513.38	63440.22
513.56	63018.92
513.73	62372.94
513.90	62543.80
514.08	62712.31
514.25	62953.39
514.43	63257.66
514.60	63262.34
514.77	63447.24
514.95	63442.56
515.12	63461.29
515.29	63489.37
515.47	64062.80
515.64	64025.35
515.81	64032.38
515.99	63529.16
516.16	62080.37
516.33	60320.29
516.51	58953.41
516.68	58162.31
516.85	58064.01
517.03	58099.12
517.20	60271.14
517.37	62492.30
517.54	63632.14
517.72	63185.10
517.89	61116.07
518.06	58939.37
518.24	59056.40
518.41	61027.13
518.58	62344.85
518.75	62349.53
518.93	62576.56
519.10	62494.64
519.27	63039.99
519.45	62864.45
519.62	63683.64
519.79	64130.68
519.96	63765.56
520.14	63395.75
520.31	62763.81
520.48	62770.83
520.65	62911.26
520.83	63896.62
521.00	64221.96
521.17	63936.41
521.34	63465.97
521.52	63777.26
521.69	64273.45
521.86	64722.83
522.03	64306.22
522.20	63496.39
522.38	62361.23
522.55	62234.84
522.72	62920.62
522.89	63056.37
523.07	63138.29
523.24	63503.42
523.41	64371.75
523.58	64603.47
523.75	64823.48
523.92	64804.75
524.10	64839.86
524.27	64872.63
524.44	64594.10
524.61	64250.05
524.78	64350.69
524.96	64236.00
525.13	64203.24
525.30	64453.67
525.47	64982.63
525.64	64617.51
525.81	63997.27
525.98	62829.34
526.16	61471.83
526.33	61001.38
526.50	60851.59
526.67	60465.40
526.84	60886.70
527.01	61778.44
527.18	62408.04
527.36	63243.62
527.53	64151.74
527.70	64364.73
527.87	63887.26
528.04	63243.62
528.21	63814.71
528.38	64278.13
528.55	64970.93
528.72	65240.09
528.89	65427.34
529.07	65036.47
529.24	64441.97
529.41	63870.88
529.58	63365.32
529.75	63489.37
529.92	63938.75
530.09	64341.33
530.26	64776.67
530.43	65013.06
530.60	64898.37
530.77	65137.11
530.94	65233.07
531.11	64741.56
531.28	64566.02
531.46	64282.81
531.63	64275.79
531.80	64626.87
531.97	64072.17
532.14	63372.34
532.31	62515.71
532.48	61822.91
532.65	61916.53
532.82	62679.55
532.99	63615.76
533.16	63957.48
533.33	64397.50
533.50	64439.63
533.67	63798.32
533.84	63299.79
534.01	63433.20
534.18	63793.64
534.35	63929.39
534.52	63721.08
534.69	64011.31
534.86	64130.68
535.03	64514.53
535.20	64865.61
535.37	65228.39
535.54	65282.22
535.71	64970.93
535.88	64640.92
536.05	64165.79
536.22	63807.68
536.38	63444.90
536.55	63192.12
536.72	62766.15
536.89	62489.96
537.06	63248.30
537.23	64023.01
537.40	64214.94
537.57	64210.26
537.74	64088.55
537.91	64083.87
538.08	63896.62
538.25	63999.61
538.42	64324.94
538.59	63969.18
538.75	63608.74
538.92	63299.79
539.09	63084.46
539.26	62995.52
539.43	62819.98
539.60	62990.84
539.77	63164.04
539.94	62960.41
540.11	62391.66
540.28	61790.14
540.44	61834.61
540.61	61907.17
540.78	62192.72
540.95	62752.10
541.12	63217.87
541.29	63203.83
541.46	63491.71
541.62	63711.72
541.79	63393.41
541.96	62871.47
542.13	62829.34
542.30	63051.69
542.47	63082.12
542.63	63000.20
542.80	62887.85
542.97	62960.41
543.14	62822.32
543.31	62761.47
543.48	63379.37
543.64	64168.13
543.81	64310.90
543.98	64233.66
544.15	63611.08
544.32	62887.85
544.48	63051.69
544.65	63402.77
544.82	63828.75
544.99	63690.66
545.16	63365.32
545.32	62873.81
545.49	63723.43
545.66	63835.77
545.83	63688.32
546.00	63409.79
546.16	62988.50
546.33	63058.71
546.50	63166.38
546.67	63585.33
546.83	63171.06
547.00	63210.85
547.17	62637.42
547.34	62024.20
547.50	62059.30
547.67	62501.67
547.84	62489.96
548.00	62883.17
548.17	63255.32
548.34	63023.61
548.51	62988.50
548.67	63056.37
548.84	63231.91
549.01	63063.39
549.18	63056.37
549.34	63098.50
549.51	63149.99
549.68	62880.83
549.84	62801.25
550.01	62796.57
550.18	62592.95
550.34	62688.91
550.51	62658.48
550.68	62892.54
550.84	62279.31
551.01	62379.96
551.18	62298.04
551.34	62553.16
551.51	62808.28
551.68	63398.09
551.84	63323.19
552.01	62976.79
552.18	62976.79
552.34	62162.29
552.51	61829.93
552.68	61628.65
552.84	62195.06
553.01	62363.57
553.18	62496.98
553.34	62496.98
553.51	62667.84
553.67	62983.82
553.84	62920.62
554.01	62866.79
554.17	62761.47
554.34	62527.41
554.51	62728.70
554.67	63004.88
554.84	62838.70
555.00	62562.52
555.17	62370.60
555.33	62450.17
555.50	62415.07
555.67	62405.70
555.83	62419.75
556.00	61961.00
556.16	62019.52
556.33	61630.99
556.50	61750.35
556.66	61556.09
556.83	61366.51
556.99	61563.11
557.16	61528.00
557.32	61832.27
557.49	62253.57
557.65	61965.68
557.82	61951.64
557.98	61848.66
558.15	61535.02
558.32	60795.42
558.48	59763.24
558.65	60221.98
558.81	60472.42
558.98	60697.11
559.14	60884.36
559.31	60837.54
559.47	61106.71
559.64	60755.63
559.80	60547.32
559.97	60240.71
560.13	60779.03
560.30	61670.78
560.46	62117.82
560.63	62209.10
560.79	62185.69
560.96	61874.40
561.12	60741.58
561.29	60306.24
561.45	60292.20
561.61	60734.56
561.78	61076.28
561.94	61020.11
562.11	61006.06
562.27	60776.69
562.44	61069.26
562.60	61448.42
562.77	61638.01
562.93	61310.33
563.10	61291.61
563.26	60781.37
563.42	60837.54
563.59	60608.17
563.75	60769.67
563.92	60764.99
564.08	60638.60
564.24	60903.08
564.41	60954.57
564.57	60835.20
564.74	60877.33
564.90	60814.14
565.07	60519.23
565.23	60158.79
565.39	59772.60
565.56	59484.72
565.72	59414.50
565.88	59543.23
566.05	59842.82
566.21	60163.47
566.38	60048.78
566.54	60348.37
566.70	60418.59
566.87	60687.75
567.03	60699.45
567.19	60870.31
567.36	60505.19
567.52	60446.68
567.68	60559.02
567.85	59688.34
568.01	59388.75
568.17	59135.98
568.34	59084.48
568.50	59091.51
568.66	59100.87
568.83	59571.32
568.99	59756.22
569.15	59765.58
569.32	59543.23
569.48	59524.50
569.64	59505.78
569.81	58817.66
569.97	59159.38
570.13	58958.09
570.30	58651.48
570.46	58094.44
570.62	57862.72
570.78	57638.03
570.95	58099.12
571.11	58553.18
571.27	58646.80
571.43	58979.16
571.60	59079.80
571.76	59341.94
571.92	59648.55
572.09	59639.19
572.25	59709.41
572.41	59655.57
572.57	59405.14
572.74	59538.55
572.90	59021.29
573.06	59032.99
573.22	59194.49
573.38	59213.21
573.55	59011.93
573.71	59292.79
573.87	59248.32
574.03	59150.02
574.20	59089.16
574.36	58848.09
574.52	58733.40
574.68	58599.99
574.84	58328.49
575.01	57736.34
575.17	57804.21
575.33	58166.99
575.49	58096.78
575.65	58372.96
575.82	58202.10
575.98	57935.28
576.14	58181.04
576.30	58323.81
576.46	58384.66
576.62	58361.26
576.79	58302.74
576.95	58145.93
577.11	57991.45
577.27	58103.80
577.43	58260.62
577.59	57799.53
577.75	57537.39
577.92	57043.54
578.08	57017.79
578.24	56893.74
578.40	57350.15
578.56	57366.53
578.72	57338.44
578.88	57579.52
579.04	57553.77
579.21	57584.20
579.37	57801.87
579.53	57972.73
579.69	57937.62
579.85	57977.41
580.01	57956.35
580.17	57579.52
580.33	57305.68
580.49	57614.63
580.65	57616.97
580.82	57925.92
580.98	57680.16
581.14	57844.00
581.30	57879.11
581.46	57661.44
581.62	57935.28
581.78	58028.90
581.94	58138.91
582.10	57949.32
582.26	58033.58
582.42	57928.26
582.58	58302.74
582.74	57904.85
582.90	57954.00
583.06	58003.16
583.22	57818.25
583.38	57867.40
583.54	57925.92
583.70	57635.69
583.86	57631.01
584.02	57394.62
584.18	57612.29
584.34	57696.55
584.50	57443.77
584.66	57375.89
584.82	57015.45
584.98	57221.42
585.14	56748.63
