SpectraSuite Data File
++++++++++++++++++++++++++++++++++++
Date: Mon Oct 07 14:53:18 GMT-05:00 2013
User: price-jones
Dark Spectrum Present: No
Reference Spectrum Present: No
Number of Sampled Component Spectra: 1
Spectrometers: USB2+H05261
Integration Time (usec): 100000 (USB2+H05261)
Spectra Averaged: 1 (USB2+H05261)
Boxcar Smoothing: 0 (USB2+H05261)
Correct for Electrical Dark: No (USB2+H05261)
Strobe/Lamp Enabled: No (USB2+H05261)
Correct for Detector Non-linearity: No (USB2+H05261)
Correct for Stray Light: No (USB2+H05261)
Number of Pixels in Processed Spectrum: 2048
>>>>>Begin Processed Spectral Data<<<<<
365.73	0.00
365.92	0.00
366.12	0.00
366.32	0.00
366.52	0.00
366.72	0.00
366.91	0.00
367.11	0.00
367.31	0.00
367.51	0.00
367.70	0.00
367.90	0.00
368.10	0.00
368.30	0.00
368.49	0.00
368.69	0.00
368.89	0.00
369.09	0.00
369.28	0.00
369.48	0.00
369.68	0.00
369.87	0.00
370.07	0.00
370.27	0.00
370.47	891.74
370.66	4142.75
370.86	4821.50
371.06	5226.42
371.25	5327.06
371.45	4594.47
371.65	4262.12
371.84	4023.38
372.04	4177.86
372.24	4688.09
372.44	4978.32
372.63	4917.47
372.83	4367.44
373.03	3941.46
373.22	3702.73
373.42	3850.18
373.62	4355.74
373.81	4903.42
374.01	4723.20
374.21	4355.74
374.40	4128.70
374.60	4222.33
374.79	4746.61
374.99	5668.78
375.19	5912.19
375.38	5731.97
375.58	5460.47
375.78	5511.96
375.97	5551.75
376.17	5603.24
376.37	5614.95
376.56	5959.00
376.76	6209.44
376.95	6583.93
377.15	6977.14
377.35	7356.30
377.54	7475.67
377.74	7669.94
377.93	7658.23
378.13	7588.02
378.33	7199.49
378.52	6612.01
378.72	6595.63
378.91	6342.85
379.11	5982.41
379.31	5973.05
379.50	5856.02
379.70	6413.07
379.89	7035.65
380.09	7250.98
380.28	7726.11
380.48	7588.02
380.68	7510.78
380.87	7311.83
381.07	6635.42
381.26	6235.19
381.46	5657.07
381.65	5682.82
381.85	5586.86
382.04	5282.59
382.24	4908.10
382.43	4510.21
382.63	4545.32
382.83	4669.37
383.02	4620.22
383.22	4629.58
383.41	4599.15
383.61	4903.42
383.80	5680.48
384.00	6242.21
384.19	7208.85
384.39	7466.31
384.58	7407.80
384.78	7274.38
384.97	7253.32
385.17	6885.86
385.36	6574.56
385.56	6282.00
385.75	6473.92
385.95	7124.59
386.14	7712.07
386.34	7679.30
386.53	7286.09
386.72	6913.94
386.92	6913.94
387.11	7295.45
387.31	7557.59
387.50	7660.57
387.70	7597.38
387.89	7286.09
388.09	7232.26
388.28	7330.56
388.48	7274.38
388.67	8067.83
388.86	8732.54
389.06	9324.69
389.25	10171.97
389.45	10040.90
389.64	9998.77
389.84	9727.27
390.03	9600.88
390.22	9565.77
390.42	9933.23
390.61	10684.55
390.81	11386.71
391.00	11812.68
391.19	11435.86
391.39	10984.13
391.58	10441.13
391.78	9635.99
391.97	9540.02
392.16	8669.34
392.36	8079.53
392.55	6420.09
392.75	5008.75
392.94	4124.02
393.13	4264.46
393.33	4889.38
393.52	6487.96
393.71	7957.82
393.91	8657.64
394.10	9348.10
394.29	10415.38
394.49	11054.35
394.68	12109.93
394.88	12123.98
395.07	12287.81
395.26	12217.60
395.46	11985.88
395.65	11580.97
395.84	9879.40
396.04	8486.78
396.23	6785.21
396.42	5636.01
396.62	5504.94
396.81	6455.20
397.00	8313.58
397.19	10148.56
397.39	12123.98
397.58	13689.79
397.77	14499.62
397.97	14967.73
398.16	15447.54
398.35	15747.12
398.55	16205.87
398.74	16910.37
398.93	17434.65
399.12	16886.97
399.32	16145.02
399.51	16798.02
399.70	17823.18
399.90	17757.64
400.09	17792.75
400.28	17235.70
400.47	17689.77
400.67	18651.73
400.86	19358.57
401.05	18958.34
401.24	18993.45
401.44	19201.76
401.63	19482.62
401.82	19627.73
402.01	19548.15
402.21	19702.63
402.40	20023.28
402.59	19459.21
402.78	18090.00
402.97	17980.00
403.17	18831.95
403.36	19672.20
403.55	20418.83
403.74	20617.78
403.93	19634.75
404.13	18239.79
404.32	17788.07
404.51	18677.48
404.70	20467.98
404.89	20240.95
405.09	19630.07
405.28	19309.42
405.47	19281.33
405.66	18904.51
405.85	18869.40
406.05	18328.74
406.24	18380.23
406.43	19454.53
406.62	20039.67
406.81	20278.40
407.00	19573.90
407.20	18801.52
407.39	19063.66
407.58	19866.47
407.77	20783.96
407.96	21474.42
408.15	21855.92
408.34	21717.83
408.54	22796.82
408.73	22871.72
408.92	22167.21
409.11	21495.48
409.30	20732.47
409.49	19506.02
409.68	18539.38
409.87	17572.74
410.07	18820.25
410.26	20360.32
410.45	21654.64
410.64	22059.55
410.83	22881.08
411.02	23314.08
411.21	24383.70
411.40	24149.65
411.59	24299.44
411.78	23793.89
411.98	23573.88
412.17	24177.73
412.36	23393.65
412.55	23346.84
412.74	23087.04
412.93	22530.00
413.12	22960.66
413.31	24929.05
413.50	25263.74
413.69	25675.68
413.88	24353.27
414.07	23931.98
414.26	24545.20
414.45	25443.96
414.64	25240.34
414.83	25207.57
415.02	24636.48
415.22	24996.92
415.41	25406.52
415.60	26143.78
415.79	27213.41
415.98	27632.36
416.17	27859.40
416.36	27175.96
416.55	26511.25
416.74	25846.54
416.93	24823.72
417.12	25312.89
417.31	25755.26
417.50	25532.90
417.69	26602.53
417.88	26759.34
418.07	26232.72
418.26	26050.16
418.45	26391.88
418.64	26955.95
418.83	27690.88
419.02	27573.85
419.21	27185.32
419.39	26026.76
419.58	24830.74
419.77	25181.82
419.96	26265.49
420.15	27803.22
420.34	28631.77
420.53	29233.29
420.72	30202.27
420.91	29914.39
421.10	29563.31
421.29	29308.19
421.48	28287.71
421.67	29261.38
421.86	28507.72
422.05	26897.44
422.24	24273.70
422.43	24044.32
422.61	26291.24
422.80	28011.53
422.99	28423.47
423.18	26967.65
423.37	26841.26
423.56	26684.45
423.75	27599.60
423.94	28247.93
424.13	26766.37
424.32	26878.71
424.50	26974.67
424.69	26707.85
424.88	26817.86
425.07	26539.33
425.26	26366.13
425.45	26206.98
425.64	26103.99
425.83	26080.59
426.01	27180.64
426.20	27908.55
426.39	27990.47
426.58	25916.75
426.77	23709.63
426.96	22885.76
427.15	23777.50
427.33	26066.55
427.52	27005.10
427.71	26904.46
427.90	26572.10
428.09	26644.66
428.28	25986.97
428.46	24741.80
428.65	24423.49
428.84	25448.64
429.03	25942.50
429.22	24074.75
429.40	22728.94
429.59	20898.64
429.78	18225.75
429.97	18700.88
430.16	18759.39
430.34	19007.49
430.53	18963.02
430.72	19686.25
430.91	21577.40
431.10	25106.93
431.28	29429.90
431.47	31875.76
431.66	31861.71
431.85	29137.33
432.03	27227.45
432.22	25383.11
432.41	27002.76
432.60	29537.56
432.79	30902.09
432.97	31197.00
433.16	30892.73
433.35	28535.81
433.54	25202.89
433.72	24034.96
433.91	24762.87
434.10	27953.02
434.28	29507.13
434.47	31288.28
434.66	30651.66
434.85	29795.02
435.03	29542.24
435.22	30195.25
435.41	32128.53
435.59	32280.67
435.78	32708.99
435.97	33745.84
436.16	33415.83
436.34	33441.57
436.53	32385.99
436.72	32828.35
436.90	30632.93
437.09	30829.54
437.28	30103.97
437.46	31250.83
437.65	31182.96
437.84	28886.89
438.02	26916.16
438.21	26558.06
438.40	28404.74
438.58	30284.19
438.77	31260.20
438.96	31985.76
439.14	32870.48
439.33	33345.61
439.52	34054.79
439.70	33504.77
439.89	32463.23
440.08	31934.27
440.26	31618.30
440.45	32973.47
440.63	34728.87
440.82	36601.30
441.01	36177.66
441.19	35620.61
441.38	36568.53
441.57	37909.66
441.75	38340.32
441.94	37942.42
442.12	38277.12
442.31	38981.62
442.50	38562.67
442.68	38813.10
442.87	37748.16
443.05	37324.52
443.24	38106.26
443.43	38728.84
443.61	39129.08
443.80	40177.64
443.98	37886.25
444.17	37247.29
444.35	39599.52
444.54	39966.99
444.73	39629.95
444.91	38174.14
445.10	36907.91
445.28	35555.08
445.47	35068.25
445.65	34756.96
445.84	35739.98
446.02	37556.24
446.21	37565.60
446.39	37968.17
446.58	38291.16
446.77	39000.35
446.95	39323.34
447.14	40488.93
447.32	40781.49
447.51	40163.59
447.69	38384.79
447.88	38057.11
448.06	38864.60
448.25	39632.29
448.43	39852.30
448.62	38817.78
448.80	39503.56
448.99	39016.73
449.17	39620.59
449.36	39271.85
449.54	40580.21
449.73	41867.50
449.91	42288.80
450.10	43000.32
450.28	43449.70
450.46	43269.48
450.65	43758.66
450.83	43192.25
451.02	41820.69
451.20	42019.64
451.39	41986.87
451.57	41523.44
451.76	41736.43
451.94	41551.53
452.13	40898.52
452.31	39070.56
452.49	37010.89
452.68	37890.93
452.86	38141.37
453.05	38115.62
453.23	39569.10
453.42	40437.44
453.60	41109.17
453.78	41642.81
453.97	41619.41
454.15	41242.58
454.34	40062.95
454.52	40535.74
454.70	40009.12
454.89	40285.30
455.07	40538.08
455.26	41148.96
455.44	42609.45
455.62	43309.27
455.81	43498.86
455.99	43016.71
456.17	42403.49
456.36	42693.71
456.54	43878.02
456.73	43236.72
456.91	44301.66
457.09	44783.81
457.28	45368.94
457.46	43714.19
457.64	43435.66
457.83	42394.12
458.01	41684.94
458.19	42368.38
458.38	42878.61
458.56	43526.94
458.74	43646.31
458.93	43344.38
459.11	43267.14
459.29	42815.42
459.48	42703.07
459.66	42569.66
459.84	43335.02
460.03	43863.98
460.21	43419.28
460.39	44533.37
460.57	44610.61
460.76	45048.29
460.94	45352.56
461.12	44133.14
461.31	44795.51
461.49	44322.72
461.67	44559.12
461.85	45813.65
462.04	45680.24
462.22	46206.86
462.40	45904.93
462.59	45537.46
462.77	45825.35
462.95	45925.99
463.13	45074.04
463.32	45043.61
463.50	44339.11
463.68	44296.98
463.86	44652.74
464.05	44416.35
464.23	42714.78
464.41	42948.83
464.59	42887.98
464.78	44582.52
464.96	44339.11
465.14	44023.14
465.32	45120.85
465.50	46040.68
465.69	46731.14
465.87	45265.96
466.05	44502.95
466.23	42384.76
466.41	41654.51
466.60	42848.19
466.78	42424.55
466.96	43569.07
467.14	44083.99
467.32	44678.49
467.51	45024.89
467.69	43098.62
467.87	43578.43
468.05	44135.48
468.23	44203.36
468.41	44580.18
468.60	44505.29
468.78	44877.43
468.96	44512.31
469.14	45380.65
469.32	45340.86
469.50	43557.37
469.69	44100.37
469.87	43203.95
470.05	43430.98
470.23	42979.26
470.41	43000.32
470.59	43629.93
470.77	43833.55
470.95	44875.09
471.14	45443.84
471.32	45270.64
471.50	47416.91
471.68	47592.45
471.86	48016.09
472.04	48371.85
472.22	48179.93
472.40	46349.63
472.58	46248.99
472.77	45907.27
472.95	46677.30
473.13	47559.69
473.31	46281.75
473.49	46611.77
473.67	47452.02
473.85	47817.14
474.03	48617.61
474.21	48980.39
474.39	48814.21
474.57	48968.69
474.75	48966.35
474.93	48690.16
475.12	48069.92
475.30	47985.66
475.48	48357.81
475.66	49050.61
475.84	48446.75
476.02	47828.85
476.20	47667.35
476.38	48332.06
476.56	49045.93
476.74	49930.65
476.92	49755.11
477.10	50782.60
477.28	51643.92
477.46	51578.39
477.64	51854.57
477.82	51676.69
478.00	52158.84
478.18	51512.85
478.36	51452.00
478.54	51690.73
478.72	51639.24
478.90	52573.11
479.08	53113.78
479.26	53916.58
479.44	53446.13
479.62	53179.31
479.80	53478.90
479.98	53429.75
480.16	53741.04
480.34	53408.68
480.52	53701.25
480.70	53890.83
480.88	54106.16
481.06	54679.60
481.24	54651.51
481.41	55437.93
481.59	55861.57
481.77	55620.49
481.95	55304.52
482.13	55150.04
482.31	55260.05
482.49	55676.66
482.67	55409.84
482.85	55847.52
483.03	56128.39
483.21	56542.66
483.39	56189.24
483.57	55791.35
483.74	55859.23
483.92	55987.95
484.10	56076.90
484.28	56442.02
484.46	56858.63
484.64	57139.50
484.82	56584.79
485.00	56222.01
485.18	55566.66
485.35	54625.76
485.53	52341.40
485.71	48926.56
485.89	48804.85
486.07	50735.79
486.25	53183.99
486.43	55136.00
486.61	55641.56
486.78	55358.35
486.96	55716.45
487.14	56750.97
487.32	57586.54
487.50	58042.95
487.68	58705.32
487.85	59231.94
488.03	58974.48
488.21	58848.09
488.39	58164.65
488.57	57593.56
488.75	57598.24
488.92	58375.30
489.10	60079.21
489.28	61017.77
489.46	61483.53
489.64	61481.19
489.81	61300.97
489.99	61134.79
490.17	61256.50
490.35	61492.89
490.53	61008.40
490.70	60919.46
490.88	60809.46
491.06	61483.53
491.24	61441.40
491.41	60626.90
491.59	59449.61
491.77	58915.96
491.95	59711.75
492.13	60755.63
492.30	61478.85
492.48	62358.89
492.66	62700.61
492.84	62766.15
493.01	62457.20
493.19	62092.07
493.37	61792.48
493.54	61577.15
493.72	62190.37
493.90	62908.92
494.08	63491.71
494.25	63772.58
494.43	63852.15
494.61	64250.05
494.79	64453.67
494.96	64231.32
495.14	63547.89
495.32	62803.59
495.49	62293.36
495.67	63140.63
495.85	64303.88
496.02	64568.36
496.20	64561.34
496.38	64018.33
496.55	64093.23
496.73	64465.38
496.91	64514.53
497.09	65261.16
497.26	65188.60
497.44	64802.41
497.62	64289.84
497.79	63643.85
497.97	62330.81
498.14	62695.93
498.32	63718.74
498.50	64561.34
498.67	64961.57
498.85	64851.56
499.03	65034.13
499.20	65092.64
499.38	65195.62
499.56	65233.07
499.73	64624.53
499.91	64367.07
500.08	63798.32
500.26	63252.98
500.44	63533.84
500.61	64301.54
500.79	64018.33
500.97	63817.05
501.14	63695.34
501.32	63650.87
501.49	63657.89
501.67	63824.07
501.84	64355.37
502.02	64563.68
502.20	64629.21
502.37	64720.49
502.55	64928.80
502.72	65467.12
502.90	65535.00
503.07	65401.59
503.25	65186.26
503.43	64507.50
503.60	63821.73
503.78	63215.53
503.95	63662.57
504.13	65038.81
504.30	65535.00
504.48	65460.10
504.65	65092.64
504.83	65080.94
505.01	65535.00
505.18	65535.00
505.36	65535.00
505.53	65535.00
505.71	65535.00
505.88	65535.00
506.06	65535.00
506.23	65535.00
506.41	65535.00
506.58	65535.00
506.76	65535.00
506.93	65535.00
507.11	65535.00
507.28	65535.00
507.46	65324.35
507.63	64935.82
507.81	64652.62
507.98	64898.37
508.16	65532.66
508.33	65535.00
508.50	65535.00
508.68	65535.00
508.85	65535.00
509.03	65535.00
509.20	65535.00
509.38	65535.00
509.55	65535.00
509.73	65535.00
509.90	65535.00
510.08	65535.00
510.25	65535.00
510.42	65535.00
510.60	65535.00
510.77	65535.00
510.95	65535.00
511.12	65535.00
511.30	65535.00
511.47	65535.00
511.64	65535.00
511.82	65535.00
511.99	65535.00
512.17	65535.00
512.34	65535.00
512.51	65535.00
512.69	65535.00
512.86	65535.00
513.04	65535.00
513.21	65535.00
513.38	65535.00
513.56	65535.00
513.73	64968.59
513.90	65244.77
514.08	65322.01
514.25	65535.00
514.43	65535.00
514.60	65535.00
514.77	65535.00
514.95	65535.00
515.12	65535.00
515.29	65535.00
515.47	65535.00
515.64	65535.00
515.81	65535.00
515.99	65535.00
516.16	64884.33
516.33	62791.89
516.51	61879.08
516.68	61022.45
516.85	60884.36
517.03	61361.82
517.20	63540.86
517.37	65422.65
517.54	65535.00
517.72	65535.00
517.89	63501.07
518.06	61656.73
518.24	61965.68
518.41	63847.47
518.58	64863.27
518.75	65001.36
518.93	65158.17
519.10	65130.09
519.27	65523.30
519.45	65535.00
519.62	65535.00
519.79	65535.00
519.96	65535.00
520.14	65535.00
520.31	65401.59
520.48	65420.31
520.65	65535.00
520.83	65535.00
521.00	65535.00
521.17	65535.00
521.34	65535.00
521.52	65535.00
521.69	65535.00
521.86	65535.00
522.03	65535.00
522.20	65535.00
522.38	65272.86
522.55	65158.17
522.72	65535.00
522.89	65535.00
523.07	65535.00
523.24	65535.00
523.41	65535.00
523.58	65535.00
523.75	65535.00
523.92	65535.00
524.10	65535.00
524.27	65535.00
524.44	65535.00
524.61	65535.00
524.78	65535.00
524.96	65535.00
525.13	65535.00
525.30	65535.00
525.47	65535.00
525.64	65535.00
525.81	65535.00
525.98	65535.00
526.16	64378.78
526.33	63788.96
526.50	63676.61
526.67	63203.83
526.84	63835.77
527.01	64594.10
527.18	65319.67
527.36	65535.00
527.53	65535.00
527.70	65535.00
527.87	65535.00
528.04	65535.00
528.21	65535.00
528.38	65535.00
528.55	65535.00
528.72	65535.00
528.89	65535.00
529.07	65535.00
529.24	65535.00
529.41	65535.00
529.58	65535.00
529.75	65535.00
529.92	65535.00
530.09	65535.00
530.26	65535.00
530.43	65535.00
530.60	65535.00
530.77	65535.00
530.94	65535.00
531.11	65535.00
531.28	65535.00
531.46	65535.00
531.63	65535.00
531.80	65535.00
531.97	65535.00
532.14	65535.00
532.31	65535.00
532.48	64669.00
532.65	64659.64
532.82	65495.21
532.99	65535.00
533.16	65535.00
533.33	65535.00
533.50	65535.00
533.67	65535.00
533.84	65535.00
534.01	65535.00
534.18	65535.00
534.35	65535.00
534.52	65535.00
534.69	65535.00
534.86	65535.00
535.03	65535.00
535.20	65535.00
535.37	65535.00
535.54	65535.00
535.71	65535.00
535.88	65535.00
536.05	65535.00
536.22	65535.00
536.38	65535.00
536.55	65535.00
536.72	65535.00
536.89	65336.05
537.06	65535.00
537.23	65535.00
537.40	65535.00
537.57	65535.00
537.74	65535.00
537.91	65535.00
538.08	65535.00
538.25	65535.00
538.42	65535.00
538.59	65535.00
538.75	65535.00
538.92	65535.00
539.09	65535.00
539.26	65535.00
539.43	65527.98
539.60	65535.00
539.77	65535.00
539.94	65535.00
540.11	64842.20
540.28	64573.04
540.44	64849.22
540.61	64889.01
540.78	65127.75
540.95	65460.10
541.12	65535.00
541.29	65535.00
541.46	65535.00
541.62	65535.00
541.79	65535.00
541.96	65535.00
542.13	65535.00
542.30	65535.00
542.47	65535.00
542.63	65535.00
542.80	65535.00
542.97	65535.00
543.14	65535.00
543.31	65535.00
543.48	65535.00
543.64	65535.00
543.81	65535.00
543.98	65535.00
544.15	65535.00
544.32	65535.00
544.48	65535.00
544.65	65535.00
544.82	65535.00
544.99	65535.00
545.16	65535.00
545.32	65535.00
545.49	65535.00
545.66	65535.00
545.83	65535.00
546.00	65535.00
546.16	65535.00
546.33	65535.00
546.50	65535.00
546.67	65535.00
546.83	65535.00
547.00	65535.00
547.17	65439.04
547.34	65010.72
547.50	64954.55
547.67	65354.78
547.84	65378.18
548.00	65535.00
548.17	65535.00
548.34	65535.00
548.51	65535.00
548.67	65535.00
548.84	65535.00
549.01	65535.00
549.18	65535.00
549.34	65535.00
549.51	65535.00
549.68	65535.00
549.84	65535.00
550.01	65535.00
550.18	65535.00
550.34	65532.66
550.51	65509.25
550.68	65535.00
550.84	65188.60
551.01	65204.98
551.18	65256.48
551.34	65535.00
551.51	65535.00
551.68	65535.00
551.84	65535.00
552.01	65535.00
552.18	65535.00
552.34	65130.09
552.51	64858.59
552.68	64774.33
552.84	65148.81
553.01	65310.31
553.18	65195.62
553.34	65439.04
553.51	65520.96
553.67	65535.00
553.84	65535.00
554.01	65530.32
554.17	65511.59
554.34	65535.00
554.51	65535.00
554.67	65535.00
554.84	65535.00
555.00	65490.53
555.17	65347.76
555.33	65387.55
555.50	65319.67
555.67	65293.92
555.83	65347.76
556.00	64797.73
556.16	64954.55
556.33	64804.75
556.50	64498.14
556.66	64781.35
556.83	64458.35
556.99	64425.59
557.16	64427.93
557.32	64673.68
557.49	65010.72
557.65	64853.90
557.82	64926.46
557.98	64732.20
558.15	64481.76
558.32	63739.81
558.48	62838.70
558.65	63309.15
558.81	63501.07
558.98	63781.94
559.14	63920.03
559.31	63957.48
559.47	64058.12
559.64	63648.53
559.80	63590.01
559.97	63538.52
560.13	63948.12
560.30	64580.06
560.46	65134.77
560.63	65268.18
560.79	65181.58
560.96	64804.75
561.12	63901.31
561.29	63323.19
561.45	63334.90
561.61	63725.77
561.78	64168.13
561.94	64039.40
562.11	64032.38
562.27	63903.65
562.44	64161.11
562.60	64315.58
562.77	64652.62
562.93	64385.80
563.10	64310.90
563.26	63997.27
563.42	63894.28
563.59	63814.71
563.75	63721.08
563.92	63793.64
564.08	63730.45
564.24	63807.68
564.41	64065.14
564.57	64083.87
564.74	63828.75
564.90	63760.87
565.07	63615.76
565.23	63257.66
565.39	62955.73
565.56	62827.00
565.72	62312.08
565.88	62862.11
566.05	63070.42
566.21	63007.22
566.38	63208.51
566.54	63161.70
566.70	63503.42
566.87	63803.00
567.03	63711.72
567.19	63959.82
567.36	63763.21
567.52	63561.93
567.68	63206.17
567.85	62885.51
568.01	62534.43
568.17	62260.59
568.34	62326.13
568.50	62066.33
568.66	62204.42
568.83	62478.26
568.99	62653.80
569.15	63058.71
569.32	62801.25
569.48	62845.72
569.64	62471.24
569.81	62244.21
569.97	62082.71
570.13	62300.38
570.30	61836.95
570.46	61525.66
570.62	61036.49
570.78	60999.04
570.95	61095.00
571.11	61766.74
571.27	61944.62
571.43	62150.59
571.60	62300.38
571.76	62447.83
571.92	62667.84
572.09	62904.24
572.25	62784.87
572.41	62656.14
572.57	62651.46
572.74	62504.01
572.90	62232.50
573.06	62408.04
573.22	62213.78
573.38	62459.54
573.55	62255.91
573.71	62410.38
573.87	62410.38
574.03	62124.84
574.20	62197.40
574.36	61911.85
574.52	61652.05
574.68	61654.39
574.84	61212.03
575.01	61207.35
575.17	61188.63
575.33	61354.80
575.49	61331.40
575.65	61771.42
575.82	61380.55
575.98	61113.73
576.14	61329.06
576.30	61453.11
576.46	61659.07
576.62	61635.67
576.79	61595.88
576.95	61357.14
577.11	61123.09
577.27	61375.87
577.43	61322.04
577.59	61099.68
577.75	60809.46
577.92	60430.29
578.08	60114.32
578.24	60102.62
578.40	60491.15
578.56	60945.21
578.72	60729.88
578.88	60795.42
579.04	61031.81
579.21	61015.43
579.37	60898.40
579.53	61315.01
579.69	61024.79
579.85	61352.46
580.01	61113.73
580.17	60720.52
580.33	60402.21
580.49	60786.05
580.65	61006.06
580.82	61202.67
580.98	61193.31
581.14	60828.18
581.30	60973.30
581.46	60905.42
581.62	61132.45
581.78	61200.33
581.94	61343.10
582.10	61312.67
582.26	61324.38
582.42	61528.00
582.58	61443.74
582.74	61155.86
582.90	61258.84
583.06	61186.28
583.22	61113.73
583.38	60982.66
583.54	60860.95
583.70	60912.44
583.86	60856.27
584.02	60924.14
584.18	61123.09
584.34	60823.50
584.50	60814.14
584.66	60818.82
584.82	60420.93
584.98	60285.18
