SpectraSuite Data File
++++++++++++++++++++++++++++++++++++
Date: Mon Oct 07 14:55:00 GMT-05:00 2013
User: price-jones
Dark Spectrum Present: No
Reference Spectrum Present: No
Number of Sampled Component Spectra: 1
Spectrometers: USB2+H05261
Integration Time (usec): 10000 (USB2+H05261)
Spectra Averaged: 1 (USB2+H05261)
Boxcar Smoothing: 0 (USB2+H05261)
Correct for Electrical Dark: No (USB2+H05261)
Strobe/Lamp Enabled: No (USB2+H05261)
Correct for Detector Non-linearity: No (USB2+H05261)
Correct for Stray Light: No (USB2+H05261)
Number of Pixels in Processed Spectrum: 2048
>>>>>Begin Processed Spectral Data<<<<<
365.73	0.00
365.92	0.00
366.12	0.00
366.32	0.00
366.52	0.00
366.72	0.00
366.91	0.00
367.11	0.00
367.31	0.00
367.51	0.00
367.70	0.00
367.90	0.00
368.10	0.00
368.30	0.00
368.49	0.00
368.69	0.00
368.89	0.00
369.09	0.00
369.28	0.00
369.48	0.00
369.68	0.00
369.87	0.00
370.07	0.00
370.27	0.00
370.47	369.80
370.66	2111.16
370.86	2576.93
371.06	2768.85
371.25	2579.27
371.45	2450.54
371.65	2174.36
371.84	2078.40
372.04	2305.43
372.24	2583.95
372.44	2679.91
372.63	2525.44
372.83	2300.75
373.03	2019.88
373.22	1961.37
373.42	2097.12
373.62	2445.86
373.81	2518.42
374.01	2466.92
374.21	2239.89
374.40	2132.23
374.60	2303.09
374.79	2684.59
374.99	3073.12
375.19	3190.15
375.38	3248.66
375.58	2932.69
375.78	2906.95
375.97	3052.06
376.17	3030.99
376.37	3023.97
376.56	3222.92
376.76	3438.25
376.95	3602.08
377.15	3908.69
377.35	4067.85
377.54	4273.82
377.74	4388.50
377.93	4334.67
378.13	4065.51
378.33	3721.45
378.52	3700.39
378.72	3552.93
378.91	3494.42
379.11	3248.66
379.31	3169.09
379.50	3307.18
379.70	3634.85
379.89	3904.01
380.09	4208.28
380.28	4395.53
380.48	4161.47
380.68	4194.24
380.87	4109.98
381.07	3726.13
381.26	3307.18
381.46	3253.34
381.65	3075.46
381.85	2904.60
382.04	2757.15
382.24	2729.06
382.43	2647.15
382.63	2429.48
382.83	2478.63
383.02	2609.70
383.22	2513.74
383.41	2497.35
383.61	2822.69
383.80	3307.18
384.00	3653.58
384.19	4079.55
384.39	4264.46
384.58	4376.80
384.78	4105.30
384.97	4088.92
385.17	3906.35
385.36	3653.58
385.56	3550.59
385.75	3873.59
385.95	4098.28
386.14	4447.02
386.34	4360.42
386.53	4109.98
386.72	4009.34
386.92	3941.46
387.11	4421.27
387.31	4311.27
387.50	4332.33
387.70	4191.90
387.89	4117.00
388.09	4191.90
388.28	4205.94
388.48	4327.65
388.67	4711.50
388.86	5217.05
389.06	5612.60
389.25	5764.74
389.45	5734.31
389.64	5804.53
389.84	5685.16
390.03	5664.10
390.22	5657.07
390.42	5987.09
390.61	6373.28
390.81	6834.36
391.00	6883.52
391.19	6733.72
391.39	6595.63
391.58	6146.25
391.78	5713.25
391.97	5617.29
392.16	5240.46
392.36	4507.87
392.55	3595.06
392.75	2743.11
392.94	2424.80
393.13	2452.88
393.33	3141.00
393.52	3999.98
393.71	4657.67
393.91	5167.90
394.10	5813.89
394.29	6207.10
394.49	6696.27
394.68	7288.43
394.88	7262.68
395.07	7475.67
395.26	7382.05
395.46	6958.41
395.65	6609.67
395.84	5710.91
396.04	4772.35
396.23	3845.50
396.42	3239.30
396.62	3311.86
396.81	3999.98
397.00	5170.24
397.19	6480.94
397.39	7829.09
397.58	8360.39
397.77	8877.65
397.97	8961.91
398.16	9137.45
398.35	9589.17
398.55	9966.00
398.74	10246.87
398.93	10520.71
399.12	10403.68
399.32	9909.83
399.51	10494.96
399.70	10817.96
399.90	10747.74
400.09	10869.45
400.28	10633.05
400.47	10593.26
400.67	11197.12
400.86	11424.15
401.05	11332.87
401.24	11557.57
401.44	12123.98
401.63	11990.56
401.82	11866.52
402.01	11906.31
402.21	11702.68
402.40	11948.43
402.59	11611.40
402.78	10775.83
402.97	10817.96
403.17	11463.94
403.36	12119.29
403.55	12641.23
403.74	12699.75
403.93	11943.75
404.13	11026.26
404.32	11115.20
404.51	11847.79
404.70	12514.84
404.89	12245.68
405.09	11936.73
405.28	11714.38
405.47	11726.08
405.66	11793.96
405.85	11485.01
406.05	11103.50
406.24	11236.91
406.43	11583.31
406.62	12264.41
406.81	12198.87
407.00	12035.03
407.20	11485.01
407.39	11751.83
407.58	12699.75
407.77	12950.18
407.96	13064.87
408.15	13355.10
408.34	13668.73
408.54	13984.70
408.73	13881.72
408.92	13902.78
409.11	13334.03
409.30	12627.19
409.49	11698.00
409.68	11180.74
409.87	11265.00
410.07	11969.50
410.26	12535.91
410.45	13549.36
410.64	13715.54
410.83	14310.04
411.02	14864.74
411.21	15098.80
411.40	14977.09
411.59	15171.35
411.78	14956.02
411.98	14892.83
412.17	14771.12
412.36	14771.12
412.55	14607.28
412.74	14391.95
412.93	14218.75
413.12	14869.42
413.31	15815.00
413.50	15700.31
413.69	15826.70
413.88	15091.77
414.07	14766.44
414.26	15325.83
414.45	15833.72
414.64	15686.27
414.83	15810.32
415.02	15517.75
415.22	15501.37
415.41	15704.99
415.60	16514.82
415.79	17355.07
415.98	17441.67
416.17	17547.00
416.36	17179.53
416.55	16596.74
416.74	16168.42
416.93	15939.05
417.12	16081.82
417.31	16058.42
417.50	16456.31
417.69	17275.49
417.88	16741.85
418.07	16643.55
418.26	16205.87
418.45	16720.79
418.64	17240.39
418.83	18033.83
419.02	17598.49
419.21	17394.86
419.39	16449.28
419.58	15555.20
419.77	16121.61
419.96	16826.11
420.15	17865.31
420.34	18188.30
420.53	18867.06
420.72	18848.33
420.91	18677.48
421.10	18347.46
421.29	18548.75
421.48	18197.67
421.67	19063.66
421.86	18040.85
422.05	16552.27
422.24	15236.89
422.43	15531.80
422.61	17071.87
422.80	18001.06
422.99	18118.09
423.18	17254.43
423.37	17252.09
423.56	17568.06
423.75	17759.98
423.94	18253.84
424.13	17057.82
424.32	17207.62
424.50	17528.27
424.69	16901.01
424.88	17165.49
425.07	17207.62
425.26	17151.45
425.45	16702.06
425.64	16233.96
425.83	16945.48
426.01	17972.97
426.20	18008.08
426.39	17600.83
426.58	16269.06
426.77	15288.38
426.96	14675.16
427.15	15470.94
427.33	17039.10
427.52	16952.50
427.71	17465.08
427.90	16877.60
428.09	16791.00
428.28	16355.66
428.46	16126.29
428.65	15852.45
428.84	16570.99
429.03	16304.17
429.22	15587.97
429.40	14267.91
429.59	12877.63
429.78	11838.43
429.97	12262.07
430.16	11990.56
430.34	12037.38
430.53	12037.38
430.72	13053.17
430.91	14476.21
431.10	17317.62
431.28	19461.55
431.47	20875.24
431.66	20538.20
431.85	18443.42
432.03	16886.97
432.22	16943.14
432.41	18178.94
432.60	19913.28
432.79	20095.84
432.97	20475.01
433.16	20098.18
433.35	17855.95
433.54	16175.44
433.72	15681.59
433.91	16353.32
434.10	18675.13
434.28	19585.60
434.47	20570.97
434.66	19903.92
434.85	19728.38
435.03	19882.85
435.22	20027.96
435.41	21139.72
435.59	21322.28
435.78	21598.46
435.97	21727.19
436.16	22085.30
436.34	21752.94
436.53	21266.11
436.72	21228.66
436.90	19957.75
437.09	20056.05
437.28	20100.52
437.46	20582.67
437.65	20004.56
437.84	18609.60
438.02	17432.31
438.21	17951.91
438.40	18621.30
438.58	19943.70
438.77	20367.34
438.96	21003.97
439.14	21951.88
439.33	22537.02
439.52	22417.65
439.70	21752.94
439.89	21348.03
440.08	21198.23
440.26	21128.02
440.45	21766.98
440.63	23536.43
440.82	24301.78
441.01	23524.72
441.19	23524.72
441.38	24091.13
441.57	25116.29
441.75	25315.23
441.94	25701.42
442.12	25572.69
442.31	25872.28
442.50	26408.26
442.68	25642.91
442.87	25441.62
443.05	24643.50
443.24	25792.70
443.43	25902.71
443.61	26607.21
443.80	26228.04
443.98	25518.86
444.17	25935.48
444.35	26757.00
444.54	27321.07
444.73	26806.16
444.91	25008.62
445.10	24482.00
445.28	23744.73
445.47	23187.69
445.65	23690.90
445.84	24196.46
446.02	25179.48
446.21	25563.33
446.39	25083.52
446.58	25736.53
446.77	26319.32
446.95	26085.27
447.14	27372.57
447.32	28252.61
447.51	26691.47
447.69	25872.28
447.88	26033.78
448.06	26700.83
448.25	26895.10
448.43	27056.59
448.62	26443.37
448.80	26518.27
448.99	26223.36
449.17	26298.26
449.36	26888.07
449.54	27688.54
449.73	27889.82
449.91	28503.04
450.10	29137.33
450.28	29668.63
450.46	28945.41
450.65	29467.34
450.83	29277.76
451.02	29116.26
451.20	28460.91
451.39	28268.99
451.57	28203.46
451.76	28093.45
451.94	27555.13
452.13	27335.12
452.31	25893.35
452.49	25083.52
452.68	25778.66
452.86	26258.47
453.05	25977.61
453.23	27218.09
453.42	27974.08
453.60	28428.15
453.78	28662.20
453.97	28013.87
454.15	27758.75
454.34	27131.49
454.52	27363.20
454.70	27232.13
454.89	27070.64
455.07	27922.59
455.26	28030.26
455.44	28676.24
455.62	29340.96
455.81	29841.83
455.99	29558.63
456.17	29160.73
456.36	29490.75
456.54	30197.59
456.73	30017.37
456.91	30492.50
457.09	30684.42
457.28	31239.13
457.46	29741.19
457.64	29156.05
457.83	28474.96
458.01	28208.14
458.19	29076.48
458.38	29420.53
458.56	30003.33
458.74	30012.69
458.93	29572.67
459.11	29575.01
459.29	28842.42
459.48	29490.75
459.66	29193.50
459.84	29708.42
460.03	29692.04
460.21	29895.66
460.39	30761.66
460.57	30637.61
460.76	31000.40
460.94	30567.40
461.12	31194.66
461.31	30895.07
461.49	30803.79
461.67	30745.28
461.85	31454.46
462.04	30998.06
462.22	31597.23
462.40	31789.16
462.59	31110.40
462.77	31590.21
462.95	31854.69
463.13	31349.14
463.32	30789.75
463.50	30939.54
463.68	31248.49
463.86	30967.63
464.05	30110.99
464.23	29642.88
464.41	29455.64
464.59	29507.13
464.78	30368.45
464.96	30216.32
465.14	30068.86
465.32	31454.46
465.50	31880.44
465.69	32231.52
465.87	31218.07
466.05	29811.40
466.23	28809.65
466.41	28587.30
466.60	29834.81
466.78	29535.22
466.96	29991.62
467.14	30398.88
467.32	31065.93
467.51	31267.22
467.69	29191.16
467.87	30251.42
468.05	30981.67
468.23	30572.08
468.41	30623.57
468.60	30869.33
468.78	31082.31
468.96	30515.90
469.14	31988.10
469.32	31468.50
469.50	30171.85
469.69	30326.32
469.87	29479.05
470.05	29560.97
470.23	30286.53
470.41	30600.16
470.59	30689.10
470.77	30520.59
470.95	31311.69
471.14	31732.98
471.32	32189.39
471.50	33326.89
471.68	33202.84
471.86	33500.09
472.04	34607.16
472.22	34321.62
472.40	32535.79
472.58	32758.14
472.77	32102.79
472.95	32746.44
473.13	33069.43
473.31	32680.90
473.49	33015.60
473.67	33846.49
473.85	34033.73
474.03	34274.80
474.21	35016.75
474.39	34611.84
474.57	35133.78
474.75	34733.55
474.93	33888.62
475.12	33160.71
475.30	34778.02
475.48	34749.93
475.66	34904.41
475.84	33584.35
476.02	33839.47
476.20	33574.98
476.38	34909.09
476.56	35793.81
476.74	35405.28
476.92	35852.33
477.10	36041.91
477.28	36863.44
477.46	36343.84
477.64	37563.26
477.82	37748.16
478.00	37816.04
478.18	36671.51
478.36	36568.53
478.54	36746.41
478.72	37677.94
478.90	38120.31
479.08	39648.68
479.26	40032.52
479.44	39840.60
479.62	40095.72
479.80	40348.50
479.98	39278.87
480.16	39564.42
480.34	39061.20
480.52	40425.73
480.70	41170.02
480.88	41006.19
481.06	40622.34
481.24	40491.27
481.41	41336.20
481.59	42433.91
481.77	41881.55
481.95	41237.90
482.13	41598.34
482.31	42071.13
482.49	43370.13
482.67	42904.36
482.85	42747.54
483.03	43257.78
483.21	44158.89
483.39	44130.80
483.57	43924.83
483.74	42871.59
483.92	43248.42
484.10	43503.54
484.28	43627.59
484.46	44142.50
484.64	45095.10
484.82	44086.33
485.00	43615.88
485.18	43122.03
485.35	40449.14
485.53	37099.83
485.71	34134.37
485.89	35019.10
486.07	36849.39
486.25	40313.39
486.43	42574.34
486.61	43480.13
486.78	43136.07
486.96	43192.25
487.14	44790.83
487.32	45771.52
487.50	46934.76
487.68	47353.72
487.85	47475.43
488.03	47372.44
488.21	46478.36
488.39	46541.55
488.57	45315.11
488.75	45918.97
488.92	47531.60
489.10	49949.37
489.28	50066.40
489.46	51395.82
489.64	51173.47
489.81	51578.39
489.99	51367.74
490.17	51381.78
490.35	51765.63
490.53	50829.41
490.70	50710.05
490.88	50887.93
491.06	52655.03
491.24	51758.61
491.41	50000.86
491.59	48463.13
491.77	48360.15
491.95	50012.57
492.13	51117.30
492.30	51938.83
492.48	53113.78
492.66	53504.65
492.84	52701.84
493.01	52741.63
493.19	52743.97
493.37	51997.34
493.54	51896.70
493.72	53212.08
493.90	53616.99
494.08	54447.88
494.25	54745.13
494.43	54967.48
494.61	54726.41
494.79	54749.81
494.96	55173.45
495.14	54602.36
495.32	52729.93
495.49	53532.73
495.67	54358.94
495.85	54864.50
496.02	55978.59
496.20	55758.58
496.38	55524.53
496.55	55538.57
496.73	56135.41
496.91	55571.34
497.09	55910.72
497.26	56633.94
497.44	56179.88
497.62	54906.63
497.79	53785.51
497.97	53284.64
498.14	54031.27
498.32	55325.58
498.50	55657.94
498.67	55943.48
498.85	55870.93
499.03	56310.95
499.20	56640.96
499.38	55875.61
499.56	55664.96
499.73	55718.79
499.91	55318.56
500.08	54845.77
500.26	55208.56
500.44	55367.71
500.61	55082.17
500.79	55271.75
500.97	54817.69
501.14	54380.01
501.32	54103.82
501.49	54410.43
501.67	54749.81
501.84	55014.29
502.02	55622.83
502.20	55962.21
502.37	56177.54
502.55	56666.71
502.72	57113.75
502.90	57198.01
503.07	56568.41
503.25	55585.38
503.43	54583.63
503.60	54798.96
503.78	54396.39
503.95	55320.90
504.13	56774.37
504.30	57275.25
504.48	56640.96
504.65	56362.44
504.83	57022.47
505.01	56816.50
505.18	57139.50
505.36	57986.77
505.53	58309.77
505.71	58218.49
505.88	58326.15
506.06	57979.75
506.23	57303.34
506.41	56549.68
506.58	56552.02
506.76	57272.91
506.93	56741.61
507.11	57013.11
507.28	56647.99
507.46	56231.37
507.63	56121.37
507.81	55952.85
507.98	56156.47
508.16	56846.93
508.33	57312.70
508.50	57794.85
508.68	58358.92
508.85	58960.44
509.03	58817.66
509.20	58347.21
509.38	57357.17
509.55	56884.38
509.73	57141.84
509.90	57668.46
510.08	57755.06
510.25	57673.14
510.42	56938.21
510.60	56680.75
510.77	57272.91
510.95	58113.16
511.12	57755.06
511.30	58319.13
511.47	58925.33
511.64	58850.43
511.82	58969.80
511.99	57710.59
512.17	57673.14
512.34	57190.99
512.51	57425.04
512.69	57389.94
512.86	56905.44
513.04	57471.85
513.21	57441.43
513.38	56690.12
513.56	56025.40
513.73	56137.75
513.90	56104.98
514.08	56404.57
514.25	56832.89
514.43	57125.46
514.60	57139.50
514.77	57598.24
514.95	58213.80
515.12	58272.32
515.29	58532.12
515.47	58754.47
515.64	58555.52
515.81	58253.59
515.99	57249.50
516.16	54866.84
516.33	52652.69
516.51	52411.62
516.68	50450.25
516.85	50045.33
517.03	51494.13
517.20	54578.95
517.37	57111.41
517.54	57694.21
517.72	56835.23
517.89	53918.92
518.06	52402.25
518.24	53909.56
518.41	56107.32
518.58	57190.99
518.75	56411.59
518.93	56587.13
519.10	56069.87
519.27	56734.59
519.45	57111.41
519.62	57832.30
519.79	57979.75
519.96	57450.79
520.14	57638.03
520.31	56512.23
520.48	56608.20
520.65	56772.03
520.83	57609.95
521.00	57413.34
521.17	57209.71
521.34	57642.71
521.52	58223.17
521.69	58319.13
521.86	58983.84
522.03	58450.20
522.20	56746.29
522.38	56451.38
522.55	56254.78
522.72	56381.16
522.89	57233.12
523.07	57703.57
523.24	58012.52
523.41	58539.14
523.58	59454.29
523.75	59313.86
523.92	59068.10
524.10	59194.49
524.27	59269.39
524.44	58382.32
524.61	58181.04
524.78	58319.13
524.96	58452.54
525.13	59203.85
525.30	59566.63
525.47	59891.97
525.64	59494.08
525.81	58560.20
525.98	57052.90
526.16	55047.06
526.33	54726.41
526.50	53790.19
526.67	54440.86
526.84	55131.32
527.01	56095.62
527.18	56570.75
527.36	57661.44
527.53	58426.79
527.70	58101.46
527.87	57392.28
528.04	57813.57
528.21	58429.13
528.38	59054.06
528.55	59351.30
528.72	59379.39
528.89	59391.09
529.07	59716.43
529.24	58403.39
529.41	57982.09
529.58	58349.56
529.75	57865.06
529.92	58398.71
530.09	58948.73
530.26	58574.25
530.43	58784.90
530.60	59465.99
530.77	59157.04
530.94	58721.70
531.11	58433.81
531.28	58639.78
531.46	58763.83
531.63	58932.35
531.80	58232.53
531.97	58216.14
532.14	57422.70
532.31	56112.00
532.48	55348.99
532.65	56175.20
532.82	56645.65
532.99	58576.59
533.16	58904.26
533.33	58543.82
533.50	58869.15
533.67	58038.26
533.84	57310.36
534.01	57867.40
534.18	58089.76
534.35	58429.13
534.52	57563.14
534.69	58482.97
534.86	58368.28
535.03	59070.44
535.20	59442.59
535.37	59475.35
535.54	59721.11
535.71	58787.24
535.88	58848.09
536.05	58176.36
536.22	57523.35
536.38	57815.91
536.55	57357.17
536.72	57127.80
536.89	57130.14
537.06	57963.37
537.23	58623.40
537.40	58719.36
537.57	59086.82
537.74	58557.86
537.91	58120.18
538.08	58328.49
538.25	58880.86
538.42	58497.01
538.59	58466.58
538.75	57528.03
538.92	57511.64
539.09	57453.13
539.26	57698.89
539.43	57602.92
539.60	57279.93
539.77	57495.26
539.94	56619.90
540.11	56013.70
540.28	55859.23
540.44	55891.99
540.61	56868.00
540.78	56952.26
540.95	56973.32
541.12	56104.98
541.29	57429.72
541.46	57993.79
541.62	58688.93
541.79	56924.17
541.96	56097.96
542.13	57237.80
542.30	57635.69
542.47	57261.21
542.63	57448.45
542.80	57097.37
542.97	57176.95
543.14	57317.38
543.31	57380.57
543.48	58277.00
543.64	58876.18
543.81	59138.32
543.98	59178.10
544.15	57918.90
544.32	57928.26
544.48	57453.13
544.65	58087.42
544.82	58576.59
544.99	58017.20
545.16	57565.48
545.32	57460.15
545.49	58672.55
545.66	58482.97
545.83	57902.51
546.00	58024.22
546.16	57773.78
546.33	57886.13
546.50	57045.88
546.67	57694.21
546.83	57888.47
547.00	57834.64
547.17	56514.58
547.34	56392.87
547.50	56133.07
547.67	56608.20
547.84	56828.21
548.00	57546.75
548.17	57476.54
548.34	57820.59
548.51	58033.58
548.67	57317.38
548.84	57609.95
549.01	57511.64
549.18	57275.25
549.34	57214.40
549.51	57717.61
549.68	56921.83
549.84	56659.69
550.01	55985.61
550.18	56446.70
550.34	56706.50
550.51	57394.62
550.68	57085.67
550.84	56980.34
551.01	57186.31
551.18	56601.18
551.34	57469.51
551.51	57811.23
551.68	57670.80
551.84	58248.91
552.01	57712.93
552.18	56432.66
552.34	56013.70
552.51	56236.05
552.68	56332.01
552.84	56313.29
553.01	56982.68
553.18	55770.28
553.34	56257.12
553.51	56615.22
553.67	56711.18
553.84	56996.73
554.01	57406.32
554.17	56655.01
554.34	56456.06
554.51	57237.80
554.67	56860.97
554.84	56662.03
555.00	55838.16
555.17	56296.91
555.33	57186.31
555.50	57333.76
555.67	57251.84
555.83	56966.30
556.00	56140.09
556.16	56048.81
556.33	55924.76
556.50	55421.55
556.66	56360.10
556.83	56006.68
556.99	56449.04
557.16	56079.24
557.32	56247.75
557.49	56435.00
557.65	56591.81
557.82	56736.93
557.98	56559.05
558.15	55758.58
558.32	54976.84
558.48	54321.49
558.65	54307.45
558.81	54307.45
558.98	54717.04
559.14	54354.26
559.31	54721.72
559.47	54990.89
559.64	54199.79
559.80	54035.95
559.97	54642.15
560.13	55414.52
560.30	56179.88
560.46	57118.43
560.63	57293.97
560.79	58506.37
560.96	56177.54
561.12	55545.59
561.29	54773.22
561.45	54590.66
561.61	56217.33
561.78	55828.80
561.94	55980.93
562.11	54897.27
562.27	54234.89
562.44	55079.83
562.60	55903.70
562.77	55924.76
562.93	55318.56
563.10	55676.66
563.26	55746.88
563.42	55508.14
563.59	54995.57
563.75	54665.55
563.92	55255.37
564.08	55777.31
564.24	55784.33
564.41	54738.11
564.57	55585.38
564.74	54499.37
564.90	55264.73
565.07	54454.90
565.23	54014.88
565.39	53249.53
565.56	53310.38
565.72	53563.16
565.88	53532.73
566.05	55234.30
566.21	54045.31
566.38	53947.01
566.54	54873.86
566.70	54824.71
566.87	54798.96
567.03	55283.45
567.19	55753.90
567.36	55004.93
567.52	55100.89
567.68	54836.41
567.85	54167.02
568.01	54000.84
568.17	53911.90
568.34	53825.30
568.50	53474.22
568.66	52774.40
568.83	52662.05
568.99	52853.98
569.15	53055.26
569.32	53420.39
569.48	53495.28
569.64	53511.67
569.81	54190.42
569.97	53928.28
570.13	52626.95
570.30	51971.60
570.46	51763.29
570.62	50801.33
570.78	51810.10
570.95	52598.86
571.11	52961.64
571.27	52313.31
571.43	53013.13
571.60	53406.34
571.76	53244.85
571.92	53942.33
572.09	53525.71
572.25	53528.05
572.41	53886.15
572.57	53916.58
572.74	54262.98
572.90	53607.63
573.06	54068.72
573.22	54110.85
573.38	53876.79
573.55	54019.56
573.71	53261.23
573.87	53375.92
574.03	53312.72
574.20	53176.97
574.36	52601.20
574.52	52711.20
574.68	52229.05
574.84	52456.09
575.01	52006.70
575.17	51625.20
575.33	51735.20
575.49	52523.96
575.65	52577.79
575.82	52233.74
575.98	51688.39
576.14	52299.27
576.30	53429.75
576.46	52638.65
576.62	52114.37
576.79	51938.83
576.95	52083.94
577.11	51639.24
577.27	51999.68
577.43	51313.90
577.59	51758.61
577.75	52238.42
577.92	51587.75
578.08	50618.77
578.24	51138.36
578.40	50878.57
578.56	50382.37
578.72	51463.70
578.88	51253.05
579.04	52027.77
579.21	51304.54
579.37	51793.71
579.53	51409.87
579.69	51140.71
579.85	51098.58
580.01	50801.33
580.17	50562.59
580.33	51835.84
580.49	51576.04
580.65	51868.61
580.82	51660.30
580.98	51601.79
581.14	51585.41
581.30	51604.13
581.46	51774.99
581.62	51393.48
581.78	51779.67
581.94	51463.70
582.10	51487.10
582.26	51203.90
582.42	50710.05
582.58	52140.11
582.74	51660.30
582.90	51334.97
583.06	52797.80
583.22	52278.21
583.38	52549.71
583.54	51634.56
583.70	50932.40
583.86	50567.27
584.02	51297.52
584.18	51887.34
584.34	51194.54
584.50	50681.96
584.66	51004.95
584.82	50810.69
584.98	50899.63
585.14	50323.86
585.30	49476.58
