SpectraSuite Data File
++++++++++++++++++++++++++++++++++++
Date: Mon Oct 07 14:53:52 GMT-05:00 2013
User: price-jones
Dark Spectrum Present: No
Reference Spectrum Present: No
Number of Sampled Component Spectra: 1
Spectrometers: USB2+H05261
Integration Time (usec): 100000 (USB2+H05261)
Spectra Averaged: 1 (USB2+H05261)
Boxcar Smoothing: 0 (USB2+H05261)
Correct for Electrical Dark: No (USB2+H05261)
Strobe/Lamp Enabled: No (USB2+H05261)
Correct for Detector Non-linearity: No (USB2+H05261)
Correct for Stray Light: No (USB2+H05261)
Number of Pixels in Processed Spectrum: 2048
>>>>>Begin Processed Spectral Data<<<<<
365.73	0.00
365.92	0.00
366.12	0.00
366.32	0.00
366.52	0.00
366.72	0.00
366.91	0.00
367.11	0.00
367.31	0.00
367.51	0.00
367.70	0.00
367.90	0.00
368.10	0.00
368.30	0.00
368.49	0.00
368.69	0.00
368.89	0.00
369.09	0.00
369.28	0.00
369.48	0.00
369.68	0.00
369.87	0.00
370.07	0.00
370.27	0.00
370.47	545.34
370.66	3098.87
370.86	3412.50
371.06	3873.59
371.25	3702.73
371.45	3482.72
371.65	3019.29
371.84	2937.37
372.04	2995.89
372.24	3442.93
372.44	3461.65
372.63	3454.63
372.83	3267.39
373.03	2909.29
373.22	2850.77
373.42	2825.03
373.62	3185.47
373.81	3503.78
374.01	3496.76
374.21	3164.40
374.40	2874.18
374.60	3197.17
374.79	3475.70
374.99	4009.34
375.19	4325.31
375.38	4311.27
375.58	4011.68
375.78	4049.13
375.97	4088.92
376.17	4177.86
376.37	4222.33
376.56	4353.40
376.76	4550.00
376.95	4910.44
377.15	5235.78
377.35	5366.85
377.54	5572.82
377.74	5734.31
377.93	5799.85
378.13	5722.61
378.33	5320.04
378.52	4910.44
378.72	4622.56
378.91	4477.44
379.11	4510.21
379.31	4472.76
379.50	4362.76
379.70	4851.93
379.89	5170.24
380.09	5540.05
380.28	5666.44
380.48	5451.11
380.68	5453.45
380.87	5490.90
381.07	5062.58
381.26	4615.54
381.46	4440.00
381.65	4372.12
381.85	4170.83
382.04	3939.12
382.24	3658.26
382.43	3588.04
382.63	3466.33
382.83	3433.57
383.02	3438.25
383.22	3480.38
383.41	3487.40
383.61	3609.11
383.80	4306.59
384.00	4826.18
384.19	5430.04
384.39	5675.80
384.58	5598.56
384.78	5493.24
384.97	5561.11
385.17	5252.16
385.36	4994.70
385.56	4772.35
385.75	4814.48
385.95	5217.05
386.14	5753.04
386.34	5687.50
386.53	5486.22
386.72	5233.44
386.92	5331.74
387.11	5371.53
387.31	5884.11
387.50	5673.46
387.70	5589.20
387.89	5692.18
388.09	5591.54
388.28	5490.90
388.48	5624.31
388.67	6045.60
388.86	6640.10
389.06	7080.12
389.25	7536.52
389.45	7414.82
389.64	7431.20
389.84	7545.89
390.03	7398.43
390.22	7351.62
390.42	7569.29
390.61	7955.48
390.81	8454.02
391.00	8861.27
391.19	8690.41
391.39	8402.52
391.58	7990.59
391.78	7356.30
391.97	7129.27
392.16	6640.10
392.36	6183.70
392.55	4973.64
392.75	3964.87
392.94	3199.51
393.13	3155.04
393.33	3679.32
393.52	4718.52
393.71	5888.79
393.91	6588.61
394.10	6991.18
394.29	8004.63
394.49	8479.76
394.68	9357.46
394.88	8957.23
395.07	9551.73
395.26	9329.38
395.46	9076.60
395.65	8355.71
395.84	7538.87
396.04	6340.51
396.23	5163.22
396.42	4236.37
396.62	4154.45
396.81	4851.93
397.00	6118.16
397.19	7602.06
397.39	9226.39
397.58	10354.53
397.77	11000.52
397.97	11410.11
398.16	11456.92
398.35	11976.52
398.55	12241.00
398.74	12617.83
398.93	13228.71
399.12	12905.71
399.32	12486.76
399.51	12631.87
399.70	13467.44
399.90	13097.64
400.09	13355.10
400.28	13116.36
400.47	13357.44
400.67	14230.46
400.86	14520.68
401.05	14115.77
401.24	14569.83
401.44	14785.16
401.63	14684.52
401.82	14721.97
402.01	14850.70
402.21	15049.64
402.40	15213.48
402.59	14356.85
402.78	13778.73
402.97	13542.34
403.17	13844.27
403.36	14728.99
403.55	15452.22
403.74	15920.32
403.93	15089.43
404.13	13879.38
404.32	13362.12
404.51	14106.41
404.70	15218.16
404.89	15161.99
405.09	14902.19
405.28	14478.55
405.47	14534.73
405.66	14654.09
405.85	14050.24
406.05	13767.03
406.24	13853.63
406.43	14616.65
406.62	15412.43
406.81	15192.42
407.00	14684.52
407.20	14595.58
407.39	14579.20
407.58	14871.76
407.77	15419.45
407.96	16252.68
408.15	16379.07
408.34	16168.42
408.54	17336.35
408.73	17209.96
408.92	17128.04
409.11	16350.98
409.30	15538.82
409.49	14937.30
409.68	13963.64
409.87	13479.15
410.07	14370.89
410.26	15222.84
410.45	16458.65
410.64	16870.58
410.83	17125.70
411.02	17652.32
411.21	18317.03
411.40	18054.89
411.59	18139.15
411.78	17752.96
411.98	18150.85
412.17	18090.00
412.36	17858.29
412.55	18005.74
412.74	17561.04
412.93	17172.51
413.12	17301.24
413.31	19112.81
413.50	18780.46
413.69	19232.18
413.88	18707.90
414.07	17881.69
414.26	18513.64
414.45	19110.47
414.64	19201.76
414.83	19005.15
415.02	18572.15
415.22	18546.40
415.41	19173.67
415.60	19613.69
415.79	20350.96
415.98	20912.69
416.17	20947.79
416.36	20070.09
416.55	19985.83
416.74	20023.28
416.93	18663.43
417.12	18831.95
417.31	19176.01
417.50	19262.61
417.69	20290.10
417.88	19805.61
418.07	19527.09
418.26	19728.38
418.45	19749.44
418.64	20528.84
418.83	21088.23
419.02	20835.45
419.21	20795.66
419.39	19857.10
419.58	18925.57
419.77	18813.23
419.96	19730.72
420.15	20741.83
420.34	21312.92
420.53	22199.98
420.72	22520.63
420.91	22134.45
421.10	21972.95
421.29	22115.72
421.48	21280.15
421.67	21926.14
421.86	21312.92
422.05	20088.82
422.24	18017.44
422.43	17818.50
422.61	19775.19
422.80	21319.94
422.99	21518.89
423.18	20444.58
423.37	20437.56
423.56	20105.20
423.75	20657.57
423.94	20966.52
424.13	20187.12
424.32	19999.88
424.50	20290.10
424.69	20060.73
424.88	20011.58
425.07	19704.97
425.26	19651.14
425.45	19569.22
425.64	19241.54
425.83	19215.80
426.01	20655.23
426.20	20755.87
426.39	20816.72
426.58	19489.64
426.77	17748.28
426.96	17296.56
427.15	17598.49
427.33	19393.68
427.52	19910.94
427.71	20233.93
427.90	19922.64
428.09	20049.03
428.28	19438.15
428.46	19054.30
428.65	18272.56
428.84	18801.52
429.03	19213.46
429.22	18118.09
429.40	17081.23
429.59	15625.42
429.78	13813.84
429.97	13682.77
430.16	13879.38
430.34	13949.59
430.53	14071.30
430.72	14106.41
430.91	15852.45
431.10	18420.02
431.28	22068.91
431.47	23445.15
431.66	23573.88
431.85	22061.89
432.03	20245.63
432.22	19297.72
432.41	20180.10
432.60	22230.41
432.79	22691.49
432.97	23693.24
433.16	22960.66
433.35	21074.18
433.54	18892.80
433.72	17851.27
433.91	18663.43
434.10	20460.96
434.28	22190.62
434.47	23412.38
434.66	23056.62
434.85	22459.78
435.03	22176.58
435.22	22778.09
435.41	24224.54
435.59	24056.03
435.78	24470.30
435.97	24961.81
436.16	25298.85
436.34	24570.94
436.53	24130.92
436.72	24477.32
436.90	22984.06
437.09	23328.12
437.28	22810.86
437.46	23552.81
437.65	23112.79
437.84	22036.14
438.02	19875.83
438.21	19709.65
438.40	20746.51
438.58	22595.53
438.77	23232.16
438.96	23246.20
439.14	24224.54
439.33	24959.47
439.52	25261.40
439.70	24961.81
439.89	23957.72
440.08	23527.06
440.26	23644.09
440.45	24205.82
440.63	26136.76
440.82	27342.14
441.01	27377.25
441.19	26396.56
441.38	26654.02
441.57	27999.83
441.75	28566.24
441.94	28603.69
442.12	28439.85
442.31	28826.04
442.50	28797.95
442.68	28786.25
442.87	28044.30
443.05	27721.30
443.24	27999.83
443.43	28629.43
443.61	29273.08
443.80	29565.65
443.98	28081.75
444.17	28081.75
444.35	29685.01
444.54	30120.35
444.73	29624.16
444.91	28713.69
445.10	27468.53
445.28	26036.12
445.47	25895.69
445.65	26066.55
445.84	27051.91
446.02	27571.51
446.21	27733.01
446.39	28634.11
446.58	28620.07
446.77	29069.45
446.95	29198.18
447.14	30057.16
447.32	30157.80
447.51	29883.96
447.69	28725.39
447.88	28187.07
448.06	28657.52
448.25	29472.03
448.43	29556.28
448.62	28875.19
448.80	29006.26
448.99	29069.45
449.17	29310.53
449.36	29771.61
449.54	30422.28
449.73	30761.66
449.91	31152.53
450.10	32135.56
450.28	32371.95
450.46	32456.21
450.65	32210.45
450.83	32044.27
451.02	31332.75
451.20	31051.89
451.39	30998.06
451.57	30782.73
451.76	30637.61
451.94	31222.75
452.13	30335.68
452.31	28924.34
452.49	27557.47
452.68	27948.34
452.86	27866.42
453.05	28364.95
453.23	29081.16
453.42	29518.84
453.60	30361.43
453.78	30888.05
453.97	30216.32
454.15	30284.19
454.34	29958.86
454.52	29614.80
454.70	29497.77
454.89	29558.63
455.07	29944.81
455.26	30150.78
455.44	31405.31
455.62	31812.56
455.81	32388.33
455.99	31772.77
456.17	31398.29
456.36	31358.50
456.54	32474.93
456.73	32453.87
456.91	32987.51
457.09	33158.37
457.28	33804.36
457.46	32378.97
457.64	32067.68
457.83	31428.71
458.01	30579.10
458.19	31398.29
458.38	31281.26
458.56	33024.96
458.74	32484.30
458.93	31812.56
459.11	31569.15
459.29	31534.04
459.48	31674.47
459.66	31421.69
459.84	32189.39
460.03	32217.47
460.21	32119.17
460.39	33198.16
460.57	33001.55
460.76	33244.97
460.94	33907.34
461.12	33046.02
461.31	33029.64
461.49	33134.96
461.67	33074.11
461.85	34108.63
462.04	33584.35
462.22	34462.05
462.40	34227.99
462.59	33872.23
462.77	33883.94
462.95	33947.13
463.13	33434.55
463.32	33338.59
463.50	33078.79
463.68	32680.90
463.86	32877.51
464.05	32708.99
464.23	31861.71
464.41	31807.88
464.59	31372.54
464.78	32837.72
464.96	32526.42
465.14	32727.71
465.32	33188.80
465.50	34227.99
465.69	34426.94
465.87	33755.21
466.05	32575.58
466.23	31175.94
466.41	30349.73
466.60	31571.49
466.78	31089.34
466.96	32308.76
467.14	33034.32
467.32	32903.25
467.51	33104.54
467.69	31484.89
467.87	32053.64
468.05	32840.06
468.23	32652.81
468.41	32877.51
468.60	32863.46
468.78	32987.51
468.96	32481.95
469.14	33481.36
469.32	33509.45
469.50	32491.32
469.69	32439.82
469.87	31761.07
470.05	31641.70
470.23	31948.31
470.41	31742.35
470.59	32694.94
470.77	32580.26
470.95	33132.62
471.14	33287.10
471.32	33441.57
471.50	34932.50
471.68	35218.04
471.86	35700.19
472.04	35618.27
472.22	36081.70
472.40	34195.23
472.58	33666.27
472.77	33289.44
472.95	33804.36
473.13	35405.28
473.31	34113.31
473.49	34213.95
473.67	34749.93
473.85	34934.84
474.03	36081.70
474.21	35957.65
474.39	36210.43
474.57	36879.82
474.75	36748.75
474.93	36463.21
475.12	35718.92
475.30	35496.56
475.48	35782.11
475.66	36304.05
475.84	35566.78
476.02	35681.47
476.20	35222.72
476.38	35819.56
476.56	36987.49
476.74	37251.97
476.92	37132.60
477.10	38139.03
477.28	39407.60
477.46	38794.38
477.64	39826.56
477.82	39559.73
478.00	39901.45
478.18	38864.60
478.36	39519.95
478.54	38990.98
478.72	39145.46
478.90	40041.88
479.08	40914.90
479.26	41940.06
479.44	41523.44
479.62	41478.97
479.80	41736.43
479.98	41619.41
480.16	42012.62
480.34	41794.95
480.52	41837.08
480.70	41949.42
480.88	42190.50
481.06	43229.69
481.24	43112.67
481.41	43814.83
481.59	44619.97
481.77	44474.86
481.95	43847.60
482.13	43522.26
482.31	43845.26
482.49	44556.78
482.67	43681.42
482.85	43789.08
483.03	45282.34
483.21	45104.46
483.39	45867.48
483.57	44428.05
483.74	44268.89
483.92	44584.86
484.10	44580.18
484.28	46281.75
484.46	46340.27
484.64	46506.44
484.82	45600.66
485.00	44505.29
485.18	44573.16
485.35	43201.61
485.53	39971.67
485.71	36699.60
485.89	36048.93
486.07	37809.01
486.25	41179.39
486.43	43253.10
486.61	44311.02
486.78	43878.02
486.96	44421.03
487.14	45860.46
487.32	47143.07
487.50	47519.90
487.68	49069.33
487.85	49291.68
488.03	49600.63
488.21	48924.22
488.39	48144.82
488.57	47423.93
488.75	46946.47
488.92	48383.55
489.10	50586.00
489.28	51810.10
489.46	52605.88
489.64	52076.92
489.81	52851.64
489.99	51800.74
490.17	52105.01
490.35	52367.15
490.53	52046.49
490.70	51641.58
490.88	51587.75
491.06	52758.02
491.24	52479.49
491.41	51456.68
491.59	49755.11
491.77	48797.83
491.95	50174.06
492.13	51611.15
492.30	52645.67
492.48	53785.51
492.66	53975.09
492.84	53911.90
493.01	53661.46
493.19	53052.92
493.37	52868.02
493.54	52367.15
493.72	53483.58
493.90	54288.73
494.08	54857.48
494.25	55231.96
494.43	55421.55
494.61	55938.80
494.79	55877.95
494.96	55697.73
495.14	55210.90
495.32	54005.52
495.49	53368.90
495.67	54372.99
495.85	56020.72
496.02	56320.31
496.20	56236.05
496.38	55700.07
496.55	55461.33
496.73	56039.45
496.91	56034.77
497.09	56846.93
497.26	56823.53
497.44	56633.94
497.62	55969.23
497.79	54960.46
497.97	53804.24
498.14	53876.79
498.32	55248.35
498.50	56018.38
498.67	56643.30
498.85	56575.43
499.03	56762.67
499.20	56914.81
499.38	56921.83
499.56	56844.59
499.73	56179.88
499.91	56039.45
500.08	55363.03
500.26	54649.17
500.44	55416.86
500.61	55840.50
500.79	55671.98
500.97	55360.69
501.14	55054.08
501.32	54897.27
501.49	54995.57
501.67	55091.53
501.84	55704.75
502.02	55884.97
502.20	56151.79
502.37	56439.68
502.55	56376.48
502.72	57008.43
502.90	57415.68
503.07	57247.16
503.25	56727.56
503.43	55927.10
503.60	55440.27
503.78	54724.07
503.95	55047.06
504.13	56568.41
504.30	57497.60
504.48	57008.43
504.65	56685.43
504.83	56783.74
505.01	57394.62
505.18	57574.84
505.36	58277.00
505.53	58145.93
505.71	58679.57
505.88	58597.65
506.06	58185.72
506.23	57806.55
506.41	57282.27
506.58	57511.64
506.76	57694.21
506.93	57326.74
507.11	57181.63
507.28	57240.14
507.46	56889.06
507.63	56362.44
507.81	55870.93
507.98	56467.76
508.16	57057.58
508.33	57471.85
508.50	57836.98
508.68	58269.98
508.85	58592.97
509.03	58471.26
509.20	58688.93
509.38	57869.75
509.55	57029.49
509.73	57088.01
509.90	57783.15
510.08	57986.77
510.25	58064.01
510.42	57467.17
510.60	57649.74
510.77	57841.66
510.95	58141.25
511.12	58686.59
511.30	58684.25
511.47	58955.75
511.64	58901.92
511.82	58637.44
511.99	57886.13
512.17	57401.64
512.34	57139.50
512.51	57249.50
512.69	57411.00
512.86	57490.58
513.04	57846.34
513.21	58038.26
513.38	57752.72
513.56	57139.50
513.73	56336.69
513.90	56528.62
514.08	56802.46
514.25	57020.13
514.43	57434.41
514.60	57310.36
514.77	57553.77
514.95	57525.69
515.12	57474.20
515.29	57647.39
515.47	58340.19
515.64	58396.37
515.81	58199.76
515.99	57556.11
516.16	55983.27
516.33	53537.41
516.51	52179.90
516.68	51468.38
516.85	50834.10
517.03	51192.20
517.20	54152.97
517.37	56912.47
517.54	57542.07
517.72	57174.61
517.89	54616.40
518.06	52133.09
518.24	52573.11
518.41	54752.15
518.58	56062.85
518.75	56432.66
518.93	56552.02
519.10	56317.97
519.27	57095.03
519.45	57116.09
519.62	57743.36
519.79	58138.91
519.96	58000.82
520.14	57403.98
520.31	56842.25
520.48	56769.69
520.65	57099.71
520.83	58115.50
521.00	58426.79
521.17	58117.84
521.34	57623.99
521.52	57762.08
521.69	58592.97
521.86	58763.83
522.03	58485.31
522.20	57308.02
522.38	55917.74
522.55	56189.24
522.72	56921.83
522.89	57193.33
523.07	57308.02
523.24	57420.36
523.41	58440.84
523.58	58960.44
523.75	59135.98
523.92	58976.82
524.10	58845.75
524.27	59192.15
524.44	58787.24
524.61	58611.70
524.78	58415.09
524.96	58181.04
525.13	58513.39
525.30	58511.05
525.47	58967.46
525.64	58972.14
525.81	58190.40
525.98	56973.32
526.16	55351.33
526.33	54632.78
526.50	54335.54
526.67	53839.34
526.84	54501.71
527.01	55477.72
527.18	56392.87
527.36	57270.57
527.53	58258.27
527.70	58370.62
527.87	57836.98
528.04	57396.96
528.21	57961.03
528.38	58578.93
528.55	59023.63
528.72	59030.65
528.89	59540.89
529.07	58951.07
529.24	58611.70
529.41	58075.71
529.58	57443.77
529.75	57446.11
529.92	57790.17
530.09	58548.50
530.26	58850.43
530.43	59110.23
530.60	59068.10
530.77	59311.52
530.94	59182.79
531.11	58930.01
531.28	58583.61
531.46	58302.74
531.63	58607.01
531.80	58504.03
531.97	58012.52
532.14	57144.18
532.31	56200.94
532.48	55613.47
532.65	55484.74
532.82	56617.56
532.99	57652.08
533.16	58059.33
533.33	58539.14
533.50	58302.74
533.67	57829.96
533.84	57183.97
534.01	57375.89
534.18	57659.10
534.35	57726.97
534.52	57701.23
534.69	57968.05
534.86	58012.52
535.03	58337.85
535.20	59002.56
535.37	59388.75
535.54	59456.63
535.71	59016.61
535.88	58695.95
536.05	58174.02
536.22	57628.67
536.38	57387.60
536.55	56821.19
536.72	56399.89
536.89	56128.39
537.06	57130.14
537.23	57993.79
537.40	58333.17
537.57	58244.23
537.74	57958.69
537.91	57970.39
538.08	57893.15
538.25	57944.64
538.42	58035.92
538.59	57975.07
538.75	57214.40
538.92	56996.73
539.09	56919.49
539.26	56519.26
539.43	56786.08
539.60	56598.83
539.77	56980.34
539.94	56596.49
540.11	55994.98
540.28	55346.65
540.44	55751.56
540.61	55849.86
540.78	56034.77
540.95	56427.98
541.12	56809.48
541.29	57258.87
541.46	57471.85
541.62	57258.87
541.79	57415.68
541.96	56706.50
542.13	56643.30
542.30	56942.89
542.47	57064.60
542.63	56928.85
542.80	56643.30
542.97	56776.72
543.14	56533.30
543.31	56750.97
543.48	56987.36
543.64	57958.69
543.81	58248.91
543.98	58073.37
544.15	57198.01
544.32	56704.16
544.48	56786.08
544.65	57230.78
544.82	57780.81
544.99	57261.21
545.16	56896.08
545.32	56846.93
545.49	57743.36
545.66	57989.11
545.83	57673.14
546.00	57303.34
546.16	56750.97
546.33	57024.81
546.50	57029.49
546.67	57392.28
546.83	57155.88
547.00	57013.11
547.17	56411.59
547.34	55547.93
547.50	55718.79
547.67	56245.41
547.84	56055.83
548.00	56556.70
548.17	56910.13
548.34	56893.74
548.51	56870.34
548.67	56884.38
548.84	56970.98
549.01	56788.42
549.18	56797.78
549.34	56769.69
549.51	56842.25
549.68	56814.16
549.84	56563.73
550.01	56207.97
550.18	56161.15
550.34	56350.74
550.51	56530.96
550.68	56617.56
550.84	55866.25
551.01	56097.96
551.18	55767.94
551.34	56343.72
551.51	56720.54
551.68	56912.47
551.84	56825.87
552.01	56715.86
552.18	56802.46
552.34	55730.50
552.51	55491.76
552.68	55014.29
552.84	55931.78
553.01	56184.56
553.18	55891.99
553.34	56315.63
553.51	56210.31
553.67	56346.06
553.84	56594.15
554.01	56500.53
554.17	56306.27
554.34	56362.44
554.51	56275.84
554.67	56633.94
554.84	56509.89
555.00	55992.64
555.17	56023.06
555.33	55906.04
555.50	55650.92
555.67	56072.21
555.83	55501.12
556.00	55501.12
556.16	55683.69
556.33	55105.57
556.50	54780.24
556.66	55009.61
556.83	54981.52
556.99	54803.64
557.16	54798.96
557.32	55297.50
557.49	55615.81
557.65	55505.80
557.82	55379.42
557.98	55297.50
558.15	54639.81
558.32	53862.75
558.48	53027.18
558.65	53228.46
558.81	53778.49
558.98	54033.61
559.14	54075.74
559.31	54057.01
559.47	53993.82
559.64	54026.59
559.80	53532.73
559.97	53434.43
560.13	54035.95
560.30	55014.29
560.46	55449.63
560.63	55653.26
560.79	55845.18
560.96	55363.03
561.12	54033.61
561.29	53375.92
561.45	53296.34
561.61	53935.30
561.78	54372.99
561.94	54103.82
562.11	54101.48
562.27	54010.20
562.44	54372.99
562.60	54635.13
562.77	54681.94
562.93	54901.95
563.10	54651.51
563.26	53951.69
563.42	54108.50
563.59	53553.80
563.75	53832.32
563.92	53869.77
564.08	53970.41
564.24	54267.66
564.41	54204.47
564.57	53991.48
564.74	53736.36
564.90	53989.14
565.07	53574.86
565.23	53214.42
565.39	52528.64
565.56	52313.31
565.72	52076.92
565.88	52519.28
566.05	52662.05
566.21	52910.15
566.38	53186.33
566.54	53382.94
566.70	53609.97
566.87	53944.67
567.03	53642.74
567.19	54026.59
567.36	53829.98
567.52	53703.59
567.68	53200.38
567.85	52638.65
568.01	52296.93
568.17	51889.68
568.34	51744.56
568.50	51557.32
568.66	51952.87
568.83	52172.88
568.99	52247.78
569.15	52715.89
569.32	52629.29
569.48	52172.88
569.64	52133.09
569.81	52142.45
569.97	51484.76
570.13	51519.87
570.30	50787.28
570.46	50639.83
570.62	49673.19
570.78	50096.83
570.95	50384.71
571.11	51164.11
571.27	51297.52
571.43	51515.19
571.60	51646.26
571.76	51948.19
571.92	52135.43
572.09	52472.47
572.25	52299.27
572.41	52226.71
572.57	52289.91
572.74	52257.14
572.90	51889.68
573.06	51751.59
573.22	51718.82
573.38	51444.98
573.55	51817.12
573.71	52076.92
573.87	51903.72
574.03	51632.22
574.20	51611.15
574.36	51220.28
574.52	51082.19
574.68	50604.72
574.84	50756.86
575.01	49818.30
575.17	49766.81
575.33	49862.77
575.49	50153.00
575.65	50288.75
575.82	50075.76
575.98	49918.95
576.14	50403.44
576.30	50876.22
576.46	51030.70
576.62	50555.57
576.79	50866.86
576.95	50108.53
577.11	50230.24
577.27	50153.00
577.43	50272.37
577.59	49961.08
577.75	49499.99
577.92	48786.13
578.08	48275.89
578.24	48659.74
578.40	48999.12
578.56	49654.47
578.72	49380.62
578.88	49666.17
579.04	49804.26
579.21	50012.57
579.37	50047.68
579.53	49918.95
579.69	49874.48
579.85	50031.29
580.01	49844.05
580.17	49268.28
580.33	49041.24
580.49	49462.54
580.65	49729.36
580.82	49755.11
580.98	49869.79
581.14	49741.06
581.30	49745.75
581.46	49539.78
581.62	49961.08
581.78	49806.60
581.94	49984.48
582.10	50005.55
582.26	49942.35
582.42	49914.26
582.58	49996.18
582.74	50220.87
582.90	50375.35
583.06	50136.62
583.22	49698.94
583.38	49598.29
583.54	49621.70
583.70	49507.01
583.86	49542.12
584.02	49659.15
584.18	49717.66
584.34	49109.12
584.50	49279.98
584.66	49169.97
584.82	48669.10
584.98	48912.52
585.14	48069.92
585.30	47510.53
