SpectraSuite Data File
++++++++++++++++++++++++++++++++++++
Date: Mon Oct 07 14:53:02 GMT-05:00 2013
User: price-jones
Dark Spectrum Present: No
Reference Spectrum Present: No
Number of Sampled Component Spectra: 1
Spectrometers: USB2+H05261
Integration Time (usec): 100000 (USB2+H05261)
Spectra Averaged: 1 (USB2+H05261)
Boxcar Smoothing: 0 (USB2+H05261)
Correct for Electrical Dark: No (USB2+H05261)
Strobe/Lamp Enabled: No (USB2+H05261)
Correct for Detector Non-linearity: No (USB2+H05261)
Correct for Stray Light: No (USB2+H05261)
Number of Pixels in Processed Spectrum: 2048
>>>>>Begin Processed Spectral Data<<<<<
365.73	0.00
365.92	0.00
366.12	0.00
366.32	0.00
366.52	0.00
366.72	0.00
366.91	0.00
367.11	0.00
367.31	0.00
367.51	0.00
367.70	0.00
367.90	0.00
368.10	0.00
368.30	0.00
368.49	0.00
368.69	0.00
368.89	0.00
369.09	0.00
369.28	0.00
369.48	0.00
369.68	0.00
369.87	0.00
370.07	0.00
370.27	0.00
370.47	505.56
370.66	2663.53
370.86	3122.27
371.06	3365.69
371.25	3440.59
371.45	2956.10
371.65	2757.15
371.84	2670.55
372.04	2672.89
372.24	2995.89
372.44	3311.86
372.63	3094.19
372.83	3021.63
373.03	2621.40
373.22	2399.05
373.42	2485.65
373.62	2970.14
373.81	3208.87
374.01	3157.38
374.21	2771.19
374.40	2562.89
374.60	2754.81
374.79	3155.04
374.99	3634.85
375.19	3836.14
375.38	3985.93
375.58	3646.55
375.78	3665.28
375.97	3527.19
376.17	3648.90
376.37	3889.97
376.56	3971.89
376.76	4060.83
376.95	4432.97
377.15	4739.58
377.35	4957.25
377.54	5081.30
377.74	5298.97
377.93	5268.55
378.13	4896.40
378.33	4851.93
378.52	4369.78
378.72	4294.88
378.91	4318.29
379.11	4109.98
379.31	3882.95
379.50	3854.86
379.70	4271.48
379.89	4739.58
380.09	4863.63
380.28	5217.05
380.48	5172.58
380.68	4987.68
380.87	4938.53
381.07	4514.89
381.26	4147.43
381.46	4023.38
381.65	3857.20
381.85	3660.60
382.04	3674.64
382.24	3234.62
382.43	3148.02
382.63	3021.63
382.83	3162.06
383.02	3005.25
383.22	3089.51
383.41	3091.85
383.61	3344.63
383.80	3815.07
384.00	4369.78
384.19	4936.19
384.39	5032.15
384.58	5081.30
384.78	4887.04
384.97	5074.28
385.17	4606.17
385.36	4390.84
385.56	4320.63
385.75	4393.19
385.95	4711.50
386.14	5263.86
386.34	5118.75
386.53	4994.70
386.72	4667.03
386.92	4709.16
387.11	4901.08
387.31	5181.95
387.50	5195.99
387.70	4894.06
387.89	4861.29
388.09	4940.87
388.28	4973.64
388.48	4929.17
388.67	5469.83
388.86	5881.77
389.06	6342.85
389.25	6722.02
389.45	6918.62
389.64	6813.30
389.84	6740.74
390.03	6382.64
390.22	6724.36
390.42	6878.83
390.61	7253.32
390.81	7763.56
391.00	7948.46
391.19	7896.97
391.39	7573.97
391.58	6953.73
391.78	6640.10
391.97	6483.28
392.16	6094.76
392.36	5465.15
392.55	4479.79
392.75	3630.17
392.94	2827.37
393.13	2736.09
393.33	3243.98
393.52	4379.14
393.71	5341.10
393.91	5991.77
394.10	6499.67
394.29	7103.53
394.49	7798.66
394.68	8264.43
394.88	8121.66
395.07	8571.04
395.26	8542.96
395.46	8149.75
395.65	7779.94
395.84	6719.68
396.04	5605.58
396.23	4601.49
396.42	3885.29
396.62	3684.00
396.81	4489.15
397.00	5741.33
397.19	7185.44
397.39	8507.85
397.58	9511.94
397.77	9923.87
397.97	10312.40
398.16	10473.90
398.35	10953.71
398.55	11117.54
398.74	11569.27
398.93	11709.70
399.12	11442.88
399.32	11260.32
399.51	11613.74
399.70	12105.25
399.90	12116.95
400.09	12109.93
400.28	12037.38
400.47	12009.29
400.67	12751.24
400.86	12882.31
401.05	13088.28
401.24	13081.25
401.44	13535.32
401.63	13472.12
401.82	13282.54
402.01	13107.00
402.21	13554.04
402.40	13591.49
402.59	13221.69
402.78	12615.49
402.97	12315.90
403.17	12896.35
403.36	13635.96
403.55	14012.79
403.74	13902.78
403.93	13474.46
404.13	12578.04
404.32	12135.68
404.51	12898.69
404.70	14073.64
404.89	13813.84
405.09	13549.36
405.28	13132.75
405.47	13025.08
405.66	13205.30
405.85	12706.77
406.05	12549.95
406.24	12355.69
406.43	13298.92
406.62	13694.47
406.81	13832.57
407.00	13364.46
407.20	12922.10
407.39	12957.21
407.58	13563.40
407.77	14391.95
407.96	14368.55
408.15	15073.05
408.34	14885.81
408.54	15679.25
408.73	15592.65
408.92	15623.08
409.11	14951.34
409.30	14256.20
409.49	13547.02
409.68	12638.89
409.87	12198.87
410.07	13053.17
410.26	14148.54
410.45	14963.04
410.64	15232.21
410.83	15754.15
411.02	16053.73
411.21	16673.98
411.40	16498.44
411.59	16613.12
411.78	16343.96
411.98	16336.94
412.17	16468.01
412.36	16084.16
412.55	16493.76
412.74	16173.10
412.93	15501.37
413.12	15709.68
413.31	17125.70
413.50	17441.67
413.69	17909.78
413.88	17053.14
414.07	16355.66
414.26	16809.73
414.45	17668.70
414.64	17385.50
414.83	17605.51
415.02	16975.91
415.22	17200.60
415.41	17280.18
415.60	18164.90
415.79	18948.98
415.98	19250.91
416.17	19513.05
416.36	18771.10
416.55	18307.67
416.74	17942.55
416.93	17200.60
417.12	17603.17
417.31	17544.66
417.50	17715.51
417.69	18389.59
417.88	18272.56
418.07	18132.13
418.26	18164.90
418.45	17869.99
418.64	18874.08
418.83	19363.25
419.02	19023.87
419.21	18686.84
419.39	18195.32
419.58	17310.60
419.77	17280.18
419.96	18256.18
420.15	19300.06
420.34	19709.65
420.53	20170.74
420.72	20620.12
420.91	20519.48
421.10	20336.91
421.29	20177.76
421.48	19475.60
421.67	20386.07
421.86	19606.67
422.05	18443.42
422.24	16664.61
422.43	16505.46
422.61	18169.58
422.80	19709.65
422.99	19552.84
423.18	18991.11
423.37	18415.34
423.56	18471.51
423.75	19126.86
423.94	19644.12
424.13	18412.99
424.32	18326.39
424.50	18579.17
424.69	18176.60
424.88	18284.26
425.07	18410.65
425.26	18237.45
425.45	18146.17
425.64	17951.91
425.83	17774.03
426.01	18927.91
426.20	19365.59
426.39	18967.70
426.58	17806.80
426.77	16355.66
426.96	15873.51
427.15	16547.59
427.33	17998.72
427.52	18815.57
427.71	18466.83
427.90	18150.85
428.09	18157.88
428.28	17776.37
428.46	17109.32
428.65	17055.48
428.84	17511.89
429.03	17877.01
429.22	16891.65
429.40	15669.89
429.59	14445.79
429.78	12734.85
429.97	13001.68
430.16	12798.05
430.34	12896.35
430.53	12936.14
430.72	13240.41
430.91	14752.40
431.10	17432.31
431.28	20362.66
431.47	22380.20
431.66	22178.92
431.85	20278.40
432.03	18670.45
432.22	17862.97
432.41	18532.36
432.60	20599.05
432.79	21425.26
432.97	21792.73
433.16	21467.39
433.35	19176.01
433.54	17500.19
433.72	16423.54
433.91	17184.21
434.10	18981.74
434.28	20709.06
434.47	21500.16
434.66	20896.30
434.85	20613.10
435.03	20460.96
435.22	21050.78
435.41	22522.98
435.59	22340.41
435.78	22754.69
435.97	23206.41
436.16	23278.97
436.34	22937.25
436.53	22644.68
436.72	22298.28
436.90	21376.11
437.09	21598.46
437.28	21027.37
437.46	22118.06
437.65	21380.79
437.84	20493.73
438.02	18209.37
438.21	18483.21
438.40	19578.58
438.58	21219.30
438.77	21818.47
438.96	22120.40
439.14	22904.48
439.33	23716.65
439.52	24023.26
439.70	23105.77
439.89	22682.13
440.08	21860.60
440.26	21968.27
440.45	22642.34
440.63	24292.42
440.82	25450.99
441.01	25020.33
441.19	24854.15
441.38	25577.37
441.57	26293.58
441.75	26513.59
441.94	26728.92
442.12	26703.17
442.31	27101.06
442.50	26939.57
442.68	26885.73
442.87	26401.24
443.05	26087.61
443.24	26651.68
443.43	26904.46
443.61	27599.60
443.80	27653.43
443.98	26022.08
444.17	26242.09
444.35	27899.19
444.54	28166.01
444.73	27714.28
444.91	26757.00
445.10	25717.81
445.28	24844.79
445.47	24421.15
445.65	24407.11
445.84	25181.82
446.02	25982.29
446.21	26092.29
446.39	26586.15
446.58	26700.83
446.77	27445.12
446.95	27304.69
447.14	28364.95
447.32	28802.63
447.51	27936.63
447.69	26862.33
447.88	26974.67
448.06	27150.21
448.25	27566.83
448.43	28133.24
448.62	27051.91
448.80	26977.01
448.99	27470.87
449.17	27707.26
449.36	27625.34
449.54	28608.37
449.73	28804.97
449.91	29699.06
450.10	30457.39
450.28	30256.11
450.46	30054.82
450.65	30433.99
450.83	29968.22
451.02	29577.35
451.20	29427.56
451.39	29308.19
451.57	29200.52
451.76	29322.23
451.94	28758.16
452.13	28460.91
452.31	27417.04
452.49	26127.40
452.68	26787.43
452.86	26064.21
453.05	26831.90
453.23	27236.81
453.42	28301.76
453.60	28648.16
453.78	28903.28
453.97	28723.05
454.15	28643.48
454.34	27857.06
454.52	28673.90
454.70	27807.90
454.89	28168.35
455.07	28325.16
455.26	29046.05
455.44	29907.37
455.62	30403.56
455.81	30183.55
455.99	30047.80
456.17	29759.91
456.36	30071.20
456.54	30689.10
456.73	30574.42
456.91	31147.85
457.09	31517.65
457.28	31679.15
457.46	30464.41
457.64	30391.86
457.83	29469.69
458.01	29106.90
458.19	29771.61
458.38	30099.29
458.56	30899.75
458.74	30726.55
458.93	30312.28
459.11	29965.88
459.29	29715.44
459.48	29825.45
459.66	29968.22
459.84	30071.20
460.03	30656.34
460.21	30527.61
460.39	31304.67
460.57	31229.77
460.76	31700.22
460.94	31868.73
461.12	31271.90
461.31	31826.60
461.49	31634.68
461.67	31194.66
461.85	32407.06
462.04	31955.33
462.22	33106.88
462.40	32091.09
462.59	32308.76
462.77	32250.24
462.95	32500.68
463.13	31744.69
463.32	31297.64
463.50	31325.73
463.68	31718.94
463.86	31299.98
464.05	31124.44
464.23	30508.88
464.41	30366.11
464.59	29947.15
464.78	31173.60
464.96	31016.78
465.14	31133.81
465.32	31522.34
465.50	32371.95
465.69	32797.93
465.87	31505.95
466.05	31365.52
466.23	29642.88
466.41	29055.41
466.60	30602.50
466.78	30108.65
466.96	30326.32
467.14	31143.17
467.32	31564.46
467.51	31805.54
467.69	30410.58
467.87	30998.06
468.05	31101.04
468.23	31192.32
468.41	31517.65
468.60	31117.42
468.78	31620.64
468.96	31470.84
469.14	31791.50
469.32	31981.08
469.50	30728.89
469.69	30984.01
469.87	30073.54
470.05	30368.45
470.23	30211.64
470.41	30639.95
470.59	31119.76
470.77	31005.08
470.95	31548.08
471.14	32023.21
471.32	32114.49
471.50	33507.11
471.68	34059.48
471.86	34494.82
472.04	34246.72
472.22	34796.74
472.40	32531.11
472.58	32673.88
472.77	32048.96
472.95	32961.76
473.13	33584.35
473.31	32676.22
473.49	33151.35
473.67	33680.31
473.85	33785.63
474.03	34497.16
474.21	34773.34
474.39	35372.52
474.57	35271.87
474.75	35187.61
474.93	34939.52
475.12	34239.70
475.30	34284.17
475.48	34728.87
475.66	34930.16
475.84	34398.85
476.02	34110.97
476.20	34005.64
476.38	34288.85
476.56	35555.08
476.74	36130.85
476.92	36034.89
477.10	36458.52
477.28	37722.41
477.46	37797.31
477.64	38220.95
477.82	38209.25
478.00	38117.96
478.18	37818.38
478.36	37212.18
478.54	37729.44
478.72	37673.26
478.90	38873.96
479.08	40107.42
479.26	40425.73
479.44	39896.77
479.62	39934.22
479.80	40135.51
479.98	39791.45
480.16	40385.94
480.34	40084.01
480.52	40369.56
480.70	40577.87
480.88	40861.07
481.06	41237.90
481.24	41900.27
481.41	42637.54
481.59	43531.62
481.77	42752.23
481.95	42218.58
482.13	41911.97
482.31	42197.52
482.49	42817.76
482.67	42831.80
482.85	43475.45
483.03	43594.82
483.21	43950.58
483.39	44105.06
483.57	43091.60
483.74	42768.61
483.92	43267.14
484.10	43538.65
484.28	44051.22
484.46	44875.09
484.64	44847.00
484.82	44254.85
485.00	43730.57
485.18	43007.34
485.35	41542.17
485.53	38529.90
485.71	35281.24
485.89	34831.85
486.07	36767.48
486.25	40084.01
486.43	41816.01
486.61	42525.19
486.78	42895.00
486.96	43292.89
487.14	44425.71
487.32	45614.70
487.50	46824.76
487.68	47618.20
487.85	48252.48
488.03	48030.13
488.21	47526.92
488.39	46794.33
488.57	46321.54
488.75	45958.76
488.92	47505.85
489.10	49839.37
489.28	51016.66
489.46	51697.75
489.64	51068.15
489.81	51676.69
489.99	51051.76
490.17	51405.19
490.35	51739.88
490.53	51117.30
490.70	50735.79
490.88	50759.20
491.06	51800.74
491.24	51735.20
491.41	50468.97
491.59	48978.05
491.77	47756.29
491.95	49209.76
492.13	50197.47
492.30	51774.99
492.48	52842.27
492.66	53396.98
492.84	53041.22
493.01	52963.98
493.19	52530.98
493.37	51866.27
493.54	51653.28
493.72	52575.45
493.90	53460.18
494.08	54272.34
494.25	54656.19
494.43	54754.49
494.61	54911.31
494.79	55311.54
494.96	54911.31
495.14	54375.33
495.32	53347.83
495.49	52832.91
495.67	54127.23
495.85	55330.26
496.02	55739.86
496.20	55461.33
496.38	54962.80
496.55	54796.62
496.73	55608.79
496.91	55522.19
497.09	56158.81
497.26	56402.23
497.44	55716.45
497.62	55187.49
497.79	54152.97
497.97	53102.07
498.14	53368.90
498.32	54602.36
498.50	55393.46
498.67	55863.91
498.85	55915.40
499.03	55903.70
499.20	56486.49
499.38	56275.84
499.56	56069.87
499.73	55636.87
499.91	55208.56
500.08	54761.51
500.26	54017.22
500.44	54705.34
500.61	55203.88
500.79	55033.02
500.97	55047.06
501.14	54541.50
501.32	54061.69
501.49	54260.64
501.67	54731.09
501.84	55334.95
502.02	55508.14
502.20	55578.36
502.37	55866.25
502.55	55985.61
502.72	56591.81
502.90	57127.80
503.07	56655.01
503.25	56306.27
503.43	55348.99
503.60	54567.25
503.78	53853.39
503.95	54684.28
504.13	56069.87
504.30	56746.29
504.48	56430.32
504.65	56081.58
504.83	56568.41
505.01	56830.55
505.18	57310.36
505.36	57963.37
505.53	57790.17
505.71	58246.57
505.88	58143.59
506.06	57598.24
506.23	57130.14
506.41	56853.95
506.58	57186.31
506.76	57123.11
506.93	57223.76
507.11	56687.78
507.28	57148.86
507.46	56339.04
507.63	55978.59
507.81	55744.54
507.98	56154.13
508.16	56669.05
508.33	57102.05
508.50	57673.14
508.68	57762.08
508.85	58347.21
509.03	58342.53
509.20	58129.54
509.38	57277.59
509.55	56783.74
509.73	56879.70
509.90	57350.15
510.08	57719.95
510.25	57701.23
510.42	57432.07
510.60	57176.95
510.77	57399.30
510.95	58024.22
511.12	58358.92
511.30	58379.98
511.47	58513.39
511.64	58672.55
511.82	58204.44
511.99	57434.41
512.17	56989.70
512.34	56706.50
512.51	56896.08
512.69	57062.26
512.86	57240.14
513.04	57827.62
513.21	57659.10
513.38	57490.58
513.56	56832.89
513.73	56193.92
513.90	56453.72
514.08	56626.92
514.25	56610.54
514.43	57050.56
514.60	57020.13
514.77	57193.33
514.95	57401.64
515.12	57118.43
515.29	57684.84
515.47	57879.11
515.64	58265.30
515.81	57605.26
515.99	57209.71
516.16	55671.98
516.33	53301.02
516.51	51962.23
516.68	50866.86
516.85	50396.42
517.03	51241.35
517.20	54178.72
517.37	56409.25
517.54	57425.04
517.72	56765.01
517.89	54148.29
518.06	51721.16
518.24	52772.06
518.41	54794.28
518.58	56109.66
518.75	56062.85
518.93	56165.84
519.10	56423.29
519.27	56680.75
519.45	57132.48
519.62	57647.39
519.79	57996.13
519.96	57677.82
520.14	57359.51
520.31	56444.36
520.48	56547.34
520.65	56978.00
520.83	57829.96
521.00	58164.65
521.17	57876.77
521.34	57642.71
521.52	57815.91
521.69	58349.56
521.86	58679.57
522.03	58349.56
522.20	57097.37
522.38	56175.20
522.55	56182.22
522.72	56828.21
522.89	56868.00
523.07	56996.73
523.24	57804.21
523.41	58255.93
523.58	58646.80
523.75	58981.50
523.92	58862.13
524.10	58740.42
524.27	58848.09
524.44	58567.23
524.61	58513.39
524.78	58293.38
524.96	58387.00
525.13	58131.89
525.30	58482.97
525.47	58997.88
525.64	58702.98
525.81	57977.41
525.98	56472.45
526.16	55206.22
526.33	54550.87
526.50	54061.69
526.67	54216.17
526.84	54487.67
527.01	55496.44
527.18	56491.17
527.36	57251.84
527.53	58145.93
527.70	58649.14
527.87	57914.22
528.04	57176.95
528.21	57984.43
528.38	58482.97
528.55	59295.13
528.72	59325.56
528.89	59346.62
529.07	59054.06
529.24	58665.53
529.41	57928.26
529.58	57504.62
529.75	57464.83
529.92	57958.69
530.09	58412.75
530.26	58829.37
530.43	59093.85
530.60	58969.80
530.77	59243.64
530.94	59283.43
531.11	58988.52
531.28	58609.35
531.46	58614.04
531.63	58756.81
531.80	58450.20
531.97	57862.72
532.14	57240.14
532.31	56095.62
532.48	55332.60
532.65	55578.36
532.82	56741.61
532.99	57818.25
533.16	58045.29
533.33	58625.74
533.50	58183.38
533.67	57626.33
533.84	57441.43
534.01	57605.26
534.18	57703.57
534.35	58138.91
534.52	57778.46
534.69	58110.82
534.86	58452.54
535.03	58726.38
535.20	59056.40
535.37	59281.09
535.54	59487.06
535.71	58951.07
535.88	58803.62
536.05	58049.97
536.22	57633.35
536.38	57392.28
536.55	56889.06
536.72	56498.19
536.89	56348.40
537.06	57396.96
537.23	58152.95
537.40	58255.93
537.57	58508.71
537.74	58230.19
537.91	57923.58
538.08	58141.25
538.25	58272.32
538.42	58349.56
538.59	58061.67
538.75	57513.98
538.92	57429.72
539.09	56928.85
539.26	56914.81
539.43	56671.39
539.60	57020.13
539.77	57099.71
539.94	57013.11
540.11	56334.35
540.28	55819.44
540.44	55498.78
540.61	55924.76
540.78	56296.91
540.95	56793.10
541.12	57062.26
541.29	57202.69
541.46	57551.43
541.62	57633.35
541.79	57525.69
541.96	56900.76
542.13	56884.38
542.30	57308.02
542.47	57226.10
542.63	57272.91
542.80	56980.34
542.97	57052.90
543.14	56989.70
543.31	56886.72
543.48	57293.97
543.64	58319.13
543.81	58351.90
543.98	58372.96
544.15	57635.69
544.32	56952.26
544.48	57116.09
544.65	57539.73
544.82	57881.45
544.99	57631.01
545.16	57272.91
545.32	57078.64
545.49	57900.17
545.66	58164.65
545.83	57759.74
546.00	57247.16
546.16	57041.20
546.33	57116.09
546.50	57319.72
546.67	57654.42
546.83	57399.30
547.00	57261.21
547.17	56659.69
547.34	55945.83
547.50	56011.36
547.67	56369.46
547.84	56355.42
548.00	56879.70
548.17	57446.11
548.34	57036.51
548.51	57148.86
548.67	57495.26
548.84	57293.97
549.01	57333.76
549.18	57041.20
549.34	56872.68
549.51	57102.05
549.68	57027.15
549.84	56619.90
550.01	56868.00
550.18	56753.31
550.34	56837.57
550.51	56872.68
550.68	56774.37
550.84	56392.87
551.01	56612.88
551.18	56442.02
551.34	56360.10
551.51	57015.45
551.68	57244.82
551.84	57354.83
552.01	56912.47
552.18	57062.26
552.34	55917.74
552.51	55758.58
552.68	55634.53
552.84	56207.97
553.01	56371.80
553.18	56430.32
553.34	56573.09
553.51	56608.20
553.67	56762.67
553.84	56973.32
554.01	56870.34
554.17	56652.67
554.34	57001.41
554.51	56877.36
554.67	57277.59
554.84	57036.51
555.00	56776.72
555.17	56540.32
555.33	56226.69
555.50	56460.74
555.67	56512.23
555.83	56388.19
556.00	55971.57
556.16	56114.34
556.33	55627.51
556.50	55674.32
556.66	55590.06
556.83	55049.40
556.99	55229.62
557.16	55655.60
557.32	55695.39
557.49	56109.66
557.65	56069.87
557.82	55973.91
557.98	55742.20
558.15	55468.36
558.32	54150.63
558.48	53593.59
558.65	53862.75
558.81	54349.58
558.98	54265.32
559.14	54766.20
559.31	54850.45
559.47	54770.88
559.64	54459.58
559.80	54377.67
559.97	54569.59
560.13	54705.34
560.30	55704.75
560.46	56203.28
560.63	56252.44
560.79	56093.28
560.96	56027.74
561.12	54658.53
561.29	54220.85
561.45	54033.61
561.61	54768.54
561.78	55065.78
561.94	54904.29
562.11	54965.14
562.27	54681.94
562.44	55040.04
562.60	55290.48
562.77	55594.74
562.93	55224.94
563.10	55323.24
563.26	54824.71
563.42	54789.60
563.59	54815.35
563.75	54508.74
563.92	54768.54
564.08	54602.36
564.24	54824.71
564.41	54955.78
564.57	55023.65
564.74	54649.17
564.90	54410.43
565.07	54330.86
565.23	54003.18
565.39	53413.37
565.56	52945.26
565.72	52928.87
565.88	53467.20
566.05	53254.21
566.21	53778.49
566.38	53883.81
566.54	53729.34
566.70	54216.17
566.87	54698.32
567.03	54415.11
567.19	54663.21
567.36	54394.05
567.52	54281.70
567.68	54049.99
567.85	53488.26
568.01	53305.70
568.17	52622.26
568.34	52580.13
568.50	52594.18
568.66	52671.42
568.83	53303.36
568.99	53001.43
569.15	53525.71
569.32	53506.99
569.48	53048.24
569.64	53043.56
569.81	52575.45
569.97	52495.88
570.13	52350.76
570.30	51789.03
570.46	51826.48
570.62	50934.74
570.78	50777.92
570.95	51442.63
571.11	51936.49
571.27	52240.76
571.43	52750.99
571.60	53062.29
571.76	52793.12
571.92	53310.38
572.09	53432.09
572.25	53249.53
572.41	53174.63
572.57	53137.18
572.74	53057.60
572.90	52875.04
573.06	52456.09
573.22	52608.22
573.38	52790.78
573.55	52713.55
573.71	52987.39
573.87	52755.68
574.03	52666.73
574.20	52617.58
574.36	52065.22
574.52	51983.30
574.68	52170.54
574.84	51473.06
575.01	50880.91
575.17	51281.14
575.33	51295.18
575.49	51676.69
575.65	51693.07
575.82	51372.42
575.98	50997.93
576.14	51585.41
576.30	52044.15
576.46	51751.59
576.62	51875.63
576.79	51793.71
576.95	51531.57
577.11	51725.84
577.27	51463.70
577.43	51943.51
577.59	50787.28
577.75	50581.32
577.92	50134.28
578.08	50148.32
578.24	49888.52
578.40	50658.56
578.56	50424.50
578.72	50468.97
578.88	50791.97
579.04	50578.98
579.21	50691.32
579.37	51126.66
579.53	51363.06
579.69	51049.42
579.85	51444.98
580.01	51056.45
580.17	50710.05
580.33	50468.97
580.49	50646.85
580.65	50836.44
580.82	51330.29
580.98	51049.42
581.14	51019.00
581.30	50873.88
581.46	50822.39
581.62	51086.87
581.78	51365.40
581.94	51112.62
582.10	51449.66
582.26	51573.70
582.42	51262.41
582.58	51323.27
582.74	51587.75
582.90	51433.27
583.06	51611.15
583.22	51030.70
583.38	51049.42
583.54	50841.12
583.70	51145.39
583.86	50976.87
584.02	50806.01
584.18	50948.78
584.34	50515.78
584.50	50630.47
584.66	50499.40
584.82	49860.43
584.98	50136.62
585.14	49331.47
585.30	49195.72
