SpectraSuite Data File
++++++++++++++++++++++++++++++++++++
Date: Mon Oct 07 14:53:10 GMT-05:00 2013
User: price-jones
Dark Spectrum Present: No
Reference Spectrum Present: No
Number of Sampled Component Spectra: 1
Spectrometers: USB2+H05261
Integration Time (usec): 100000 (USB2+H05261)
Spectra Averaged: 1 (USB2+H05261)
Boxcar Smoothing: 0 (USB2+H05261)
Correct for Electrical Dark: No (USB2+H05261)
Strobe/Lamp Enabled: No (USB2+H05261)
Correct for Detector Non-linearity: No (USB2+H05261)
Correct for Stray Light: No (USB2+H05261)
Number of Pixels in Processed Spectrum: 2048
>>>>>Begin Processed Spectral Data<<<<<
365.73	0.00
365.92	0.00
366.12	0.00
366.32	0.00
366.52	0.00
366.72	0.00
366.91	0.00
367.11	0.00
367.31	0.00
367.51	0.00
367.70	0.00
367.90	0.00
368.10	0.00
368.30	0.00
368.49	0.00
368.69	0.00
368.89	0.00
369.09	0.00
369.28	0.00
369.48	0.00
369.68	0.00
369.87	0.00
370.07	0.00
370.27	0.00
370.47	898.77
370.66	4582.77
370.86	5057.90
371.06	5584.52
371.25	5444.09
371.45	5015.77
371.65	4629.58
371.84	4325.31
372.04	4601.49
372.24	4985.34
372.44	5198.33
372.63	5018.11
372.83	4669.37
373.03	4212.96
373.22	3971.89
373.42	4156.79
373.62	4770.01
373.81	5104.71
374.01	4858.95
374.21	4540.64
374.40	4234.03
374.60	4540.64
374.79	5188.97
374.99	5813.89
375.19	6342.85
375.38	6167.31
375.58	5905.17
375.78	5811.55
375.97	5980.07
376.17	6211.78
376.37	5959.00
376.56	6363.92
376.76	6707.98
376.95	7108.21
377.15	7545.89
377.35	7669.94
377.54	8074.85
377.74	8252.73
377.93	8355.71
378.13	7911.01
378.33	7573.97
378.52	7061.40
378.72	7049.69
378.91	6768.83
379.11	6719.68
379.31	6176.67
379.50	6265.61
379.70	6635.42
379.89	7379.71
380.09	7707.38
380.28	8056.12
380.48	8098.25
380.68	8011.65
380.87	7693.34
381.07	7040.33
381.26	6635.42
381.46	6237.53
381.65	6150.93
381.85	5764.74
382.04	5495.58
382.24	5076.62
382.43	5179.61
382.63	4854.27
382.83	4880.02
383.02	4821.50
383.22	4917.47
383.41	5001.72
383.61	5280.25
383.80	6008.16
384.00	6696.27
384.19	7751.85
384.39	8018.68
384.58	8011.65
384.78	7948.46
384.97	7796.32
385.17	7435.88
385.36	6984.16
385.56	6796.92
385.75	6951.39
385.95	7604.40
386.14	8173.15
386.34	8191.88
386.53	7691.00
386.72	7435.88
386.92	7620.78
387.11	7962.50
387.31	8208.26
387.50	8119.32
387.70	7611.42
387.89	7707.38
388.09	7695.68
388.28	7845.48
388.48	7969.52
388.67	8772.33
388.86	9231.07
389.06	10183.67
389.25	10377.94
389.45	10576.88
389.64	10520.71
389.84	10274.95
390.03	10307.72
390.22	10382.62
390.42	10677.52
390.61	11452.24
390.81	12013.97
391.00	12194.19
391.19	12002.27
391.39	11864.18
391.58	10923.28
391.78	10284.31
391.97	10120.48
392.16	9394.91
392.36	8383.80
392.55	6803.94
392.75	5467.49
392.94	4648.30
393.13	4482.13
393.33	5493.24
393.52	6953.73
393.71	8463.38
393.91	9399.59
394.10	10040.90
394.29	11035.63
394.49	11831.41
394.68	12961.89
394.88	12875.29
395.07	13298.92
395.26	13256.79
395.46	12622.51
395.65	11793.96
395.84	10499.64
396.04	8667.00
396.23	7360.98
396.42	6010.50
396.62	5827.93
396.81	7087.14
397.00	9025.11
397.19	11119.89
397.39	12858.90
397.58	14471.53
397.77	15393.70
397.97	15929.69
398.16	16142.67
398.35	16919.73
398.55	17523.59
398.74	18277.24
398.93	18263.20
399.12	18054.89
399.32	17303.58
399.51	17731.90
399.70	18916.21
399.90	18696.20
400.09	18560.45
400.28	18504.28
400.47	19009.83
400.67	19702.63
400.86	20252.66
401.05	19953.07
401.24	19997.54
401.44	20510.11
401.63	20372.02
401.82	20690.34
402.01	20397.77
402.21	20524.16
402.40	20624.80
402.59	20292.44
402.78	19229.84
402.97	19044.94
403.17	19896.89
403.36	20657.57
403.55	21429.94
403.74	21727.19
403.93	20788.64
404.13	19398.36
404.32	18890.46
404.51	19887.53
404.70	21221.64
404.89	21570.38
405.09	21003.97
405.28	20376.70
405.47	20446.92
405.66	20465.64
405.85	19573.90
406.05	19129.20
406.24	19695.61
406.43	20278.40
406.62	21273.13
406.81	21308.24
407.00	20685.65
407.20	19536.45
407.39	19910.94
407.58	20861.19
407.77	22066.57
407.96	22562.76
408.15	22890.44
408.34	23089.38
408.54	23868.78
408.73	23953.04
408.92	23601.96
409.11	23051.94
409.30	21713.15
409.49	20620.12
409.68	18998.13
409.87	18764.07
410.07	19894.55
410.26	21476.76
410.45	22740.64
410.64	23386.63
410.83	24070.07
411.02	24379.02
411.21	25287.15
411.40	25153.74
411.59	25268.42
411.78	25256.72
411.98	24994.58
412.17	25156.08
412.36	24620.10
412.55	24683.29
412.74	24261.99
412.93	23555.15
413.12	24224.54
413.31	26089.95
413.50	26670.40
413.69	27037.87
413.88	25790.36
414.07	25085.86
414.26	26064.21
414.45	26644.66
414.64	26518.27
414.83	26396.56
415.02	26347.41
415.22	25727.17
415.41	26813.18
415.60	27297.67
415.79	28261.97
415.98	29406.49
416.17	28875.19
416.36	28505.38
416.55	27725.99
416.74	27517.68
416.93	26267.83
417.12	26101.65
417.31	26590.83
417.50	27171.28
417.69	27674.49
417.88	27791.52
418.07	27637.05
418.26	27372.57
418.45	27768.12
418.64	28716.03
418.83	29476.71
419.02	29053.07
419.21	28446.87
419.39	27784.50
419.58	26312.30
419.77	26656.36
419.96	27819.61
420.15	29008.60
420.34	29670.97
420.53	31040.18
420.72	31510.63
420.91	30850.60
421.10	30536.97
421.29	30441.01
421.48	29230.95
421.67	31061.25
421.86	30260.79
422.05	27779.82
422.24	24985.22
422.43	24950.11
422.61	27541.08
422.80	29790.34
422.99	29600.76
423.18	28692.63
423.37	27964.72
423.56	28222.18
423.75	28886.89
423.94	29481.39
424.13	27854.72
424.32	27976.42
424.50	28318.14
424.69	27758.75
424.88	27866.42
425.07	27906.21
425.26	27564.49
425.45	27316.39
425.64	27250.86
425.83	27026.17
426.01	29053.07
426.20	29163.08
426.39	28830.72
426.58	26794.45
426.77	24573.28
426.96	23931.98
427.15	25053.09
427.33	27096.38
427.52	28034.94
427.71	28016.21
427.90	27688.54
428.09	27730.67
428.28	27051.91
428.46	26237.41
428.65	25944.84
428.84	26478.48
429.03	26806.16
429.22	24945.43
429.40	23721.33
429.59	22279.56
429.78	19192.39
429.97	19726.04
430.16	19562.20
430.34	19623.05
430.53	19693.27
430.72	20247.97
430.91	22614.26
431.10	26490.18
431.28	31239.13
431.47	33170.07
431.66	33635.84
431.85	30749.96
432.03	27679.18
432.22	27243.84
432.41	28173.03
432.60	30953.58
432.79	31957.67
432.97	33305.82
433.16	32315.78
433.35	29516.50
433.54	26295.92
433.72	24999.26
433.91	26506.57
434.10	29214.57
434.28	31056.57
434.47	32680.90
434.66	32123.85
434.85	30948.90
435.03	31208.70
435.22	31873.42
435.41	33617.11
435.59	33572.64
435.78	33951.81
435.97	34906.75
436.16	34918.45
436.34	34707.80
436.53	34043.09
436.72	34036.07
436.90	32175.34
437.09	32128.53
437.28	32315.78
437.46	32718.35
437.65	32519.40
437.84	30274.83
438.02	27948.34
438.21	27885.14
438.40	29605.44
438.58	32002.14
438.77	32683.24
438.96	33156.03
439.14	34586.10
439.33	34864.62
439.52	35545.72
439.70	35014.41
439.89	33984.58
440.08	33113.90
440.26	33317.53
440.45	34202.25
440.63	36495.97
440.82	38829.49
441.01	37972.85
441.19	37106.85
441.38	38569.69
441.57	38773.31
441.75	39714.21
441.94	39768.04
442.12	39784.43
442.31	40446.80
442.50	40016.14
442.68	40044.23
442.87	39157.16
443.05	38714.80
443.24	39402.92
443.43	40624.68
443.61	41237.90
443.80	41284.71
443.98	39325.68
444.17	39351.43
444.35	41296.41
444.54	41942.40
444.73	41268.33
444.91	39765.70
445.10	38476.07
445.28	36772.16
445.47	36610.66
445.65	36671.51
445.84	37593.68
446.02	38796.72
446.21	39037.80
446.39	39250.78
446.58	40336.79
446.77	40446.80
446.95	40896.18
447.14	41855.80
447.32	42911.38
447.51	41642.81
447.69	40538.08
447.88	39920.18
448.06	40353.18
448.25	41301.09
448.43	41448.55
448.62	40507.65
448.80	40236.15
448.99	41155.98
449.17	41727.07
449.36	41413.44
449.54	42768.61
449.73	43283.53
449.91	43772.70
450.10	44765.09
450.28	45088.08
450.46	45233.19
450.65	45223.83
450.83	44994.46
451.02	43756.32
451.20	43845.26
451.39	44065.27
451.57	43337.36
451.76	43414.60
451.94	43332.68
452.13	42368.38
452.31	40584.89
452.49	38429.26
452.68	39639.31
452.86	39337.38
453.05	39732.93
453.23	41092.79
453.42	41972.83
453.60	42639.88
453.78	42937.13
453.97	43063.52
454.15	43119.69
454.34	42066.45
454.52	42146.03
454.70	41331.52
454.89	41567.91
455.07	41848.78
455.26	42614.13
455.44	44526.35
455.62	45146.59
455.81	45106.80
455.99	43892.07
456.17	44308.68
456.36	44367.20
456.54	45034.25
456.73	45528.10
456.91	46155.36
457.09	46525.17
457.28	46693.69
457.46	45303.41
457.64	45071.70
457.83	43622.90
458.01	42784.99
458.19	44388.26
458.38	44795.51
458.56	45556.19
458.74	45200.43
458.93	44465.50
459.11	44587.21
459.29	44287.62
459.48	44509.97
459.66	44371.88
459.84	45020.20
460.03	45081.06
460.21	45263.62
460.39	46274.73
460.57	46277.07
460.76	46759.22
460.94	46890.29
461.12	46024.29
461.31	46422.19
461.49	46138.98
461.67	46754.54
461.85	47831.19
462.04	47346.70
462.22	47936.51
462.40	47435.64
462.59	47304.57
462.77	47510.53
462.95	47536.28
463.13	47030.72
463.32	46412.82
463.50	45975.14
463.68	45982.16
463.86	46387.08
464.05	45689.60
464.23	44917.22
464.41	44755.72
464.59	44222.08
464.78	46176.43
464.96	46036.00
465.14	45441.50
465.32	47002.64
465.50	47704.80
465.69	47681.39
465.87	46909.02
466.05	46124.94
466.23	44245.49
466.41	43423.96
466.60	44849.35
466.78	44603.59
466.96	45069.36
467.14	45951.74
467.32	46398.78
467.51	46492.40
467.69	44837.64
467.87	45305.75
468.05	45785.56
468.23	46199.83
468.41	45937.69
468.60	45738.75
468.78	46815.40
468.96	46218.56
469.14	46775.61
469.32	46576.66
469.50	44928.92
469.69	45460.23
469.87	44828.28
470.05	44989.78
470.23	45146.59
470.41	45170.00
470.59	45551.51
470.77	45766.84
470.95	46595.38
471.14	47353.72
471.32	46911.36
471.50	49389.98
471.68	49347.86
471.86	49640.42
472.04	49551.48
472.22	49593.61
472.40	48009.07
472.58	47529.26
472.77	46960.51
472.95	48067.58
473.13	48940.60
473.31	47863.96
473.49	48198.65
473.67	48758.04
473.85	49263.60
474.03	49921.29
474.21	50213.85
474.39	50663.24
474.57	50782.60
474.75	50904.31
474.93	50398.76
475.12	49387.64
475.30	49518.71
475.48	49799.58
475.66	50258.32
475.84	49404.03
476.02	49560.84
476.20	49240.19
476.38	49750.43
476.56	50883.25
476.74	51334.97
476.92	51189.86
477.10	51512.85
477.28	52348.42
477.46	52790.78
477.64	53066.97
477.82	53230.80
478.00	53350.17
478.18	52753.33
478.36	52992.07
478.54	52629.29
478.72	53179.31
478.90	53937.65
479.08	54457.24
479.26	55128.98
479.44	54791.94
479.62	54562.57
479.80	54557.89
479.98	54801.30
480.16	55065.78
480.34	54464.27
480.52	54808.32
480.70	55269.41
480.88	55166.43
481.06	55643.90
481.24	55664.96
481.41	56446.70
481.59	57183.97
481.77	56708.84
481.95	56315.63
482.13	56156.47
482.31	56306.27
482.49	56734.59
482.67	56626.92
482.85	56856.29
483.03	56914.81
483.21	57572.50
483.39	57350.15
483.57	56765.01
483.74	56666.71
483.92	57134.82
484.10	57186.31
484.28	57743.36
484.46	58031.24
484.64	58305.09
484.82	57708.25
485.00	57282.27
485.18	56624.58
485.35	55786.67
485.53	53422.73
485.71	50588.34
485.89	50286.41
486.07	52416.30
486.25	54871.52
486.43	56353.08
486.61	56615.22
486.78	56694.80
486.96	56924.17
487.14	57935.28
487.32	58361.26
487.50	59484.72
487.68	59746.86
487.85	60055.81
488.03	60217.30
488.21	59735.15
488.39	59276.41
488.57	58653.82
488.75	58670.21
488.92	59365.35
489.10	61090.32
489.28	61839.29
489.46	62571.88
489.64	62185.69
489.81	62274.63
489.99	61953.98
490.17	62220.80
490.35	62506.35
490.53	62220.80
490.70	61851.00
490.88	62024.20
491.06	62574.22
491.24	62536.77
491.41	61616.94
491.59	60509.87
491.77	60154.11
491.95	60856.27
492.13	61652.05
492.30	62602.31
492.48	63281.06
492.66	63814.71
492.84	63671.93
493.01	63267.02
493.19	63035.31
493.37	62808.28
493.54	62635.08
493.72	63260.00
493.90	63842.79
494.08	64315.58
494.25	64795.39
494.43	64935.82
494.61	65076.26
494.79	65284.56
494.96	65158.17
495.14	64390.48
495.32	63868.54
495.49	63269.36
495.67	64392.82
495.85	65354.78
496.02	65535.00
496.20	65399.25
496.38	65027.10
496.55	65090.30
496.73	65401.59
496.91	65329.03
497.09	65535.00
497.26	65535.00
497.44	65535.00
497.62	65317.33
497.79	64329.62
497.97	63405.11
498.14	63760.87
498.32	64666.66
498.50	65455.42
498.67	65535.00
498.85	65535.00
499.03	65535.00
499.20	65535.00
499.38	65535.00
499.56	65535.00
499.73	65535.00
499.91	65506.91
500.08	64708.79
500.26	64313.24
500.44	64734.54
500.61	65216.69
500.79	65071.57
500.97	64809.43
501.14	64736.88
501.32	64516.87
501.49	64661.98
501.67	64699.43
501.84	65303.29
502.02	65448.40
502.20	65535.00
502.37	65535.00
502.55	65535.00
502.72	65535.00
502.90	65535.00
503.07	65535.00
503.25	65535.00
503.43	65485.85
503.60	64779.01
503.78	64294.52
503.95	64739.22
504.13	65535.00
504.30	65535.00
504.48	65535.00
504.65	65535.00
504.83	65535.00
505.01	65535.00
505.18	65535.00
505.36	65535.00
505.53	65535.00
505.71	65535.00
505.88	65535.00
506.06	65535.00
506.23	65535.00
506.41	65535.00
506.58	65535.00
506.76	65535.00
506.93	65535.00
507.11	65535.00
507.28	65535.00
507.46	65535.00
507.63	65535.00
507.81	65535.00
507.98	65535.00
508.16	65535.00
508.33	65535.00
508.50	65535.00
508.68	65535.00
508.85	65535.00
509.03	65535.00
509.20	65535.00
509.38	65535.00
509.55	65535.00
509.73	65535.00
509.90	65535.00
510.08	65535.00
510.25	65535.00
510.42	65535.00
510.60	65535.00
510.77	65535.00
510.95	65535.00
511.12	65535.00
511.30	65535.00
511.47	65535.00
511.64	65535.00
511.82	65535.00
511.99	65535.00
512.17	65535.00
512.34	65535.00
512.51	65535.00
512.69	65535.00
512.86	65535.00
513.04	65535.00
513.21	65535.00
513.38	65535.00
513.56	65535.00
513.73	65535.00
513.90	65535.00
514.08	65535.00
514.25	65535.00
514.43	65535.00
514.60	65535.00
514.77	65535.00
514.95	65535.00
515.12	65535.00
515.29	65535.00
515.47	65535.00
515.64	65535.00
515.81	65535.00
515.99	65535.00
516.16	65535.00
516.33	64004.29
516.51	62546.14
516.68	61970.36
516.85	61621.62
517.03	62349.53
517.20	64500.48
517.37	65535.00
517.54	65535.00
517.72	65535.00
517.89	64413.88
518.06	62529.75
518.24	63231.91
518.41	64954.55
518.58	65535.00
518.75	65535.00
518.93	65535.00
519.10	65535.00
519.27	65535.00
519.45	65535.00
519.62	65535.00
519.79	65535.00
519.96	65535.00
520.14	65535.00
520.31	65535.00
520.48	65535.00
520.65	65535.00
520.83	65535.00
521.00	65535.00
521.17	65535.00
521.34	65535.00
521.52	65535.00
521.69	65535.00
521.86	65535.00
522.03	65535.00
522.20	65535.00
522.38	65535.00
522.55	65535.00
522.72	65535.00
522.89	65535.00
523.07	65535.00
523.24	65535.00
523.41	65535.00
523.58	65535.00
523.75	65535.00
523.92	65535.00
524.10	65535.00
524.27	65535.00
524.44	65535.00
524.61	65535.00
524.78	65535.00
524.96	65535.00
525.13	65535.00
525.30	65535.00
525.47	65535.00
525.64	65535.00
525.81	65535.00
525.98	65535.00
526.16	65535.00
526.33	65083.28
526.50	64474.74
526.67	64051.10
526.84	64830.50
527.01	65530.32
527.18	65535.00
527.36	65535.00
527.53	65535.00
527.70	65535.00
527.87	65535.00
528.04	65535.00
528.21	65535.00
528.38	65535.00
528.55	65535.00
528.72	65535.00
528.89	65535.00
529.07	65535.00
529.24	65535.00
529.41	65535.00
529.58	65535.00
529.75	65535.00
529.92	65535.00
530.09	65535.00
530.26	65535.00
530.43	65535.00
530.60	65535.00
530.77	65535.00
530.94	65535.00
531.11	65535.00
531.28	65535.00
531.46	65535.00
531.63	65535.00
531.80	65535.00
531.97	65535.00
532.14	65535.00
532.31	65535.00
532.48	65535.00
532.65	65535.00
532.82	65535.00
532.99	65535.00
533.16	65535.00
533.33	65535.00
533.50	65535.00
533.67	65535.00
533.84	65535.00
534.01	65535.00
534.18	65535.00
534.35	65535.00
534.52	65535.00
534.69	65535.00
534.86	65535.00
535.03	65535.00
535.20	65535.00
535.37	65535.00
535.54	65535.00
535.71	65535.00
535.88	65535.00
536.05	65535.00
536.22	65535.00
536.38	65535.00
536.55	65535.00
536.72	65535.00
536.89	65535.00
537.06	65535.00
537.23	65535.00
537.40	65535.00
537.57	65535.00
537.74	65535.00
537.91	65535.00
538.08	65535.00
538.25	65535.00
538.42	65535.00
538.59	65535.00
538.75	65535.00
538.92	65535.00
539.09	65535.00
539.26	65535.00
539.43	65535.00
539.60	65535.00
539.77	65535.00
539.94	65535.00
540.11	65535.00
540.28	65535.00
540.44	65535.00
540.61	65535.00
540.78	65535.00
540.95	65535.00
541.12	65535.00
541.29	65535.00
541.46	65535.00
541.62	65535.00
541.79	65535.00
541.96	65535.00
542.13	65535.00
542.30	65535.00
542.47	65535.00
542.63	65535.00
542.80	65535.00
542.97	65535.00
543.14	65535.00
543.31	65535.00
543.48	65535.00
543.64	65535.00
543.81	65535.00
543.98	65535.00
544.15	65535.00
544.32	65535.00
544.48	65535.00
544.65	65535.00
544.82	65535.00
544.99	65535.00
545.16	65535.00
545.32	65535.00
545.49	65535.00
545.66	65535.00
545.83	65535.00
546.00	65535.00
546.16	65535.00
546.33	65535.00
546.50	65535.00
546.67	65535.00
546.83	65535.00
547.00	65535.00
547.17	65535.00
547.34	65535.00
547.50	65535.00
547.67	65535.00
547.84	65535.00
548.00	65535.00
548.17	65535.00
548.34	65535.00
548.51	65535.00
548.67	65535.00
548.84	65535.00
549.01	65535.00
549.18	65535.00
549.34	65535.00
549.51	65535.00
549.68	65535.00
549.84	65535.00
550.01	65535.00
550.18	65535.00
550.34	65535.00
550.51	65535.00
550.68	65535.00
550.84	65535.00
551.01	65535.00
551.18	65535.00
551.34	65535.00
551.51	65535.00
551.68	65535.00
551.84	65535.00
552.01	65535.00
552.18	65535.00
552.34	65535.00
552.51	65535.00
552.68	65535.00
552.84	65535.00
553.01	65535.00
553.18	65535.00
553.34	65535.00
553.51	65535.00
553.67	65535.00
553.84	65535.00
554.01	65535.00
554.17	65535.00
554.34	65535.00
554.51	65535.00
554.67	65535.00
554.84	65535.00
555.00	65535.00
555.17	65535.00
555.33	65535.00
555.50	65535.00
555.67	65535.00
555.83	65535.00
556.00	65535.00
556.16	65535.00
556.33	65535.00
556.50	65441.38
556.66	65535.00
556.83	65443.72
556.99	65382.87
557.16	65535.00
557.32	65535.00
557.49	65535.00
557.65	65535.00
557.82	65535.00
557.98	65535.00
558.15	65352.44
558.32	64598.79
558.48	64062.80
558.65	64224.30
558.81	64657.30
558.98	64795.39
559.14	64877.31
559.31	65017.74
559.47	65066.89
559.64	64832.84
559.80	64470.06
559.97	64580.06
560.13	64905.40
560.30	65464.78
560.46	65535.00
560.63	65535.00
560.79	65535.00
560.96	65535.00
561.12	65083.28
561.29	64212.60
561.45	64402.18
561.61	64893.69
561.78	65228.39
561.94	64996.68
562.11	65099.66
562.27	64900.71
562.44	65137.11
562.60	65399.25
562.77	65462.44
562.93	65516.28
563.10	65429.68
563.26	64987.31
563.42	65050.51
563.59	64886.67
563.75	64683.04
563.92	64970.93
564.08	64853.90
564.24	65024.76
564.41	64966.25
564.57	64926.46
564.74	64683.04
564.90	64645.60
565.07	64596.45
565.23	64331.96
565.39	63934.07
565.56	63749.17
565.72	63461.29
565.88	63772.58
566.05	64008.97
566.21	64018.33
566.38	64214.94
566.54	64144.72
566.70	64467.72
566.87	64825.82
567.03	64643.26
567.19	64973.27
567.36	64771.99
567.52	64568.36
567.68	64238.34
567.85	63833.43
568.01	63496.39
568.17	63348.94
568.34	63360.64
568.50	63117.23
568.66	63442.56
568.83	63613.42
568.99	63786.62
569.15	63990.25
569.32	63898.97
569.48	63592.36
569.64	63707.04
569.81	63159.36
569.97	63105.52
570.13	63372.34
570.30	62805.94
570.46	62553.16
570.62	62211.44
570.78	62031.22
570.95	62204.42
571.11	62761.47
571.27	62841.04
571.43	63231.91
571.60	63477.67
571.76	63700.02
571.92	63866.20
572.09	63838.11
572.25	63875.56
572.41	63821.73
572.57	63730.45
572.74	63529.16
572.90	63269.36
573.06	63274.04
573.22	63355.96
573.38	63587.67
573.55	63306.81
573.71	63517.46
573.87	63524.48
574.03	63234.25
574.20	63278.72
574.36	63070.42
574.52	62885.51
574.68	62920.62
574.84	62433.79
575.01	62321.44
575.17	62171.65
575.33	62288.68
575.49	62908.92
575.65	62948.71
575.82	62527.41
575.98	62244.21
576.14	62293.36
576.30	62827.00
576.46	62656.14
576.62	62632.74
576.79	62834.02
576.95	62466.56
577.11	62288.68
577.27	62567.20
577.43	62473.58
577.59	62164.63
577.75	61827.59
577.92	61284.59
578.08	61242.46
578.24	61436.72
578.40	61698.86
578.56	61851.00
578.72	61614.60
578.88	61834.61
579.04	61883.76
579.21	62225.48
579.37	61956.32
579.53	62351.87
579.69	62049.94
579.85	62384.64
580.01	62127.18
580.17	61755.03
580.33	61757.38
580.49	61567.79
580.65	62059.30
580.82	62181.01
580.98	62103.77
581.14	61939.94
581.30	62059.30
581.46	61951.64
581.62	62143.56
581.78	62335.49
581.94	62401.02
582.10	62267.61
582.26	62417.41
582.42	62504.01
582.58	62372.94
582.74	62276.97
582.90	62422.09
583.06	62482.94
583.22	62143.56
583.38	62220.80
583.54	62078.03
583.70	62101.43
583.86	62012.49
584.02	61860.36
584.18	62003.13
584.34	61874.40
584.50	61893.13
584.66	61834.61
584.82	61284.59
584.98	61499.92
