SpectraSuite Data File
++++++++++++++++++++++++++++++++++++
Date: Mon Oct 07 14:53:42 GMT-05:00 2013
User: price-jones
Dark Spectrum Present: No
Reference Spectrum Present: No
Number of Sampled Component Spectra: 1
Spectrometers: USB2+H05261
Integration Time (usec): 100000 (USB2+H05261)
Spectra Averaged: 1 (USB2+H05261)
Boxcar Smoothing: 0 (USB2+H05261)
Correct for Electrical Dark: No (USB2+H05261)
Strobe/Lamp Enabled: No (USB2+H05261)
Correct for Detector Non-linearity: No (USB2+H05261)
Correct for Stray Light: No (USB2+H05261)
Number of Pixels in Processed Spectrum: 2048
>>>>>Begin Processed Spectral Data<<<<<
365.73	0.00
365.92	0.00
366.12	0.00
366.32	0.00
366.52	0.00
366.72	0.00
366.91	0.00
367.11	0.00
367.31	0.00
367.51	0.00
367.70	0.00
367.90	0.00
368.10	0.00
368.30	0.00
368.49	0.00
368.69	0.00
368.89	0.00
369.09	0.00
369.28	0.00
369.48	0.00
369.68	0.00
369.87	0.00
370.07	0.00
370.27	0.00
370.47	496.19
370.66	2768.85
370.86	3248.66
371.06	3527.19
371.25	3691.02
371.45	3272.07
371.65	3143.34
371.84	2775.88
372.04	2925.67
372.24	3304.84
372.44	3557.61
372.63	3375.05
372.83	3091.85
373.03	2761.83
373.22	2464.58
373.42	2832.05
373.62	3084.83
373.81	3290.79
374.01	3438.25
374.21	3159.72
374.40	2789.92
374.60	2913.97
374.79	3225.26
374.99	3852.52
375.19	4203.60
375.38	4051.47
375.58	3882.95
375.78	3896.99
375.97	3929.76
376.17	4035.08
376.37	4100.62
376.56	4255.09
376.76	4329.99
376.95	4676.39
377.15	5123.43
377.35	5256.84
377.54	5514.30
377.74	5631.33
377.93	5708.57
378.13	5490.90
378.33	5240.46
378.52	4887.04
378.72	4484.47
378.91	4425.95
379.11	4355.74
379.31	4262.12
379.50	4236.37
379.70	4531.28
379.89	5060.24
380.09	5263.86
380.28	5451.11
380.48	5551.75
380.68	5313.02
380.87	5472.17
381.07	4891.72
381.26	4430.63
381.46	4180.20
381.65	4067.85
381.85	3992.95
382.04	3878.27
382.24	3550.59
382.43	3396.12
382.63	3370.37
382.83	3229.94
383.02	3410.16
383.22	3445.27
383.41	3251.00
383.61	3618.47
383.80	4168.49
384.00	4732.56
384.19	5245.14
384.39	5598.56
384.58	5376.21
384.78	5310.68
384.97	5392.59
385.17	5217.05
385.36	4734.90
385.56	4592.13
385.75	4634.26
385.95	5352.81
386.14	5837.30
386.34	5582.18
386.53	5343.44
386.72	4943.21
386.92	5029.81
387.11	5254.50
387.31	5694.52
387.50	5542.39
387.70	5472.17
387.89	5224.08
388.09	5327.06
388.28	5411.32
388.48	5628.99
388.67	5844.32
388.86	6436.47
389.06	6864.79
389.25	7267.36
389.45	7206.51
389.64	7442.90
389.84	7000.54
390.03	6895.22
390.22	7159.70
390.42	7330.56
390.61	7836.11
390.81	8297.20
391.00	8662.32
391.19	8566.36
391.39	8147.40
391.58	7665.25
391.78	7293.11
391.97	7101.19
392.16	6558.18
392.36	6122.84
392.55	4798.10
392.75	3859.54
392.94	3225.26
393.13	3094.19
393.33	3698.05
393.52	4528.94
393.71	5865.38
393.91	6441.15
394.10	6815.64
394.29	7702.70
394.49	8243.37
394.68	8905.74
394.88	9055.53
395.07	9327.03
395.26	9167.88
395.46	8872.97
395.65	8461.04
395.84	7382.05
396.04	6349.87
396.23	5041.51
396.42	4121.68
396.62	4084.23
396.81	4774.69
397.00	5839.64
397.19	7606.74
397.39	9060.21
397.58	10176.65
397.77	10829.66
397.97	11229.89
398.16	11403.09
398.35	11641.82
398.55	12189.51
398.74	12734.85
398.93	12943.16
399.12	12718.47
399.32	12091.21
399.51	12390.80
399.70	13209.98
399.90	13046.15
400.09	13366.80
400.28	13015.72
400.47	13270.84
400.67	13811.50
400.86	14284.29
401.05	14223.44
401.24	14218.75
401.44	14438.76
401.63	14391.95
401.82	14600.26
402.01	14586.22
402.21	14780.48
402.40	14707.93
402.59	14291.31
402.78	13703.84
402.97	13277.86
403.17	13778.73
403.36	14401.32
403.55	14904.53
403.74	15407.75
403.93	14831.97
404.13	13640.64
404.32	13324.67
404.51	13795.12
404.70	14846.02
404.89	14981.77
405.09	14771.12
405.28	14244.50
405.47	14368.55
405.66	14370.89
405.85	14085.34
406.05	13638.30
406.24	13825.54
406.43	14476.21
406.62	14932.62
406.81	15049.64
407.00	14394.29
407.20	14188.33
407.39	14363.87
407.58	14927.94
407.77	15363.28
407.96	15981.18
408.15	16294.81
408.34	16119.27
408.54	17177.19
408.73	17139.74
408.92	16868.24
409.11	16444.60
409.30	15506.05
409.49	14759.42
409.68	13926.19
409.87	13142.11
410.07	14061.94
410.26	15379.66
410.45	16248.00
410.64	16379.07
410.83	17163.15
411.02	17469.76
411.21	18221.07
411.40	17809.14
411.59	18040.85
411.78	17972.97
411.98	17703.81
412.17	18150.85
412.36	17750.62
412.55	17774.03
412.74	17502.53
412.93	16884.62
413.12	17011.01
413.31	18511.30
413.50	18766.42
413.69	19054.30
413.88	18637.69
414.07	17867.65
414.26	18200.01
414.45	18738.33
414.64	18768.76
414.83	18899.83
415.02	18410.65
415.22	18333.42
415.41	18993.45
415.60	19735.40
415.79	20500.75
415.98	21013.33
416.17	21214.62
416.36	20264.36
416.55	20285.42
416.74	19641.78
416.93	18684.50
417.12	18911.53
417.31	19037.92
417.50	19028.56
417.69	19969.45
417.88	19878.17
418.07	19676.88
418.26	19447.51
418.45	19960.09
418.64	20439.90
418.83	20835.45
419.02	20896.30
419.21	20837.79
419.39	19775.19
419.58	18789.82
419.77	18647.05
419.96	19496.66
420.15	20631.82
420.34	21202.91
420.53	22134.45
420.72	22675.11
420.91	22530.00
421.10	21743.58
421.29	21710.81
421.48	21282.49
421.67	21860.60
421.86	21813.79
422.05	20381.38
422.24	17891.06
422.43	17900.42
422.61	19562.20
422.80	21282.49
422.99	21266.11
423.18	20594.37
423.37	20252.66
423.56	20276.06
423.75	20877.58
423.94	20961.84
424.13	19770.51
424.32	19896.89
424.50	20205.84
424.69	19632.41
424.88	20051.37
425.07	20032.65
425.26	20002.22
425.45	19974.13
425.64	19276.65
425.83	19187.71
426.01	20418.83
426.20	20847.15
426.39	20978.22
426.58	19192.39
426.77	18017.44
426.96	17254.43
427.15	17591.47
427.33	19501.34
427.52	20030.30
427.71	20154.35
427.90	19784.55
428.09	19704.97
428.28	19248.57
428.46	18822.59
428.65	18462.15
428.84	18785.14
429.03	19335.17
429.22	18576.83
429.40	17319.96
429.59	15571.58
429.78	13877.04
429.97	14015.13
430.16	14113.43
430.34	14541.75
430.53	14195.35
430.72	14211.73
430.91	15932.03
431.10	18752.37
431.28	21731.87
431.47	23929.64
431.66	24137.94
431.85	22167.21
432.03	20203.50
432.22	19281.33
432.41	20084.14
432.60	22291.26
432.79	23122.15
432.97	23765.80
433.16	23468.55
433.35	21273.13
433.54	19140.90
433.72	17930.84
433.91	18635.35
434.10	20746.51
434.28	22319.35
434.47	23311.74
434.66	22628.30
434.85	22647.02
435.03	22412.97
435.22	22668.09
435.41	24678.61
435.59	24584.99
435.78	24243.27
435.97	25060.12
436.16	25560.99
436.34	25106.93
436.53	24208.16
436.72	24774.57
436.90	23379.61
437.09	23044.91
437.28	22665.75
437.46	23484.94
437.65	23403.02
437.84	22047.85
438.02	19967.11
438.21	19772.85
438.40	20741.83
438.58	22890.44
438.77	23323.44
438.96	24037.30
439.14	24882.24
439.33	25303.53
439.52	25558.65
439.70	25160.76
439.89	24559.24
440.08	24077.09
440.26	23758.78
440.45	24886.92
440.63	26092.29
440.82	27606.62
441.01	26984.04
441.19	26735.94
441.38	27461.51
441.57	28634.11
441.75	28835.40
441.94	29261.38
442.12	28755.82
442.31	29479.05
442.50	29291.80
442.68	29001.58
442.87	28465.60
443.05	28196.43
443.24	28341.55
443.43	28992.22
443.61	29394.79
443.80	30382.49
443.98	28669.22
444.17	28718.37
444.35	29776.30
444.54	30635.27
444.73	30366.11
444.91	29158.39
445.10	27878.12
445.28	26761.69
445.47	26033.78
445.65	26518.27
445.84	27220.43
446.02	28367.29
446.21	28379.00
446.39	28697.31
446.58	29179.46
446.77	29385.43
446.95	29333.93
447.14	30698.47
447.32	31220.41
447.51	30293.55
447.69	29462.66
447.88	28819.02
448.06	29535.22
448.25	29905.02
448.43	30113.33
448.62	29624.16
448.80	29184.14
448.99	29537.56
449.17	29926.09
449.36	29692.04
449.54	30838.90
449.73	31159.55
449.91	32123.85
450.10	32519.40
450.28	33284.76
450.46	32973.47
450.65	33116.24
450.83	32622.39
451.02	31880.44
451.20	31763.41
451.39	31908.52
451.57	31489.57
451.76	31522.34
451.94	31115.08
452.13	30892.73
452.31	29724.80
452.49	28100.47
452.68	28521.77
452.86	28287.71
453.05	28912.64
453.23	29851.19
453.42	30354.41
453.60	31608.93
453.78	31285.94
453.97	31220.41
454.15	31215.72
454.34	30312.28
454.52	30553.35
454.70	30115.67
454.89	30216.32
455.07	30473.78
455.26	31019.12
455.44	31969.38
455.62	32802.61
455.81	32861.12
455.99	32526.42
456.17	31838.31
456.36	32154.28
456.54	33343.27
456.73	32826.01
456.91	33626.48
457.09	34040.75
457.28	34717.17
457.46	33305.82
457.64	33048.36
457.83	32304.07
458.01	31281.26
458.19	32285.35
458.38	32184.71
458.56	33598.39
458.74	33259.01
458.93	32329.82
459.11	32336.84
459.29	32446.85
459.48	32538.13
459.66	32266.63
459.84	32657.49
460.03	32893.89
460.21	33043.68
460.39	33745.84
460.57	33963.51
460.76	34527.58
460.94	34609.50
461.12	34017.35
461.31	34122.67
461.49	33799.68
461.67	34045.43
461.85	34913.77
462.04	34771.00
462.22	35232.08
462.40	34944.20
462.59	34616.52
462.77	35119.74
462.95	35030.80
463.13	33883.94
463.32	34188.21
463.50	33752.87
463.68	34015.01
463.86	34199.91
464.05	33476.68
464.23	33144.33
464.41	32889.21
464.59	32299.39
464.78	33865.21
464.96	33654.56
465.14	33408.81
465.32	33986.92
465.50	34651.63
465.69	35145.48
465.87	34321.62
466.05	33511.79
466.23	32130.87
466.41	31484.89
466.60	32243.22
466.78	32109.81
466.96	33357.32
467.14	33420.51
467.32	34075.86
467.51	33872.23
467.69	32559.19
467.87	33235.61
468.05	33682.65
468.23	33567.96
468.41	33736.48
468.60	34045.43
468.78	34396.51
468.96	33481.36
469.14	34326.30
469.32	34934.84
469.50	33216.88
469.69	33305.82
469.87	32669.20
470.05	32755.80
470.23	32793.25
470.41	32877.51
470.59	33139.65
470.77	33460.30
470.95	34487.79
471.14	34668.02
471.32	34328.64
471.50	36278.30
471.68	36484.27
471.86	36776.84
472.04	36966.42
472.22	37514.11
472.40	35475.50
472.58	34916.11
472.77	34295.87
472.95	35314.00
473.13	36006.80
473.31	35442.73
473.49	35318.68
473.67	36353.20
473.85	36313.41
474.03	37383.04
474.21	37441.55
474.39	37947.11
474.57	37848.80
474.75	37979.87
474.93	37792.63
475.12	36919.61
475.30	36449.16
475.48	36975.78
475.66	37991.58
475.84	37109.19
476.02	36928.97
476.20	36477.25
476.38	36673.85
476.56	38239.67
476.74	38380.10
476.92	38983.96
477.10	39220.36
477.28	40650.42
477.46	40336.79
477.64	40748.73
477.82	40804.90
478.00	40816.60
478.18	40257.21
478.36	40308.71
478.54	40325.09
478.72	40617.66
478.90	41591.32
479.08	42721.80
479.26	43419.28
479.44	43438.00
479.62	42775.63
479.80	42951.17
479.98	43349.06
480.16	43878.02
480.34	42682.01
480.52	43100.97
480.70	43496.52
480.88	43931.86
481.06	44285.28
481.24	44882.11
481.41	45471.93
481.59	45874.50
481.77	45724.71
481.95	45296.39
482.13	44882.11
482.31	45221.49
482.49	45984.51
482.67	45352.56
482.85	46305.16
483.03	46593.04
483.21	46426.87
483.39	46962.85
483.57	45853.44
483.74	46019.61
483.92	46007.91
484.10	46300.48
484.28	47133.71
484.46	47859.27
484.64	48245.46
484.82	46827.10
485.00	46656.24
485.18	46131.96
485.35	44430.39
485.53	41813.67
485.71	37720.07
485.89	37067.06
486.07	38806.08
486.25	42679.67
486.43	44769.77
486.61	45727.05
486.78	45989.19
486.96	45698.96
487.14	47143.07
487.32	48175.25
487.50	49645.10
487.68	50045.33
487.85	50667.92
488.03	50700.68
488.21	49911.92
488.39	49834.69
488.57	49003.80
488.75	48701.87
488.92	49359.56
489.10	51966.91
489.28	53228.46
489.46	54040.63
489.64	53549.12
489.81	53827.64
489.99	53471.88
490.17	53148.88
490.35	53914.24
490.53	53689.55
490.70	53134.84
490.88	52889.09
491.06	53792.53
491.24	53883.81
491.41	52933.56
491.59	51484.76
491.77	50422.16
491.95	51540.94
492.13	52938.24
492.30	54024.25
492.48	54827.05
492.66	55217.92
492.84	55358.35
493.01	55185.15
493.19	54394.05
493.37	54295.75
493.54	54134.25
493.72	54305.11
493.90	55400.48
494.08	56427.98
494.25	56317.97
494.43	56633.94
494.61	57127.80
494.79	56980.34
494.96	56856.29
495.14	56257.12
495.32	55634.53
495.49	54698.32
495.67	55601.77
495.85	57080.98
496.02	57609.95
496.20	57432.07
496.38	56940.55
496.55	56921.83
496.73	57415.68
496.91	57429.72
497.09	57932.94
497.26	58447.86
497.44	57705.91
497.62	57364.19
497.79	56376.48
497.97	55292.82
498.14	55416.86
498.32	56605.86
498.50	57237.80
498.67	58045.29
498.85	57787.83
499.03	57888.47
499.20	58291.04
499.38	57984.43
499.56	57998.48
499.73	57598.24
499.91	57209.71
500.08	56790.76
500.26	55924.76
500.44	56463.08
500.61	57172.27
500.79	56868.00
500.97	56521.60
501.14	56360.10
501.32	56378.82
501.49	56231.37
501.67	56559.05
501.84	56992.04
502.02	57324.40
502.20	57623.99
502.37	57755.06
502.55	57708.25
502.72	58279.34
502.90	58712.34
503.07	58492.33
503.25	58073.37
503.43	57291.63
503.60	56664.37
503.78	56231.37
503.95	56158.81
504.13	57792.51
504.30	58698.30
504.48	58429.13
504.65	58157.63
504.83	58012.52
505.01	58735.74
505.18	59096.19
505.36	59676.64
505.53	59599.40
505.71	59870.90
505.88	60140.07
506.06	59323.22
506.23	58969.80
506.41	58550.84
506.58	59030.65
506.76	58824.68
506.93	58817.66
507.11	58466.58
507.28	58628.08
507.46	58365.94
507.63	57776.12
507.81	57310.36
507.98	57759.74
508.16	58438.50
508.33	58857.45
508.50	59203.85
508.68	59634.51
508.85	60030.06
509.03	60051.12
509.20	59884.95
509.38	59269.39
509.55	58379.98
509.73	58738.08
509.90	59037.67
510.08	59449.61
510.25	59325.56
510.42	58948.73
510.60	58937.03
510.77	59215.55
510.95	59852.18
511.12	59657.91
511.30	59887.29
511.47	60556.68
511.64	60280.50
511.82	60168.15
511.99	59288.11
512.17	58838.73
512.34	58574.25
512.51	58784.90
512.69	58960.44
512.86	58988.52
513.04	59339.60
513.21	59358.33
513.38	59147.68
513.56	58387.00
513.73	58010.18
513.90	58291.04
514.08	58300.40
514.25	58372.96
514.43	58808.30
514.60	58777.87
514.77	58922.99
514.95	59018.95
515.12	59117.25
515.29	59187.47
515.47	59606.42
515.64	59955.16
515.81	59564.29
515.99	59009.59
516.16	57670.80
516.33	55409.84
516.51	53862.75
516.68	53127.82
516.85	52978.03
517.03	53183.99
517.20	55529.21
517.37	58176.36
517.54	59037.67
517.72	58791.92
517.89	56512.23
518.06	53820.62
518.24	54117.87
518.41	56353.08
518.58	57797.19
518.75	57942.30
518.93	58199.76
519.10	57911.88
519.27	58543.82
519.45	58644.46
519.62	59365.35
519.79	59578.34
519.96	59400.46
520.14	59070.44
520.31	58267.64
520.48	58064.01
520.65	58489.99
520.83	59353.65
521.00	59721.11
521.17	59533.87
521.34	59117.25
521.52	59449.61
521.69	59866.22
521.86	60306.24
522.03	59971.55
522.20	58976.82
522.38	57993.79
522.55	57895.49
522.72	58532.12
522.89	58745.11
523.07	58569.57
523.24	59201.51
523.41	59861.54
523.58	60287.52
523.75	60690.09
523.92	60491.15
524.10	60395.18
524.27	60523.91
524.44	60308.58
524.61	60121.34
524.78	59955.16
524.96	59943.46
525.13	59763.24
525.30	60037.08
525.47	60456.04
525.64	60245.39
525.81	59760.90
525.98	58361.26
526.16	56891.40
526.33	56357.76
526.50	56341.38
526.67	56006.68
526.84	56072.21
527.01	57193.33
527.18	58164.65
527.36	58880.86
527.53	59650.89
527.70	59901.33
527.87	59377.05
528.04	59044.69
528.21	59440.24
528.38	60083.89
528.55	60673.71
528.72	60846.91
528.89	61071.60
529.07	60999.04
529.24	60236.03
529.41	59377.05
529.58	58897.24
529.75	59189.81
529.92	59669.62
530.09	59929.42
530.26	60357.74
530.43	60748.60
530.60	60505.19
530.77	60919.46
530.94	61090.32
531.11	60662.00
531.28	60374.12
531.46	59959.84
531.63	60116.66
531.80	59969.21
531.97	59643.87
532.14	59075.12
532.31	58066.35
532.48	57495.26
532.65	57382.91
532.82	58354.24
532.99	59337.26
533.16	59688.34
533.33	60111.98
533.50	59875.58
533.67	59353.65
533.84	58890.22
534.01	59185.13
534.18	59288.11
534.35	59475.35
534.52	59344.28
534.69	59671.96
534.86	59910.69
535.03	60278.16
535.20	60554.34
535.37	60989.68
535.54	61153.52
535.71	60711.16
535.88	60444.33
536.05	59711.75
536.22	59309.18
536.38	59084.48
536.55	58649.14
536.72	58166.99
536.89	57968.05
537.06	58740.42
537.23	59877.93
537.40	59856.86
537.57	59941.12
537.74	59501.10
537.91	59664.94
538.08	59547.91
538.25	59428.54
538.42	59751.54
538.59	59840.48
538.75	58883.20
538.92	58812.98
539.09	58906.60
539.26	58461.90
539.43	58239.55
539.60	58344.87
539.77	58632.76
539.94	58482.97
540.11	57970.39
540.28	57315.04
540.44	57186.31
540.61	57633.35
540.78	57914.22
540.95	58340.19
541.12	58660.85
541.29	59133.63
541.46	59135.98
541.62	59245.98
541.79	59103.21
541.96	58482.97
542.13	58445.52
542.30	58791.92
542.47	59103.21
542.63	58780.21
542.80	58571.91
542.97	58578.93
543.14	58438.50
543.31	58342.53
543.48	59065.76
543.64	59690.68
543.81	59969.21
543.98	59983.25
544.15	59049.38
544.32	58681.91
544.48	58501.69
544.65	59187.47
544.82	59564.29
544.99	59040.01
545.16	58897.24
545.32	58492.33
545.49	59274.07
545.66	59767.92
545.83	59358.33
546.00	58967.46
546.16	58623.40
546.33	58829.37
546.50	58747.45
546.67	59147.68
546.83	58845.75
547.00	58850.43
547.17	58183.38
547.34	57663.78
547.50	57645.05
547.67	58073.37
547.84	58089.76
548.00	58323.81
548.17	58707.66
548.34	58738.08
548.51	58820.00
548.67	58731.06
548.84	58894.90
549.01	58827.02
549.18	58796.60
549.34	58663.19
549.51	58726.38
549.68	58436.16
549.84	58499.35
550.01	58291.04
550.18	58211.46
550.34	58323.81
550.51	58157.63
550.68	58555.52
550.84	57935.28
551.01	58085.07
551.18	58064.01
551.34	58333.17
551.51	58635.10
551.68	58726.38
551.84	58747.45
552.01	58637.44
552.18	58358.92
552.34	57645.05
552.51	57556.11
552.68	57432.07
552.84	57820.59
553.01	58085.07
553.18	58071.03
553.34	58305.09
553.51	58197.42
553.67	58396.37
553.84	58700.64
554.01	58419.77
554.17	58138.91
554.34	57900.17
554.51	58466.58
554.67	58695.95
554.84	58553.18
555.00	58377.64
555.17	57780.81
555.33	57829.96
555.50	58031.24
555.67	57904.85
555.83	57675.48
556.00	57443.77
556.16	57443.77
556.33	56970.98
556.50	57024.81
556.66	56952.26
556.83	56633.94
556.99	56968.64
557.16	56961.62
557.32	57336.10
557.49	57478.88
557.65	57523.35
557.82	57539.73
557.98	57198.01
558.15	56905.44
558.32	56137.75
558.48	55456.65
558.65	55571.34
558.81	55887.31
558.98	56463.08
559.14	56502.87
559.31	56193.92
559.47	56624.58
559.64	56067.53
559.80	55751.56
559.97	55756.24
560.13	56226.69
560.30	57277.59
560.46	57471.85
560.63	57719.95
560.79	57780.81
560.96	57670.80
561.12	56453.72
561.29	55447.29
561.45	55702.41
561.61	56123.71
561.78	56481.81
561.94	56301.59
562.11	56657.35
562.27	56299.25
562.44	56570.75
562.60	56952.26
562.77	57015.45
562.93	56912.47
563.10	56818.84
563.26	56317.97
563.42	56175.20
563.59	56065.19
563.75	56200.94
563.92	56119.02
564.08	56140.09
564.24	56341.38
564.41	56357.76
564.57	56245.41
564.74	56107.32
564.90	56247.75
565.07	55791.35
565.23	55442.61
565.39	54951.10
565.56	55004.93
565.72	54501.71
565.88	54810.67
566.05	55089.19
566.21	55105.57
566.38	55311.54
566.54	55456.65
566.70	55732.84
566.87	55973.91
567.03	56025.40
567.19	56329.67
567.36	55749.22
567.52	56009.02
567.68	55749.22
567.85	54974.50
568.01	54447.88
568.17	54585.97
568.34	54382.35
568.50	54197.44
568.66	54490.01
568.83	54712.36
568.99	54836.41
569.15	55056.42
569.32	55173.45
569.48	54480.65
569.64	54541.50
569.81	54412.77
569.97	54342.56
570.13	54113.19
570.30	53893.18
570.46	53277.61
570.62	52758.02
570.78	52488.85
570.95	52671.42
571.11	53755.08
571.27	53986.80
571.43	54054.67
571.60	54375.33
571.76	54410.43
571.92	54887.90
572.09	54843.43
572.25	54904.29
572.41	54885.56
572.57	54642.15
572.74	54827.05
572.90	53993.82
573.06	54211.49
573.22	54532.14
573.38	54281.70
573.55	54302.77
573.71	54733.43
573.87	54532.14
574.03	54174.04
574.20	54344.90
574.36	53757.42
574.52	53794.87
574.68	53591.25
574.84	53230.80
575.01	52879.72
575.17	52804.83
575.33	53329.11
575.49	53237.83
575.65	53474.22
575.82	53268.25
575.98	52846.96
576.14	53172.29
576.30	53460.18
576.46	53595.93
576.62	53464.86
576.79	53378.26
576.95	52973.34
577.11	53244.85
577.27	53191.01
577.43	53132.50
577.59	52945.26
577.75	52409.28
577.92	51667.33
578.08	51571.36
578.24	51517.53
578.40	51948.19
578.56	52364.81
578.72	52343.74
578.88	52402.25
579.04	52530.98
579.21	52758.02
579.37	52643.33
579.53	53017.82
579.69	52968.66
579.85	53062.29
580.01	52961.64
580.17	52147.14
580.33	52364.81
580.49	52287.57
580.65	52680.78
580.82	52790.78
580.98	52577.79
581.14	52741.63
581.30	52931.22
581.46	52610.56
581.62	52743.97
581.78	52811.85
581.94	53134.84
582.10	52828.23
582.26	53069.31
582.42	52900.79
582.58	52928.87
582.74	52865.68
582.90	53179.31
583.06	52926.53
583.22	52846.96
583.38	52762.70
583.54	52561.41
583.70	52638.65
583.86	52692.48
584.02	52364.81
584.18	52484.17
584.34	52362.46
584.50	52350.76
584.66	52179.90
584.82	51648.60
584.98	51800.74
585.14	51529.23
585.30	50911.33
