SpectraSuite Data File
++++++++++++++++++++++++++++++++++++
Date: Mon Oct 07 14:53:59 GMT-05:00 2013
User: price-jones
Dark Spectrum Present: No
Reference Spectrum Present: No
Number of Sampled Component Spectra: 1
Spectrometers: USB2+H05261
Integration Time (usec): 100000 (USB2+H05261)
Spectra Averaged: 1 (USB2+H05261)
Boxcar Smoothing: 0 (USB2+H05261)
Correct for Electrical Dark: No (USB2+H05261)
Strobe/Lamp Enabled: No (USB2+H05261)
Correct for Detector Non-linearity: No (USB2+H05261)
Correct for Stray Light: No (USB2+H05261)
Number of Pixels in Processed Spectrum: 2048
>>>>>Begin Processed Spectral Data<<<<<
365.73	0.00
365.92	0.00
366.12	0.00
366.32	0.00
366.52	0.00
366.72	0.00
366.91	0.00
367.11	0.00
367.31	0.00
367.51	0.00
367.70	0.00
367.90	0.00
368.10	0.00
368.30	0.00
368.49	0.00
368.69	0.00
368.89	0.00
369.09	0.00
369.28	0.00
369.48	0.00
369.68	0.00
369.87	0.00
370.07	0.00
370.27	0.00
370.47	683.44
370.66	3431.23
370.86	3967.21
371.06	4395.53
371.25	4486.81
371.45	4060.83
371.65	3602.08
371.84	3225.26
372.04	3412.50
372.24	3925.08
372.44	4072.53
372.63	4086.58
372.83	3772.94
373.03	3403.14
373.22	2967.80
373.42	3183.13
373.62	3707.41
373.81	4032.74
374.01	4070.19
374.21	3761.24
374.40	3463.99
374.60	3513.14
374.79	4037.42
374.99	4568.73
375.19	4973.64
375.38	5057.90
375.58	4730.22
375.78	4599.15
375.97	4690.43
376.17	4821.50
376.37	4777.03
376.56	4971.30
376.76	5404.30
376.95	5439.40
377.15	5928.58
377.35	6204.76
377.54	6490.31
377.74	6724.36
377.93	6649.46
378.13	6450.52
378.33	6305.40
378.52	5591.54
378.72	5516.64
378.91	5544.73
379.11	5338.76
379.31	5149.18
379.50	4961.94
379.70	5516.64
379.89	5839.64
380.09	6249.23
380.28	6546.48
380.48	6396.68
380.68	6174.33
380.87	6347.53
381.07	5771.76
381.26	5301.31
381.46	5104.71
381.65	4720.86
381.85	4732.56
382.04	4437.66
382.24	4224.67
382.43	3981.25
382.63	3927.42
382.83	4007.00
383.02	3864.22
383.22	3960.19
383.41	4011.68
383.61	4212.96
383.80	4861.29
384.00	5448.77
384.19	6122.84
384.39	6555.84
384.58	6527.75
384.78	6181.35
384.97	6305.40
385.17	6001.13
385.36	5715.59
385.56	5336.42
385.75	5582.18
385.95	6148.59
386.14	6509.03
386.34	6546.48
386.53	6249.23
386.72	5827.93
386.92	5947.30
387.11	6382.64
387.31	6445.84
387.50	6480.94
387.70	6361.58
387.89	6239.87
388.09	6195.40
388.28	6176.67
388.48	6127.52
388.67	6942.03
388.86	7590.36
389.06	8102.93
389.25	8517.21
389.45	8608.49
389.64	8589.77
389.84	8325.29
390.03	8217.62
390.22	8341.67
390.42	8720.84
390.61	9275.54
390.81	9635.99
391.00	9956.64
391.19	9830.25
391.39	9551.73
391.58	8945.53
391.78	8437.63
391.97	8325.29
392.16	7545.89
392.36	7119.91
392.55	5584.52
392.75	4423.61
392.94	3578.68
393.13	3543.57
393.33	4140.41
393.52	5416.00
393.71	6883.52
393.91	7550.57
394.10	8102.93
394.29	8849.57
394.49	9495.55
394.68	10455.17
394.88	10307.72
395.07	10934.98
395.26	10560.50
395.46	10239.84
395.65	9844.29
395.84	8636.58
396.04	7246.30
396.23	5790.49
396.42	4821.50
396.62	4582.77
396.81	5430.04
397.00	7187.79
397.19	8826.16
397.39	10370.91
397.58	11775.24
397.77	12418.88
397.97	12828.48
398.16	13025.08
398.35	13565.74
398.55	13956.61
398.74	14616.65
398.93	14745.38
399.12	14363.87
399.32	13905.12
399.51	14230.46
399.70	15293.06
399.90	15147.95
400.09	15293.06
400.28	14682.18
400.47	14991.13
400.67	15744.78
400.86	16350.98
401.05	16135.65
401.24	16229.27
401.44	16627.17
401.63	16482.05
401.82	16666.95
402.01	16500.78
402.21	16596.74
402.40	17076.55
402.59	16243.32
402.78	15679.25
402.97	15166.67
403.17	15791.59
403.36	16823.77
403.55	17331.67
403.74	17855.95
403.93	16692.70
404.13	15580.95
404.32	15082.41
404.51	16203.53
404.70	17099.95
404.89	17315.28
405.09	17078.89
405.28	16222.25
405.47	16418.86
405.66	16507.80
405.85	15826.70
406.05	15704.99
406.24	15782.23
406.43	16491.41
406.62	17130.38
406.81	17130.38
407.00	16486.73
407.20	16290.13
407.39	16442.26
407.58	16751.21
407.77	17530.61
407.96	18045.53
408.15	18326.39
408.34	18487.89
408.54	19393.68
408.73	19515.39
408.92	19255.59
409.11	18586.19
409.30	17635.94
409.49	16821.43
409.68	15578.61
409.87	14984.11
410.07	16016.29
410.26	17083.57
410.45	18551.09
410.64	18712.58
410.83	19276.65
411.02	19489.64
411.21	20500.75
411.40	20568.63
411.59	20217.55
411.78	20465.64
411.98	19950.73
412.17	20416.49
412.36	19950.73
412.55	20027.96
412.74	19749.44
412.93	19129.20
413.12	19417.08
413.31	21273.13
413.50	21336.32
413.69	21612.51
413.88	20900.98
414.07	20119.24
414.26	20688.00
414.45	21153.76
414.64	21359.73
414.83	21570.38
415.02	21029.71
415.22	20629.48
415.41	21341.00
415.60	22267.86
415.79	22930.23
415.98	23335.14
416.17	23491.96
416.36	22970.02
416.55	22640.00
416.74	22209.34
416.93	21083.55
417.12	21174.83
417.31	21333.98
417.50	21813.79
417.69	22331.05
417.88	22506.59
418.07	22438.72
418.26	21738.90
418.45	22190.62
418.64	22799.16
418.83	23700.26
419.02	23185.35
419.21	23131.51
419.39	22183.60
419.58	20840.13
419.77	21064.82
419.96	22087.64
420.15	23201.73
420.34	24107.52
420.53	24566.26
420.72	25319.92
420.91	25380.77
421.10	24423.49
421.29	24147.31
421.48	23690.90
421.67	24521.79
421.86	24114.54
422.05	22534.68
422.24	20283.08
422.43	20004.56
422.61	21874.65
422.80	23981.13
422.99	24084.11
423.18	23047.26
423.37	22640.00
423.56	22672.77
423.75	23094.07
423.94	23190.03
424.13	22450.42
424.32	22515.95
424.50	22464.46
424.69	22235.09
424.88	22115.72
425.07	21916.78
425.26	22300.62
425.45	22019.76
425.64	21467.39
425.83	21333.98
426.01	23098.75
426.20	23433.44
426.39	23070.66
426.58	21242.70
426.77	19962.43
426.96	19049.62
427.15	20065.41
427.33	21762.30
427.52	22249.13
427.71	22422.33
427.90	22405.95
428.09	22759.37
428.28	21825.50
428.46	20774.60
428.65	20498.41
428.84	20664.59
429.03	21312.92
429.22	20285.42
429.40	19522.41
429.59	17282.52
429.78	15356.25
429.97	15578.61
430.16	15669.89
430.34	15602.01
430.53	15524.77
430.72	16032.67
430.91	17554.02
431.10	20929.07
431.28	24329.87
431.47	26522.95
431.66	26686.79
431.85	24189.44
432.03	22473.82
432.22	21259.09
432.41	22092.32
432.60	24879.89
432.79	25841.85
432.97	26218.68
433.16	25804.41
433.35	23576.22
433.54	21188.87
433.72	19803.27
433.91	20339.26
434.10	22822.56
434.28	24329.87
434.47	25909.73
434.66	25542.27
434.85	24552.22
435.03	23962.40
435.22	24788.61
435.41	26951.27
435.59	26356.77
435.78	27117.45
435.97	27854.72
436.16	28158.99
436.34	27337.46
436.53	26885.73
436.72	27068.30
436.90	25486.09
437.09	25593.76
437.28	25111.61
437.46	25743.55
437.65	25998.67
437.84	24114.54
438.02	22190.62
438.21	21876.99
438.40	23557.49
438.58	25336.30
438.77	25659.29
438.96	26024.42
439.14	27592.58
439.33	27934.29
439.52	28500.70
439.70	27754.07
439.89	26857.65
440.08	26466.78
440.26	25930.80
440.45	27311.71
440.63	28498.36
440.82	30155.46
441.01	30221.00
441.19	29495.43
441.38	30515.90
441.57	31225.09
441.75	31913.20
441.94	31721.28
442.12	31400.63
442.31	31943.63
442.50	31985.76
442.68	31714.26
442.87	31339.77
443.05	30724.21
443.24	31187.64
443.43	31676.81
443.61	32404.72
443.80	32924.32
443.98	31040.18
444.17	30895.07
444.35	32921.98
444.54	33411.15
444.73	32776.86
444.91	32027.89
445.10	30298.23
445.28	29057.75
445.47	28528.79
445.65	28748.80
445.84	29820.77
446.02	30426.96
446.21	31070.61
446.39	31646.38
446.58	31688.51
446.77	32236.20
446.95	32290.03
447.14	33053.05
447.32	33633.50
447.51	33097.52
447.69	31660.43
447.88	31468.50
448.06	31768.09
448.25	32889.21
448.43	32589.62
448.62	31793.84
448.80	31749.37
448.99	32283.01
449.17	32430.46
449.36	32411.74
449.54	33603.07
449.73	33965.85
449.91	34675.04
450.10	35784.45
450.28	35826.58
450.46	35545.72
450.65	35538.69
450.83	35503.59
451.02	34293.53
451.20	34586.10
451.39	34677.38
451.57	34073.52
451.76	34501.84
451.94	34176.50
452.13	33373.70
452.31	31990.44
452.49	30349.73
452.68	30728.89
452.86	31033.16
453.05	31367.86
453.23	32264.28
453.42	32980.49
453.60	33645.20
453.78	34139.05
453.97	33886.28
454.15	33851.17
454.34	32975.81
454.52	33156.03
454.70	32751.12
454.89	33364.34
455.07	32865.80
455.26	33617.11
455.44	34675.04
455.62	35494.22
455.81	35576.14
455.99	35241.45
456.17	34782.70
456.36	34504.18
456.54	36154.26
456.73	35864.03
456.91	36549.81
457.09	36421.08
457.28	37460.27
457.46	35400.60
457.64	35562.10
457.83	34450.35
458.01	33483.70
458.19	34415.24
458.38	34864.62
458.56	36105.10
458.74	36065.31
458.93	35248.47
459.11	35246.13
459.29	34902.07
459.48	34995.69
459.66	34939.52
459.84	35283.58
460.03	36002.12
460.21	35578.48
460.39	36444.48
460.57	36392.99
460.76	36924.29
460.94	37027.28
461.12	36046.59
461.31	36811.95
461.49	36463.21
461.67	36451.50
461.85	37553.90
462.04	36849.39
462.22	38047.75
462.40	37486.02
462.59	37614.75
462.77	37640.50
462.95	37476.66
463.13	36648.11
463.32	36968.76
463.50	36184.68
463.68	36407.03
463.86	36215.11
464.05	35999.78
464.23	35297.62
464.41	35126.76
464.59	34593.12
464.78	36264.26
464.96	35798.49
465.14	35494.22
465.32	36662.15
465.50	37684.97
465.69	37661.56
465.87	37125.58
466.05	36500.65
466.23	34487.79
466.41	33268.37
466.60	34501.84
466.78	34660.99
466.96	35192.30
467.14	35704.87
467.32	36252.56
467.51	36313.41
467.69	34494.82
467.87	35150.17
468.05	35908.50
468.23	35859.35
468.41	36327.45
468.60	36058.29
468.78	36554.49
468.96	35852.33
469.14	36861.10
469.32	36713.64
469.50	35349.11
469.69	35491.88
469.87	34967.60
470.05	34700.78
470.23	34754.61
470.41	34911.43
470.59	35328.05
470.77	35936.59
470.95	36252.56
471.14	36685.56
471.32	36390.65
471.50	38778.00
471.68	38429.26
471.86	39079.92
472.04	39431.01
472.22	39519.95
472.40	37640.50
472.58	36863.44
472.77	37097.49
472.95	37801.99
473.13	38532.24
473.31	38124.99
473.49	37680.28
473.67	38199.88
473.85	38679.69
474.03	39800.81
474.21	39651.02
474.39	40222.11
474.57	40107.42
474.75	40680.85
474.93	40039.54
475.12	38721.82
475.30	39028.43
475.48	39342.06
475.66	39756.34
475.84	39318.66
476.02	38838.85
476.20	38129.67
476.38	39131.42
476.56	40442.12
476.74	40889.16
476.92	41322.16
477.10	41638.13
477.28	42506.47
477.46	42796.70
477.64	42761.59
477.82	43016.71
478.00	43461.41
478.18	42927.77
478.36	42815.42
478.54	42450.30
478.72	43201.61
478.90	43913.13
479.08	44889.13
479.26	45485.97
479.44	45432.14
479.62	45153.62
479.80	45074.04
479.98	45567.89
480.16	45862.80
480.34	45120.85
480.52	45647.47
480.70	46143.66
480.88	45748.11
481.06	46824.76
481.24	46749.86
481.41	47618.20
481.59	48299.30
481.77	48184.61
481.95	47683.73
482.13	47089.24
482.31	47145.41
482.49	48116.73
482.67	47597.13
482.85	47971.62
483.03	48800.17
483.21	49256.57
483.39	48706.55
483.57	48102.69
483.74	47901.40
483.92	47875.66
484.10	48385.89
484.28	49179.34
484.46	49476.58
484.64	50117.89
484.82	48938.26
485.00	48907.83
485.18	47772.67
485.35	46752.20
485.53	44002.07
485.71	39880.39
485.89	39398.24
486.07	41006.19
486.25	44587.21
486.43	47201.58
486.61	47543.30
486.78	47615.86
486.96	47676.71
487.14	49687.23
487.32	50291.09
487.50	51021.34
487.68	51812.44
487.85	52631.63
488.03	52343.74
488.21	52383.53
488.39	51398.16
488.57	50759.20
488.75	50176.40
488.92	51426.25
489.10	53317.40
489.28	54525.12
489.46	55458.99
489.64	55356.01
489.81	55377.08
489.99	54932.37
490.17	54873.86
490.35	55014.29
490.53	54990.89
490.70	54635.13
490.88	54358.94
491.06	55264.73
491.24	55100.89
491.41	54415.11
491.59	52746.31
491.77	52254.80
491.95	53052.92
492.13	53996.16
492.30	55215.58
492.48	56193.92
492.66	56502.87
492.84	56715.86
493.01	56432.66
493.19	55915.40
493.37	55461.33
493.54	55267.07
493.72	55943.48
493.90	56774.37
494.08	57483.56
494.25	57724.63
494.43	58026.56
494.61	58475.94
494.79	58337.85
494.96	58129.54
495.14	57743.36
495.32	56580.11
495.49	56023.06
495.67	57027.15
495.85	58330.83
496.02	58564.88
496.20	58354.24
496.38	58159.97
496.55	58049.97
496.73	58464.24
496.91	58571.91
497.09	58901.92
497.26	59264.70
497.44	58660.85
497.62	58501.69
497.79	57659.10
497.97	56346.06
498.14	56509.89
498.32	57698.89
498.50	58426.79
498.67	59089.16
498.85	58731.06
499.03	59117.25
499.20	59428.54
499.38	59360.67
499.56	59100.87
499.73	58752.13
499.91	58309.77
500.08	57858.04
500.26	57258.87
500.44	57722.29
500.61	58220.83
500.79	57975.07
500.97	57506.96
501.14	57488.24
501.32	57179.29
501.49	57354.83
501.67	57523.35
501.84	58220.83
502.02	58244.23
502.20	58827.02
502.37	58724.04
502.55	58578.93
502.72	59309.18
502.90	59744.51
503.07	59355.99
503.25	59224.92
503.43	58202.10
503.60	57614.63
503.78	56970.98
503.95	57499.94
504.13	58714.68
504.30	59728.13
504.48	59416.84
504.65	58922.99
504.83	59011.93
505.01	59601.74
505.18	59992.61
505.36	60378.80
505.53	60584.77
505.71	60699.45
505.88	60896.06
506.06	60114.32
506.23	60067.51
506.41	59662.60
506.58	59772.60
506.76	59760.90
506.93	59756.22
507.11	59320.88
507.28	59660.26
507.46	59147.68
507.63	58611.70
507.81	58372.96
507.98	58653.82
508.16	59138.32
508.33	59753.88
508.50	60121.34
508.68	60559.02
508.85	60811.80
509.03	60818.82
509.20	60851.59
509.38	59887.29
509.55	59461.31
509.73	59489.40
509.90	59805.37
510.08	60172.83
510.25	60107.30
510.42	59882.61
510.60	59760.90
510.77	60109.64
510.95	60692.43
511.12	60561.36
511.30	61167.56
511.47	61127.77
511.64	61109.05
511.82	60945.21
511.99	60018.36
512.17	59826.43
512.34	59330.24
512.51	59444.93
512.69	59604.08
512.86	59838.14
513.04	60179.85
513.21	60238.37
513.38	59763.24
513.56	59323.22
513.73	58637.44
513.90	58848.09
514.08	58981.50
514.25	59264.70
514.43	59437.90
514.60	59545.57
514.77	59742.17
514.95	59903.67
515.12	59693.02
515.29	59966.87
515.47	60411.57
515.64	60659.66
515.81	60205.60
515.99	59807.71
516.16	58358.92
516.33	56271.16
516.51	54775.56
516.68	54152.97
516.85	53652.10
517.03	53968.07
517.20	56371.80
517.37	58789.58
517.54	60055.81
517.72	59533.87
517.89	56987.36
518.06	54738.11
518.24	54988.55
518.41	57029.49
518.58	58398.71
518.75	58801.28
518.93	58642.12
519.10	58625.74
519.27	59114.91
519.45	59274.07
519.62	60090.91
519.79	60331.99
519.96	60287.52
520.14	59667.28
520.31	58843.41
520.48	58967.46
520.65	59241.30
520.83	60151.77
521.00	60505.19
521.17	60079.21
521.34	59580.68
521.52	60165.81
521.69	60397.52
521.86	60947.55
522.03	60807.12
522.20	59519.82
522.38	58494.67
522.55	58440.84
522.72	59138.32
522.89	59306.83
523.07	59498.76
523.24	59716.43
523.41	60425.61
523.58	60802.44
523.75	61017.77
523.92	60961.59
524.10	61041.17
524.27	61207.35
524.44	60722.86
524.61	60533.28
524.78	60509.87
524.96	60324.97
525.13	60535.62
525.30	60502.85
525.47	60956.91
525.64	61059.90
525.81	60278.16
525.98	58988.52
526.16	57623.99
526.33	56999.07
526.50	56858.63
526.67	56472.45
526.84	56868.00
527.01	57989.11
527.18	58382.32
527.36	59482.37
527.53	60245.39
527.70	60444.33
527.87	60051.12
528.04	59681.32
528.21	59910.69
528.38	60577.75
528.55	61144.16
528.72	61502.26
528.89	61380.55
529.07	61029.47
529.24	60615.19
529.41	60137.72
529.58	59351.30
529.75	59702.38
529.92	60025.38
530.09	60463.06
530.26	60973.30
530.43	61324.38
530.60	61228.41
530.77	61429.70
530.94	61385.23
531.11	60996.70
531.28	60643.28
531.46	60470.08
531.63	60666.69
531.80	60479.44
531.97	60147.09
532.14	59339.60
532.31	58489.99
532.48	57623.99
532.65	57858.04
532.82	58604.67
532.99	59618.13
533.16	60107.30
533.33	60481.78
533.50	60404.55
533.67	59924.74
533.84	59330.24
534.01	59849.84
534.18	59625.15
534.35	59985.59
534.52	59786.64
534.69	59992.61
534.86	60233.69
535.03	60420.93
535.20	60994.36
535.37	61413.32
535.54	61333.74
535.71	60849.25
535.88	60584.77
536.05	60259.43
536.22	59906.01
536.38	59475.35
536.55	59037.67
536.72	58604.67
536.89	58379.98
537.06	59302.15
537.23	59966.87
537.40	60322.63
537.57	60205.60
537.74	60016.02
537.91	60067.51
538.08	59938.78
538.25	59826.43
538.42	60013.68
538.59	60086.23
538.75	59299.81
538.92	59288.11
539.09	58990.86
539.26	58838.73
539.43	58738.08
539.60	58922.99
539.77	58937.03
539.94	58927.67
540.11	58230.19
540.28	57722.29
540.44	57937.62
540.61	57879.11
540.78	57935.28
540.95	58506.37
541.12	58885.54
541.29	59147.68
541.46	59538.55
541.62	59416.84
541.79	59442.59
541.96	58838.73
542.13	58672.55
542.30	58995.54
542.47	59168.74
542.63	58965.12
542.80	58660.85
542.97	58960.44
543.14	58763.83
543.31	58738.08
543.48	59276.41
543.64	59920.05
543.81	60411.57
543.98	60032.40
544.15	59440.24
544.32	58707.66
544.48	58815.32
544.65	59442.59
544.82	59709.41
544.99	59421.52
545.16	58955.75
545.32	58646.80
545.49	59742.17
545.66	59931.76
545.83	59536.21
546.00	59086.82
546.16	58838.73
546.33	58719.36
546.50	58915.96
546.67	59552.59
546.83	59037.67
547.00	58969.80
547.17	58204.44
547.34	57855.70
547.50	57813.57
547.67	58141.25
547.84	58122.52
548.00	58621.06
548.17	58990.86
548.34	58862.13
548.51	59054.06
548.67	58822.34
548.84	59140.66
549.01	59007.25
549.18	58775.53
549.34	58899.58
549.51	58915.96
549.68	58859.79
549.84	58609.35
550.01	58478.28
550.18	58267.64
550.34	58309.77
550.51	58365.94
550.68	58747.45
550.84	58152.95
551.01	57937.62
551.18	58143.59
551.34	58234.87
551.51	58841.07
551.68	58939.37
551.84	58731.06
552.01	58592.97
552.18	58618.72
552.34	57855.70
552.51	57453.13
552.68	57258.87
552.84	57750.38
553.01	58085.07
553.18	58007.84
553.34	58387.00
553.51	58124.86
553.67	58534.46
553.84	58805.96
554.01	58590.63
554.17	58230.19
554.34	58272.32
554.51	58422.11
554.67	58735.74
554.84	58487.65
555.00	58162.31
555.17	58007.84
555.33	58101.46
555.50	57860.38
555.67	58040.60
555.83	57773.78
556.00	57645.05
556.16	57539.73
556.33	57029.49
556.50	57027.15
556.66	57083.33
556.83	56767.35
556.99	56994.39
557.16	57064.60
557.32	57382.91
557.49	57378.23
557.65	57528.03
557.82	57476.54
557.98	57406.32
558.15	56975.66
558.32	55927.10
558.48	55393.46
558.65	55533.89
558.81	56128.39
558.98	56172.86
559.14	56458.40
559.31	56315.63
559.47	56397.55
559.64	55957.53
559.80	55882.63
559.97	55810.07
560.13	56261.80
560.30	57289.29
560.46	57535.05
560.63	57794.85
560.79	57851.02
560.96	57237.80
561.12	56498.19
561.29	55519.85
561.45	55550.27
561.61	56205.62
561.78	56416.27
561.94	56533.30
562.11	56247.75
562.27	56023.06
562.44	56406.91
562.60	56680.75
562.77	57045.88
562.93	56715.86
563.10	56687.78
563.26	56133.07
563.42	56266.48
563.59	55744.54
563.75	55814.76
563.92	56175.20
564.08	56016.04
564.24	56324.99
564.41	56369.46
564.57	56037.11
564.74	55915.40
564.90	55884.97
565.07	55938.80
565.23	55475.38
565.39	55107.91
565.56	54309.79
565.72	54539.16
565.88	54749.81
566.05	55007.27
566.21	55004.93
566.38	55241.32
566.54	55543.25
566.70	55718.79
566.87	56062.85
567.03	55622.83
567.19	56168.18
567.36	55908.38
567.52	55580.70
567.68	55545.59
567.85	54864.50
568.01	54401.07
568.17	54415.11
568.34	54127.23
568.50	53883.81
568.66	54298.09
568.83	54789.60
568.99	54679.60
569.15	54761.51
569.32	54915.99
569.48	54597.68
569.64	54398.73
569.81	54028.93
569.97	54115.53
570.13	53794.87
570.30	53598.27
570.46	52985.05
570.62	52339.06
570.78	52329.70
570.95	52865.68
571.11	53502.31
571.27	53359.53
571.43	53785.51
571.60	54218.51
571.76	54387.03
571.92	54651.51
572.09	54684.28
572.25	54578.95
572.41	54408.09
572.57	54358.94
572.74	54492.35
572.90	53902.54
573.06	53982.12
573.22	54094.46
573.38	54094.46
573.55	54052.33
573.71	54171.70
573.87	54047.65
574.03	53975.09
574.20	53813.60
574.36	53455.50
574.52	53476.56
574.68	53237.83
574.84	52931.22
575.01	52133.09
575.17	52182.24
575.33	52842.27
575.49	52935.90
575.65	52912.49
575.82	52900.79
575.98	52439.70
576.14	52381.19
576.30	53268.25
576.46	53240.17
576.62	53298.68
576.79	53104.41
576.95	52701.84
577.11	52339.06
577.27	52804.83
577.43	53003.77
577.59	52367.15
577.75	52158.84
577.92	51243.69
578.08	50969.85
578.24	51187.52
578.40	51674.35
578.56	51739.88
578.72	51889.68
578.88	52027.77
579.04	52135.43
579.21	52179.90
579.37	52306.29
579.53	52596.52
579.69	52203.31
579.85	52388.21
580.01	52301.61
580.17	52076.92
580.33	51999.68
580.49	52189.27
580.65	52189.27
580.82	52374.17
580.98	52533.32
581.14	52229.05
581.30	52402.25
581.46	51929.47
581.62	52442.04
581.78	52292.25
581.94	52346.08
582.10	52332.04
582.26	52619.92
582.42	52282.89
582.58	52250.12
582.74	52165.86
582.90	52591.84
583.06	52655.03
583.22	52002.02
583.38	52247.78
583.54	52168.20
583.70	51906.06
583.86	52048.83
584.02	51962.23
584.18	52268.84
584.34	51774.99
584.50	51435.61
584.66	51784.35
584.82	51559.66
584.98	50824.73
585.14	50471.31
