SpectraSuite Data File
++++++++++++++++++++++++++++++++++++
Date: Mon Oct 07 14:53:24 GMT-05:00 2013
User: price-jones
Dark Spectrum Present: No
Reference Spectrum Present: No
Number of Sampled Component Spectra: 1
Spectrometers: USB2+H05261
Integration Time (usec): 100000 (USB2+H05261)
Spectra Averaged: 1 (USB2+H05261)
Boxcar Smoothing: 0 (USB2+H05261)
Correct for Electrical Dark: No (USB2+H05261)
Strobe/Lamp Enabled: No (USB2+H05261)
Correct for Detector Non-linearity: No (USB2+H05261)
Correct for Stray Light: No (USB2+H05261)
Number of Pixels in Processed Spectrum: 2048
>>>>>Begin Processed Spectral Data<<<<<
365.73	0.00
365.92	0.00
366.12	0.00
366.32	0.00
366.52	0.00
366.72	0.00
366.91	0.00
367.11	0.00
367.31	0.00
367.51	0.00
367.70	0.00
367.90	0.00
368.10	0.00
368.30	0.00
368.49	0.00
368.69	0.00
368.89	0.00
369.09	0.00
369.28	0.00
369.48	0.00
369.68	0.00
369.87	0.00
370.07	0.00
370.27	0.00
370.47	641.31
370.66	2965.46
370.86	3426.54
371.06	3730.81
371.25	3791.67
371.45	3466.33
371.65	3131.64
371.84	2761.83
372.04	2963.12
372.24	3384.41
372.44	3508.46
372.63	3358.67
372.83	3194.83
373.03	2766.51
373.22	2628.42
373.42	2700.98
373.62	3199.51
373.81	3435.91
374.01	3351.65
374.21	3103.55
374.40	2885.88
374.60	3108.23
374.79	3346.97
374.99	3857.20
375.19	4100.62
375.38	4161.47
375.58	4070.19
375.78	3927.42
375.97	4109.98
376.17	4060.83
376.37	4046.79
376.56	4196.58
376.76	4557.02
376.95	4702.14
377.15	5090.67
377.35	5430.04
377.54	5556.43
377.74	5528.35
377.93	5799.85
378.13	5680.48
378.33	5217.05
378.52	5011.09
378.72	4667.03
378.91	4526.60
379.11	4332.33
379.31	4346.37
379.50	4348.72
379.70	4641.28
379.89	5195.99
380.09	5439.40
380.28	5584.52
380.48	5694.52
380.68	5416.00
380.87	5369.19
381.07	5149.18
381.26	4669.37
381.46	4163.81
381.65	4229.35
381.85	4065.51
382.04	3618.47
382.24	3602.08
382.43	3456.97
382.63	3358.67
382.83	3314.20
383.02	3438.25
383.22	3321.22
383.41	3400.80
383.61	3566.98
383.80	4035.08
384.00	4641.28
384.19	5350.46
384.39	5703.89
384.58	5481.53
384.78	5366.85
384.97	5249.82
385.17	5149.18
385.36	4812.14
385.56	4699.80
385.75	4723.20
385.95	5188.97
386.14	5638.35
386.34	5724.95
386.53	5530.69
386.72	5043.85
386.92	5221.74
387.11	5352.81
387.31	5652.39
387.50	5673.46
387.70	5336.42
387.89	5385.57
388.09	5411.32
388.28	5495.58
388.48	5540.05
388.67	5888.79
388.86	6436.47
389.06	6876.49
389.25	7555.25
389.45	7442.90
389.64	7288.43
389.84	7414.82
390.03	7152.68
390.22	7115.23
390.42	7194.81
390.61	7936.76
390.81	8414.23
391.00	8767.65
391.19	8561.68
391.39	8231.66
391.58	7850.16
391.78	7398.43
391.97	7117.57
392.16	6647.12
392.36	6127.52
392.55	4910.44
392.75	3922.74
392.94	3124.62
393.13	3178.45
393.33	3604.42
393.52	4629.58
393.71	5846.66
393.91	6434.13
394.10	6953.73
394.29	7740.15
394.49	8362.73
394.68	8945.53
394.88	9074.26
395.07	9341.08
395.26	9291.93
395.46	8875.31
395.65	8322.94
395.84	7475.67
396.04	6300.72
396.23	5064.92
396.42	4297.22
396.62	4042.11
396.81	4772.35
397.00	6101.78
397.19	7765.90
397.39	9114.05
397.58	10441.13
397.77	10972.43
397.97	11150.31
398.16	11403.09
398.35	11789.28
398.55	12264.41
398.74	12482.08
398.93	12713.79
399.12	12564.00
399.32	12238.66
399.51	12435.27
399.70	13315.31
399.90	13249.77
400.09	13214.66
400.28	12957.21
400.47	13114.02
400.67	13631.28
400.86	13907.46
401.05	14036.19
401.24	14401.32
401.44	14408.34
401.63	14527.71
401.82	14546.43
402.01	14750.06
402.21	14600.26
402.40	14497.28
402.59	14258.54
402.78	13678.09
402.97	13076.57
403.17	13914.48
403.36	14637.71
403.55	15370.30
403.74	15346.89
403.93	14724.31
404.13	13650.00
404.32	13277.86
404.51	13832.57
404.70	15049.64
404.89	15049.64
405.09	14675.16
405.28	14394.29
405.47	14335.78
405.66	14207.05
405.85	13977.68
406.05	13561.06
406.24	13703.84
406.43	14214.07
406.62	15009.86
406.81	14902.19
407.00	14249.18
407.20	14333.44
407.39	14265.57
407.58	14981.77
407.77	15456.90
407.96	15789.25
408.15	16248.00
408.34	16273.74
408.54	17076.55
408.73	16917.39
408.92	17034.42
409.11	16358.00
409.30	15606.69
409.49	14314.72
409.68	13628.94
409.87	13378.50
410.07	13973.00
410.26	15042.62
410.45	16285.45
410.64	16514.82
410.83	16985.27
411.02	17406.56
411.21	18207.03
411.40	17703.81
411.59	18082.98
411.78	17759.98
411.98	17394.86
412.17	18181.28
412.36	17778.71
412.55	17802.11
412.74	17448.69
412.93	16936.12
413.12	17219.32
413.31	18572.15
413.50	18665.77
413.69	19445.17
413.88	18654.07
414.07	17858.29
414.26	17891.06
414.45	19007.49
414.64	19110.47
414.83	19054.30
415.02	18412.99
415.22	18567.47
415.41	18635.35
415.60	19218.14
415.79	20332.23
415.98	20748.85
416.17	20720.76
416.36	20238.61
416.55	19814.98
416.74	19426.45
416.93	18710.24
417.12	18686.84
417.31	18895.14
417.50	19126.86
417.69	20137.97
417.88	19859.45
418.07	19763.48
418.26	19529.43
418.45	19389.00
418.64	20175.42
418.83	21050.78
419.02	20446.92
419.21	20577.99
419.39	19426.45
419.58	18347.46
419.77	18649.39
419.96	19405.38
420.15	20989.92
420.34	21226.32
420.53	21963.59
420.72	22153.17
420.91	21977.63
421.10	21858.26
421.29	21680.38
421.48	21032.05
421.67	22052.53
421.86	21397.18
422.05	20006.90
422.24	17809.14
422.43	17420.61
422.61	19508.37
422.80	21191.21
422.99	21364.41
423.18	20477.35
423.37	20161.37
423.56	20170.74
423.75	20297.13
423.94	20882.26
424.13	19915.62
424.32	19707.31
424.50	20093.50
424.69	19597.31
424.88	19688.59
425.07	19941.36
425.26	19695.61
425.45	19548.15
425.64	19281.33
425.83	19103.45
426.01	20201.16
426.20	20643.52
426.39	20650.55
426.58	19218.14
426.77	17652.32
426.96	16912.71
427.15	17865.31
427.33	19274.31
427.52	19964.77
427.71	20114.56
427.90	19714.33
428.09	19829.02
428.28	19084.73
428.46	18417.68
428.65	18169.58
428.84	18780.46
429.03	19370.27
429.22	18075.96
429.40	17092.93
429.59	15632.44
429.78	13949.59
429.97	13752.99
430.16	13710.86
430.34	14068.96
430.53	13987.04
430.72	14312.38
430.91	15833.72
431.10	18719.60
431.28	21858.26
431.47	23379.61
431.66	23803.25
431.85	21509.52
432.03	19833.70
432.22	19176.01
432.41	19885.19
432.60	22408.29
432.79	22911.50
432.97	23620.69
433.16	23094.07
433.35	21205.25
433.54	19002.81
433.72	17720.20
433.91	18349.80
434.10	20629.48
434.28	22080.61
434.47	23351.52
434.66	22888.10
434.85	22029.12
435.03	21818.47
435.22	22750.01
435.41	23737.71
435.59	23597.28
435.78	24201.14
435.97	24936.07
436.16	24776.91
436.34	24723.08
436.53	24084.11
436.72	24374.34
436.90	22909.16
437.09	22857.67
437.28	22286.58
437.46	23253.22
437.65	23225.14
437.84	21790.39
438.02	19896.89
438.21	19648.80
438.40	20734.81
438.58	22415.31
438.77	23007.47
438.96	23138.54
439.14	24507.75
439.33	25069.48
439.52	25020.33
439.70	25125.65
439.89	24058.37
440.08	23821.97
440.26	23513.02
440.45	24325.19
440.63	26085.27
440.82	27323.41
441.01	27002.76
441.19	26792.11
441.38	27147.87
441.57	28423.47
441.75	28329.84
441.94	28699.65
442.12	28112.17
442.31	28840.08
442.50	28814.34
442.68	28528.79
442.87	27885.14
443.05	27899.19
443.24	28203.46
443.43	28905.62
443.61	29046.05
443.80	29509.47
443.98	27716.62
444.17	27936.63
444.35	29542.24
444.54	30017.37
444.73	29984.60
444.91	28432.83
445.10	27634.71
445.28	26253.79
445.47	25610.14
445.65	26155.49
445.84	26862.33
446.02	27669.81
446.21	27735.35
446.39	28177.71
446.58	28608.37
446.77	28996.90
446.95	29371.38
447.14	29958.86
447.32	30499.52
447.51	29907.37
447.69	28624.75
447.88	28521.77
448.06	28776.89
448.25	29832.47
448.43	29465.00
448.62	28767.52
448.80	29151.37
448.99	29165.42
449.17	29397.13
449.36	29301.17
449.54	30382.49
449.73	30965.29
449.91	31159.55
450.10	32184.71
450.28	32608.34
450.46	32762.82
450.65	32463.23
450.83	32226.84
451.02	31402.97
451.20	31208.70
451.39	31377.22
451.57	31009.76
451.76	31161.89
451.94	30778.04
452.13	30459.73
452.31	29020.30
452.49	27473.21
452.68	28102.81
452.86	28201.11
453.05	27828.97
453.23	29523.52
453.42	30008.01
453.60	30616.55
453.78	31049.55
453.97	30614.21
454.15	30857.62
454.34	30260.79
454.52	29989.28
454.70	29200.52
454.89	29923.75
455.07	29900.34
455.26	30609.53
455.44	31438.08
455.62	32149.60
455.81	32254.92
455.99	31791.50
456.17	31793.84
456.36	32072.36
456.54	32708.99
456.73	32435.14
456.91	32957.08
457.09	33287.10
457.28	33703.71
457.46	32435.14
457.64	32559.19
457.83	31578.51
458.01	30998.06
458.19	31496.59
458.38	31501.27
458.56	32779.20
458.74	32893.89
458.93	31936.61
459.11	32182.37
459.29	31599.57
459.48	31608.93
459.66	31644.04
459.84	32243.22
460.03	32500.68
460.21	32151.94
460.39	33235.61
460.57	33504.77
460.76	33762.23
460.94	33549.24
461.12	33275.40
461.31	33769.25
461.49	33273.06
461.67	33102.20
461.85	34555.67
462.04	33860.53
462.22	34558.01
462.40	34188.21
462.59	34712.49
462.77	34057.14
462.95	34148.42
463.13	33888.62
463.32	33116.24
463.50	33240.29
463.68	33331.57
463.86	33200.50
464.05	32793.25
464.23	32046.62
464.41	31833.63
464.59	31204.02
464.78	33212.20
464.96	33088.15
465.14	32545.15
465.32	33532.86
465.50	34576.73
465.69	34501.84
465.87	33427.53
466.05	32957.08
466.23	31648.72
466.41	30646.97
466.60	31772.77
466.78	31887.46
466.96	32086.40
467.14	32664.52
467.32	33642.86
467.51	33013.26
467.69	31510.63
467.87	32790.91
468.05	33118.58
468.23	33216.88
468.41	32704.31
468.60	33333.91
468.78	33528.17
468.96	32833.04
469.14	33624.14
469.32	33919.04
469.50	32393.01
469.69	32814.31
469.87	32250.24
470.05	32123.85
470.23	32252.58
470.41	32231.52
470.59	32645.79
470.77	32737.07
470.95	33565.62
471.14	34101.61
471.32	34031.39
471.50	35629.98
471.68	35669.76
471.86	36240.86
472.04	36095.74
472.22	36170.64
472.40	34553.33
472.58	34532.26
472.77	33802.02
472.95	34583.76
473.13	35236.77
473.31	34443.32
473.49	34923.13
473.67	35590.19
473.85	35819.56
474.03	36687.90
474.21	36624.70
474.39	37062.38
474.57	37312.82
474.75	37380.70
474.93	36715.98
475.12	35997.44
475.30	36531.08
475.48	36767.48
475.66	36854.08
475.84	36437.46
476.02	36119.15
476.20	35667.42
476.38	36458.52
476.56	37181.75
476.74	37951.79
476.92	38003.28
477.10	38644.59
477.28	39545.69
477.46	39489.52
477.64	40004.44
477.82	39697.83
478.00	40268.92
478.18	39618.25
478.36	39250.78
478.54	39796.13
478.72	39899.11
478.90	40385.94
479.08	41890.91
479.26	42314.55
479.44	41839.42
479.62	42174.11
479.80	41638.13
479.98	41872.18
480.16	42017.30
480.34	42017.30
480.52	42588.39
480.70	42422.21
480.88	42672.65
481.06	43391.19
481.24	43449.70
481.41	44636.36
481.59	45261.28
481.77	44996.80
481.95	44327.41
482.13	43894.41
482.31	44299.32
482.49	45090.42
482.67	44575.50
482.85	45193.40
483.03	45715.34
483.21	45965.78
483.39	45916.63
483.57	44942.97
483.74	45167.66
483.92	45462.57
484.10	45708.32
484.28	46419.84
484.46	46920.72
484.64	47482.45
484.82	46337.93
485.00	45287.03
485.18	45125.53
485.35	44044.20
485.53	40367.22
485.71	37223.88
485.89	36334.48
486.07	38787.36
486.25	41591.32
486.43	43662.69
486.61	44788.49
486.78	44657.42
486.96	44952.33
487.14	46501.76
487.32	47585.43
487.50	48500.58
487.68	49251.89
487.85	49890.86
488.03	49944.69
488.21	49275.30
488.39	48678.46
488.57	48203.33
488.75	47913.11
488.92	48973.37
489.10	51065.81
489.28	52310.97
489.46	53174.63
489.64	52851.64
489.81	53158.25
489.99	52631.63
490.17	52776.74
490.35	53123.14
490.53	52741.63
490.70	52367.15
490.88	52182.24
491.06	52999.09
491.24	53134.84
491.41	51934.15
491.59	50485.36
491.77	49420.41
491.95	50810.69
492.13	51721.16
492.30	53331.45
492.48	54178.72
492.66	54478.31
492.84	54412.77
493.01	54370.64
493.19	54045.31
493.37	53432.09
493.54	53237.83
493.72	53942.33
493.90	54885.56
494.08	55552.62
494.25	56002.00
494.43	56112.00
494.61	56669.05
494.79	56523.94
494.96	56179.88
495.14	55662.62
495.32	54553.21
495.49	54213.83
495.67	55178.13
495.85	56500.53
496.02	56837.57
496.20	56800.12
496.38	56121.37
496.55	56257.12
496.73	56631.60
496.91	56828.21
497.09	57268.23
497.26	57570.16
497.44	56973.32
497.62	56376.48
497.79	55487.08
497.97	54466.61
498.14	54607.04
498.32	55653.26
498.50	56573.09
498.67	57125.46
498.85	56797.78
499.03	57162.90
499.20	57312.70
499.38	57516.32
499.56	57371.21
499.73	56837.57
499.91	56514.58
500.08	56044.13
500.26	55260.05
500.44	55868.59
500.61	56367.12
500.79	56376.48
500.97	55718.79
501.14	55693.05
501.32	55526.87
501.49	55583.04
501.67	55915.40
501.84	56217.33
502.02	56718.20
502.20	56996.73
502.37	56884.38
502.55	57001.41
502.72	57448.45
502.90	58152.95
503.07	57689.52
503.25	57198.01
503.43	56708.84
503.60	55849.86
503.78	55079.83
503.95	55686.03
504.13	57031.83
504.30	57984.43
504.48	57689.52
504.65	57427.38
504.83	57364.19
505.01	58064.01
505.18	58279.34
505.36	58852.77
505.53	58820.00
505.71	59079.80
505.88	59049.38
506.06	58557.86
506.23	58199.76
506.41	57883.79
506.58	58185.72
506.76	58021.88
506.93	58047.63
507.11	57921.24
507.28	58059.33
507.46	57425.04
507.63	57162.90
507.81	56643.30
507.98	56973.32
508.16	57584.20
508.33	57996.13
508.50	58590.63
508.68	58812.98
508.85	59367.69
509.03	59189.81
509.20	59175.76
509.38	58457.22
509.55	57724.63
509.73	57858.04
509.90	58169.33
510.08	58562.54
510.25	58576.59
510.42	58213.80
510.60	58113.16
510.77	58281.68
510.95	58981.50
511.12	59082.14
511.30	59409.82
511.47	59568.97
511.64	59697.70
511.82	59475.35
511.99	58628.08
512.17	58255.93
512.34	58017.20
512.51	58148.27
512.69	58061.67
512.86	58227.85
513.04	58548.50
513.21	58508.71
513.38	58450.20
513.56	57741.02
513.73	57249.50
513.90	57420.36
514.08	57595.90
514.25	57961.03
514.43	58024.22
514.60	58024.22
514.77	58108.48
514.95	58279.34
515.12	58042.95
515.29	58262.96
515.47	59021.29
515.64	59171.08
515.81	58738.08
515.99	58211.46
516.16	56830.55
516.33	54169.36
516.51	52884.40
516.68	52215.01
516.85	51868.61
517.03	52378.85
517.20	55103.23
517.37	57539.73
517.54	58379.98
517.72	57703.57
517.89	55372.39
518.06	53296.34
518.24	53661.46
518.41	55660.28
518.58	56931.19
518.75	57310.36
518.93	57279.93
519.10	57162.90
519.27	57640.37
519.45	57813.57
519.62	58485.31
519.79	58899.58
519.96	58630.42
520.14	58202.10
520.31	57436.75
520.48	57446.11
520.65	57677.82
520.83	58691.27
521.00	59044.69
521.17	58827.02
521.34	58377.64
521.52	58630.42
521.69	59091.51
521.86	59522.16
522.03	59180.45
522.20	58122.52
522.38	57006.09
522.55	57155.88
522.72	57834.64
522.89	57860.38
523.07	57965.71
523.24	58401.05
523.41	59154.70
523.58	59409.82
523.75	59898.99
523.92	59653.23
524.10	59693.02
524.27	59739.83
524.44	59568.97
524.61	59035.33
524.78	59161.72
524.96	58820.00
525.13	58988.52
525.30	59285.77
525.47	59807.71
525.64	59735.15
525.81	59110.23
525.98	57392.28
526.16	56224.35
526.33	55480.06
526.50	55070.46
526.67	54656.19
526.84	55201.53
527.01	56395.21
527.18	57205.03
527.36	58113.16
527.53	58897.24
527.70	58960.44
527.87	58728.72
528.04	58035.92
528.21	58628.08
528.38	59435.56
528.55	59910.69
528.72	60165.81
528.89	60163.47
529.07	59903.67
529.24	59234.28
529.41	58834.05
529.58	58258.27
529.75	58309.77
529.92	58775.53
530.09	59194.49
530.26	59618.13
530.43	59964.52
530.60	59891.97
530.77	60128.36
530.94	60355.39
531.11	59683.66
531.28	59372.37
531.46	59180.45
531.63	59517.48
531.80	59124.27
531.97	58974.48
532.14	58068.69
532.31	57186.31
532.48	56547.34
532.65	56608.20
532.82	57623.99
532.99	58497.01
533.16	58848.09
533.33	59587.70
533.50	59178.10
533.67	58480.63
533.84	58028.90
534.01	58365.94
534.18	58745.11
534.35	58876.18
534.52	58740.42
534.69	58850.43
534.86	59133.63
535.03	59554.93
535.20	59847.50
535.37	60076.87
535.54	60388.16
535.71	59814.73
535.88	59487.06
536.05	58852.77
536.22	58405.73
536.38	58279.34
536.55	57879.11
536.72	57350.15
536.89	57195.67
537.06	58202.10
537.23	59032.99
537.40	59295.13
537.57	59194.49
537.74	58946.39
537.91	58482.97
538.08	58791.92
538.25	58951.07
538.42	58988.52
538.59	58763.83
538.75	58089.76
538.92	57888.47
539.09	57897.83
539.26	57731.65
539.43	57476.54
539.60	57464.83
539.77	57640.37
539.94	57623.99
540.11	56842.25
540.28	56090.94
540.44	56444.36
540.61	56832.89
540.78	57109.07
540.95	57109.07
541.12	57787.83
541.29	58066.35
541.46	58183.38
541.62	58384.66
541.79	58171.67
541.96	57710.59
542.13	57570.16
542.30	57914.22
542.47	57979.75
542.63	57841.66
542.80	57612.29
542.97	57946.98
543.14	57654.42
543.31	57549.09
543.48	58150.61
543.64	58913.62
543.81	59107.89
543.98	58988.52
544.15	58328.49
544.32	57654.42
544.48	57778.46
544.65	58553.18
544.82	58534.46
544.99	58375.30
545.16	58061.67
545.32	57822.93
545.49	58396.37
545.66	58733.40
545.83	58546.16
546.00	58071.03
546.16	57815.91
546.33	57916.56
546.50	57862.72
546.67	58171.67
546.83	58031.24
547.00	57755.06
547.17	57279.93
547.34	56685.43
547.50	56650.33
547.67	56978.00
547.84	57132.48
548.00	57457.81
548.17	58005.50
548.34	57829.96
548.51	57738.68
548.67	58000.82
548.84	58066.35
549.01	57755.06
549.18	57670.80
549.34	57771.44
549.51	57984.43
549.68	57729.31
549.84	57322.06
550.01	57427.38
550.18	57141.84
550.34	57364.19
550.51	57478.88
550.68	57464.83
550.84	56797.78
551.01	57088.01
551.18	57003.75
551.34	57146.52
551.51	57506.96
551.68	57834.64
551.84	57750.38
552.01	57579.52
552.18	57670.80
552.34	56685.43
552.51	56474.79
552.68	56236.05
552.84	56844.59
553.01	57322.06
553.18	56905.44
553.34	56987.36
553.51	57242.48
553.67	57607.61
553.84	57535.05
554.01	57521.01
554.17	57240.14
554.34	57284.61
554.51	57446.11
554.67	57832.30
554.84	57474.20
555.00	57289.29
555.17	56896.08
555.33	56842.25
555.50	57125.46
555.67	57003.75
555.83	56856.29
556.00	56549.68
556.16	56652.67
556.33	56161.15
556.50	56126.05
556.66	56236.05
556.83	55709.43
556.99	56189.24
557.16	55868.59
557.32	56217.33
557.49	56521.60
557.65	56399.89
557.82	56573.09
557.98	56339.04
558.15	55805.39
558.32	55140.68
558.48	53977.43
558.65	54534.48
558.81	55105.57
558.98	55033.02
559.14	55253.03
559.31	55363.03
559.47	55297.50
559.64	55199.19
559.80	54784.92
559.97	54798.96
560.13	55304.52
560.30	56247.75
560.46	56629.26
560.63	56903.10
560.79	56790.76
560.96	56175.20
561.12	55323.24
561.29	54508.74
561.45	54527.46
561.61	55220.26
561.78	55721.13
561.94	55238.98
562.11	55297.50
562.27	55253.03
562.44	55515.17
562.60	55833.48
562.77	56170.52
562.93	55971.57
563.10	55650.92
563.26	55084.51
563.42	55360.69
563.59	55215.58
563.75	55234.30
563.92	55150.04
564.08	55014.29
564.24	55351.33
564.41	55480.06
564.57	55082.17
564.74	55262.39
564.90	55260.05
565.07	54913.65
565.23	54511.08
565.39	54078.08
565.56	53811.26
565.72	53532.73
565.88	53991.48
566.05	53986.80
566.21	54164.68
566.38	54354.26
566.54	54473.63
566.70	55042.38
566.87	55077.49
567.03	55002.59
567.19	55442.61
567.36	54911.31
567.52	54948.76
567.68	54878.54
567.85	53947.01
568.01	53595.93
568.17	53216.76
568.34	53371.24
568.50	53109.10
568.66	53078.67
568.83	53642.74
568.99	53656.78
569.15	53937.65
569.32	53989.14
569.48	53586.57
569.64	53404.00
569.81	52828.23
569.97	53205.06
570.13	53146.54
570.30	52170.54
570.46	52107.35
570.62	51737.54
570.78	51341.99
570.95	51798.40
571.11	52399.91
571.27	52467.79
571.43	52542.69
571.60	53453.15
571.76	53357.19
571.92	53469.54
572.09	53883.81
572.25	53766.79
572.41	53930.62
572.57	53359.53
572.74	53591.25
572.90	53059.94
573.06	52949.94
573.22	53174.63
573.38	53083.35
573.55	53455.50
573.71	53462.52
573.87	53078.67
574.03	52640.99
574.20	52811.85
574.36	52750.99
574.52	52587.16
574.68	52156.50
574.84	52170.54
575.01	51459.02
575.17	51374.76
575.33	51657.96
575.49	51814.78
575.65	52140.11
575.82	52072.24
575.98	51442.63
576.14	52128.41
576.30	52133.09
576.46	52261.82
576.62	52353.10
576.79	51723.50
576.95	51751.59
577.11	51791.37
577.27	51877.97
577.43	52109.69
577.59	51545.62
577.75	51334.97
577.92	50766.22
578.08	50059.38
578.24	50248.96
578.40	50501.74
578.56	51007.29
578.72	51093.89
578.88	51260.07
579.04	51344.33
579.21	51606.47
579.37	51910.74
579.53	51365.40
579.69	51714.14
579.85	51653.28
580.01	51594.77
580.17	51049.42
580.33	50897.29
580.49	50862.18
580.65	51288.16
580.82	51524.55
580.98	51316.25
581.14	51323.27
581.30	51604.13
581.46	51124.32
581.62	51203.90
581.78	51756.27
581.94	51978.62
582.10	51868.61
582.26	51931.81
582.42	51437.95
582.58	51639.24
582.74	51695.41
582.90	51693.07
583.06	51639.24
583.22	51503.49
583.38	51379.44
583.54	51192.20
583.70	51370.08
583.86	51208.58
584.02	50925.38
584.18	51100.92
584.34	51051.76
584.50	50941.76
584.66	50747.50
584.82	50471.31
584.98	50412.80
585.14	50237.26
585.30	49329.13
