SpectraSuite Data File
++++++++++++++++++++++++++++++++++++
Date: Mon Oct 07 14:54:56 GMT-05:00 2013
User: price-jones
Dark Spectrum Present: No
Reference Spectrum Present: No
Number of Sampled Component Spectra: 1
Spectrometers: USB2+H05261
Integration Time (usec): 10000 (USB2+H05261)
Spectra Averaged: 1 (USB2+H05261)
Boxcar Smoothing: 0 (USB2+H05261)
Correct for Electrical Dark: No (USB2+H05261)
Strobe/Lamp Enabled: No (USB2+H05261)
Correct for Detector Non-linearity: No (USB2+H05261)
Correct for Stray Light: No (USB2+H05261)
Number of Pixels in Processed Spectrum: 2048
>>>>>Begin Processed Spectral Data<<<<<
365.73	0.00
365.92	0.00
366.12	0.00
366.32	0.00
366.52	0.00
366.72	0.00
366.91	0.00
367.11	0.00
367.31	0.00
367.51	0.00
367.70	0.00
367.90	0.00
368.10	0.00
368.30	0.00
368.49	0.00
368.69	0.00
368.89	0.00
369.09	0.00
369.28	0.00
369.48	0.00
369.68	0.00
369.87	0.00
370.07	0.00
370.27	0.00
370.47	0.00
370.66	304.27
370.86	360.44
371.06	411.93
371.25	353.42
371.45	346.40
371.65	311.29
371.84	241.08
372.04	264.48
372.24	395.55
372.44	386.19
372.63	468.11
372.83	360.44
373.03	290.23
373.22	243.42
373.42	266.82
373.62	444.70
373.81	376.83
374.01	351.08
374.21	306.61
374.40	238.73
374.60	250.44
374.79	386.19
374.99	463.43
375.19	571.09
375.38	477.47
375.58	414.27
375.78	449.38
375.97	468.11
376.17	465.77
376.37	564.07
376.56	580.45
376.76	566.41
376.95	550.03
377.15	650.67
377.35	751.31
377.54	739.61
377.74	671.73
377.93	723.23
378.13	746.63
378.33	606.20
378.52	720.88
378.72	554.71
378.91	538.32
379.11	566.41
379.31	519.60
379.50	526.62
379.70	599.18
379.89	599.18
380.09	627.26
380.28	667.05
380.48	711.52
380.68	718.54
380.87	636.63
381.07	552.37
381.26	470.45
381.46	498.53
381.65	475.13
381.85	461.09
382.04	362.78
382.24	362.78
382.43	337.04
382.63	201.29
382.83	339.38
383.02	318.31
383.22	320.65
383.41	315.97
383.61	332.36
383.80	433.00
384.00	468.11
384.19	617.90
384.39	622.58
384.58	624.92
384.78	678.76
384.97	568.75
385.17	564.07
385.36	571.09
385.56	437.68
385.75	423.64
385.95	573.43
386.14	720.88
386.34	695.14
386.53	641.31
386.72	578.11
386.92	559.39
387.11	706.84
387.31	741.95
387.50	702.16
387.70	599.18
387.89	535.98
388.09	545.34
388.28	627.26
388.48	557.05
388.67	697.48
388.86	718.54
389.06	840.25
389.25	898.77
389.45	952.60
389.64	889.40
389.84	929.19
390.03	870.68
390.22	877.70
390.42	936.21
390.61	973.66
390.81	1097.71
391.00	1118.78
391.19	1139.84
391.39	1018.13
391.58	929.19
391.78	922.17
391.97	784.08
392.16	711.52
392.36	638.97
392.55	433.00
392.75	306.61
392.94	222.35
393.13	222.35
393.33	294.91
393.52	498.53
393.71	690.46
393.91	702.16
394.10	868.34
394.29	908.13
394.49	1055.58
394.68	1111.75
394.88	1043.88
395.07	1135.16
395.26	1128.14
395.46	1078.99
395.65	1048.56
395.84	905.79
396.04	601.52
396.23	512.58
396.42	407.25
396.62	423.64
396.81	475.13
397.00	706.84
397.19	915.15
397.39	1020.47
397.58	1315.38
397.77	1296.66
397.97	1430.07
398.16	1432.41
398.35	1483.90
398.55	1490.92
398.74	1411.34
398.93	1561.14
399.12	1521.35
399.32	1511.99
399.51	1511.99
399.70	1607.95
399.90	1607.95
400.09	1579.86
400.28	1568.16
400.47	1561.14
400.67	1654.76
400.86	1741.36
401.05	1804.55
401.24	1734.34
401.44	1891.15
401.63	1825.62
401.82	1776.47
402.01	1839.66
402.21	1804.55
402.40	1781.15
402.59	1746.04
402.78	1696.89
402.97	1600.93
403.17	1689.87
403.36	1806.89
403.55	1881.79
403.74	1832.64
403.93	1757.74
404.13	1614.97
404.32	1500.28
404.51	1650.08
404.70	1823.28
404.89	1858.39
405.09	1783.49
405.28	1624.33
405.47	1678.16
405.66	1687.53
405.85	1678.16
406.05	1640.72
406.24	1605.61
406.43	1652.42
406.62	1790.51
406.81	1849.02
407.00	1839.66
407.20	1722.63
407.39	1743.70
407.58	1895.83
407.77	1846.68
407.96	1961.37
408.15	1923.92
408.34	1788.17
408.54	1937.96
408.73	2118.18
408.92	2031.58
409.11	2092.44
409.30	1825.62
409.49	1699.23
409.68	1636.03
409.87	1570.50
410.07	1671.14
410.26	1764.76
410.45	1830.30
410.64	2092.44
410.83	2054.99
411.02	2148.61
411.21	2118.18
411.40	2076.06
411.59	2017.54
411.78	2090.10
411.98	2099.46
412.17	2069.03
412.36	2125.21
412.55	2076.06
412.74	2087.76
412.93	1968.39
413.12	1921.58
413.31	2097.12
413.50	2150.95
413.69	2326.49
413.88	2111.16
414.07	2038.61
414.26	2150.95
414.45	2214.15
414.64	2218.83
414.83	2209.47
415.02	2111.16
415.22	2143.93
415.41	2195.42
415.60	2317.13
415.79	2352.24
415.98	2408.41
416.17	2443.52
416.36	2356.92
416.55	2340.54
416.74	2153.29
416.93	2232.87
417.12	2120.53
417.31	2242.23
417.50	2258.62
417.69	2321.81
417.88	2291.38
418.07	2387.35
418.26	2300.75
418.45	2263.30
418.64	2333.51
418.83	2392.03
419.02	2443.52
419.21	2375.64
419.39	2331.17
419.58	2127.55
419.77	2134.57
419.96	2286.70
420.15	2387.35
420.34	2457.56
420.53	2534.80
420.72	2700.98
420.91	2469.27
421.10	2448.20
421.29	2434.16
421.48	2345.22
421.67	2478.63
421.86	2422.45
422.05	2256.28
422.24	2143.93
422.43	2010.52
422.61	2209.47
422.80	2345.22
422.99	2469.27
423.18	2272.66
423.37	2324.15
423.56	2183.72
423.75	2284.36
423.94	2555.86
424.13	2373.30
424.32	2263.30
424.50	2293.72
424.69	2221.17
424.88	2289.04
425.07	2235.21
425.26	2237.55
425.45	2155.63
425.64	2186.06
425.83	2146.27
426.01	2396.71
426.20	2340.54
426.39	2272.66
426.58	2143.93
426.77	1935.62
426.96	1900.52
427.15	1893.49
427.33	2305.43
427.52	2242.23
427.71	2258.62
427.90	2186.06
428.09	2209.47
428.28	2150.95
428.46	2001.16
428.65	2036.27
428.84	2085.42
429.03	2249.25
429.22	1853.70
429.40	1893.49
429.59	1661.78
429.78	1460.49
429.97	1474.54
430.16	1441.77
430.34	1465.18
430.53	1511.99
430.72	1568.16
430.91	1757.74
431.10	2015.20
431.28	2375.64
431.47	2548.84
431.66	2642.46
431.85	2464.58
432.03	2190.74
432.22	2118.18
432.41	2251.60
432.60	2445.86
432.79	2511.39
432.97	2539.48
433.16	2635.44
433.35	2293.72
433.54	2125.21
433.72	1856.04
433.91	1858.39
434.10	2165.00
434.28	2487.99
434.47	2642.46
434.66	2487.99
434.85	2413.09
435.03	2476.29
435.22	2443.52
435.41	2661.19
435.59	2562.89
435.78	2754.81
435.97	2588.63
436.16	2607.36
436.34	2761.83
436.53	2464.58
436.72	2609.70
436.90	2452.88
437.09	2602.68
437.28	2427.14
437.46	2560.55
437.65	2424.80
437.84	2417.77
438.02	2132.23
438.21	2104.14
438.40	2223.51
438.58	2401.39
438.77	2502.03
438.96	2635.44
439.14	2588.63
439.33	2682.25
439.52	2803.96
439.70	2700.98
439.89	2649.49
440.08	2506.71
440.26	2441.18
440.45	2569.91
440.63	2740.77
440.82	2857.79
441.01	2899.92
441.19	2818.00
441.38	2967.80
441.57	3016.95
441.75	3122.27
441.94	3094.19
442.12	3087.17
442.31	3180.79
442.50	3201.85
442.68	3101.21
442.87	3023.97
443.05	3084.83
443.24	3091.85
443.43	3227.60
443.61	3185.47
443.80	3236.96
443.98	2937.37
444.17	3066.10
444.35	3211.22
444.54	3173.77
444.73	3023.97
444.91	3014.61
445.10	2808.64
445.28	2712.68
445.47	2813.32
445.65	2752.47
445.84	2850.77
446.02	2991.20
446.21	2841.41
446.39	2932.69
446.58	3101.21
446.77	3220.58
446.95	3108.23
447.14	3192.49
447.32	3293.13
447.51	3311.86
447.69	3096.53
447.88	3012.27
448.06	3012.27
448.25	3084.83
448.43	3082.49
448.62	3091.85
448.80	3070.78
448.99	3105.89
449.17	3208.87
449.36	3211.22
449.54	3232.28
449.73	3187.81
449.91	3368.03
450.10	3370.37
450.28	3431.23
450.46	3339.94
450.65	3393.78
450.83	3438.25
451.02	3229.94
451.20	3265.05
451.39	3248.66
451.57	3141.00
451.76	3258.03
451.94	3295.47
452.13	3215.90
452.31	3052.06
452.49	2944.39
452.68	2775.88
452.86	2913.97
453.05	2981.84
453.23	3110.57
453.42	3136.32
453.60	3332.92
453.78	3187.81
453.97	3293.13
454.15	3248.66
454.34	3068.44
454.52	3220.58
454.70	3124.62
454.89	3204.19
455.07	3220.58
455.26	3213.56
455.44	3314.20
455.62	3283.77
455.81	3431.23
455.99	3375.05
456.17	3325.90
456.36	3424.20
456.54	3321.22
456.73	3517.83
456.91	3487.40
457.09	3454.63
457.28	3604.42
457.46	3445.27
457.64	3398.46
457.83	3185.47
458.01	3164.40
458.19	3197.17
458.38	3255.69
458.56	3400.80
458.74	3316.54
458.93	3311.86
459.11	3239.30
459.29	3311.86
459.48	3375.05
459.66	3220.58
459.84	3302.50
460.03	3318.88
460.21	3288.45
460.39	3482.72
460.57	3466.33
460.76	3407.82
460.94	3527.19
461.12	3424.20
461.31	3478.04
461.49	3330.58
461.67	3529.53
461.85	3571.66
462.04	3480.38
462.22	3653.58
462.40	3536.55
462.59	3527.19
462.77	3648.90
462.95	3641.87
463.13	3421.86
463.32	3318.88
463.50	3445.27
463.68	3569.32
463.86	3449.95
464.05	3412.50
464.23	3368.03
464.41	3335.26
464.59	3304.84
464.78	3260.37
464.96	3466.33
465.14	3323.56
465.32	3339.94
465.50	3581.02
465.69	3618.47
465.87	3487.40
466.05	3440.59
466.23	3075.46
466.41	3159.72
466.60	3283.77
466.78	3407.82
466.96	3293.13
467.14	3419.52
467.32	3515.48
467.51	3318.88
467.69	3463.99
467.87	3206.53
468.05	3485.06
468.23	3255.69
468.41	3372.71
468.60	3290.79
468.78	3382.07
468.96	3283.77
469.14	3552.93
469.32	3534.21
469.50	3290.79
469.69	3393.78
469.87	3335.26
470.05	3461.65
470.23	3297.81
470.41	3300.16
470.59	3337.60
470.77	3314.20
470.95	3330.58
471.14	3433.57
471.32	3623.15
471.50	3648.90
471.68	3667.62
471.86	3667.62
472.04	3698.05
472.22	3735.50
472.40	3370.37
472.58	3424.20
472.77	3426.54
472.95	3555.27
473.13	3550.59
473.31	3478.04
473.49	3370.37
473.67	3548.25
473.85	3723.79
474.03	3590.38
474.21	3878.27
474.39	3693.37
474.57	3791.67
474.75	3810.39
474.93	3698.05
475.12	3609.11
475.30	3695.71
475.48	3721.45
475.66	3665.28
475.84	3641.87
476.02	3609.11
476.20	3463.99
476.38	3623.15
476.56	3676.98
476.74	3847.84
476.92	3758.90
477.10	3859.54
477.28	4007.00
477.46	4030.40
477.64	3822.09
477.82	4093.60
478.00	3985.93
478.18	3967.21
478.36	3953.16
478.54	4011.68
478.72	3960.19
478.90	4198.92
479.08	4273.82
479.26	4339.35
479.44	4470.42
479.62	4285.52
479.80	4180.20
479.98	4187.22
480.16	4241.05
480.34	4313.61
480.52	4283.18
480.70	4266.80
480.88	4248.07
481.06	4540.64
481.24	4451.70
481.41	4629.58
481.59	4718.52
481.77	4568.73
481.95	4484.47
482.13	4585.11
482.31	4505.53
482.49	4645.96
482.67	4732.56
482.85	4531.28
483.03	4657.67
483.21	4753.63
483.39	4568.73
483.57	4461.06
483.74	4395.53
483.92	4730.22
484.10	4514.89
484.28	4861.29
484.46	4800.44
484.64	4865.97
484.82	4571.07
485.00	4631.92
485.18	4606.17
485.35	4358.08
485.53	4084.23
485.71	3688.68
485.89	3672.30
486.07	3805.71
486.25	4173.18
486.43	4432.97
486.61	4440.00
486.78	4479.79
486.96	4620.22
487.14	4697.46
487.32	4821.50
487.50	5034.49
487.68	5289.61
487.85	5109.39
488.03	5200.67
488.21	5139.82
488.39	5191.31
488.57	4901.08
488.75	4854.27
488.92	5025.13
489.10	5256.84
489.28	5490.90
489.46	5640.69
489.64	5692.18
489.81	5713.25
489.99	5682.82
490.17	5757.72
490.35	5818.57
490.53	5710.91
490.70	5434.72
490.88	5411.32
491.06	5514.30
491.24	5652.39
491.41	5359.83
491.59	5268.55
491.77	5062.58
491.95	5488.56
492.13	5514.30
492.30	5668.78
492.48	5872.40
492.66	6033.90
492.84	5970.71
493.01	5837.30
493.19	5823.25
493.37	5617.29
493.54	5792.83
493.72	5799.85
493.90	6017.52
494.08	5970.71
494.25	6340.51
494.43	6307.74
494.61	6146.25
494.79	6209.44
494.96	6415.41
495.14	6167.31
495.32	6012.84
495.49	5797.51
495.67	6104.12
495.85	6457.54
496.02	6443.49
496.20	6401.37
496.38	6415.41
496.55	6195.40
496.73	6298.38
496.91	6431.79
497.09	6555.84
497.26	6623.72
497.44	6450.52
497.62	6190.72
497.79	6193.06
497.97	5940.28
498.14	6040.92
498.32	6300.72
498.50	6324.13
498.67	6523.07
498.85	6394.34
499.03	6406.05
499.20	6459.88
499.38	6569.88
499.56	6363.92
499.73	6260.93
499.91	6148.59
500.08	6279.66
500.26	5989.43
500.44	6143.91
500.61	6310.08
500.79	6244.55
500.97	6312.42
501.14	6120.50
501.32	6153.27
501.49	6143.91
501.67	6087.73
501.84	6127.52
502.02	6377.96
502.20	6597.97
502.37	6413.07
502.55	6546.48
502.72	6537.12
502.90	6560.52
503.07	6682.23
503.25	6525.41
503.43	6223.48
503.60	6064.33
503.78	5921.56
503.95	5984.75
504.13	6553.50
504.30	6649.46
504.48	6574.56
504.65	6380.30
504.83	6579.25
505.01	6480.94
505.18	6815.64
505.36	7037.99
505.53	6876.49
505.71	7014.59
505.88	7098.84
506.06	6808.62
506.23	6740.74
506.41	6672.87
506.58	6370.94
506.76	6619.04
506.93	6635.42
507.11	6609.67
507.28	6565.20
507.46	6497.33
507.63	6349.87
507.81	6530.09
507.98	6373.28
508.16	6466.90
508.33	6782.87
508.50	6731.38
508.68	6787.55
508.85	6972.46
509.03	6942.03
509.20	6897.56
509.38	6593.29
509.55	6401.37
509.73	6560.52
509.90	6642.44
510.08	6586.27
510.25	6668.19
510.42	6602.65
510.60	6806.28
510.77	6558.18
510.95	6787.55
511.12	6897.56
511.30	6949.05
511.47	6920.96
511.64	7061.40
511.82	6857.77
511.99	6675.21
512.17	6565.20
512.34	6450.52
512.51	6509.03
512.69	6462.22
512.86	6612.01
513.04	6740.74
513.21	6717.34
513.38	6619.04
513.56	6485.62
513.73	6314.77
513.90	6324.13
514.08	6422.43
514.25	6548.82
514.43	6626.06
514.60	6612.01
514.77	6780.53
514.95	6530.09
515.12	6796.92
515.29	6665.85
515.47	6822.66
515.64	6803.94
515.81	6700.95
515.99	6490.31
516.16	6225.82
516.33	5717.93
516.51	5493.24
516.68	5369.19
516.85	5322.38
517.03	5444.09
517.20	5879.43
517.37	6218.80
517.54	6588.61
517.72	6574.56
517.89	5849.00
518.06	5383.23
518.24	5600.90
518.41	5998.79
518.58	6291.36
518.75	6305.40
518.93	6317.11
519.10	6246.89
519.27	6583.93
519.45	6466.90
519.62	6759.47
519.79	6801.60
519.96	6675.21
520.14	6380.30
520.31	6443.49
520.48	6436.47
520.65	6396.68
520.83	6719.68
521.00	6839.05
521.17	6722.02
521.34	6471.58
521.52	6565.20
521.69	6675.21
521.86	6780.53
522.03	6803.94
522.20	6445.84
522.38	6221.14
522.55	6242.21
522.72	6300.72
522.89	6473.92
523.07	6473.92
523.24	6600.31
523.41	6754.79
523.58	6869.47
523.75	6806.28
523.92	7009.90
524.10	6829.68
524.27	6885.86
524.44	6906.92
524.61	6719.68
524.78	6672.87
524.96	6696.27
525.13	6892.88
525.30	6747.76
525.47	7009.90
525.64	7049.69
525.81	6623.72
525.98	6186.04
526.16	5942.62
526.33	5839.64
526.50	5734.31
526.67	5605.58
526.84	5762.40
527.01	6218.80
527.18	6333.49
527.36	6399.02
527.53	6539.46
527.70	6604.99
527.87	6457.54
528.04	6277.32
528.21	6623.72
528.38	6707.98
528.55	6939.69
528.72	6970.12
528.89	7082.46
529.07	6789.89
529.24	6717.34
529.41	6558.18
529.58	6558.18
529.75	6476.26
529.92	6670.53
530.09	6649.46
530.26	6555.84
530.43	6993.52
530.60	6958.41
530.77	7026.29
530.94	6796.92
531.11	6794.58
531.28	6527.75
531.46	6640.10
531.63	6705.63
531.80	6604.99
531.97	6469.24
532.14	6537.12
532.31	6125.18
532.48	6017.52
532.65	6064.33
532.82	6160.29
532.99	6537.12
533.16	6504.35
533.33	6710.32
533.50	6654.14
533.67	6497.33
533.84	6511.37
534.01	6644.78
534.18	6420.09
534.35	6565.20
534.52	6499.67
534.69	6506.69
534.86	6768.83
535.03	6771.17
535.20	6782.87
535.37	6993.52
535.54	7070.76
535.71	6944.37
535.88	6726.70
536.05	6565.20
536.22	6640.10
536.38	6525.41
536.55	6349.87
536.72	6314.77
536.89	6155.61
537.06	6277.32
537.23	6663.51
537.40	6668.19
537.57	6581.59
537.74	6600.31
537.91	6583.93
538.08	6525.41
538.25	6375.62
538.42	6583.93
538.59	6562.86
538.75	6516.05
538.92	6218.80
539.09	6260.93
539.26	6183.70
539.43	6073.69
539.60	6202.42
539.77	6293.70
539.94	6164.97
540.11	6047.94
540.28	6010.50
540.44	6143.91
540.61	6038.58
540.78	5987.09
540.95	6176.67
541.12	6125.18
541.29	6375.62
541.46	6506.69
541.62	6298.38
541.79	6406.05
541.96	6197.74
542.13	6382.64
542.30	6473.92
542.47	6167.31
542.63	6321.79
542.80	6064.33
542.97	6167.31
543.14	6141.57
543.31	6197.74
543.48	6253.91
543.64	6600.31
543.81	6647.12
543.98	6480.94
544.15	6436.47
544.32	6179.01
544.48	6310.08
544.65	6312.42
544.82	6537.12
544.99	6333.49
545.16	6286.68
545.32	6312.42
545.49	6384.98
545.66	6544.14
545.83	6342.85
546.00	6237.53
546.16	6319.45
546.33	6249.23
546.50	6193.06
546.67	6399.02
546.83	6340.51
547.00	6157.95
547.17	6200.08
547.34	6092.41
547.50	5980.07
547.67	6132.20
547.84	6249.23
548.00	6174.33
548.17	6431.79
548.34	6253.91
548.51	6218.80
548.67	6263.27
548.84	6328.81
549.01	6246.89
549.18	6195.40
549.34	6181.35
549.51	6097.10
549.68	6258.59
549.84	6195.40
550.01	6066.67
550.18	6045.60
550.34	6026.88
550.51	6043.26
550.68	6097.10
550.84	5975.39
551.01	6069.01
551.18	6143.91
551.34	6071.35
551.51	6181.35
551.68	6033.90
551.84	6167.31
552.01	6225.82
552.18	6146.25
552.34	6057.31
552.51	5856.02
552.68	5933.26
552.84	6064.33
553.01	5900.49
553.18	5825.59
553.34	6176.67
553.51	6017.52
553.67	5989.43
553.84	6148.59
554.01	5963.68
554.17	6160.29
554.34	6036.24
554.51	5989.43
554.67	6263.27
554.84	6120.50
555.00	6150.93
555.17	6061.99
555.33	6015.18
555.50	5895.81
555.67	6104.12
555.83	5991.77
556.00	5886.45
556.16	5813.89
556.33	5666.44
556.50	5598.56
556.66	5830.27
556.83	5603.24
556.99	5851.34
557.16	5813.89
557.32	5783.46
557.49	6057.31
557.65	5888.79
557.82	5806.87
557.98	5753.04
558.15	5804.53
558.32	5582.18
558.48	5516.64
558.65	5490.90
558.81	5549.41
558.98	5657.07
559.14	5678.14
559.31	5570.48
559.47	5657.07
559.64	5537.71
559.80	5476.85
559.97	5603.24
560.13	5535.37
560.30	5757.72
560.46	5996.45
560.63	5802.19
560.79	5778.78
560.96	5654.73
561.12	5666.44
561.29	5432.38
561.45	5518.98
561.61	5397.28
561.78	5446.43
561.94	5575.16
562.11	5469.83
562.27	5612.60
562.44	5671.12
562.60	5514.30
562.77	5790.49
562.93	5596.22
563.10	5628.99
563.26	5659.42
563.42	5511.96
563.59	5462.81
563.75	5453.45
563.92	5533.03
564.08	5624.31
564.24	5551.75
564.41	5619.63
564.57	5528.35
564.74	5647.71
564.90	5490.90
565.07	5476.85
565.23	5270.89
565.39	5551.75
565.56	5242.80
565.72	5181.95
565.88	5336.42
566.05	5329.40
566.21	5205.35
566.38	5348.12
566.54	5399.62
566.70	5427.70
566.87	5547.07
567.03	5448.77
567.19	5654.73
567.36	5439.40
567.52	5523.66
567.68	5226.42
567.85	5228.76
568.01	5228.76
568.17	5100.03
568.34	5081.30
568.50	5170.24
568.66	5135.14
568.83	5233.44
568.99	5172.58
569.15	5144.50
569.32	5170.24
569.48	5057.90
569.64	5191.31
569.81	5062.58
569.97	5128.11
570.13	5235.78
570.30	4947.89
570.46	4945.55
570.62	4905.76
570.78	4753.63
570.95	4983.00
571.11	5116.41
571.27	5015.77
571.43	4990.02
571.60	5125.77
571.76	5158.54
571.92	5137.48
572.09	5160.88
572.25	5284.93
572.41	5074.28
572.57	5259.18
572.74	5233.44
572.90	5118.75
573.06	5137.48
573.22	5207.69
573.38	5050.88
573.55	5034.49
573.71	5165.56
573.87	5130.45
574.03	5114.07
574.20	5132.79
574.36	4961.94
574.52	4821.50
574.68	4994.70
574.84	4987.68
575.01	4936.19
575.17	4805.12
575.33	4835.55
575.49	4966.62
575.65	4854.27
575.82	4807.46
575.98	4924.49
576.14	4669.37
576.30	4978.32
576.46	4894.06
576.62	4975.98
576.79	4870.65
576.95	4816.82
577.11	4807.46
577.27	4732.56
577.43	4943.21
577.59	4849.59
577.75	4816.82
577.92	4657.67
578.08	4580.43
578.24	4594.47
578.40	4674.05
578.56	4777.03
578.72	4498.51
578.88	4720.86
579.04	4779.37
579.21	4753.63
579.37	4706.82
579.53	4812.14
579.69	4800.44
579.85	4734.90
580.01	4922.15
580.17	4849.59
580.33	4699.80
580.49	4692.77
580.65	4575.75
580.82	4957.25
580.98	4901.08
581.14	4765.33
581.30	4671.71
581.46	4788.74
581.62	4823.84
581.78	4802.78
581.94	4760.65
582.10	4805.12
582.26	4697.46
582.42	4777.03
582.58	5032.15
582.74	4676.39
582.90	4770.01
583.06	4770.01
583.22	4795.76
583.38	4809.80
583.54	4849.59
583.70	4734.90
583.86	4678.73
584.02	4690.43
584.18	4858.95
584.34	4777.03
584.50	4800.44
584.66	4702.14
584.82	4638.94
584.98	4547.66
585.14	4676.39
585.30	4463.40
585.46	4386.16
585.62	4486.81
585.78	4432.97
585.94	4645.96
586.10	4603.83
586.26	4671.71
586.42	4535.96
586.58	4578.09
586.74	4610.86
586.90	4540.64
587.06	4585.11
587.22	4519.57
587.38	4447.02
587.54	4573.41
587.70	4458.72
587.86	4287.86
588.02	4369.78
588.18	4243.39
588.34	4138.07
588.49	4009.34
588.65	3801.03
588.81	3557.61
588.97	3719.11
589.13	3894.65
589.29	3658.26
589.45	3967.21
589.61	4018.70
589.77	4039.76
589.93	4042.11
590.08	4248.07
590.24	4397.87
590.40	4273.82
590.56	4243.39
590.72	4177.86
590.88	4182.54
591.04	4138.07
591.20	4184.88
591.35	4119.34
591.51	4175.52
591.67	4215.30
591.83	4163.81
591.99	4117.00
592.15	4173.18
592.31	4124.02
592.46	4271.48
592.62	4271.48
592.78	4201.26
592.94	4311.27
593.10	4290.20
593.26	4393.19
593.41	4329.99
593.57	4124.02
593.73	4163.81
593.89	4100.62
594.05	3992.95
594.20	4070.19
594.36	3934.44
594.52	3901.67
594.68	4018.70
594.84	4074.87
594.99	3889.97
595.15	4032.74
595.31	4072.53
595.47	4131.05
595.62	4011.68
595.78	4135.73
595.94	4037.42
596.10	4245.73
596.25	4168.49
596.41	4102.96
596.57	4084.23
596.73	4142.75
596.88	4021.04
597.04	4042.11
597.20	3967.21
597.36	3939.12
597.51	4117.00
597.67	4145.09
597.83	4032.74
