SpectraSuite Data File
++++++++++++++++++++++++++++++++++++
Date: Mon Oct 07 14:55:03 GMT-05:00 2013
User: price-jones
Dark Spectrum Present: No
Reference Spectrum Present: No
Number of Sampled Component Spectra: 1
Spectrometers: USB2+H05261
Integration Time (usec): 10000 (USB2+H05261)
Spectra Averaged: 1 (USB2+H05261)
Boxcar Smoothing: 0 (USB2+H05261)
Correct for Electrical Dark: No (USB2+H05261)
Strobe/Lamp Enabled: No (USB2+H05261)
Correct for Detector Non-linearity: No (USB2+H05261)
Correct for Stray Light: No (USB2+H05261)
Number of Pixels in Processed Spectrum: 2048
>>>>>Begin Processed Spectral Data<<<<<
365.73	0.00
365.92	0.00
366.12	0.00
366.32	0.00
366.52	0.00
366.72	0.00
366.91	0.00
367.11	0.00
367.31	0.00
367.51	0.00
367.70	0.00
367.90	0.00
368.10	0.00
368.30	0.00
368.49	0.00
368.69	0.00
368.89	0.00
369.09	0.00
369.28	0.00
369.48	0.00
369.68	0.00
369.87	0.00
370.07	0.00
370.27	0.00
370.47	615.56
370.66	2794.60
370.86	3225.26
371.06	3370.37
371.25	3396.12
371.45	3094.19
371.65	2780.56
371.84	2717.36
372.04	2899.92
372.24	3234.62
372.44	3138.66
372.63	3201.85
372.83	2953.76
373.03	2518.42
373.22	2448.20
373.42	2661.19
373.62	3059.08
373.81	3241.64
374.01	3356.33
374.21	2855.45
374.40	2593.31
374.60	2850.77
374.79	3265.05
374.99	3768.26
375.19	3922.74
375.38	3999.98
375.58	3604.42
375.78	3684.00
375.97	3761.24
376.17	3777.62
376.37	3838.48
376.56	4121.68
376.76	4269.14
376.95	4542.98
377.15	4739.58
377.35	5053.22
377.54	5226.42
377.74	5214.71
377.93	5203.01
378.13	5057.90
378.33	4704.48
378.52	4568.73
378.72	4271.48
378.91	4334.67
379.11	4042.11
379.31	3992.95
379.50	3999.98
379.70	4484.47
379.89	4938.53
380.09	5102.37
380.28	5242.80
380.48	5465.15
380.68	5167.90
380.87	4973.64
381.07	4545.32
381.26	4337.01
381.46	3962.53
381.65	3864.22
381.85	3669.96
382.04	3574.00
382.24	3382.07
382.43	3321.22
382.63	3162.06
382.83	3159.72
383.02	3117.59
383.22	3000.57
383.41	3155.04
383.61	3613.79
383.80	4067.85
384.00	4519.57
384.19	5156.20
384.39	5198.33
384.58	5174.92
384.78	5015.77
384.97	5149.18
385.17	4585.11
385.36	4407.23
385.56	4409.57
385.75	4720.86
385.95	5130.45
386.14	5575.16
386.34	5575.16
386.53	5142.16
386.72	4917.47
386.92	5074.28
387.11	5252.16
387.31	5331.74
387.50	5338.76
387.70	5305.99
387.89	5055.56
388.09	5142.16
388.28	5114.07
388.48	5289.61
388.67	5703.89
388.86	6225.82
389.06	6888.20
389.25	7222.89
389.45	7166.72
389.64	7077.78
389.84	6953.73
390.03	6672.87
390.22	6890.54
390.42	7396.09
390.61	7609.08
390.81	8133.36
391.00	8423.59
391.19	8212.94
391.39	8004.63
391.58	7421.84
391.78	7040.33
391.97	6768.83
392.16	6384.98
392.36	5460.47
392.55	4341.69
392.75	3449.95
392.94	2862.48
393.13	3075.46
393.33	3693.37
393.52	4835.55
393.71	5799.85
393.91	6555.84
394.10	7108.21
394.29	7817.39
394.49	8341.67
394.68	9027.45
394.88	8830.84
395.07	9039.15
395.26	9179.58
395.46	8688.07
395.65	8004.63
395.84	6958.41
396.04	5731.97
396.23	4648.30
396.42	3896.99
396.62	3992.95
396.81	4940.87
397.00	6307.74
397.19	7859.52
397.39	9259.16
397.58	10258.57
397.77	10518.37
397.97	11108.18
398.16	11667.57
398.35	11709.70
398.55	11962.48
398.74	12596.76
398.93	12601.44
399.12	12470.37
399.32	12123.98
399.51	12453.99
399.70	13240.41
399.90	13170.19
400.09	13104.66
400.28	12989.97
400.47	13153.81
400.67	13720.22
400.86	14125.13
401.05	14211.73
401.24	14211.73
401.44	14293.65
401.63	14335.78
401.82	14508.98
402.01	14548.77
402.21	14808.57
402.40	14693.88
402.59	14174.28
402.78	13130.41
402.97	13507.23
403.17	14101.73
403.36	14761.76
403.55	15068.37
403.74	15363.28
403.93	14581.54
404.13	13647.66
404.32	13678.09
404.51	13970.66
404.70	14831.97
404.89	15047.30
405.09	14682.18
405.28	14490.26
405.47	14483.24
405.66	14516.00
405.85	13811.50
406.05	13577.45
406.24	14188.33
406.43	14483.24
406.62	14949.00
406.81	15323.49
407.00	14682.18
407.20	14333.44
407.39	14413.02
407.58	15124.54
407.77	15983.52
407.96	16231.62
408.15	16629.51
408.34	16468.01
408.54	17310.60
408.73	17394.86
408.92	16601.42
409.11	16018.63
409.30	15393.70
409.49	14244.50
409.68	13624.26
409.87	13444.04
410.07	14799.21
410.26	15662.86
410.45	16437.58
410.64	17008.67
410.83	17647.64
411.02	17954.25
411.21	18782.80
411.40	18370.86
411.59	18265.54
411.78	18441.08
411.98	18097.02
412.17	18071.28
412.36	17893.40
412.55	18017.44
412.74	17380.82
412.93	17149.11
413.12	17935.53
413.31	19253.25
413.50	19482.62
413.69	19440.49
413.88	18771.10
414.07	18633.00
414.26	18822.59
414.45	19557.52
414.64	18899.83
414.83	19356.23
415.02	18902.17
415.22	19000.47
415.41	19566.88
415.60	19985.83
415.79	20882.26
415.98	21050.78
416.17	21195.89
416.36	20765.23
416.55	20369.68
416.74	19534.11
416.93	19274.31
417.12	19562.20
417.31	19405.38
417.50	19756.46
417.69	20737.15
417.88	20479.69
418.07	20201.16
418.26	19992.86
418.45	20346.28
418.64	21233.34
418.83	21949.54
419.02	21392.50
419.21	20767.57
419.39	19711.99
419.58	19461.55
419.77	19571.56
419.96	20732.47
420.15	21830.18
420.34	22443.40
420.53	22691.49
420.72	23042.57
420.91	22955.97
421.10	22480.85
421.29	22387.22
421.48	21900.39
421.67	22963.00
421.86	21699.11
422.05	20077.12
422.24	18389.59
422.43	18953.66
422.61	21432.29
422.80	22354.46
422.99	21996.35
423.18	20900.98
423.37	21116.31
423.56	21628.89
423.75	22036.14
423.94	22284.24
424.13	20767.57
424.32	20709.06
424.50	20641.18
424.69	20783.96
424.88	21109.29
425.07	21090.57
425.26	21111.63
425.45	20343.94
425.64	20091.16
425.83	20379.04
426.01	21385.47
426.20	21731.87
426.39	21666.34
426.58	19702.63
426.77	18438.74
426.96	18616.62
427.15	19199.41
427.33	20861.19
427.52	21249.72
427.71	21656.98
427.90	21160.78
428.09	20805.02
428.28	20044.35
428.46	19133.88
428.65	19187.71
428.84	20510.11
429.03	20334.57
429.22	19105.79
429.40	17420.61
429.59	15955.43
429.78	14324.08
429.97	14672.82
430.16	14810.91
430.34	14642.39
430.53	15330.51
430.72	15922.66
430.91	17769.35
431.10	21076.52
431.28	23864.10
431.47	25294.17
431.66	24549.88
431.85	21996.35
432.03	21193.55
432.22	20526.50
432.41	22164.87
432.60	24086.45
432.79	24610.73
432.97	24975.86
433.16	23821.97
433.35	21432.29
433.54	19662.84
433.72	18661.09
433.91	20142.65
434.10	22726.60
434.28	23735.37
434.47	24891.60
434.66	23887.51
434.85	23318.76
435.03	23913.25
435.22	24432.85
435.41	25160.76
435.59	26089.95
435.78	26288.90
435.97	27281.28
436.16	26281.88
436.34	25993.99
436.53	25465.03
436.72	25748.23
436.90	24812.02
437.09	24594.35
437.28	24147.31
437.46	25315.23
437.65	24240.93
437.84	22291.26
438.02	21219.30
438.21	21448.67
438.40	22455.10
438.58	24254.97
438.77	25076.50
438.96	25516.52
439.14	26817.86
439.33	26946.59
439.52	27094.04
439.70	25888.67
439.89	25560.99
440.08	25472.05
440.26	25673.34
440.45	26794.45
440.63	29001.58
440.82	28755.82
441.01	28929.02
441.19	28947.75
441.38	29699.06
441.57	30539.31
441.75	30373.13
441.94	30866.98
442.12	30426.96
442.31	31599.57
442.50	31428.71
442.68	30410.58
442.87	30632.93
443.05	29816.08
443.24	30782.73
443.43	31367.86
443.61	31847.67
443.80	32362.59
443.98	31424.03
444.17	30808.47
444.35	31543.40
444.54	32622.39
444.73	31714.26
444.91	30752.30
445.10	29390.11
445.28	28617.73
445.47	28084.09
445.65	28549.85
445.84	29352.66
446.02	29703.74
446.21	30513.56
446.39	30752.30
446.58	30871.67
446.77	31894.48
446.95	32400.04
447.14	32793.25
447.32	33865.21
447.51	32758.14
447.69	31419.35
447.88	30878.69
448.06	31990.44
448.25	32210.45
448.43	32044.27
448.62	31505.95
448.80	31409.99
448.99	32137.90
449.17	32542.81
449.36	32800.27
449.54	34043.09
449.73	34061.82
449.91	34827.17
450.10	35391.24
450.28	35793.81
450.46	35695.51
450.65	35388.90
450.83	34759.30
451.02	35136.12
451.20	34464.39
451.39	34562.69
451.57	34178.84
451.76	34029.05
451.94	33450.94
452.13	32493.66
452.31	31007.42
452.49	29710.76
452.68	30855.28
452.86	31204.02
453.05	31388.92
453.23	32943.04
453.42	33244.97
453.60	34293.53
453.78	34036.07
453.97	33469.66
454.15	33687.33
454.34	32311.10
454.52	32542.81
454.70	32505.36
454.89	32570.90
455.07	32992.19
455.26	33855.85
455.44	34740.57
455.62	34754.61
455.81	34895.05
455.99	35028.46
456.17	34927.81
456.36	35311.66
456.54	36184.68
456.73	35842.96
456.91	36259.58
457.09	36374.27
457.28	37179.41
457.46	35838.28
457.64	35187.61
457.83	34103.95
458.01	34052.45
458.19	34953.56
458.38	35857.01
458.56	36683.22
458.74	36140.21
458.93	35285.92
459.11	34775.68
459.29	35035.48
459.48	35353.79
459.66	34452.69
459.84	35119.74
460.03	35857.01
460.21	36060.63
460.39	37137.28
460.57	36486.61
460.76	36648.11
460.94	37340.91
461.12	37095.15
461.31	36933.65
461.49	37383.04
461.67	37429.85
461.85	38569.69
462.04	38117.96
462.22	37890.93
462.40	37668.58
462.59	37317.50
462.77	37731.78
462.95	37493.04
463.13	37102.17
463.32	35894.46
463.50	36004.46
463.68	36662.15
463.86	36935.99
464.05	36261.92
464.23	35428.69
464.41	35852.33
464.59	34740.57
464.78	36737.05
464.96	35840.62
465.14	35674.45
465.32	37567.94
465.50	38284.14
465.69	39091.63
465.87	37551.56
466.05	36746.41
466.23	35314.00
466.41	34417.58
466.60	35583.16
466.78	35639.34
466.96	35637.00
467.14	36652.79
467.32	36793.22
467.51	36910.25
467.69	34857.60
467.87	36322.77
468.05	36718.32
468.23	36402.35
468.41	36840.03
468.60	36996.85
468.78	37858.17
468.96	36818.97
469.14	37729.44
469.32	37560.92
469.50	35487.20
469.69	36133.19
469.87	35625.29
470.05	34958.24
470.23	35639.34
470.41	36086.38
470.59	36364.90
470.77	36215.11
470.95	36755.77
471.14	37902.64
471.32	38026.68
471.50	40130.83
471.68	39847.62
471.86	40402.33
472.04	39889.75
472.22	39800.81
472.40	38352.02
472.58	38712.46
472.77	38539.26
472.95	39222.70
473.13	40275.94
473.31	38363.72
473.49	39152.48
473.67	39489.52
473.85	40346.15
474.03	41158.32
474.21	41893.25
474.39	42375.40
474.57	41048.32
474.75	41600.68
474.93	41280.03
475.12	39913.16
475.30	40657.45
475.48	40116.78
475.66	40589.57
475.84	40041.88
476.02	40671.49
476.20	39754.00
476.38	40678.51
476.56	41876.86
476.74	42485.40
476.92	42813.08
477.10	43152.46
477.28	43952.92
477.46	44790.83
477.64	44823.60
477.82	44528.69
478.00	44865.73
478.18	44376.56
478.36	43873.34
478.54	43962.28
478.72	44788.49
478.90	46342.61
479.08	47063.49
479.26	46480.70
479.44	47473.09
479.62	47089.24
479.80	47260.10
479.98	47463.72
480.16	47529.26
480.34	46749.86
480.52	48254.82
480.70	47468.40
480.88	47484.79
481.06	47859.27
481.24	48912.52
481.41	49851.07
481.59	49780.85
481.77	48996.77
481.95	48828.26
482.13	48945.28
482.31	49514.03
482.49	50248.96
482.67	49687.23
482.85	49687.23
483.03	50080.44
483.21	50927.72
483.39	50382.37
483.57	50387.05
483.74	50033.63
483.92	49949.37
484.10	49965.76
484.28	50724.09
484.46	51234.33
484.64	52027.77
484.82	51192.20
485.00	50674.94
485.18	49977.46
485.35	47929.49
485.53	43028.41
485.71	40130.83
485.89	41338.54
486.07	44758.06
486.25	46674.96
486.43	49305.73
486.61	49694.25
486.78	49113.80
486.96	50045.33
487.14	51374.76
487.32	51875.63
487.50	52914.83
487.68	53996.16
487.85	54145.95
488.03	53977.43
488.21	52765.04
488.39	52720.57
488.57	51667.33
488.75	51770.31
488.92	53179.31
489.10	54906.63
489.28	55650.92
489.46	56566.07
489.64	56371.80
489.81	56657.35
489.99	56184.56
490.17	56240.73
490.35	56879.70
490.53	56273.50
490.70	56371.80
490.88	56062.85
491.06	57036.51
491.24	57275.25
491.41	55894.33
491.59	54883.22
491.77	54464.27
491.95	55428.57
492.13	56956.94
492.30	57106.73
492.48	58017.20
492.66	58033.58
492.84	57598.24
493.01	57394.62
493.19	57134.82
493.37	56891.40
493.54	57207.37
493.72	58354.24
493.90	58798.94
494.08	58979.16
494.25	59365.35
494.43	59742.17
494.61	60097.94
494.79	59585.36
494.96	60013.68
495.14	59533.87
495.32	58181.04
495.49	58286.36
495.67	59482.37
495.85	60219.64
496.02	60877.33
496.20	59938.78
496.38	59580.68
496.55	59707.07
496.73	60374.12
496.91	60725.20
497.09	60935.85
497.26	61462.47
497.44	60470.08
497.62	59870.90
497.79	59147.68
497.97	58604.67
498.14	59018.95
498.32	60009.00
498.50	60364.76
498.67	60168.15
498.85	60083.89
499.03	60533.28
499.20	60718.18
499.38	60369.44
499.56	59861.54
499.73	59728.13
499.91	59805.37
500.08	58988.52
500.26	58745.11
500.44	59468.33
500.61	60104.96
500.79	59732.81
500.97	59688.34
501.14	58899.58
501.32	58274.66
501.49	58691.27
501.67	59674.30
501.84	59391.09
502.02	60001.97
502.20	60596.47
502.37	60350.71
502.55	60729.88
502.72	61623.96
502.90	61937.60
503.07	61387.57
503.25	60566.04
503.43	59655.57
503.60	59346.62
503.78	59461.31
503.95	59945.80
504.13	61116.07
504.30	61446.08
504.48	60725.20
504.65	60790.73
504.83	61001.38
505.01	61773.76
505.18	61872.06
505.36	62391.66
505.53	62171.65
505.71	61984.41
505.88	62560.18
506.06	62274.63
506.23	61687.16
506.41	61422.68
506.58	61684.82
506.76	61511.62
506.93	60917.12
507.11	61127.77
507.28	61418.00
507.46	60577.75
507.63	60870.31
507.81	60610.51
507.98	60659.66
508.16	61619.28
508.33	61633.33
508.50	61808.87
508.68	62429.11
508.85	62611.67
509.03	62953.39
509.20	62410.38
509.38	61584.18
509.55	61867.38
509.73	61872.06
509.90	61801.85
510.08	61939.94
510.25	61630.99
510.42	61343.10
510.60	61673.12
510.77	62246.55
510.95	62342.51
511.12	62885.51
511.30	63386.39
511.47	63543.20
511.64	63037.65
511.82	63353.62
511.99	62082.71
512.17	62101.43
512.34	61488.21
512.51	62192.72
512.69	62363.57
512.86	61497.58
513.04	61996.11
513.21	61528.00
513.38	61160.54
513.56	60516.89
513.73	60355.39
513.90	61492.89
514.08	61200.33
514.25	61249.48
514.43	61652.05
514.60	61595.88
514.77	62073.35
514.95	62330.81
515.12	61935.26
515.29	62300.38
515.47	62653.80
515.64	62883.17
515.81	62578.90
515.99	61464.81
516.16	59859.20
516.33	57729.31
516.51	57645.05
516.68	56488.83
516.85	55489.42
517.03	57219.08
517.20	59627.49
517.37	61258.84
517.54	61953.98
517.72	60933.51
517.89	58159.97
518.06	56650.33
518.24	57928.26
518.41	59849.84
518.58	61087.98
518.75	61153.52
518.93	60767.33
519.10	60657.32
519.27	61530.34
519.45	61939.94
519.62	62604.65
519.79	62719.34
519.96	61946.96
520.14	61921.21
520.31	60889.04
520.48	60903.08
520.65	61755.03
520.83	62768.49
521.00	62241.87
521.17	61766.74
521.34	62059.30
521.52	62391.66
521.69	62871.47
521.86	63159.36
522.03	62515.71
522.20	61240.12
522.38	60781.37
522.55	61216.71
522.72	61434.38
522.89	61062.24
523.07	62026.54
523.24	62494.64
523.41	63061.05
523.58	63288.09
523.75	63161.70
523.92	63355.96
524.10	63196.80
524.27	62709.97
524.44	62733.38
524.61	61783.12
524.78	62541.45
524.96	62375.28
525.13	62644.44
525.30	63082.12
525.47	63526.82
525.64	63355.96
525.81	62340.17
525.98	61071.60
526.16	59732.81
526.33	59669.62
526.50	59114.91
526.67	59278.75
526.84	59969.21
527.01	60893.72
527.18	61092.66
527.36	61593.54
527.53	62635.08
527.70	62099.09
527.87	61041.17
528.04	61874.40
528.21	62307.40
528.38	62876.15
528.55	63781.94
528.72	63449.58
528.89	63257.66
529.07	63250.64
529.24	62164.63
529.41	62031.22
529.58	61944.62
529.75	62859.77
529.92	62929.98
530.09	63264.68
530.26	63508.10
530.43	64065.14
530.60	63318.51
530.77	63852.15
530.94	63955.14
531.11	63014.24
531.28	62873.81
531.46	62845.72
531.63	63133.61
531.80	62691.25
531.97	62698.27
532.14	62475.92
532.31	60732.22
532.48	60081.55
532.65	60821.16
532.82	61172.24
532.99	63089.14
533.16	62986.16
533.33	62883.17
533.50	62885.51
533.67	62553.16
533.84	62286.34
534.01	62677.21
534.18	62424.43
534.35	62059.30
534.52	61628.65
534.69	62695.93
534.86	62824.66
535.03	63103.18
535.20	63206.17
535.37	63922.37
535.54	63934.07
535.71	63337.24
535.88	63496.39
536.05	62471.24
536.22	61851.00
536.38	61677.80
536.55	61581.84
536.72	61216.71
536.89	61827.59
537.06	61623.96
537.23	62206.76
537.40	61815.89
537.57	61675.46
537.74	62199.74
537.91	62541.45
538.08	62473.58
538.25	62688.91
538.42	63377.03
538.59	62803.59
538.75	61944.62
538.92	61413.32
539.09	61813.55
539.26	61609.92
539.43	61628.65
539.60	60879.67
539.77	61961.00
539.94	61375.87
540.11	60903.08
540.28	60313.26
540.44	60430.29
540.61	60544.98
540.78	60935.85
540.95	61235.44
541.12	61488.21
541.29	61689.50
541.46	61956.32
541.62	62419.75
541.79	61659.07
541.96	61078.62
542.13	61549.07
542.30	61579.49
542.47	61567.79
542.63	61839.29
542.80	61553.75
542.97	61048.19
543.14	61366.51
543.31	61602.90
543.48	62358.89
543.64	62504.01
543.81	63030.63
543.98	62925.30
544.15	61829.93
544.32	61972.70
544.48	61696.52
544.65	61659.07
544.82	62206.76
544.99	61197.99
545.16	61123.09
545.32	61315.01
545.49	62017.17
545.66	62021.86
545.83	61890.79
546.00	62138.88
546.16	61687.16
546.33	61345.44
546.50	61165.22
546.67	62188.03
546.83	61874.40
547.00	61822.91
547.17	60608.17
547.34	59985.59
547.50	60081.55
547.67	60886.70
547.84	61497.58
548.00	61909.51
548.17	61570.13
548.34	62049.94
548.51	61890.79
548.67	61495.24
548.84	61504.60
549.01	61860.36
549.18	61523.32
549.34	61656.73
549.51	62159.95
549.68	62300.38
549.84	61467.15
550.01	60486.46
550.18	60786.05
550.34	60926.49
550.51	61183.94
550.68	61516.30
550.84	61701.20
551.01	60823.50
551.18	60678.39
551.34	60755.63
551.51	61801.85
551.68	61876.74
551.84	62630.40
552.01	61588.86
552.18	61200.33
552.34	60397.52
552.51	60175.17
552.68	60086.23
552.84	60598.81
553.01	60486.46
553.18	60605.83
553.34	60879.67
553.51	61352.46
553.67	61162.88
553.84	61483.53
554.01	61705.88
554.17	61027.13
554.34	61277.57
554.51	61162.88
554.67	60713.50
554.84	60835.20
555.00	60172.83
555.17	60285.18
555.33	60306.24
555.50	60177.51
555.67	60718.18
555.83	60846.91
556.00	60364.76
556.16	60126.02
556.33	60034.74
556.50	60350.71
556.66	59990.27
556.83	59510.46
556.99	59681.32
557.16	60315.61
557.32	59866.22
557.49	60308.58
557.65	60163.47
557.82	60523.91
557.98	60505.19
558.15	59774.94
558.32	59360.67
558.48	58635.10
558.65	58506.37
558.81	58688.93
558.98	59756.22
559.14	59571.32
559.31	59325.56
559.47	59309.18
559.64	59395.77
559.80	58534.46
559.97	59285.77
560.13	59898.99
560.30	60966.27
560.46	61162.88
560.63	61345.44
560.79	61226.07
560.96	60268.79
561.12	59468.33
561.29	59327.90
561.45	59128.95
561.61	59903.67
561.78	59253.00
561.94	59456.63
562.11	59437.90
562.27	58824.68
562.44	59927.08
562.60	60268.79
562.77	60271.14
562.93	59627.49
563.10	59639.19
563.26	59948.14
563.42	59997.29
563.59	59791.33
563.75	59454.29
563.92	58824.68
564.08	59133.63
564.24	59870.90
564.41	59199.17
564.57	60310.92
564.74	59835.80
564.90	59157.04
565.07	58913.62
565.23	57946.98
565.39	57836.98
565.56	58000.82
565.72	58529.78
565.88	57937.62
566.05	59428.54
566.21	59077.46
566.38	58901.92
566.54	59568.97
566.70	59980.91
566.87	59400.46
567.03	59550.25
567.19	60097.94
567.36	60198.58
567.52	59187.47
567.68	58731.06
567.85	58071.03
568.01	58473.60
568.17	58377.64
568.34	58422.11
568.50	57799.53
568.66	57640.37
568.83	57553.77
568.99	57460.15
569.15	57939.96
569.32	57656.76
569.48	57822.93
569.64	57766.76
569.81	57705.91
569.97	57677.82
570.13	56816.50
570.30	56205.62
570.46	56034.77
570.62	55774.97
570.78	56023.06
570.95	56736.93
571.11	57036.51
571.27	56491.17
571.43	57097.37
571.60	56989.70
571.76	57893.15
571.92	58197.42
572.09	58307.43
572.25	57759.74
572.41	57776.12
572.57	57773.78
572.74	58120.18
572.90	58960.44
573.06	58838.73
573.22	58721.70
573.38	58489.99
573.55	59290.45
573.71	58281.68
573.87	57829.96
574.03	57829.96
574.20	57511.64
574.36	57214.40
574.52	56678.41
574.68	56931.19
574.84	56563.73
575.01	56500.53
575.17	55819.44
575.33	56704.16
575.49	56657.35
575.65	55847.52
575.82	56051.15
575.98	56535.64
576.14	57258.87
576.30	58031.24
576.46	56793.10
576.62	56786.08
576.79	56985.02
576.95	56935.87
577.11	57396.96
577.27	56835.23
577.43	57265.89
577.59	56479.47
577.75	56308.61
577.92	56048.81
578.08	55985.61
578.24	56072.21
578.40	56259.46
578.56	55344.31
578.72	56107.32
578.88	55662.62
579.04	56142.43
579.21	55964.55
579.37	55852.20
579.53	56533.30
579.69	55924.76
579.85	55374.73
580.01	55449.63
580.17	55332.60
580.33	56177.54
580.49	56636.28
580.65	55707.09
580.82	56151.79
580.98	56430.32
581.14	56135.41
581.30	55718.79
581.46	55407.50
581.62	55828.80
581.78	56402.23
581.94	56687.78
582.10	56512.23
582.26	56706.50
582.42	56690.12
582.58	56210.31
582.74	56151.79
582.90	56179.88
583.06	56743.95
583.22	56254.78
583.38	56287.54
583.54	56575.43
583.70	56640.96
583.86	56690.12
584.02	55543.25
584.18	55629.85
584.34	55629.85
584.50	55159.41
584.66	55278.77
584.82	55274.09
584.98	55732.84
585.14	54759.17
585.30	54976.84
