SpectraSuite Data File
++++++++++++++++++++++++++++++++++++
Date: Mon Oct 07 14:53:00 GMT-05:00 2013
User: price-jones
Dark Spectrum Present: No
Reference Spectrum Present: No
Number of Sampled Component Spectra: 1
Spectrometers: USB2+H05261
Integration Time (usec): 100000 (USB2+H05261)
Spectra Averaged: 1 (USB2+H05261)
Boxcar Smoothing: 0 (USB2+H05261)
Correct for Electrical Dark: No (USB2+H05261)
Strobe/Lamp Enabled: No (USB2+H05261)
Correct for Detector Non-linearity: No (USB2+H05261)
Correct for Stray Light: No (USB2+H05261)
Number of Pixels in Processed Spectrum: 2048
>>>>>Begin Processed Spectral Data<<<<<
365.73	0.00
365.92	0.00
366.12	0.00
366.32	0.00
366.52	0.00
366.72	0.00
366.91	0.00
367.11	0.00
367.31	0.00
367.51	0.00
367.70	0.00
367.90	0.00
368.10	0.00
368.30	0.00
368.49	0.00
368.69	0.00
368.89	0.00
369.09	0.00
369.28	0.00
369.48	0.00
369.68	0.00
369.87	0.00
370.07	0.00
370.27	0.00
370.47	573.43
370.66	3033.33
370.86	3478.04
371.06	3859.54
371.25	3822.09
371.45	3480.38
371.65	3077.80
371.84	2979.50
372.04	3089.51
372.24	3517.83
372.44	3562.30
372.63	3536.55
372.83	3363.35
373.03	2846.09
373.22	2640.12
373.42	2895.24
373.62	3293.13
373.81	3651.24
374.01	3489.74
374.21	3171.43
374.40	2848.43
374.60	3192.49
374.79	3517.83
374.99	4119.34
375.19	4437.66
375.38	4430.63
375.58	4060.83
375.78	4081.89
375.97	4166.15
376.17	4383.82
376.37	4198.92
376.56	4243.39
376.76	4599.15
376.95	4978.32
377.15	5305.99
377.35	5455.79
377.54	5612.60
377.74	5914.53
377.93	5905.17
378.13	5516.64
378.33	5500.26
378.52	5041.51
378.72	4837.89
378.91	4770.01
379.11	4582.77
379.31	4559.36
379.50	4397.87
379.70	4718.52
379.89	5408.98
380.09	5526.00
380.28	5832.62
380.48	5795.17
380.68	5542.39
380.87	5474.51
381.07	5125.77
381.26	4755.97
381.46	4285.52
381.65	4173.18
381.85	4212.96
382.04	3950.82
382.24	3749.54
382.43	3452.29
382.63	3459.31
382.83	3454.63
383.02	3524.85
383.22	3454.63
383.41	3438.25
383.61	3634.85
383.80	4351.06
384.00	4739.58
384.19	5612.60
384.39	5659.42
384.58	5710.91
384.78	5792.83
384.97	5537.71
385.17	5231.10
385.36	4961.94
385.56	4826.18
385.75	4870.65
385.95	5472.17
386.14	5994.11
386.34	5942.62
386.53	5666.44
386.72	5334.08
386.92	5399.62
387.11	5537.71
387.31	6001.13
387.50	5734.31
387.70	5607.92
387.89	5495.58
388.09	5638.35
388.28	5528.35
388.48	5619.63
388.67	6183.70
388.86	6949.05
389.06	7218.21
389.25	7616.10
389.45	7840.79
389.64	7669.94
389.84	7487.37
390.03	7407.80
390.22	7454.61
390.42	7634.83
390.61	8250.39
390.81	8723.18
391.00	8961.91
391.19	8772.33
391.39	8636.58
391.58	8107.62
391.78	7482.69
391.97	7178.42
392.16	6733.72
392.36	6193.06
392.55	5029.81
392.75	3918.06
392.94	3133.98
393.13	3187.81
393.33	3665.28
393.52	5008.75
393.71	5877.09
393.91	6630.74
394.10	7375.03
394.29	8184.85
394.49	8699.77
394.68	9380.87
394.88	9397.25
395.07	9703.86
395.26	9563.43
395.46	9359.80
395.65	8816.80
395.84	7559.93
396.04	6429.45
396.23	5121.09
396.42	4273.82
396.62	4196.58
396.81	4950.23
397.00	6380.30
397.19	7955.48
397.39	9327.03
397.58	10782.85
397.77	11169.04
397.97	11698.00
398.16	11751.83
398.35	12173.13
398.55	12477.40
398.74	13074.23
398.93	13465.10
399.12	13116.36
399.32	12547.61
399.51	12812.09
399.70	13827.88
399.90	13591.49
400.09	13631.28
400.28	13270.84
400.47	13582.13
400.67	14361.53
400.86	14750.06
401.05	14698.56
401.24	14714.95
401.44	15061.35
401.63	14960.70
401.82	15131.56
402.01	14635.37
402.21	15154.97
402.40	15398.38
402.59	14986.45
402.78	14401.32
402.97	13900.44
403.17	14532.39
403.36	15124.54
403.55	15800.96
403.74	16067.78
403.93	15358.60
404.13	14253.86
404.32	13867.67
404.51	14448.13
404.70	15609.03
404.89	15517.75
405.09	15250.93
405.28	14979.43
405.47	15087.09
405.66	14846.02
405.85	14256.20
406.05	14253.86
406.24	14417.70
406.43	14916.23
406.62	15321.15
406.81	15604.35
407.00	14773.46
407.20	14607.28
407.39	14874.10
407.58	15531.80
407.77	15917.98
407.96	16526.52
408.15	16884.62
408.34	16830.79
408.54	17624.23
408.73	17502.53
408.92	17263.79
409.11	16886.97
409.30	16123.95
409.49	15040.28
409.68	14057.26
409.87	13650.00
410.07	14429.40
410.26	16081.82
410.45	16655.25
410.64	16840.15
410.83	17757.64
411.02	18293.63
411.21	18766.42
411.40	18424.70
411.59	18630.66
411.78	18836.63
411.98	18349.80
412.17	18661.09
412.36	18366.18
412.55	18441.08
412.74	18162.56
412.93	17118.68
413.12	17624.23
413.31	19393.68
413.50	19658.16
413.69	19782.21
413.88	19096.43
414.07	18640.03
414.26	18965.36
414.45	19365.59
414.64	19700.29
414.83	19836.04
415.02	19405.38
415.22	19386.66
415.41	19482.62
415.60	20243.29
415.79	21270.79
415.98	21455.69
416.17	21451.01
416.36	21128.02
416.55	20680.97
416.74	20395.43
416.93	19353.89
417.12	19367.93
417.31	19915.62
417.50	20072.43
417.69	20706.72
417.88	20311.17
418.07	20601.40
418.26	20098.18
418.45	20484.37
418.64	21128.02
418.83	21797.41
419.02	21743.58
419.21	21530.59
419.39	20276.06
419.58	19541.13
419.77	19300.06
419.96	20475.01
420.15	21586.76
420.34	21979.97
420.53	22988.74
420.72	23281.31
420.91	22670.43
421.10	22876.40
421.29	22817.88
421.48	21717.83
421.67	23077.68
421.86	22352.12
422.05	20814.38
422.24	18658.75
422.43	18527.68
422.61	20533.52
422.80	22422.33
422.99	22230.41
423.18	21401.86
423.37	21123.33
423.56	21046.10
423.75	21144.40
423.94	21874.65
424.13	20741.83
424.32	20603.74
424.50	20636.50
424.69	20627.14
424.88	20786.30
425.07	20673.95
425.26	20718.42
425.45	20554.58
425.64	19927.32
425.83	20229.25
426.01	21312.92
426.20	21748.26
426.39	21619.53
426.58	19936.68
426.77	18757.05
426.96	17649.98
427.15	18415.34
427.33	20332.23
427.52	20837.79
427.71	20835.45
427.90	20725.44
428.09	20685.65
428.28	19990.52
428.46	19410.06
428.65	18920.89
428.84	19548.15
429.03	20023.28
429.22	18651.73
429.40	17804.46
429.59	16187.14
429.78	14033.85
429.97	14668.14
430.16	14429.40
430.34	14977.09
430.53	14508.98
430.72	15030.92
430.91	16624.83
431.10	19777.53
431.28	22862.35
431.47	24959.47
431.66	25053.09
431.85	22569.79
432.03	20992.26
432.22	20273.72
432.41	21085.89
432.60	22888.10
432.79	24039.64
432.97	24334.55
433.16	24027.94
433.35	21942.52
433.54	19590.28
433.72	18796.84
433.91	19459.21
434.10	21673.36
434.28	22923.21
434.47	24102.84
434.66	24081.77
434.85	23428.76
435.03	23133.86
435.22	23487.28
435.41	25034.37
435.59	25184.16
435.78	25425.24
435.97	26548.70
436.16	26122.72
436.34	25900.37
436.53	25621.84
436.72	25170.12
436.90	23915.59
437.09	23819.63
437.28	23646.43
437.46	24416.47
437.65	24315.83
437.84	22838.95
438.02	20943.11
438.21	20893.96
438.40	22101.68
438.58	24072.41
438.77	24236.25
438.96	24503.07
439.14	25661.63
439.33	26096.97
439.52	26607.21
439.70	26113.36
439.89	25212.25
440.08	24732.44
440.26	24821.38
440.45	26335.71
440.63	27693.22
440.82	28828.38
441.01	28156.64
441.19	28268.99
441.38	28175.37
441.57	29699.06
441.75	29944.81
441.94	29937.79
442.12	29748.21
442.31	30277.17
442.50	30522.93
442.68	30174.19
442.87	29577.35
443.05	29015.62
443.24	29535.22
443.43	30506.54
443.61	30656.34
443.80	31030.82
443.98	29418.19
444.17	29612.46
444.35	31171.25
444.54	31779.79
444.73	31000.40
444.91	29958.86
445.10	28568.58
445.28	27627.68
445.47	27309.37
445.65	27606.62
445.84	28524.11
446.02	29120.95
446.21	29598.41
446.39	29942.47
446.58	29792.68
446.77	30773.36
446.95	31161.89
447.14	31725.96
447.32	32395.35
447.51	31531.70
447.69	30459.73
447.88	29975.24
448.06	30497.18
448.25	31452.12
448.43	31297.64
448.62	30698.47
448.80	30635.27
448.99	30457.39
449.17	31026.14
449.36	30993.37
449.54	31908.52
449.73	32774.52
449.91	33277.74
450.10	34284.17
450.28	34553.33
450.46	34279.49
450.65	34017.35
450.83	33848.83
451.02	33230.93
451.20	33097.52
451.39	33242.63
451.57	32964.10
451.76	32802.61
451.94	32250.24
452.13	32165.98
452.31	30651.66
452.49	29252.02
452.68	29528.20
452.86	29474.37
453.05	30115.67
453.23	31054.23
453.42	32032.57
453.60	32346.20
453.78	32577.92
453.97	32697.28
454.15	32451.53
454.34	31321.05
454.52	32313.44
454.70	31498.93
454.89	31962.36
455.07	32130.87
455.26	31819.58
455.44	33603.07
455.62	34176.50
455.81	34403.53
455.99	33905.00
456.17	33584.35
456.36	33486.04
456.54	34665.67
456.73	34501.84
456.91	35072.93
457.09	35047.18
457.28	35899.14
457.46	34288.85
457.64	34632.91
457.83	33387.74
458.01	32807.29
458.19	33406.47
458.38	33886.28
458.56	34810.79
458.74	35068.25
458.93	34249.06
459.11	33827.76
459.29	33310.50
459.48	33830.10
459.66	33738.82
459.84	34181.18
460.03	34700.78
460.21	34700.78
460.39	35332.73
460.57	35391.24
460.76	35835.94
460.94	36182.34
461.12	35381.88
461.31	35438.05
461.49	35302.30
461.67	35594.87
461.85	36704.28
462.04	35943.61
462.22	36893.86
462.40	36217.45
462.59	36444.48
462.77	36348.52
462.95	36510.02
463.13	35875.73
463.32	35360.81
463.50	35239.11
463.68	35536.35
463.86	35344.43
464.05	34675.04
464.23	34134.37
464.41	34096.92
464.59	33476.68
464.78	35346.77
464.96	35005.05
465.14	34864.62
465.32	35892.12
465.50	36919.61
465.69	37027.28
465.87	35999.78
466.05	35180.59
466.23	33912.02
466.41	33268.37
466.60	33624.14
466.78	34082.88
466.96	34459.71
467.14	35321.02
467.32	35115.06
467.51	35821.90
467.69	33947.13
467.87	34417.58
468.05	35131.44
468.23	35189.95
468.41	35189.95
468.60	35349.11
468.78	35735.30
468.96	35075.27
469.14	36062.97
469.32	36196.38
469.50	34150.76
469.69	34939.52
469.87	33912.02
470.05	33982.24
470.23	34162.46
470.41	34054.79
470.59	34974.63
470.77	34960.58
470.95	35772.75
471.14	36112.13
471.32	36074.68
471.50	38298.19
471.68	38806.08
471.86	38567.35
472.04	38916.09
472.22	38560.33
472.40	36732.37
472.58	36657.47
472.77	36266.60
472.95	37125.58
473.13	37888.59
473.31	37074.09
473.49	36734.71
473.67	38045.41
473.85	38352.02
474.03	38794.38
474.21	39419.30
474.39	39442.71
474.57	39445.05
474.75	39555.05
474.93	39543.35
475.12	38410.53
475.30	38953.54
475.48	38789.70
475.66	39063.54
475.84	39072.90
476.02	38873.96
476.20	38223.29
476.38	38660.97
476.56	39782.09
476.74	40292.32
476.92	40353.18
477.10	41357.27
477.28	41694.30
477.46	42342.63
477.64	42550.94
477.82	42892.66
478.00	42733.50
478.18	42499.45
478.36	41820.69
478.54	41956.44
478.72	43023.73
478.90	43758.66
479.08	44664.44
479.26	45380.65
479.44	44568.48
479.62	44533.37
479.80	44889.13
479.98	44949.99
480.16	45017.86
480.34	44509.97
480.52	44903.18
480.70	45233.19
480.88	45329.16
481.06	46440.91
481.24	46852.84
481.41	47480.11
481.59	48076.94
481.77	47487.13
481.95	47114.98
482.13	46782.63
482.31	47161.79
482.49	47255.42
482.67	47564.37
482.85	47620.54
483.03	48116.73
483.21	48697.19
483.39	48715.91
483.57	48041.84
483.74	47681.39
483.92	47838.21
484.10	48144.82
484.28	49059.97
484.46	49450.84
484.64	49844.05
484.82	48713.57
485.00	48308.66
485.18	47854.59
485.35	46520.49
485.53	43126.71
485.71	39576.12
485.89	39459.09
486.07	41413.44
486.25	44783.81
486.43	46983.91
486.61	47447.34
486.78	47847.57
486.96	47931.83
487.14	49570.21
487.32	50192.79
487.50	51334.97
487.68	51976.28
487.85	52442.04
488.03	52488.85
488.21	51955.21
488.39	51192.20
488.57	50588.34
488.75	50279.39
488.92	51812.44
489.10	53457.84
489.28	54688.96
489.46	55260.05
489.64	55098.55
489.81	55290.48
489.99	54878.54
490.17	55030.68
490.35	55449.63
490.53	54855.14
490.70	54504.06
490.88	54674.91
491.06	55529.21
491.24	55510.49
491.41	54370.64
491.59	52767.38
491.77	52112.03
491.95	53258.89
492.13	54452.56
492.30	55590.06
492.48	56165.84
492.66	56832.89
492.84	56708.84
493.01	56451.38
493.19	56044.13
493.37	55700.07
493.54	55374.73
493.72	56002.00
493.90	57010.77
494.08	57661.44
494.25	57879.11
494.43	58108.48
494.61	58450.20
494.79	58564.88
494.96	58204.44
495.14	57528.03
495.32	56959.28
495.49	56306.27
495.67	57326.74
495.85	58599.99
496.02	58754.47
496.20	58721.70
496.38	58206.78
496.55	58106.14
496.73	58880.86
496.91	58684.25
497.09	59346.62
497.26	59451.95
497.44	58911.28
497.62	58581.27
497.79	57762.08
497.97	56608.20
498.14	56872.68
498.32	57963.37
498.50	58794.26
498.67	59154.70
498.85	59054.06
499.03	59269.39
499.20	59269.39
499.38	59578.34
499.56	59260.02
499.73	58827.02
499.91	58351.90
500.08	58066.35
500.26	57504.62
500.44	57977.41
500.61	58508.71
500.79	58302.74
500.97	58075.71
501.14	57958.69
501.32	57741.02
501.49	57518.67
501.67	57895.49
501.84	58452.54
502.02	58597.65
502.20	59140.66
502.37	59079.80
502.55	59040.01
502.72	59742.17
502.90	60196.24
503.07	59597.06
503.25	59370.03
503.43	58546.16
503.60	57801.87
503.78	57492.92
503.95	57893.15
504.13	59089.16
504.30	60030.06
504.48	59601.74
504.65	59608.76
504.83	59297.47
505.01	60172.83
505.18	60535.62
505.36	60940.53
505.53	61034.15
505.71	61212.03
505.88	61153.52
506.06	60519.23
506.23	60130.70
506.41	59901.33
506.58	60081.55
506.76	60048.78
506.93	60140.07
507.11	59847.50
507.28	60081.55
507.46	59606.42
507.63	58944.05
507.81	58941.71
507.98	59072.78
508.16	59763.24
508.33	60411.57
508.50	60542.64
508.68	60996.70
508.85	61345.44
509.03	61396.93
509.20	61151.18
509.38	60444.33
509.55	59990.27
509.73	59913.03
509.90	60285.18
510.08	60711.16
510.25	60446.68
510.42	60500.51
510.60	60486.46
510.77	60549.66
510.95	61071.60
511.12	61315.01
511.30	61537.36
511.47	61602.90
511.64	61771.42
511.82	61338.42
511.99	60486.46
512.17	60308.58
512.34	59976.23
512.51	60186.88
512.69	60271.14
512.86	60303.90
513.04	60692.43
513.21	60727.54
513.38	60416.25
513.56	59730.47
513.73	59313.86
513.90	59655.57
514.08	59803.03
514.25	60039.42
514.43	60154.11
514.60	60226.66
514.77	60383.48
514.95	60589.45
515.12	60313.26
515.29	60587.11
515.47	61036.49
515.64	61286.93
515.81	60783.71
515.99	60278.16
516.16	58857.45
516.33	56685.43
516.51	55594.74
516.68	54892.58
516.85	54356.60
517.03	55105.57
517.20	57506.96
517.37	59849.84
517.54	60434.97
517.72	59943.46
517.89	57621.65
518.06	55735.18
518.24	56184.56
518.41	57883.79
518.58	59173.42
518.75	59248.32
518.93	59400.46
519.10	59468.33
519.27	59852.18
519.45	60154.11
519.62	60774.35
519.79	61183.94
519.96	60893.72
520.14	60505.19
520.31	59412.16
520.48	59695.36
520.65	60069.85
520.83	60968.61
521.00	61305.65
521.17	60739.24
521.34	60680.73
521.52	60884.36
521.69	61427.36
521.86	61598.22
522.03	61389.91
522.20	60104.96
522.38	59426.20
522.55	59496.42
522.72	60142.41
522.89	60034.74
523.07	60317.95
523.24	60537.96
523.41	61251.82
523.58	61846.32
523.75	62103.77
523.92	61675.46
524.10	61998.45
524.27	61785.46
524.44	61696.52
524.61	61642.69
524.78	61408.64
524.96	61214.37
525.13	61209.69
525.30	61762.06
525.47	62003.13
525.64	61694.18
525.81	61069.26
525.98	59938.78
526.16	58585.95
526.33	57961.03
526.50	57616.97
526.67	57240.14
526.84	58295.72
527.01	58908.94
527.18	59636.85
527.36	60577.75
527.53	61179.26
527.70	61282.25
527.87	60764.99
528.04	60399.86
528.21	61106.71
528.38	61666.09
528.55	62054.62
528.72	62312.08
528.89	62562.52
529.07	62178.67
529.24	61565.45
529.41	60905.42
529.58	60477.10
529.75	60734.56
529.92	60898.40
530.09	61396.93
530.26	61752.69
530.43	62178.67
530.60	62122.50
530.77	62382.30
530.94	62401.02
531.11	61897.81
531.28	61659.07
531.46	61408.64
531.63	61535.02
531.80	61558.43
531.97	60872.65
532.14	60552.00
532.31	59393.43
532.48	58862.13
532.65	59018.95
532.82	59842.82
532.99	60821.16
533.16	61230.75
533.33	61581.84
533.50	61623.96
533.67	61038.83
533.84	60605.83
534.01	60872.65
534.18	60750.94
534.35	61144.16
534.52	60802.44
534.69	61146.50
534.86	61336.08
535.03	61675.46
535.20	62150.59
535.37	62386.98
535.54	62677.21
535.71	62115.48
535.88	61750.35
536.05	61315.01
536.22	60832.86
536.38	60519.23
536.55	60170.49
536.72	59547.91
536.89	59854.52
537.06	60458.38
537.23	61296.29
537.40	61392.25
537.57	61425.02
537.74	61361.82
537.91	61324.38
538.08	61059.90
538.25	61087.98
538.42	61233.10
538.59	61158.20
538.75	60537.96
538.92	60355.39
539.09	60231.35
539.26	60013.68
539.43	59840.48
539.60	60046.44
539.77	60233.69
539.94	59985.59
540.11	59297.47
540.28	58810.64
540.44	59100.87
540.61	59135.98
540.78	59348.96
540.95	59863.88
541.12	60123.68
541.29	60697.11
541.46	60736.90
541.62	60544.98
541.79	60638.60
541.96	59842.82
542.13	60072.19
542.30	60460.72
542.47	60521.57
542.63	60011.34
542.80	59831.11
542.97	60116.66
543.14	60088.57
543.31	60142.41
543.48	60626.90
543.64	61282.25
543.81	61579.49
543.98	61462.47
544.15	60481.78
544.32	60250.07
544.48	60280.50
544.65	60893.72
544.82	61207.35
544.99	60654.98
545.16	60317.95
545.32	60140.07
545.49	60872.65
545.66	61151.18
545.83	60622.22
546.00	60664.35
546.16	60198.58
546.33	60331.99
546.50	60477.10
546.67	60823.50
546.83	60142.41
547.00	60399.86
547.17	59608.76
547.34	59208.53
547.50	59320.88
547.67	59737.49
547.84	59608.76
548.00	60151.77
548.17	60554.34
548.34	60374.12
548.51	60266.45
548.67	60210.28
548.84	60505.19
549.01	60292.20
549.18	60406.89
549.34	60081.55
549.51	60315.61
549.68	60275.82
549.84	59882.61
550.01	59819.41
550.18	59898.99
550.34	59987.93
550.51	60013.68
550.68	59934.10
550.84	59437.90
551.01	59693.02
551.18	59676.64
551.34	59915.37
551.51	60245.39
551.68	60535.62
551.84	60519.23
552.01	60226.66
552.18	60088.57
552.34	59201.51
552.51	59334.92
552.68	59278.75
552.84	59503.44
553.01	59550.25
553.18	59529.19
553.34	59550.25
553.51	59821.75
553.67	60079.21
553.84	60119.00
554.01	60034.74
554.17	59821.75
554.34	59957.50
554.51	60140.07
554.67	60306.24
554.84	60266.45
555.00	59973.89
555.17	59833.46
555.33	59597.06
555.50	59793.67
555.67	59800.69
555.83	59473.01
556.00	59220.23
556.16	59121.93
556.33	58674.89
556.50	58773.19
556.66	58878.52
556.83	58482.97
556.99	58773.19
557.16	58880.86
557.32	59107.89
557.49	59302.15
557.65	59355.99
557.82	59278.75
557.98	59124.27
558.15	58532.12
558.32	57661.44
558.48	57076.30
558.65	57235.46
558.81	57647.39
558.98	58188.06
559.14	58192.74
559.31	58171.67
559.47	58277.00
559.64	58136.57
559.80	57787.83
559.97	57682.50
560.13	58174.02
560.30	58915.96
560.46	59482.37
560.63	59678.98
560.79	59646.21
560.96	59173.42
561.12	58335.51
561.29	57434.41
561.45	57687.18
561.61	58106.14
561.78	58525.10
561.94	58202.10
562.11	58073.37
562.27	58089.76
562.44	58424.45
562.60	58906.60
562.77	58838.73
562.93	58677.23
563.10	58695.95
563.26	57965.71
563.42	57968.05
563.59	58038.26
563.75	57928.26
563.92	58136.57
564.08	58042.95
564.24	58326.15
564.41	58085.07
564.57	58330.83
564.74	58113.16
564.90	58164.65
565.07	57689.52
565.23	57226.10
565.39	56818.84
565.56	56596.49
565.72	56601.18
565.88	56800.12
566.05	56992.04
566.21	57528.03
566.38	57392.28
566.54	57380.57
566.70	57757.40
566.87	58155.29
567.03	57996.13
567.19	58188.06
567.36	57790.17
567.52	57801.87
567.68	57511.64
567.85	57076.30
568.01	56678.41
568.17	56203.28
568.34	56357.76
568.50	56114.34
568.66	56219.67
568.83	56746.29
568.99	56769.69
569.15	57066.94
569.32	56921.83
569.48	56952.26
569.64	56685.43
569.81	56343.72
569.97	56346.06
570.13	56102.64
570.30	55639.22
570.46	55339.63
570.62	54761.51
570.78	54908.97
570.95	55187.49
571.11	55929.44
571.27	55875.61
571.43	56090.94
571.60	56442.02
571.76	56552.02
571.92	56828.21
572.09	57045.88
572.25	56694.80
572.41	57050.56
572.57	56652.67
572.74	56559.05
572.90	56622.24
573.06	56310.95
573.22	56500.53
573.38	56343.72
573.55	56479.47
573.71	56603.52
573.87	56465.42
574.03	56519.26
574.20	56236.05
574.36	55997.32
574.52	55880.29
574.68	55653.26
574.84	55086.85
575.01	54805.98
575.17	54967.48
575.33	55147.70
575.49	55554.96
575.65	55473.04
575.82	55468.36
575.98	55093.87
576.14	55267.07
576.30	55763.26
576.46	55852.20
576.62	55625.17
576.79	55545.59
576.95	55407.50
577.11	55250.69
577.27	55224.94
577.43	55199.19
577.59	55056.42
577.75	54635.13
577.92	53909.56
578.08	53478.90
578.24	54010.20
578.40	54307.45
578.56	54356.60
578.72	54571.93
578.88	54820.03
579.04	54574.27
579.21	54747.47
579.37	54766.20
579.53	55136.00
579.69	54953.44
579.85	54906.63
580.01	54951.10
580.17	54370.64
580.33	54277.02
580.49	54408.09
580.65	54805.98
580.82	55075.15
580.98	54939.39
581.14	54915.99
581.30	54937.05
581.46	54904.29
581.62	55241.32
581.78	55030.68
581.94	55231.96
582.10	55332.60
582.26	55613.47
582.42	55178.13
582.58	55384.10
582.74	54915.99
582.90	55098.55
583.06	55348.99
583.22	54965.14
583.38	54803.64
583.54	54887.90
583.70	54768.54
583.86	54831.73
584.02	54930.03
584.18	54719.38
584.34	54614.06
584.50	54703.00
584.66	54644.49
584.82	53956.37
584.98	53996.16
585.14	53684.87
585.30	52907.81
