SpectraSuite Data File
++++++++++++++++++++++++++++++++++++
Date: Mon Oct 07 14:54:04 GMT-05:00 2013
User: price-jones
Dark Spectrum Present: No
Reference Spectrum Present: No
Number of Sampled Component Spectra: 1
Spectrometers: USB2+H05261
Integration Time (usec): 100000 (USB2+H05261)
Spectra Averaged: 1 (USB2+H05261)
Boxcar Smoothing: 0 (USB2+H05261)
Correct for Electrical Dark: No (USB2+H05261)
Strobe/Lamp Enabled: No (USB2+H05261)
Correct for Detector Non-linearity: No (USB2+H05261)
Correct for Stray Light: No (USB2+H05261)
Number of Pixels in Processed Spectrum: 2048
>>>>>Begin Processed Spectral Data<<<<<
365.73	0.00
365.92	0.00
366.12	0.00
366.32	0.00
366.52	0.00
366.72	0.00
366.91	0.00
367.11	0.00
367.31	0.00
367.51	0.00
367.70	0.00
367.90	0.00
368.10	0.00
368.30	0.00
368.49	0.00
368.69	0.00
368.89	0.00
369.09	0.00
369.28	0.00
369.48	0.00
369.68	0.00
369.87	0.00
370.07	0.00
370.27	0.00
370.47	725.57
370.66	3641.87
370.86	4273.82
371.06	4430.63
371.25	4643.62
371.45	4170.83
371.65	3850.18
371.84	3559.95
372.04	3655.92
372.24	4138.07
372.44	4393.19
372.63	4156.79
372.83	3948.48
373.03	3358.67
373.22	3222.92
373.42	3440.59
373.62	4046.79
373.81	4397.87
374.01	4409.57
374.21	3967.21
374.40	3632.51
374.60	3712.09
374.79	4255.09
374.99	4908.10
375.19	5256.84
375.38	5261.52
375.58	4924.49
375.78	4938.53
375.97	4950.23
376.17	5022.79
376.37	5020.45
376.56	5102.37
376.76	5455.79
376.95	5797.51
377.15	6176.67
377.35	6527.75
377.54	6703.29
377.74	7117.57
377.93	6998.20
378.13	6857.77
378.33	6429.45
378.52	5933.26
378.72	5624.31
378.91	5699.20
379.11	5434.72
379.31	5366.85
379.50	5301.31
379.70	5671.12
379.89	6270.30
380.09	6583.93
380.28	7002.88
380.48	6913.94
380.68	6815.64
380.87	6532.44
381.07	6146.25
381.26	5547.07
381.46	5291.95
381.65	5081.30
381.85	4830.87
382.04	4573.41
382.24	4458.72
382.43	4063.17
382.63	4065.51
382.83	3899.33
383.02	4152.11
383.22	4173.18
383.41	4067.85
383.61	4432.97
383.80	5104.71
384.00	5802.19
384.19	6443.49
384.39	6768.83
384.58	6820.32
384.78	6483.28
384.97	6459.88
385.17	6244.55
385.36	5806.87
385.56	5568.13
385.75	5729.63
385.95	6434.13
386.14	6977.14
386.34	6927.99
386.53	6712.66
386.72	6267.95
386.92	6188.38
387.11	6506.69
387.31	6974.80
387.50	6834.36
387.70	6530.09
387.89	6651.80
388.09	6649.46
388.28	6628.40
388.48	6520.73
388.67	7213.53
388.86	7770.58
389.06	8554.66
389.25	8702.11
389.45	8959.57
389.64	8870.63
389.84	8793.39
390.03	8681.05
390.22	8711.47
390.42	9004.04
390.61	9317.67
390.81	10125.16
391.00	10448.15
391.19	10218.78
391.39	9848.97
391.58	9259.16
391.78	8961.91
391.97	8432.95
392.16	7906.33
392.36	7152.68
392.55	5738.99
392.75	4337.01
392.94	3747.20
393.13	3763.58
393.33	4311.27
393.52	5563.45
393.71	6984.16
393.91	7676.96
394.10	8624.87
394.29	9355.12
394.49	9738.97
394.68	10780.51
394.88	10675.18
395.07	11250.96
395.26	10853.06
395.46	10593.26
395.65	10200.05
395.84	8957.23
396.04	7571.63
396.23	6003.47
396.42	5050.88
396.62	4938.53
396.81	5650.05
397.00	7145.66
397.19	9254.48
397.39	10595.61
397.58	12184.83
397.77	12915.08
397.97	13401.91
398.16	13507.23
398.35	14068.96
398.55	14258.54
398.74	15096.46
398.93	15440.51
399.12	15061.35
399.32	14406.00
399.51	14853.04
399.70	15655.84
399.90	15569.24
400.09	15529.45
400.28	15489.67
400.47	15716.70
400.67	16498.44
400.86	16755.90
401.05	16779.30
401.24	16718.45
401.44	17139.74
401.63	17263.79
401.82	17509.55
402.01	17310.60
402.21	17593.81
402.40	17343.37
402.59	16858.88
402.78	16343.96
402.97	15861.81
403.17	16451.63
403.36	17415.93
403.55	18218.73
403.74	18256.18
403.93	17366.78
404.13	16294.81
404.32	15957.77
404.51	16517.16
404.70	17774.03
404.89	17818.50
405.09	17598.49
405.28	17011.01
405.47	17097.61
405.66	16711.42
405.85	16524.18
406.05	16077.14
406.24	16161.40
406.43	17008.67
406.62	17654.66
406.81	17593.81
407.00	17165.49
407.20	16716.11
407.39	16769.94
407.58	17891.06
407.77	18202.35
407.96	18647.05
408.15	19173.67
408.34	18920.89
408.54	20006.90
408.73	20294.79
408.92	19908.60
409.11	19323.46
409.30	18546.40
409.49	17186.55
409.68	16269.06
409.87	15709.68
410.07	16248.00
410.26	17771.69
410.45	19061.32
410.64	19192.39
410.83	20004.56
411.02	20496.07
411.21	21706.13
411.40	21046.10
411.59	20952.48
411.78	21214.62
411.98	20496.07
412.17	21116.31
412.36	20673.95
412.55	20648.21
412.74	20531.18
412.93	19751.78
413.12	19857.10
413.31	21830.18
413.50	21994.01
413.69	22410.63
413.88	21792.73
414.07	21013.33
414.26	21102.27
414.45	22104.02
414.64	22139.13
414.83	22272.54
415.02	21872.31
415.22	21788.05
415.41	22167.21
415.60	23028.53
415.79	23665.16
415.98	24409.45
416.17	24233.91
416.36	23058.96
416.55	23211.09
416.74	22412.97
416.93	21645.27
417.12	21858.26
417.31	22125.08
417.50	22733.62
417.69	23044.91
417.88	23241.52
418.07	22906.82
418.26	22504.25
418.45	22909.16
418.64	23398.34
418.83	24467.96
419.02	24091.13
419.21	23894.53
419.39	22817.88
419.58	21799.75
419.77	21968.27
419.96	22600.21
420.15	24137.94
420.34	24697.33
420.53	25575.03
420.72	25633.55
420.91	26071.23
421.10	25544.61
421.29	25355.02
421.48	24360.30
421.67	25708.44
421.86	25006.28
422.05	23185.35
422.24	20643.52
422.43	20123.93
422.61	22721.92
422.80	24554.56
422.99	24641.16
423.18	24128.58
423.37	23541.11
423.56	23264.92
423.75	23552.81
423.94	24573.28
424.13	23033.21
424.32	23332.80
424.50	23309.40
424.69	22794.48
424.88	23037.89
425.07	22696.17
425.26	22712.56
425.45	22527.66
425.64	22286.58
425.83	22368.50
426.01	23637.07
426.20	24353.27
426.39	24084.11
426.58	21867.63
426.77	20570.97
426.96	19613.69
427.15	20636.50
427.33	22256.15
427.52	23110.45
427.71	23396.00
427.90	22909.16
428.09	22647.02
428.28	22246.79
428.46	21631.23
428.65	21504.84
428.84	21853.58
429.03	21923.80
429.22	20765.23
429.40	19800.93
429.59	17902.76
429.78	15854.79
429.97	16163.74
430.16	16224.59
430.34	16358.00
430.53	16318.22
430.72	16545.25
430.91	18300.65
431.10	21652.30
431.28	25193.53
431.47	27108.08
431.66	27522.36
431.85	25294.17
432.03	22948.95
432.22	22099.34
432.41	23264.92
432.60	25329.28
432.79	26602.53
432.97	27225.11
433.16	26408.26
433.35	24107.52
433.54	21762.30
433.72	20568.63
433.91	20987.58
434.10	23506.00
434.28	25235.66
434.47	26745.30
434.66	25900.37
434.85	25149.06
435.03	25111.61
435.22	25820.79
435.41	27742.37
435.59	27417.04
435.78	27630.02
435.97	28774.55
436.16	28758.16
436.34	28287.71
436.53	27723.65
436.72	27967.06
436.90	26511.25
437.09	26258.47
437.28	25799.73
437.46	26902.12
437.65	26494.86
437.84	24786.27
438.02	22691.49
438.21	22628.30
438.40	23957.72
438.58	25827.81
438.77	26511.25
438.96	26782.75
439.14	28140.26
439.33	28489.00
439.52	28947.75
439.70	28346.23
439.89	27566.83
440.08	27218.09
440.26	26923.18
440.45	27868.76
440.63	29865.24
440.82	31084.65
441.01	30892.73
441.19	30541.65
441.38	30878.69
441.57	32308.76
441.75	32526.42
441.94	32863.46
442.12	32283.01
442.31	32779.20
442.50	32931.34
442.68	32554.51
442.87	32245.56
443.05	31934.27
443.24	31997.46
443.43	32493.66
443.61	33354.97
443.80	34160.12
443.98	31828.95
444.17	32173.00
444.35	33528.17
444.54	34405.88
444.73	33518.81
444.91	32559.19
445.10	31044.87
445.28	30075.88
445.47	29207.55
445.65	29839.49
445.84	30410.58
446.02	31152.53
446.21	31667.45
446.39	32318.12
446.58	32837.72
446.77	33099.86
446.95	33308.16
447.14	34375.45
447.32	34675.04
447.51	33886.28
447.69	32708.99
447.88	32402.38
448.06	32800.27
448.25	33450.94
448.43	33727.12
448.62	32753.46
448.80	32716.01
448.99	32615.37
449.17	33603.07
449.36	33216.88
449.54	34569.71
449.73	35189.95
449.91	35585.50
450.10	36556.83
450.28	36552.15
450.46	36517.04
450.65	36662.15
450.83	36484.27
451.02	35964.67
451.20	35892.12
451.39	35639.34
451.57	35012.07
451.76	35416.99
451.94	34983.99
452.13	34239.70
452.31	33266.03
452.49	31681.49
452.68	31981.08
452.86	31826.60
453.05	32203.43
453.23	33092.83
453.42	34309.91
453.60	35082.29
453.78	34906.75
453.97	34595.46
454.15	34731.21
454.34	33586.69
454.52	33928.41
454.70	33092.83
454.89	33645.20
455.07	34003.30
455.26	34562.69
455.44	35510.61
455.62	36137.87
455.81	36538.10
455.99	35819.56
456.17	36030.21
456.36	35669.76
456.54	36730.03
456.73	36943.02
456.91	37605.39
457.09	37820.72
457.28	38117.96
457.46	36837.69
457.64	36556.83
457.83	35082.29
458.01	34574.39
458.19	35463.80
458.38	35690.83
458.56	36535.76
458.74	36617.68
458.93	36194.04
459.11	36184.68
459.29	35512.95
459.48	35882.75
459.66	35632.32
459.84	36313.41
460.03	36692.58
460.21	36545.12
460.39	37743.48
460.57	37116.22
460.76	37607.73
460.94	37841.78
461.12	37031.96
461.31	37757.52
461.49	37652.20
461.67	37209.84
461.85	38572.03
462.04	38770.97
462.22	38295.85
462.40	38515.86
462.59	38281.80
462.77	38429.26
462.95	38328.61
463.13	37799.65
463.32	37448.57
463.50	37118.56
463.68	37359.63
463.86	37549.21
464.05	37090.47
464.23	36065.31
464.41	35981.06
464.59	35292.94
464.78	37184.09
464.96	36690.24
465.14	36950.04
465.32	37273.03
465.50	38251.38
465.69	38616.50
465.87	37989.24
466.05	36830.67
466.23	35351.45
466.41	34628.23
466.60	35264.85
466.78	35620.61
466.96	36091.06
467.14	36491.29
467.32	37268.35
467.51	37553.90
467.69	35955.31
467.87	36105.10
468.05	36961.74
468.23	36734.71
468.41	37350.27
468.60	37069.40
468.78	37792.63
468.96	36706.62
469.14	37818.38
469.32	37654.54
469.50	36018.50
469.69	36383.63
469.87	35665.08
470.05	35915.52
470.23	36212.77
470.41	36149.57
470.59	36627.04
470.77	37013.23
470.95	37350.27
471.14	37577.30
471.32	37450.91
471.50	39817.19
471.68	39934.22
471.86	40067.63
472.04	40212.74
472.22	40371.90
472.40	38347.34
472.58	38738.21
472.77	37750.50
472.95	38429.26
473.13	39903.79
473.31	38284.14
473.49	38562.67
473.67	39545.69
473.85	39974.01
474.03	40301.68
474.21	40884.48
474.39	41083.42
474.57	41371.31
474.75	40669.15
474.93	40914.90
475.12	40034.86
475.30	39761.02
475.48	40264.24
475.66	40856.39
475.84	40519.35
476.02	39697.83
476.20	39290.57
476.38	40254.87
476.56	41064.70
476.74	41818.35
476.92	41947.08
477.10	42925.42
477.28	43461.41
477.46	43962.28
477.64	44245.49
477.82	44446.77
478.00	44147.18
478.18	43508.22
478.36	43370.13
478.54	43498.86
478.72	43634.61
478.90	44617.63
479.08	45720.02
479.26	46330.90
479.44	46417.50
479.62	45677.90
479.80	45933.01
479.98	45961.10
480.16	46880.93
480.34	46012.59
480.52	46461.97
480.70	46642.20
480.88	46387.08
481.06	47770.33
481.24	47358.40
481.41	48444.41
481.59	49310.41
481.77	48928.90
481.95	48123.75
482.13	48086.31
482.31	48294.61
482.49	48952.30
482.67	48523.99
482.85	48783.79
483.03	49429.77
483.21	49968.10
483.39	49642.76
483.57	49282.32
483.74	48708.89
483.92	49244.87
484.10	48884.43
484.28	50096.83
484.46	50117.89
484.64	50724.09
484.82	50307.47
485.00	49542.12
485.18	48594.20
485.35	47950.56
485.53	44477.20
485.71	41062.36
485.89	40051.25
486.07	42227.95
486.25	45640.45
486.43	48048.86
486.61	48526.33
486.78	48477.18
486.96	48760.38
487.14	50277.05
487.32	50845.80
487.50	51793.71
487.68	52629.29
487.85	52947.60
488.03	52935.90
488.21	52750.99
488.39	51992.66
488.57	51344.33
488.75	51131.34
488.92	51987.98
489.10	54307.45
489.28	55089.19
489.46	55695.39
489.64	55648.58
489.81	55859.23
489.99	55480.06
490.17	55536.23
490.35	55913.06
490.53	55454.31
490.70	55056.42
490.88	54955.78
491.06	55959.87
491.24	55770.28
491.41	54925.35
491.59	53345.49
491.77	52814.19
491.95	53848.71
492.13	54911.31
492.30	56039.45
492.48	56900.76
492.66	57172.27
492.84	57050.56
493.01	57038.86
493.19	56453.72
493.37	56142.43
493.54	55999.66
493.72	56446.70
493.90	57347.81
494.08	58054.65
494.25	58445.52
494.43	58450.20
494.61	58726.38
494.79	58721.70
494.96	58862.13
495.14	58255.93
495.32	57059.92
495.49	56444.36
495.67	57780.81
495.85	58707.66
496.02	59192.15
496.20	59110.23
496.38	58457.22
496.55	58468.92
496.73	59007.25
496.91	59072.78
497.09	59793.67
497.26	59714.09
497.44	59473.01
497.62	58876.18
497.79	58162.31
497.97	56985.02
498.14	57090.35
498.32	58033.58
498.50	58990.86
498.67	59250.66
498.85	59363.01
499.03	59440.24
499.20	59779.62
499.38	59735.15
499.56	59688.34
499.73	59100.87
499.91	58653.82
500.08	58555.52
500.26	57584.20
500.44	57946.98
500.61	58761.49
500.79	58653.82
500.97	58307.43
501.14	57975.07
501.32	57722.29
501.49	57914.22
501.67	58239.55
501.84	58539.14
502.02	59002.56
502.20	59241.30
502.37	59302.15
502.55	59236.62
502.72	59903.67
502.90	60383.48
503.07	60130.70
503.25	59536.21
503.43	58869.15
503.60	58106.14
503.78	57560.79
503.95	57986.77
504.13	59096.19
504.30	59936.44
504.48	59821.75
504.65	59571.32
504.83	59686.00
505.01	60179.85
505.18	60357.74
505.36	61022.45
505.53	61137.13
505.71	61359.48
505.88	61160.54
506.06	60762.65
506.23	60360.08
506.41	60046.44
506.58	60362.42
506.76	60140.07
506.93	60465.40
507.11	59962.18
507.28	59952.82
507.46	59517.48
507.63	58906.60
507.81	58866.81
507.98	59253.00
508.16	59749.20
508.33	60214.96
508.50	60514.55
508.68	60959.25
508.85	61291.61
509.03	61350.12
509.20	61242.46
509.38	60472.42
509.55	59735.15
509.73	59852.18
509.90	60200.92
510.08	60654.98
510.25	60292.20
510.42	60287.52
510.60	60367.10
510.77	60385.82
510.95	60903.08
511.12	61134.79
511.30	61373.53
511.47	61605.24
511.64	61654.39
511.82	61317.35
511.99	60568.38
512.17	60126.02
512.34	59854.52
512.51	59840.48
512.69	60037.08
512.86	60200.92
513.04	60533.28
513.21	60556.68
513.38	60324.97
513.56	59735.15
513.73	59346.62
513.90	59489.40
514.08	59566.63
514.25	59868.56
514.43	59906.01
514.60	59908.35
514.77	60313.26
514.95	60409.23
515.12	60369.44
515.29	60432.63
515.47	60914.78
515.64	60870.31
515.81	60643.28
515.99	60065.17
516.16	58738.08
516.33	56891.40
516.51	55484.74
516.68	54585.97
516.85	54174.04
517.03	54600.02
517.20	56975.66
517.37	59264.70
517.54	60219.64
517.72	59793.67
517.89	57748.04
518.06	55381.76
518.24	55793.69
518.41	57593.56
518.58	58873.84
518.75	59178.10
518.93	59341.94
519.10	59007.25
519.27	59632.17
519.45	59639.19
519.62	60397.52
519.79	60750.94
519.96	60547.32
520.14	60067.51
520.31	59236.62
520.48	59416.84
520.65	59718.77
520.83	60566.04
521.00	60832.86
521.17	60591.79
521.34	60123.68
521.52	60491.15
521.69	61090.32
521.86	61418.00
522.03	61174.58
522.20	59828.77
522.38	59084.48
522.55	58876.18
522.72	59597.06
522.89	59501.10
523.07	59788.98
523.24	60034.74
523.41	61052.87
523.58	61242.46
523.75	61528.00
523.92	61375.87
524.10	61410.98
524.27	61408.64
524.44	61319.70
524.61	61022.45
524.78	60889.04
524.96	60645.62
525.13	60870.31
525.30	61102.03
525.47	61375.87
525.64	61443.74
525.81	60573.06
525.98	59512.80
526.16	58138.91
526.33	57403.98
526.50	57106.73
526.67	56617.56
526.84	57219.08
527.01	58209.12
527.18	58955.75
527.36	59924.74
527.53	60816.48
527.70	60853.93
527.87	60491.15
528.04	59934.10
528.21	60512.21
528.38	61226.07
528.55	61567.79
528.72	61820.57
528.89	62021.86
529.07	61595.88
529.24	61027.13
529.41	60458.38
529.58	59796.01
529.75	59927.08
529.92	60477.10
530.09	60814.14
530.26	61350.12
530.43	61628.65
530.60	61506.94
530.77	61846.32
530.94	61900.15
531.11	61300.97
531.28	60942.87
531.46	61001.38
531.63	60956.91
531.80	61041.17
531.97	60299.22
532.14	59915.37
532.31	58892.56
532.48	58157.63
532.65	58361.26
532.82	59037.67
532.99	60243.05
533.16	60355.39
533.33	60786.05
533.50	60851.59
533.67	60121.34
533.84	59938.78
534.01	60116.66
534.18	60116.66
534.35	60491.15
534.52	60097.94
534.69	60472.42
534.86	60647.96
535.03	60884.36
535.20	61357.14
535.37	61619.28
535.54	61783.12
535.71	61427.36
535.88	61008.40
536.05	60566.04
536.22	60252.41
536.38	59950.48
536.55	59297.47
536.72	58946.39
536.89	58784.90
537.06	59669.62
537.23	60376.46
537.40	60802.44
537.57	60596.47
537.74	60327.31
537.91	60226.66
538.08	60184.54
538.25	60519.23
538.42	60484.12
538.59	60264.11
538.75	59889.63
538.92	59561.95
539.09	59414.50
539.26	59334.92
539.43	58979.16
539.60	58958.09
539.77	59428.54
539.94	59290.45
540.11	58576.59
540.28	58052.31
540.44	57879.11
540.61	58487.65
540.78	58382.32
540.95	59175.76
541.12	59334.92
541.29	59442.59
541.46	59817.07
541.62	59990.27
541.79	59852.18
541.96	59075.12
542.13	59018.95
542.30	59370.03
542.47	59627.49
542.63	59409.82
542.80	59098.53
542.97	59281.09
543.14	59037.67
543.31	59171.08
543.48	59915.37
543.64	60456.04
543.81	60683.07
543.98	60247.73
544.15	59835.80
544.32	59178.10
544.48	59379.39
544.65	59674.30
544.82	60261.77
544.99	59854.52
545.16	59571.32
545.32	59007.25
545.49	59791.33
545.66	60341.35
545.83	60020.70
546.00	59643.87
546.16	59199.17
546.33	59482.37
546.50	59302.15
546.67	59859.20
546.83	59348.96
547.00	59398.12
547.17	58768.51
547.34	58312.11
547.50	58059.33
547.67	58688.93
547.84	58698.30
548.00	59028.31
548.17	59430.88
548.34	59327.90
548.51	59271.73
548.67	59358.33
548.84	59386.41
549.01	59339.60
549.18	59238.96
549.34	59374.71
549.51	59143.00
549.68	59229.60
549.84	58827.02
550.01	58955.75
550.18	58656.17
550.34	58859.79
550.51	58920.65
550.68	58986.18
550.84	58443.18
551.01	58562.54
551.18	58473.60
551.34	58653.82
551.51	59196.83
551.68	59276.41
551.84	59568.97
552.01	59054.06
552.18	58962.78
552.34	58391.68
552.51	57932.94
552.68	57832.30
552.84	58246.57
553.01	58454.88
553.18	58520.41
553.34	58454.88
553.51	58571.91
553.67	58845.75
553.84	59194.49
554.01	58740.42
554.17	58599.99
554.34	58728.72
554.51	58894.90
554.67	59189.81
554.84	59061.08
555.00	58614.04
555.17	58279.34
555.33	58475.94
555.50	58101.46
555.67	58368.28
555.83	58248.91
556.00	58040.60
556.16	58082.73
556.33	57504.62
556.50	57352.49
556.66	57401.64
556.83	57088.01
556.99	57336.10
557.16	57539.73
557.32	57698.89
557.49	57923.58
557.65	57874.43
557.82	57886.13
557.98	57787.83
558.15	57291.63
558.32	56589.47
558.48	55620.49
558.65	55994.98
558.81	56320.31
558.98	56413.93
559.14	56650.33
559.31	56605.86
559.47	56790.76
559.64	56332.01
559.80	56402.23
559.97	56207.97
560.13	56535.64
560.30	57497.60
560.46	57883.79
560.63	58047.63
560.79	58284.02
560.96	57851.02
561.12	56694.80
561.29	55861.57
561.45	56013.70
561.61	56409.25
561.78	56891.40
561.94	56844.59
562.11	56659.69
562.27	56198.60
562.44	56802.46
562.60	57083.33
562.77	57155.88
562.93	57237.80
563.10	57036.51
563.26	56739.27
563.42	56699.48
563.59	56210.31
563.75	56254.78
563.92	56601.18
564.08	56526.28
564.24	56474.79
564.41	56713.52
564.57	56636.28
564.74	56474.79
564.90	56264.14
565.07	56210.31
565.23	55880.29
565.39	55304.52
565.56	55028.34
565.72	54864.50
565.88	55072.81
566.05	55274.09
566.21	55384.10
566.38	55632.19
566.54	55826.46
566.70	56154.13
566.87	56306.27
567.03	56240.73
567.19	56507.55
567.36	56151.79
567.52	56142.43
567.68	55686.03
567.85	55267.07
568.01	54649.17
568.17	54468.95
568.34	54679.60
568.50	54756.83
568.66	54527.46
568.83	54932.37
568.99	55229.62
569.15	55253.03
569.32	55093.87
569.48	54899.61
569.64	54419.80
569.81	54365.96
569.97	54206.81
570.13	54174.04
570.30	53785.51
570.46	53261.23
570.62	52875.04
570.78	52849.30
570.95	53104.41
571.11	53605.29
571.27	53837.00
571.43	54265.32
571.60	54241.92
571.76	54607.04
571.92	54822.37
572.09	55110.25
572.25	55126.64
572.41	55016.63
572.57	55054.08
572.74	55028.34
572.90	54401.07
573.06	54511.08
573.22	54382.35
573.38	54464.27
573.55	54555.55
573.71	54560.23
573.87	54904.29
574.03	54237.23
574.20	54335.54
574.36	53986.80
574.52	53872.11
574.68	53415.71
574.84	53406.34
575.01	52818.87
575.17	52507.58
575.33	52942.92
575.49	53226.12
575.65	53169.95
575.82	53375.92
575.98	52868.02
576.14	53207.40
576.30	53698.91
576.46	53773.81
576.62	53614.65
576.79	53389.96
576.95	53102.07
577.11	53095.05
577.27	53401.66
577.43	53193.36
577.59	53097.39
577.75	52545.03
577.92	51798.40
578.08	51547.96
578.24	51632.22
578.40	52041.81
578.56	52411.62
578.72	52601.20
578.88	52498.22
579.04	52734.61
579.21	52631.63
579.37	52676.10
579.53	52734.61
579.69	53006.11
579.85	52933.56
580.01	52488.85
580.17	52282.89
580.33	52023.09
580.49	52266.50
580.65	52547.37
580.82	52875.04
580.98	52638.65
581.14	52631.63
581.30	52535.66
581.46	52165.86
581.62	52671.42
581.78	52760.36
581.94	52842.27
582.10	52832.91
582.26	52708.86
582.42	52626.95
582.58	52870.36
582.74	52671.42
582.90	52830.57
583.06	52549.71
583.22	52720.57
583.38	52802.49
583.54	52411.62
583.70	52460.77
583.86	52509.92
584.02	52229.05
584.18	52329.70
584.34	52341.40
584.50	52186.92
584.66	51969.26
584.82	51681.37
584.98	51997.34
585.14	51239.01
