SpectraSuite Data File
++++++++++++++++++++++++++++++++++++
Date: Mon Oct 07 14:55:31 GMT-05:00 2013
User: price-jones
Dark Spectrum Present: No
Reference Spectrum Present: No
Number of Sampled Component Spectra: 1
Spectrometers: USB2+H05261
Integration Time (usec): 1000000 (USB2+H05261)
Spectra Averaged: 1 (USB2+H05261)
Boxcar Smoothing: 0 (USB2+H05261)
Correct for Electrical Dark: No (USB2+H05261)
Strobe/Lamp Enabled: No (USB2+H05261)
Correct for Detector Non-linearity: No (USB2+H05261)
Correct for Stray Light: No (USB2+H05261)
Number of Pixels in Processed Spectrum: 2048
>>>>>Begin Processed Spectral Data<<<<<
365.73	0.00
365.92	0.00
366.12	0.00
366.32	0.00
366.52	0.00
366.72	203.63
366.91	0.00
367.11	145.11
367.31	58.51
367.51	224.69
367.70	271.50
367.90	456.40
368.10	166.18
368.30	271.50
368.49	30.43
368.69	351.08
368.89	168.52
369.09	0.00
369.28	142.77
369.48	0.00
369.68	95.96
369.87	259.80
370.07	81.92
370.27	444.70
370.47	2466.92
370.66	8734.88
370.86	10054.94
371.06	11265.00
371.25	11571.61
371.45	10047.92
371.65	9259.16
371.84	8393.16
372.04	8912.76
372.24	9841.95
372.44	10258.57
372.63	10073.67
372.83	9884.08
373.03	8395.50
373.22	7489.71
373.42	7988.25
373.62	9198.31
373.81	10108.77
374.01	10087.71
374.21	9294.27
374.40	8318.26
374.60	9146.81
374.79	9757.69
374.99	11138.61
375.19	12121.63
375.38	12226.96
375.58	11176.06
375.78	11279.04
375.97	11552.88
376.17	12138.02
376.37	11681.61
376.56	12292.49
376.76	12545.27
376.95	13500.21
377.15	14698.56
377.35	15073.05
377.54	15695.63
377.74	15735.42
377.93	15868.83
378.13	15555.20
378.33	15059.01
378.52	13678.09
378.72	13500.21
378.91	13139.77
379.11	12402.50
379.31	11995.25
379.50	11815.02
379.70	13240.41
379.89	14427.06
380.09	14979.43
380.28	15300.08
380.48	15302.42
380.68	15250.93
380.87	14541.75
381.07	13720.22
381.26	13095.30
381.46	12226.96
381.65	11819.71
381.85	11449.90
382.04	10815.62
382.24	10300.70
382.43	9715.56
382.63	9387.89
382.83	9563.43
383.02	9792.80
383.22	9727.27
383.41	9437.04
383.61	9944.94
383.80	11637.14
384.00	12809.75
384.19	14286.63
384.39	15147.95
384.58	14923.26
384.78	14775.80
384.97	14401.32
385.17	13425.31
385.36	12901.03
385.56	12624.85
385.75	12648.26
385.95	13867.67
386.14	15473.28
386.34	15325.83
386.53	14520.68
386.72	13713.20
386.92	14202.37
387.11	14595.58
387.31	15279.02
387.50	14967.73
387.70	14443.45
387.89	13970.66
388.09	13937.89
388.28	14146.20
388.48	14492.60
388.67	15754.15
388.86	17001.65
389.06	18094.68
389.25	19145.58
389.45	19419.42
389.64	19108.13
389.84	19054.30
390.03	18565.13
390.22	18530.02
390.42	18923.23
390.61	20240.95
390.81	21167.80
391.00	21994.01
391.19	21837.20
391.39	20882.26
391.58	19822.00
391.78	18862.38
391.97	18136.81
392.16	16610.78
392.36	15852.45
392.55	13046.15
392.75	10356.87
392.94	8477.42
393.13	8475.08
393.33	9497.89
393.52	11964.82
393.71	15012.20
393.91	16657.59
394.10	17467.42
394.29	19075.37
394.49	20493.73
394.68	22375.52
394.88	22518.29
395.07	23580.90
395.26	22668.09
395.46	22183.60
395.65	21235.68
395.84	18572.15
396.04	16664.61
396.23	13128.06
396.42	10864.77
396.62	10719.65
396.81	12346.33
397.00	15213.48
397.19	19058.98
397.39	22214.02
397.58	25289.49
397.77	26518.27
397.97	27330.44
398.16	27688.54
398.35	28851.78
398.55	29284.78
398.74	30375.47
398.93	31103.38
399.12	30408.24
399.32	29453.30
399.51	30127.38
399.70	32135.56
399.90	31791.50
400.09	31840.65
400.28	31922.57
400.47	31555.10
400.67	33310.50
400.86	34078.20
401.05	33893.30
401.24	34492.47
401.44	34836.53
401.63	34588.44
401.82	34761.64
402.01	34272.46
402.21	34960.58
402.40	34902.07
402.59	34340.34
402.78	32683.24
402.97	31791.50
403.17	32624.73
403.36	34642.27
403.55	35739.98
403.74	36563.85
403.93	34906.75
404.13	33275.40
404.32	32350.88
404.51	33284.76
404.70	35688.49
404.89	35644.02
405.09	35625.29
405.28	34195.23
405.47	33670.95
405.66	33731.80
405.85	33074.11
406.05	31777.45
406.24	32320.46
406.43	33912.02
406.62	34857.60
406.81	35704.87
407.00	34139.05
407.20	33268.37
407.39	33551.58
407.58	34768.66
407.77	35849.99
407.96	37635.81
408.15	37247.29
408.34	37834.76
408.54	39281.21
408.73	39000.35
408.92	38541.60
409.11	38160.09
409.30	35952.97
409.49	33422.85
409.68	31988.10
409.87	30721.87
410.07	32158.96
410.26	34995.69
410.45	36840.03
410.64	37935.40
410.83	38794.38
411.02	39442.71
411.21	41113.85
411.40	40847.03
411.59	40451.48
411.78	40495.95
411.98	39924.86
412.17	40847.03
412.36	39988.05
412.55	40313.39
412.74	39283.55
412.93	38878.64
413.12	38216.27
413.31	41853.46
413.50	42061.77
413.69	42850.53
413.88	41284.71
414.07	39995.07
414.26	40453.82
414.45	42038.36
414.64	42164.75
414.83	42384.76
415.02	41734.09
415.22	41638.13
415.41	42539.24
415.60	43241.40
415.79	44694.87
415.98	46445.59
416.17	45610.02
416.36	44774.45
416.55	43964.62
416.74	42759.25
416.93	41703.67
417.12	41706.01
417.31	42127.30
417.50	42878.61
417.69	44137.82
417.88	43798.44
418.07	42920.74
418.26	42171.77
418.45	42962.87
418.64	44540.39
418.83	45607.68
419.02	45195.74
419.21	44292.30
419.39	42520.51
419.58	41017.89
419.77	41354.93
419.96	42887.98
420.15	44942.97
420.34	45656.83
420.53	47267.12
420.72	47435.64
420.91	47433.30
421.10	47103.28
421.29	46518.15
421.48	45308.09
421.67	47239.03
421.86	46110.89
422.05	43714.19
422.24	39126.74
422.43	39145.46
422.61	42080.49
422.80	45315.11
422.99	45478.95
423.18	44282.94
423.37	43274.16
423.56	43454.39
423.75	44229.10
423.94	44170.59
424.13	42389.44
424.32	42656.26
424.50	43150.12
424.69	41904.95
424.88	43098.62
425.07	42588.39
425.26	42520.51
425.45	42340.29
425.64	41148.96
425.83	41556.21
426.01	43449.70
426.20	44198.68
426.39	43973.98
426.58	41446.21
426.77	38405.85
426.96	37237.92
427.15	38185.84
427.33	40718.30
427.52	42387.10
427.71	42639.88
427.90	42532.22
428.09	41848.78
428.28	41020.23
428.46	39763.36
428.65	39192.27
428.84	39442.71
429.03	41158.32
429.22	38660.97
429.40	36739.39
429.59	33680.31
429.78	29788.00
429.97	30057.16
430.16	30471.43
430.34	30380.15
430.53	30073.54
430.72	30686.76
430.91	34356.72
431.10	39826.56
431.28	45385.33
431.47	48250.14
431.66	48741.66
431.85	45160.64
432.03	42363.70
432.22	40954.69
432.41	41766.86
432.60	46061.74
432.79	47283.50
432.97	48264.19
433.16	47330.31
433.35	43821.85
433.54	39859.32
433.72	37502.40
433.91	38822.47
434.10	43042.45
434.28	45350.22
434.47	47021.36
434.66	47023.70
434.85	46110.89
435.03	45961.10
435.22	48540.37
435.41	51363.06
435.59	51079.85
435.78	50274.71
435.97	50396.42
436.16	49947.03
436.34	49675.53
436.53	48968.69
436.72	49418.07
436.90	46651.56
437.09	46852.84
437.28	45792.58
437.46	47260.10
437.65	47416.91
437.84	44634.02
438.02	41179.39
438.21	40800.22
438.40	42890.32
438.58	46316.86
438.77	47107.96
438.96	47065.83
439.14	48868.05
439.33	49364.24
439.52	50459.61
439.70	49071.67
439.89	48811.87
440.08	47494.15
440.26	47604.16
440.45	48802.51
440.63	50742.81
440.82	51955.21
441.01	51887.34
441.19	51461.36
441.38	51849.89
441.57	52928.87
441.75	53539.75
441.94	53588.91
442.12	53048.24
442.31	54010.20
442.50	53324.43
442.68	53034.20
442.87	53214.42
443.05	52573.11
443.24	52825.89
443.43	53614.65
443.61	54443.20
443.80	54234.89
443.98	53050.58
444.17	52633.97
444.35	54475.97
444.54	54866.84
444.73	54408.09
444.91	53694.23
445.10	51863.93
445.28	50787.28
445.47	50157.68
445.65	50314.50
445.84	51086.87
446.02	52516.94
446.21	52886.74
446.39	52736.95
446.58	52399.91
446.77	53600.61
446.95	53567.84
447.14	54192.76
447.32	55501.12
447.51	54342.56
447.69	53214.42
447.88	52893.77
448.06	53366.55
448.25	53773.81
448.43	54026.59
448.62	53694.23
448.80	53457.84
448.99	53022.50
449.17	53815.94
449.36	53598.27
449.54	55007.27
449.73	54541.50
449.91	55433.25
450.10	56107.32
450.28	56568.41
450.46	56442.02
450.65	56439.68
450.83	55828.80
451.02	55515.17
451.20	55047.06
451.39	55285.79
451.57	54897.27
451.76	55461.33
451.94	54787.26
452.13	53731.68
452.31	53331.45
452.49	51447.32
452.68	51494.13
452.86	51997.34
453.05	52037.13
453.23	53251.87
453.42	53275.27
453.60	54688.96
453.78	55093.87
453.97	54164.68
454.15	54333.20
454.34	53752.74
454.52	53989.14
454.70	53301.02
454.89	53687.21
455.07	53844.02
455.26	53984.46
455.44	55054.08
455.62	55632.19
455.81	55810.07
455.99	55522.19
456.17	55201.53
456.36	55070.46
456.54	56123.71
456.73	56067.53
456.91	56493.51
457.09	56636.28
457.28	57308.02
457.46	55744.54
457.64	55868.59
457.83	54728.75
458.01	54176.38
458.19	54527.46
458.38	54930.03
458.56	56104.98
458.74	55515.17
458.93	55470.70
459.11	55650.92
459.29	54876.20
459.48	55105.57
459.66	55086.85
459.84	55466.02
460.03	56334.35
460.21	55234.30
460.39	56296.91
460.57	56163.50
460.76	56666.71
460.94	56568.41
461.12	55955.19
461.31	56198.60
461.49	56292.22
461.67	55994.98
461.85	56685.43
462.04	56760.33
462.22	57396.96
462.40	56631.60
462.59	56647.99
462.77	56666.71
462.95	56612.88
463.13	56243.07
463.32	56226.69
463.50	55817.10
463.68	55891.99
463.86	55966.89
464.05	55552.62
464.23	54946.42
464.41	54855.14
464.59	54415.11
464.78	55880.29
464.96	55370.05
465.14	55299.84
465.32	55943.48
465.50	56692.46
465.69	56685.43
465.87	56214.99
466.05	56116.68
466.23	54569.59
466.41	53673.16
466.60	54342.56
466.78	54384.69
466.96	55096.21
467.14	55217.92
467.32	55826.46
467.51	55742.20
467.69	54099.14
467.87	55164.09
468.05	55346.65
468.23	55576.02
468.41	55725.81
468.60	55306.86
468.78	55597.09
468.96	55435.59
469.14	55901.36
469.32	56076.90
469.50	54471.29
469.69	55084.51
469.87	54642.15
470.05	54045.31
470.23	54279.36
470.41	54377.67
470.59	54649.17
470.77	54632.78
470.95	55288.13
471.14	55704.75
471.32	55772.63
471.50	57607.61
471.68	57427.38
471.86	56842.25
472.04	57450.79
472.22	57490.58
472.40	56156.47
472.58	56257.12
472.77	55702.41
472.95	56601.18
473.13	57127.80
473.31	56348.40
473.49	56055.83
473.67	56603.52
473.85	57029.49
474.03	57705.91
474.21	57235.46
474.39	58049.97
474.57	58134.23
474.75	58150.61
474.93	57361.85
475.12	56884.38
475.30	56734.59
475.48	57226.10
475.66	57736.34
475.84	57319.72
476.02	57139.50
476.20	56608.20
476.38	57240.14
476.56	57425.04
476.74	57705.91
476.92	58681.91
477.10	58850.43
477.28	59515.14
477.46	59526.84
477.64	59009.59
477.82	59667.28
478.00	59941.12
478.18	59260.02
478.36	59571.32
478.54	59449.61
478.72	59590.04
478.90	59826.43
479.08	60896.06
479.26	60736.90
479.44	60788.39
479.62	60493.49
479.80	60811.80
479.98	60764.99
480.16	60846.91
480.34	60921.80
480.52	60676.05
480.70	61137.13
480.88	61214.37
481.06	61467.15
481.24	61759.72
481.41	62148.24
481.59	62721.68
481.77	62536.77
481.95	62042.92
482.13	61986.75
482.31	61815.89
482.49	62454.86
482.67	62059.30
482.85	62433.79
483.03	62801.25
483.21	63025.95
483.39	63149.99
483.57	62319.10
483.74	61911.85
483.92	62464.22
484.10	61773.76
484.28	62707.63
484.46	63260.00
484.64	63559.59
484.82	62976.79
485.00	62625.71
485.18	62356.55
485.35	61595.88
485.53	59405.14
485.71	57806.55
485.89	56903.10
486.07	58518.07
486.25	60299.22
486.43	61773.76
486.61	62031.22
486.78	62068.67
486.96	61935.26
487.14	62995.52
487.32	63487.03
487.50	64214.94
487.68	64477.08
487.85	64425.59
488.03	65076.26
488.21	64823.48
488.39	64463.03
488.57	63824.07
488.75	63599.38
488.92	64493.46
489.10	65535.00
489.28	65535.00
489.46	65535.00
489.64	65535.00
489.81	65535.00
489.99	65535.00
490.17	65535.00
490.35	65535.00
490.53	65535.00
490.70	65535.00
490.88	65535.00
491.06	65535.00
491.24	65535.00
491.41	65535.00
491.59	65284.56
491.77	64839.86
491.95	65399.25
492.13	65535.00
492.30	65535.00
492.48	65535.00
492.66	65535.00
492.84	65535.00
493.01	65535.00
493.19	65535.00
493.37	65535.00
493.54	65535.00
493.72	65535.00
493.90	65535.00
494.08	65535.00
494.25	65535.00
494.43	65535.00
494.61	65535.00
494.79	65535.00
494.96	65535.00
495.14	65535.00
495.32	65535.00
495.49	65535.00
495.67	65535.00
495.85	65535.00
496.02	65535.00
496.20	65535.00
496.38	65535.00
496.55	65535.00
496.73	65535.00
496.91	65535.00
497.09	65535.00
497.26	65535.00
497.44	65535.00
497.62	65535.00
497.79	65535.00
497.97	65535.00
498.14	65535.00
498.32	65535.00
498.50	65535.00
498.67	65535.00
498.85	65535.00
499.03	65535.00
499.20	65535.00
499.38	65535.00
499.56	65535.00
499.73	65535.00
499.91	65535.00
500.08	65535.00
500.26	65535.00
500.44	65535.00
500.61	65535.00
500.79	65535.00
500.97	65535.00
501.14	65535.00
501.32	65535.00
501.49	65535.00
501.67	65535.00
501.84	65535.00
502.02	65535.00
502.20	65535.00
502.37	65535.00
502.55	65535.00
502.72	65535.00
502.90	65535.00
503.07	65535.00
503.25	65535.00
503.43	65535.00
503.60	65535.00
503.78	65535.00
503.95	65535.00
504.13	65535.00
504.30	65535.00
504.48	65535.00
504.65	65535.00
504.83	65535.00
505.01	65535.00
505.18	65535.00
505.36	65535.00
505.53	65535.00
505.71	65535.00
505.88	65535.00
506.06	65535.00
506.23	65535.00
506.41	65535.00
506.58	65535.00
506.76	65535.00
506.93	65535.00
507.11	65535.00
507.28	65535.00
507.46	65535.00
507.63	65535.00
507.81	65535.00
507.98	65535.00
508.16	65535.00
508.33	65535.00
508.50	65535.00
508.68	65535.00
508.85	65535.00
509.03	65535.00
509.20	65535.00
509.38	65535.00
509.55	65535.00
509.73	65535.00
509.90	65535.00
510.08	65535.00
510.25	65535.00
510.42	65535.00
510.60	65535.00
510.77	65535.00
510.95	65535.00
511.12	65535.00
511.30	65535.00
511.47	65535.00
511.64	65535.00
511.82	65535.00
511.99	65535.00
512.17	65535.00
512.34	65535.00
512.51	65535.00
512.69	65535.00
512.86	65535.00
513.04	65535.00
513.21	65535.00
513.38	65535.00
513.56	65535.00
513.73	65535.00
513.90	65535.00
514.08	65535.00
514.25	65535.00
514.43	65535.00
514.60	65535.00
514.77	65535.00
514.95	65535.00
515.12	65535.00
515.29	65535.00
515.47	65535.00
515.64	65535.00
515.81	65535.00
515.99	65535.00
516.16	65535.00
516.33	65535.00
516.51	65535.00
516.68	65535.00
516.85	65453.08
517.03	65338.40
517.20	65535.00
517.37	65535.00
517.54	65535.00
517.72	65535.00
517.89	65535.00
518.06	65535.00
518.24	65535.00
518.41	65535.00
518.58	65535.00
518.75	65535.00
518.93	65535.00
519.10	65535.00
519.27	65535.00
519.45	65535.00
519.62	65535.00
519.79	65535.00
519.96	65535.00
520.14	65535.00
520.31	65535.00
520.48	65535.00
520.65	65535.00
520.83	65535.00
521.00	65535.00
521.17	65535.00
521.34	65535.00
521.52	65535.00
521.69	65535.00
521.86	65535.00
522.03	65535.00
522.20	65535.00
522.38	65535.00
522.55	65535.00
522.72	65535.00
522.89	65535.00
523.07	65535.00
523.24	65535.00
523.41	65535.00
523.58	65535.00
523.75	65535.00
523.92	65535.00
524.10	65535.00
524.27	65535.00
524.44	65535.00
524.61	65535.00
524.78	65535.00
524.96	65535.00
525.13	65535.00
525.30	65535.00
525.47	65535.00
525.64	65535.00
525.81	65535.00
525.98	65535.00
526.16	65535.00
526.33	65535.00
526.50	65535.00
526.67	65535.00
526.84	65535.00
527.01	65535.00
527.18	65535.00
527.36	65535.00
527.53	65535.00
527.70	65535.00
527.87	65535.00
528.04	65535.00
528.21	65535.00
528.38	65535.00
528.55	65535.00
528.72	65535.00
528.89	65535.00
529.07	65535.00
529.24	65535.00
529.41	65535.00
529.58	65535.00
529.75	65535.00
529.92	65535.00
530.09	65535.00
530.26	65535.00
530.43	65535.00
530.60	65535.00
530.77	65535.00
530.94	65535.00
531.11	65535.00
531.28	65535.00
531.46	65535.00
531.63	65535.00
531.80	65535.00
531.97	65535.00
532.14	65535.00
532.31	65535.00
532.48	65535.00
532.65	65535.00
532.82	65535.00
532.99	65535.00
533.16	65535.00
533.33	65535.00
533.50	65535.00
533.67	65535.00
533.84	65535.00
534.01	65535.00
534.18	65535.00
534.35	65535.00
534.52	65535.00
534.69	65535.00
534.86	65535.00
535.03	65535.00
535.20	65535.00
535.37	65535.00
535.54	65535.00
535.71	65535.00
535.88	65535.00
536.05	65535.00
536.22	65535.00
536.38	65535.00
536.55	65535.00
536.72	65535.00
536.89	65535.00
537.06	65535.00
537.23	65535.00
537.40	65535.00
537.57	65535.00
537.74	65535.00
537.91	65535.00
538.08	65535.00
538.25	65535.00
538.42	65535.00
538.59	65535.00
538.75	65535.00
538.92	65535.00
539.09	65535.00
539.26	65535.00
539.43	65535.00
539.60	65535.00
539.77	65535.00
539.94	65535.00
540.11	65535.00
540.28	65535.00
540.44	65535.00
540.61	65535.00
540.78	65535.00
540.95	65535.00
541.12	65535.00
541.29	65535.00
541.46	65535.00
541.62	65535.00
541.79	65535.00
541.96	65535.00
542.13	65535.00
542.30	65535.00
542.47	65535.00
542.63	65535.00
542.80	65535.00
542.97	65535.00
543.14	65535.00
543.31	65535.00
543.48	65535.00
543.64	65535.00
543.81	65535.00
543.98	65535.00
544.15	65535.00
544.32	65535.00
544.48	65535.00
544.65	65535.00
544.82	65535.00
544.99	65535.00
545.16	65535.00
545.32	65535.00
545.49	65535.00
545.66	65535.00
545.83	65535.00
546.00	65535.00
546.16	65535.00
546.33	65535.00
546.50	65535.00
546.67	65535.00
546.83	65535.00
547.00	65535.00
547.17	65535.00
547.34	65535.00
547.50	65535.00
547.67	65535.00
547.84	65535.00
548.00	65535.00
548.17	65535.00
548.34	65535.00
548.51	65535.00
548.67	65535.00
548.84	65535.00
549.01	65535.00
549.18	65535.00
549.34	65535.00
549.51	65535.00
549.68	65535.00
549.84	65535.00
550.01	65535.00
550.18	65535.00
550.34	65535.00
550.51	65535.00
550.68	65535.00
550.84	65535.00
551.01	65535.00
551.18	65535.00
551.34	65535.00
551.51	65535.00
551.68	65535.00
551.84	65535.00
552.01	65535.00
552.18	65535.00
552.34	65535.00
552.51	65535.00
552.68	65535.00
552.84	65535.00
553.01	65535.00
553.18	65535.00
553.34	65535.00
553.51	65535.00
553.67	65535.00
553.84	65535.00
554.01	65535.00
554.17	65535.00
554.34	65535.00
554.51	65535.00
554.67	65535.00
554.84	65535.00
555.00	65535.00
555.17	65535.00
555.33	65535.00
555.50	65535.00
555.67	65535.00
555.83	65535.00
556.00	65535.00
556.16	65535.00
556.33	65535.00
556.50	65535.00
556.66	65535.00
556.83	65535.00
556.99	65535.00
557.16	65535.00
557.32	65535.00
557.49	65535.00
557.65	65535.00
557.82	65535.00
557.98	65535.00
558.15	65535.00
558.32	65535.00
558.48	65535.00
558.65	65535.00
558.81	65535.00
558.98	65535.00
559.14	65535.00
559.31	65535.00
559.47	65535.00
559.64	65535.00
559.80	65535.00
559.97	65535.00
560.13	65535.00
560.30	65535.00
560.46	65535.00
560.63	65535.00
560.79	65535.00
560.96	65535.00
561.12	65535.00
561.29	65535.00
561.45	65535.00
561.61	65535.00
561.78	65535.00
561.94	65535.00
562.11	65535.00
562.27	65535.00
562.44	65535.00
562.60	65535.00
562.77	65535.00
562.93	65535.00
563.10	65535.00
563.26	65535.00
563.42	65535.00
563.59	65535.00
563.75	65535.00
563.92	65535.00
564.08	65535.00
564.24	65535.00
564.41	65535.00
564.57	65535.00
564.74	65535.00
564.90	65535.00
565.07	65535.00
565.23	65535.00
565.39	65535.00
565.56	65078.60
565.72	65204.98
565.88	65535.00
566.05	65535.00
566.21	65464.78
566.38	65535.00
566.54	65366.48
566.70	65535.00
566.87	65535.00
567.03	65535.00
567.19	65535.00
567.36	65535.00
567.52	65535.00
567.68	65535.00
567.85	65223.71
568.01	64984.97
568.17	64917.10
568.34	64816.46
568.50	64797.73
568.66	64921.78
568.83	65329.03
568.99	65144.13
569.15	65535.00
569.32	65226.05
569.48	65174.56
569.64	65052.85
569.81	64472.40
569.97	64310.90
570.13	64460.69
570.30	64247.71
570.46	63887.26
570.62	63480.01
570.78	63405.11
570.95	63346.60
571.11	64008.97
571.27	64266.43
571.43	64156.42
571.60	64741.56
571.76	64350.69
571.92	65120.73
572.09	65284.56
572.25	65090.30
572.41	64900.71
572.57	64935.82
572.74	65111.36
572.90	64530.91
573.06	64643.26
573.22	64589.42
573.38	64582.40
573.55	64612.83
573.71	64924.12
573.87	64935.82
574.03	64360.05
574.20	64530.91
574.36	64308.56
574.52	64093.23
574.68	63749.17
574.84	63938.75
575.01	63458.94
575.17	63178.08
575.33	63625.12
575.49	63845.13
575.65	63870.88
575.82	63770.24
575.98	63716.40
576.14	63592.36
576.30	64207.92
576.46	64488.78
576.62	64706.45
576.79	64177.49
576.95	63735.13
577.11	63695.34
577.27	63999.61
577.43	64013.65
577.59	63222.55
577.75	63245.96
577.92	62632.74
578.08	62106.12
578.24	62583.58
578.40	63203.83
578.56	63039.99
578.72	63480.01
578.88	63508.10
579.04	63093.82
579.21	63435.54
579.37	63236.59
579.53	63597.04
579.69	63248.30
579.85	63498.73
580.01	63227.23
580.17	62815.30
580.33	62684.23
580.49	62922.96
580.65	63222.55
580.82	63575.97
580.98	62892.54
581.14	63318.51
581.30	63339.58
581.46	63168.72
581.62	63678.96
581.78	63159.36
581.94	63685.98
582.10	63220.21
582.26	63365.32
582.42	63505.76
582.58	63472.99
582.74	63337.24
582.90	63615.76
583.06	63524.48
583.22	63133.61
583.38	63154.68
583.54	63447.24
583.70	63531.50
583.86	63306.81
