SpectraSuite Data File
++++++++++++++++++++++++++++++++++++
Date: Mon Oct 07 14:53:46 GMT-05:00 2013
User: price-jones
Dark Spectrum Present: No
Reference Spectrum Present: No
Number of Sampled Component Spectra: 1
Spectrometers: USB2+H05261
Integration Time (usec): 100000 (USB2+H05261)
Spectra Averaged: 1 (USB2+H05261)
Boxcar Smoothing: 0 (USB2+H05261)
Correct for Electrical Dark: No (USB2+H05261)
Strobe/Lamp Enabled: No (USB2+H05261)
Correct for Detector Non-linearity: No (USB2+H05261)
Correct for Stray Light: No (USB2+H05261)
Number of Pixels in Processed Spectrum: 2048
>>>>>Begin Processed Spectral Data<<<<<
365.73	0.00
365.92	0.00
366.12	0.00
366.32	0.00
366.52	0.00
366.72	0.00
366.91	0.00
367.11	0.00
367.31	0.00
367.51	0.00
367.70	0.00
367.90	0.00
368.10	0.00
368.30	0.00
368.49	0.00
368.69	0.00
368.89	0.00
369.09	0.00
369.28	0.00
369.48	0.00
369.68	0.00
369.87	0.00
370.07	0.00
370.27	0.00
370.47	627.26
370.66	3054.40
370.86	3714.43
371.06	3990.61
371.25	4063.17
371.45	3730.81
371.65	3318.88
371.84	3126.96
372.04	3344.63
372.24	3543.57
372.44	3796.35
372.63	3506.12
372.83	3475.70
373.03	3042.70
373.22	2841.41
373.42	2916.31
373.62	3405.48
373.81	3644.21
374.01	3681.66
374.21	3382.07
374.40	3061.42
374.60	3251.00
374.79	3644.21
374.99	4210.62
375.19	4660.01
375.38	4564.04
375.58	4297.22
375.78	4271.48
375.97	4234.03
376.17	4533.62
376.37	4552.34
376.56	4594.47
376.76	4631.92
376.95	5200.67
377.15	5437.06
377.35	5600.90
377.54	5919.21
377.74	6019.86
377.93	6040.92
378.13	5961.34
378.33	5586.86
378.52	5128.11
378.72	4844.91
378.91	4945.55
379.11	4760.65
379.31	4648.30
379.50	4589.79
379.70	4858.95
379.89	5481.53
380.09	5778.78
380.28	5881.77
380.48	5970.71
380.68	5923.90
380.87	5809.21
381.07	5404.30
381.26	4821.50
381.46	4664.69
381.65	4535.96
381.85	4449.36
382.04	4091.26
382.24	3868.91
382.43	3702.73
382.63	3569.32
382.83	3712.09
383.02	3653.58
383.22	3609.11
383.41	3667.62
383.61	3988.27
383.80	4402.55
384.00	5149.18
384.19	5612.60
384.39	5977.73
384.58	6005.81
384.78	5750.70
384.97	5921.56
385.17	5408.98
385.36	5226.42
385.56	4959.60
385.75	5011.09
385.95	5593.88
386.14	6251.57
386.34	6296.04
386.53	5799.85
386.72	5577.50
386.92	5558.77
387.11	5940.28
387.31	6092.41
387.50	6029.22
387.70	5753.04
387.89	5827.93
388.09	5874.74
388.28	5797.51
388.48	5984.75
388.67	6424.77
388.86	6935.01
389.06	7351.62
389.25	7721.43
389.45	7845.48
389.64	8013.99
389.84	7658.23
390.03	7599.72
390.22	7747.17
390.42	8163.79
390.61	8325.29
390.81	9039.15
391.00	9345.76
391.19	8975.95
391.39	8858.93
391.58	8102.93
391.78	7786.96
391.97	7791.64
392.16	7094.16
392.36	6567.54
392.55	5224.08
392.75	4166.15
392.94	3421.86
393.13	3314.20
393.33	4039.76
393.52	4961.94
393.71	6413.07
393.91	6895.22
394.10	7489.71
394.29	8278.47
394.49	8957.23
394.68	9645.35
394.88	9617.26
395.07	9937.91
395.26	9762.37
395.46	9575.13
395.65	9036.81
395.84	8086.55
396.04	6892.88
396.23	5371.53
396.42	4636.60
396.62	4299.56
396.81	5102.37
397.00	6370.94
397.19	8086.55
397.39	9935.57
397.58	10902.22
397.77	11527.14
397.97	12044.40
398.16	12205.89
398.35	12723.15
398.55	13020.40
398.74	13516.59
398.93	13617.24
399.12	13708.52
399.32	13025.08
399.51	13411.27
399.70	14436.42
399.90	14216.41
400.09	14188.33
400.28	13884.06
400.47	14171.94
400.67	14778.14
400.86	15187.74
401.05	15311.78
401.24	15190.08
401.44	15325.83
401.63	15529.45
401.82	15740.10
402.01	15503.71
402.21	15819.68
402.40	16095.86
402.59	15562.22
402.78	14743.03
402.97	14394.29
403.17	14534.73
403.36	15974.16
403.55	16409.50
403.74	16657.59
403.93	15971.82
404.13	14855.38
404.32	14230.46
404.51	15035.60
404.70	16224.59
404.89	15988.20
405.09	15777.55
405.28	15623.08
405.47	15204.12
405.66	15487.32
405.85	15080.07
406.05	14780.48
406.24	14562.81
406.43	15452.22
406.62	15747.12
406.81	16194.17
407.00	15737.76
407.20	15370.30
407.39	15339.87
407.58	15845.43
407.77	16582.70
407.96	17224.00
408.15	17570.40
408.34	17216.98
408.54	18333.42
408.73	18331.08
408.92	18115.75
409.11	17649.98
409.30	16460.99
409.49	15545.84
409.68	14682.18
409.87	14408.34
410.07	15133.90
410.26	16184.80
410.45	17479.12
410.64	17720.20
410.83	18291.29
411.02	18698.54
411.21	19442.83
411.40	19339.85
411.59	19332.82
411.78	19271.97
411.98	18902.17
412.17	19407.72
412.36	18761.73
412.55	18909.19
412.74	18546.40
412.93	18162.56
413.12	18281.92
413.31	19990.52
413.50	20156.69
413.69	20695.02
413.88	20163.72
414.07	19503.68
414.26	19529.43
414.45	20343.94
414.64	20245.63
414.83	20498.41
415.02	19974.13
415.22	19786.89
415.41	20470.33
415.60	21064.82
415.79	21535.27
415.98	22324.03
416.17	22099.34
416.36	21591.44
416.55	21465.05
416.74	20800.34
416.93	20030.30
417.12	19939.02
417.31	20458.62
417.50	20936.09
417.69	21476.76
417.88	21638.25
418.07	21167.80
418.26	21102.27
418.45	20910.35
418.64	21713.15
418.83	22441.06
419.02	22438.72
419.21	22045.51
419.39	21032.05
419.58	19964.77
419.77	20236.27
419.96	21020.35
420.15	21673.36
420.34	22995.76
420.53	23459.19
420.72	24285.40
420.91	23819.63
421.10	23236.84
421.29	23260.24
421.48	22501.91
421.67	23948.36
421.86	22988.74
422.05	21397.18
422.24	19293.04
422.43	18834.29
422.61	20978.22
422.80	22918.53
422.99	22852.99
423.18	22356.80
423.37	21399.52
423.56	21710.81
423.75	21881.67
423.94	22338.07
424.13	21259.09
424.32	21341.00
424.50	21514.20
424.69	20912.69
424.88	21362.07
425.07	21184.19
425.26	21481.44
425.45	20936.09
425.64	20807.36
425.83	20648.21
426.01	21858.26
426.20	22235.09
426.39	22518.29
426.58	20905.66
426.77	19042.60
426.96	18511.30
427.15	18965.36
427.33	20615.44
427.52	21539.95
427.71	21600.80
427.90	21516.54
428.09	21280.15
428.28	20917.37
428.46	20423.51
428.65	19496.66
428.84	20231.59
429.03	20554.58
429.22	19555.18
429.40	18726.63
429.59	16849.52
429.78	14766.44
429.97	14724.31
430.16	15108.16
430.34	15215.82
430.53	14951.34
430.72	15424.13
430.91	17011.01
431.10	19726.04
431.28	23569.19
431.47	25579.71
431.66	25628.87
431.85	23445.15
432.03	21923.80
432.22	20568.63
432.41	21177.17
432.60	24100.50
432.79	24573.28
432.97	25399.49
433.16	24720.74
433.35	22946.61
433.54	20409.47
433.72	19126.86
433.91	20049.03
434.10	21989.33
434.28	23688.56
434.47	24788.61
434.66	24713.72
434.85	23962.40
435.03	23941.34
435.22	24425.83
435.41	25907.39
435.59	25392.47
435.78	26221.02
435.97	26199.96
436.16	27295.33
436.34	26572.10
436.53	26185.91
436.72	26092.29
436.90	24699.67
437.09	24575.62
437.28	24514.77
437.46	25221.61
437.65	25179.48
437.84	23440.47
438.02	21373.77
438.21	21039.08
438.40	22331.05
438.58	24556.90
438.77	24940.75
438.96	25177.14
439.14	26389.54
439.33	26927.86
439.52	27496.61
439.70	26965.31
439.89	26225.70
440.08	25546.95
440.26	25331.62
440.45	26129.74
440.63	27880.46
440.82	29502.45
441.01	29099.88
441.19	28561.56
441.38	28959.45
441.57	30553.35
441.75	30953.58
441.94	30749.96
442.12	30665.70
442.31	31288.28
442.50	31332.75
442.68	30726.55
442.87	30321.64
443.05	29846.51
443.24	30445.69
443.43	31019.12
443.61	31885.12
443.80	32460.89
443.98	30342.70
444.17	30136.74
444.35	31765.75
444.54	32343.86
444.73	31920.23
444.91	30778.04
445.10	29741.19
445.28	28245.58
445.47	28039.62
445.65	28154.30
445.84	28926.68
446.02	30307.60
446.21	30422.28
446.39	30501.86
446.58	30878.69
446.77	31283.60
446.95	31417.01
447.14	32638.77
447.32	33027.30
447.51	32100.45
447.69	31126.78
447.88	30794.43
448.06	30834.22
448.25	31791.50
448.43	32210.45
448.62	31679.15
448.80	31477.86
448.99	31531.70
449.17	31206.36
449.36	31751.71
449.54	32966.45
449.73	33542.22
449.91	34092.24
450.10	34864.62
450.28	34852.92
450.46	35253.15
450.65	35489.54
450.83	34682.06
451.02	33656.90
451.20	33504.77
451.39	33603.07
451.57	33291.78
451.76	33876.91
451.94	33502.43
452.13	32903.25
452.31	31402.97
452.49	29813.74
452.68	30265.47
452.86	30492.50
453.05	30953.58
453.23	31541.06
453.42	32350.88
453.60	32793.25
453.78	33432.21
453.97	32989.85
454.15	33376.04
454.34	32713.67
454.52	32503.02
454.70	31821.92
454.89	32474.93
455.07	32500.68
455.26	32996.87
455.44	34096.92
455.62	34288.85
455.81	34565.03
455.99	34480.77
456.17	34052.45
456.36	34335.66
456.54	35178.25
456.73	35384.22
456.91	36163.62
457.09	35742.32
457.28	36430.44
457.46	35346.77
457.64	34925.47
457.83	33635.84
458.01	32886.87
458.19	33809.04
458.38	34448.00
458.56	35215.70
458.74	35578.48
458.93	34078.20
459.11	34249.06
459.29	34302.89
459.48	34513.54
459.66	34270.12
459.84	34527.58
460.03	35056.54
460.21	35112.72
460.39	36205.75
460.57	35594.87
460.76	36285.33
460.94	36720.66
461.12	36032.55
461.31	36114.47
461.49	35873.39
461.67	35714.23
461.85	36933.65
462.04	36620.02
462.22	37256.65
462.40	36851.73
462.59	36842.37
462.77	36844.71
462.95	36727.69
463.13	36531.08
463.32	35754.02
463.50	35812.54
463.68	35892.12
463.86	35704.87
464.05	35548.06
464.23	34862.28
464.41	34801.43
464.59	33991.60
464.78	35969.35
464.96	35906.16
465.14	35349.11
465.32	36086.38
465.50	36631.72
465.69	36968.76
465.87	36402.35
466.05	35742.32
466.23	34136.71
466.41	33462.64
466.60	34312.25
466.78	34043.09
466.96	34759.30
467.14	35634.66
467.32	35952.97
467.51	35873.39
467.69	34466.73
467.87	34991.01
468.05	35021.44
468.23	35721.26
468.41	36044.25
468.60	35384.22
468.78	36257.24
468.96	35566.78
469.14	36690.24
469.32	36203.41
469.50	35688.49
469.69	35267.19
469.87	34480.77
470.05	34780.36
470.23	34354.38
470.41	34595.46
470.59	35416.99
470.77	35180.59
470.95	35611.25
471.14	36706.62
471.32	36655.13
471.50	38653.95
471.68	39082.27
471.86	38906.73
472.04	39030.77
472.22	39241.42
472.40	37729.44
472.58	37453.25
472.77	36495.97
472.95	37544.53
473.13	38232.65
473.31	37191.11
473.49	37266.01
473.67	38141.37
473.85	38588.41
474.03	39461.43
474.21	39634.63
474.39	40032.52
474.57	39948.26
474.75	40053.59
474.93	39735.27
475.12	38756.93
475.30	39138.44
475.48	39023.75
475.66	39569.10
475.84	39271.85
476.02	39108.01
476.20	38260.74
476.38	38953.54
476.56	39959.97
476.74	40912.56
476.92	40816.60
477.10	41556.21
477.28	42930.11
477.46	42880.95
477.64	42754.57
477.82	43299.91
478.00	43583.12
478.18	42288.80
478.36	42440.93
478.54	42845.85
478.72	42782.65
478.90	43672.06
479.08	45038.93
479.26	44978.07
479.44	45139.57
479.62	44729.98
479.80	44538.05
479.98	45514.06
480.16	46129.62
480.34	45146.59
480.52	45111.49
480.70	45748.11
480.88	45675.55
481.06	46621.13
481.24	46319.20
481.41	47683.73
481.59	48200.99
481.77	48004.39
481.95	47613.52
482.13	47419.25
482.31	47531.60
482.49	48268.87
482.67	47789.06
482.85	48032.47
483.03	48683.14
483.21	49113.80
483.39	49153.59
483.57	48114.39
483.74	47889.70
483.92	47969.28
484.10	48250.14
484.28	49308.07
484.46	49275.30
484.64	50265.34
484.82	49092.74
485.00	49071.67
485.18	47831.19
485.35	46457.29
485.53	43690.78
485.71	40044.23
485.89	39335.04
486.07	41102.15
486.25	44591.89
486.43	47222.65
486.61	47847.57
486.78	47632.24
486.96	47665.01
487.14	49434.45
487.32	50092.15
487.50	51442.63
487.68	51870.95
487.85	52662.05
488.03	52495.88
488.21	52140.11
488.39	51194.54
488.57	51026.02
488.75	50365.99
488.92	51554.98
489.10	53783.17
489.28	54724.07
489.46	55367.71
489.64	54958.12
489.81	55381.76
489.99	55051.74
490.17	55086.85
490.35	55360.69
490.53	55018.97
490.70	54684.28
490.88	54351.92
491.06	55456.65
491.24	55334.95
491.41	54234.89
491.59	53109.10
491.77	52198.63
491.95	53308.04
492.13	54239.57
492.30	55388.78
492.48	56119.02
492.66	56657.35
492.84	56706.50
493.01	56481.81
493.19	55959.87
493.37	55650.92
493.54	55402.82
493.72	56025.40
493.90	56980.34
494.08	57558.45
494.25	57928.26
494.43	58080.39
494.61	58326.15
494.79	58646.80
494.96	58396.37
495.14	57750.38
495.32	56804.80
495.49	56339.04
495.67	57291.63
495.85	58424.45
496.02	58733.40
496.20	58745.11
496.38	58244.23
496.55	58138.91
496.73	58864.47
496.91	58583.61
497.09	59491.74
497.26	59391.09
497.44	58958.09
497.62	58590.63
497.79	57911.88
497.97	56638.62
498.14	56851.61
498.32	57778.46
498.50	58637.44
498.67	59262.36
498.85	59014.27
499.03	59150.02
499.20	59381.73
499.38	59449.61
499.56	59133.63
499.73	58761.49
499.91	58379.98
500.08	58150.61
500.26	57326.74
500.44	57818.25
500.61	58342.53
500.79	58082.73
500.97	58005.50
501.14	57778.46
501.32	57504.62
501.49	57846.34
501.67	57717.61
501.84	58534.46
502.02	58539.14
502.20	58700.64
502.37	59009.59
502.55	58965.12
502.72	59664.94
502.90	59896.65
503.07	59489.40
503.25	59100.87
503.43	58616.38
503.60	58138.91
503.78	57401.64
503.95	57961.03
504.13	59056.40
504.30	59828.77
504.48	59583.02
504.65	59458.97
504.83	59316.20
505.01	59934.10
505.18	60191.56
505.36	60802.44
505.53	60736.90
505.71	61055.21
505.88	61146.50
506.06	60657.32
506.23	60219.64
506.41	59828.77
506.58	60104.96
506.76	60011.34
506.93	60062.83
507.11	59636.85
507.28	59725.79
507.46	59550.25
507.63	59119.59
507.81	58848.09
507.98	59180.45
508.16	59615.79
508.33	60229.01
508.50	60610.51
508.68	60811.80
508.85	61034.15
509.03	61247.14
509.20	60982.66
509.38	60409.23
509.55	59580.68
509.73	59751.54
509.90	60292.20
510.08	60395.18
510.25	60339.01
510.42	60229.01
510.60	60212.62
510.77	60322.63
510.95	60811.80
511.12	61022.45
511.30	61261.18
511.47	61556.09
511.64	61513.96
511.82	61324.38
511.99	60474.76
512.17	60041.76
512.34	59737.49
512.51	60081.55
512.69	59866.22
512.86	60065.17
513.04	60437.31
513.21	60544.98
513.38	60072.19
513.56	59576.00
513.73	58962.78
513.90	59337.26
514.08	59473.01
514.25	59704.73
514.43	59863.88
514.60	60027.72
514.77	60252.41
514.95	60268.79
515.12	60100.28
515.29	60273.48
515.47	60851.59
515.64	61146.50
515.81	60580.09
515.99	60268.79
516.16	59007.25
516.33	56715.86
516.51	55330.26
516.68	54724.07
516.85	54206.81
517.03	54468.95
517.20	56875.02
517.37	59330.24
517.54	60179.85
517.72	59889.63
517.89	57663.78
518.06	55288.13
518.24	55571.34
518.41	57553.77
518.58	58958.09
518.75	59054.06
518.93	59234.28
519.10	59000.22
519.27	59615.79
519.45	59678.98
519.62	60502.85
519.79	60786.05
519.96	60734.56
520.14	60041.76
520.31	59346.62
520.48	59496.42
520.65	59606.42
520.83	60441.99
521.00	60956.91
521.17	60516.89
521.34	60233.69
521.52	60456.04
521.69	61001.38
521.86	61520.98
522.03	61207.35
522.20	59948.14
522.38	58965.12
522.55	58918.31
522.72	59742.17
522.89	59779.62
523.07	59948.14
523.24	60334.33
523.41	60938.19
523.58	61380.55
523.75	61691.84
523.92	61605.24
524.10	61506.94
524.27	61729.29
524.44	61237.78
524.61	61073.94
524.78	60818.82
524.96	60996.70
525.13	60846.91
525.30	60980.32
525.47	61476.51
525.64	61488.21
525.81	60940.53
525.98	59714.09
526.16	58181.04
526.33	57626.33
526.50	57523.35
526.67	56912.47
526.84	57792.51
527.01	58333.17
527.18	59126.61
527.36	60006.65
527.53	60776.69
527.70	61132.45
527.87	60654.98
528.04	60133.04
528.21	60573.06
528.38	61179.26
528.55	61776.10
528.72	61921.21
528.89	62085.05
529.07	62019.52
529.24	61394.59
529.41	60596.47
529.58	60081.55
529.75	60350.71
529.92	60706.47
530.09	61188.63
530.26	61371.19
530.43	61621.62
530.60	61731.63
530.77	62115.48
530.94	62211.44
531.11	61530.34
531.28	61420.34
531.46	61148.84
531.63	61326.72
531.80	61132.45
531.97	60872.65
532.14	60062.83
532.31	59194.49
532.48	58478.28
532.65	58354.24
532.82	59325.56
532.99	60254.75
533.16	60676.05
533.33	61410.98
533.50	60963.93
533.67	60484.12
533.84	59924.74
534.01	60500.51
534.18	60463.06
534.35	60643.28
534.52	60402.21
534.69	60570.72
534.86	60900.74
535.03	61176.92
535.20	61525.66
535.37	61949.30
535.54	61991.43
535.71	61670.78
535.88	61453.11
536.05	60919.46
536.22	60470.08
536.38	60121.34
536.55	59891.97
536.72	59447.27
536.89	59150.02
537.06	59927.08
537.23	60755.63
537.40	61116.07
537.57	60994.36
537.74	60662.00
537.91	60781.37
538.08	60554.34
538.25	60732.22
538.42	60772.01
538.59	60802.44
538.75	59990.27
538.92	60001.97
539.09	59828.77
539.26	59524.50
539.43	59536.21
539.60	59522.16
539.77	59721.11
539.94	59749.20
540.11	58990.86
540.28	58438.50
540.44	58326.15
540.61	58719.36
540.78	58838.73
540.95	59498.76
541.12	59517.48
541.29	59945.80
541.46	60097.94
541.62	60261.77
541.79	60238.37
541.96	59625.15
542.13	59384.07
542.30	59985.59
542.47	60006.65
542.63	59554.93
542.80	59463.65
542.97	59503.44
543.14	59400.46
543.31	59484.72
543.48	59948.14
543.64	60746.26
543.81	61013.08
543.98	60823.50
544.15	60121.34
544.32	59580.68
544.48	59625.15
544.65	60044.10
544.82	60500.51
544.99	60023.04
545.16	59760.90
545.32	59557.27
545.49	60383.48
545.66	60762.65
545.83	60381.14
546.00	59903.67
546.16	59583.02
546.33	59721.11
546.50	60030.06
546.67	60231.35
546.83	59920.05
547.00	59945.80
547.17	59337.26
547.34	58674.89
547.50	58754.47
547.67	59107.89
547.84	59264.70
548.00	59419.18
548.17	59770.26
548.34	59891.97
548.51	59945.80
548.67	59756.22
548.84	60065.17
549.01	59807.71
549.18	59711.75
549.34	59702.38
549.51	59611.10
549.68	59686.00
549.84	59433.22
550.01	59484.72
550.18	59117.25
550.34	59306.83
550.51	59339.60
550.68	59402.80
550.84	59077.46
551.01	59049.38
551.18	59126.61
551.34	59089.16
551.51	59512.80
551.68	59957.50
551.84	59934.10
552.01	59599.40
552.18	59444.93
552.34	58838.73
552.51	58351.90
552.68	58106.14
552.84	59058.74
553.01	58845.75
553.18	58862.13
553.34	59126.61
553.51	59222.58
553.67	59587.70
553.84	59606.42
554.01	59475.35
554.17	59128.95
554.34	59384.07
554.51	59391.09
554.67	59758.56
554.84	59515.14
555.00	59351.30
555.17	59016.61
555.33	58815.32
555.50	59058.74
555.67	59075.12
555.83	58817.66
556.00	58653.82
556.16	58595.31
556.33	58166.99
556.50	57794.85
556.66	58047.63
556.83	57703.57
556.99	58164.65
557.16	58347.21
557.32	58372.96
557.49	58571.91
557.65	58466.58
557.82	58272.32
557.98	58288.70
558.15	58047.63
558.32	57169.93
558.48	56257.12
558.65	56423.29
558.81	56919.49
558.98	57186.31
559.14	57415.68
559.31	57474.20
559.47	57598.24
559.64	57214.40
559.80	57001.41
559.97	56746.29
560.13	57279.93
560.30	57916.56
560.46	58562.54
560.63	58710.00
560.79	58667.87
560.96	58583.61
561.12	57506.96
561.29	56659.69
561.45	56697.14
561.61	57017.79
561.78	57549.09
561.94	57556.11
562.11	57411.00
562.27	57434.41
562.44	57551.43
562.60	57642.71
562.77	57932.94
562.93	57757.40
563.10	57867.40
563.26	57162.90
563.42	57439.09
563.59	57242.48
563.75	57034.17
563.92	57261.21
564.08	57120.77
564.24	57380.57
564.41	57602.92
564.57	57127.80
564.74	57350.15
564.90	57144.18
565.07	57104.39
565.23	56530.96
565.39	56395.21
565.56	55683.69
565.72	55576.02
565.88	55978.59
566.05	56079.24
566.21	56463.08
566.38	56559.05
566.54	56542.66
566.70	56886.72
566.87	57153.54
567.03	57179.29
567.19	57460.15
567.36	57195.67
567.52	56868.00
567.68	56530.96
567.85	56212.65
568.01	55938.80
568.17	55341.97
568.34	55386.44
568.50	55449.63
568.66	55686.03
568.83	55831.14
568.99	55650.92
569.15	56067.53
569.32	56210.31
569.48	55863.91
569.64	55667.30
569.81	55276.43
569.97	55365.37
570.13	55306.86
570.30	54878.54
570.46	54450.22
570.62	53925.94
570.78	53794.87
570.95	54014.88
571.11	54855.14
571.27	54780.24
571.43	55260.05
571.60	55426.23
571.76	55681.34
571.92	55980.93
572.09	55994.98
572.25	56093.28
572.41	55899.01
572.57	55875.61
572.74	55994.98
572.90	55524.53
573.06	55487.08
573.22	55779.65
573.38	55639.22
573.55	55449.63
573.71	55545.59
573.87	55763.26
574.03	55290.48
574.20	55398.14
574.36	55056.42
574.52	54672.57
574.68	54691.30
574.84	54293.41
575.01	53839.34
575.17	53921.26
575.33	53970.41
575.49	54457.24
575.65	54443.20
575.82	54174.04
575.98	54326.17
576.14	54284.04
576.30	54501.71
576.46	54726.41
576.62	54588.31
576.79	54862.16
576.95	54511.08
577.11	54319.15
577.27	54412.77
577.43	54525.12
577.59	53848.71
577.75	53406.34
577.92	53113.78
578.08	52811.85
578.24	53041.22
578.40	53277.61
578.56	53640.40
578.72	53502.31
578.88	53783.17
579.04	53673.16
579.21	53890.83
579.37	53759.76
579.53	53923.60
579.69	54134.25
579.85	54405.75
580.01	54110.85
580.17	53621.67
580.33	53504.65
580.49	53570.18
580.65	54021.90
580.82	54103.82
580.98	54042.97
581.14	53827.64
581.30	53865.09
581.46	53633.38
581.62	54071.06
581.78	53813.60
581.94	54141.27
582.10	54017.22
582.26	53771.47
582.42	54209.15
582.58	54113.19
582.74	54068.72
582.90	54057.01
583.06	54066.38
583.22	53616.99
583.38	53525.71
583.54	53755.08
583.70	53748.06
583.86	53722.32
584.02	53680.19
584.18	53829.98
584.34	53668.48
584.50	53418.05
584.66	53371.24
584.82	53050.58
584.98	52989.73
585.14	52397.57
585.30	51910.74
