SpectraSuite Data File
++++++++++++++++++++++++++++++++++++
Date: Mon Oct 07 14:54:57 GMT-05:00 2013
User: price-jones
Dark Spectrum Present: No
Reference Spectrum Present: No
Number of Sampled Component Spectra: 1
Spectrometers: USB2+H05261
Integration Time (usec): 10000 (USB2+H05261)
Spectra Averaged: 1 (USB2+H05261)
Boxcar Smoothing: 0 (USB2+H05261)
Correct for Electrical Dark: No (USB2+H05261)
Strobe/Lamp Enabled: No (USB2+H05261)
Correct for Detector Non-linearity: No (USB2+H05261)
Correct for Stray Light: No (USB2+H05261)
Number of Pixels in Processed Spectrum: 2048
>>>>>Begin Processed Spectral Data<<<<<
365.73	0.00
365.92	0.00
366.12	0.00
366.32	0.00
366.52	0.00
366.72	0.00
366.91	0.00
367.11	0.00
367.31	0.00
367.51	0.00
367.70	0.00
367.90	0.00
368.10	0.00
368.30	0.00
368.49	0.00
368.69	0.00
368.89	0.00
369.09	0.00
369.28	0.00
369.48	0.00
369.68	0.00
369.87	0.00
370.07	0.00
370.27	0.00
370.47	46.81
370.66	1338.79
370.86	1600.93
371.06	1729.66
371.25	1703.91
371.45	1554.12
371.65	1343.47
371.84	1364.53
372.04	1364.53
372.24	1603.27
372.44	1764.76
372.63	1631.35
372.83	1504.96
373.03	1294.32
373.22	1228.78
373.42	1355.17
373.62	1678.16
373.81	1717.95
374.01	1516.67
374.21	1439.43
374.40	1179.63
374.60	1427.73
374.79	1703.91
374.99	1968.39
375.19	2104.14
375.38	2029.24
375.58	1991.80
375.78	1956.69
375.97	1949.67
376.17	2022.22
376.37	2066.69
376.56	2071.37
376.76	2232.87
376.95	2387.35
377.15	2459.90
377.35	2717.36
377.54	2792.26
377.74	2759.49
377.93	2682.25
378.13	2672.89
378.33	2457.56
378.52	2352.24
378.72	2181.38
378.91	2193.08
379.11	2101.80
379.31	2024.56
379.50	2010.52
379.70	2331.17
379.89	2544.16
380.09	2567.57
380.28	2782.90
380.48	2619.06
380.68	2689.28
380.87	2396.71
381.07	2146.27
381.26	2054.99
381.46	2083.08
381.65	1942.64
381.85	1909.88
382.04	1795.19
382.24	1633.69
382.43	1544.75
382.63	1481.56
382.83	1575.18
383.02	1610.29
383.22	1547.09
383.41	1474.54
383.61	1647.74
383.80	2031.58
384.00	2438.84
384.19	2572.25
384.39	2609.70
384.58	2782.90
384.78	2551.18
384.97	2581.61
385.17	2321.81
385.36	2310.11
385.56	2253.94
385.75	2317.13
385.95	2513.74
386.14	2663.53
386.34	2672.89
386.53	2558.21
386.72	2406.07
386.92	2485.65
387.11	2717.36
387.31	2827.37
387.50	2747.79
387.70	2590.97
387.89	2600.34
388.09	2527.78
388.28	2579.27
388.48	2579.27
388.67	2888.22
388.86	3272.07
389.06	3503.78
389.25	3618.47
389.45	3613.79
389.64	3463.99
389.84	3431.23
390.03	3524.85
390.22	3510.80
390.42	3646.55
390.61	3892.31
390.81	4117.00
391.00	4072.53
391.19	4028.06
391.39	3978.91
391.58	3543.57
391.78	3543.57
391.97	3363.35
392.16	3012.27
392.36	2729.06
392.55	2172.02
392.75	1678.16
392.94	1399.64
393.13	1561.14
393.33	1879.45
393.52	2452.88
393.71	2864.82
393.91	3236.96
394.10	3496.76
394.29	3871.25
394.49	4079.55
394.68	4468.08
394.88	4360.42
395.07	4355.74
395.26	4493.83
395.46	4248.07
395.65	3932.10
395.84	3445.27
396.04	2710.34
396.23	2207.13
396.42	1802.21
396.62	1984.77
396.81	2466.92
397.00	3141.00
397.19	4011.68
397.39	4472.76
397.58	5034.49
397.77	5160.88
397.97	5425.36
398.16	5380.89
398.35	5799.85
398.55	5963.68
398.74	6183.70
398.93	6246.89
399.12	6005.81
399.32	6099.44
399.51	6097.10
399.70	6546.48
399.90	6363.92
400.09	6312.42
400.28	6492.65
400.47	6523.07
400.67	6757.13
400.86	6916.28
401.05	6827.34
401.24	6780.53
401.44	7016.93
401.63	7131.61
401.82	7110.55
402.01	7220.55
402.21	7250.98
402.40	7094.16
402.59	6857.77
402.78	6497.33
402.97	6434.13
403.17	6707.98
403.36	7009.90
403.55	7407.80
403.74	7410.14
403.93	6890.54
404.13	6408.39
404.32	6401.37
404.51	6935.01
404.70	7243.96
404.89	7265.02
405.09	7075.44
405.28	6911.60
405.47	6995.86
405.66	6960.75
405.85	6869.47
406.05	6466.90
406.24	6883.52
406.43	7295.45
406.62	6944.37
406.81	7042.67
407.00	6991.18
407.20	6729.04
407.39	6740.74
407.58	7304.81
407.77	7576.31
407.96	7552.91
408.15	7782.28
408.34	7885.26
408.54	8210.60
408.73	8238.69
408.92	8037.40
409.11	7555.25
409.30	7403.11
409.49	6906.92
409.68	6590.95
409.87	6628.40
410.07	7030.97
410.26	7473.33
410.45	7768.24
410.64	8175.49
410.83	8329.97
411.02	8599.13
411.21	8753.60
411.40	8800.41
411.59	8730.20
411.78	8622.53
411.98	8414.23
412.17	8624.87
412.36	8496.14
412.55	8395.50
412.74	8091.23
412.93	8243.37
413.12	8344.01
413.31	9001.70
413.50	8999.36
413.69	9025.11
413.88	8685.73
414.07	8578.06
414.26	8837.86
414.45	9109.36
414.64	9266.18
414.83	8922.12
415.02	8786.37
415.22	9053.19
415.41	9062.55
415.60	9291.93
415.79	9614.92
415.98	9701.52
416.17	9659.39
416.36	9352.78
416.55	9385.55
416.74	9088.30
416.93	8903.40
417.12	9015.74
417.31	9074.26
417.50	9025.11
417.69	9350.44
417.88	9345.76
418.07	9217.03
418.26	9554.07
418.45	9345.76
418.64	9809.19
418.83	10265.59
419.02	9696.84
419.21	9598.54
419.39	9242.78
419.58	8706.79
419.77	9015.74
419.96	9561.09
420.15	9731.95
420.34	10186.01
420.53	10565.18
420.72	10712.63
420.91	10399.00
421.10	10286.65
421.29	10281.97
421.48	10064.30
421.67	10391.98
421.86	9872.38
422.05	9153.84
422.24	8437.63
422.43	8610.83
422.61	9584.49
422.80	10061.96
422.99	9998.77
423.18	9692.16
423.37	9664.07
423.56	9837.27
423.75	9837.27
423.94	10050.26
424.13	9446.40
424.32	9425.34
424.50	9371.50
424.69	9554.07
424.88	9518.96
425.07	9472.15
425.26	9235.75
425.45	9048.51
425.64	9254.48
425.83	9373.85
426.01	9928.55
426.20	9879.40
426.39	9465.13
426.58	8903.40
426.77	8439.97
426.96	8255.07
427.15	8613.17
427.33	9170.22
427.52	9561.09
427.71	9460.45
427.90	9071.92
428.09	9116.39
428.28	9188.94
428.46	8704.45
428.65	8990.00
428.84	8987.66
429.03	8887.01
429.22	8512.53
429.40	7761.22
429.59	6939.69
429.78	6375.62
429.97	6497.33
430.16	6485.62
430.34	6450.52
430.53	6532.44
430.72	6995.86
430.91	8004.63
431.10	9027.45
431.28	10286.65
431.47	11019.24
431.66	11101.16
431.85	9863.02
432.03	9102.34
432.22	9254.48
432.41	9837.27
432.60	10572.20
432.79	10820.30
432.97	10874.13
433.16	10558.16
433.35	9652.37
433.54	8463.38
433.72	8498.49
433.91	9004.04
434.10	9954.30
434.28	10394.32
434.47	10719.65
434.66	10321.76
434.85	10511.35
435.03	10717.31
435.22	10658.80
435.41	11026.26
435.59	11300.11
435.78	11276.70
435.97	11716.72
436.16	11576.29
436.34	11384.37
436.53	11276.70
436.72	11325.85
436.90	10768.80
437.09	10721.99
437.28	10520.71
437.46	10953.71
437.65	10726.68
437.84	9645.35
438.02	9226.39
438.21	9678.12
438.40	10059.62
438.58	10597.95
438.77	10672.84
438.96	10778.17
439.14	11449.90
439.33	11529.48
439.52	12002.27
439.70	11690.98
439.89	11049.67
440.08	10963.07
440.26	11300.11
440.45	11449.90
440.63	12102.91
440.82	12711.45
441.01	12336.96
441.19	12283.13
441.38	12734.85
441.57	13039.12
441.75	13170.19
441.94	13327.01
442.12	12992.31
442.31	13647.66
442.50	13596.17
442.68	13434.68
442.87	12917.42
443.05	13217.01
443.24	13364.46
443.43	13404.25
443.61	13380.84
443.80	13830.23
443.98	13172.54
444.17	13387.86
444.35	13928.53
444.54	14272.59
444.73	13841.93
444.91	13156.15
445.10	12676.34
445.28	12037.38
445.47	12081.85
445.65	12210.57
445.84	12575.70
446.02	12858.90
446.21	13280.20
446.39	13233.39
446.58	13584.47
446.77	13689.79
446.95	13804.48
447.14	13855.97
447.32	14209.39
447.51	13727.24
447.69	13102.32
447.88	12999.34
448.06	13329.35
448.25	13434.68
448.43	13640.64
448.62	13240.41
448.80	13434.68
448.99	13401.91
449.17	13610.22
449.36	13617.24
449.54	14146.20
449.73	14083.00
449.91	14726.65
450.10	15063.69
450.28	14970.07
450.46	14457.49
450.65	14642.39
450.83	14548.77
451.02	14466.85
451.20	14185.99
451.39	14265.57
451.57	14146.20
451.76	14171.94
451.94	13652.34
452.13	13851.29
452.31	13319.99
452.49	12863.58
452.68	12847.20
452.86	12821.45
453.05	13261.48
453.23	13774.05
453.42	14108.75
453.60	13980.02
453.78	14047.90
453.97	13591.49
454.15	13673.41
454.34	13687.45
454.52	13804.48
454.70	13516.59
454.89	13530.64
455.07	13509.57
455.26	13806.82
455.44	14279.61
455.62	14513.66
455.81	14485.58
455.99	14406.00
456.17	14251.52
456.36	14265.57
456.54	14717.29
456.73	14466.85
456.91	15154.97
457.09	15316.47
457.28	15344.55
457.46	14918.57
457.64	15012.20
457.83	13844.27
458.01	13752.99
458.19	14373.23
458.38	14476.21
458.56	14586.22
458.74	14471.53
458.93	14551.11
459.11	14429.40
459.29	14001.08
459.48	14574.52
459.66	14307.69
459.84	14277.27
460.03	14728.99
460.21	14721.97
460.39	15068.37
460.57	15297.74
460.76	15178.37
460.94	15115.18
461.12	15169.01
461.31	15243.91
461.49	15094.11
461.67	15335.19
461.85	15314.13
462.04	15382.00
462.22	15587.97
462.40	15234.55
462.59	14899.85
462.77	14920.92
462.95	15194.76
463.13	15461.58
463.32	15386.68
463.50	14860.06
463.68	14895.17
463.86	14946.66
464.05	15037.94
464.23	14373.23
464.41	14214.07
464.59	14139.18
464.78	14839.00
464.96	14363.87
465.14	14750.06
465.32	14988.79
465.50	15110.50
465.69	15133.90
465.87	14836.66
466.05	14445.79
466.23	13767.03
466.41	13984.70
466.60	14604.94
466.78	14698.56
466.96	14232.80
467.14	14654.09
467.32	14567.49
467.51	14703.25
467.69	14251.52
467.87	14181.31
468.05	14382.59
468.23	14427.06
468.41	14516.00
468.60	14668.14
468.78	14310.04
468.96	14487.92
469.14	15005.17
469.32	15213.48
469.50	14136.84
469.69	14045.55
469.87	13865.33
470.05	14031.51
470.23	14171.94
470.41	14221.10
470.59	14558.13
470.77	14324.08
470.95	14707.93
471.14	14883.47
471.32	14778.14
471.50	16203.53
471.68	15772.87
471.86	15768.19
472.04	15796.28
472.22	15845.43
472.40	15073.05
472.58	15307.10
472.77	14843.68
472.95	15452.22
473.13	15456.90
473.31	15372.64
473.49	15204.12
473.67	15517.75
473.85	15370.30
474.03	15683.93
474.21	15995.22
474.39	16074.80
474.57	16116.93
474.75	16306.51
474.93	16079.48
475.12	15630.10
475.30	16016.29
475.48	16046.71
475.66	16278.43
475.84	15850.11
476.02	15850.11
476.20	15733.08
476.38	15707.34
476.56	16240.98
476.74	16348.64
476.92	16748.87
477.10	16973.56
477.28	17364.43
477.46	17109.32
477.64	17418.27
477.82	17568.06
478.00	17453.37
478.18	17238.05
478.36	16910.37
478.54	16781.64
478.72	17706.15
478.90	18045.53
479.08	18115.75
479.26	18373.21
479.44	17965.95
479.62	18340.44
479.80	18408.31
479.98	18466.83
480.16	18485.55
480.34	18761.73
480.52	18274.90
480.70	18260.86
480.88	18602.58
481.06	19058.98
481.24	19166.65
481.41	19552.84
481.59	20018.60
481.77	19709.65
481.95	19569.22
482.13	19751.78
482.31	19283.67
482.49	19882.85
482.67	19496.66
482.85	19421.77
483.03	19672.20
483.21	19789.23
483.39	20156.69
483.57	19847.74
483.74	19555.18
483.92	19733.06
484.10	19868.81
484.28	20510.11
484.46	19978.81
484.64	19885.19
484.82	20152.01
485.00	20126.27
485.18	19278.99
485.35	18258.52
485.53	16205.87
485.71	15513.07
485.89	15885.22
486.07	16554.61
486.25	18307.67
486.43	19077.71
486.61	18375.55
486.78	18597.90
486.96	19410.06
487.14	19988.18
487.32	20706.72
487.50	20826.09
487.68	20554.58
487.85	21542.29
488.03	21507.18
488.21	20910.35
488.39	20446.92
488.57	20620.12
488.75	20734.81
488.92	21764.64
489.10	23201.73
489.28	23332.80
489.46	24226.89
489.64	24624.78
489.81	24053.69
489.99	23763.46
490.17	23679.20
490.35	24376.68
490.53	23632.39
490.70	23199.39
490.88	23541.11
491.06	24229.23
491.24	23506.00
491.41	22789.80
491.59	22019.76
491.77	21509.52
491.95	22485.53
492.13	23337.48
492.30	23613.66
492.48	24966.49
492.66	25249.70
492.84	24650.52
493.01	24472.64
493.19	23454.51
493.37	23187.69
493.54	23653.45
493.72	24573.28
493.90	24783.93
494.08	25701.42
494.25	26178.89
494.43	26544.02
494.61	27220.43
494.79	26497.20
494.96	26391.88
495.14	25450.99
495.32	24781.59
495.49	24769.89
495.67	25350.34
495.85	26852.97
496.02	27201.71
496.20	26656.36
496.38	26785.09
496.55	26228.04
496.73	26602.53
496.91	26366.13
497.09	26752.32
497.26	26651.68
497.44	27154.90
497.62	26333.37
497.79	25614.82
497.97	24648.18
498.14	25102.25
498.32	25860.58
498.50	26209.32
498.67	27007.44
498.85	26948.93
499.03	26302.94
499.20	26930.20
499.38	26857.65
499.56	26022.08
499.73	26328.69
499.91	25577.37
500.08	25207.57
500.26	24905.64
500.44	25610.14
500.61	26225.70
500.79	25652.27
500.97	25802.07
501.14	25474.39
501.32	24802.66
501.49	24587.33
501.67	25230.98
501.84	26377.84
502.02	26075.91
502.20	26022.08
502.37	26647.00
502.55	26888.07
502.72	27199.37
502.90	27337.46
503.07	27016.80
503.25	26925.52
503.43	25881.64
503.60	24943.09
503.78	24889.26
503.95	25689.72
504.13	25844.20
504.30	27342.14
504.48	27751.73
504.65	27241.50
504.83	26852.97
505.01	26965.31
505.18	27077.66
505.36	28091.11
505.53	27875.78
505.71	28257.29
505.88	28393.04
506.06	28107.49
506.23	27545.76
506.41	26953.61
506.58	27047.23
506.76	26562.74
506.93	27309.37
507.11	26033.78
507.28	26913.82
507.46	26352.09
507.63	26089.95
507.81	25589.08
507.98	26230.38
508.16	26953.61
508.33	27147.87
508.50	26529.97
508.68	27463.85
508.85	28439.85
509.03	27702.58
509.20	27349.16
509.38	26829.56
509.55	26197.62
509.73	27222.77
509.90	27447.46
510.08	26639.98
510.25	26551.04
510.42	26639.98
510.60	26712.53
510.77	27531.72
510.95	28182.39
511.12	27159.58
511.30	28360.27
511.47	29036.69
511.64	27964.72
511.82	28044.30
511.99	27248.52
512.17	27058.93
512.34	26586.15
512.51	26572.10
512.69	26284.22
512.86	27037.87
513.04	27360.86
513.21	27026.17
513.38	27227.45
513.56	26331.03
513.73	25319.92
513.90	24985.22
514.08	25502.48
514.25	26279.54
514.43	27150.21
514.60	27243.84
514.77	27154.90
514.95	26761.69
515.12	27065.96
515.29	26885.73
515.47	27356.18
515.64	27133.83
515.81	27402.99
515.99	26759.34
516.16	24353.27
516.33	22787.46
516.51	21752.94
516.68	20919.71
516.85	20690.34
517.03	21549.31
517.20	23342.16
517.37	25397.15
517.54	25294.17
517.72	24411.79
517.89	22661.07
518.06	22003.38
518.24	22574.47
518.41	23803.25
518.58	24945.43
518.75	25394.81
518.93	25200.55
519.10	24835.42
519.27	25628.87
519.45	25635.89
519.62	26628.27
519.79	26544.02
519.96	26623.59
520.14	26078.25
520.31	25249.70
520.48	25015.65
520.65	25867.60
520.83	26267.83
521.00	26136.76
521.17	25874.62
521.34	25717.81
521.52	25912.07
521.69	26499.55
521.86	26656.36
522.03	25832.49
522.20	25233.32
522.38	24297.10
522.55	24247.95
522.72	25558.65
522.89	24828.40
523.07	25348.00
523.24	25755.26
523.41	26146.12
523.58	26684.45
523.75	26108.68
523.92	27080.00
524.10	26808.50
524.27	26937.23
524.44	27150.21
524.61	27360.86
524.78	26874.03
524.96	26724.24
525.13	26333.37
525.30	27370.22
525.47	27557.47
525.64	27087.02
525.81	25804.41
525.98	23868.78
526.16	22724.26
526.33	22424.67
526.50	22862.35
526.67	22874.06
526.84	22963.00
527.01	24273.70
527.18	24945.43
527.36	25322.26
527.53	26878.71
527.70	26103.99
527.87	24959.47
528.04	24879.89
528.21	25752.91
528.38	26012.71
528.55	27253.20
528.72	26855.31
528.89	26937.23
529.07	27072.98
529.24	25518.86
529.41	25738.87
529.58	25535.24
529.75	25074.16
529.92	25701.42
530.09	25642.91
530.26	25979.95
530.43	25104.59
530.60	26197.62
530.77	27061.27
530.94	27473.21
531.11	26448.05
531.28	26305.28
531.46	25486.09
531.63	26373.16
531.80	26773.39
531.97	25392.47
532.14	24217.52
532.31	23192.37
532.48	23054.28
532.65	23243.86
532.82	24023.26
532.99	24631.80
533.16	26073.57
533.33	26506.57
533.50	25834.83
533.67	25366.73
533.84	25144.38
534.01	25088.20
534.18	24870.53
534.35	25036.71
534.52	24975.86
534.69	25479.07
534.86	25504.82
535.03	25528.22
535.20	25951.86
535.37	26363.79
535.54	25956.54
535.71	25612.48
535.88	25348.00
536.05	24844.79
536.22	24514.77
536.38	23812.61
536.55	24353.27
536.72	24215.18
536.89	24395.40
537.06	25050.75
537.23	25083.52
537.40	25109.27
537.57	25277.79
537.74	24322.85
537.91	24802.66
538.08	25642.91
538.25	25340.98
538.42	25008.62
538.59	25050.75
538.75	25064.80
538.92	24568.60
539.09	24325.19
539.26	23489.62
539.43	23171.30
539.60	23002.78
539.77	23016.83
539.94	22338.07
540.11	21965.93
540.28	21926.14
540.44	22508.93
540.61	22801.50
540.78	23068.32
540.95	24276.04
541.12	23030.87
541.29	24056.03
541.46	23414.72
541.62	23857.08
541.79	23529.41
541.96	23084.70
542.13	23796.23
542.30	23873.46
542.47	24109.86
542.63	23503.66
542.80	22963.00
542.97	22838.95
543.14	22946.61
543.31	23178.33
543.48	24102.84
543.64	24044.32
543.81	24697.33
543.98	24079.43
544.15	23751.76
544.32	22984.06
544.48	23798.57
544.65	23267.27
544.82	23555.15
544.99	23943.68
545.16	23489.62
545.32	24168.37
545.49	24264.33
545.66	23957.72
545.83	23981.13
546.00	23627.71
546.16	23440.47
546.33	22967.68
546.50	23892.19
546.67	23625.37
546.83	23583.24
547.00	23014.49
547.17	22691.49
547.34	22518.29
547.50	22560.42
547.67	22656.39
547.84	22464.46
548.00	23033.21
548.17	22768.73
548.34	22597.87
548.51	22930.23
548.67	23669.84
548.84	23672.18
549.01	23520.04
549.18	23405.36
549.34	23807.93
549.51	23208.75
549.68	23627.71
549.84	22986.40
550.01	22995.76
550.18	22356.80
550.34	22553.40
550.51	22429.35
550.68	22195.30
550.84	21626.55
551.01	21778.68
551.18	21010.99
551.34	21460.37
551.51	22361.48
551.68	23431.10
551.84	22225.73
552.01	22808.52
552.18	22319.35
552.34	21862.94
552.51	21956.57
552.68	22939.59
552.84	21865.28
553.01	22136.79
553.18	22742.99
553.34	22850.65
553.51	22263.18
553.67	21855.92
553.84	22742.99
554.01	22902.14
554.17	22169.55
554.34	22628.30
554.51	23068.32
554.67	22574.47
554.84	22122.74
555.00	21963.59
555.17	21984.65
555.33	22087.64
555.50	22740.64
555.67	22305.31
555.83	22302.96
556.00	22324.03
556.16	22047.85
556.33	21774.00
556.50	21654.64
556.66	20964.18
556.83	20758.21
556.99	21205.25
557.16	21507.18
557.32	21680.38
557.49	21303.56
557.65	21362.07
557.82	20374.36
557.98	20819.07
558.15	21397.18
558.32	20849.49
558.48	20030.30
558.65	19913.28
558.81	19840.72
558.98	20645.87
559.14	20531.18
559.31	20790.98
559.47	20542.88
559.64	19805.61
559.80	20580.33
559.97	20320.53
560.13	20716.08
560.30	20732.47
560.46	21380.79
560.63	21348.03
560.79	21556.33
560.96	21006.31
561.12	20676.29
561.29	20100.52
561.45	20034.99
561.61	19812.63
561.78	20034.99
561.94	20180.10
562.11	19896.89
562.27	20313.51
562.44	20854.17
562.60	20631.82
562.77	21226.32
562.93	20526.50
563.10	20407.13
563.26	20196.48
563.42	19793.91
563.59	19721.35
563.75	20240.95
563.92	20240.95
564.08	19976.47
564.24	19889.87
564.41	19330.48
564.57	19545.81
564.74	19157.28
564.90	19248.57
565.07	19122.18
565.23	18719.60
565.39	18771.10
565.56	19440.49
565.72	19042.60
565.88	19791.57
566.05	19012.17
566.21	19304.74
566.38	18986.43
566.54	19288.35
566.70	18766.42
566.87	19234.52
567.03	20411.81
567.19	20549.90
567.36	19339.85
567.52	19585.60
567.68	18946.64
567.85	18998.13
568.01	19201.76
568.17	18625.98
568.34	17778.71
568.50	18066.60
568.66	18185.96
568.83	18508.96
568.99	18986.43
569.15	18881.10
569.32	19417.08
569.48	19281.33
569.64	18707.90
569.81	18052.55
569.97	18104.04
570.13	18366.18
570.30	18026.81
570.46	17642.96
570.62	17076.55
570.78	16498.44
570.95	16980.59
571.11	17390.18
571.27	17764.67
571.43	17696.79
571.60	18036.17
571.76	18497.25
571.92	18455.12
572.09	18654.07
572.25	18377.89
572.41	18724.29
572.57	18874.08
572.74	18487.89
572.90	18703.22
573.06	18022.12
573.22	17987.02
573.38	18015.10
573.55	17605.51
573.71	17816.16
573.87	18064.25
574.03	18286.61
574.20	18113.41
574.36	17907.44
574.52	17818.50
574.68	17537.63
574.84	17331.67
575.01	17369.12
575.17	17994.04
575.33	17694.45
575.49	17610.19
575.65	17593.81
575.82	17083.57
575.98	17163.15
576.14	17305.92
576.30	17432.31
576.46	16844.84
576.62	17282.52
576.79	16905.69
576.95	16554.61
577.11	16699.72
577.27	16404.81
577.43	16650.57
577.59	17064.85
577.75	17053.14
577.92	16318.22
578.08	16023.31
578.24	16393.11
578.40	16439.92
578.56	16631.85
578.72	16346.30
578.88	16657.59
579.04	16901.01
579.21	16741.85
579.37	16837.81
579.53	16404.81
579.69	16339.28
579.85	16285.45
580.01	16355.66
580.17	16421.20
580.33	16496.10
580.49	16538.23
580.65	16404.81
580.82	16367.37
580.98	16795.68
581.14	16521.84
581.30	17188.89
581.46	17041.44
581.62	16472.69
581.78	16589.72
581.94	16999.31
582.10	16730.15
582.26	16664.61
582.42	16360.34
582.58	16961.86
582.74	16856.54
582.90	16720.79
583.06	16889.31
583.22	16952.50
583.38	16992.29
583.54	17163.15
583.70	16870.58
583.86	16460.99
584.02	16690.36
584.18	16449.28
584.34	16552.27
584.50	17322.30
584.66	16922.07
584.82	16477.37
584.98	16332.26
585.14	15875.85
585.30	15520.09
585.46	15749.46
585.62	15241.57
585.78	15840.75
585.94	15791.59
586.10	15964.79
586.26	15913.30
586.42	15850.11
586.58	15875.85
586.74	15438.17
586.90	15672.23
587.06	15735.42
