SpectraSuite Data File
++++++++++++++++++++++++++++++++++++
Date: Mon Oct 07 14:53:38 GMT-05:00 2013
User: price-jones
Dark Spectrum Present: No
Reference Spectrum Present: No
Number of Sampled Component Spectra: 1
Spectrometers: USB2+H05261
Integration Time (usec): 100000 (USB2+H05261)
Spectra Averaged: 1 (USB2+H05261)
Boxcar Smoothing: 0 (USB2+H05261)
Correct for Electrical Dark: No (USB2+H05261)
Strobe/Lamp Enabled: No (USB2+H05261)
Correct for Detector Non-linearity: No (USB2+H05261)
Correct for Stray Light: No (USB2+H05261)
Number of Pixels in Processed Spectrum: 2048
>>>>>Begin Processed Spectral Data<<<<<
365.73	0.00
365.92	0.00
366.12	0.00
366.32	0.00
366.52	0.00
366.72	0.00
366.91	0.00
367.11	0.00
367.31	0.00
367.51	0.00
367.70	0.00
367.90	0.00
368.10	0.00
368.30	0.00
368.49	0.00
368.69	0.00
368.89	0.00
369.09	0.00
369.28	0.00
369.48	0.00
369.68	0.00
369.87	0.00
370.07	0.00
370.27	0.00
370.47	435.34
370.66	2539.48
370.86	2874.18
371.06	3314.20
371.25	3162.06
371.45	2874.18
371.65	2623.74
371.84	2464.58
372.04	2509.05
372.24	2864.82
372.44	3014.61
372.63	2925.67
372.83	2708.00
373.03	2499.69
373.22	2232.87
373.42	2487.99
373.62	2731.41
373.81	3033.33
374.01	2963.12
374.21	2736.09
374.40	2506.71
374.60	2693.96
374.79	2984.18
374.99	3342.28
375.19	3705.07
375.38	3719.11
375.58	3466.33
375.78	3361.01
375.97	3346.97
376.17	3578.68
376.37	3564.64
376.56	3693.37
376.76	3904.01
376.95	4077.21
377.15	4346.37
377.35	4638.94
377.54	4901.08
377.74	4812.14
377.93	5135.14
378.13	4753.63
378.33	4416.59
378.52	4182.54
378.72	3967.21
378.91	3978.91
379.11	3810.39
379.31	3691.02
379.50	3733.15
379.70	4049.13
379.89	4608.51
380.09	4608.51
380.28	4861.29
380.48	4994.70
380.68	4720.86
380.87	4655.33
381.07	4505.53
381.26	3974.23
381.46	3749.54
381.65	3569.32
381.85	3487.40
382.04	3449.95
382.24	3080.14
382.43	3059.08
382.63	3026.31
382.83	2794.60
383.02	2981.84
383.22	2855.45
383.41	2972.48
383.61	3246.32
383.80	3571.66
384.00	3995.29
384.19	4550.00
384.39	4847.25
384.58	4894.06
384.78	4734.90
384.97	4589.79
385.17	4477.44
385.36	4248.07
385.56	4102.96
385.75	4173.18
385.95	4634.26
386.14	4936.19
386.34	4884.70
386.53	4830.87
386.72	4362.76
386.92	4383.82
387.11	4830.87
387.31	5029.81
387.50	4940.87
387.70	4652.98
387.89	4737.24
388.09	4631.92
388.28	4802.78
388.48	4784.06
388.67	5177.26
388.86	5650.05
389.06	6061.99
389.25	6530.09
389.45	6504.35
389.64	6445.84
389.84	6373.28
390.03	6235.19
390.22	6387.32
390.42	6476.26
390.61	6909.26
390.81	7286.09
391.00	7426.52
391.19	7431.20
391.39	7192.47
391.58	6768.83
391.78	6237.53
391.97	6258.59
392.16	5717.93
392.36	5228.76
392.55	4346.37
392.75	3407.82
392.94	2766.51
393.13	2764.17
393.33	3232.28
393.52	4194.24
393.71	5071.94
393.91	5708.57
394.10	6190.72
394.29	6834.36
394.49	7456.95
394.68	7857.18
394.88	7925.05
395.07	8283.16
395.26	8105.28
395.46	7894.63
395.65	7632.49
395.84	6677.55
396.04	5469.83
396.23	4407.23
396.42	3700.39
396.62	3527.19
396.81	4180.20
397.00	5277.91
397.19	6796.92
397.39	7932.08
397.58	9121.07
397.77	9504.92
397.97	9816.21
398.16	10094.73
398.35	10408.36
398.55	10738.38
398.74	11241.59
398.93	11407.77
399.12	11108.18
399.32	10834.34
399.51	10916.26
399.70	11473.31
399.90	11573.95
400.09	11716.72
400.28	11672.25
400.47	11698.00
400.67	12229.30
400.86	12540.59
401.05	12425.90
401.24	12739.54
401.44	12931.46
401.63	12816.77
401.82	12936.14
402.01	12929.12
402.21	13238.07
402.40	13032.10
402.59	12463.35
402.78	12152.06
402.97	11744.81
403.17	12241.00
403.36	12692.73
403.55	13429.99
403.74	13596.17
403.93	13048.49
404.13	12091.21
404.32	11887.58
404.51	12395.48
404.70	13525.96
404.89	13034.44
405.09	13226.37
405.28	12760.60
405.47	12610.81
405.66	12589.74
405.85	12566.34
406.05	11943.75
406.24	12163.76
406.43	12702.09
406.62	13184.24
406.81	13177.22
407.00	12912.74
407.20	12351.01
407.39	12528.89
407.58	13139.77
407.77	13411.27
407.96	14188.33
408.15	14164.92
408.34	14483.24
408.54	15096.46
408.73	15147.95
408.92	14925.60
409.11	14462.17
409.30	13720.22
409.49	12868.27
409.68	11939.07
409.87	11726.08
410.07	12404.84
410.26	13277.86
410.45	14375.57
410.64	14736.01
410.83	15033.26
411.02	15447.54
411.21	16042.03
411.40	15908.62
411.59	15850.11
411.78	15859.47
411.98	15754.15
412.17	16128.63
412.36	15358.60
412.55	15899.26
412.74	15646.48
412.93	14913.89
413.12	15105.82
413.31	16599.08
413.50	16638.87
413.69	16994.63
413.88	16697.38
414.07	15758.83
414.26	16063.10
414.45	16629.51
414.64	16896.33
414.83	16823.77
415.02	16360.34
415.22	16460.99
415.41	17055.48
415.60	17317.62
415.79	18090.00
415.98	18651.73
416.17	18487.89
416.36	17994.04
416.55	17600.83
416.74	17366.78
416.93	16549.93
417.12	16648.23
417.31	17020.38
417.50	16971.22
417.69	17694.45
417.88	17923.82
418.07	17596.15
418.26	17060.16
418.45	17394.86
418.64	17926.16
418.83	18703.22
419.02	18436.40
419.21	18328.74
419.39	17511.89
419.58	16409.50
419.77	16725.47
419.96	17336.35
420.15	18153.20
420.34	18764.07
420.53	19393.68
420.72	20027.96
420.91	19749.44
421.10	19765.82
421.29	19389.00
421.48	18640.03
421.67	19536.45
421.86	19049.62
422.05	18211.71
422.24	16236.30
422.43	15763.51
422.61	17128.04
422.80	18874.08
422.99	19185.37
423.18	18314.69
423.37	17963.61
423.56	17965.95
423.75	18347.46
423.94	18555.77
424.13	17509.55
424.32	17706.15
424.50	18075.96
424.69	17783.39
424.88	17734.24
425.07	17741.26
425.26	17755.30
425.45	17741.26
425.64	17231.02
425.83	16936.12
426.01	18532.36
426.20	18539.38
426.39	18352.14
426.58	17163.15
426.77	15875.85
426.96	15159.65
427.15	15669.89
427.33	17111.66
427.52	17905.10
427.71	17982.34
427.90	17685.09
428.09	17523.59
428.28	17497.84
428.46	16716.11
428.65	16339.28
428.84	16652.91
429.03	17060.16
429.22	15948.41
429.40	15566.90
429.59	13874.70
429.78	12339.30
429.97	12343.99
430.16	12512.50
430.34	12638.89
430.53	12449.31
430.72	13027.42
430.91	13982.36
431.10	16755.90
431.28	19829.02
431.47	21228.66
431.66	21486.12
431.85	19826.68
432.03	17984.68
432.22	17228.68
432.41	17727.22
432.60	19723.69
432.79	20500.75
432.97	21146.74
433.16	20493.73
433.35	18939.62
433.54	17095.27
433.72	16105.23
433.91	16411.84
434.10	18317.03
434.28	19524.75
434.47	20648.21
434.66	20432.88
434.85	19761.14
435.03	19721.35
435.22	20243.29
435.41	21577.40
435.59	21315.26
435.78	21741.24
435.97	22192.96
436.16	22625.96
436.34	22136.79
436.53	21460.37
436.72	21589.10
436.90	20535.86
437.09	20383.73
437.28	20505.43
437.46	20954.82
437.65	20917.37
437.84	19360.91
438.02	18052.55
438.21	17802.11
438.40	18822.59
438.58	20577.99
438.77	21158.44
438.96	21010.99
439.14	21755.28
439.33	22169.55
439.52	22787.46
439.70	22092.32
439.89	21710.81
440.08	21102.27
440.26	21181.85
440.45	22134.45
440.63	23388.97
440.82	24437.53
441.01	24184.76
441.19	24051.34
441.38	24372.00
441.57	25219.27
441.75	25551.63
441.94	25853.56
442.12	25663.97
442.31	26218.68
442.50	26047.82
442.68	25663.97
442.87	25418.22
443.05	24992.24
443.24	25273.10
443.43	26160.17
443.61	26628.27
443.80	26773.39
443.98	25289.49
444.17	25167.78
444.35	26824.88
444.54	27026.17
444.73	26668.06
444.91	25881.64
445.10	24929.05
445.28	23807.93
445.47	23304.71
445.65	23459.19
445.84	24311.14
446.02	25060.12
446.21	25479.07
446.39	25518.86
446.58	25841.85
446.77	26136.76
446.95	26321.66
447.14	27370.22
447.32	27562.15
447.51	26867.01
447.69	26054.84
447.88	25586.74
448.06	25912.07
448.25	26618.91
448.43	27131.49
448.62	26326.35
448.80	25993.99
448.99	26675.09
449.17	26759.34
449.36	26246.77
449.54	27735.35
449.73	28056.00
449.91	28638.80
450.10	29362.02
450.28	29404.15
450.46	29596.07
450.65	29413.51
450.83	28680.92
451.02	28371.97
451.20	28290.06
451.39	28355.59
451.57	27786.84
451.76	27943.66
451.94	27934.29
452.13	27360.86
452.31	26740.62
452.49	24915.00
452.68	25230.98
452.86	25202.89
453.05	25570.35
453.23	26639.98
453.42	26859.99
453.60	27735.35
453.78	27946.00
453.97	27606.62
454.15	27892.16
454.34	27295.33
454.52	27367.88
454.70	26663.38
454.89	26911.48
455.07	27363.20
455.26	27711.94
455.44	28657.52
455.62	29546.92
455.81	29209.89
455.99	29142.01
456.17	28767.52
456.36	28718.37
456.54	29710.76
456.73	29640.54
456.91	30223.34
457.09	30295.89
457.28	30696.13
457.46	29909.71
457.64	29436.92
457.83	27992.81
458.01	28070.04
458.19	28723.05
458.38	28608.37
458.56	29748.21
458.74	29654.59
458.93	29032.00
459.11	28968.81
459.29	28961.79
459.48	28950.09
459.66	28699.65
459.84	28982.85
460.03	29647.57
460.21	29687.36
460.39	30052.48
460.57	30164.82
460.76	30630.59
460.94	30696.13
461.12	30384.83
461.31	30171.85
461.49	30249.08
461.67	30022.05
461.85	31405.31
462.04	30904.43
462.22	31660.43
462.40	31119.76
462.59	31269.56
462.77	30829.54
462.95	31194.66
463.13	30778.04
463.32	30555.69
463.50	30178.87
463.68	30008.01
463.86	30228.02
464.05	29890.98
464.23	29284.78
464.41	28968.81
464.59	28732.42
464.78	30396.54
464.96	30120.35
465.14	29532.88
465.32	30469.09
465.50	31023.80
465.69	31468.50
465.87	30850.60
466.05	30302.92
466.23	28732.42
466.41	27721.30
466.60	29247.33
466.78	28945.41
466.96	29275.42
467.14	29734.17
467.32	30668.04
467.51	30543.99
467.69	28741.78
467.87	29525.86
468.05	29675.65
468.23	30050.14
468.41	30043.12
468.60	30375.47
468.78	30405.90
468.96	29752.89
469.14	30520.59
469.32	30808.47
469.50	29479.05
469.69	29724.80
469.87	29053.07
470.05	29097.54
470.23	29230.95
470.41	28999.24
470.59	29465.00
470.77	29776.30
470.95	30773.36
471.14	30885.71
471.32	30738.26
471.50	32659.84
471.68	32849.42
471.86	32947.72
472.04	32835.38
472.22	33305.82
472.40	31417.01
472.58	31129.12
472.77	30799.11
472.95	31569.15
473.13	32507.70
473.31	31459.14
473.49	31814.90
473.67	32189.39
473.85	32821.33
474.03	33326.89
474.21	33579.67
474.39	33930.75
474.57	33710.74
474.75	33970.54
474.93	33455.62
475.12	33050.70
475.30	32629.41
475.48	33097.52
475.66	33757.55
475.84	33507.11
476.02	33188.80
476.20	32594.30
476.38	32952.40
476.56	34045.43
476.74	34483.11
476.92	34817.81
477.10	35484.86
477.28	36554.49
477.46	36488.95
477.64	36608.32
477.82	36835.35
478.00	37097.49
478.18	36643.43
478.36	35971.69
478.54	36231.49
478.72	36650.45
478.90	37174.73
479.08	38370.74
479.26	38838.85
479.44	38572.03
479.62	38258.40
479.80	38646.93
479.98	38490.11
480.16	38962.90
480.34	38429.26
480.52	38555.64
480.70	39264.83
480.88	39246.10
481.06	39945.92
481.24	39992.73
481.41	41090.44
481.59	41694.30
481.77	41308.11
481.95	40870.43
482.13	40711.28
482.31	40765.11
482.49	41050.66
482.67	40842.35
482.85	41528.13
483.03	41909.63
483.21	41991.55
483.39	42092.19
483.57	41556.21
483.74	41493.02
483.92	41544.51
484.10	41797.29
484.28	42674.99
484.46	43009.68
484.64	43756.32
484.82	42450.30
485.00	42043.04
485.18	41474.29
485.35	40325.09
485.53	37502.40
485.71	33717.76
485.89	33453.28
486.07	34923.13
486.25	38291.16
486.43	40540.42
486.61	41481.31
486.78	41022.57
486.96	41113.85
487.14	42576.69
487.32	43768.02
487.50	44715.93
487.68	45773.86
487.85	46234.94
488.03	46307.50
488.21	46129.62
488.39	45366.60
488.57	44528.69
488.75	44215.06
488.92	45539.80
489.10	47232.01
489.28	49153.59
489.46	50244.28
489.64	49853.41
489.81	50042.99
489.99	49757.45
490.17	49712.98
490.35	49947.03
490.53	49558.50
490.70	49074.01
490.88	49083.37
491.06	50218.53
491.24	50199.81
491.41	49134.87
491.59	47051.79
491.77	46103.87
491.95	47136.05
492.13	48774.42
492.30	50108.53
492.48	51154.75
492.66	51730.52
492.84	51880.31
493.01	51751.59
493.19	50880.91
493.37	50480.67
493.54	50515.78
493.72	51213.26
493.90	52088.62
494.08	53113.78
494.25	53542.10
494.43	53408.68
494.61	53993.82
494.79	53801.89
494.96	53783.17
495.14	53336.13
495.32	52285.23
495.49	51311.56
495.67	52643.33
495.85	53961.05
496.02	54319.15
496.20	54377.67
496.38	53872.11
496.55	53757.42
496.73	54293.41
496.91	54387.03
497.09	54918.33
497.26	55182.81
497.44	54562.57
497.62	53958.71
497.79	53286.98
497.97	51681.37
498.14	51632.22
498.32	53073.99
498.50	54251.28
498.67	54724.07
498.85	54590.66
499.03	54831.73
499.20	55131.32
499.38	55075.15
499.56	54801.30
499.73	54218.51
499.91	53998.50
500.08	53396.98
500.26	52612.90
500.44	52868.02
500.61	53787.85
500.79	53771.47
500.97	53483.58
501.14	53191.01
501.32	52893.77
501.49	53183.99
501.67	53137.18
501.84	53869.77
502.02	54078.08
502.20	54532.14
502.37	54733.43
502.55	54466.61
502.72	55304.52
502.90	55723.47
503.07	55604.11
503.25	55260.05
503.43	54028.93
503.60	53427.41
503.78	52320.34
503.95	53179.31
504.13	54803.64
504.30	55564.32
504.48	55444.95
504.65	54948.76
504.83	54883.22
505.01	55515.17
505.18	55861.57
505.36	56858.63
505.53	56479.47
505.71	56952.26
505.88	57041.20
506.06	56198.60
506.23	56212.65
506.41	55648.58
506.58	55854.54
506.76	55943.48
506.93	55908.38
507.11	55458.99
507.28	55632.19
507.46	55339.63
507.63	54658.53
507.81	54358.94
507.98	54707.68
508.16	55402.82
508.33	56116.68
508.50	56521.60
508.68	56570.75
508.85	57212.06
509.03	57308.02
509.20	56980.34
509.38	56083.92
509.55	55323.24
509.73	55625.17
509.90	55934.12
510.08	56282.86
510.25	56418.61
510.42	56154.13
510.60	55943.48
510.77	56432.66
510.95	56793.10
511.12	57141.84
511.30	57205.03
511.47	57694.21
511.64	57457.81
511.82	57340.78
511.99	56350.74
512.17	55962.21
512.34	55353.67
512.51	55824.12
512.69	55845.18
512.86	55915.40
513.04	56449.04
513.21	56512.23
513.38	56268.82
513.56	55482.40
513.73	55030.68
513.90	55503.46
514.08	55061.10
514.25	55805.39
514.43	55718.79
514.60	55856.88
514.77	55959.87
514.95	56133.07
515.12	56006.68
515.29	56229.03
515.47	56772.03
515.64	57200.35
515.81	56507.55
515.99	56013.70
516.16	54417.46
516.33	52317.99
516.51	50466.63
516.68	49588.93
516.85	49008.48
517.03	49469.56
517.20	52509.92
517.37	55072.81
517.54	55985.61
517.72	55554.96
517.89	53052.92
518.06	50639.83
518.24	51035.38
518.41	53158.25
518.58	54796.62
518.75	54841.09
518.93	55033.02
519.10	55021.31
519.27	55491.76
519.45	55606.45
519.62	56427.98
519.79	56776.72
519.96	56418.61
520.14	56123.71
520.31	55250.69
520.48	55299.84
520.65	55571.34
520.83	56484.15
521.00	56762.67
521.17	56692.46
521.34	56086.26
521.52	56542.66
521.69	56889.06
521.86	57642.71
522.03	57181.63
522.20	55915.40
522.38	54862.16
522.55	54628.10
522.72	55442.61
522.89	55695.39
523.07	55945.83
523.24	56067.53
523.41	56935.87
523.58	57654.42
523.75	57909.53
523.92	57570.16
524.10	57783.15
524.27	57670.80
524.44	57357.17
524.61	57272.91
524.78	57003.75
524.96	57038.86
525.13	56987.36
525.30	57326.74
525.47	57736.34
525.64	57537.39
525.81	56818.84
525.98	55419.20
526.16	53748.06
526.33	53055.26
526.50	52624.60
526.67	52222.03
526.84	53181.65
527.01	54316.81
527.18	55079.83
527.36	56137.75
527.53	56898.42
527.70	57099.71
527.87	56657.35
528.04	56151.79
528.21	56423.29
528.38	57088.01
528.55	57858.04
528.72	57958.69
528.89	58309.77
529.07	57982.09
529.24	57439.09
529.41	56797.78
529.58	56179.88
529.75	56151.79
529.92	56753.31
530.09	57198.01
530.26	57675.48
530.43	57893.15
530.60	58155.29
530.77	58213.80
530.94	58450.20
531.11	57691.86
531.28	57258.87
531.46	57242.48
531.63	57345.47
531.80	57382.91
531.97	56783.74
532.14	56023.06
532.31	54885.56
532.48	54391.71
532.65	54293.41
532.82	55274.09
532.99	56435.00
533.16	56760.33
533.33	57439.09
533.50	57244.82
533.67	56633.94
533.84	56229.03
534.01	56324.99
534.18	56640.96
534.35	56828.21
534.52	56587.13
534.69	56893.74
534.86	57090.35
535.03	57584.20
535.20	57673.14
535.37	58143.59
535.54	58188.06
535.71	57801.87
535.88	57609.95
536.05	56975.66
536.22	56561.39
536.38	56222.01
536.55	55800.71
536.72	55091.53
536.89	55128.98
537.06	55884.97
537.23	56839.91
537.40	57050.56
537.57	57027.15
537.74	56666.71
537.91	56996.73
538.08	56669.05
538.25	56966.30
538.42	56823.53
538.59	56804.80
538.75	56207.97
538.92	55863.91
539.09	55927.10
539.26	55611.13
539.43	55458.99
539.60	55576.02
539.77	55824.12
539.94	55901.36
540.11	54869.18
540.28	54078.08
540.44	54422.14
540.61	54693.64
540.78	54632.78
540.95	55393.46
541.12	55934.12
541.29	56104.98
541.46	56392.87
541.62	56273.50
541.79	56135.41
541.96	55597.09
542.13	55629.85
542.30	55648.58
542.47	56116.68
542.63	55728.16
542.80	55540.91
542.97	55732.84
543.14	55552.62
543.31	55543.25
543.48	56093.28
543.64	56879.70
543.81	57256.53
543.98	57095.03
544.15	56449.04
544.32	55828.80
544.48	55707.09
544.65	56060.51
544.82	56495.85
544.99	56296.91
545.16	55994.98
545.32	55538.57
545.49	56427.98
545.66	56863.32
545.83	56470.11
546.00	56140.09
546.16	55835.82
546.33	55966.89
546.50	56231.37
546.67	56376.48
546.83	55938.80
547.00	56076.90
547.17	55150.04
547.34	54665.55
547.50	54667.89
547.67	55037.70
547.84	55136.00
548.00	55433.25
548.17	56165.84
548.34	55814.76
548.51	55749.22
548.67	55856.88
548.84	56144.77
549.01	55903.70
549.18	55833.48
549.34	56006.68
549.51	55749.22
549.68	55711.77
549.84	55601.77
550.01	55702.41
550.18	55330.26
550.34	55201.53
550.51	55236.64
550.68	55716.45
550.84	54990.89
551.01	54967.48
551.18	55210.90
551.34	55157.06
551.51	55442.61
551.68	55899.01
551.84	55992.64
552.01	55592.40
552.18	55489.42
552.34	54639.81
552.51	54344.90
552.68	54199.79
552.84	55035.36
553.01	54983.86
553.18	54953.44
553.34	55042.38
553.51	55327.92
553.67	55580.70
553.84	55622.83
554.01	55590.06
554.17	55461.33
554.34	55437.93
554.51	55475.38
554.67	55859.23
554.84	55700.07
555.00	55313.88
555.17	54969.82
555.33	55189.83
555.50	55086.85
555.67	55103.23
555.83	54843.43
556.00	54375.33
556.16	54394.05
556.33	54103.82
556.50	53961.05
556.66	54241.92
556.83	53731.68
556.99	53970.41
557.16	54150.63
557.32	54277.02
557.49	54595.34
557.65	54344.90
557.82	54279.36
557.98	54209.15
558.15	53783.17
558.32	52989.73
558.48	52472.47
558.65	52133.09
558.81	52521.62
558.98	52882.06
559.14	53165.27
559.31	53514.01
559.47	53207.40
559.64	52727.59
559.80	52659.71
559.97	52650.35
560.13	53081.01
560.30	53991.48
560.46	54827.05
560.63	55054.08
560.79	55079.83
560.96	54518.10
561.12	53118.46
561.29	52116.71
561.45	52629.29
561.61	53088.03
561.78	53443.79
561.94	53469.54
562.11	53139.52
562.27	53373.58
562.44	53490.60
562.60	53703.59
562.77	54092.12
562.93	53930.62
563.10	53600.61
563.26	52921.85
563.42	53263.57
563.59	52882.06
563.75	53041.22
563.92	53073.99
564.08	52975.69
564.24	53186.33
564.41	53310.38
564.57	53499.97
564.74	53132.50
564.90	53134.84
565.07	52371.83
565.23	52013.73
565.39	51639.24
565.56	51732.86
565.72	51171.13
565.88	51700.09
566.05	51552.64
566.21	52065.22
566.38	52074.58
566.54	52296.93
566.70	52769.72
566.87	52961.64
567.03	52811.85
567.19	53198.04
567.36	52832.91
567.52	52645.67
567.68	52577.79
567.85	51903.72
568.01	51536.26
568.17	50960.48
568.34	50838.78
568.50	50719.41
568.66	51168.79
568.83	51468.38
568.99	51569.02
569.15	52062.88
569.32	51686.05
569.48	51491.79
569.64	51311.56
569.81	50995.59
569.97	50841.12
570.13	50639.83
570.30	50281.73
570.46	49642.76
570.62	49279.98
570.78	48891.45
570.95	49296.36
571.11	50298.11
571.27	50602.38
571.43	50466.63
571.60	51037.72
571.76	51283.48
571.92	51466.04
572.09	51948.19
572.25	51641.58
572.41	51709.46
572.57	51746.90
572.74	51466.04
572.90	50918.35
573.06	51019.00
573.22	50855.16
573.38	51220.28
573.55	51079.85
573.71	51063.47
573.87	51484.76
574.03	50670.26
574.20	50602.38
574.36	50295.77
574.52	50401.10
574.68	50092.15
574.84	49649.78
575.01	49312.75
575.17	48884.43
575.33	49169.97
575.49	49986.82
575.65	49811.28
575.82	49542.12
575.98	49212.10
576.14	49563.18
576.30	49916.61
576.46	50213.85
576.62	50153.00
576.79	50096.83
576.95	49516.37
577.11	49268.28
577.27	49432.11
577.43	49712.98
577.59	49202.74
577.75	48835.28
577.92	48261.85
578.08	47707.14
578.24	47753.95
578.40	48306.32
578.56	48172.91
578.72	48863.36
578.88	48678.46
579.04	49055.29
579.21	49537.44
579.37	49373.60
579.53	49111.46
579.69	49130.19
579.85	49586.59
580.01	49294.02
580.17	48804.85
580.33	48891.45
580.49	48818.89
580.65	48949.96
580.82	48917.20
580.98	49270.62
581.14	49036.56
581.30	48875.07
581.46	49303.38
581.62	49029.54
581.78	49247.21
581.94	49174.66
582.10	49471.90
582.26	49354.88
582.42	49247.21
582.58	49481.27
582.74	49345.51
582.90	49209.76
583.06	49188.70
583.22	49071.67
583.38	48706.55
583.54	48898.47
583.70	49074.01
583.86	49301.04
584.02	48711.23
584.18	48982.73
584.34	48697.19
584.50	49144.23
584.66	48488.88
584.82	48205.67
584.98	48243.12
585.14	47480.11
585.30	46979.23
