SpectraSuite Data File
++++++++++++++++++++++++++++++++++++
Date: Mon Oct 07 14:53:23 GMT-05:00 2013
User: price-jones
Dark Spectrum Present: No
Reference Spectrum Present: No
Number of Sampled Component Spectra: 1
Spectrometers: USB2+H05261
Integration Time (usec): 100000 (USB2+H05261)
Spectra Averaged: 1 (USB2+H05261)
Boxcar Smoothing: 0 (USB2+H05261)
Correct for Electrical Dark: No (USB2+H05261)
Strobe/Lamp Enabled: No (USB2+H05261)
Correct for Detector Non-linearity: No (USB2+H05261)
Correct for Stray Light: No (USB2+H05261)
Number of Pixels in Processed Spectrum: 2048
>>>>>Begin Processed Spectral Data<<<<<
365.73	0.00
365.92	0.00
366.12	0.00
366.32	0.00
366.52	0.00
366.72	0.00
366.91	0.00
367.11	0.00
367.31	0.00
367.51	0.00
367.70	0.00
367.90	0.00
368.10	0.00
368.30	0.00
368.49	0.00
368.69	0.00
368.89	0.00
369.09	0.00
369.28	0.00
369.48	0.00
369.68	0.00
369.87	0.00
370.07	0.00
370.27	0.00
370.47	568.75
370.66	2972.48
370.86	3449.95
371.06	3887.63
371.25	3599.74
371.45	3482.72
371.65	3035.67
371.84	2867.16
372.04	3061.42
372.24	3414.84
372.44	3480.38
372.63	3379.73
372.83	3241.64
373.03	3026.31
373.22	2619.06
373.42	2789.92
373.62	3265.05
373.81	3534.21
374.01	3438.25
374.21	3152.70
374.40	2853.11
374.60	3038.02
374.79	3520.17
374.99	4025.72
375.19	4294.88
375.38	4292.54
375.58	3992.95
375.78	3948.48
375.97	4112.32
376.17	4266.80
376.37	4156.79
376.56	4327.65
376.76	4681.07
376.95	4734.90
377.15	5055.56
377.35	5334.08
377.54	5392.59
377.74	5692.18
377.93	5657.07
378.13	5666.44
378.33	5249.82
378.52	4887.04
378.72	4709.16
378.91	4681.07
379.11	4496.17
379.31	4283.18
379.50	4381.48
379.70	4610.86
379.89	5116.41
380.09	5589.20
380.28	5584.52
380.48	5650.05
380.68	5387.91
380.87	5420.68
381.07	5039.17
381.26	4596.81
381.46	4409.57
381.65	4329.99
381.85	4166.15
382.04	3880.61
382.24	3819.75
382.43	3346.97
382.63	3258.03
382.83	3393.78
383.02	3361.01
383.22	3499.10
383.41	3349.31
383.61	3742.52
383.80	4114.66
384.00	4720.86
384.19	5193.65
384.39	5652.39
384.58	5509.62
384.78	5420.68
384.97	5408.98
385.17	5107.05
385.36	4800.44
385.56	4830.87
385.75	4793.42
385.95	5371.53
386.14	5923.90
386.34	5832.62
386.53	5568.13
386.72	5053.22
386.92	5177.26
387.11	5556.43
387.31	5673.46
387.50	5638.35
387.70	5591.54
387.89	5462.81
388.09	5661.76
388.28	5472.17
388.48	5575.16
388.67	5951.98
388.86	6602.65
389.06	7192.47
389.25	7349.28
389.45	7351.62
389.64	7468.65
389.84	7459.29
390.03	7201.83
390.22	7403.11
390.42	7562.27
390.61	8016.33
390.81	8472.74
391.00	8704.45
391.19	8762.97
391.39	8322.94
391.58	7801.01
391.78	7470.99
391.97	7108.21
392.16	6782.87
392.36	6115.82
392.55	5004.07
392.75	3981.25
392.94	3274.41
393.13	3218.24
393.33	3695.71
393.52	4690.43
393.71	5853.68
393.91	6441.15
394.10	6967.77
394.29	7871.22
394.49	8404.86
394.68	9172.56
394.88	9207.67
395.07	9598.54
395.26	9212.35
395.46	9088.30
395.65	8620.19
395.84	7442.90
396.04	6399.02
396.23	5078.96
396.42	4353.40
396.62	4189.56
396.81	4727.88
397.00	6108.80
397.19	7625.47
397.39	8994.68
397.58	10228.14
397.77	11126.91
397.97	11468.62
398.16	11538.84
398.35	11681.61
398.55	12273.77
398.74	12870.61
398.93	13214.66
399.12	12643.57
399.32	12367.39
399.51	12798.05
399.70	13624.26
399.90	13289.56
400.09	13523.62
400.28	13039.12
400.47	13408.93
400.67	14022.15
400.86	14518.34
401.05	14382.59
401.24	14504.30
401.44	14626.01
401.63	14731.33
401.82	14799.21
402.01	14743.03
402.21	14939.64
402.40	15133.90
402.59	14340.46
402.78	13687.45
402.97	13331.69
403.17	13865.33
403.36	14799.21
403.55	15192.42
403.74	15899.26
403.93	14911.55
404.13	13834.91
404.32	13429.99
404.51	13994.06
404.70	15433.49
404.89	15260.29
405.09	15016.88
405.28	14614.30
405.47	14590.90
405.66	14590.90
405.85	14352.16
406.05	13991.72
406.24	13743.63
406.43	14478.55
406.62	15211.14
406.81	15295.40
407.00	14663.46
407.20	14277.27
407.39	14281.95
407.58	15115.18
407.77	15508.39
407.96	16318.22
408.15	16194.17
408.34	16137.99
408.54	16901.01
408.73	17109.32
408.92	17090.59
409.11	16329.92
409.30	15433.49
409.49	14759.42
409.68	13797.46
409.87	13352.76
410.07	14232.80
410.26	15194.76
410.45	16166.08
410.64	16641.21
410.83	16812.07
411.02	17678.07
411.21	18176.60
411.40	18221.07
411.59	18221.07
411.78	18125.11
411.98	17893.40
412.17	18232.77
412.36	17530.61
412.55	17942.55
412.74	17518.91
412.93	16908.03
413.12	17228.68
413.31	18766.42
413.50	19321.12
413.69	19281.33
413.88	18487.89
414.07	17998.72
414.26	18525.34
414.45	18970.04
414.64	19176.01
414.83	19302.40
415.02	18794.50
415.22	18824.93
415.41	19339.85
415.60	19836.04
415.79	20718.42
415.98	21212.28
416.17	20823.75
416.36	20819.07
416.55	20269.04
416.74	19613.69
416.93	18714.92
417.12	19056.64
417.31	19396.02
417.50	19384.32
417.69	19611.35
417.88	20053.71
418.07	19697.95
418.26	19723.69
418.45	19810.29
418.64	20229.25
418.83	21261.43
419.02	20985.24
419.21	20814.38
419.39	19819.66
419.58	18801.52
419.77	18913.87
419.96	19728.38
420.15	20837.79
420.34	21458.03
420.53	22204.66
420.72	22728.94
420.91	22724.26
421.10	22312.33
421.29	21905.07
421.48	21387.82
421.67	22277.22
421.86	21862.94
422.05	20439.90
422.24	18090.00
422.43	17958.93
422.61	19960.09
422.80	21401.86
422.99	21731.87
423.18	20725.44
423.37	20304.15
423.56	20430.54
423.75	20741.83
423.94	21235.68
424.13	20102.86
424.32	20037.33
424.50	20306.49
424.69	19927.32
424.88	20093.50
425.07	19957.75
425.26	20135.63
425.45	19751.78
425.64	19152.60
425.83	19260.27
426.01	20226.91
426.20	20744.17
426.39	20931.41
426.58	19396.02
426.77	17987.02
426.96	17439.33
427.15	17795.09
427.33	19644.12
427.52	20144.99
427.71	20098.18
427.90	19784.55
428.09	19971.79
428.28	19510.71
428.46	18691.52
428.65	18300.65
428.84	18696.20
429.03	19063.66
429.22	18422.36
429.40	17371.46
429.59	15805.64
429.78	13980.02
429.97	13790.44
430.16	14017.47
430.34	14024.49
430.53	14335.78
430.72	14387.27
430.91	15983.52
431.10	18899.83
431.28	22274.88
431.47	23866.44
431.66	24156.67
431.85	22164.87
432.03	20280.74
432.22	19309.42
432.41	20357.98
432.60	22504.25
432.79	23227.48
432.97	23903.89
433.16	23377.27
433.35	21467.39
433.54	19239.20
433.72	17858.29
433.91	18452.78
434.10	20793.32
434.28	22211.68
434.47	23381.95
434.66	23073.00
434.85	22265.52
435.03	22153.17
435.22	22757.03
435.41	24205.82
435.59	24299.44
435.78	24467.96
435.97	25350.34
436.16	25118.63
436.34	25228.63
436.53	24428.17
436.72	24821.38
436.90	23241.52
437.09	23396.00
437.28	22881.08
437.46	23653.45
437.65	23435.78
437.84	21563.36
438.02	20187.12
438.21	20060.73
438.40	21284.83
438.58	23019.17
438.77	23456.85
438.96	23990.49
439.14	24617.75
439.33	25240.34
439.52	25514.18
439.70	25495.46
439.89	24477.32
440.08	23569.19
440.26	23906.23
440.45	24634.14
440.63	26639.98
440.82	27517.68
441.01	27400.65
441.19	26951.27
441.38	27529.38
441.57	28463.25
441.75	28872.85
441.94	29043.71
442.12	28919.66
442.31	29247.33
442.50	29539.90
442.68	29102.22
442.87	28524.11
443.05	28168.35
443.24	28484.32
443.43	29001.58
443.61	29640.54
443.80	30312.28
443.98	28191.75
444.17	28023.23
444.35	29776.30
444.54	30443.35
444.73	29949.50
444.91	28795.61
445.10	27747.05
445.28	26881.05
445.47	26059.52
445.65	26600.19
445.84	26979.36
446.02	28067.70
446.21	28416.44
446.39	28379.00
446.58	28950.09
446.77	29181.80
446.95	29626.50
447.14	30604.84
447.32	31164.23
447.51	30380.15
447.69	29106.90
447.88	28718.37
448.06	29172.44
448.25	29523.52
448.43	30450.37
448.62	29465.00
448.80	29518.84
448.99	29869.92
449.17	29766.93
449.36	29825.45
449.54	30714.85
449.73	31363.18
449.91	31562.12
450.10	32620.05
450.28	33415.83
450.46	32652.81
450.65	33022.62
450.83	32428.12
451.02	32100.45
451.20	31861.71
451.39	32114.49
451.57	31653.40
451.76	31262.54
451.94	31236.79
452.13	31054.23
452.31	29530.54
452.49	27838.33
452.68	28336.87
452.86	28610.71
453.05	28849.44
453.23	29806.72
453.42	30384.83
453.60	31171.25
453.78	31838.31
453.97	31360.84
454.15	31428.71
454.34	30202.27
454.52	30693.79
454.70	29507.13
454.89	30443.35
455.07	30567.40
455.26	30740.60
455.44	31981.08
455.62	32577.92
455.81	32940.70
455.99	32601.32
456.17	31978.74
456.36	32374.29
456.54	32847.08
456.73	33024.96
456.91	33748.18
457.09	33930.75
457.28	34094.58
457.46	33184.12
457.64	33022.62
457.83	32046.62
458.01	31143.17
458.19	32154.28
458.38	31976.40
458.56	33308.16
458.74	33366.68
458.93	32488.98
459.11	32034.91
459.29	32240.88
459.48	32341.52
459.66	31842.99
459.84	32514.72
460.03	32985.17
460.21	33228.59
460.39	34068.84
460.57	33523.49
460.76	34644.61
460.94	34405.88
461.12	33694.35
461.31	33893.30
461.49	33738.82
461.67	33635.84
461.85	34785.04
462.04	34553.33
462.22	35311.66
462.40	34899.73
462.59	34401.19
462.77	34738.23
462.95	34440.98
463.13	34473.75
463.32	33958.83
463.50	33598.39
463.68	33750.52
463.86	33809.04
464.05	33422.85
464.23	32554.51
464.41	32465.57
464.59	31948.31
464.78	33289.44
464.96	33514.13
465.14	33266.03
465.32	33902.66
465.50	34780.36
465.69	35063.57
465.87	34270.12
466.05	33628.82
466.23	31695.53
466.41	31618.30
466.60	32004.49
466.78	31901.50
466.96	32694.94
467.14	33050.70
467.32	33727.12
467.51	33764.57
467.69	31974.06
467.87	33055.39
468.05	33607.75
468.23	33603.07
468.41	33460.30
468.60	33523.49
468.78	33907.34
468.96	33284.76
469.14	34249.06
469.32	34525.24
469.50	33064.75
469.69	33015.60
469.87	32378.97
470.05	32257.26
470.23	32383.65
470.41	32659.84
470.59	33359.66
470.77	33680.31
470.95	34024.37
471.14	34183.52
471.32	34440.98
471.50	36645.77
471.68	36116.81
471.86	36170.64
472.04	37186.43
472.22	36999.19
472.40	34960.58
472.58	34703.12
472.77	34382.47
472.95	35089.31
473.13	36254.90
473.31	34705.46
473.49	35695.51
473.67	35718.92
473.85	36250.22
474.03	37104.51
474.21	37055.36
474.39	37813.70
474.57	37846.46
474.75	38036.05
474.93	37361.97
475.12	36582.57
475.30	36528.74
475.48	37160.69
475.66	37216.86
475.84	36669.17
476.02	36664.49
476.20	35924.88
476.38	36697.26
476.56	37785.61
476.74	38597.77
476.92	38384.79
477.10	39491.86
477.28	40203.38
477.46	39875.71
477.64	40397.65
477.82	40601.27
478.00	40781.49
478.18	40133.17
478.36	40081.67
478.54	40430.41
478.72	40428.07
478.90	40938.31
479.08	42445.62
479.26	42487.74
479.44	42766.27
479.62	42328.59
479.80	42731.16
479.98	42431.57
480.16	43084.58
480.34	42738.18
480.52	43129.05
480.70	43887.39
480.88	43175.86
481.06	44072.29
481.24	44320.38
481.41	45162.98
481.59	45586.61
481.77	45050.63
481.95	44755.72
482.13	44765.09
482.31	44992.12
482.49	45354.90
482.67	45132.55
482.85	45532.78
483.03	45949.40
483.21	46686.67
483.39	46209.20
483.57	45689.60
483.74	45385.33
483.92	46005.57
484.10	46195.15
484.28	46768.58
484.46	47133.71
484.64	47791.40
484.82	46756.88
485.00	46511.13
485.18	45525.76
485.35	44311.02
485.53	41137.26
485.71	37727.10
485.89	37666.24
486.07	38899.70
486.25	42490.09
486.43	44563.80
486.61	45560.87
486.78	45418.10
486.96	45500.01
487.14	46981.57
487.32	48357.81
487.50	48992.09
487.68	49853.41
487.85	50272.37
488.03	50417.48
488.21	50155.34
488.39	49104.44
488.57	48643.35
488.75	48268.87
488.92	49289.34
489.10	51405.19
489.28	52797.80
489.46	53277.61
489.64	53331.45
489.81	53680.19
489.99	53176.97
490.17	53249.53
490.35	53614.65
490.53	53109.10
490.70	52631.63
490.88	52491.19
491.06	53544.44
491.24	53565.50
491.41	52648.01
491.59	50707.71
491.77	50199.81
491.95	51318.59
492.13	52406.94
492.30	53558.48
492.48	54527.46
492.66	55220.26
492.84	54892.58
493.01	54461.93
493.19	53949.35
493.37	53661.46
493.54	53546.78
493.72	54138.93
493.90	55332.60
494.08	56023.06
494.25	56467.76
494.43	56463.08
494.61	56963.96
494.79	57052.90
494.96	56687.78
495.14	56009.02
495.32	55243.66
495.49	54438.52
495.67	55592.40
495.85	56868.00
496.02	57261.21
496.20	57022.47
496.38	56647.99
496.55	56523.94
496.73	57141.84
496.91	57071.62
497.09	57811.23
497.26	57949.32
497.44	57380.57
497.62	56949.92
497.79	56165.84
497.97	55107.91
498.14	55061.10
498.32	56116.68
498.50	56975.66
498.67	57778.46
498.85	57537.39
499.03	57584.20
499.20	57911.88
499.38	57954.00
499.56	57460.15
499.73	57144.18
499.91	56839.91
500.08	56369.46
500.26	55618.15
500.44	56090.94
500.61	56884.38
500.79	56818.84
500.97	56332.01
501.14	56154.13
501.32	56027.74
501.49	55983.27
501.67	56182.22
501.84	56722.88
502.02	57078.64
502.20	57340.78
502.37	57553.77
502.55	57668.46
502.72	58124.86
502.90	58323.81
503.07	58197.42
503.25	57907.19
503.43	57205.03
503.60	56423.29
503.78	55601.77
503.95	56069.87
504.13	57771.44
504.30	58405.73
504.48	58159.97
504.65	57829.96
504.83	57818.25
505.01	58426.79
505.18	58632.76
505.36	59309.18
505.53	59290.45
505.71	59568.97
505.88	59686.00
506.06	58897.24
506.23	58988.52
506.41	58410.41
506.58	58492.33
506.76	58564.88
506.93	58354.24
507.11	58246.57
507.28	58232.53
507.46	58017.20
507.63	57228.44
507.81	57090.35
507.98	57361.85
508.16	58150.61
508.33	58871.49
508.50	58953.41
508.68	59152.36
508.85	59725.79
509.03	59599.40
509.20	59386.41
509.38	58934.69
509.55	57993.79
509.73	58213.80
509.90	58616.38
510.08	58976.82
510.25	58822.34
510.42	58728.72
510.60	58649.14
510.77	58812.98
510.95	59353.65
511.12	59456.63
511.30	59779.62
511.47	60090.91
511.64	59849.84
511.82	59531.53
511.99	59051.72
512.17	58534.46
512.34	58021.88
512.51	58335.51
512.69	58532.12
512.86	58644.46
513.04	58845.75
513.21	58864.47
513.38	58735.74
513.56	58253.59
513.73	57434.41
513.90	58028.90
514.08	57764.42
514.25	58281.68
514.43	58499.35
514.60	58674.89
514.77	58700.64
514.95	58639.78
515.12	58597.65
515.29	58780.21
515.47	59428.54
515.64	59522.16
515.81	59112.57
515.99	58585.95
516.16	57275.25
516.33	55068.12
516.51	53890.83
516.68	52725.25
516.85	52231.40
517.03	53034.20
517.20	55498.78
517.37	58014.86
517.54	58815.32
517.72	58494.67
517.89	55899.01
518.06	53640.40
518.24	54003.18
518.41	56165.84
518.58	57277.59
518.75	57570.16
518.93	57829.96
519.10	57623.99
519.27	58021.88
519.45	58253.59
519.62	59114.91
519.79	59327.90
519.96	59098.53
520.14	58693.61
520.31	57895.49
520.48	57762.08
520.65	58387.00
520.83	59063.42
521.00	59503.44
521.17	59192.15
521.34	58784.90
521.52	59213.21
521.69	59477.69
521.86	60116.66
522.03	59707.07
522.20	58564.88
522.38	57425.04
522.55	57701.23
522.72	58120.18
522.89	58052.31
523.07	58571.91
523.24	58763.83
523.41	59540.89
523.58	59898.99
523.75	60257.09
523.92	60198.58
524.10	60196.24
524.27	60182.19
524.44	59992.61
524.61	59735.15
524.78	59550.25
524.96	59351.30
525.13	59709.41
525.30	59852.18
525.47	60294.54
525.64	60205.60
525.81	59381.73
525.98	58145.93
526.16	56921.83
526.33	55915.40
526.50	55749.22
526.67	55262.39
526.84	56060.51
527.01	56842.25
527.18	57609.95
527.36	58618.72
527.53	59416.84
527.70	59709.41
527.87	59035.33
528.04	58749.79
528.21	59032.99
528.38	59695.36
528.55	60280.50
528.72	60500.51
528.89	60633.92
529.07	60453.70
529.24	59814.73
529.41	59138.32
529.58	58700.64
529.75	58944.05
529.92	59145.34
530.09	59774.94
530.26	60058.15
530.43	60268.79
530.60	60350.71
530.77	60645.62
530.94	60722.86
531.11	60282.84
531.28	59831.11
531.46	59718.77
531.63	59821.75
531.80	59681.32
531.97	59175.76
532.14	58820.00
532.31	57551.43
532.48	57071.62
532.65	57237.80
532.82	57946.98
532.99	58934.69
533.16	59075.12
533.33	59796.01
533.50	59660.26
533.67	58862.13
533.84	58450.20
534.01	58599.99
534.18	59110.23
534.35	59128.95
534.52	58904.26
534.69	59419.18
534.86	59678.98
535.03	59723.45
535.20	60121.34
535.37	60360.08
535.54	60647.96
535.71	60205.60
535.88	59964.52
536.05	59423.86
536.22	59037.67
536.38	58574.25
536.55	58171.67
536.72	57694.21
536.89	57647.39
537.06	58501.69
537.23	59442.59
537.40	59599.40
537.57	59311.52
537.74	59365.35
537.91	58983.84
538.08	59110.23
538.25	59363.01
538.42	59524.50
538.59	59341.94
538.75	58440.84
538.92	58473.60
539.09	58258.27
539.26	57963.37
539.43	57928.26
539.60	58040.60
539.77	58115.50
539.94	57939.96
540.11	57308.02
540.28	56739.27
540.44	56992.04
540.61	57254.18
540.78	57478.88
540.95	57963.37
541.12	58422.11
541.29	58468.92
541.46	58644.46
541.62	58763.83
541.79	58705.32
541.96	57991.45
542.13	57986.77
542.30	58351.90
542.47	58501.69
542.63	58319.13
542.80	58197.42
542.97	58211.46
543.14	58094.44
543.31	58145.93
543.48	58532.12
543.64	59463.65
543.81	59587.70
543.98	59405.14
544.15	58775.53
544.32	58056.99
544.48	58225.51
544.65	58632.76
544.82	58810.64
544.99	58679.57
545.16	58302.74
545.32	58101.46
545.49	58873.84
545.66	59313.86
545.83	58946.39
546.00	58499.35
546.16	58150.61
546.33	58319.13
546.50	58562.54
546.67	58677.23
546.83	58202.10
547.00	58368.28
547.17	57766.76
547.34	57120.77
547.50	57160.56
547.67	57432.07
547.84	57593.56
548.00	58159.97
548.17	58522.76
548.34	58166.99
548.51	58220.83
548.67	58277.00
548.84	58239.55
549.01	58475.94
549.18	58328.49
549.34	58159.97
549.51	58122.52
549.68	58188.06
549.84	57848.68
550.01	57825.28
550.18	57661.44
550.34	57813.57
550.51	57897.83
550.68	57946.98
550.84	57539.73
551.01	57560.79
551.18	57577.18
551.34	57572.50
551.51	58007.84
551.68	58506.37
551.84	58337.85
552.01	58323.81
552.18	57979.75
552.34	57041.20
552.51	56818.84
552.68	56772.03
552.84	57413.34
553.01	57471.85
553.18	57506.96
553.34	57675.48
553.51	57645.05
553.67	57832.30
553.84	58246.57
554.01	57972.73
554.17	57729.31
554.34	57914.22
554.51	58056.99
554.67	58258.27
554.84	58183.38
555.00	57832.30
555.17	57462.49
555.33	57516.32
555.50	57612.29
555.67	57378.23
555.83	57427.38
556.00	57265.89
556.16	57125.46
556.33	56608.20
556.50	56502.87
556.66	56631.60
556.83	56322.65
556.99	56231.37
557.16	56488.83
557.32	56755.65
557.49	57027.15
557.65	56900.76
557.82	56856.29
557.98	56765.01
558.15	56549.68
558.32	55679.00
558.48	54930.03
558.65	54843.43
558.81	55463.67
558.98	55693.05
559.14	55849.86
559.31	55966.89
559.47	55978.59
559.64	55269.41
559.80	55192.17
559.97	55447.29
560.13	55805.39
560.30	56577.77
560.46	57336.10
560.63	57275.25
560.79	57237.80
560.96	56933.53
561.12	55798.37
561.29	54932.37
561.45	54747.47
561.61	55702.41
561.78	56250.09
561.94	55922.42
562.11	56027.74
562.27	55915.40
562.44	55686.03
562.60	56205.62
562.77	56566.07
562.93	56488.83
563.10	56374.14
563.26	55781.99
563.42	55735.18
563.59	55456.65
563.75	55634.53
563.92	55552.62
564.08	55646.24
564.24	56044.13
564.41	55884.97
564.57	55662.62
564.74	55470.70
564.90	55629.85
565.07	55318.56
565.23	55133.66
565.39	54602.36
565.56	54244.26
565.72	54227.87
565.88	54466.61
566.05	54344.90
566.21	54583.63
566.38	54869.18
566.54	55025.99
566.70	55524.53
566.87	55316.22
567.03	55388.78
567.19	55976.25
567.36	55559.64
567.52	55395.80
567.68	55047.06
567.85	54384.69
568.01	54031.27
568.17	53670.82
568.34	53722.32
568.50	53820.62
568.66	53776.15
568.83	54120.21
568.99	54202.13
569.15	54719.38
569.32	54218.51
569.48	54267.66
569.64	54113.19
569.81	53614.65
569.97	53558.48
570.13	53488.26
570.30	53081.01
570.46	52706.52
570.62	52037.13
570.78	51973.94
570.95	52051.17
571.11	53251.87
571.27	53457.84
571.43	53673.16
571.60	53696.57
571.76	54057.01
571.92	54223.19
572.09	54291.07
572.25	54068.72
572.41	54272.34
572.57	54113.19
572.74	54246.60
572.90	53848.71
573.06	53607.63
573.22	53799.55
573.38	53635.72
573.55	53663.80
573.71	54047.65
573.87	53673.16
574.03	53661.46
574.20	53701.25
574.36	53188.67
574.52	53162.93
574.68	53085.69
574.84	52271.18
575.01	52079.26
575.17	51964.57
575.33	52350.76
575.49	52502.90
575.65	52687.80
575.82	52376.51
575.98	52406.94
576.14	52519.28
576.30	52587.16
576.46	52839.93
576.62	52694.82
576.79	52772.06
576.95	52261.82
577.11	52226.71
577.27	52458.43
577.43	52507.58
577.59	52238.42
577.75	51459.02
577.92	51140.71
578.08	51220.28
578.24	51063.47
578.40	51243.69
578.56	51578.39
578.72	51459.02
578.88	52020.75
579.04	51863.93
579.21	52069.90
579.37	52027.77
579.53	52383.53
579.69	51985.64
579.85	52252.46
580.01	52350.76
580.17	51716.48
580.33	51402.85
580.49	51653.28
580.65	51847.55
580.82	51870.95
580.98	52088.62
581.14	51901.38
581.30	51992.66
581.46	51959.89
581.62	52161.18
581.78	52317.99
581.94	52512.26
582.10	51973.94
582.26	52229.05
582.42	52306.29
582.58	52444.38
582.74	52238.42
582.90	52222.03
583.06	52268.84
583.22	52250.12
583.38	52215.01
583.54	52046.49
583.70	51522.21
583.86	51714.14
584.02	51819.46
584.18	51723.50
584.34	51798.40
584.50	51456.68
584.66	51627.54
584.82	50794.31
584.98	51262.41
585.14	50508.76
585.30	50038.31
