SpectraSuite Data File
++++++++++++++++++++++++++++++++++++
Date: Mon Oct 07 14:53:45 GMT-05:00 2013
User: price-jones
Dark Spectrum Present: No
Reference Spectrum Present: No
Number of Sampled Component Spectra: 1
Spectrometers: USB2+H05261
Integration Time (usec): 100000 (USB2+H05261)
Spectra Averaged: 1 (USB2+H05261)
Boxcar Smoothing: 0 (USB2+H05261)
Correct for Electrical Dark: No (USB2+H05261)
Strobe/Lamp Enabled: No (USB2+H05261)
Correct for Detector Non-linearity: No (USB2+H05261)
Correct for Stray Light: No (USB2+H05261)
Number of Pixels in Processed Spectrum: 2048
>>>>>Begin Processed Spectral Data<<<<<
365.73	0.00
365.92	0.00
366.12	0.00
366.32	0.00
366.52	0.00
366.72	0.00
366.91	0.00
367.11	0.00
367.31	0.00
367.51	0.00
367.70	0.00
367.90	0.00
368.10	0.00
368.30	0.00
368.49	0.00
368.69	0.00
368.89	0.00
369.09	0.00
369.28	0.00
369.48	0.00
369.68	0.00
369.87	0.00
370.07	0.00
370.27	0.00
370.47	571.09
370.66	3082.49
370.86	3658.26
371.06	4044.45
371.25	3948.48
371.45	3684.00
371.65	3241.64
371.84	2993.55
372.04	3187.81
372.24	3674.64
372.44	3805.71
372.63	3679.32
372.83	3496.76
373.03	3129.30
373.22	2918.65
373.42	3066.10
373.62	3358.67
373.81	3726.13
374.01	3648.90
374.21	3300.16
374.40	3108.23
374.60	3197.17
374.79	3630.17
374.99	4255.09
375.19	4613.20
375.38	4557.02
375.58	4301.90
375.78	4348.72
375.97	4292.54
376.17	4409.57
376.37	4393.19
376.56	4535.96
376.76	4755.97
376.95	5151.52
377.15	5530.69
377.35	5582.18
377.54	5966.03
377.74	5853.68
377.93	6108.80
378.13	5935.60
378.33	5666.44
378.52	5303.65
378.72	5064.92
378.91	4971.30
379.11	4746.61
379.31	4652.98
379.50	4631.92
379.70	4961.94
379.89	5584.52
380.09	5729.63
380.28	5970.71
380.48	6019.86
380.68	5750.70
380.87	5863.04
381.07	5200.67
381.26	4894.06
381.46	4664.69
381.65	4421.27
381.85	4430.63
382.04	4318.29
382.24	3857.20
382.43	3728.47
382.63	3651.24
382.83	3709.75
383.02	3735.50
383.22	3520.17
383.41	3749.54
383.61	3857.20
383.80	4297.22
384.00	4964.28
384.19	5769.42
384.39	5881.77
384.58	5841.98
384.78	5898.15
384.97	5708.57
385.17	5406.64
385.36	5193.65
385.56	4922.15
385.75	5268.55
385.95	5699.20
386.14	6169.65
386.34	6235.19
386.53	5830.27
386.72	5432.38
386.92	5647.71
387.11	5685.16
387.31	6038.58
387.50	6001.13
387.70	5806.87
387.89	5657.07
388.09	5825.59
388.28	5853.68
388.48	5841.98
388.67	6265.61
388.86	6949.05
389.06	7368.01
389.25	7798.66
389.45	7880.58
389.64	7712.07
389.84	7705.04
390.03	7681.64
390.22	7854.84
390.42	7831.43
390.61	8381.46
390.81	9167.88
391.00	9312.99
391.19	9254.48
391.39	9057.87
391.58	8592.11
391.78	7861.86
391.97	7632.49
392.16	7084.80
392.36	6579.25
392.55	5200.67
392.75	4159.13
392.94	3459.31
393.13	3309.52
393.33	3920.40
393.52	5111.73
393.71	6106.46
393.91	7000.54
394.10	7801.01
394.29	8355.71
394.49	8945.53
394.68	9673.43
394.88	9703.86
395.07	10253.89
395.26	9837.27
395.46	9589.17
395.65	9221.71
395.84	8074.85
396.04	6686.91
396.23	5591.54
396.42	4594.47
396.62	4334.67
396.81	5088.32
397.00	6511.37
397.19	8383.80
397.39	9701.52
397.58	10960.73
397.77	11470.97
397.97	11981.20
398.16	12018.65
398.35	12678.68
398.55	12910.40
398.74	13385.52
398.93	13802.14
399.12	13415.95
399.32	13137.43
399.51	13582.13
399.70	14443.45
399.90	14303.01
400.09	14200.03
400.28	13884.06
400.47	14256.20
400.67	14993.47
400.86	15222.84
401.05	15524.77
401.24	15489.67
401.44	15393.70
401.63	15463.92
401.82	15641.80
402.01	15569.24
402.21	16023.31
402.40	15807.98
402.59	15737.76
402.78	14986.45
402.97	14361.53
403.17	14792.19
403.36	15761.17
403.55	16444.60
403.74	16697.38
403.93	16025.65
404.13	14682.18
404.32	14090.02
404.51	15021.56
404.70	16077.14
404.89	15997.56
405.09	16372.05
405.28	15541.16
405.47	15351.57
405.66	15609.03
405.85	15257.95
406.05	14864.74
406.24	14890.49
406.43	15623.08
406.62	16269.06
406.81	16276.09
407.00	15557.54
407.20	15414.77
407.39	15400.72
407.58	16126.29
407.77	16662.27
407.96	17284.86
408.15	17422.95
408.34	17245.07
408.54	18310.01
408.73	18375.55
408.92	18473.85
409.11	17399.54
409.30	16563.97
409.49	15929.69
409.68	14665.80
409.87	14445.79
410.07	15344.55
410.26	16262.04
410.45	17572.74
410.64	18106.38
410.83	18494.91
411.02	18909.19
411.21	19548.15
411.40	19522.41
411.59	19730.72
411.78	19335.17
411.98	19058.98
412.17	19381.98
412.36	19183.03
412.55	19276.65
412.74	18600.24
412.93	18375.55
413.12	18427.04
413.31	20016.26
413.50	20432.88
413.69	21003.97
413.88	20067.75
414.07	19321.12
414.26	19609.01
414.45	20374.36
414.64	20482.03
414.83	20498.41
415.02	20128.61
415.22	20077.12
415.41	20372.02
415.60	20844.81
415.79	21881.67
415.98	22731.28
416.17	22195.30
416.36	21610.17
416.55	21720.17
416.74	20720.76
416.93	19920.30
417.12	20306.49
417.31	20606.08
417.50	20688.00
417.69	21610.17
417.88	21799.75
418.07	21392.50
418.26	21053.12
418.45	21216.96
418.64	21921.46
418.83	22436.38
419.02	22300.62
419.21	22277.22
419.39	21078.86
419.58	20142.65
419.77	20336.91
419.96	20978.22
420.15	22499.57
420.34	22820.22
420.53	23866.44
420.72	24093.47
420.91	23922.62
421.10	23592.60
421.29	23644.09
421.48	22733.62
421.67	24006.87
421.86	23204.07
422.05	21422.92
422.24	19157.28
422.43	18899.83
422.61	21055.46
422.80	22981.72
422.99	22719.58
423.18	22008.06
423.37	21516.54
423.56	21766.98
423.75	22244.45
423.94	22302.96
424.13	21507.18
424.32	21659.32
424.50	21823.16
424.69	21205.25
424.88	21500.16
425.07	21575.06
425.26	21619.53
425.45	21006.31
425.64	20519.48
425.83	20568.63
426.01	21994.01
426.20	22513.61
426.39	22637.66
426.58	20908.01
426.77	19075.37
426.96	18478.53
427.15	19047.28
427.33	20746.51
427.52	21649.96
427.71	22071.25
427.90	21507.18
428.09	21235.68
428.28	20814.38
428.46	20217.55
428.65	19882.85
428.84	20407.13
429.03	20666.93
429.22	19742.42
429.40	19030.90
429.59	17060.16
429.78	14895.17
429.97	14658.78
430.16	14977.09
430.34	15316.47
430.53	15183.06
430.72	15489.67
430.91	16891.65
431.10	19885.19
431.28	23557.49
431.47	25474.39
431.66	26094.63
431.85	23737.71
432.03	21867.63
432.22	20809.70
432.41	21750.60
432.60	24084.11
432.79	24900.96
432.97	25645.25
433.16	24922.02
433.35	22537.02
433.54	20695.02
433.72	19428.79
433.91	19756.46
434.10	22022.10
434.28	23833.68
434.47	24978.20
434.66	24725.42
434.85	23627.71
435.03	23501.32
435.22	24521.79
435.41	26155.49
435.59	26328.69
435.78	26382.52
435.97	26836.58
436.16	27527.04
436.34	26822.54
436.53	26555.72
436.72	26012.71
436.90	24730.10
437.09	25261.40
437.28	24397.74
437.46	24994.58
437.65	25167.78
437.84	23756.44
438.02	21455.69
438.21	21296.53
438.40	22714.90
438.58	24732.44
438.77	24795.64
438.96	25305.87
439.14	26518.27
439.33	27105.74
439.52	27833.65
439.70	27051.91
439.89	26314.64
440.08	25649.93
440.26	25680.36
440.45	26223.36
440.63	27725.99
440.82	29792.68
441.01	29308.19
441.19	28989.88
441.38	29280.10
441.57	30270.15
441.75	30923.16
441.94	31087.00
442.12	30574.42
442.31	31260.20
442.50	31534.04
442.68	30920.82
442.87	30768.68
443.05	30054.82
443.24	30333.34
443.43	31424.03
443.61	31667.45
443.80	32716.01
443.98	30085.25
444.17	30574.42
444.35	32297.05
444.54	32666.86
444.73	32123.85
444.91	30951.24
445.10	30024.39
445.28	28627.09
445.47	28261.97
445.65	28222.18
445.84	29039.03
446.02	30096.95
446.21	30366.11
446.39	30780.39
446.58	30918.48
446.77	31161.89
446.95	31770.43
447.14	32512.38
447.32	33095.18
447.51	32163.64
447.69	30920.82
447.88	30684.42
448.06	30848.26
448.25	32203.43
448.43	32196.41
448.62	31594.89
448.80	31140.83
448.99	31627.66
449.17	31967.04
449.36	32067.68
449.54	33139.65
449.73	33720.10
449.91	34260.76
450.10	34876.32
450.28	35709.55
450.46	35079.95
450.65	35274.21
450.83	35110.38
451.02	34031.39
451.20	34134.37
451.39	34029.05
451.57	34015.01
451.76	33757.55
451.94	34071.18
452.13	32655.15
452.31	31559.78
452.49	30092.27
452.68	30136.74
452.86	30551.01
453.05	30916.14
453.23	31777.45
453.42	32708.99
453.60	33078.79
453.78	33572.64
453.97	33179.43
454.15	33383.06
454.34	32547.49
454.52	32795.59
454.70	32313.44
454.89	32573.24
455.07	32748.78
455.26	32950.06
455.44	34258.42
455.62	34572.05
455.81	35068.25
455.99	35051.86
456.17	34763.98
456.36	34354.38
456.54	35697.85
456.73	34953.56
456.91	35857.01
457.09	36526.40
457.28	36957.06
457.46	35459.12
457.64	35257.83
457.83	34412.90
458.01	33165.39
458.19	34218.63
458.38	34127.35
458.56	35311.66
458.74	35548.06
458.93	34436.30
459.11	35019.10
459.29	34237.36
459.48	34717.17
459.66	34117.99
459.84	35049.52
460.03	35253.15
460.21	35386.56
460.39	36245.54
460.57	36067.66
460.76	36865.78
460.94	36650.45
461.12	36102.76
461.31	36872.80
461.49	36414.05
461.67	36140.21
461.85	37343.25
462.04	36910.25
462.22	37289.42
462.40	37024.93
462.59	37041.32
462.77	37024.93
462.95	36870.46
463.13	36650.45
463.32	36512.36
463.50	36189.36
463.68	36144.89
463.86	36416.40
464.05	35665.08
464.23	35742.32
464.41	34646.95
464.59	34759.30
464.78	36041.91
464.96	35880.41
465.14	35463.80
465.32	36371.92
465.50	37462.61
465.69	37181.75
465.87	36959.40
466.05	36353.20
466.23	34202.25
466.41	33216.88
466.60	34373.11
466.78	34740.57
466.96	34815.47
467.14	35583.16
467.32	36451.50
467.51	36170.64
467.69	34487.79
467.87	35536.35
468.05	35873.39
468.23	35639.34
468.41	35770.41
468.60	36432.78
468.78	36481.93
468.96	35920.20
469.14	36643.43
469.32	36854.08
469.50	35255.49
469.69	35503.59
469.87	34843.56
470.05	34787.38
470.23	34555.67
470.41	35372.52
470.59	35400.60
470.77	35597.21
470.95	36261.92
471.14	36786.20
471.32	36664.49
471.50	39079.92
471.68	39358.45
471.86	39438.03
472.04	39313.98
472.22	39906.13
472.40	37996.26
472.58	37153.66
472.77	36573.21
472.95	37680.28
473.13	38391.81
473.31	37682.62
473.49	37853.48
473.67	38714.80
473.85	38761.61
474.03	39625.27
474.21	40011.46
474.39	40374.24
474.57	40102.74
474.75	40542.76
474.93	40055.93
475.12	38958.22
475.30	39213.34
475.48	39405.26
475.66	40011.46
475.84	39339.72
476.02	39342.06
476.20	38752.25
476.38	39328.02
476.56	40126.14
476.74	41155.98
476.92	41347.90
477.10	41876.86
477.28	43243.74
477.46	43014.37
477.64	43538.65
477.82	43847.60
478.00	43445.02
478.18	42913.72
478.36	42759.25
478.54	43297.57
478.72	43185.22
478.90	43714.19
479.08	45434.48
479.26	45902.59
479.44	45710.66
479.62	45261.28
479.80	45291.71
479.98	45801.94
480.16	45935.35
480.34	45603.00
480.52	45689.60
480.70	46440.91
480.88	45930.67
481.06	47000.30
481.24	46944.12
481.41	47950.56
481.59	48626.97
481.77	48392.92
481.95	47311.59
482.13	47653.31
482.31	47807.78
482.49	48802.51
482.67	47992.68
482.85	48428.02
483.03	48446.75
483.21	49439.14
483.39	49350.20
483.57	48327.38
483.74	48442.07
483.92	49001.46
484.10	48549.73
484.28	49895.54
484.46	49970.44
484.64	50258.32
484.82	49682.55
485.00	48886.77
485.18	48315.68
485.35	46770.93
485.53	44149.53
485.71	40786.18
485.89	39665.06
486.07	41509.40
486.25	45188.72
486.43	47138.39
486.61	48135.46
486.78	47812.46
486.96	48240.78
487.14	50300.45
487.32	50691.32
487.50	51491.79
487.68	52322.68
487.85	52975.69
488.03	52374.17
488.21	52371.83
488.39	51564.34
488.57	51285.82
488.75	50899.63
488.92	51861.59
489.10	54000.84
489.28	54958.12
489.46	55468.36
489.64	55573.68
489.81	55657.94
489.99	55145.36
490.17	55250.69
490.35	55456.65
490.53	55023.65
490.70	54763.85
490.88	54681.94
491.06	55674.32
491.24	55721.13
491.41	54679.60
491.59	53237.83
491.77	52376.51
491.95	53609.97
492.13	54719.38
492.30	55831.14
492.48	56715.86
492.66	56919.49
492.84	57015.45
493.01	56748.63
493.19	56097.96
493.37	55910.72
493.54	55810.07
493.72	56203.28
493.90	57118.43
494.08	57883.79
494.25	58129.54
494.43	58071.03
494.61	58525.10
494.79	58471.26
494.96	58560.20
495.14	57930.60
495.32	57116.09
495.49	56472.45
495.67	57485.90
495.85	58710.00
496.02	59271.73
496.20	59084.48
496.38	58466.58
496.55	58398.71
496.73	58871.49
496.91	59194.49
497.09	59543.23
497.26	59746.86
497.44	59210.87
497.62	58820.00
497.79	58120.18
497.97	57008.43
498.14	57109.07
498.32	57972.73
498.50	58791.92
498.67	59306.83
498.85	59391.09
499.03	59344.28
499.20	59554.93
499.38	59678.98
499.56	59480.03
499.73	59002.56
499.91	58674.89
500.08	58291.04
500.26	57743.36
500.44	57867.40
500.61	58700.64
500.79	58681.91
500.97	58262.96
501.14	58075.71
501.32	57822.93
501.49	57937.62
501.67	58255.93
501.84	58644.46
502.02	58798.94
502.20	59180.45
502.37	59405.14
502.55	59121.93
502.72	59901.33
502.90	60224.32
503.07	59898.99
503.25	59749.20
503.43	58850.43
503.60	58403.39
503.78	57621.65
503.95	58087.42
504.13	59313.86
504.30	60083.89
504.48	59840.48
504.65	59627.49
504.83	59615.79
505.01	60074.53
505.18	60467.74
505.36	61020.11
505.53	61066.92
505.71	61197.99
505.88	61247.14
506.06	60774.35
506.23	60446.68
506.41	59868.56
506.58	60357.74
506.76	60203.26
506.93	60317.95
507.11	60107.30
507.28	60016.02
507.46	59683.66
507.63	59306.83
507.81	58908.94
507.98	59236.62
508.16	59931.76
508.33	60434.97
508.50	60657.32
508.68	61062.24
508.85	61443.74
509.03	61464.81
509.20	61300.97
509.38	60741.58
509.55	60081.55
509.73	59945.80
509.90	60535.62
510.08	60832.86
510.25	60575.40
510.42	60434.97
510.60	60383.48
510.77	60636.26
510.95	61242.46
511.12	61350.12
511.30	61415.66
511.47	61848.66
511.64	61586.52
511.82	61542.05
511.99	60856.27
512.17	60268.79
512.34	59934.10
512.51	60275.82
512.69	60378.80
512.86	60346.03
513.04	60835.20
513.21	60924.14
513.38	60533.28
513.56	60119.00
513.73	59426.20
513.90	59618.13
514.08	59781.96
514.25	60044.10
514.43	60149.43
514.60	60257.09
514.77	60406.89
514.95	60467.74
515.12	60266.45
515.29	60692.43
515.47	60970.96
515.64	61366.51
515.81	60921.80
515.99	60259.43
516.16	59341.94
516.33	57233.12
516.51	55669.64
516.68	55016.63
516.85	54482.99
517.03	54665.55
517.20	57364.19
517.37	59578.34
517.54	60566.04
517.72	60027.72
517.89	57939.96
518.06	55767.94
518.24	55796.03
518.41	57883.79
518.58	59098.53
518.75	59409.82
518.93	59622.81
519.10	59351.30
519.27	59884.95
519.45	59994.95
519.62	60699.45
519.79	61109.05
519.96	60884.36
520.14	60530.93
520.31	59599.40
520.48	59781.96
520.65	60016.02
520.83	60856.27
521.00	61296.29
521.17	60898.40
521.34	60509.87
521.52	60741.58
521.69	61137.13
521.86	61752.69
522.03	61324.38
522.20	60296.88
522.38	59316.20
522.55	59327.90
522.72	59786.64
522.89	60119.00
523.07	60233.69
523.24	60411.57
523.41	61333.74
523.58	61703.54
523.75	62035.90
523.92	61797.16
524.10	61738.65
524.27	61918.87
524.44	61586.52
524.61	61572.47
524.78	61286.93
524.96	61202.67
525.13	61235.44
525.30	61420.34
525.47	61822.91
525.64	61918.87
525.81	61230.75
525.98	59697.70
526.16	58714.68
526.33	57942.30
526.50	57682.50
526.67	57530.37
526.84	57687.18
527.01	58890.22
527.18	59477.69
527.36	60243.05
527.53	61109.05
527.70	61310.33
527.87	60914.78
528.04	60376.46
528.21	60659.66
528.38	61481.19
528.55	62005.47
528.72	62206.76
528.89	62560.18
529.07	62131.86
529.24	61675.46
529.41	61155.86
529.58	60264.11
529.75	60566.04
529.92	61017.77
530.09	61354.80
530.26	61722.27
530.43	61998.45
530.60	62021.86
530.77	62258.25
530.94	62351.87
531.11	61953.98
531.28	61619.28
531.46	61481.19
531.63	61544.39
531.80	61406.30
531.97	60933.51
532.14	60280.50
532.31	59409.82
532.48	58894.90
532.65	58789.58
532.82	59510.46
532.99	60587.11
533.16	60973.30
533.33	61497.58
533.50	61413.32
533.67	60818.82
533.84	60322.63
534.01	60645.62
534.18	60779.03
534.35	60966.27
534.52	60786.05
534.69	61120.75
534.86	61347.78
535.03	61403.95
535.20	61860.36
535.37	62145.90
535.54	62417.41
535.71	62099.09
535.88	61532.68
536.05	61226.07
536.22	60893.72
536.38	60647.96
536.55	60086.23
536.72	59686.00
536.89	59522.16
537.06	60278.16
537.23	61073.94
537.40	61322.04
537.57	61317.35
537.74	61050.53
537.91	60966.27
538.08	60893.72
538.25	60816.48
538.42	61296.29
538.59	61097.34
538.75	60516.89
538.92	60275.82
539.09	60172.83
539.26	59889.63
539.43	59767.92
539.60	59861.54
539.77	60034.74
539.94	60062.83
540.11	59077.46
540.28	58679.57
540.44	58887.88
540.61	59007.25
540.78	59196.83
540.95	59678.98
541.12	60088.57
541.29	60126.02
541.46	60528.59
541.62	60542.64
541.79	60310.92
541.96	59709.41
542.13	59994.95
542.30	60055.81
542.47	60362.42
542.63	60119.00
542.80	59793.67
542.97	59973.89
543.14	59999.63
543.31	59964.52
543.48	60350.71
543.64	61188.63
543.81	61373.53
543.98	61141.81
544.15	60327.31
544.32	60009.00
544.48	60027.72
544.65	60687.75
544.82	60846.91
544.99	60711.16
545.16	60268.79
545.32	59931.76
545.49	60748.60
545.66	60938.19
545.83	60727.54
546.00	60329.65
546.16	60062.83
546.33	60289.86
546.50	60252.41
546.67	60463.06
546.83	60226.66
547.00	60053.47
547.17	59559.61
547.34	58951.07
547.50	58908.94
547.67	59332.58
547.84	59428.54
548.00	59840.48
548.17	60296.88
548.34	59999.63
548.51	60163.47
548.67	60044.10
548.84	60413.91
549.01	60245.39
549.18	59976.23
549.34	59964.52
549.51	60030.06
549.68	59987.93
549.84	59803.03
550.01	59721.11
550.18	59536.21
550.34	59760.90
550.51	59718.77
550.68	59964.52
550.84	59320.88
551.01	59409.82
551.18	59311.52
551.34	59489.40
551.51	59934.10
551.68	60123.68
551.84	60294.54
552.01	60044.10
552.18	59927.08
552.34	59236.62
552.51	58862.13
552.68	58494.67
552.84	59044.69
553.01	59363.01
553.18	59327.90
553.34	59334.92
553.51	59615.79
553.67	59812.39
553.84	59756.22
554.01	59751.54
554.17	59573.66
554.34	59746.86
554.51	59746.86
554.67	60023.04
554.84	59938.78
555.00	59643.87
555.17	59501.10
555.33	59381.73
555.50	59391.09
555.67	59274.07
555.83	59100.87
556.00	58885.54
556.16	58990.86
556.33	58541.48
556.50	58506.37
556.66	58433.81
556.83	58101.46
556.99	58305.09
557.16	58468.92
557.32	58756.81
557.49	58906.60
557.65	58885.54
557.82	58789.58
557.98	58571.91
558.15	58248.91
558.32	57607.61
558.48	56664.37
558.65	57020.13
558.81	57160.56
558.98	57429.72
559.14	57822.93
559.31	57949.32
559.47	58035.92
559.64	57602.92
559.80	57474.20
559.97	57137.16
560.13	57783.15
560.30	58417.43
560.46	59084.48
560.63	59278.75
560.79	59110.23
560.96	59025.97
561.12	57726.97
561.29	57029.49
561.45	57249.50
561.61	57418.02
561.78	57853.36
561.94	57848.68
562.11	57836.98
562.27	57677.82
562.44	57794.85
562.60	58120.18
562.77	58482.97
562.93	58120.18
563.10	58096.78
563.26	57598.24
563.42	57719.95
563.59	57286.95
563.75	57626.33
563.92	57560.79
564.08	57558.45
564.24	57635.69
564.41	57811.23
564.57	57602.92
564.74	57565.48
564.90	57483.56
565.07	57268.23
565.23	56727.56
565.39	56376.48
565.56	56301.59
565.72	55903.70
565.88	56385.85
566.05	56502.87
566.21	56762.67
566.38	56999.07
566.54	56872.68
566.70	57015.45
566.87	57523.35
567.03	57291.63
567.19	57724.63
567.36	57401.64
567.52	57228.44
567.68	57127.80
567.85	56442.02
568.01	56032.42
568.17	55910.72
568.34	55903.70
568.50	55632.19
568.66	55826.46
568.83	56151.79
568.99	56254.78
569.15	56320.31
569.32	56584.79
569.48	56317.97
569.64	56217.33
569.81	55627.51
569.97	55625.17
570.13	55931.78
570.30	55091.53
570.46	55086.85
570.62	54447.88
570.78	54155.32
570.95	54649.17
571.11	55395.80
571.27	55402.82
571.43	55456.65
571.60	55789.01
571.76	56044.13
571.92	56385.85
572.09	56444.36
572.25	56425.64
572.41	56236.05
572.57	56095.62
572.74	56109.66
572.90	56025.40
573.06	55688.37
573.22	55791.35
573.38	56074.55
573.55	55814.76
573.71	55941.14
573.87	55854.54
574.03	55648.58
574.20	55643.90
574.36	55400.48
574.52	55246.00
574.68	54946.42
574.84	54731.09
575.01	54363.62
575.17	54152.97
575.33	54466.61
575.49	54845.77
575.65	55089.19
575.82	54691.30
575.98	54539.16
576.14	54789.60
576.30	55136.00
576.46	55285.79
576.62	55030.68
576.79	55105.57
576.95	54583.63
577.11	54618.74
577.27	54583.63
577.43	54873.86
577.59	54452.56
577.75	53968.07
577.92	53514.01
578.08	53352.51
578.24	53286.98
578.40	53516.35
578.56	53895.52
578.72	54129.57
578.88	54040.63
579.04	54284.04
579.21	54218.51
579.37	54365.96
579.53	54384.69
579.69	54398.73
579.85	54450.22
580.01	54513.42
580.17	53958.71
580.33	53846.36
580.49	54010.20
580.65	54138.93
580.82	54284.04
580.98	54522.78
581.14	54368.30
581.30	54274.68
581.46	54272.34
581.62	54550.87
581.78	54312.13
581.94	54550.87
582.10	54438.52
582.26	54499.37
582.42	54337.88
582.58	54607.04
582.74	54157.66
582.90	54253.62
583.06	54555.55
583.22	54188.08
583.38	54195.10
583.54	54017.22
583.70	54209.15
583.86	54028.93
584.02	53993.82
584.18	54267.66
584.34	54040.63
584.50	53848.71
584.66	53932.96
584.82	53647.42
584.98	53291.66
585.14	53104.41
