SpectraSuite Data File
++++++++++++++++++++++++++++++++++++
Date: Mon Oct 07 14:54:01 GMT-05:00 2013
User: price-jones
Dark Spectrum Present: No
Reference Spectrum Present: No
Number of Sampled Component Spectra: 1
Spectrometers: USB2+H05261
Integration Time (usec): 100000 (USB2+H05261)
Spectra Averaged: 1 (USB2+H05261)
Boxcar Smoothing: 0 (USB2+H05261)
Correct for Electrical Dark: No (USB2+H05261)
Strobe/Lamp Enabled: No (USB2+H05261)
Correct for Detector Non-linearity: No (USB2+H05261)
Correct for Stray Light: No (USB2+H05261)
Number of Pixels in Processed Spectrum: 2048
>>>>>Begin Processed Spectral Data<<<<<
365.73	0.00
365.92	0.00
366.12	0.00
366.32	0.00
366.52	0.00
366.72	0.00
366.91	0.00
367.11	0.00
367.31	0.00
367.51	0.00
367.70	0.00
367.90	0.00
368.10	0.00
368.30	0.00
368.49	0.00
368.69	0.00
368.89	0.00
369.09	0.00
369.28	0.00
369.48	0.00
369.68	0.00
369.87	0.00
370.07	0.00
370.27	0.00
370.47	653.01
370.66	3379.73
370.86	3946.14
371.06	4381.48
371.25	4374.46
371.45	3904.01
371.65	3520.17
371.84	3358.67
372.04	3459.31
372.24	3992.95
372.44	4072.53
372.63	3896.99
372.83	3698.05
373.03	3227.60
373.22	2977.16
373.42	3075.46
373.62	3672.30
373.81	3943.80
374.01	4018.70
374.21	3536.55
374.40	3302.50
374.60	3365.69
374.79	3960.19
374.99	4468.08
375.19	4807.46
375.38	4784.06
375.58	4664.69
375.78	4381.48
375.97	4681.07
376.17	4858.95
376.37	4624.90
376.56	5036.83
376.76	5109.39
376.95	5418.34
377.15	5785.80
377.35	6080.71
377.54	6328.81
377.74	6492.65
377.93	6455.20
378.13	6284.34
378.33	5975.39
378.52	5416.00
378.72	5291.95
378.91	5228.76
379.11	4961.94
379.31	5022.79
379.50	4781.71
379.70	5266.21
379.89	5865.38
380.09	6057.31
380.28	6534.78
380.48	6319.45
380.68	6244.55
380.87	6136.88
381.07	5556.43
381.26	5273.23
381.46	4868.31
381.65	4748.95
381.85	4676.39
382.04	4276.16
382.24	4107.64
382.43	3948.48
382.63	3808.05
382.83	3831.46
383.02	3955.51
383.22	3726.13
383.41	3901.67
383.61	4175.52
383.80	4784.06
384.00	5371.53
384.19	6033.90
384.39	6289.02
384.58	6314.77
384.78	6382.64
384.97	6038.58
385.17	6052.63
385.36	5437.06
385.56	5362.17
385.75	5540.05
385.95	5940.28
386.14	6464.56
386.34	6530.09
386.53	6083.05
386.72	5636.01
386.92	5837.30
387.11	6207.10
387.31	6406.05
387.50	6368.60
387.70	6085.39
387.89	6031.56
388.09	5989.43
388.28	6176.67
388.48	6389.66
388.67	6656.48
388.86	7478.01
389.06	7852.50
389.25	8292.52
389.45	8718.50
389.64	8458.70
389.84	8329.97
390.03	8119.32
390.22	8161.45
390.42	8442.31
390.61	8835.52
390.81	9858.34
391.00	9767.06
391.19	9720.24
391.39	9359.80
391.58	8744.24
391.78	8414.23
391.97	8156.77
392.16	7389.07
392.36	6829.68
392.55	5593.88
392.75	4217.65
392.94	3578.68
393.13	3456.97
393.33	4091.26
393.52	5378.55
393.71	6494.99
393.91	7342.26
394.10	7939.10
394.29	8521.89
394.49	9366.82
394.68	10331.12
394.88	10246.87
395.07	10626.03
395.26	10391.98
395.46	10092.39
395.65	9476.83
395.84	8327.63
396.04	7185.44
396.23	5633.67
396.42	4758.31
396.62	4615.54
396.81	5366.85
397.00	6993.52
397.19	8638.92
397.39	10361.55
397.58	11541.18
397.77	12126.32
397.97	12819.11
398.16	12727.83
398.35	13177.22
398.55	13785.76
398.74	14214.07
398.93	14490.26
399.12	14305.35
399.32	13460.42
399.51	13980.02
399.70	14904.53
399.90	14745.38
400.09	14815.59
400.28	14417.70
400.47	14827.29
400.67	15562.22
400.86	15950.75
401.05	16121.61
401.24	15878.19
401.44	16381.41
401.63	16271.40
401.82	16568.65
402.01	16306.51
402.21	16783.98
402.40	16582.70
402.59	16280.77
402.78	15449.88
402.97	14878.79
403.17	15599.67
403.36	16358.00
403.55	16910.37
403.74	17301.24
403.93	16596.74
404.13	15293.06
404.32	14960.70
404.51	15487.32
404.70	16868.24
404.89	16800.37
405.09	16435.24
405.28	16236.30
405.47	15946.07
405.66	15957.77
405.85	15906.28
406.05	15119.86
406.24	15688.61
406.43	16093.52
406.62	16776.96
406.81	16645.89
407.00	15964.79
407.20	15995.22
407.39	15686.27
407.58	16472.69
407.77	17289.54
407.96	17664.02
408.15	17774.03
408.34	17928.50
408.54	18906.85
408.73	19197.07
408.92	18916.21
409.11	18176.60
409.30	17308.26
409.49	16388.43
409.68	15424.13
409.87	14745.38
410.07	15602.01
410.26	17247.41
410.45	17947.23
410.64	18368.52
410.83	19194.73
411.02	19426.45
411.21	20201.16
411.40	20039.67
411.59	20091.16
411.78	20123.93
411.98	19445.17
412.17	20112.22
412.36	19330.48
412.55	20058.39
412.74	19232.18
412.93	18670.45
413.12	18881.10
413.31	20971.20
413.50	20950.14
413.69	21458.03
413.88	20556.93
414.07	19742.42
414.26	20290.10
414.45	21097.59
414.64	21041.42
414.83	21221.64
415.02	20463.30
415.22	20409.47
415.41	21184.19
415.60	21914.44
415.79	22700.86
415.98	23028.53
416.17	23021.51
416.36	22735.96
416.55	22295.94
416.74	21731.87
416.93	20732.47
417.12	20774.60
417.31	21149.08
417.50	21689.74
417.69	21869.97
417.88	22192.96
418.07	21792.73
418.26	21689.74
418.45	21598.46
418.64	22494.89
418.83	23021.51
419.02	22965.34
419.21	22817.88
419.39	21539.95
419.58	20627.14
419.77	20870.56
419.96	21451.01
420.15	22871.72
420.34	23381.95
420.53	24329.87
420.72	24786.27
420.91	24175.39
421.10	23901.55
421.29	23733.03
421.48	22813.20
421.67	24573.28
421.86	23674.52
422.05	22228.07
422.24	19985.83
422.43	19372.61
422.61	21783.37
422.80	23459.19
422.99	23503.66
423.18	22518.29
423.37	22162.53
423.56	22052.53
423.75	22394.25
423.94	23094.07
424.13	22047.85
424.32	21818.47
424.50	22155.51
424.69	21687.40
424.88	21813.79
425.07	21844.22
425.26	21706.13
425.45	21385.47
425.64	20856.51
425.83	20980.56
426.01	22204.66
426.20	22967.68
426.39	22871.72
426.58	20996.95
426.77	19644.12
426.96	18927.91
427.15	19370.27
427.33	21029.71
427.52	22155.51
427.71	22148.49
427.90	21783.37
428.09	21769.32
428.28	21568.04
428.46	20280.74
428.65	20189.46
428.84	20332.23
429.03	20690.34
429.22	19730.72
429.40	19178.35
429.59	16926.75
429.78	15016.88
429.97	15187.74
430.16	15126.88
430.34	15587.97
430.53	15262.63
430.72	15962.45
430.91	17308.26
431.10	20428.20
431.28	23990.49
431.47	26057.18
431.66	26033.78
431.85	24100.50
432.03	21912.10
432.22	21069.50
432.41	22097.00
432.60	24339.23
432.79	25156.08
432.97	26122.72
433.16	25015.65
433.35	23183.01
433.54	20680.97
433.72	19803.27
433.91	19924.98
434.10	22623.62
434.28	24341.57
434.47	25394.81
434.66	24971.18
434.85	24327.53
435.03	24322.85
435.22	24907.98
435.41	26618.91
435.59	26473.80
435.78	26597.85
435.97	27356.18
436.16	27524.70
436.34	26939.57
436.53	26366.13
436.72	26455.08
436.90	25252.04
437.09	25392.47
437.28	24393.06
437.46	25502.48
437.65	25404.17
437.84	24135.60
438.02	21488.46
438.21	21535.27
438.40	22794.48
438.58	24650.52
438.77	25340.98
438.96	25397.15
439.14	26682.11
439.33	27297.67
439.52	27615.98
439.70	27023.83
439.89	26441.03
440.08	26122.72
440.26	25879.30
440.45	26712.53
440.63	28341.55
440.82	29708.42
441.01	29212.23
441.19	29085.84
441.38	29263.72
441.57	30962.95
441.75	31271.90
441.94	30967.63
442.12	30740.60
442.31	31337.43
442.50	31749.37
442.68	31377.22
442.87	30595.48
443.05	29748.21
443.24	30387.18
443.43	31438.08
443.61	32154.28
443.80	32575.58
443.98	30415.26
444.17	30270.15
444.35	32163.64
444.54	33017.94
444.73	32369.61
444.91	31005.08
445.10	29942.47
445.28	28584.96
445.47	28222.18
445.65	28336.87
445.84	29268.40
446.02	29926.09
446.21	30277.17
446.39	30754.64
446.58	30986.35
446.77	31363.18
446.95	31552.76
447.14	32650.47
447.32	33338.59
447.51	32376.63
447.69	31182.96
447.88	30864.64
448.06	31580.85
448.25	32329.82
448.43	32306.41
448.62	31758.73
448.80	31302.32
448.99	31606.59
449.17	32002.14
449.36	31941.29
449.54	32982.83
449.73	33687.33
449.91	33792.65
450.10	35042.50
450.28	35337.41
450.46	35309.32
450.65	35290.60
450.83	34225.65
451.02	33851.17
451.20	33792.65
451.39	33928.41
451.57	33364.34
451.76	33797.34
451.94	33429.87
452.13	32875.16
452.31	31550.42
452.49	29802.04
452.68	30363.77
452.86	30160.14
453.05	30792.09
453.23	31529.36
453.42	32563.87
453.60	32868.14
453.78	33734.14
453.97	32746.44
454.15	33064.75
454.34	31889.80
454.52	32580.26
454.70	31880.44
454.89	32388.33
455.07	32407.06
455.26	33057.73
455.44	34293.53
455.62	34904.41
455.81	35194.64
455.99	34759.30
456.17	34089.90
456.36	33762.23
456.54	35482.52
456.73	35115.06
456.91	35796.15
457.09	35852.33
457.28	36613.00
457.46	35215.70
457.64	34888.03
457.83	33823.08
458.01	33060.07
458.19	33589.03
458.38	33897.98
458.56	35526.99
458.74	35044.84
458.93	34117.99
459.11	34703.12
459.29	34190.55
459.48	34445.66
459.66	34263.10
459.84	34724.19
460.03	34738.23
460.21	34873.98
460.39	35976.37
460.57	35903.82
460.76	36825.99
460.94	35955.31
461.12	35976.37
461.31	35662.74
461.49	36009.14
461.67	36390.65
461.85	36704.28
462.04	36833.01
462.22	37237.92
462.40	36978.12
462.59	36753.43
462.77	37146.64
462.95	36795.56
463.13	36444.48
463.32	35379.54
463.50	35871.05
463.68	35700.19
463.86	35849.99
464.05	35323.36
464.23	34630.57
464.41	34471.41
464.59	33958.83
464.78	35508.27
464.96	35431.03
465.14	35129.10
465.32	35763.39
465.50	36914.93
465.69	36577.89
465.87	36273.62
466.05	35260.17
466.23	33710.74
466.41	33104.54
466.60	33874.57
466.78	34181.18
466.96	34433.96
467.14	34799.08
467.32	35604.23
467.51	35967.01
467.69	33865.21
467.87	34614.18
468.05	35115.06
468.23	35566.78
468.41	35150.17
468.60	35309.32
468.78	35798.49
468.96	35292.94
469.14	35747.00
469.32	36290.01
469.50	34600.14
469.69	34380.13
469.87	34469.07
470.05	34213.95
470.23	34298.21
470.41	34452.69
470.59	34675.04
470.77	34932.50
470.95	35676.79
471.14	36327.45
471.32	36044.25
471.50	37921.36
471.68	38181.16
471.86	38433.94
472.04	38567.35
472.22	39138.44
472.40	37043.66
472.58	36453.84
472.77	36538.10
472.95	36804.92
473.13	37769.22
473.31	36804.92
473.49	37125.58
473.67	37886.25
473.85	38270.10
474.03	38899.70
474.21	38801.40
474.39	39220.36
474.57	39625.27
474.75	39189.93
474.93	39330.36
475.12	38490.11
475.30	38359.04
475.48	38492.45
475.66	38932.47
475.84	38981.62
476.02	38464.36
476.20	37551.56
476.38	38452.66
476.56	39754.00
476.74	39976.35
476.92	40570.85
477.10	40788.52
477.28	42253.69
477.46	41944.74
477.64	42632.86
477.82	43217.99
478.00	42712.44
478.18	41986.87
478.36	41453.23
478.54	41715.37
478.72	42197.52
478.90	43325.66
479.08	44210.38
479.26	44580.18
479.44	44575.50
479.62	44392.94
479.80	44250.17
479.98	44622.31
480.16	44924.24
480.34	44421.03
480.52	44884.45
480.70	44905.52
480.88	44643.38
481.06	46174.09
481.24	46239.62
481.41	47117.32
481.59	47573.73
481.77	47246.05
481.95	46710.07
482.13	46473.68
482.31	46204.52
482.49	47405.21
482.67	46986.25
482.85	47426.28
483.03	47948.21
483.21	48463.13
483.39	48175.25
483.57	47468.40
483.74	47466.06
483.92	47583.09
484.10	47784.38
484.28	48755.70
484.46	48954.64
484.64	49448.50
484.82	48641.01
485.00	47948.21
485.18	47157.11
485.35	46312.18
485.53	43222.67
485.71	39618.25
485.89	38799.06
486.07	40547.44
486.25	44098.03
486.43	46202.18
486.61	47063.49
486.78	47086.90
486.96	47070.51
487.14	48914.86
487.32	49542.12
487.50	50401.10
487.68	51653.28
487.85	51892.02
488.03	51732.86
488.21	51461.36
488.39	50986.23
488.57	49855.75
488.75	49663.83
488.92	51004.95
489.10	53017.82
489.28	53989.14
489.46	54796.62
489.64	54506.40
489.81	55082.17
489.99	54494.69
490.17	54330.86
490.35	54693.64
490.53	54309.79
490.70	54141.27
490.88	53778.49
491.06	54850.45
491.24	54920.67
491.41	53858.07
491.59	52425.66
491.77	51482.42
491.95	52699.50
492.13	53581.88
492.30	54789.60
492.48	55686.03
492.66	55943.48
492.84	56135.41
493.01	55917.74
493.19	55381.76
493.37	55023.65
493.54	54560.23
493.72	55512.83
493.90	56268.82
494.08	57073.96
494.25	57183.97
494.43	57471.85
494.61	57918.90
494.79	57921.24
494.96	57401.64
495.14	57088.01
495.32	56320.31
495.49	55716.45
495.67	56554.36
495.85	57879.11
496.02	58269.98
496.20	58159.97
496.38	57726.97
496.55	57261.21
496.73	58085.07
496.91	57792.51
497.09	58632.76
497.26	58953.41
497.44	58225.51
497.62	57858.04
497.79	57045.88
497.97	55934.12
498.14	56079.24
498.32	56961.62
498.50	57813.57
498.67	58599.99
498.85	58370.62
499.03	58471.26
499.20	58688.93
499.38	58883.20
499.56	58408.07
499.73	58197.42
499.91	57656.76
500.08	57570.16
500.26	56495.85
500.44	57167.58
500.61	57858.04
500.79	57441.43
500.97	57235.46
501.14	57059.92
501.32	56699.48
501.49	56802.46
501.67	57066.94
501.84	57607.61
502.02	57865.06
502.20	58258.27
502.37	58389.34
502.55	58457.22
502.72	58822.34
502.90	59231.94
503.07	58979.16
503.25	58632.76
503.43	57797.19
503.60	57127.80
503.78	56460.74
503.95	56772.03
504.13	58389.34
504.30	59185.13
504.48	58897.24
504.65	58525.10
504.83	58489.99
505.01	59208.53
505.18	59547.91
505.36	59952.82
505.53	59936.44
505.71	60271.14
505.88	60336.67
506.06	59924.74
506.23	59203.85
506.41	58958.09
506.58	59363.01
506.76	59311.52
506.93	59332.58
507.11	59037.67
507.28	59346.62
507.46	58897.24
507.63	57979.75
507.81	57827.62
507.98	58192.74
508.16	58908.94
508.33	59245.98
508.50	59910.69
508.68	59838.14
508.85	60484.12
509.03	60533.28
509.20	60292.20
509.38	59550.25
509.55	58714.68
509.73	58901.92
509.90	59444.93
510.08	59601.74
510.25	59739.83
510.42	59250.66
510.60	59145.34
510.77	59517.48
510.95	60261.77
511.12	60179.85
511.30	60444.33
511.47	60725.20
511.64	60823.50
511.82	60479.44
511.99	59576.00
512.17	59381.73
512.34	58759.15
512.51	58951.07
512.69	59121.93
512.86	59098.53
513.04	59597.06
513.21	59688.34
513.38	59206.19
513.56	58578.93
513.73	58281.68
513.90	58513.39
514.08	58447.86
514.25	58948.73
514.43	59007.25
514.60	59049.38
514.77	59213.21
514.95	59573.66
515.12	59306.83
515.29	59257.68
515.47	59817.07
515.64	59917.71
515.81	59742.17
515.99	59096.19
516.16	57745.70
516.33	55756.24
516.51	53996.16
516.68	53551.46
516.85	53174.63
517.03	53256.55
517.20	55896.67
517.37	58614.04
517.54	59201.51
517.72	58944.05
517.89	56598.83
518.06	54255.96
518.24	54585.97
518.41	56631.60
518.58	57993.79
518.75	58347.21
518.93	58485.31
519.10	58155.29
519.27	58553.18
519.45	58794.26
519.62	59351.30
519.79	59784.30
519.96	59576.00
520.14	59236.62
520.31	58396.37
520.48	58323.81
520.65	58749.79
520.83	59863.88
521.00	59957.50
521.17	59571.32
521.34	59269.39
521.52	59545.57
521.69	60142.41
521.86	60561.36
522.03	60109.64
522.20	59173.42
522.38	57907.19
522.55	58169.33
522.72	58599.99
522.89	58780.21
523.07	59047.04
523.24	59098.53
523.41	60161.13
523.58	60458.38
523.75	60729.88
523.92	60390.50
524.10	60764.99
524.27	60619.88
524.44	60519.23
524.61	60142.41
524.78	59889.63
524.96	59976.23
525.13	60048.78
525.30	60268.79
525.47	60582.43
525.64	60554.34
525.81	59519.82
525.98	58412.75
526.16	57069.28
526.33	56537.98
526.50	56236.05
526.67	55711.77
526.84	56378.82
527.01	57322.06
527.18	58003.16
527.36	58965.12
527.53	59891.97
527.70	59999.63
527.87	59423.86
528.04	58930.01
528.21	59412.16
528.38	60348.37
528.55	60704.13
528.72	60952.23
528.89	61151.18
529.07	60715.84
529.24	60275.82
529.41	59583.02
529.58	59018.95
529.75	59096.19
529.92	59690.68
530.09	59849.84
530.26	60472.42
530.43	60774.35
530.60	60760.31
530.77	60893.72
530.94	61050.53
531.11	60526.25
531.28	60090.91
531.46	60062.83
531.63	60240.71
531.80	60090.91
531.97	59604.08
532.14	58974.48
532.31	57916.56
532.48	57408.66
532.65	57324.40
532.82	58213.80
532.99	59250.66
533.16	59578.34
533.33	59870.90
533.50	59959.84
533.67	59274.07
533.84	59011.93
534.01	59049.38
534.18	59355.99
534.35	59465.99
534.52	59295.13
534.69	59494.08
534.86	59828.77
535.03	60037.08
535.20	60561.36
535.37	60837.54
535.54	60931.17
535.71	60516.89
535.88	60191.56
536.05	59554.93
536.22	59260.02
536.38	58960.44
536.55	58656.17
536.72	58019.54
536.89	57848.68
537.06	58754.47
537.23	59391.09
537.40	59629.83
537.57	59938.78
537.74	59573.66
537.91	59547.91
538.08	59576.00
538.25	59531.53
538.42	59618.13
538.59	59484.72
538.75	58981.50
538.92	58564.88
539.09	58684.25
539.26	58452.54
539.43	58176.36
539.60	58464.24
539.77	58497.01
539.94	58351.90
540.11	57640.37
540.28	57111.41
540.44	57153.54
540.61	57172.27
540.78	57588.88
540.95	58066.35
541.12	58379.98
541.29	58768.51
541.46	58995.54
541.62	59187.47
541.79	58906.60
541.96	58176.36
542.13	58255.93
542.30	58410.41
542.47	58646.80
542.63	58358.92
542.80	58361.26
542.97	58092.10
543.14	58197.42
543.31	58211.46
543.48	58822.34
543.64	59494.08
543.81	59798.35
543.98	59573.66
544.15	59044.69
544.32	58485.31
544.48	58223.17
544.65	58941.71
544.82	59147.68
544.99	58857.45
545.16	58588.29
545.32	58237.21
545.49	59044.69
545.66	59428.54
545.83	59164.06
546.00	58602.33
546.16	58506.37
546.33	58372.96
546.50	58389.34
546.67	58824.68
546.83	58330.83
547.00	58595.31
547.17	57909.53
547.34	57418.02
547.50	57254.18
547.67	57783.15
547.84	57902.51
548.00	58080.39
548.17	58440.84
548.34	58230.19
548.51	58368.28
548.67	58377.64
548.84	58401.05
549.01	58464.24
549.18	58356.58
549.34	58314.45
549.51	58487.65
549.68	58279.34
549.84	58038.26
550.01	57893.15
550.18	57886.13
550.34	57972.73
550.51	58085.07
550.68	58141.25
550.84	57537.39
551.01	57584.20
551.18	57577.18
551.34	57752.72
551.51	58117.84
551.68	58356.58
551.84	58422.11
552.01	58302.74
552.18	58248.91
552.34	57249.50
552.51	56907.79
552.68	56633.94
552.84	57183.97
553.01	57736.34
553.18	57469.51
553.34	57563.14
553.51	57867.40
553.67	57993.79
553.84	58010.18
554.01	57989.11
554.17	57745.70
554.34	57799.53
554.51	57972.73
554.67	58417.43
554.84	58026.56
555.00	57829.96
555.17	57703.57
555.33	57378.23
555.50	57392.28
555.67	57532.71
555.83	57219.08
556.00	57080.98
556.16	56996.73
556.33	56687.78
556.50	56598.83
556.66	56449.04
556.83	56193.92
556.99	56523.94
557.16	56645.65
557.32	56706.50
557.49	57083.33
557.65	56996.73
557.82	57055.24
557.98	56790.76
558.15	56633.94
558.32	55540.91
558.48	54906.63
558.65	55150.04
558.81	55304.52
558.98	55423.89
559.14	55994.98
559.31	55791.35
559.47	55959.87
559.64	55597.09
559.80	55203.88
559.97	55281.11
560.13	55681.34
560.30	56423.29
560.46	56947.57
560.63	57242.48
560.79	57069.28
560.96	56842.25
561.12	55938.80
561.29	54838.75
561.45	54930.03
561.61	55461.33
561.78	55891.99
561.94	55924.76
562.11	55824.12
562.27	55566.66
562.44	55796.03
562.60	56308.61
562.77	56285.20
562.93	56303.93
563.10	56226.69
563.26	55671.98
563.42	55831.14
563.59	55688.37
563.75	55421.55
563.92	55622.83
564.08	55491.76
564.24	55594.74
564.41	55648.58
564.57	55348.99
564.74	55416.86
564.90	55414.52
565.07	55063.44
565.23	55018.97
565.39	54342.56
565.56	53947.01
565.72	54017.22
565.88	54176.38
566.05	54148.29
566.21	54604.70
566.38	54569.59
566.54	54892.58
566.70	55327.92
566.87	55407.50
567.03	55473.04
567.19	55723.47
567.36	55395.80
567.52	54859.82
567.68	55000.25
567.85	54230.21
568.01	53954.03
568.17	53467.20
568.34	53485.92
568.50	53331.45
568.66	53640.40
568.83	53982.12
568.99	53778.49
569.15	54155.32
569.32	54230.21
569.48	53977.43
569.64	53530.39
569.81	53373.58
569.97	53361.87
570.13	53579.54
570.30	52898.45
570.46	52502.90
570.62	51997.34
570.78	51672.01
570.95	52133.09
571.11	52945.26
571.27	52949.94
571.43	53284.64
571.60	53544.44
571.76	53647.42
571.92	54028.93
572.09	53947.01
572.25	54298.09
572.41	54129.57
572.57	53862.75
572.74	53757.42
572.90	53284.64
573.06	53535.07
573.22	53265.91
573.38	53502.31
573.55	53312.72
573.71	53595.93
573.87	53336.13
574.03	53385.28
574.20	53102.07
574.36	52973.34
574.52	52755.68
574.68	52715.89
574.84	52128.41
575.01	51854.57
575.17	51760.95
575.33	51915.42
575.49	52395.23
575.65	52205.65
575.82	52062.88
575.98	52233.74
576.14	52112.03
576.30	52807.17
576.46	52582.48
576.62	52435.02
576.79	52278.21
576.95	52126.07
577.11	52215.01
577.27	52130.75
577.43	52250.12
577.59	51786.69
577.75	51444.98
577.92	50674.94
578.08	50871.54
578.24	50541.53
578.40	51082.19
578.56	51185.18
578.72	51107.94
578.88	51629.88
579.04	51409.87
579.21	51800.74
579.37	51620.52
579.53	51849.89
579.69	51849.89
579.85	52030.11
580.01	51686.05
580.17	51182.84
580.33	51269.43
580.49	51398.16
580.65	51604.13
580.82	51796.06
580.98	51859.25
581.14	51650.94
581.30	51449.66
581.46	51447.32
581.62	51777.33
581.78	51627.54
581.94	52072.24
582.10	51849.89
582.26	51718.82
582.42	51819.46
582.58	51702.43
582.74	51585.41
582.90	51784.35
583.06	51856.91
583.22	51714.14
583.38	51365.40
583.54	51585.41
583.70	51407.53
583.86	51536.26
584.02	51360.72
584.18	51255.39
584.34	50965.17
584.50	51009.64
584.66	50997.93
584.82	50365.99
584.98	50478.33
585.14	50092.15
