SpectraSuite Data File
++++++++++++++++++++++++++++++++++++
Date: Mon Oct 07 14:53:32 GMT-05:00 2013
User: price-jones
Dark Spectrum Present: No
Reference Spectrum Present: No
Number of Sampled Component Spectra: 1
Spectrometers: USB2+H05261
Integration Time (usec): 100000 (USB2+H05261)
Spectra Averaged: 1 (USB2+H05261)
Boxcar Smoothing: 0 (USB2+H05261)
Correct for Electrical Dark: No (USB2+H05261)
Strobe/Lamp Enabled: No (USB2+H05261)
Correct for Detector Non-linearity: No (USB2+H05261)
Correct for Stray Light: No (USB2+H05261)
Number of Pixels in Processed Spectrum: 2048
>>>>>Begin Processed Spectral Data<<<<<
365.73	0.00
365.92	0.00
366.12	0.00
366.32	0.00
366.52	0.00
366.72	0.00
366.91	0.00
367.11	0.00
367.31	0.00
367.51	0.00
367.70	0.00
367.90	0.00
368.10	0.00
368.30	0.00
368.49	0.00
368.69	0.00
368.89	0.00
369.09	0.00
369.28	0.00
369.48	0.00
369.68	0.00
369.87	0.00
370.07	0.00
370.27	0.00
370.47	720.88
370.66	3452.29
370.86	3719.11
371.06	4367.44
371.25	4379.14
371.45	3901.67
371.65	3478.04
371.84	3267.39
372.04	3524.85
372.24	3772.94
372.44	4070.19
372.63	3911.04
372.83	3791.67
373.03	3304.84
373.22	3028.65
373.42	3229.94
373.62	3646.55
373.81	3990.61
374.01	3976.57
374.21	3543.57
374.40	3295.47
374.60	3412.50
374.79	3929.76
374.99	4489.15
375.19	5074.28
375.38	4800.44
375.58	4627.24
375.78	4444.68
375.97	4634.26
376.17	4795.76
376.37	4723.20
376.56	4971.30
376.76	5179.61
376.95	5462.81
377.15	5846.66
377.35	6038.58
377.54	6293.70
377.74	6562.86
377.93	6434.13
378.13	6375.62
378.33	6029.22
378.52	5497.92
378.72	5441.75
378.91	5413.66
379.11	5153.86
379.31	4844.91
379.50	4727.88
379.70	5334.08
379.89	5830.27
380.09	6169.65
380.28	6368.60
380.48	6516.05
380.68	6293.70
380.87	6260.93
381.07	5713.25
381.26	5217.05
381.46	4936.19
381.65	4648.30
381.85	4596.81
382.04	4327.65
382.24	4168.49
382.43	4018.70
382.63	3850.18
382.83	3847.84
383.02	3901.67
383.22	3763.58
383.41	3953.16
383.61	4252.75
383.80	4795.76
384.00	5432.38
384.19	6059.65
384.39	6284.34
384.58	6459.88
384.78	6064.33
384.97	6303.06
385.17	5874.74
385.36	5701.54
385.56	5387.91
385.75	5563.45
385.95	6099.44
386.14	6675.21
386.34	6499.67
386.53	6293.70
386.72	5837.30
386.92	5933.26
387.11	6221.14
387.31	6532.44
387.50	6445.84
387.70	6190.72
387.89	6349.87
388.09	6169.65
388.28	6136.88
388.48	6237.53
388.67	6827.34
388.86	7534.18
389.06	8028.04
389.25	8442.31
389.45	8627.21
389.64	8589.77
389.84	8360.39
390.03	8149.75
390.22	8191.88
390.42	8444.65
390.61	9039.15
390.81	9619.60
391.00	9811.53
391.19	9895.78
391.39	9561.09
391.58	8865.95
391.78	8451.67
391.97	8035.06
392.16	7831.43
392.36	7023.95
392.55	5710.91
392.75	4414.25
392.94	3592.72
393.13	3417.18
393.33	4280.84
393.52	5448.77
393.71	6635.42
393.91	7571.63
394.10	8327.63
394.29	8828.50
394.49	9329.38
394.68	10340.49
394.88	10366.23
395.07	10665.82
395.26	10649.44
395.46	10384.96
395.65	9760.03
395.84	8542.96
396.04	7468.65
396.23	5729.63
396.42	4910.44
396.62	4624.90
396.81	5423.02
397.00	6932.67
397.19	8662.32
397.39	10293.68
397.58	11824.39
397.77	12425.90
397.97	13018.06
398.16	13181.90
398.35	13411.27
398.55	13891.08
398.74	14663.46
398.93	14981.77
399.12	14611.96
399.32	13823.20
399.51	14401.32
399.70	15246.25
399.90	15257.95
400.09	15351.57
400.28	14984.11
400.47	15000.49
400.67	15901.60
400.86	16470.35
401.05	15974.16
401.24	16358.00
401.44	16828.45
401.63	16636.53
401.82	16746.53
402.01	16854.20
402.21	16673.98
402.40	16802.71
402.59	16652.91
402.78	15515.41
402.97	15314.13
403.17	15922.66
403.36	16842.50
403.55	17436.99
403.74	17930.84
403.93	17046.12
404.13	15552.86
404.32	15414.77
404.51	15707.34
404.70	17460.40
404.89	17048.46
405.09	16856.54
405.28	16383.75
405.47	16451.63
405.66	16283.11
405.85	15843.09
406.05	15508.39
406.24	15833.72
406.43	16343.96
406.62	17055.48
406.81	17348.05
407.00	16699.72
407.20	15983.52
407.39	16528.86
407.58	17006.33
407.77	17865.31
407.96	18192.98
408.15	18618.96
408.34	18899.83
408.54	19672.20
408.73	19253.25
408.92	19314.10
409.11	18993.45
409.30	18043.19
409.49	16893.99
409.68	15709.68
409.87	15087.09
410.07	16065.44
410.26	17427.63
410.45	18616.62
410.64	18700.88
410.83	19543.47
411.02	20168.40
411.21	20748.85
411.40	20463.30
411.59	20847.15
411.78	20428.20
411.98	20065.41
412.17	20760.55
412.36	20262.02
412.55	20339.26
412.74	19719.01
412.93	19335.17
413.12	19557.52
413.31	21188.87
413.50	21195.89
413.69	21937.84
413.88	21287.17
414.07	20538.20
414.26	20924.39
414.45	21378.45
414.64	21678.04
414.83	21422.92
415.02	20964.18
415.22	21205.25
415.41	21689.74
415.60	22553.40
415.79	23314.08
415.98	23978.79
416.17	23908.57
416.36	23365.57
416.55	22860.01
416.74	21869.97
416.93	21671.02
417.12	21624.21
417.31	21933.16
417.50	22274.88
417.69	23082.36
417.88	22988.74
418.07	22565.10
418.26	22391.91
418.45	22499.57
418.64	23124.49
418.83	23946.02
419.02	23850.06
419.21	23473.23
419.39	22593.19
419.58	21123.33
419.77	21745.92
419.96	22307.65
420.15	23697.92
420.34	24308.80
420.53	25270.76
420.72	25539.93
420.91	25544.61
421.10	25144.38
421.29	24737.12
421.48	23817.29
421.67	25287.15
421.86	24460.94
422.05	23110.45
422.24	20739.49
422.43	20306.49
422.61	22427.01
422.80	24336.89
422.99	24294.76
423.18	23410.04
423.37	23042.57
423.56	23143.22
423.75	23496.64
423.94	23929.64
424.13	22506.59
424.32	22717.24
424.50	23328.12
424.69	22434.03
424.88	22632.98
425.07	22700.86
425.26	22649.36
425.45	22235.09
425.64	22024.44
425.83	22047.85
426.01	23264.92
426.20	23747.08
426.39	23557.49
426.58	21825.50
426.77	20369.68
426.96	19711.99
427.15	20346.28
427.33	21743.58
427.52	22726.60
427.71	23122.15
427.90	22941.93
428.09	22707.88
428.28	21935.50
428.46	21413.56
428.65	20893.96
428.84	21458.03
429.03	21762.30
429.22	20950.14
429.40	19407.72
429.59	17923.82
429.78	15800.96
429.97	15985.86
430.16	15990.54
430.34	15934.37
430.53	16049.05
430.72	16280.77
430.91	18174.26
431.10	21394.84
431.28	24769.89
431.47	27140.85
431.66	27557.47
431.85	24971.18
432.03	23136.20
432.22	21942.52
432.41	22892.78
432.60	25479.07
432.79	26434.01
432.97	27058.93
433.16	26183.57
433.35	24414.13
433.54	21813.79
433.72	20390.75
433.91	20812.04
434.10	23400.68
434.28	25057.78
434.47	26501.89
434.66	26246.77
434.85	25172.46
435.03	25399.49
435.22	25528.22
435.41	27388.95
435.59	27264.90
435.78	27887.48
435.97	28854.12
436.16	28833.06
436.34	28744.12
436.53	27910.89
436.72	27826.63
436.90	26726.58
437.09	26361.45
437.28	25888.67
437.46	26775.73
437.65	26752.32
437.84	24924.36
438.02	22719.58
438.21	22476.16
438.40	23988.15
438.58	25869.94
438.77	26424.65
438.96	26972.33
439.14	27843.01
439.33	28816.68
439.52	29303.51
439.70	28755.82
439.89	28100.47
440.08	26902.12
440.26	27164.26
440.45	27531.72
440.63	29425.22
440.82	31131.47
441.01	30876.35
441.19	30284.19
441.38	31096.36
441.57	32304.07
441.75	32875.16
441.94	33071.77
442.12	32212.79
442.31	33345.61
442.50	33001.55
442.68	32746.44
442.87	32266.63
443.05	31819.58
443.24	32474.93
443.43	33095.18
443.61	33284.76
443.80	33956.49
443.98	31995.12
444.17	31899.16
444.35	33797.34
444.54	34391.83
444.73	33907.34
444.91	33048.36
445.10	31391.26
445.28	30228.02
445.47	29635.86
445.65	29703.74
445.84	30834.22
446.02	32112.15
446.21	32114.49
446.39	32236.20
446.58	32388.33
446.77	32954.74
446.95	33696.69
447.14	34600.14
447.32	35065.91
447.51	34338.00
447.69	32924.32
447.88	32629.41
448.06	33081.13
448.25	34195.23
448.43	34003.30
448.62	33294.12
448.80	33357.32
448.99	33177.09
449.17	33649.88
449.36	33797.34
449.54	35005.05
449.73	35510.61
449.91	35749.34
450.10	36697.26
450.28	37092.81
450.46	37013.23
450.65	37483.68
450.83	36809.61
451.02	36079.36
451.20	36203.41
451.39	35810.20
451.57	35667.42
451.76	35021.44
451.94	35204.00
452.13	34705.46
452.31	33034.32
452.49	31791.50
452.68	31833.63
452.86	32072.36
453.05	32299.39
453.23	33659.24
453.42	34366.09
453.60	35126.76
453.78	35393.58
453.97	34780.36
454.15	34768.66
454.34	34349.70
454.52	34396.51
454.70	33642.86
454.89	34328.64
455.07	34845.90
455.26	34801.43
455.44	36229.15
455.62	36797.90
455.81	37404.10
455.99	36435.12
456.17	36128.51
456.36	36208.09
456.54	37530.49
456.73	37247.29
456.91	37633.47
457.09	38066.47
457.28	39124.40
457.46	37249.63
457.64	37289.42
457.83	35927.22
458.01	35126.76
458.19	36217.45
458.38	36187.02
458.56	37457.93
458.74	37422.83
458.93	36982.80
459.11	36615.34
459.29	36430.44
459.48	36467.89
459.66	36301.71
459.84	36968.76
460.03	37242.60
460.21	37198.13
460.39	38202.22
460.57	38625.86
460.76	38660.97
460.94	38602.46
461.12	37912.00
461.31	38359.04
461.49	38480.75
461.67	38213.93
461.85	39133.76
462.04	39395.90
462.22	39559.73
462.40	39402.92
462.59	38763.95
462.77	39342.06
462.95	38572.03
463.13	38597.77
463.32	38387.13
463.50	37886.25
463.68	38281.80
463.86	38094.56
464.05	37797.31
464.23	36701.94
464.41	36685.56
464.59	36254.90
464.78	37654.54
464.96	37645.18
465.14	37214.52
465.32	38029.02
465.50	39309.30
465.69	39714.21
465.87	38735.87
466.05	37418.14
466.23	36432.78
466.41	35035.48
466.60	36165.96
466.78	36282.98
466.96	36968.76
467.14	37865.19
467.32	38029.02
467.51	38176.48
467.69	36128.51
467.87	36919.61
468.05	37696.67
468.23	37684.97
468.41	38026.68
468.60	38082.86
468.78	38609.48
468.96	37778.59
469.14	39108.01
469.32	39042.48
469.50	37322.18
469.69	37354.95
469.87	36837.69
470.05	36631.72
470.23	36659.81
470.41	36837.69
470.59	37226.22
470.77	37603.05
470.95	38314.57
471.14	38352.02
471.32	38766.29
471.50	40603.61
471.68	40821.28
471.86	41312.80
472.04	41773.88
472.22	41572.60
472.40	39625.27
472.58	38834.17
472.77	38637.56
472.95	39342.06
473.13	40790.86
473.31	39620.59
473.49	39894.43
473.67	40680.85
473.85	40627.02
474.03	41825.37
474.21	41668.56
474.39	42169.43
474.57	42775.63
474.75	42450.30
474.93	41923.68
475.12	41170.02
475.30	41060.02
475.48	41268.33
475.66	42066.45
475.84	41956.44
476.02	41020.23
476.20	40669.15
476.38	41708.35
476.56	42490.09
476.74	42997.98
476.92	43461.41
477.10	43997.39
477.28	44701.89
477.46	44971.05
477.64	45397.03
477.82	45593.64
478.00	45853.44
478.18	45382.99
478.36	45001.48
478.54	45062.33
478.72	44947.65
478.90	45979.82
479.08	47194.56
479.26	48053.54
479.44	47665.01
479.62	47466.06
479.80	47428.62
479.98	47681.39
480.16	47892.04
480.34	47246.05
480.52	47730.54
480.70	47997.37
480.88	48175.25
481.06	48985.07
481.24	49043.59
481.41	50099.17
481.59	50323.86
481.77	49705.96
481.95	49261.26
482.13	49467.22
482.31	49586.59
482.49	49879.16
482.67	50057.04
482.85	50330.88
483.03	50557.91
483.21	50920.70
483.39	50997.93
483.57	50614.08
483.74	50096.83
483.92	50225.56
484.10	50649.19
484.28	51164.11
484.46	51924.78
484.64	52090.96
484.82	51103.26
485.00	50773.24
485.18	50005.55
485.35	49071.67
485.53	45635.77
485.71	42604.77
485.89	41354.93
486.07	43543.33
486.25	46979.23
486.43	49317.43
486.61	49837.03
486.78	49811.28
486.96	50026.61
487.14	51505.83
487.32	52037.13
487.50	52999.09
487.68	53776.15
487.85	54244.26
488.03	54185.74
488.21	54003.18
488.39	53183.99
488.57	52519.28
488.75	52608.22
488.92	53277.61
489.10	55320.90
489.28	56472.45
489.46	57071.62
489.64	56755.65
489.81	57155.88
489.99	56828.21
490.17	56793.10
490.35	57305.68
490.53	56498.19
490.70	56406.91
490.88	56079.24
491.06	57092.69
491.24	57064.60
491.41	56142.43
491.59	54890.24
491.77	54021.90
491.95	55112.59
492.13	56013.70
492.30	57071.62
492.48	57778.46
492.66	58216.14
492.84	57930.60
493.01	57787.83
493.19	57455.47
493.37	57359.51
493.54	57305.68
493.72	57506.96
493.90	58592.97
494.08	59365.35
494.25	59510.46
494.43	59489.40
494.61	59880.27
494.79	59943.46
494.96	59863.88
495.14	59175.76
495.32	58431.47
495.49	57764.42
495.67	58845.75
495.85	59873.24
496.02	60196.24
496.20	60420.93
496.38	59973.89
496.55	59704.73
496.73	60051.12
496.91	60331.99
497.09	60818.82
497.26	61006.06
497.44	60463.06
497.62	59898.99
497.79	59346.62
497.97	58239.55
498.14	58384.66
498.32	59283.43
498.50	60004.31
498.67	60800.10
498.85	60727.54
499.03	60772.01
499.20	60898.40
499.38	60954.57
499.56	60748.60
499.73	60299.22
499.91	59976.23
500.08	59686.00
500.26	59037.67
500.44	59245.98
500.61	60055.81
500.79	59742.17
500.97	59529.19
501.14	59236.62
501.32	59250.66
501.49	59215.55
501.67	59421.52
501.84	59788.98
502.02	59983.25
502.20	60374.12
502.37	60411.57
502.55	60591.79
502.72	60992.02
502.90	61251.82
503.07	61073.94
503.25	60804.78
503.43	60200.92
503.60	59604.08
503.78	58967.46
503.95	59138.32
504.13	60547.32
504.30	61256.50
504.48	61095.00
504.65	60753.29
504.83	60757.97
505.01	61403.95
505.18	61595.88
505.36	62227.82
505.53	62054.62
505.71	62534.43
505.88	62501.67
506.06	61921.21
506.23	61694.18
506.41	61174.58
506.58	61797.16
506.76	61537.36
506.93	61432.04
507.11	61109.05
507.28	61387.57
507.46	61015.43
507.63	60310.92
507.81	60168.15
507.98	60472.42
508.16	61109.05
508.33	61675.46
508.50	61914.19
508.68	62110.80
508.85	62567.20
509.03	62628.05
509.20	62405.70
509.38	61883.76
509.55	61249.48
509.73	61197.99
509.90	61574.81
510.08	61827.59
510.25	61836.95
510.42	61588.86
510.60	61724.61
510.77	61733.97
510.95	62454.86
511.12	62473.58
511.30	62688.91
511.47	63077.44
511.64	62932.32
511.82	62452.51
511.99	61949.30
512.17	61544.39
512.34	61165.22
512.51	61497.58
512.69	61630.99
512.86	61726.95
513.04	62110.80
513.21	61925.89
513.38	61558.43
513.56	61312.67
513.73	60537.96
513.90	61001.38
514.08	60884.36
514.25	61254.16
514.43	61427.36
514.60	61645.03
514.77	61619.28
514.95	61722.27
515.12	61656.73
515.29	61740.99
515.47	62326.13
515.64	62677.21
515.81	62054.62
515.99	61523.32
516.16	60491.15
516.33	58431.47
516.51	57043.54
516.68	56189.24
516.85	56142.43
517.03	56486.49
517.20	58590.63
517.37	60797.76
517.54	61832.27
517.72	61413.32
517.89	59004.91
518.06	57125.46
518.24	57272.91
518.41	59133.63
518.58	60547.32
518.75	60779.03
518.93	60776.69
519.10	60753.29
519.27	61052.87
519.45	61293.95
519.62	61851.00
519.79	62340.17
519.96	62131.86
520.14	61682.48
520.31	60793.07
520.48	60973.30
520.65	61186.28
520.83	62061.64
521.00	62333.15
521.17	61986.75
521.34	61656.73
521.52	61965.68
521.69	62436.13
521.86	62805.94
522.03	62606.99
522.20	61553.75
522.38	60479.44
522.55	60528.59
522.72	61151.18
522.89	61251.82
523.07	61537.36
523.24	61698.86
523.41	62464.22
523.58	62819.98
523.75	63267.02
523.92	62897.22
524.10	62976.79
524.27	62927.64
524.44	62733.38
524.61	62609.33
524.78	62279.31
524.96	62452.51
525.13	62459.54
525.30	62717.00
525.47	63121.91
525.64	62965.09
525.81	62405.70
525.98	61155.86
526.16	59793.67
526.33	59145.34
526.50	58852.77
526.67	58443.18
526.84	59051.72
527.01	59758.56
527.18	60795.42
527.36	61551.41
527.53	62314.42
527.70	62529.75
527.87	61958.66
528.04	61715.25
528.21	61968.02
528.38	62564.86
528.55	63178.08
528.72	63309.15
528.89	63533.84
529.07	63250.64
529.24	62752.10
529.41	62155.27
529.58	61694.18
529.75	61645.03
529.92	62113.14
530.09	62499.33
530.26	62951.05
530.43	63079.78
530.60	63182.76
530.77	63501.07
530.94	63559.59
531.11	63089.14
531.28	62529.75
531.46	62618.69
531.63	62726.36
531.80	62660.82
531.97	62026.54
532.14	61537.36
532.31	60605.83
532.48	59976.23
532.65	59882.61
532.82	60952.23
532.99	61792.48
533.16	62412.73
533.33	62518.05
533.50	62550.82
533.67	61879.08
533.84	61588.86
534.01	61832.27
534.18	61719.93
534.35	62162.29
534.52	62007.81
534.69	62166.97
534.86	62389.32
535.03	62618.69
535.20	63192.12
535.37	63330.22
535.54	63398.09
535.71	63096.16
535.88	62932.32
536.05	62131.86
536.22	62054.62
536.38	61668.44
536.55	61333.74
536.72	60891.38
536.89	60776.69
537.06	61441.40
537.23	62281.66
537.40	62443.15
537.57	62429.11
537.74	62276.97
537.91	62131.86
538.08	62014.83
538.25	62038.24
538.42	62319.10
538.59	62312.08
538.75	61352.46
538.92	61418.00
539.09	61144.16
539.26	61027.13
539.43	60968.61
539.60	61024.79
539.77	61116.07
539.94	61160.54
540.11	60331.99
540.28	59887.29
540.44	59814.73
540.61	60395.18
540.78	60481.78
540.95	60631.58
541.12	61219.05
541.29	61359.48
541.46	61455.45
541.62	61862.70
541.79	61530.34
541.96	60963.93
542.13	60872.65
542.30	61214.37
542.47	61352.46
542.63	61207.35
542.80	60931.17
542.97	61249.48
543.14	60882.02
543.31	61087.98
543.48	61689.50
543.64	62288.68
543.81	62550.82
543.98	62342.51
544.15	61654.39
544.32	61148.84
544.48	61141.81
544.65	61499.92
544.82	61874.40
544.99	61722.27
545.16	61469.49
545.32	61092.66
545.49	61780.78
545.66	62370.60
545.83	61630.99
546.00	61467.15
546.16	61197.99
546.33	61331.40
546.50	61214.37
546.67	61825.25
546.83	61146.50
547.00	61176.92
547.17	60727.54
547.34	60137.72
547.50	60119.00
547.67	60542.64
547.84	60694.77
548.00	60959.25
548.17	61319.70
548.34	61205.01
548.51	61233.10
548.67	61446.08
548.84	61448.42
549.01	61340.76
549.18	61336.08
549.34	61197.99
549.51	61160.54
549.68	61155.86
549.84	60851.59
550.01	60865.63
550.18	60629.24
550.34	60767.33
550.51	60697.11
550.68	61027.13
550.84	60505.19
551.01	60596.47
551.18	60568.38
551.34	60795.42
551.51	60989.68
551.68	61261.18
551.84	61263.52
552.01	61027.13
552.18	61034.15
552.34	60294.54
552.51	59985.59
552.68	59810.05
552.84	60308.58
553.01	60622.22
553.18	60451.36
553.34	60636.26
553.51	60748.60
553.67	60926.49
553.84	61076.28
554.01	60985.00
554.17	60807.12
554.34	60956.91
554.51	61125.43
554.67	61209.69
554.84	61020.11
555.00	60650.30
555.17	60846.91
555.33	60582.43
555.50	60477.10
555.67	60594.13
555.83	60259.43
556.00	60055.81
556.16	60069.85
556.33	59746.86
556.50	59529.19
556.66	59938.78
556.83	59346.62
556.99	59468.33
557.16	59664.94
557.32	59959.84
557.49	60111.98
557.65	60137.72
557.82	60107.30
557.98	59884.95
558.15	59634.51
558.32	58836.39
558.48	57996.13
558.65	58181.04
558.81	58602.33
558.98	58780.21
559.14	59037.67
559.31	59075.12
559.47	59196.83
559.64	58827.02
559.80	58382.32
559.97	58426.79
560.13	58866.81
560.30	59704.73
560.46	60224.32
560.63	60441.99
560.79	60250.07
560.96	59955.16
561.12	58944.05
561.29	58230.19
561.45	58328.49
561.61	58670.21
561.78	59117.25
561.94	59150.02
562.11	58871.49
562.27	58960.44
562.44	59269.39
562.60	59381.73
562.77	59702.38
562.93	59524.50
563.10	59344.28
563.26	58834.05
563.42	58812.98
563.59	58473.60
563.75	58667.87
563.92	58754.47
564.08	58798.94
564.24	58841.07
564.41	59138.32
564.57	58883.20
564.74	58810.64
564.90	58665.53
565.07	58539.14
565.23	58192.74
565.39	57790.17
565.56	57530.37
565.72	57256.53
565.88	57684.84
566.05	57790.17
566.21	57986.77
566.38	58115.50
566.54	58199.76
566.70	58567.23
566.87	58766.17
567.03	58754.47
567.19	58958.09
567.36	58548.50
567.52	58522.76
567.68	58174.02
567.85	57785.49
568.01	57315.04
568.17	57235.46
568.34	57368.87
568.50	56893.74
568.66	57198.01
568.83	57722.29
568.99	57577.18
569.15	57853.36
569.32	57888.47
569.48	57411.00
569.64	57502.28
569.81	57071.62
569.97	56786.08
570.13	56910.13
570.30	56617.56
570.46	56240.73
570.62	55679.00
570.78	55414.52
570.95	55700.07
571.11	56685.43
571.27	56715.86
571.43	56935.87
571.60	57141.84
571.76	57375.89
571.92	57556.11
572.09	57525.69
572.25	57710.59
572.41	57556.11
572.57	57752.72
572.74	57511.64
572.90	57041.20
573.06	56914.81
573.22	57247.16
573.38	57251.84
573.55	57270.57
573.71	57240.14
573.87	57064.60
574.03	56821.19
574.20	57057.58
574.36	56797.78
574.52	56413.93
574.68	56451.38
574.84	56039.45
575.01	55674.32
575.17	55868.59
575.33	56055.83
575.49	55945.83
575.65	56317.97
575.82	55910.72
575.98	55721.13
576.14	56161.15
576.30	56163.50
576.46	56554.36
576.62	56231.37
576.79	56374.14
576.95	56076.90
577.11	56051.15
577.27	56041.79
577.43	56119.02
577.59	55655.60
577.75	55461.33
577.92	54946.42
578.08	54850.45
578.24	54632.78
578.40	55077.49
578.56	55339.63
578.72	55229.62
578.88	55487.08
579.04	55693.05
579.21	55763.26
579.37	55676.66
579.53	55671.98
579.69	55763.26
579.85	56074.55
580.01	55608.79
580.17	55456.65
580.33	55224.94
580.49	55238.98
580.65	55461.33
580.82	55451.97
580.98	55702.41
581.14	55711.77
581.30	55552.62
581.46	55501.12
581.62	55957.53
581.78	55693.05
581.94	55578.36
582.10	55807.73
582.26	55681.34
582.42	55667.30
582.58	55786.67
582.74	55655.60
582.90	55891.99
583.06	55814.76
583.22	55370.05
583.38	55353.67
583.54	55480.06
583.70	55545.59
583.86	55564.32
584.02	55402.82
584.18	55566.66
584.34	55426.23
584.50	55281.11
584.66	55018.97
584.82	54815.35
584.98	54892.58
585.14	54436.18
