SpectraSuite Data File
++++++++++++++++++++++++++++++++++++
Date: Mon Oct 07 14:54:55 GMT-05:00 2013
User: price-jones
Dark Spectrum Present: No
Reference Spectrum Present: No
Number of Sampled Component Spectra: 1
Spectrometers: USB2+H05261
Integration Time (usec): 10000 (USB2+H05261)
Spectra Averaged: 1 (USB2+H05261)
Boxcar Smoothing: 0 (USB2+H05261)
Correct for Electrical Dark: No (USB2+H05261)
Strobe/Lamp Enabled: No (USB2+H05261)
Correct for Detector Non-linearity: No (USB2+H05261)
Correct for Stray Light: No (USB2+H05261)
Number of Pixels in Processed Spectrum: 2048
>>>>>Begin Processed Spectral Data<<<<<
365.73	0.00
365.92	0.00
366.12	0.00
366.32	0.00
366.52	0.00
366.72	0.00
366.91	0.00
367.11	0.00
367.31	0.00
367.51	0.00
367.70	0.00
367.90	0.00
368.10	0.00
368.30	0.00
368.49	0.00
368.69	0.00
368.89	0.00
369.09	0.00
369.28	0.00
369.48	0.00
369.68	0.00
369.87	0.00
370.07	0.00
370.27	0.00
370.47	0.00
370.66	11.70
370.86	39.79
371.06	138.09
371.25	102.98
371.45	95.96
371.65	30.43
371.84	16.38
372.04	21.06
372.24	145.11
372.44	152.13
372.63	128.73
372.83	110.01
373.03	58.51
373.22	67.88
373.42	23.41
373.62	131.07
373.81	191.92
374.01	84.26
374.21	131.07
374.40	46.81
374.60	128.73
374.79	114.69
374.99	203.63
375.19	198.95
375.38	198.95
375.58	131.07
375.78	198.95
375.97	182.56
376.17	170.86
376.37	145.11
376.56	248.10
376.76	257.46
376.95	271.50
377.15	341.72
377.35	341.72
377.54	327.68
377.74	395.55
377.93	334.70
378.13	358.10
378.33	395.55
378.52	252.78
378.72	276.18
378.91	198.95
379.11	294.91
379.31	182.56
379.50	189.58
379.70	259.80
379.89	353.42
380.09	222.35
380.28	315.97
380.48	339.38
380.68	301.93
380.87	287.89
381.07	142.77
381.26	276.18
381.46	187.24
381.65	234.05
381.85	173.20
382.04	124.05
382.24	110.01
382.43	138.09
382.63	21.06
382.83	77.24
383.02	107.66
383.22	58.51
383.41	147.45
383.61	145.11
383.80	203.63
384.00	196.60
384.19	262.14
384.39	376.83
384.58	318.31
384.78	355.76
384.97	299.59
385.17	255.12
385.36	304.27
385.56	175.54
385.75	271.50
385.95	339.38
386.14	301.93
386.34	337.04
386.53	367.46
386.72	273.84
386.92	266.82
387.11	313.63
387.31	362.78
387.50	278.52
387.70	290.23
387.89	301.93
388.09	360.44
388.28	290.23
388.48	278.52
388.67	287.89
388.86	425.98
389.06	421.30
389.25	517.26
389.45	526.62
389.64	491.51
389.84	528.96
390.03	444.70
390.22	440.02
390.42	496.19
390.61	521.94
390.81	585.13
391.00	592.16
391.19	599.18
391.39	578.11
391.58	521.94
391.78	477.47
391.97	461.09
392.16	447.04
392.36	423.64
392.55	234.05
392.75	135.75
392.94	117.03
393.13	60.85
393.33	138.09
393.52	196.60
393.71	444.70
393.91	491.51
394.10	510.24
394.29	538.32
394.49	582.79
394.68	671.73
394.88	638.97
395.07	713.86
395.26	725.57
395.46	760.67
395.65	510.24
395.84	561.73
396.04	475.13
396.23	243.42
396.42	114.69
396.62	187.24
396.81	264.48
397.00	353.42
397.19	493.85
397.39	629.60
397.58	784.08
397.77	905.79
397.97	800.46
398.16	917.49
398.35	915.15
398.55	945.58
398.74	938.55
398.93	990.05
399.12	976.00
399.32	901.11
399.51	1004.09
399.70	1008.77
399.90	1050.90
400.09	1081.33
400.28	1078.99
400.47	861.32
400.67	1132.82
400.86	1214.74
401.05	1156.22
401.24	1060.26
401.44	1247.51
401.63	1247.51
401.82	1188.99
402.01	1193.67
402.21	1324.74
402.40	1191.33
402.59	1188.99
402.78	1097.71
402.97	997.07
403.17	1083.67
403.36	1228.78
403.55	1132.82
403.74	1343.47
403.93	1203.04
404.13	1163.25
404.32	1015.79
404.51	1076.65
404.70	1207.72
404.89	1191.33
405.09	1184.31
405.28	1111.75
405.47	1125.80
405.66	1128.14
405.85	1137.50
406.05	1128.14
406.24	1067.28
406.43	1114.10
406.62	1198.35
406.81	1224.10
407.00	1174.95
407.20	1224.10
407.39	1200.69
407.58	1184.31
407.77	1254.53
407.96	1315.38
408.15	1355.17
408.34	1369.21
408.54	1526.03
408.73	1425.39
408.92	1418.36
409.11	1380.92
409.30	1284.95
409.49	1196.01
409.68	1109.41
409.87	1041.54
410.07	1067.28
410.26	1212.40
410.45	1226.44
410.64	1306.02
410.83	1401.98
411.02	1521.35
411.21	1416.02
411.40	1479.22
411.59	1483.90
411.78	1427.73
411.98	1481.56
412.17	1387.94
412.36	1458.15
412.55	1392.62
412.74	1411.34
412.93	1383.26
413.12	1467.52
413.31	1511.99
413.50	1596.25
413.69	1528.37
413.88	1647.74
414.07	1509.65
414.26	1420.71
414.45	1603.27
414.64	1633.69
414.83	1605.61
415.02	1535.39
415.22	1584.54
415.41	1666.46
415.60	1589.22
415.79	1638.38
415.98	1792.85
416.17	1856.04
416.36	1729.66
416.55	1579.86
416.74	1568.16
416.93	1575.18
417.12	1523.69
417.31	1607.95
417.50	1631.35
417.69	1689.87
417.88	1640.72
418.07	1687.53
418.26	1682.85
418.45	1636.03
418.64	1706.25
418.83	1689.87
419.02	1708.59
419.21	1760.08
419.39	1577.52
419.58	1486.24
419.77	1556.46
419.96	1617.31
420.15	1647.74
420.34	1734.34
420.53	1790.51
420.72	1795.19
420.91	1844.34
421.10	1755.40
421.29	1757.74
421.48	1764.76
421.67	1715.61
421.86	1746.04
422.05	1584.54
422.24	1446.45
422.43	1554.12
422.61	1610.29
422.80	1727.32
422.99	1851.36
423.18	1804.55
423.37	1694.55
423.56	1682.85
423.75	1673.48
423.94	1673.48
424.13	1626.67
424.32	1706.25
424.50	1619.65
424.69	1565.82
424.88	1528.37
425.07	1612.63
425.26	1547.09
425.45	1521.35
425.64	1563.48
425.83	1409.00
426.01	1551.78
426.20	1715.61
426.39	1650.08
426.58	1547.09
426.77	1448.79
426.96	1310.70
427.15	1530.71
427.33	1558.80
427.52	1589.22
427.71	1664.12
427.90	1727.32
428.09	1617.31
428.28	1495.60
428.46	1530.71
428.65	1547.09
428.84	1570.50
429.03	1547.09
429.22	1399.64
429.40	1329.42
429.59	1252.19
429.78	954.94
429.97	1013.45
430.16	1050.90
430.34	1053.24
430.53	1118.78
430.72	1217.08
430.91	1231.12
431.10	1544.75
431.28	1816.26
431.47	1973.07
431.66	2040.95
431.85	1764.76
432.03	1607.95
432.22	1519.01
432.41	1472.20
432.60	1811.57
432.79	1832.64
432.97	1952.01
433.16	1886.47
433.35	1734.34
433.54	1474.54
433.72	1341.13
433.91	1380.92
434.10	1699.23
434.28	1874.77
434.47	1844.34
434.66	1809.23
434.85	1825.62
435.03	1661.78
435.22	1774.13
435.41	1879.45
435.59	1907.54
435.78	1977.75
435.97	1961.37
436.16	2104.14
436.34	2038.61
436.53	1935.62
436.72	2069.03
436.90	2008.18
437.09	1907.54
437.28	1710.93
437.46	1832.64
437.65	1902.86
437.84	1795.19
438.02	1640.72
438.21	1528.37
438.40	1668.80
438.58	1842.00
438.77	1891.15
438.96	1975.41
439.14	1949.67
439.33	2059.67
439.52	2010.52
439.70	2071.37
439.89	1956.69
440.08	1949.67
440.26	1818.60
440.45	1834.98
440.63	2069.03
440.82	2174.36
441.01	2122.87
441.19	2193.08
441.38	2190.74
441.57	2286.70
441.75	2370.96
441.94	2230.53
442.12	2282.02
442.31	2312.45
442.50	2413.09
442.68	2293.72
442.87	2305.43
443.05	2370.96
443.24	2310.11
443.43	2251.60
443.61	2370.96
443.80	2502.03
443.98	2347.56
444.17	2286.70
444.35	2380.32
444.54	2567.57
444.73	2368.62
444.91	2296.07
445.10	2214.15
445.28	2097.12
445.47	2069.03
445.65	2113.50
445.84	2291.38
446.02	2242.23
446.21	2314.79
446.39	2347.56
446.58	2300.75
446.77	2363.94
446.95	2347.56
447.14	2502.03
447.32	2408.41
447.51	2558.21
447.69	2230.53
447.88	2272.66
448.06	2373.30
448.25	2403.73
448.43	2314.79
448.62	2272.66
448.80	2314.79
448.99	2331.17
449.17	2436.50
449.36	2363.94
449.54	2541.82
449.73	2607.36
449.91	2602.68
450.10	2661.19
450.28	2698.64
450.46	2588.63
450.65	2621.40
450.83	2619.06
451.02	2565.23
451.20	2490.33
451.39	2462.24
451.57	2511.39
451.76	2633.10
451.94	2434.16
452.13	2485.65
452.31	2340.54
452.49	2228.19
452.68	2235.21
452.86	2289.04
453.05	2342.88
453.23	2382.67
453.42	2434.16
453.60	2389.69
453.78	2509.05
453.97	2415.43
454.15	2558.21
454.34	2438.84
454.52	2441.18
454.70	2509.05
454.89	2457.56
455.07	2403.73
455.26	2530.12
455.44	2553.52
455.62	2558.21
455.81	2546.50
455.99	2583.95
456.17	2602.68
456.36	2565.23
456.54	2546.50
456.73	2626.08
456.91	2567.57
457.09	2712.68
457.28	2857.79
457.46	2670.55
457.64	2572.25
457.83	2448.20
458.01	2415.43
458.19	2448.20
458.38	2562.89
458.56	2534.80
458.74	2537.14
458.93	2588.63
459.11	2530.12
459.29	2490.33
459.48	2614.38
459.66	2649.49
459.84	2621.40
460.03	2541.82
460.21	2679.91
460.39	2614.38
460.57	2698.64
460.76	2733.75
460.94	2668.21
461.12	2654.17
461.31	2689.28
461.49	2803.96
461.67	2691.62
461.85	2759.49
462.04	2759.49
462.22	2733.75
462.40	2649.49
462.59	2656.51
462.77	2761.83
462.95	2626.08
463.13	2827.37
463.32	2743.11
463.50	2616.72
463.68	2626.08
463.86	2787.58
464.05	2654.17
464.23	2534.80
464.41	2551.18
464.59	2546.50
464.78	2579.27
464.96	2679.91
465.14	2476.29
465.32	2593.31
465.50	2682.25
465.69	2710.34
465.87	2689.28
466.05	2672.89
466.23	2513.74
466.41	2464.58
466.60	2455.22
466.78	2579.27
466.96	2539.48
467.14	2555.86
467.32	2705.66
467.51	2572.25
467.69	2413.09
467.87	2572.25
468.05	2487.99
468.23	2651.83
468.41	2630.76
468.60	2686.94
468.78	2654.17
468.96	2623.74
469.14	2761.83
469.32	2588.63
469.50	2590.97
469.69	2527.78
469.87	2527.78
470.05	2668.21
470.23	2483.31
470.41	2497.35
470.59	2478.63
470.77	2614.38
470.95	2691.62
471.14	2750.13
471.32	2686.94
471.50	2902.26
471.68	2841.41
471.86	2874.18
472.04	3005.25
472.22	2766.51
472.40	2743.11
472.58	2670.55
472.77	2696.30
472.95	2768.85
473.13	2719.70
473.31	2789.92
473.49	2717.36
473.67	2827.37
473.85	2818.00
474.03	2937.37
474.21	2913.97
474.39	3007.59
474.57	2944.39
474.75	2981.84
474.93	2719.70
475.12	2799.28
475.30	2855.45
475.48	2904.60
475.66	2942.05
475.84	2899.92
476.02	2820.35
476.20	2754.81
476.38	2846.09
476.56	2946.73
476.74	2993.55
476.92	3012.27
477.10	2911.63
477.28	3021.63
477.46	3023.97
477.64	3222.92
477.82	3204.19
478.00	3155.04
478.18	3190.15
478.36	3089.51
478.54	3187.81
478.72	3272.07
478.90	3180.79
479.08	3400.80
479.26	3314.20
479.44	3260.37
479.62	3391.44
479.80	3386.76
479.98	3332.92
480.16	3309.52
480.34	3330.58
480.52	3300.16
480.70	3330.58
480.88	3452.29
481.06	3595.06
481.24	3578.68
481.41	3513.14
481.59	3522.51
481.77	3669.96
481.95	3382.07
482.13	3639.53
482.31	3524.85
482.49	3588.04
482.67	3688.68
482.85	3496.76
483.03	3590.38
483.21	3602.08
483.39	3632.51
483.57	3712.09
483.74	3531.87
483.92	3569.32
484.10	3515.48
484.28	3761.24
484.46	3698.05
484.64	3726.13
484.82	3758.90
485.00	3571.66
485.18	3630.17
485.35	3487.40
485.53	3014.61
485.71	2799.28
485.89	2923.33
486.07	2911.63
486.25	3255.69
486.43	3478.04
486.61	3543.57
486.78	3599.74
486.96	3559.95
487.14	3667.62
487.32	3702.73
487.50	3854.86
487.68	3962.53
487.85	4091.26
488.03	3997.64
488.21	3939.12
488.39	3971.89
488.57	3936.78
488.75	3803.37
488.92	4023.38
489.10	4070.19
489.28	4348.72
489.46	4463.40
489.64	4437.66
489.81	4610.86
489.99	4353.40
490.17	4395.53
490.35	4432.97
490.53	4306.59
490.70	4475.10
490.88	4416.59
491.06	4442.34
491.24	4484.47
491.41	4479.79
491.59	4140.41
491.77	4046.79
491.95	4079.55
492.13	4393.19
492.30	4547.66
492.48	4599.15
492.66	4498.51
492.84	4723.20
493.01	4498.51
493.19	4568.73
493.37	4383.82
493.54	4531.28
493.72	4667.03
493.90	4737.24
494.08	4873.00
494.25	4856.61
494.43	5034.49
494.61	5034.49
494.79	5025.13
494.96	4905.76
495.14	4798.10
495.32	4746.61
495.49	4524.26
495.67	4725.54
495.85	4971.30
496.02	4997.04
496.20	5118.75
496.38	4983.00
496.55	4912.78
496.73	5109.39
496.91	5027.47
497.09	5242.80
497.26	5298.97
497.44	4978.32
497.62	5062.58
497.79	4826.18
497.97	4620.22
498.14	4739.58
498.32	4692.77
498.50	5001.72
498.67	5107.05
498.85	5214.71
499.03	5144.50
499.20	5186.63
499.38	5135.14
499.56	5050.88
499.73	5097.69
499.91	4957.25
500.08	4847.25
500.26	4755.97
500.44	4936.19
500.61	4865.97
500.79	4983.00
500.97	4889.38
501.14	4765.33
501.32	4887.04
501.49	4819.16
501.67	4891.72
501.84	4968.96
502.02	4940.87
502.20	4999.38
502.37	4877.68
502.55	4957.25
502.72	5121.09
502.90	5310.68
503.07	5252.16
503.25	5174.92
503.43	4882.36
503.60	4933.85
503.78	4809.80
503.95	4826.18
504.13	5114.07
504.30	5254.50
504.48	5348.12
504.65	4971.30
504.83	5067.26
505.01	5064.92
505.18	5275.57
505.36	5495.58
505.53	5444.09
505.71	5469.83
505.88	5420.68
506.06	5210.03
506.23	5322.38
506.41	5247.48
506.58	5221.74
506.76	5219.39
506.93	5224.08
507.11	5008.75
507.28	5327.06
507.46	5170.24
507.63	5053.22
507.81	4901.08
507.98	5198.33
508.16	5172.58
508.33	5296.63
508.50	5144.50
508.68	5507.28
508.85	5570.48
509.03	5474.51
509.20	5472.17
509.38	5313.02
509.55	5116.41
509.73	5123.43
509.90	5128.11
510.08	5282.59
510.25	5200.67
510.42	5231.10
510.60	5214.71
510.77	5287.27
510.95	5423.02
511.12	5336.42
511.30	5301.31
511.47	5628.99
511.64	5448.77
511.82	5488.56
511.99	5149.18
512.17	5205.35
512.34	5240.46
512.51	5256.84
512.69	5111.73
512.86	5203.01
513.04	5303.65
513.21	5303.65
513.38	5160.88
513.56	5111.73
513.73	5025.13
513.90	5097.69
514.08	4915.12
514.25	5034.49
514.43	5228.76
514.60	5170.24
514.77	5228.76
514.95	5240.46
515.12	5284.93
515.29	5200.67
515.47	5359.83
515.64	5465.15
515.81	5385.57
515.99	5179.61
516.16	5027.47
516.33	4458.72
516.51	4322.97
516.68	4187.22
516.85	4084.23
517.03	4198.92
517.20	4645.96
517.37	5046.20
517.54	5266.21
517.72	5144.50
517.89	4606.17
518.06	4407.23
518.24	4322.97
518.41	4638.94
518.58	4966.62
518.75	4882.36
518.93	5107.05
519.10	4975.98
519.27	5233.44
519.45	5146.84
519.62	5313.02
519.79	5420.68
519.96	5144.50
520.14	5320.04
520.31	5085.98
520.48	5083.64
520.65	5144.50
520.83	5184.29
521.00	5430.04
521.17	5156.20
521.34	5013.43
521.52	5301.31
521.69	5423.02
521.86	5528.35
522.03	5371.53
522.20	5139.82
522.38	4973.64
522.55	4854.27
522.72	5069.60
522.89	5015.77
523.07	4990.02
523.24	5158.54
523.41	5282.59
523.58	5322.38
523.75	5406.64
523.92	5497.92
524.10	5535.37
524.27	5439.40
524.44	5469.83
524.61	5451.11
524.78	5444.09
524.96	5301.31
525.13	5387.91
525.30	5378.55
525.47	5453.45
525.64	5495.58
525.81	5109.39
525.98	4964.28
526.16	4882.36
526.33	4477.44
526.50	4547.66
526.67	4449.36
526.84	4545.32
527.01	4650.64
527.18	4793.42
527.36	5083.64
527.53	5298.97
527.70	5369.19
527.87	5177.26
528.04	5107.05
528.21	5287.27
528.38	5329.40
528.55	5490.90
528.72	5518.98
528.89	5586.86
529.07	5481.53
529.24	5364.51
529.41	5195.99
529.58	4940.87
529.75	5142.16
529.92	5275.57
530.09	5291.95
530.26	5406.64
530.43	5511.96
530.60	5430.04
530.77	5476.85
530.94	5509.62
531.11	5350.46
531.28	5364.51
531.46	5254.50
531.63	5301.31
531.80	5383.23
531.97	5322.38
532.14	5130.45
532.31	4798.10
532.48	4887.04
532.65	4739.58
532.82	5069.60
532.99	5270.89
533.16	5174.92
533.33	5310.68
533.50	5102.37
533.67	5188.97
533.84	5022.79
534.01	5125.77
534.18	5167.90
534.35	5146.84
534.52	5130.45
534.69	5268.55
534.86	5366.85
535.03	5224.08
535.20	5378.55
535.37	5369.19
535.54	5521.32
535.71	5432.38
535.88	5542.39
536.05	5329.40
536.22	5057.90
536.38	5041.51
536.55	5081.30
536.72	4933.85
536.89	4779.37
537.06	5006.41
537.23	5181.95
537.40	5369.19
537.57	5200.67
537.74	5057.90
537.91	5245.14
538.08	5170.24
538.25	5212.37
538.42	5226.42
538.59	5160.88
538.75	5020.45
538.92	4903.42
539.09	5018.11
539.26	4933.85
539.43	4966.62
539.60	4938.53
539.77	4985.34
539.94	4835.55
540.11	4713.84
540.28	4664.69
540.44	4856.61
540.61	4753.63
540.78	4805.12
540.95	4924.49
541.12	4915.12
541.29	5060.24
541.46	4940.87
541.62	5036.83
541.79	5011.09
541.96	5034.49
542.13	5039.17
542.30	5008.75
542.47	4973.64
542.63	4884.70
542.80	4877.68
542.97	4826.18
543.14	4901.08
543.31	4915.12
543.48	5074.28
543.64	5095.35
543.81	5114.07
543.98	5135.14
544.15	5039.17
544.32	5071.94
544.48	4809.80
544.65	5067.26
544.82	5097.69
544.99	5095.35
545.16	5034.49
545.32	4943.21
545.49	5041.51
545.66	5254.50
545.83	5060.24
546.00	5067.26
546.16	4945.55
546.33	4842.57
546.50	4987.68
546.67	5172.58
546.83	4898.74
547.00	5046.20
547.17	4826.18
547.34	4706.82
547.50	4723.20
547.67	4868.31
547.84	4908.10
548.00	4985.34
548.17	4980.66
548.34	4840.23
548.51	4870.65
548.67	5104.71
548.84	4938.53
549.01	5043.85
549.18	4999.38
549.34	4964.28
549.51	4961.94
549.68	4851.93
549.84	4772.35
550.01	4807.46
550.18	4830.87
550.34	4887.04
550.51	4898.74
550.68	4945.55
550.84	4788.74
551.01	4781.71
551.18	4697.46
551.34	4765.33
551.51	4758.31
551.68	4884.70
551.84	4908.10
552.01	4849.59
552.18	4837.89
552.34	4807.46
552.51	4702.14
552.68	4807.46
552.84	4599.15
553.01	4702.14
553.18	4599.15
553.34	4730.22
553.51	4823.84
553.67	4896.40
553.84	4777.03
554.01	4685.75
554.17	4849.59
554.34	4863.63
554.51	4840.23
554.67	4943.21
554.84	4690.43
555.00	4734.90
555.17	4660.01
555.33	4835.55
555.50	4716.18
555.67	4903.42
555.83	4777.03
556.00	4732.56
556.16	4667.03
556.33	4601.49
556.50	4610.86
556.66	4542.98
556.83	4557.02
556.99	4496.17
557.16	4587.45
557.32	4676.39
557.49	4571.07
557.65	4627.24
557.82	4667.03
557.98	4557.02
558.15	4587.45
558.32	4306.59
558.48	4437.66
558.65	4297.22
558.81	4484.47
558.98	4482.13
559.14	4414.25
559.31	4365.10
559.47	4449.36
559.64	4447.02
559.80	4395.53
559.97	4245.73
560.13	4400.21
560.30	4613.20
560.46	4723.20
560.63	4603.83
560.79	4557.02
560.96	4594.47
561.12	4308.93
561.29	4311.27
561.45	4423.61
561.61	4397.87
561.78	4517.23
561.94	4332.33
562.11	4411.91
562.27	4456.38
562.44	4395.53
562.60	4545.32
562.77	4585.11
562.93	4573.41
563.10	4358.08
563.26	4290.20
563.42	4365.10
563.59	4374.46
563.75	4355.74
563.92	4428.29
564.08	4337.01
564.24	4414.25
564.41	4308.93
564.57	4280.84
564.74	4482.13
564.90	4280.84
565.07	4297.22
565.23	4344.03
565.39	4149.77
565.56	4063.17
565.72	4109.98
565.88	4147.43
566.05	4128.70
566.21	4086.58
566.38	4285.52
566.54	4208.28
566.70	4348.72
566.87	4341.69
567.03	4252.75
567.19	4425.95
567.36	4470.42
567.52	4351.06
567.68	4360.42
567.85	4058.49
568.01	4135.73
568.17	4042.11
568.34	3943.80
568.50	4138.07
568.66	4079.55
568.83	4131.05
568.99	4112.32
569.15	4194.24
569.32	4088.92
569.48	3995.29
569.64	4257.43
569.81	4056.15
569.97	3925.08
570.13	3887.63
570.30	3925.08
570.46	3857.20
570.62	3796.35
570.78	3808.05
570.95	3868.91
571.11	4107.64
571.27	4088.92
571.43	4081.89
571.60	4009.34
571.76	4124.02
571.92	4072.53
572.09	4257.43
572.25	4044.45
572.41	4107.64
572.57	4098.28
572.74	4028.06
572.90	4025.72
573.06	4067.85
573.22	4058.49
573.38	4056.15
573.55	4074.87
573.71	4126.36
573.87	3974.23
574.03	4196.58
574.20	3946.14
574.36	4147.43
574.52	3950.82
574.68	3925.08
574.84	3847.84
575.01	3889.97
575.17	3803.37
575.33	3782.31
575.49	3871.25
575.65	3864.22
575.82	3845.50
575.98	3854.86
576.14	3950.82
576.30	3971.89
576.46	3967.21
576.62	3948.48
576.79	3962.53
576.95	3871.25
577.11	3852.52
577.27	3929.76
577.43	3969.55
577.59	3808.05
577.75	3798.69
577.92	3597.40
578.08	3674.64
578.24	3653.58
578.40	3688.68
578.56	3707.41
578.72	3716.77
578.88	3728.47
579.04	3768.26
579.21	3712.09
579.37	3941.46
579.53	3878.27
579.69	3857.20
579.85	3836.14
580.01	3817.41
580.17	3733.15
580.33	3742.52
580.49	3735.50
580.65	3866.56
580.82	3873.59
580.98	3749.54
581.14	3679.32
581.30	3667.62
581.46	3772.94
581.62	3796.35
581.78	3819.75
581.94	3749.54
582.10	3868.91
582.26	3887.63
582.42	3817.41
582.58	3822.09
582.74	3873.59
582.90	3861.88
583.06	3763.58
583.22	3871.25
583.38	3859.54
583.54	3765.92
583.70	3669.96
583.86	3733.15
584.02	3702.73
584.18	3786.99
584.34	3634.85
584.50	3763.58
584.66	3662.94
584.82	3639.53
584.98	3489.74
585.14	3588.04
585.30	3482.72
585.46	3447.61
585.62	3349.31
585.78	3646.55
585.94	3660.60
586.10	3691.02
586.26	3557.61
586.42	3515.48
586.58	3707.41
586.74	3693.37
586.90	3559.95
587.06	3590.38
587.22	3566.98
587.38	3527.19
587.54	3613.79
587.70	3513.14
587.86	3536.55
588.02	3501.44
588.18	3471.01
588.34	3229.94
588.49	3014.61
588.65	2754.81
588.81	2888.22
588.97	2895.24
589.13	3016.95
589.29	2942.05
589.45	2974.82
589.61	3061.42
589.77	3258.03
589.93	3309.52
590.08	3405.48
590.24	3342.28
590.40	3440.59
590.56	3349.31
590.72	3524.85
590.88	3372.71
591.04	3215.90
591.20	3295.47
591.35	3323.56
591.51	3307.18
591.67	3314.20
591.83	3330.58
591.99	3262.71
592.15	3384.41
592.31	3295.47
592.46	3180.79
592.62	3251.00
592.78	3288.45
592.94	3456.97
593.10	3251.00
593.26	3201.85
593.41	3414.84
593.57	3302.50
593.73	3365.69
593.89	3187.81
594.05	3190.15
594.20	3213.56
594.36	3016.95
594.52	2998.23
594.68	3152.70
594.84	3197.17
594.99	3269.73
595.15	3169.09
595.31	3251.00
595.47	3026.31
595.62	3339.94
595.78	3328.24
595.94	3272.07
596.10	3241.64
596.25	3246.32
596.41	3276.75
596.57	3171.43
596.73	3253.34
596.88	3300.16
597.04	3279.09
597.20	3103.55
597.36	3246.32
597.51	3197.17
597.67	3152.70
597.83	3201.85
597.99	3035.67
598.14	3157.38
598.30	3054.40
