SpectraSuite Data File
++++++++++++++++++++++++++++++++++++
Date: Mon Oct 07 14:53:03 GMT-05:00 2013
User: price-jones
Dark Spectrum Present: No
Reference Spectrum Present: No
Number of Sampled Component Spectra: 1
Spectrometers: USB2+H05261
Integration Time (usec): 100000 (USB2+H05261)
Spectra Averaged: 1 (USB2+H05261)
Boxcar Smoothing: 0 (USB2+H05261)
Correct for Electrical Dark: No (USB2+H05261)
Strobe/Lamp Enabled: No (USB2+H05261)
Correct for Detector Non-linearity: No (USB2+H05261)
Correct for Stray Light: No (USB2+H05261)
Number of Pixels in Processed Spectrum: 2048
>>>>>Begin Processed Spectral Data<<<<<
365.73	0.00
365.92	0.00
366.12	0.00
366.32	0.00
366.52	0.00
366.72	0.00
366.91	0.00
367.11	0.00
367.31	0.00
367.51	0.00
367.70	0.00
367.90	0.00
368.10	0.00
368.30	0.00
368.49	0.00
368.69	0.00
368.89	0.00
369.09	0.00
369.28	0.00
369.48	0.00
369.68	0.00
369.87	0.00
370.07	0.00
370.27	0.00
370.47	489.17
370.66	2813.32
370.86	3187.81
371.06	3449.95
371.25	3405.48
371.45	3143.34
371.65	2864.82
371.84	2647.15
372.04	2715.02
372.24	3075.46
372.44	3248.66
372.63	3115.25
372.83	2944.39
373.03	2637.78
373.22	2375.64
373.42	2546.50
373.62	2892.90
373.81	3218.24
374.01	3173.77
374.21	2928.01
374.40	2654.17
374.60	2846.09
374.79	3201.85
374.99	3667.62
375.19	3913.38
375.38	3822.09
375.58	3686.34
375.78	3641.87
375.97	3742.52
376.17	3756.56
376.37	3955.51
376.56	4056.15
376.76	4119.34
376.95	4475.10
377.15	4823.84
377.35	4940.87
377.54	4994.70
377.74	5146.84
377.93	5315.36
378.13	5132.79
378.33	4730.22
378.52	4358.08
378.72	4271.48
378.91	4358.08
379.11	4007.00
379.31	3815.07
379.50	3913.38
379.70	4278.50
379.89	4753.63
380.09	4959.60
380.28	5069.60
380.48	5193.65
380.68	5083.64
380.87	4840.23
381.07	4465.74
381.26	4264.46
381.46	4011.68
381.65	3749.54
381.85	3609.11
382.04	3508.46
382.24	3335.26
382.43	3105.89
382.63	3164.40
382.83	3178.45
383.02	3077.80
383.22	3103.55
383.41	3063.76
383.61	3379.73
383.80	3843.16
384.00	4393.19
384.19	4805.12
384.39	4940.87
384.58	5060.24
384.78	4755.97
384.97	4933.85
385.17	4690.43
385.36	4367.44
385.56	4306.59
385.75	4400.21
385.95	4884.70
386.14	5219.39
386.34	5313.02
386.53	4880.02
386.72	4674.05
386.92	4606.17
387.11	4919.81
387.31	5212.37
387.50	5027.47
387.70	4964.28
387.89	5071.94
388.09	4863.63
388.28	5011.09
388.48	4980.66
388.67	5465.15
388.86	6003.47
389.06	6282.00
389.25	6518.39
389.45	6909.26
389.64	6904.58
389.84	6911.60
390.03	6558.18
390.22	6548.82
390.42	6909.26
390.61	7243.96
390.81	7786.96
391.00	7932.08
391.19	7889.95
391.39	7583.34
391.58	7089.48
391.78	6616.69
391.97	6492.65
392.16	6052.63
392.36	5533.03
392.55	4512.55
392.75	3510.80
392.94	2862.48
393.13	2932.69
393.33	3372.71
393.52	4369.78
393.71	5460.47
393.91	6162.63
394.10	6509.03
394.29	7077.78
394.49	7672.28
394.68	8294.86
394.88	8299.54
395.07	8571.04
395.26	8322.94
395.46	8102.93
395.65	7707.38
395.84	6752.45
396.04	5867.72
396.23	4676.39
396.42	3885.29
396.62	3829.12
396.81	4561.70
397.00	5528.35
397.19	6970.12
397.39	8383.80
397.58	9411.29
397.77	9966.00
397.97	10375.59
398.16	10499.64
398.35	10794.55
398.55	11152.65
398.74	11559.91
398.93	11976.52
399.12	11475.65
399.32	11220.53
399.51	11431.18
399.70	12224.62
399.90	12058.44
400.09	11896.94
400.28	11857.15
400.47	12049.08
400.67	12559.31
400.86	12709.11
401.05	12975.93
401.24	12727.83
401.44	13198.28
401.63	13090.62
401.82	13472.12
402.01	13432.33
402.21	13404.25
402.40	13298.92
402.59	13081.25
402.78	12610.81
402.97	12180.15
403.17	12620.17
403.36	13294.24
403.55	14045.55
403.74	14427.06
403.93	13752.99
404.13	12575.70
404.32	12332.28
404.51	12620.17
404.70	13797.46
404.89	13692.13
405.09	13476.80
405.28	13383.18
405.47	13001.68
405.66	12978.27
405.85	12746.56
406.05	12531.23
406.24	12524.21
406.43	13249.77
406.62	13650.00
406.81	13965.98
407.00	13167.85
407.20	13048.49
407.39	13018.06
407.58	13565.74
407.77	14267.91
407.96	14672.82
408.15	14944.32
408.34	15101.14
408.54	15370.30
408.73	15510.73
408.92	15281.36
409.11	14843.68
409.30	14083.00
409.49	13507.23
409.68	12416.54
409.87	12215.26
410.07	12964.23
410.26	13963.64
410.45	14684.52
410.64	15012.20
410.83	15749.46
411.02	15960.11
411.21	16554.61
411.40	16184.80
411.59	16409.50
411.78	16285.45
411.98	16109.91
412.17	16311.19
412.36	15990.54
412.55	16049.05
412.74	15742.44
412.93	15393.70
413.12	15700.31
413.31	16896.33
413.50	17331.67
413.69	17432.31
413.88	16908.03
414.07	16453.97
414.26	16484.39
414.45	17132.72
414.64	16961.86
414.83	17221.66
415.02	17083.57
415.22	16842.50
415.41	17373.80
415.60	17951.91
415.79	18476.19
415.98	19080.05
416.17	18977.06
416.36	18174.26
416.55	18153.20
416.74	17764.67
416.93	17326.99
417.12	17109.32
417.31	17453.37
417.50	17425.29
417.69	18429.38
417.88	17977.65
418.07	18017.44
418.26	17701.47
418.45	17767.01
418.64	18431.72
418.83	19414.74
419.02	19063.66
419.21	18829.61
419.39	17860.63
419.58	17170.17
419.77	17123.36
419.96	17523.59
420.15	18892.80
420.34	19927.32
420.53	19875.83
420.72	20355.64
420.91	20203.50
421.10	20058.39
421.29	19756.46
421.48	19089.41
421.67	20219.89
421.86	19543.47
422.05	18185.96
422.24	16262.04
422.43	16116.93
422.61	17905.10
422.80	19489.64
422.99	19520.07
423.18	18923.23
423.37	18260.86
423.56	18618.96
423.75	18401.29
423.94	19157.28
424.13	17851.27
424.32	18338.10
424.50	18190.64
424.69	17954.25
424.88	18274.90
425.07	17909.78
425.26	18127.45
425.45	17916.80
425.64	17373.80
425.83	17792.75
426.01	18656.41
426.20	18956.00
426.39	18885.78
426.58	17685.09
426.77	16128.63
426.96	15702.65
427.15	16348.64
427.33	17680.41
427.52	18373.21
427.71	18565.13
427.90	18068.94
428.09	17921.48
428.28	17598.49
428.46	16959.52
428.65	16868.24
428.84	17245.07
429.03	17666.36
429.22	16463.33
429.40	15307.10
429.59	14286.63
429.78	12587.40
429.97	12695.07
430.16	12566.34
430.34	12800.39
430.53	12741.88
430.72	13123.38
430.91	14745.38
431.10	16842.50
431.28	20299.47
431.47	21839.54
431.66	22188.28
431.85	19859.45
432.03	18354.48
432.22	17607.85
432.41	18420.02
432.60	20004.56
432.79	21015.67
432.97	21680.38
433.16	20886.94
433.35	18829.61
433.54	17369.12
433.72	16332.26
433.91	17008.67
434.10	19058.98
434.28	20278.40
434.47	21254.40
434.66	20690.34
434.85	20505.43
435.03	19885.19
435.22	20805.02
435.41	22134.45
435.59	21713.15
435.78	21956.57
435.97	22761.71
436.16	22824.90
436.34	22623.62
436.53	21951.88
436.72	22607.23
436.90	20725.44
437.09	20835.45
437.28	20765.23
437.46	21734.21
437.65	21113.97
437.84	19812.63
438.02	18150.85
438.21	18291.29
438.40	18867.06
438.58	20816.72
438.77	21338.66
438.96	21565.70
439.14	22487.87
439.33	22572.13
439.52	23084.70
439.70	22574.47
439.89	22185.94
440.08	21451.01
440.26	21755.28
440.45	22731.28
440.63	23819.63
440.82	25158.42
441.01	24952.45
441.19	24746.48
441.38	24793.29
441.57	26066.55
441.75	26319.32
441.94	26471.46
442.12	26106.34
442.31	26639.98
442.50	26717.22
442.68	26398.90
442.87	25673.34
443.05	25546.95
443.24	25736.53
443.43	26621.25
443.61	26998.08
443.80	27227.45
443.98	25900.37
444.17	25687.38
444.35	27262.56
444.54	27786.84
444.73	27182.98
444.91	26141.44
445.10	24936.07
445.28	24205.82
445.47	23955.38
445.65	23772.82
445.84	24814.36
446.02	25673.34
446.21	26307.62
446.39	25806.75
446.58	26396.56
446.77	27019.14
446.95	27000.42
447.14	27695.56
447.32	27857.06
447.51	27402.99
447.69	26211.66
447.88	26031.44
448.06	26497.20
448.25	27353.84
448.43	27215.75
448.62	26677.43
448.80	26389.54
448.99	26874.03
449.17	27339.80
449.36	27377.25
449.54	28311.12
449.73	28439.85
449.91	28964.13
450.10	29633.52
450.28	30127.38
450.46	30216.32
450.65	29834.81
450.83	29443.94
451.02	29060.09
451.20	28861.15
451.39	28493.68
451.57	28570.92
451.76	28725.39
451.94	28203.46
452.13	27709.60
452.31	26817.86
452.49	25516.52
452.68	25654.61
452.86	25986.97
453.05	26160.17
453.23	26913.82
453.42	27641.73
453.60	28474.96
453.78	28280.69
453.97	28491.34
454.15	28126.22
454.34	27318.73
454.52	27779.82
454.70	27353.84
454.89	27630.02
455.07	27751.73
455.26	27936.63
455.44	29151.37
455.62	29483.73
455.81	29752.89
455.99	29488.41
456.17	29179.46
456.36	29151.37
456.54	30342.70
456.73	30195.25
456.91	30548.67
457.09	30525.27
457.28	31512.97
457.46	30089.93
457.64	29694.38
457.83	28886.89
458.01	28329.84
458.19	28931.36
458.38	29163.08
458.56	30012.69
458.74	30206.95
458.93	29584.37
459.11	29727.14
459.29	29186.48
459.48	29474.37
459.66	29544.58
459.84	29841.83
460.03	30115.67
460.21	30099.29
460.39	30756.98
460.57	30806.13
460.76	31269.56
460.94	31449.78
461.12	30525.27
461.31	30944.22
461.49	30529.95
461.67	30892.73
461.85	31864.05
462.04	31445.10
462.22	32297.05
462.40	31548.08
462.59	31112.74
462.77	31424.03
462.95	31508.29
463.13	30909.11
463.32	31126.78
463.50	30738.26
463.68	30902.09
463.86	31035.50
464.05	30258.45
464.23	29846.51
464.41	29912.05
464.59	29275.42
464.78	30820.17
464.96	30930.18
465.14	30015.03
465.32	31409.99
465.50	31613.62
465.69	31901.50
465.87	31594.89
466.05	30312.28
466.23	29041.37
466.41	28306.44
466.60	29303.51
466.78	29497.77
466.96	30080.56
467.14	30110.99
467.32	30883.37
467.51	30703.15
467.69	29385.43
467.87	30225.68
468.05	30593.14
468.23	30625.91
468.41	30075.88
468.60	30991.03
468.78	30679.74
468.96	30424.62
469.14	31290.62
469.32	31379.56
469.50	29872.26
469.69	30141.42
469.87	29951.84
470.05	29530.54
470.23	29745.87
470.41	29539.90
470.59	30237.38
470.77	30785.07
470.95	31040.18
471.14	31314.03
471.32	31297.64
471.50	32931.34
471.68	33020.28
471.86	33387.74
472.04	33549.24
472.22	33680.31
472.40	31730.64
472.58	31489.57
472.77	31517.65
472.95	32294.71
473.13	33354.97
473.31	32081.72
473.49	32542.81
473.67	32861.12
473.85	33125.60
474.03	34363.75
474.21	34136.71
474.39	34448.00
474.57	34265.44
474.75	34689.08
474.93	34422.26
475.12	33539.88
475.30	33200.50
475.48	34005.64
475.66	34164.80
475.84	33708.40
476.02	33769.25
476.20	32872.82
476.38	33750.52
476.56	34951.22
476.74	35005.05
476.92	35482.52
477.10	35842.96
477.28	36999.19
477.46	36875.14
477.64	36851.73
477.82	37647.52
478.00	37151.32
478.18	36521.72
478.36	36556.83
478.54	36886.84
478.72	37090.47
478.90	38066.47
479.08	39225.04
479.26	39655.70
479.44	39358.45
479.62	38740.55
479.80	39384.19
479.98	38979.28
480.16	39407.60
480.34	39005.03
480.52	39248.44
480.70	39995.07
480.88	39730.59
481.06	40629.36
481.24	40776.81
481.41	41549.19
481.59	42241.99
481.77	41769.20
481.95	41010.87
482.13	41319.82
482.31	41165.34
482.49	42337.95
482.67	42129.64
482.85	42361.36
483.03	43096.28
483.21	42993.30
483.39	43365.45
483.57	42686.69
483.74	42204.54
483.92	42600.09
484.10	42309.86
484.28	43824.19
484.46	43856.96
484.64	44619.97
484.82	43288.21
485.00	43030.75
485.18	42204.54
485.35	40807.24
485.53	37691.99
485.71	34429.28
485.89	34534.60
486.07	36233.83
486.25	39138.44
486.43	41282.37
486.61	41886.23
486.78	42251.35
486.96	42394.12
487.14	43688.44
487.32	44680.83
487.50	45759.81
487.68	46923.06
487.85	47288.18
488.03	47515.22
488.21	46817.74
488.39	45808.96
488.57	45387.67
488.75	44942.97
488.92	46466.66
489.10	48814.21
489.28	50131.93
489.46	51117.30
489.64	50593.02
489.81	50756.86
489.99	50286.41
490.17	50768.56
490.35	51035.38
490.53	50298.11
490.70	50010.23
490.88	50122.57
491.06	51089.21
491.24	50937.08
491.41	49729.36
491.59	47512.88
491.77	47246.05
491.95	48624.63
492.13	49551.48
492.30	51136.02
492.48	52044.15
492.66	52624.60
492.84	52308.63
493.01	52130.75
493.19	51765.63
493.37	51121.98
493.54	50691.32
493.72	51861.59
493.90	52926.53
494.08	53757.42
494.25	53925.94
494.43	54396.39
494.61	54438.52
494.79	54536.82
494.96	54267.66
495.14	53619.33
495.32	52619.92
495.49	52257.14
495.67	53333.79
495.85	54557.89
496.02	55201.53
496.20	54967.48
496.38	54426.82
496.55	54389.37
496.73	54665.55
496.91	54782.58
497.09	55461.33
497.26	55695.39
497.44	55093.87
497.62	54635.13
497.79	53612.31
497.97	52535.66
498.14	52863.34
498.32	54281.70
498.50	54923.01
498.67	55379.42
498.85	55185.15
499.03	55412.18
499.20	55966.89
499.38	55578.36
499.56	55622.83
499.73	54983.86
499.91	54773.22
500.08	53965.73
500.26	53497.62
500.44	54092.12
500.61	54593.00
500.79	54487.67
500.97	53916.58
501.14	53757.42
501.32	53930.62
501.49	53474.22
501.67	53923.60
501.84	54607.04
502.02	54660.87
502.20	55124.30
502.37	55353.67
502.55	55533.89
502.72	56114.34
502.90	56381.16
503.07	55987.95
503.25	55430.91
503.43	54972.16
503.60	54021.90
503.78	53661.46
503.95	54054.67
504.13	55489.42
504.30	56205.62
504.48	55992.64
504.65	55547.93
504.83	55866.25
505.01	56430.32
505.18	56884.38
505.36	57359.51
505.53	57392.28
505.71	57558.45
505.88	57579.52
506.06	56748.63
506.23	56563.73
506.41	56250.09
506.58	56603.52
506.76	56446.70
506.93	56655.01
507.11	56224.35
507.28	56322.65
507.46	55730.50
507.63	55103.23
507.81	55054.08
507.98	55578.36
508.16	56257.12
508.33	56657.35
508.50	56790.76
508.68	57298.65
508.85	57680.16
509.03	57668.46
509.20	57305.68
509.38	56598.83
509.55	56100.30
509.73	56437.34
509.90	56549.68
510.08	56935.87
510.25	56802.46
510.42	56680.75
510.60	56598.83
510.77	57130.14
510.95	57549.09
511.12	57619.31
511.30	57813.57
511.47	58073.37
511.64	57958.69
511.82	57834.64
511.99	57043.54
512.17	56498.19
512.34	56016.04
512.51	56360.10
512.69	56509.89
512.86	56664.37
513.04	57270.57
513.21	56858.63
513.38	56706.50
513.56	56151.79
513.73	55274.09
513.90	55987.95
514.08	55941.14
514.25	56233.71
514.43	56371.80
514.60	56547.34
514.77	56699.48
514.95	56804.80
515.12	56713.52
515.29	56949.92
515.47	57579.52
515.64	57633.35
515.81	57099.71
515.99	56416.27
516.16	55292.82
516.33	52540.35
516.51	51234.33
516.68	50288.75
516.85	49687.23
517.03	50733.45
517.20	53385.28
517.37	55896.67
517.54	56605.86
517.72	56081.58
517.89	53270.59
518.06	51011.98
518.24	51973.94
518.41	54134.25
518.58	55353.67
518.75	55585.38
518.93	55604.11
519.10	55690.71
519.27	56156.47
519.45	56493.51
519.62	56956.94
519.79	57183.97
519.96	57064.60
520.14	56844.59
520.31	55770.28
520.48	55980.93
520.65	56523.94
520.83	57190.99
521.00	57446.11
521.17	57282.27
521.34	56924.17
521.52	57317.38
521.69	57855.70
521.86	58096.78
522.03	57766.76
522.20	56554.36
522.38	55566.66
522.55	55587.72
522.72	56158.81
522.89	56130.73
523.07	56507.55
523.24	56821.19
523.41	57886.13
523.58	58033.58
523.75	58541.48
523.92	58113.16
524.10	58639.78
524.27	58274.66
524.44	57846.34
524.61	57986.77
524.78	57799.53
524.96	57764.42
525.13	57565.48
525.30	57923.58
525.47	58323.81
525.64	58216.14
525.81	57577.18
525.98	56034.77
526.16	54312.13
526.33	53783.17
526.50	53689.55
526.67	53123.14
526.84	54092.12
527.01	55000.25
527.18	55781.99
527.36	56734.59
527.53	57549.09
527.70	57642.71
527.87	57305.68
528.04	56645.65
528.21	57317.38
528.38	58017.20
528.55	58497.01
528.72	58728.72
528.89	58972.14
529.07	58555.52
529.24	57904.85
529.41	57411.00
529.58	56753.31
529.75	56816.50
529.92	57345.47
530.09	57822.93
530.26	58417.43
530.43	58677.23
530.60	58653.82
530.77	58794.26
530.94	58927.67
531.11	58433.81
531.28	58064.01
531.46	57841.66
531.63	58064.01
531.80	58007.84
531.97	57483.56
532.14	56633.94
532.31	55501.12
532.48	55049.40
532.65	55220.26
532.82	56074.55
532.99	56961.62
533.16	57436.75
533.33	57942.30
533.50	57846.34
533.67	57261.21
533.84	56809.48
534.01	57003.75
534.18	57301.00
534.35	57303.34
534.52	57214.40
534.69	57399.30
534.86	57949.32
535.03	58080.39
535.20	58539.14
535.37	58721.70
535.54	58798.94
535.71	58595.31
535.88	58335.51
536.05	57312.70
536.22	57174.61
536.38	56793.10
536.55	56397.55
536.72	55674.32
536.89	55791.35
537.06	56961.62
537.23	57638.03
537.40	57876.77
537.57	57848.68
537.74	57584.20
537.91	57694.21
538.08	57593.56
538.25	57368.87
538.42	57680.16
538.59	57336.10
538.75	56825.87
538.92	56601.18
539.09	56671.39
539.26	56619.90
539.43	56243.07
539.60	56280.52
539.77	56643.30
539.94	56343.72
540.11	55341.97
540.28	54967.48
540.44	55271.75
540.61	55416.86
540.78	55580.70
540.95	56175.20
541.12	56435.00
541.29	56673.73
541.46	56999.07
541.62	56992.04
541.79	56896.08
541.96	56137.75
542.13	56360.10
542.30	56704.16
542.47	56622.24
542.63	56446.70
542.80	56371.80
542.97	56306.27
543.14	56327.33
543.31	56598.83
543.48	56868.00
543.64	57448.45
543.81	57911.88
543.98	57607.61
544.15	56924.17
544.32	56594.15
544.48	56846.93
544.65	57001.41
544.82	57436.75
544.99	57076.30
545.16	56615.22
545.32	56540.32
545.49	57289.29
545.66	57645.05
545.83	57289.29
546.00	56587.13
546.16	56463.08
546.33	56533.30
546.50	56788.42
546.67	57109.07
546.83	56671.39
547.00	56573.09
547.17	56097.96
547.34	55388.78
547.50	55316.22
547.67	55948.17
547.84	55887.31
548.00	56142.43
548.17	56736.93
548.34	56650.33
548.51	56645.65
548.67	56678.41
548.84	56907.79
549.01	56680.75
549.18	56591.81
549.34	56444.36
549.51	56460.74
549.68	56601.18
549.84	56072.21
550.01	55980.93
550.18	56168.18
550.34	56261.80
550.51	56275.84
550.68	56240.73
550.84	55517.51
551.01	55931.78
551.18	55737.52
551.34	55950.51
551.51	56512.23
551.68	56750.97
551.84	56673.73
552.01	56577.77
552.18	56411.59
552.34	55463.67
552.51	55437.93
552.68	55356.01
552.84	55559.64
553.01	55763.26
553.18	55819.44
553.34	55964.55
553.51	56133.07
553.67	56329.67
553.84	56420.95
554.01	56133.07
554.17	56210.31
554.34	56107.32
554.51	56547.34
554.67	56783.74
554.84	56575.43
555.00	56030.08
555.17	55763.26
555.33	55882.63
555.50	55674.32
555.67	55763.26
555.83	55643.90
556.00	55306.86
556.16	55566.66
556.33	54834.07
556.50	55047.06
556.66	54915.99
556.83	54571.93
556.99	54775.56
557.16	55107.91
557.32	55222.60
557.49	55330.26
557.65	55569.00
557.82	55440.27
557.98	55356.01
558.15	54447.88
558.32	53773.81
558.48	53198.04
558.65	53209.74
558.81	53628.69
558.98	53930.62
559.14	54054.67
559.31	54211.49
559.47	54052.33
559.64	53998.50
559.80	53736.36
559.97	53762.11
560.13	54209.15
560.30	54801.30
560.46	55707.09
560.63	55859.23
560.79	55648.58
560.96	55194.51
561.12	53979.78
561.29	53385.28
561.45	53659.12
561.61	54209.15
561.78	54791.94
561.94	54361.28
562.11	53982.12
562.27	54197.44
562.44	54550.87
562.60	54803.64
562.77	54972.16
562.93	54686.62
563.10	54506.40
563.26	54295.75
563.42	54237.23
563.59	54124.89
563.75	54094.46
563.92	54143.61
564.08	54012.54
564.24	54174.04
564.41	54382.35
564.57	53986.80
564.74	53982.12
564.90	53858.07
565.07	53815.94
565.23	53240.17
565.39	52825.89
565.56	52444.38
565.72	52481.83
565.88	52786.10
566.05	52673.76
566.21	53167.61
566.38	53055.26
566.54	53298.68
566.70	53815.94
566.87	53851.05
567.03	53649.76
567.19	54206.81
567.36	53876.79
567.52	53642.74
567.68	53256.55
567.85	52678.44
568.01	52474.81
568.17	52025.43
568.34	52018.41
568.50	51997.34
568.66	52142.45
568.83	52683.12
568.99	52507.58
569.15	52708.86
569.32	52980.37
569.48	52718.23
569.64	52350.76
569.81	51810.10
569.97	51840.53
570.13	51845.21
570.30	51435.61
570.46	51051.76
570.62	50122.57
570.78	50064.06
570.95	50754.52
571.11	51484.76
571.27	51587.75
571.43	51842.87
571.60	52144.80
571.76	52109.69
571.92	52584.82
572.09	52605.88
572.25	52474.81
572.41	52872.70
572.57	52587.16
572.74	52285.23
572.90	52247.78
573.06	51896.70
573.22	52428.00
573.38	52177.56
573.55	52076.92
573.71	52193.95
573.87	52163.52
574.03	51653.28
574.20	51952.87
574.36	51744.56
574.52	51302.20
574.68	51320.93
574.84	50649.19
575.01	50064.06
575.17	50508.76
575.33	50773.24
575.49	51187.52
575.65	51285.82
575.82	50642.17
575.98	50389.39
576.14	50621.11
576.30	51379.44
576.46	51126.66
576.62	51049.42
576.79	51075.17
576.95	50637.49
577.11	50681.96
577.27	50798.99
577.43	50796.65
577.59	50738.13
577.75	50454.93
577.92	49214.44
578.08	49174.66
578.24	49062.31
578.40	49640.42
578.56	49846.39
578.72	49942.35
578.88	50101.51
579.04	50309.82
579.21	50183.43
579.37	50204.49
579.53	50569.61
579.69	50621.11
579.85	50513.44
580.01	50358.97
580.17	49722.34
580.33	49432.11
580.49	49712.98
580.65	50438.54
580.82	50518.12
580.98	50445.57
581.14	50412.80
581.30	50419.82
581.46	50295.77
581.62	50571.96
581.78	50363.65
581.94	50609.40
582.10	50810.69
582.26	50518.12
582.42	50569.61
582.58	50726.43
582.74	50450.25
582.90	50368.33
583.06	50464.29
583.22	50490.04
583.38	50298.11
583.54	50258.32
583.70	50382.37
583.86	50265.34
584.02	49958.73
584.18	50185.77
584.34	50270.03
584.50	50141.30
584.66	49834.69
584.82	49539.78
584.98	49172.31
585.14	48694.85
585.30	48348.45
