SpectraSuite Data File
++++++++++++++++++++++++++++++++++++
Date: Mon Oct 07 14:53:20 GMT-05:00 2013
User: price-jones
Dark Spectrum Present: No
Reference Spectrum Present: No
Number of Sampled Component Spectra: 1
Spectrometers: USB2+H05261
Integration Time (usec): 100000 (USB2+H05261)
Spectra Averaged: 1 (USB2+H05261)
Boxcar Smoothing: 0 (USB2+H05261)
Correct for Electrical Dark: No (USB2+H05261)
Strobe/Lamp Enabled: No (USB2+H05261)
Correct for Detector Non-linearity: No (USB2+H05261)
Correct for Stray Light: No (USB2+H05261)
Number of Pixels in Processed Spectrum: 2048
>>>>>Begin Processed Spectral Data<<<<<
365.73	0.00
365.92	0.00
366.12	0.00
366.32	0.00
366.52	0.00
366.72	0.00
366.91	0.00
367.11	0.00
367.31	0.00
367.51	0.00
367.70	0.00
367.90	0.00
368.10	0.00
368.30	0.00
368.49	0.00
368.69	0.00
368.89	0.00
369.09	0.00
369.28	0.00
369.48	0.00
369.68	0.00
369.87	0.00
370.07	0.00
370.27	0.00
370.47	535.98
370.66	2836.73
370.86	3365.69
371.06	3798.69
371.25	3742.52
371.45	3346.97
371.65	3016.95
371.84	2806.30
372.04	2951.42
372.24	3286.11
372.44	3389.10
372.63	3602.08
372.83	3201.85
373.03	2696.30
373.22	2558.21
373.42	2635.44
373.62	3180.79
373.81	3433.57
374.01	3286.11
374.21	3080.14
374.40	2785.24
374.60	2977.16
374.79	3283.77
374.99	3889.97
375.19	4301.90
375.38	4227.01
375.58	4002.32
375.78	3904.01
375.97	3882.95
376.17	4119.34
376.37	4098.28
376.56	4264.46
376.76	4447.02
376.95	4704.48
377.15	5055.56
377.35	5224.08
377.54	5458.13
377.74	5671.12
377.93	5710.91
378.13	5444.09
378.33	5217.05
378.52	4851.93
378.72	4535.96
378.91	4550.00
379.11	4606.17
379.31	4266.80
379.50	4156.79
379.70	4592.13
379.89	4910.44
380.09	5303.65
380.28	5516.64
380.48	5509.62
380.68	5294.29
380.87	5310.68
381.07	4898.74
381.26	4521.92
381.46	4187.22
381.65	4128.70
381.85	4128.70
382.04	3920.40
382.24	3527.19
382.43	3286.11
382.63	3267.39
382.83	3428.88
383.02	3281.43
383.22	3480.38
383.41	3353.99
383.61	3557.61
383.80	4063.17
384.00	4596.81
384.19	5350.46
384.39	5338.76
384.58	5509.62
384.78	5310.68
384.97	5425.36
385.17	5109.39
385.36	4805.12
385.56	4580.43
385.75	4641.28
385.95	5149.18
386.14	5589.20
386.34	5500.26
386.53	5336.42
386.72	5107.05
386.92	5132.79
387.11	5238.12
387.31	5675.80
387.50	5563.45
387.70	5277.91
387.89	5200.67
388.09	5130.45
388.28	5359.83
388.48	5439.40
388.67	5743.67
388.86	6317.11
389.06	6829.68
389.25	7356.30
389.45	7375.03
389.64	7178.42
389.84	7190.13
390.03	7042.67
390.22	7059.06
390.42	7405.46
390.61	7740.15
390.81	8035.06
391.00	8758.28
391.19	8299.54
391.39	8084.21
391.58	7595.04
391.78	7183.10
391.97	6862.45
392.16	6710.32
392.36	5968.37
392.55	4912.78
392.75	3896.99
392.94	3281.43
393.13	3098.87
393.33	3730.81
393.52	4645.96
393.71	5834.96
393.91	6197.74
394.10	6949.05
394.29	7726.11
394.49	8084.21
394.68	8854.25
394.88	8849.57
395.07	9249.80
395.26	9107.02
395.46	8830.84
395.65	8531.25
395.84	7155.02
396.04	6143.91
396.23	4985.34
396.42	4257.43
396.62	4030.40
396.81	4753.63
397.00	6045.60
397.19	7454.61
397.39	9008.72
397.58	10071.33
397.77	10604.97
397.97	10958.39
398.16	11199.46
398.35	11606.72
398.55	11889.92
398.74	12545.27
398.93	12854.22
399.12	12578.04
399.32	12084.19
399.51	12313.56
399.70	13107.00
399.90	13062.53
400.09	13018.06
400.28	12776.98
400.47	13212.32
400.67	13757.67
400.86	14104.07
401.05	13834.91
401.24	13886.40
401.44	14611.96
401.63	14305.35
401.82	14141.52
402.01	14443.45
402.21	14551.11
402.40	14686.86
402.59	14150.88
402.78	13593.83
402.97	13359.78
403.17	13483.83
403.36	14293.65
403.55	15000.49
403.74	15414.77
403.93	14743.03
404.13	13525.96
404.32	13404.25
404.51	13907.46
404.70	14661.12
404.89	14839.00
405.09	14745.38
405.28	14019.81
405.47	13916.83
405.66	14190.67
405.85	13706.18
406.05	13324.67
406.24	13736.60
406.43	14244.50
406.62	14806.23
406.81	14836.66
407.00	14312.38
407.20	13914.48
407.39	14204.71
407.58	14759.42
407.77	15382.00
407.96	15623.08
408.15	16248.00
408.34	16006.92
408.54	16823.77
408.73	16968.88
408.92	16580.36
409.11	16269.06
409.30	15269.66
409.49	14473.87
409.68	13760.01
409.87	13217.01
410.07	13926.19
410.26	15208.80
410.45	15672.23
410.64	16271.40
410.83	17022.72
411.02	17200.60
411.21	18019.78
411.40	17900.42
411.59	17792.75
411.78	17884.03
411.98	17483.80
412.17	17596.15
412.36	17469.76
412.55	17628.92
412.74	17022.72
412.93	16793.34
413.12	16755.90
413.31	18567.47
413.50	18340.44
413.69	18853.02
413.88	18331.08
414.07	17743.60
414.26	17703.81
414.45	18757.05
414.64	18761.73
414.83	18792.16
415.02	18726.63
415.22	18328.74
415.41	18572.15
415.60	19391.34
415.79	20077.12
415.98	20561.61
416.17	20748.85
416.36	19978.81
416.55	20027.96
416.74	19138.56
416.93	18553.43
417.12	18274.90
417.31	18981.74
417.50	19124.52
417.69	19545.81
417.88	19702.63
418.07	19609.01
418.26	19332.82
418.45	19112.81
418.64	20283.08
418.83	20631.82
419.02	20657.57
419.21	20460.96
419.39	19534.11
419.58	18541.72
419.77	18649.39
419.96	19630.07
420.15	20350.96
420.34	20624.80
420.53	21771.66
420.72	22150.83
420.91	22174.24
421.10	21717.83
421.29	21481.44
421.48	20767.57
421.67	21783.37
421.86	21233.34
422.05	19740.08
422.24	17408.90
422.43	17338.69
422.61	19229.84
422.80	21088.23
422.99	20954.82
423.18	20484.37
423.37	19974.13
423.56	19915.62
423.75	20334.57
423.94	21130.36
424.13	19201.76
424.32	19683.91
424.50	20016.26
424.69	19463.90
424.88	19405.38
425.07	19672.20
425.26	19669.86
425.45	19307.08
425.64	18937.27
425.83	18881.10
426.01	20353.30
426.20	20776.94
426.39	20741.83
426.58	19286.01
426.77	17598.49
426.96	17092.93
427.15	17570.40
427.33	18724.29
427.52	19564.54
427.71	19749.44
427.90	19491.98
428.09	19445.17
428.28	19108.13
428.46	18607.26
428.65	18019.78
428.84	18553.43
429.03	18953.66
429.22	17846.58
429.40	16819.09
429.59	15356.25
429.78	13603.19
429.97	13778.73
430.16	13771.71
430.34	13858.31
430.53	13919.17
430.72	14195.35
430.91	15550.52
431.10	18293.63
431.28	21523.57
431.47	23501.32
431.66	23585.58
431.85	21542.29
432.03	19999.88
432.22	18944.30
432.41	19878.17
432.60	22204.66
432.79	23096.41
432.97	22972.36
433.16	22813.20
433.35	20519.48
433.54	18565.13
433.72	17685.09
433.91	18118.09
434.10	20025.62
434.28	21919.12
434.47	22965.34
434.66	22534.68
434.85	21802.09
435.03	21998.70
435.22	22427.01
435.41	23826.65
435.59	23889.85
435.78	24467.96
435.97	24922.02
436.16	24922.02
436.34	24503.07
436.53	23740.05
436.72	24264.33
436.90	22881.08
437.09	22712.56
437.28	22455.10
437.46	23232.16
437.65	22686.81
437.84	21579.74
438.02	19779.87
438.21	19559.86
438.40	20702.04
438.58	22017.42
438.77	23136.20
438.96	23180.67
439.14	24308.80
439.33	24690.31
439.52	25170.12
439.70	24924.36
439.89	23899.21
440.08	23342.16
440.26	23283.65
440.45	24271.36
440.63	25954.20
440.82	27070.64
441.01	26775.73
441.19	26235.06
441.38	27309.37
441.57	28048.98
441.75	28037.28
441.94	28285.37
442.12	28063.02
442.31	28898.59
442.50	28350.91
442.68	28327.50
442.87	28039.62
443.05	27597.26
443.24	27892.16
443.43	28800.29
443.61	29116.26
443.80	29427.56
443.98	27496.61
444.17	27971.74
444.35	29420.53
444.54	30019.71
444.73	29446.28
444.91	28114.52
445.10	27447.46
445.28	26534.65
445.47	25834.83
445.65	25823.13
445.84	26506.57
446.02	27754.07
446.21	28142.60
446.39	28280.69
446.58	28177.71
446.77	28907.96
446.95	29209.89
447.14	29762.25
447.32	30256.11
447.51	29890.98
447.69	28662.20
447.88	28100.47
448.06	28423.47
448.25	28844.76
448.43	29443.94
448.62	28987.53
448.80	28655.18
448.99	28802.63
449.17	29434.58
449.36	29240.31
449.54	30291.21
449.73	31098.70
449.91	31248.49
450.10	32177.68
450.28	32119.17
450.46	32173.00
450.65	32362.59
450.83	32072.36
451.02	31189.98
451.20	31482.55
451.39	31044.87
451.57	30780.39
451.76	31096.36
451.94	30792.09
452.13	30073.54
452.31	28872.85
452.49	27428.74
452.68	28048.98
452.86	27793.86
453.05	28336.87
453.23	29179.46
453.42	29905.02
453.60	30398.88
453.78	30958.27
453.97	30796.77
454.15	30347.39
454.34	29848.85
454.52	30080.56
454.70	28982.85
454.89	29703.74
455.07	30029.07
455.26	30567.40
455.44	31316.37
455.62	31981.08
455.81	32002.14
455.99	32065.34
456.17	31185.30
456.36	31751.71
456.54	32676.22
456.73	32287.69
456.91	32879.85
457.09	33469.66
457.28	33689.67
457.46	32353.23
457.64	32053.64
457.83	31529.36
458.01	30298.23
458.19	31140.83
458.38	31304.67
458.56	32879.85
458.74	32685.58
458.93	31934.27
459.11	31564.46
459.29	31496.59
459.48	31735.32
459.66	31695.53
459.84	32055.98
460.03	32566.21
460.21	32617.71
460.39	33240.29
460.57	33118.58
460.76	33567.96
460.94	33207.52
461.12	33092.83
461.31	33214.54
461.49	33256.67
461.67	33319.87
461.85	34286.51
462.04	33532.86
462.22	34740.57
462.40	33984.58
462.59	34291.19
462.77	34298.21
462.95	34003.30
463.13	33720.10
463.32	33085.81
463.50	33123.26
463.68	33092.83
463.86	33406.47
464.05	32772.18
464.23	31548.08
464.41	31615.96
464.59	31391.26
464.78	32966.45
464.96	32907.93
465.14	32692.60
465.32	33139.65
465.50	34338.00
465.69	34319.28
465.87	33757.55
466.05	32772.18
466.23	30925.50
466.41	30754.64
466.60	31339.77
466.78	31461.48
466.96	32158.96
467.14	33039.00
467.32	33294.12
467.51	32877.51
467.69	31751.71
467.87	32514.72
468.05	32938.36
468.23	32971.13
468.41	32648.13
468.60	33099.86
468.78	33549.24
468.96	32914.95
469.14	34033.73
469.32	33600.73
469.50	32233.86
469.69	32833.04
469.87	32505.36
470.05	31842.99
470.23	31632.34
470.41	31765.75
470.59	32591.96
470.77	32566.21
470.95	33357.32
471.14	33544.56
471.32	33310.50
471.50	35578.48
471.68	35683.81
471.86	35835.94
472.04	36095.74
472.22	36018.50
472.40	34614.18
472.58	34071.18
472.77	34174.16
472.95	34630.57
473.13	35299.96
473.31	34506.52
473.49	34909.09
473.67	35477.84
473.85	35702.53
474.03	36758.11
474.21	36362.56
474.39	36879.82
474.57	37134.94
474.75	36807.26
474.93	36631.72
475.12	35793.81
475.30	35676.79
475.48	36105.10
475.66	36678.54
475.84	36465.55
476.02	35861.69
476.20	35157.19
476.38	36086.38
476.56	37207.50
476.74	37720.07
476.92	37823.06
477.10	38426.92
477.28	39634.63
477.46	39281.21
477.64	39800.81
477.82	40233.81
478.00	40308.71
478.18	39423.98
478.36	39405.26
478.54	39358.45
478.72	39718.89
478.90	40404.67
479.08	41876.86
479.26	41963.46
479.44	42059.43
479.62	41502.38
479.80	41532.81
479.98	41876.86
480.16	42403.49
480.34	42050.06
480.52	42419.87
480.70	42417.53
480.88	42595.41
481.06	43852.28
481.24	43608.86
481.41	44734.66
481.59	45076.38
481.77	44428.05
481.95	44404.64
482.13	43835.89
482.31	44119.10
482.49	44825.94
482.67	44315.70
482.85	44889.13
483.03	45298.73
483.21	46094.51
483.39	45542.14
483.57	45223.83
483.74	44847.00
483.92	45067.02
484.10	45003.82
484.28	46230.26
484.46	46529.85
484.64	47208.61
484.82	46405.80
485.00	45448.52
485.18	44788.49
485.35	43908.45
485.53	40292.32
485.71	36809.61
485.89	36374.27
486.07	38667.99
486.25	41961.12
486.43	43615.88
486.61	44718.28
486.78	44505.29
486.96	44605.93
487.14	46351.97
487.32	47143.07
487.50	48439.73
487.68	49441.48
487.85	49600.63
488.03	49184.02
488.21	49141.89
488.39	48493.56
488.57	48327.38
488.75	47456.70
488.92	48935.92
489.10	51040.06
489.28	52093.30
489.46	52905.47
489.64	52800.15
489.81	52774.40
489.99	52556.73
490.17	52493.54
490.35	52921.85
490.53	52336.72
490.70	52179.90
490.88	52236.08
491.06	52940.58
491.24	53006.11
491.41	51749.24
491.59	50183.43
491.77	49507.01
491.95	50871.54
492.13	51920.10
492.30	53237.83
492.48	54087.44
492.66	54541.50
492.84	54363.62
493.01	53991.48
493.19	53549.12
493.37	53453.15
493.54	53443.79
493.72	53792.53
493.90	54660.87
494.08	55594.74
494.25	55901.36
494.43	55978.59
494.61	56322.65
494.79	56252.44
494.96	56112.00
495.14	55515.17
495.32	54609.38
495.49	53979.78
495.67	55210.90
495.85	56346.06
496.02	56956.94
496.20	56647.99
496.38	56399.89
496.55	56130.73
496.73	56704.16
496.91	56495.85
497.09	57329.08
497.26	57565.48
497.44	57059.92
497.62	56493.51
497.79	55655.60
497.97	54461.93
498.14	54525.12
498.32	55646.24
498.50	56814.16
498.67	57029.49
498.85	56882.04
499.03	56914.81
499.20	57354.83
499.38	57530.37
499.56	57148.86
499.73	56687.78
499.91	56240.73
500.08	55880.29
500.26	55056.42
500.44	55796.03
500.61	56446.70
500.79	56245.41
500.97	55716.45
501.14	55587.72
501.32	55683.69
501.49	55515.17
501.67	55655.60
501.84	56109.66
502.02	56612.88
502.20	56804.80
502.37	56889.06
502.55	57080.98
502.72	57485.90
502.90	57944.64
503.07	57638.03
503.25	57216.74
503.43	56472.45
503.60	55990.30
503.78	55466.02
503.95	55716.45
504.13	57064.60
504.30	57825.28
504.48	57682.50
504.65	57186.31
504.83	57254.18
505.01	57888.47
505.18	58248.91
505.36	58866.81
505.53	58759.15
505.71	59131.29
505.88	59056.40
506.06	58499.35
506.23	58216.14
506.41	57647.39
506.58	58124.86
506.76	57883.79
506.93	58042.95
507.11	57694.21
507.28	57970.39
507.46	57553.77
507.63	56788.42
507.81	56968.64
507.98	57015.45
508.16	57708.25
508.33	58108.48
508.50	58382.32
508.68	58742.77
508.85	59276.41
509.03	59276.41
509.20	59070.44
509.38	58312.11
509.55	57783.15
509.73	57640.37
509.90	58220.83
510.08	58700.64
510.25	58555.52
510.42	58529.78
510.60	58145.93
510.77	58550.84
510.95	58948.73
511.12	59171.08
511.30	59367.69
511.47	59664.94
511.64	59465.99
511.82	59264.70
511.99	58349.56
512.17	57836.98
512.34	57769.10
512.51	57904.85
512.69	58185.72
512.86	58092.10
513.04	58688.93
513.21	58527.44
513.38	58260.62
513.56	57432.07
513.73	57249.50
513.90	57392.28
514.08	57539.73
514.25	57921.24
514.43	57862.72
514.60	57996.13
514.77	58122.52
514.95	58394.03
515.12	58026.56
515.29	58293.38
515.47	58913.62
515.64	59075.12
515.81	58712.34
515.99	58188.06
516.16	56750.97
516.33	54536.82
516.51	53279.96
516.68	52266.50
516.85	51601.79
517.03	52280.55
517.20	54890.24
517.37	57333.76
517.54	58300.40
517.72	57925.92
517.89	55470.70
518.06	52933.56
518.24	53343.15
518.41	55388.78
518.58	56992.04
518.75	57055.24
518.93	57289.29
519.10	57174.61
519.27	57614.63
519.45	57893.15
519.62	58487.65
519.79	58965.12
519.96	58834.05
520.14	58127.20
520.31	57237.80
520.48	57172.27
520.65	57626.33
520.83	58607.01
521.00	59049.38
521.17	58630.42
521.34	58159.97
521.52	58796.60
521.69	59145.34
521.86	59622.81
522.03	59154.70
522.20	58017.20
522.38	57097.37
522.55	57190.99
522.72	57752.72
522.89	57818.25
523.07	58085.07
523.24	58482.97
523.41	59117.25
523.58	59505.78
523.75	59873.24
523.92	59784.30
524.10	59732.81
524.27	59639.19
524.44	59330.24
524.61	59292.79
524.78	59065.76
524.96	59035.33
525.13	59058.74
525.30	59292.79
525.47	59632.17
525.64	59526.84
525.81	58918.31
525.98	57591.22
526.16	55793.69
526.33	55632.19
526.50	55313.88
526.67	54735.77
526.84	55466.02
527.01	56390.53
527.18	57282.27
527.36	57968.05
527.53	59178.10
527.70	59245.98
527.87	58735.74
528.04	58103.80
528.21	58770.85
528.38	59290.45
528.55	59868.56
528.72	60233.69
528.89	60275.82
529.07	59922.40
529.24	59484.72
529.41	58560.20
529.58	58176.36
529.75	58087.42
529.92	58674.89
530.09	59159.38
530.26	59611.10
530.43	59978.57
530.60	59913.03
530.77	60006.65
530.94	60357.74
531.11	59913.03
531.28	59419.18
531.46	59295.13
531.63	59419.18
531.80	59353.65
531.97	58824.68
532.14	58064.01
532.31	57036.51
532.48	56547.34
532.65	56491.17
532.82	57382.91
532.99	58578.93
533.16	58759.15
533.33	59320.88
533.50	59143.00
533.67	58307.43
533.84	58047.63
534.01	58391.68
534.18	58583.61
534.35	58646.80
534.52	58578.93
534.69	58754.47
534.86	58997.88
535.03	59496.42
535.20	59807.71
535.37	59894.31
535.54	60250.07
535.71	59852.18
535.88	59465.99
536.05	58852.77
536.22	58436.16
536.38	58239.55
536.55	57719.95
536.72	57212.06
536.89	57518.67
537.06	58129.54
537.23	58812.98
537.40	59171.08
537.57	58927.67
537.74	58693.61
537.91	58887.88
538.08	58752.13
538.25	58843.41
538.42	59070.44
538.59	58679.57
538.75	58239.55
538.92	57893.15
539.09	57839.32
539.26	57623.99
539.43	57750.38
539.60	57532.71
539.77	57673.14
539.94	57537.39
540.11	57036.51
540.28	56381.16
540.44	56453.72
540.61	56554.36
540.78	56856.29
540.95	57371.21
541.12	57680.16
541.29	58040.60
541.46	58555.52
541.62	58195.08
541.79	58344.87
541.96	57614.63
542.13	57612.29
542.30	58019.54
542.47	58220.83
542.63	57918.90
542.80	57600.58
542.97	57851.02
543.14	57638.03
543.31	57415.68
543.48	58260.62
543.64	59021.29
543.81	59117.25
543.98	58997.88
544.15	58344.87
544.32	57780.81
544.48	57822.93
544.65	58405.73
544.82	58684.25
544.99	58269.98
545.16	57918.90
545.32	57717.61
545.49	58499.35
545.66	58630.42
545.83	58475.94
546.00	58286.36
546.16	57860.38
546.33	57778.46
546.50	57811.23
546.67	58335.51
546.83	57808.89
547.00	57996.13
547.17	57099.71
547.34	56727.56
547.50	56832.89
547.67	57099.71
547.84	57148.86
548.00	57565.48
548.17	57951.66
548.34	57916.56
548.51	58145.93
548.67	57827.62
548.84	57862.72
549.01	57970.39
549.18	57834.64
549.34	57712.93
549.51	57780.81
549.68	57521.01
549.84	57530.37
550.01	57387.60
550.18	57305.68
550.34	57483.56
550.51	57406.32
550.68	57490.58
550.84	57116.09
551.01	57235.46
551.18	56996.73
551.34	57284.61
551.51	57350.15
551.68	57841.66
551.84	58052.31
552.01	57844.00
552.18	57516.32
552.34	56875.02
552.51	56519.26
552.68	56465.42
552.84	56851.61
553.01	57167.58
553.18	57080.98
553.34	57200.35
553.51	57099.71
553.67	57556.11
553.84	57832.30
554.01	57415.68
554.17	56956.94
554.34	57396.96
554.51	57600.58
554.67	57846.34
554.84	57579.52
555.00	57387.60
555.17	57120.77
555.33	57015.45
555.50	57027.15
555.67	57186.31
555.83	56917.15
556.00	56381.16
556.16	56657.35
556.33	56264.14
556.50	56102.64
556.66	56189.24
556.83	55938.80
556.99	55936.46
557.16	55948.17
557.32	56509.89
557.49	56629.26
557.65	56530.96
557.82	56463.08
557.98	56488.83
558.15	56044.13
558.32	54911.31
558.48	54239.57
558.65	54548.53
558.81	55047.06
558.98	55180.47
559.14	55348.99
559.31	55285.79
559.47	55655.60
559.64	55332.60
559.80	54934.71
559.97	54901.95
560.13	55238.98
560.30	56219.67
560.46	56704.16
560.63	56900.76
560.79	56732.25
560.96	56416.27
561.12	55435.59
561.29	54553.21
561.45	54632.78
561.61	55374.73
561.78	55601.77
561.94	55491.76
562.11	55442.61
562.27	55482.40
562.44	55480.06
562.60	55793.69
562.77	55868.59
562.93	55828.80
563.10	55781.99
563.26	55367.71
563.42	55325.58
563.59	54979.18
563.75	55100.89
563.92	55089.19
564.08	54953.44
564.24	55295.16
564.41	55688.37
564.57	55255.37
564.74	55051.74
564.90	55014.29
565.07	54677.25
565.23	54436.18
565.39	53968.07
565.56	53783.17
565.72	53609.97
565.88	53862.75
566.05	54270.00
566.21	54368.30
566.38	54288.73
566.54	54667.89
566.70	54642.15
566.87	55229.62
567.03	55262.39
567.19	55330.26
567.36	54899.61
567.52	54899.61
567.68	54616.40
567.85	53989.14
568.01	53647.42
568.17	53579.54
568.34	53324.43
568.50	53282.30
568.66	53404.00
568.83	53703.59
568.99	53996.16
569.15	54312.13
569.32	54061.69
569.48	53794.87
569.64	53579.54
569.81	53279.96
569.97	53158.25
570.13	52893.77
570.30	52488.85
570.46	52147.14
570.62	51744.56
570.78	51374.76
570.95	51798.40
571.11	52580.13
571.27	52542.69
571.43	52938.24
571.60	53139.52
571.76	53249.53
571.92	53729.34
572.09	53935.30
572.25	53846.36
572.41	53577.20
572.57	53799.55
572.74	53787.85
572.90	53158.25
573.06	53099.73
573.22	53181.65
573.38	53226.12
573.55	53326.77
573.71	53638.06
573.87	53172.29
574.03	52889.09
574.20	52963.98
574.36	52781.42
574.52	52388.21
574.68	52638.65
574.84	51899.04
575.01	51875.63
575.17	51227.31
575.33	52076.92
575.49	51894.36
575.65	52596.52
575.82	51739.88
575.98	51604.13
576.14	52009.04
576.30	52207.99
576.46	52266.50
576.62	52516.94
576.79	52112.03
576.95	51772.65
577.11	51742.22
577.27	52076.92
577.43	51770.31
577.59	51620.52
577.75	51330.29
577.92	50536.85
578.08	50384.71
578.24	50581.32
578.40	50906.65
578.56	50976.87
578.72	51068.15
578.88	51358.38
579.04	51367.74
579.21	51679.03
579.37	51449.66
579.53	51681.37
579.69	51753.93
579.85	51969.26
580.01	51341.99
580.17	51281.14
580.33	50892.61
580.49	51377.10
580.65	51356.03
580.82	51480.08
580.98	51494.13
581.14	51452.00
581.30	51496.47
581.46	51114.96
581.62	51632.22
581.78	51821.80
581.94	51704.77
582.10	51632.22
582.26	51711.80
582.42	51716.48
582.58	51833.50
582.74	51519.87
582.90	51847.55
583.06	51571.36
583.22	51501.15
583.38	51529.23
583.54	51405.19
583.70	51330.29
583.86	51187.52
584.02	51004.95
584.18	51189.86
584.34	51208.58
584.50	51210.92
584.66	51082.19
584.82	50340.24
584.98	50782.60
585.14	49923.63
585.30	49066.99
