SpectraSuite Data File
++++++++++++++++++++++++++++++++++++
Date: Mon Oct 07 14:55:00 GMT-05:00 2013
User: price-jones
Dark Spectrum Present: No
Reference Spectrum Present: No
Number of Sampled Component Spectra: 1
Spectrometers: USB2+H05261
Integration Time (usec): 10000 (USB2+H05261)
Spectra Averaged: 1 (USB2+H05261)
Boxcar Smoothing: 0 (USB2+H05261)
Correct for Electrical Dark: No (USB2+H05261)
Strobe/Lamp Enabled: No (USB2+H05261)
Correct for Detector Non-linearity: No (USB2+H05261)
Correct for Stray Light: No (USB2+H05261)
Number of Pixels in Processed Spectrum: 2048
>>>>>Begin Processed Spectral Data<<<<<
365.73	0.00
365.92	0.00
366.12	0.00
366.32	0.00
366.52	0.00
366.72	0.00
366.91	0.00
367.11	0.00
367.31	0.00
367.51	0.00
367.70	0.00
367.90	0.00
368.10	0.00
368.30	0.00
368.49	0.00
368.69	0.00
368.89	0.00
369.09	0.00
369.28	0.00
369.48	0.00
369.68	0.00
369.87	0.00
370.07	0.00
370.27	0.00
370.47	360.44
370.66	2244.57
370.86	2595.65
371.06	2853.11
371.25	2799.28
371.45	2476.29
371.65	2209.47
371.84	2136.91
372.04	2375.64
372.24	2574.59
372.44	2663.53
372.63	2518.42
372.83	2373.30
373.03	2078.40
373.22	1898.17
373.42	2083.08
373.62	2492.67
373.81	2679.91
374.01	2663.53
374.21	2195.42
374.40	2160.31
374.60	2352.24
374.79	2810.98
374.99	3089.51
375.19	3178.45
375.38	3232.28
375.58	2993.55
375.78	2906.95
375.97	3012.27
376.17	3157.38
376.37	3183.13
376.56	3379.73
376.76	3463.99
376.95	3749.54
377.15	3911.04
377.35	4273.82
377.54	4322.97
377.74	4381.48
377.93	4402.55
378.13	4163.81
378.33	3913.38
378.52	3691.02
378.72	3637.19
378.91	3592.72
379.11	3384.41
379.31	3346.97
379.50	3389.10
379.70	3723.79
379.89	4173.18
380.09	4222.33
380.28	4416.59
380.48	4306.59
380.68	4121.68
380.87	4021.04
381.07	3655.92
381.26	3538.89
381.46	3384.41
381.65	3098.87
381.85	3054.40
382.04	2986.52
382.24	2801.62
382.43	2663.53
382.63	2640.12
382.83	2558.21
383.02	2590.97
383.22	2600.34
383.41	2619.06
383.61	2895.24
383.80	3424.20
384.00	3805.71
384.19	4189.56
384.39	4344.03
384.58	4311.27
384.78	4311.27
384.97	4203.60
385.17	3983.59
385.36	3777.62
385.56	3641.87
385.75	3808.05
385.95	4276.16
386.14	4564.04
386.34	4360.42
386.53	4311.27
386.72	3962.53
386.92	4091.26
387.11	4287.86
387.31	4514.89
387.50	4435.32
387.70	4236.37
387.89	4119.34
388.09	4187.22
388.28	4198.92
388.48	4472.76
388.67	4744.27
388.86	5399.62
389.06	5584.52
389.25	5755.38
389.45	5973.05
389.64	5738.99
389.84	5856.02
390.03	5657.07
390.22	5799.85
390.42	6132.20
390.61	6345.19
390.81	6773.51
391.00	6965.43
391.19	6743.08
391.39	6286.68
391.58	6026.88
391.78	5771.76
391.97	5547.07
392.16	5121.09
392.36	4484.47
392.55	3559.95
392.75	2967.80
392.94	2462.24
393.13	2647.15
393.33	3211.22
393.52	3896.99
393.71	4795.76
393.91	5427.70
394.10	5710.91
394.29	6494.99
394.49	6958.41
394.68	7229.91
394.88	7363.33
395.07	7501.42
395.26	7492.05
395.46	7339.92
395.65	6614.35
395.84	5631.33
396.04	4662.35
396.23	3714.43
396.42	3335.26
396.62	3389.10
396.81	4156.79
397.00	5242.80
397.19	6693.93
397.39	7779.94
397.58	8659.98
397.77	8894.04
397.97	9210.01
398.16	9345.76
398.35	9650.03
398.55	9673.43
398.74	10258.57
398.93	10410.70
399.12	10188.35
399.32	10024.51
399.51	10246.87
399.70	11059.03
399.90	10628.37
400.09	10457.51
400.28	10394.32
400.47	10853.06
400.67	11042.65
400.86	11396.07
401.05	11606.72
401.24	11627.78
401.44	11740.13
401.63	11864.18
401.82	11707.36
402.01	11817.36
402.21	12002.27
402.40	12105.25
402.59	11410.11
402.78	10932.64
402.97	10799.23
403.17	11442.88
403.36	12184.83
403.55	12423.56
403.74	12430.59
403.93	11730.76
404.13	10813.28
404.32	10876.47
404.51	11384.37
404.70	12238.66
404.89	12301.86
405.09	11988.22
405.28	11620.76
405.47	11845.45
405.66	11791.62
405.85	11517.78
406.05	11272.02
406.24	11412.45
406.43	12067.80
406.62	12163.76
406.81	12226.96
407.00	11885.24
407.20	11782.26
407.39	11950.78
407.58	12439.95
407.77	12901.03
407.96	13200.62
408.15	13420.63
408.34	13785.76
408.54	14108.75
408.73	14127.47
408.92	13813.84
409.11	13188.92
409.30	12571.02
409.49	11723.74
409.68	11096.48
409.87	11089.46
410.07	12168.45
410.26	12482.08
410.45	13195.94
410.64	13886.40
410.83	14417.70
411.02	14836.66
411.21	14998.15
411.40	14693.88
411.59	14977.09
411.78	14916.23
411.98	14801.55
412.17	15019.22
412.36	14586.22
412.55	14747.72
412.74	14263.22
412.93	14115.77
413.12	14850.70
413.31	16025.65
413.50	15503.71
413.69	15843.09
413.88	15082.41
414.07	14778.14
414.26	15447.54
414.45	15728.40
414.64	15627.76
414.83	15543.50
415.02	15494.35
415.22	15807.98
415.41	16416.52
415.60	16395.45
415.79	17509.55
415.98	17528.27
416.17	17383.16
416.36	16851.86
416.55	16741.85
416.74	16119.27
416.93	15658.18
417.12	15819.68
417.31	15967.13
417.50	16236.30
417.69	16753.55
417.88	16575.67
418.07	16570.99
418.26	16318.22
418.45	16779.30
418.64	17205.28
418.83	18136.81
419.02	17757.64
419.21	17172.51
419.39	16697.38
419.58	16058.42
419.77	16011.60
419.96	17039.10
420.15	18094.68
420.34	18338.10
420.53	18679.82
420.72	18862.38
420.91	18427.04
421.10	18281.92
421.29	18101.70
421.48	17799.77
421.67	18970.04
421.86	17605.51
422.05	16339.28
422.24	15178.37
422.43	15658.18
422.61	17451.03
422.80	18111.07
422.99	17804.46
423.18	17596.15
423.37	17261.45
423.56	17429.97
423.75	17804.46
423.94	18200.01
424.13	17076.55
424.32	16741.85
424.50	16688.02
424.69	17144.42
424.88	17238.05
425.07	17156.13
425.26	17547.00
425.45	16486.73
425.64	16320.56
425.83	16781.64
426.01	17628.92
426.20	17645.30
426.39	17167.83
426.58	16044.37
426.77	15040.28
426.96	15066.03
427.15	15716.70
427.33	16992.29
427.52	17256.77
427.71	17504.87
427.90	17114.00
428.09	17135.06
428.28	16236.30
428.46	15829.04
428.65	15957.77
428.84	16510.14
429.03	16252.68
429.22	15164.33
429.40	14307.69
429.59	13060.19
429.78	11660.55
429.97	11992.90
430.16	11906.31
430.34	11894.60
430.53	12224.62
430.72	12973.59
430.91	14338.12
431.10	17048.46
431.28	19765.82
431.47	20613.10
431.66	20355.64
431.85	17942.55
432.03	16910.37
432.22	16814.41
432.41	18281.92
432.60	19307.08
432.79	20521.82
432.97	20128.61
433.16	19318.78
433.35	17549.34
433.54	15908.62
433.72	15215.82
433.91	16540.57
434.10	18314.69
434.28	19183.03
434.47	19920.30
434.66	19342.19
434.85	19213.46
435.03	19393.68
435.22	19786.89
435.41	20629.48
435.59	21500.16
435.78	21380.79
435.97	22054.87
436.16	21888.69
436.34	21331.64
436.53	20685.65
436.72	21181.85
436.90	20020.94
437.09	20137.97
437.28	19941.36
437.46	20226.91
437.65	19587.94
437.84	18209.37
438.02	16999.31
438.21	17504.87
438.40	18345.12
438.58	20039.67
438.77	20341.60
438.96	20423.51
439.14	21631.23
439.33	21905.07
439.52	21979.97
439.70	21158.44
439.89	20898.64
440.08	20886.94
440.26	21029.71
440.45	21766.98
440.63	23070.66
440.82	24102.84
441.01	23028.53
441.19	23627.71
441.38	24147.31
441.57	24758.19
441.75	24854.15
441.94	24882.24
442.12	24507.75
442.31	25589.08
442.50	25516.52
442.68	24692.65
442.87	24652.86
443.05	24191.78
443.24	25039.05
443.43	25385.45
443.61	25600.78
443.80	26024.42
443.98	24767.55
444.17	25095.22
444.35	26087.61
444.54	26412.95
444.73	25539.93
444.91	24570.94
445.10	23957.72
445.28	23192.37
445.47	22595.53
445.65	22871.72
445.84	23704.95
446.02	24182.42
446.21	24416.47
446.39	24816.70
446.58	24917.34
446.77	25841.85
446.95	26080.59
447.14	26815.52
447.32	27386.61
447.51	26214.00
447.69	25458.01
447.88	25219.27
448.06	25806.75
448.25	26417.63
448.43	25799.73
448.62	25713.13
448.80	25757.60
448.99	25977.61
449.17	25666.31
449.36	25961.22
449.54	27117.45
449.73	27522.36
449.91	28025.57
450.10	28697.31
450.28	28945.41
450.46	28636.45
450.65	28442.19
450.83	28163.67
451.02	27899.19
451.20	27960.04
451.39	28266.65
451.57	27667.47
451.76	28250.27
451.94	27800.88
452.13	26326.35
452.31	25123.31
452.49	24018.58
452.68	25053.09
452.86	25020.33
453.05	25380.77
453.23	26632.96
453.42	26909.14
453.60	27365.54
453.78	27590.24
453.97	27454.48
454.15	27084.68
454.34	26513.59
454.52	26274.85
454.70	26265.49
454.89	26511.25
455.07	26522.95
455.26	27468.53
455.44	28357.93
455.62	28041.96
455.81	28542.83
455.99	27964.72
456.17	28067.70
456.36	29226.27
456.54	28877.53
456.73	28814.34
456.91	29331.59
457.09	29518.84
457.28	30525.27
457.46	28945.41
457.64	28650.50
457.83	27503.64
458.01	27721.30
458.19	28538.15
458.38	28968.81
458.56	29855.87
458.74	29074.13
458.93	28552.20
459.11	28048.98
459.29	28348.57
459.48	28811.99
459.66	28100.47
459.84	28765.18
460.03	29092.86
460.21	29710.76
460.39	30054.82
460.57	29624.16
460.76	29741.19
460.94	30211.64
461.12	29855.87
461.31	30183.55
461.49	30143.76
461.67	30054.82
461.85	30787.41
462.04	30408.24
462.22	30504.20
462.40	30574.42
462.59	29809.06
462.77	30565.06
462.95	30380.15
463.13	30143.76
463.32	29195.84
463.50	29776.30
463.68	29694.38
463.86	29699.06
464.05	28919.66
464.23	28596.67
464.41	28877.53
464.59	28610.71
464.78	29771.61
464.96	28467.94
465.14	28769.86
465.32	30073.54
465.50	31211.04
465.69	31913.20
465.87	30321.64
466.05	29371.38
466.23	28676.24
466.41	27786.84
466.60	28154.30
466.78	28540.49
466.96	28926.68
467.14	29156.05
467.32	29308.19
467.51	29415.85
467.69	28135.58
467.87	29111.58
468.05	29762.25
468.23	29841.83
468.41	30094.61
468.60	29949.50
468.78	30096.95
468.96	30045.46
469.14	30754.64
469.32	30508.88
469.50	28584.96
469.69	29116.26
469.87	29060.09
470.05	28652.84
470.23	28886.89
470.41	29043.71
470.59	29263.72
470.77	29266.06
470.95	29902.68
471.14	30115.67
471.32	30771.02
471.50	31906.18
471.68	32095.77
471.86	32268.97
472.04	32390.67
472.22	32460.89
472.40	30719.53
472.58	30747.62
472.77	30637.61
472.95	31384.24
473.13	31927.25
473.31	30654.00
473.49	31590.21
473.67	31915.54
473.85	32378.97
474.03	33397.10
474.21	33542.22
474.39	33687.33
474.57	33387.74
474.75	34103.95
474.93	33528.17
475.12	32432.80
475.30	32481.95
475.48	32435.14
475.66	33270.72
475.84	32313.44
476.02	32692.60
476.20	32402.38
476.38	32699.62
476.56	34106.29
476.74	34007.98
476.92	34991.01
477.10	34576.73
477.28	35817.22
477.46	36196.38
477.64	36591.94
477.82	36519.38
478.00	35955.31
478.18	35536.35
478.36	35749.34
478.54	35880.41
478.72	36664.49
478.90	38169.46
479.08	39030.77
479.26	38712.46
479.44	39461.43
479.62	38272.44
479.80	38876.30
479.98	38536.92
480.16	38841.19
480.34	38600.12
480.52	39103.33
480.70	38925.45
480.88	38843.53
481.06	39082.27
481.24	40184.66
481.41	41237.90
481.59	41813.67
481.77	40425.73
481.95	40147.21
482.13	40509.99
482.31	40725.32
482.49	41937.72
482.67	41165.34
482.85	40861.07
483.03	41797.29
483.21	41900.27
483.39	42337.95
483.57	41848.78
483.74	41076.40
483.92	41083.42
484.10	41280.03
484.28	42260.71
484.46	42387.10
484.64	43150.12
484.82	42150.71
485.00	42043.04
485.18	41425.14
485.35	39505.90
485.53	34979.31
485.71	32444.51
485.89	33060.07
486.07	36086.38
486.25	37645.18
486.43	40341.47
486.61	41177.04
486.78	40357.86
486.96	42115.60
487.14	42923.08
487.32	44582.52
487.50	45109.14
487.68	45806.62
487.85	46616.45
488.03	46651.56
488.21	45216.81
488.39	44999.14
488.57	43084.58
488.75	43704.82
488.92	45331.50
489.10	48041.84
489.28	48402.28
489.46	49956.39
489.64	49052.95
489.81	50026.61
489.99	49542.12
490.17	49394.67
490.35	49844.05
490.53	49352.54
490.70	49378.28
490.88	48547.39
491.06	49977.46
491.24	50810.69
491.41	49116.14
491.59	47033.07
491.77	46373.03
491.95	47718.84
492.13	49923.63
492.30	50920.70
492.48	51962.23
492.66	51695.41
492.84	50953.46
493.01	50930.06
493.19	50958.14
493.37	50564.93
493.54	50616.43
493.72	51618.17
493.90	52523.96
494.08	53153.57
494.25	53228.46
494.43	53755.08
494.61	54202.13
494.79	53975.09
494.96	53717.64
495.14	53551.46
495.32	51772.65
495.49	52041.81
495.67	53034.20
495.85	54066.38
496.02	54550.87
496.20	53853.39
496.38	53385.28
496.55	53558.48
496.73	54319.15
496.91	54539.16
497.09	54836.41
497.26	55594.74
497.44	54438.52
497.62	53949.35
497.79	53387.62
497.97	52018.41
498.14	52584.82
498.32	53921.26
498.50	54499.37
498.67	54396.39
498.85	54218.51
499.03	54705.34
499.20	54831.73
499.38	54131.91
499.56	53448.47
499.73	53495.28
499.91	54082.76
500.08	52849.30
500.26	52844.62
500.44	53584.22
500.61	54415.11
500.79	53675.51
500.97	53357.19
501.14	52758.02
501.32	52027.77
501.49	52397.57
501.67	53371.24
501.84	54281.70
502.02	54241.92
502.20	54513.42
502.37	54436.18
502.55	54728.75
502.72	55508.14
502.90	55896.67
503.07	55475.38
503.25	54607.04
503.43	53366.55
503.60	52886.74
503.78	52928.87
503.95	53792.53
504.13	54981.52
504.30	55969.23
504.48	55304.52
504.65	55084.51
504.83	55192.17
505.01	55786.67
505.18	56123.71
505.36	56816.50
505.53	56746.29
505.71	56732.25
505.88	56886.72
506.06	56299.25
506.23	56072.21
506.41	55475.38
506.58	56002.00
506.76	55903.70
506.93	55189.83
507.11	55323.24
507.28	55608.79
507.46	54590.66
507.63	54834.07
507.81	54246.60
507.98	54695.98
508.16	55966.89
508.33	56306.27
508.50	56381.16
508.68	56662.03
508.85	56804.80
509.03	57420.36
509.20	57123.11
509.38	56322.65
509.55	56027.74
509.73	55718.79
509.90	55824.12
510.08	56273.50
510.25	55920.08
510.42	55566.66
510.60	55810.07
510.77	56444.36
510.95	56460.74
511.12	56945.23
511.30	57539.73
511.47	58012.52
511.64	57401.64
511.82	57375.89
511.99	56203.28
512.17	55913.06
512.34	55702.41
512.51	56254.78
512.69	56086.26
512.86	55714.11
513.04	56090.94
513.21	55966.89
513.38	54829.39
513.56	54880.88
513.73	54403.41
513.90	55679.00
514.08	55274.09
514.25	55278.77
514.43	55622.83
514.60	55817.10
514.77	56074.55
514.95	56432.66
515.12	56219.67
515.29	56725.22
515.47	57167.58
515.64	56978.00
515.81	56690.12
515.99	55150.04
516.16	53329.11
516.33	50887.93
516.51	50597.70
516.68	49581.91
516.85	48449.09
517.03	49418.07
517.20	52694.82
517.37	55407.50
517.54	56229.03
517.72	54934.71
517.89	52011.38
518.06	50078.10
518.24	51398.16
518.41	53825.30
518.58	55126.64
518.75	55004.93
518.93	54862.16
519.10	54316.81
519.27	55264.73
519.45	56074.55
519.62	56676.07
519.79	56514.58
519.96	56168.18
520.14	56079.24
520.31	54925.35
520.48	54766.20
520.65	55854.54
520.83	56940.55
521.00	56327.33
521.17	56004.34
521.34	56474.79
521.52	57467.17
521.69	57130.14
521.86	57439.09
522.03	56774.37
522.20	55136.00
522.38	54445.54
522.55	54632.78
522.72	54822.37
522.89	55246.00
523.07	56030.08
523.24	56598.83
523.41	56945.23
523.58	57698.89
523.75	57560.79
523.92	57925.92
524.10	57502.28
524.27	56821.19
524.44	56362.44
524.61	55821.78
524.78	56308.61
524.96	56746.29
525.13	56870.34
525.30	57745.70
525.47	57544.41
525.64	57457.81
525.81	56210.31
525.98	54232.55
526.16	52963.98
526.33	53256.55
526.50	52575.45
526.67	53022.50
526.84	53757.42
527.01	54585.97
527.18	55377.08
527.36	55920.08
527.53	56678.41
527.70	56126.05
527.87	55105.57
528.04	55994.98
528.21	56725.22
528.38	57078.64
528.55	58356.58
528.72	58054.65
528.89	57565.48
529.07	57296.31
529.24	56137.75
529.41	56095.62
529.58	56224.35
529.75	56552.02
529.92	57317.38
530.09	57078.64
530.26	57726.97
530.43	58368.28
530.60	57628.67
530.77	58115.50
530.94	58166.99
531.11	57188.65
531.28	57120.77
531.46	57027.15
531.63	57198.01
531.80	56638.62
531.97	56561.39
532.14	56292.22
532.31	54925.35
532.48	54162.34
532.65	54569.59
532.82	55152.38
532.99	57041.20
533.16	57134.82
533.33	57146.52
533.50	57244.82
533.67	56570.75
533.84	56446.70
534.01	56919.49
534.18	56706.50
534.35	56502.87
534.52	56058.17
534.69	56526.28
534.86	57296.31
535.03	57626.33
535.20	57991.45
535.37	58639.78
535.54	58454.88
535.71	57567.82
535.88	57457.81
536.05	56495.85
536.22	56058.17
536.38	56100.30
536.55	55341.97
536.72	54969.82
536.89	55508.14
537.06	55838.16
537.23	56353.08
537.40	55931.78
537.57	56097.96
537.74	56161.15
537.91	56444.36
538.08	56013.70
538.25	56488.83
538.42	57172.27
538.59	56647.99
538.75	55880.29
538.92	54890.24
539.09	55447.29
539.26	55430.91
539.43	55508.14
539.60	54976.84
539.77	55966.89
539.94	55402.82
540.11	54824.71
540.28	54024.25
540.44	54272.34
540.61	54124.89
540.78	54422.14
540.95	55028.34
541.12	55260.05
541.29	56020.72
541.46	55454.31
541.62	55845.18
541.79	55035.36
541.96	54691.30
542.13	55688.37
542.30	55517.51
542.47	55571.34
542.63	55096.21
542.80	54791.94
542.97	54234.89
543.14	54871.52
543.31	55676.66
543.48	56198.60
543.64	56701.82
543.81	56912.47
543.98	56875.02
544.15	55901.36
544.32	56449.04
544.48	55779.65
544.65	55262.39
544.82	56081.58
544.99	54777.90
545.16	54490.01
545.32	55157.06
545.49	55796.03
545.66	56266.48
545.83	55842.84
546.00	56367.12
546.16	55421.55
546.33	54796.62
546.50	55283.45
546.67	55936.46
546.83	55765.60
547.00	55723.47
547.17	54368.30
547.34	53748.06
547.50	53429.75
547.67	54188.08
547.84	55164.09
548.00	55938.80
548.17	55243.66
548.34	55730.50
548.51	55985.61
548.67	55510.49
548.84	55545.59
549.01	55987.95
549.18	55505.80
549.34	55386.44
549.51	55950.51
549.68	56437.34
549.84	55257.71
550.01	54761.51
550.18	54782.58
550.34	54864.50
550.51	54712.36
550.68	55274.09
550.84	55842.84
551.01	54801.30
551.18	54745.13
551.34	54698.32
551.51	54967.48
551.68	55477.72
551.84	56222.01
552.01	55105.57
552.18	55131.32
552.34	54375.33
552.51	53722.32
552.68	53567.84
552.84	54763.85
553.01	54354.26
553.18	54206.81
553.34	54621.08
553.51	54684.28
553.67	55128.98
553.84	55136.00
554.01	55515.17
554.17	54913.65
554.34	54719.38
554.51	54494.69
554.67	54232.55
554.84	54609.38
555.00	54094.46
555.17	54272.34
555.33	54099.14
555.50	53537.41
555.67	54047.65
555.83	53825.30
556.00	53272.93
556.16	53308.04
556.33	53558.48
556.50	53516.35
556.66	53336.13
556.83	53027.18
556.99	52683.12
557.16	53476.56
557.32	53088.03
557.49	54026.59
557.65	53448.47
557.82	54377.67
557.98	54099.14
558.15	52963.98
558.32	52519.28
558.48	51667.33
558.65	51271.78
558.81	52053.51
558.98	52683.12
559.14	52732.27
559.31	52935.90
559.47	52678.44
559.64	52736.95
559.80	51789.03
559.97	52830.57
560.13	53382.94
560.30	54113.19
560.46	54869.18
560.63	54873.86
560.79	54768.54
560.96	53895.52
561.12	52671.42
561.29	52659.71
561.45	52828.23
561.61	53811.26
561.78	52629.29
561.94	52767.38
562.11	52914.83
562.27	52016.07
562.44	53481.24
562.60	53471.88
562.77	53502.31
562.93	53151.23
563.10	53415.71
563.26	53162.93
563.42	53521.03
563.59	52919.51
563.75	52493.54
563.92	52753.33
564.08	52657.37
564.24	53673.16
564.41	52105.01
564.57	53703.59
564.74	53291.66
564.90	52580.13
565.07	51709.46
565.23	51185.18
565.39	50391.73
565.56	50791.97
565.72	51566.68
565.88	50464.29
566.05	52844.62
566.21	52088.62
566.38	52210.33
566.54	53209.74
566.70	53762.11
566.87	53130.16
567.03	53073.99
567.19	54108.50
567.36	54073.40
567.52	52348.42
567.68	52135.43
567.85	50913.67
568.01	51283.48
568.17	51278.80
568.34	51625.20
568.50	50871.54
568.66	50604.72
568.83	50791.97
568.99	50115.55
569.15	50719.41
569.32	50691.32
569.48	50539.19
569.64	50925.38
569.81	50852.82
569.97	50595.36
570.13	49607.65
570.30	48776.76
570.46	48643.35
570.62	47990.34
570.78	48760.38
570.95	48519.31
571.11	49294.02
571.27	48832.94
571.43	49750.43
571.60	49935.33
571.76	50410.46
571.92	50422.16
572.09	51007.29
572.25	50321.52
572.41	50192.79
572.57	50646.85
572.74	51557.32
572.90	51880.31
573.06	51601.79
573.22	51522.21
573.38	51473.06
573.55	52334.38
573.71	51217.94
573.87	50810.69
574.03	50906.65
574.20	49776.17
574.36	49947.03
574.52	50071.08
574.68	49682.55
574.84	48636.33
575.01	48538.03
575.17	48388.24
575.33	49097.42
575.49	49375.94
575.65	48374.19
575.82	48421.00
575.98	49951.71
576.14	50181.09
576.30	50660.90
576.46	49453.18
576.62	49031.88
576.79	49071.67
576.95	50031.29
577.11	50021.93
577.27	49289.34
577.43	49584.25
577.59	49228.49
577.75	48350.79
577.92	47840.55
578.08	48128.44
578.24	47899.06
578.40	48032.47
578.56	46607.09
578.72	47091.58
578.88	47611.18
579.04	48203.33
579.21	47545.64
579.37	47597.13
579.53	48236.10
579.69	47334.99
579.85	47292.86
580.01	47721.18
580.17	47103.28
580.33	48519.31
580.49	48886.77
580.65	47428.62
580.82	48552.07
580.98	48474.84
581.14	48458.45
581.30	47580.75
581.46	47515.22
581.62	48465.47
581.78	49027.20
581.94	49544.46
582.10	49207.42
582.26	49057.63
582.42	48842.30
582.58	47592.45
582.74	47627.56
582.90	47772.67
583.06	48886.77
583.22	48189.29
583.38	48339.08
583.54	48933.58
583.70	48615.27
583.86	48767.40
584.02	47442.66
584.18	47484.79
584.34	47262.44
584.50	47215.63
584.66	46850.50
584.82	47234.35
584.98	47262.44
585.14	46153.02
585.30	46190.47
