SpectraSuite Data File
++++++++++++++++++++++++++++++++++++
Date: Mon Oct 07 14:53:47 GMT-05:00 2013
User: price-jones
Dark Spectrum Present: No
Reference Spectrum Present: No
Number of Sampled Component Spectra: 1
Spectrometers: USB2+H05261
Integration Time (usec): 100000 (USB2+H05261)
Spectra Averaged: 1 (USB2+H05261)
Boxcar Smoothing: 0 (USB2+H05261)
Correct for Electrical Dark: No (USB2+H05261)
Strobe/Lamp Enabled: No (USB2+H05261)
Correct for Detector Non-linearity: No (USB2+H05261)
Correct for Stray Light: No (USB2+H05261)
Number of Pixels in Processed Spectrum: 2048
>>>>>Begin Processed Spectral Data<<<<<
365.73	0.00
365.92	0.00
366.12	0.00
366.32	0.00
366.52	0.00
366.72	0.00
366.91	0.00
367.11	0.00
367.31	0.00
367.51	0.00
367.70	0.00
367.90	0.00
368.10	0.00
368.30	0.00
368.49	0.00
368.69	0.00
368.89	0.00
369.09	0.00
369.28	0.00
369.48	0.00
369.68	0.00
369.87	0.00
370.07	0.00
370.27	0.00
370.47	608.54
370.66	3108.23
370.86	3681.66
371.06	4011.68
371.25	4147.43
371.45	3740.18
371.65	3344.63
371.84	3012.27
372.04	3248.66
372.24	3702.73
372.44	3875.93
372.63	3847.84
372.83	3487.40
373.03	3089.51
373.22	2705.66
373.42	3049.72
373.62	3529.53
373.81	3953.16
374.01	3730.81
374.21	3478.04
374.40	3232.28
374.60	3346.97
374.79	3637.19
374.99	4358.08
375.19	4732.56
375.38	4777.03
375.58	4505.53
375.78	4418.93
375.97	4437.66
376.17	4683.41
376.37	4585.11
376.56	4873.00
376.76	4983.00
376.95	5341.10
377.15	5591.54
377.35	5643.03
377.54	6047.94
377.74	6324.13
377.93	6225.82
378.13	6136.88
378.33	5731.97
378.52	5270.89
378.72	5121.09
378.91	5011.09
379.11	4779.37
379.31	4753.63
379.50	4709.16
379.70	5177.26
379.89	5544.73
380.09	5694.52
380.28	6221.14
380.48	6207.10
380.68	6078.37
380.87	5846.66
381.07	5628.99
381.26	5055.56
381.46	4720.86
381.65	4564.04
381.85	4507.87
382.04	4304.25
382.24	3995.29
382.43	3709.75
382.63	3770.60
382.83	3786.99
383.02	3667.62
383.22	3637.19
383.41	3740.18
383.61	3911.04
383.80	4489.15
384.00	5081.30
384.19	5696.86
384.39	6186.04
384.58	6097.10
384.78	5987.09
384.97	5959.00
385.17	5657.07
385.36	5390.25
385.56	5137.48
385.75	5221.74
385.95	5858.36
386.14	6200.08
386.34	6375.62
386.53	6076.03
386.72	5612.60
386.92	5638.35
387.11	6012.84
387.31	6380.30
387.50	6291.36
387.70	5984.75
387.89	5916.87
388.09	5968.37
388.28	6073.69
388.48	6054.97
388.67	6544.14
388.86	7220.55
389.06	7784.62
389.25	7964.84
389.45	8360.39
389.64	8018.68
389.84	8156.77
390.03	7901.65
390.22	7901.65
390.42	8336.99
390.61	8676.37
390.81	9401.93
391.00	9497.89
391.19	9589.17
391.39	8922.12
391.58	8503.17
391.78	7971.86
391.97	7772.92
392.16	7225.23
392.36	6785.21
392.55	5418.34
392.75	4383.82
392.94	3571.66
393.13	3337.60
393.33	4004.66
393.52	5277.91
393.71	6338.17
393.91	7133.95
394.10	7627.81
394.29	8411.89
394.49	9121.07
394.68	9961.32
394.88	10258.57
395.07	10420.06
395.26	10429.43
395.46	10097.07
395.65	9202.99
395.84	8091.23
396.04	6825.00
396.23	5657.07
396.42	4603.83
396.62	4559.36
396.81	5320.04
397.00	6541.80
397.19	8456.36
397.39	10031.54
397.58	11253.30
397.77	11903.96
397.97	12369.73
398.16	12556.97
398.35	13008.70
398.55	13404.25
398.74	13940.23
398.93	14239.82
399.12	14122.79
399.32	13530.64
399.51	13799.80
399.70	15012.20
399.90	14806.23
400.09	14623.67
400.28	14499.62
400.47	14441.11
400.67	15332.85
400.86	15728.40
401.05	15463.92
401.24	15896.92
401.44	16287.79
401.63	15817.34
401.82	16477.37
402.01	16081.82
402.21	16032.67
402.40	16458.65
402.59	16180.12
402.78	15208.80
402.97	14731.33
403.17	15358.60
403.36	16372.05
403.55	16884.62
403.74	17156.13
403.93	16542.91
404.13	15330.51
404.32	14984.11
404.51	15335.19
404.70	16762.92
404.89	16542.91
405.09	16690.36
405.28	15901.60
405.47	15875.85
405.66	15838.41
405.85	15517.75
406.05	15232.21
406.24	15393.70
406.43	15847.77
406.62	16360.34
406.81	16430.56
407.00	15831.38
407.20	15606.69
407.39	15831.38
407.58	16329.92
407.77	17444.01
407.96	17741.26
408.15	17511.89
408.34	18178.94
408.54	18401.29
408.73	19105.79
408.92	18801.52
409.11	18258.52
409.30	17261.45
409.49	16521.84
409.68	15023.90
409.87	14651.75
410.07	15587.97
410.26	16676.32
410.45	18214.05
410.64	18192.98
410.83	18766.42
411.02	19496.66
411.21	19875.83
411.40	19932.00
411.59	19838.38
411.78	19711.99
411.98	19468.58
412.17	20065.41
412.36	19524.75
412.55	19484.96
412.74	19073.03
412.93	18717.26
413.12	18869.40
413.31	20503.09
413.50	20854.17
413.69	21207.59
413.88	20737.15
414.07	19901.58
414.26	19988.18
414.45	20957.16
414.64	20858.85
414.83	20975.88
415.02	20556.93
415.22	20444.58
415.41	21064.82
415.60	21701.45
415.79	22672.77
415.98	23145.56
416.17	23236.84
416.36	22803.84
416.55	22141.47
416.74	21502.50
416.93	20615.44
417.12	20954.82
417.31	21240.36
417.50	21149.08
417.69	22317.01
417.88	21860.60
418.07	22192.96
418.26	21535.27
418.45	21551.65
418.64	22272.54
418.83	22860.01
419.02	22906.82
419.21	22890.44
419.39	21968.27
419.58	20699.70
419.77	20737.15
419.96	21553.99
420.15	22946.61
420.34	23168.96
420.53	24655.20
420.72	24788.61
420.91	24678.61
421.10	24313.48
421.29	24067.73
421.48	23349.18
421.67	24542.86
421.86	23831.33
422.05	22417.65
422.24	19871.15
422.43	19601.99
422.61	21685.06
422.80	23763.46
422.99	23264.92
423.18	22614.26
423.37	21954.22
423.56	22150.83
423.75	22380.20
423.94	23023.85
424.13	21972.95
424.32	21834.86
424.50	22356.80
424.69	21586.76
424.88	21846.56
425.07	21781.03
425.26	21759.96
425.45	21701.45
425.64	21289.51
425.83	21116.31
426.01	22654.05
426.20	23323.44
426.39	22930.23
426.58	21692.08
426.77	19623.05
426.96	18815.57
427.15	19901.58
427.33	21092.91
427.52	22108.70
427.71	22040.82
427.90	22033.80
428.09	21994.01
428.28	21104.61
428.46	20685.65
428.65	20231.59
428.84	20535.86
429.03	21092.91
429.22	20002.22
429.40	19061.32
429.59	17305.92
429.78	15248.59
429.97	15147.95
430.16	15426.47
430.34	15536.48
430.53	15426.47
430.72	15985.86
430.91	17554.02
431.10	20512.46
431.28	24364.98
431.47	26228.04
431.66	26309.96
431.85	24372.00
432.03	22129.77
432.22	21125.68
432.41	22139.13
432.60	24634.14
432.79	25338.64
432.97	26417.63
433.16	25509.50
433.35	23311.74
433.54	20971.20
433.72	19693.27
433.91	20339.26
434.10	22665.75
434.28	24407.11
434.47	25500.14
434.66	25083.52
434.85	24556.90
435.03	24496.05
435.22	25081.18
435.41	26459.76
435.59	26567.42
435.78	26544.02
435.97	27283.62
436.16	27627.68
436.34	27470.87
436.53	26988.72
436.72	27452.14
436.90	25537.59
437.09	25528.22
437.28	24978.20
437.46	25649.93
437.65	25612.48
437.84	23812.61
438.02	22183.60
438.21	21774.00
438.40	23374.93
438.58	25076.50
438.77	25921.43
438.96	25965.90
439.14	27178.30
439.33	27566.83
439.52	28137.92
439.70	27857.06
439.89	26904.46
440.08	26122.72
440.26	26288.90
440.45	26927.86
440.63	28678.58
440.82	30345.05
441.01	30015.03
441.19	29544.58
441.38	30050.14
441.57	30775.70
441.75	31634.68
441.94	31847.67
442.12	31309.35
442.31	32189.39
442.50	31840.65
442.68	31213.38
442.87	31349.14
443.05	30562.72
443.24	31173.60
443.43	31850.01
443.61	32528.77
443.80	32603.66
443.98	31388.92
444.17	30766.34
444.35	32645.79
444.54	33523.49
444.73	33027.30
444.91	31438.08
445.10	30508.88
445.28	29474.37
445.47	28301.76
445.65	28774.55
445.84	29443.94
446.02	30541.65
446.21	31199.34
446.39	31164.23
446.58	31737.66
446.77	31899.16
446.95	32730.05
447.14	33064.75
447.32	33703.71
447.51	33347.95
447.69	31606.59
447.88	30998.06
448.06	31852.35
448.25	32706.65
448.43	32751.12
448.62	32191.73
448.80	31765.75
448.99	32315.78
449.17	32847.08
449.36	32470.25
449.54	34188.21
449.73	33851.17
449.91	34817.81
450.10	35466.14
450.28	35772.75
450.46	35826.58
450.65	36332.14
450.83	35704.87
451.02	34824.83
451.20	34576.73
451.39	34506.52
451.57	34227.99
451.76	34609.50
451.94	34045.43
452.13	33724.78
452.31	32030.23
452.49	30267.81
452.68	31204.02
452.86	31061.25
453.05	31461.48
453.23	32460.89
453.42	32968.79
453.60	33785.63
453.78	34663.33
453.97	34249.06
454.15	33804.36
454.34	33244.97
454.52	33811.38
454.70	32470.25
454.89	33055.39
455.07	33134.96
455.26	33944.79
455.44	34993.35
455.62	35171.23
455.81	36009.14
455.99	35601.89
456.17	35124.42
456.36	34909.09
456.54	36140.21
456.73	36116.81
456.91	36219.79
457.09	37104.51
457.28	37675.60
457.46	36243.20
457.64	35707.21
457.83	34625.89
458.01	33968.19
458.19	34918.45
458.38	34686.74
458.56	36687.90
458.74	35716.58
458.93	35175.91
459.11	35452.09
459.29	35267.19
459.48	35304.64
459.66	35007.39
459.84	35770.41
460.03	36175.32
460.21	35889.77
460.39	36793.22
460.57	36776.84
460.76	37607.73
460.94	37483.68
461.12	36935.99
461.31	36723.01
461.49	37088.13
461.67	37214.52
461.85	38181.16
462.04	37624.11
462.22	38202.22
462.40	37874.55
462.59	37691.99
462.77	37352.61
462.95	37727.10
463.13	37600.71
463.32	37165.37
463.50	36875.14
463.68	36889.18
463.86	36856.42
464.05	36275.96
464.23	35587.85
464.41	35466.14
464.59	34766.32
464.78	36521.72
464.96	36561.51
465.14	35807.86
465.32	37240.26
465.50	37858.17
465.69	38148.39
465.87	37364.31
466.05	36477.25
466.23	35414.65
466.41	34122.67
466.60	34862.28
466.78	35365.49
466.96	35693.17
467.14	36442.14
467.32	37221.54
467.51	36823.65
467.69	35374.86
467.87	35885.09
468.05	36411.71
468.23	36725.35
468.41	36514.70
468.60	36545.12
468.78	36825.99
468.96	36360.22
469.14	37675.60
469.32	37303.46
469.50	35927.22
469.69	36449.16
469.87	35395.92
470.05	35747.00
470.23	35571.46
470.41	35697.85
470.59	35997.44
470.77	36669.17
470.95	36877.48
471.14	37722.41
471.32	37537.51
471.50	39672.08
471.68	39370.15
471.86	39903.79
472.04	40172.96
472.22	39931.88
472.40	38705.44
472.58	37642.84
472.77	37301.12
472.95	38380.10
473.13	39426.32
473.31	38471.39
473.49	38469.04
473.67	39241.42
473.85	39487.18
474.03	40641.06
474.21	40594.25
474.39	40987.46
474.57	40849.37
474.75	41219.17
474.93	40568.51
475.12	39866.34
475.30	40175.30
475.48	40041.88
475.66	40643.40
475.84	39768.04
476.02	40339.13
476.20	39100.99
476.38	39739.96
476.56	41221.52
476.74	42075.81
476.92	42330.93
477.10	42525.19
477.28	43487.15
477.46	43908.45
477.64	43959.94
477.82	44086.33
478.00	43929.51
478.18	43824.19
478.36	43784.40
478.54	43562.05
478.72	44109.74
478.90	44905.52
479.08	45947.06
479.26	46354.31
479.44	45956.42
479.62	46113.23
479.80	46288.77
479.98	46396.44
480.16	46541.55
480.34	46000.89
480.52	46646.88
480.70	46738.16
480.88	46960.51
481.06	47519.90
481.24	47526.92
481.41	48694.85
481.59	49118.48
481.77	48746.34
481.95	48037.16
482.13	48425.68
482.31	48186.95
482.49	48521.65
482.67	48664.42
482.85	49134.87
483.03	49532.76
483.21	49949.37
483.39	50363.65
483.57	49633.40
483.74	48421.00
483.92	49179.34
484.10	49317.43
484.28	50050.02
484.46	50609.40
484.64	51110.28
484.82	49977.46
485.00	49844.05
485.18	49216.78
485.35	47938.85
485.53	44891.48
485.71	41088.10
485.89	40121.46
486.07	42298.16
486.25	45474.27
486.43	48329.72
486.61	48755.70
486.78	48882.09
486.96	48896.13
487.14	50380.03
487.32	51042.40
487.50	52163.52
487.68	53090.37
487.85	53420.39
488.03	53308.04
488.21	52917.17
488.39	52207.99
488.57	51686.05
488.75	51178.15
488.92	52332.04
489.10	54323.83
489.28	55482.40
489.46	56027.74
489.64	55891.99
489.81	55971.57
489.99	55739.86
490.17	55997.32
490.35	55948.17
490.53	55920.08
490.70	55255.37
490.88	55285.79
491.06	56128.39
491.24	56222.01
491.41	55325.58
491.59	53727.00
491.77	53111.44
491.95	54150.63
492.13	55318.56
492.30	56137.75
492.48	56994.39
492.66	57689.52
492.84	57478.88
493.01	57137.16
493.19	56746.29
493.37	56425.64
493.54	56250.09
493.72	56767.35
493.90	57293.97
494.08	58384.66
494.25	58728.72
494.43	58424.45
494.61	59004.91
494.79	59330.24
494.96	59000.22
495.14	58319.13
495.32	57577.18
495.49	56956.94
495.67	57946.98
495.85	59173.42
496.02	59536.21
496.20	59395.77
496.38	59152.36
496.55	58738.08
496.73	59250.66
496.91	59253.00
497.09	60102.62
497.26	60149.43
497.44	59728.13
497.62	59077.46
497.79	58639.78
497.97	57310.36
498.14	57235.46
498.32	58438.50
498.50	59119.59
498.67	59798.35
498.85	59618.13
499.03	59891.97
499.20	59920.05
499.38	60032.40
499.56	60156.45
499.73	59306.83
499.91	59292.79
500.08	58607.01
500.26	58209.12
500.44	58707.66
500.61	59049.38
500.79	58983.84
500.97	58447.86
501.14	58485.31
501.32	58199.76
501.49	58255.93
501.67	58401.05
501.84	59007.25
502.02	59257.68
502.20	59533.87
502.37	59695.36
502.55	59597.06
502.72	60219.64
502.90	60608.17
503.07	60460.72
503.25	59901.33
503.43	59346.62
503.60	58688.93
503.78	57769.10
503.95	58365.94
504.13	59629.83
504.30	60563.70
504.48	60238.37
504.65	60041.76
504.83	59819.41
505.01	60601.15
505.18	60790.73
505.36	61436.72
505.53	61333.74
505.71	61577.15
505.88	61740.99
506.06	61001.38
506.23	60669.03
506.41	60322.63
506.58	60549.66
506.76	60654.98
506.93	60601.15
507.11	60484.12
507.28	60652.64
507.46	60060.49
507.63	59580.68
507.81	59348.96
507.98	59648.55
508.16	60388.16
508.33	60739.24
508.50	60924.14
508.68	61300.97
508.85	61673.12
509.03	61764.40
509.20	61745.67
509.38	60945.21
509.55	60111.98
509.73	60376.46
509.90	60900.74
510.08	61001.38
510.25	61085.64
510.42	60760.31
510.60	60814.14
510.77	61013.08
510.95	61371.19
511.12	61609.92
511.30	61872.06
511.47	62251.23
511.64	62082.71
511.82	61949.30
511.99	61050.53
512.17	60584.77
512.34	60378.80
512.51	60559.02
512.69	60650.30
512.86	60664.35
513.04	61055.21
513.21	60926.49
513.38	60615.19
513.56	60271.14
513.73	59845.16
513.90	59999.63
514.08	60081.55
514.25	60224.32
514.43	60605.83
514.60	60676.05
514.77	60647.96
514.95	60926.49
515.12	60828.18
515.29	61076.28
515.47	61247.14
515.64	61762.06
515.81	61291.61
515.99	60802.44
516.16	59578.34
516.33	57343.12
516.51	55831.14
516.68	55613.47
516.85	55016.63
517.03	55330.26
517.20	57661.44
517.37	59978.57
517.54	60914.78
517.72	60512.21
517.89	58260.62
518.06	56065.19
518.24	56299.25
518.41	58328.49
518.58	59496.42
518.75	59838.14
518.93	59814.73
519.10	59643.87
519.27	60189.22
519.45	60441.99
519.62	61083.30
519.79	61422.68
519.96	61268.20
520.14	60907.76
520.31	60039.42
520.48	59994.95
520.65	60137.72
520.83	61146.50
521.00	61429.70
521.17	61097.34
521.34	60982.66
521.52	61130.11
521.69	61511.62
521.86	62288.68
522.03	61806.53
522.20	60582.43
522.38	59625.15
522.55	59646.21
522.72	60310.92
522.89	60458.38
523.07	60458.38
523.24	60636.26
523.41	61598.22
523.58	61858.02
523.75	62267.61
523.92	62295.70
524.10	62066.33
524.27	62284.00
524.44	61977.39
524.61	61722.27
524.78	61616.94
524.96	61490.55
525.13	61656.73
525.30	61825.25
525.47	62148.24
525.64	62110.80
525.81	61396.93
525.98	59980.91
526.16	58803.62
526.33	58188.06
526.50	57839.32
526.67	57705.91
526.84	58239.55
527.01	59114.91
527.18	59714.09
527.36	60587.11
527.53	61410.98
527.70	61705.88
527.87	61249.48
528.04	60795.42
528.21	61205.01
528.38	61773.76
528.55	62401.02
528.72	62496.98
528.89	62756.78
529.07	62408.04
529.24	61839.29
529.41	61340.76
529.58	60825.84
529.75	60741.58
529.92	61329.06
530.09	61616.94
530.26	62188.03
530.43	62321.44
530.60	62335.49
530.77	62564.86
530.94	62628.05
531.11	62216.12
531.28	61939.94
531.46	61818.23
531.63	61776.10
531.80	61876.74
531.97	61343.10
532.14	60683.07
532.31	59987.93
532.48	59124.27
532.65	59091.51
532.82	60020.70
532.99	60914.78
533.16	61403.95
533.33	61722.27
533.50	61827.59
533.67	60942.87
533.84	60645.62
534.01	60830.52
534.18	61076.28
534.35	61293.95
534.52	61029.47
534.69	61144.16
534.86	61513.96
535.03	61895.47
535.20	62199.74
535.37	62525.07
535.54	62667.84
535.71	62260.59
535.88	61998.45
536.05	61595.88
536.22	60809.46
536.38	60720.52
536.55	60360.08
536.72	59943.46
536.89	59791.33
537.06	60413.91
537.23	61455.45
537.40	61485.87
537.57	61453.11
537.74	61338.42
537.91	61226.07
538.08	61197.99
538.25	61205.01
538.42	61380.55
538.59	61226.07
538.75	60907.76
538.92	60584.77
539.09	60449.02
539.26	60135.38
539.43	59922.40
539.60	60055.81
539.77	60245.39
539.94	60200.92
540.11	59515.14
540.28	59072.78
540.44	58859.79
540.61	59231.94
540.78	59526.84
540.95	59807.71
541.12	60198.58
541.29	60687.75
541.46	60977.98
541.62	60757.97
541.79	60615.19
541.96	60074.53
542.13	59973.89
542.30	60481.78
542.47	60556.68
542.63	60243.05
542.80	59969.21
542.97	60252.41
543.14	60018.36
543.31	60357.74
543.48	60654.98
543.64	61333.74
543.81	61577.15
543.98	61263.52
544.15	60900.74
544.32	60264.11
544.48	60402.21
544.65	60736.90
544.82	61361.82
544.99	60720.52
545.16	60491.15
545.32	60196.24
545.49	60945.21
545.66	61235.44
545.83	60959.25
546.00	60874.99
546.16	60250.07
546.33	60383.48
546.50	60533.28
546.67	60842.23
546.83	60301.56
547.00	60453.70
547.17	59894.31
547.34	59161.72
547.50	59231.94
547.67	59786.64
547.84	59613.44
548.00	60196.24
548.17	60336.67
548.34	60530.93
548.51	60341.35
548.67	60381.14
548.84	60582.43
549.01	60357.74
549.18	60519.23
549.34	60221.98
549.51	60273.48
549.68	60388.16
549.84	60023.04
550.01	60086.23
550.18	59798.35
550.34	59786.64
550.51	60039.42
550.68	59941.12
550.84	59442.59
551.01	59655.57
551.18	59557.27
551.34	59702.38
551.51	60231.35
551.68	60287.52
551.84	60467.74
552.01	60336.67
552.18	60214.96
552.34	59554.93
552.51	58761.49
552.68	58808.30
552.84	59517.48
553.01	59550.25
553.18	59650.89
553.34	59714.09
553.51	59681.32
553.67	59992.61
553.84	60292.20
554.01	60130.70
554.17	59817.07
554.34	59826.43
554.51	60044.10
554.67	60292.20
554.84	60161.13
555.00	59681.32
555.17	59573.66
555.33	59662.60
555.50	59629.83
555.67	59585.36
555.83	59512.80
556.00	59281.09
556.16	59224.92
556.33	59028.31
556.50	58803.62
556.66	58707.66
556.83	58511.05
556.99	58459.56
557.16	58567.23
557.32	58944.05
557.49	59201.51
557.65	59098.53
557.82	59084.48
557.98	58766.17
558.15	58564.88
558.32	57780.81
558.48	56938.21
558.65	57279.93
558.81	57661.44
558.98	57776.12
559.14	58061.67
559.31	57982.09
559.47	58230.19
559.64	58045.29
559.80	57387.60
559.97	57450.79
560.13	58127.20
560.30	58857.45
560.46	59009.59
560.63	59416.84
560.79	59449.61
560.96	59018.95
561.12	57982.09
561.29	57394.62
561.45	57165.24
561.61	57977.41
561.78	58309.77
561.94	58127.20
562.11	58082.73
562.27	57956.35
562.44	58277.00
562.60	58541.48
562.77	58663.19
562.93	58660.85
563.10	58326.15
563.26	57661.44
563.42	57853.36
563.59	57921.24
563.75	57785.49
563.92	57902.51
564.08	57649.74
564.24	57954.00
564.41	58005.50
564.57	58059.33
564.74	57752.72
564.90	57827.62
565.07	57602.92
565.23	57212.06
565.39	56912.47
565.56	56526.28
565.72	56442.02
565.88	56860.97
566.05	56783.74
566.21	56985.02
566.38	57057.58
566.54	56975.66
566.70	57439.09
566.87	57954.00
567.03	57822.93
567.19	57764.42
567.36	57832.30
567.52	57471.85
567.68	57261.21
567.85	56697.14
568.01	56465.42
568.17	56259.46
568.34	56383.51
568.50	56034.77
568.66	56069.87
568.83	56662.03
568.99	56582.45
569.15	56786.08
569.32	56587.13
569.48	56624.58
569.64	56341.38
569.81	56069.87
569.97	55980.93
570.13	55922.42
570.30	55379.42
570.46	55339.63
570.62	54766.20
570.78	54225.53
570.95	54656.19
571.11	55297.50
571.27	55634.53
571.43	55767.94
571.60	56048.81
571.76	56161.15
571.92	56591.81
572.09	56622.24
572.25	56725.22
572.41	56388.19
572.57	56418.61
572.74	56367.12
572.90	56222.01
573.06	56004.34
573.22	56193.92
573.38	56217.33
573.55	56088.60
573.71	56217.33
573.87	56278.18
574.03	56114.34
574.20	55922.42
574.36	55679.00
574.52	55524.53
574.68	55545.59
574.84	54913.65
575.01	54478.31
575.17	54384.69
575.33	54595.34
575.49	54693.64
575.65	55119.62
575.82	54941.74
575.98	54550.87
576.14	55126.64
576.30	55295.16
576.46	55337.29
576.62	55000.25
576.79	55299.84
576.95	54873.86
577.11	54918.33
577.27	54813.01
577.43	54974.50
577.59	54974.50
577.75	54024.25
577.92	53916.58
578.08	53509.33
578.24	53598.27
578.40	54080.42
578.56	54005.52
578.72	54255.96
578.88	54480.65
579.04	54480.65
579.21	54670.23
579.37	54464.27
579.53	54653.85
579.69	54717.04
579.85	54927.69
580.01	54829.39
580.17	54429.16
580.33	54288.73
580.49	54262.98
580.65	54578.95
580.82	54543.84
580.98	54731.09
581.14	54461.93
581.30	54541.50
581.46	54387.03
581.62	54616.40
581.78	54714.70
581.94	54555.55
582.10	54700.66
582.26	54789.60
582.42	54735.77
582.58	54852.80
582.74	54756.83
582.90	54733.43
583.06	54843.43
583.22	54623.42
583.38	54443.20
583.54	54454.90
583.70	54394.05
583.86	54419.80
584.02	54080.42
584.18	54326.17
584.34	54265.32
584.50	54134.25
584.66	54183.40
584.82	53553.80
584.98	53797.21
585.14	53464.86
