SpectraSuite Data File
++++++++++++++++++++++++++++++++++++
Date: Mon Oct 07 14:53:31 GMT-05:00 2013
User: price-jones
Dark Spectrum Present: No
Reference Spectrum Present: No
Number of Sampled Component Spectra: 1
Spectrometers: USB2+H05261
Integration Time (usec): 100000 (USB2+H05261)
Spectra Averaged: 1 (USB2+H05261)
Boxcar Smoothing: 0 (USB2+H05261)
Correct for Electrical Dark: No (USB2+H05261)
Strobe/Lamp Enabled: No (USB2+H05261)
Correct for Detector Non-linearity: No (USB2+H05261)
Correct for Stray Light: No (USB2+H05261)
Number of Pixels in Processed Spectrum: 2048
>>>>>Begin Processed Spectral Data<<<<<
365.73	0.00
365.92	0.00
366.12	0.00
366.32	0.00
366.52	0.00
366.72	0.00
366.91	0.00
367.11	0.00
367.31	0.00
367.51	0.00
367.70	0.00
367.90	0.00
368.10	0.00
368.30	0.00
368.49	0.00
368.69	0.00
368.89	0.00
369.09	0.00
369.28	0.00
369.48	0.00
369.68	0.00
369.87	0.00
370.07	0.00
370.27	0.00
370.47	580.45
370.66	3021.63
370.86	3456.97
371.06	3918.06
371.25	4002.32
371.45	3613.79
371.65	3187.81
371.84	3054.40
372.04	3009.93
372.24	3435.91
372.44	3679.32
372.63	3646.55
372.83	3274.41
373.03	3080.14
373.22	2825.03
373.42	2782.90
373.62	3276.75
373.81	3616.13
374.01	3623.15
374.21	3410.16
374.40	2911.63
374.60	3180.79
374.79	3599.74
374.99	4145.09
375.19	4411.91
375.38	4592.13
375.58	4390.84
375.78	4248.07
375.97	4264.46
376.17	4259.78
376.37	4269.14
376.56	4571.07
376.76	4781.71
376.95	5081.30
377.15	5535.37
377.35	5427.70
377.54	5795.17
377.74	5799.85
377.93	6050.28
378.13	5825.59
378.33	5521.32
378.52	5172.58
378.72	4903.42
378.91	4767.67
379.11	4765.33
379.31	4655.33
379.50	4617.88
379.70	4929.17
379.89	5404.30
380.09	5570.48
380.28	5778.78
380.48	5977.73
380.68	5816.23
380.87	5675.80
381.07	5348.12
381.26	4774.69
381.46	4411.91
381.65	4454.04
381.85	4196.58
382.04	3946.14
382.24	3714.43
382.43	3559.95
382.63	3529.53
382.83	3529.53
383.02	3527.19
383.22	3496.76
383.41	3524.85
383.61	3801.03
383.80	4322.97
384.00	4931.51
384.19	5528.35
384.39	6052.63
384.58	5937.94
384.78	5678.14
384.97	5734.31
385.17	5418.34
385.36	5233.44
385.56	4880.02
385.75	4959.60
385.95	5472.17
386.14	6040.92
386.34	6057.31
386.53	5654.73
386.72	5317.70
386.92	5423.02
387.11	5689.84
387.31	5966.03
387.50	5935.60
387.70	5659.42
387.89	5589.20
388.09	5746.02
388.28	5858.36
388.48	5640.69
388.67	6324.13
388.86	6977.14
389.06	7234.60
389.25	7730.79
389.45	7889.95
389.64	7786.96
389.84	7676.96
390.03	7559.93
390.22	7573.97
390.42	7763.56
390.61	8114.64
390.81	8793.39
391.00	9050.85
391.19	9083.62
391.39	8608.49
391.58	7918.03
391.78	7407.80
391.97	7550.57
392.16	6885.86
392.36	6361.58
392.55	5064.92
392.75	4098.28
392.94	3297.81
393.13	3307.18
393.33	3873.59
393.52	4929.17
393.71	6061.99
393.91	6689.25
394.10	7225.23
394.29	7971.86
394.49	8601.47
394.68	9640.67
394.88	9561.09
395.07	9720.24
395.26	9769.40
395.46	9657.05
395.65	8964.25
395.84	7665.25
396.04	6616.69
396.23	5369.19
396.42	4468.08
396.62	4236.37
396.81	4861.29
397.00	6506.69
397.19	8002.29
397.39	9626.62
397.58	10707.95
397.77	11068.39
397.97	11779.92
398.16	11964.82
398.35	12145.04
398.55	12606.13
398.74	13310.63
398.93	13516.59
399.12	13259.13
399.32	12556.97
399.51	13240.41
399.70	14214.07
399.90	13820.86
400.09	14122.79
400.28	13731.92
400.47	13834.91
400.67	14827.29
400.86	15033.26
401.05	14834.32
401.24	14988.79
401.44	15332.85
401.63	15161.99
401.82	15351.57
402.01	15356.25
402.21	15459.24
402.40	15648.82
402.59	15110.50
402.78	14644.73
402.97	14024.49
403.17	14675.16
403.36	15492.01
403.55	16285.45
403.74	16252.68
403.93	15735.42
404.13	14459.83
404.32	14003.43
404.51	14516.00
404.70	15871.17
404.89	15784.57
405.09	15733.08
405.28	15131.56
405.47	15302.42
405.66	15279.02
405.85	14909.21
406.05	14263.22
406.24	14464.51
406.43	15288.38
406.62	15609.03
406.81	15735.42
407.00	15335.19
407.20	14721.97
407.39	15019.22
407.58	15683.93
407.77	16325.24
407.96	16788.66
408.15	16924.41
408.34	17020.38
408.54	17851.27
408.73	18031.49
408.92	18057.23
409.11	17429.97
409.30	16397.79
409.49	15197.10
409.68	14604.94
409.87	14366.21
410.07	14949.00
410.26	15969.48
410.45	16730.15
410.64	17472.10
410.83	17886.37
411.02	18403.63
411.21	19129.20
411.40	19138.56
411.59	19035.58
411.78	18703.22
411.98	18506.62
412.17	19082.39
412.36	18485.55
412.55	18679.82
412.74	18434.06
412.93	17750.62
413.12	17923.82
413.31	19941.36
413.50	19669.86
413.69	20198.82
413.88	19566.88
414.07	18820.25
414.26	18991.11
414.45	19740.08
414.64	19892.21
414.83	20210.53
415.02	19431.13
415.22	19389.00
415.41	19871.15
415.60	20592.03
415.79	21514.20
415.98	21860.60
416.17	21947.20
416.36	21703.79
416.55	21113.97
416.74	20238.61
416.93	19744.76
417.12	19604.33
417.31	19974.13
417.50	20388.41
417.69	20863.54
417.88	21195.89
418.07	20816.72
418.26	20451.60
418.45	20446.92
418.64	21338.66
418.83	22235.09
419.02	21743.58
419.21	21624.21
419.39	20535.86
419.58	19639.44
419.77	19824.34
419.96	20510.11
420.15	21799.75
420.34	22192.96
420.53	23154.92
420.72	23672.18
420.91	23424.08
421.10	23094.07
421.29	23145.56
421.48	22129.77
421.67	23007.47
421.86	22546.38
422.05	21256.75
422.24	19248.57
422.43	18377.89
422.61	20266.70
422.80	22244.45
422.99	22342.75
423.18	21706.13
423.37	20973.54
423.56	21142.06
423.75	21427.60
423.94	21806.77
424.13	20821.41
424.32	21212.28
424.50	21256.75
424.69	20760.55
424.88	20809.70
425.07	20725.44
425.26	20863.54
425.45	20706.72
425.64	20095.84
425.83	20044.35
426.01	21668.68
426.20	22153.17
426.39	21888.69
426.58	20191.80
426.77	18661.09
426.96	17844.24
427.15	18600.24
427.33	20287.76
427.52	21043.76
427.71	21008.65
427.90	20875.24
428.09	20816.72
428.28	20451.60
428.46	19627.73
428.65	19372.61
428.84	19735.40
429.03	20137.97
429.22	19283.67
429.40	18246.82
429.59	16294.81
429.78	14401.32
429.97	14541.75
430.16	14637.71
430.34	14754.74
430.53	14883.47
430.72	15276.68
430.91	16760.58
431.10	19428.79
431.28	23035.55
431.47	24685.63
431.66	25144.38
431.85	22911.50
432.03	21287.17
432.22	20081.80
432.41	21219.30
432.60	23480.25
432.79	24364.98
432.97	25111.61
433.16	24367.32
433.35	22307.65
433.54	19969.45
433.72	18420.02
433.91	18960.68
434.10	21193.55
434.28	22946.61
434.47	24135.60
434.66	23995.17
434.85	23461.53
435.03	23091.73
435.22	23910.91
435.41	25507.16
435.59	25050.75
435.78	25551.63
435.97	26445.71
436.16	26476.14
436.34	26057.18
436.53	25638.23
436.72	25495.46
436.90	24458.60
437.09	24126.24
437.28	23772.82
437.46	24297.10
437.65	24304.12
437.84	22768.73
438.02	20971.20
438.21	20723.10
438.40	22052.53
438.58	23828.99
438.77	24327.53
438.96	24783.93
439.14	25766.96
439.33	26342.73
439.52	27065.96
439.70	26003.35
439.89	25542.27
440.08	24938.41
440.26	24936.07
440.45	25589.08
440.63	26998.08
440.82	28650.50
441.01	28203.46
441.19	27917.91
441.38	28587.30
441.57	29486.07
441.75	30000.99
441.94	30405.90
442.12	29661.61
442.31	30466.75
442.50	30199.93
442.68	30003.33
442.87	29727.14
443.05	29092.86
443.24	29589.05
443.43	30075.88
443.61	31098.70
443.80	31583.19
443.98	29448.62
444.17	29394.79
444.35	31601.91
444.54	31800.86
444.73	31452.12
444.91	29933.11
445.10	29062.43
445.28	27845.35
445.47	26955.95
445.65	27644.07
445.84	28194.09
446.02	29137.33
446.21	29439.26
446.39	29790.34
446.58	30185.89
446.77	30698.47
446.95	31063.59
447.14	32044.27
447.32	32437.48
447.51	31456.80
447.69	30361.43
447.88	30174.19
448.06	30279.51
448.25	31370.20
448.43	31531.70
448.62	30431.65
448.80	30539.31
448.99	30756.98
449.17	31077.63
449.36	30916.14
449.54	32170.66
449.73	33163.05
449.91	33303.48
450.10	33867.55
450.28	34377.79
450.46	34258.42
450.65	34525.24
450.83	33874.57
451.02	33273.06
451.20	33170.07
451.39	33223.90
451.57	32797.93
451.76	33008.58
451.94	32737.07
452.13	31632.34
452.31	30822.51
452.49	29083.50
452.68	29493.09
452.86	29392.45
453.05	29979.92
453.23	31615.96
453.42	31580.85
453.60	32439.82
453.78	32921.98
453.97	32341.52
454.15	32400.04
454.34	31838.31
454.52	31747.03
454.70	31239.13
454.89	31550.42
455.07	31658.09
455.26	32130.87
455.44	32835.38
455.62	33677.97
455.81	34178.84
455.99	33804.36
456.17	33249.65
456.36	33436.89
456.54	34295.87
456.73	34291.19
456.91	34855.26
457.09	35033.14
457.28	35878.07
457.46	34431.62
457.64	33837.12
457.83	33345.61
458.01	32718.35
458.19	33469.66
458.38	33399.44
458.56	34761.64
458.74	34714.83
458.93	33785.63
459.11	33839.47
459.29	33291.78
459.48	33504.77
459.66	33474.34
459.84	34536.94
460.03	34298.21
460.21	34253.74
460.39	35199.32
460.57	35264.85
460.76	35599.55
460.94	35494.22
461.12	35260.17
461.31	35637.00
461.49	35204.00
461.67	35119.74
461.85	36367.24
462.04	36285.33
462.22	36664.49
462.40	36121.49
462.59	35889.77
462.77	36016.16
462.95	36018.50
463.13	35667.42
463.32	35161.87
463.50	34852.92
463.68	35257.83
463.86	35367.84
464.05	34974.63
464.23	34106.29
464.41	34096.92
464.59	33497.75
464.78	34958.24
464.96	34625.89
465.14	34525.24
465.32	35721.26
465.50	35864.03
465.69	36627.04
465.87	35969.35
466.05	34630.57
466.23	33600.73
466.41	32407.06
466.60	33589.03
466.78	33530.51
466.96	34298.21
467.14	34462.05
467.32	35597.21
467.51	34902.07
467.69	33757.55
467.87	34370.77
468.05	34873.98
468.23	34916.11
468.41	34878.66
468.60	35253.15
468.78	35388.90
468.96	34588.44
469.14	35817.22
469.32	35409.96
469.50	34558.01
469.69	34408.22
469.87	34202.25
470.05	33919.04
470.23	33766.91
470.41	34108.63
470.59	34412.90
470.77	34609.50
470.95	34815.47
471.14	35852.33
471.32	35784.45
471.50	37605.39
471.68	37572.62
471.86	38295.85
472.04	38045.41
472.22	38347.34
472.40	36329.80
472.58	36549.81
472.77	35622.95
472.95	36755.77
473.13	37523.47
473.31	36554.49
473.49	36774.50
473.67	37317.50
473.85	37703.69
474.03	38831.83
474.21	38555.64
474.39	39014.39
474.57	39239.08
474.75	39299.94
474.93	38995.67
475.12	38129.67
475.30	38476.07
475.48	38675.01
475.66	39124.40
475.84	38408.19
476.02	37949.45
476.20	37462.61
476.38	38181.16
476.56	39044.82
476.74	39854.64
476.92	40158.91
477.10	40442.12
477.28	42019.64
477.46	41867.50
477.64	42113.26
477.82	42082.83
478.00	42679.67
478.18	41785.58
478.36	41593.66
478.54	41972.83
478.72	41844.10
478.90	43264.80
479.08	44329.75
479.26	44870.41
479.44	44154.21
479.62	44048.88
479.80	44299.32
479.98	44294.64
480.16	45043.61
480.34	44294.64
480.52	44685.51
480.70	44610.61
480.88	44671.46
481.06	45675.55
481.24	46066.42
481.41	46775.61
481.59	47615.86
481.77	47192.22
481.95	46232.60
482.13	46279.41
482.31	46099.19
482.49	46981.57
482.67	47023.70
482.85	47037.75
483.03	47831.19
483.21	48210.35
483.39	48203.33
483.57	47496.49
483.74	46871.57
483.92	47421.59
484.10	47718.84
484.28	48933.58
484.46	48980.39
484.64	49074.01
484.82	48507.60
485.00	48086.31
485.18	47480.11
485.35	46003.23
485.53	42815.42
485.71	39576.12
485.89	38555.64
486.07	40636.38
486.25	43407.58
486.43	46499.42
486.61	46738.16
486.78	46883.27
486.96	47222.65
487.14	48994.43
487.32	49741.06
487.50	50653.87
487.68	51430.93
487.85	51817.12
488.03	51800.74
488.21	51388.80
488.39	50487.70
488.57	49862.77
488.75	49588.93
488.92	50693.66
489.10	52870.36
489.28	54251.28
489.46	54733.43
489.64	54260.64
489.81	54803.64
489.99	54328.52
490.17	54300.43
490.35	54873.86
490.53	54443.20
490.70	53991.48
490.88	54012.54
491.06	54829.39
491.24	54784.92
491.41	54164.68
491.59	52399.91
491.77	51442.63
491.95	52327.36
492.13	53867.43
492.30	54756.83
492.48	55536.23
492.66	56163.50
492.84	56306.27
493.01	56041.79
493.19	55238.98
493.37	55234.30
493.54	54873.86
493.72	55629.85
493.90	56376.48
494.08	56982.68
494.25	57572.50
494.43	57544.41
494.61	57942.30
494.79	58127.20
494.96	57897.83
495.14	57216.74
495.32	56301.59
495.49	55765.60
495.67	56786.08
495.85	58061.67
496.02	58155.29
496.20	58333.17
496.38	57797.19
496.55	57806.55
496.73	58115.50
496.91	58202.10
497.09	58674.89
497.26	58822.34
497.44	58539.14
497.62	57921.24
497.79	57219.08
497.97	55992.64
498.14	55971.57
498.32	57343.12
498.50	58031.24
498.67	58557.86
498.85	58548.50
499.03	58660.85
499.20	59030.65
499.38	59061.08
499.56	58829.37
499.73	58152.95
499.91	57726.97
500.08	57640.37
500.26	56741.61
500.44	57195.67
500.61	57815.91
500.79	57797.19
500.97	57251.84
501.14	57127.80
501.32	57116.09
501.49	57066.94
501.67	57198.01
501.84	57726.97
502.02	58155.29
502.20	58574.25
502.37	58529.78
502.55	58695.95
502.72	59072.78
502.90	59458.97
503.07	59250.66
503.25	58829.37
503.43	57991.45
503.60	57530.37
503.78	56743.95
503.95	57286.95
504.13	58672.55
504.30	59243.64
504.48	59288.11
504.65	58618.72
504.83	58904.26
505.01	59531.53
505.18	59735.15
505.36	60346.03
505.53	60287.52
505.71	60589.45
505.88	60786.05
506.06	60023.04
506.23	59803.03
506.41	59295.13
506.58	59501.10
506.76	59529.19
506.93	59578.34
507.11	59262.36
507.28	59257.68
507.46	59117.25
507.63	58419.77
507.81	58396.37
507.98	58583.61
508.16	59213.21
508.33	59643.87
508.50	60001.97
508.68	60259.43
508.85	60680.73
509.03	60619.88
509.20	60509.87
509.38	59973.89
509.55	59229.60
509.73	59126.61
509.90	59770.26
510.08	59962.18
510.25	59959.84
510.42	59910.69
510.60	59636.85
510.77	59962.18
510.95	60385.82
511.12	60605.83
511.30	60800.10
511.47	60956.91
511.64	61329.06
511.82	60762.65
511.99	59901.33
512.17	59608.76
512.34	59227.26
512.51	59440.24
512.69	59618.13
512.86	59566.63
513.04	60102.62
513.21	60151.77
513.38	59875.58
513.56	59491.74
513.73	58866.81
513.90	59140.66
514.08	59002.56
514.25	59414.50
514.43	59529.19
514.60	59683.66
514.77	59643.87
514.95	59880.27
515.12	59636.85
515.29	59788.98
515.47	60324.97
515.64	60650.30
515.81	60217.30
515.99	59831.11
516.16	58501.69
516.33	56179.88
516.51	54796.62
516.68	54031.27
516.85	53865.09
517.03	54078.08
517.20	56385.85
517.37	58782.55
517.54	59913.03
517.72	59398.12
517.89	57064.60
518.06	54934.71
518.24	55000.25
518.41	57127.80
518.58	58447.86
518.75	58728.72
518.93	58983.84
519.10	58693.61
519.27	59234.28
519.45	59327.90
519.62	59999.63
519.79	60367.10
519.96	60154.11
520.14	59690.68
520.31	58922.99
520.48	58801.28
520.65	59229.60
520.83	60097.94
521.00	60507.53
521.17	60051.12
521.34	59781.96
521.52	59793.67
521.69	60486.46
521.86	60905.42
522.03	60640.94
522.20	59678.98
522.38	58728.72
522.55	58534.46
522.72	59182.79
522.89	59189.81
523.07	59522.16
523.24	59845.16
523.41	60563.70
523.58	60846.91
523.75	61284.59
523.92	61305.65
524.10	60893.72
524.27	61233.10
524.44	60893.72
524.61	60711.16
524.78	60533.28
524.96	60439.65
525.13	60456.04
525.30	60683.07
525.47	61216.71
525.64	61130.11
525.81	60254.75
525.98	59178.10
526.16	57888.47
526.33	57200.35
526.50	56783.74
526.67	56451.38
526.84	57017.79
527.01	57801.87
527.18	58693.61
527.36	59613.44
527.53	60430.29
527.70	60772.01
527.87	60151.77
528.04	59718.77
528.21	60329.65
528.38	60711.16
528.55	61174.58
528.72	61581.84
528.89	61687.16
529.07	61399.27
529.24	60783.71
529.41	60245.39
529.58	59599.40
529.75	59901.33
529.92	60336.67
530.09	60563.70
530.26	61193.31
530.43	61389.91
530.60	61179.26
530.77	61586.52
530.94	61717.59
531.11	61293.95
531.28	60739.24
531.46	60664.35
531.63	60886.70
531.80	60664.35
531.97	60296.88
532.14	59491.74
532.31	58817.66
532.48	58031.24
532.65	58082.73
532.82	59131.29
532.99	59903.67
533.16	60236.03
533.33	60767.33
533.50	60533.28
533.67	60158.79
533.84	59552.59
534.01	59870.90
534.18	60062.83
534.35	60317.95
534.52	60133.04
534.69	60374.12
534.86	60453.70
535.03	60910.10
535.20	61158.20
535.37	61434.38
535.54	61654.39
535.71	61272.88
535.88	61020.11
536.05	60336.67
536.22	60083.89
536.38	59723.45
536.55	59402.80
536.72	58885.54
536.89	58728.72
537.06	59515.14
537.23	60446.68
537.40	60530.93
537.57	60619.88
537.74	60390.50
537.91	60395.18
538.08	60236.03
538.25	60264.11
538.42	60554.34
538.59	60355.39
538.75	59796.01
538.92	59393.43
539.09	59313.86
539.26	59236.62
539.43	58922.99
539.60	59334.92
539.77	59381.73
539.94	59166.40
540.11	58480.63
540.28	57918.90
540.44	58094.44
540.61	58365.94
540.78	58405.73
540.95	59037.67
541.12	59430.88
541.29	59657.91
541.46	59870.90
541.62	59990.27
541.79	59903.67
541.96	59227.26
542.13	59229.60
542.30	59299.81
542.47	59653.23
542.63	59498.76
542.80	59025.97
542.97	59203.85
543.14	59037.67
543.31	59075.12
543.48	59447.27
543.64	60509.87
543.81	60687.75
543.98	60523.91
544.15	59576.00
544.32	59391.09
544.48	59341.94
544.65	59744.51
544.82	60259.43
544.99	59767.92
545.16	59531.53
545.32	59065.76
545.49	59980.91
545.66	60406.89
545.83	59934.10
546.00	59590.04
546.16	59370.03
546.33	59325.56
546.50	59487.06
546.67	59845.16
546.83	59405.14
547.00	59545.57
547.17	58803.62
547.34	58284.02
547.50	58005.50
547.67	58688.93
547.84	58773.19
548.00	59107.89
548.17	59515.14
548.34	59419.18
548.51	59409.82
548.67	59414.50
548.84	59552.59
549.01	59480.03
549.18	59199.17
549.34	59407.48
549.51	59288.11
549.68	59250.66
549.84	59051.72
550.01	59025.97
550.18	58684.25
550.34	58988.52
550.51	58944.05
550.68	59110.23
550.84	58637.44
551.01	58637.44
551.18	58726.38
551.34	58904.26
551.51	59164.06
551.68	59501.10
551.84	59370.03
552.01	59290.45
552.18	59292.79
552.34	58445.52
552.51	57993.79
552.68	57996.13
552.84	58541.48
553.01	58679.57
553.18	58735.74
553.34	58749.79
553.51	58990.86
553.67	59018.95
553.84	59159.38
554.01	59065.76
554.17	58906.60
554.34	58937.03
554.51	58981.50
554.67	59367.69
554.84	58948.73
555.00	58901.92
555.17	58618.72
555.33	58637.44
555.50	58513.39
555.67	58618.72
555.83	58319.13
556.00	58244.23
556.16	58068.69
556.33	57836.98
556.50	57836.98
556.66	57708.25
556.83	57572.50
556.99	57694.21
557.16	57701.23
557.32	58012.52
557.49	58241.89
557.65	57984.43
557.82	58012.52
557.98	58085.07
558.15	57516.32
558.32	56711.18
558.48	56032.42
558.65	56053.49
558.81	56493.51
558.98	56676.07
559.14	56842.25
559.31	57221.42
559.47	56959.28
559.64	56645.65
559.80	56505.21
559.97	56580.11
560.13	56992.04
560.30	57865.06
560.46	58145.93
560.63	58394.03
560.79	58550.84
560.96	58302.74
561.12	57130.14
561.29	56076.90
561.45	56170.52
561.61	56804.80
561.78	56886.72
561.94	57200.35
562.11	56931.19
562.27	57017.79
562.44	57078.64
562.60	57476.54
562.77	57813.57
562.93	57518.67
563.10	57230.78
563.26	56961.62
563.42	57153.54
563.59	56823.53
563.75	56779.06
563.92	57041.20
564.08	56823.53
564.24	57102.05
564.41	57036.51
564.57	57085.67
564.74	56914.81
564.90	56715.86
565.07	56811.82
565.23	56350.74
565.39	55697.73
565.56	55599.43
565.72	55311.54
565.88	55590.06
566.05	55835.82
566.21	56119.02
566.38	56128.39
566.54	56140.09
566.70	56296.91
566.87	56587.13
567.03	56800.12
567.19	57076.30
567.36	56652.67
567.52	56626.92
567.68	56222.01
567.85	55583.04
568.01	55337.29
568.17	54948.76
568.34	54883.22
568.50	54946.42
568.66	54997.91
568.83	55559.64
568.99	55454.31
569.15	55611.13
569.32	55515.17
569.48	55477.72
569.64	55473.04
569.81	54901.95
569.97	55119.62
570.13	55025.99
570.30	53947.01
570.46	54073.40
570.62	53326.77
570.78	53176.97
570.95	53837.00
571.11	54464.27
571.27	54602.36
571.43	54777.90
571.60	55040.04
571.76	55093.87
571.92	55330.26
572.09	55756.24
572.25	55634.53
572.41	55543.25
572.57	55344.31
572.74	55423.89
572.90	54567.25
573.06	54897.27
573.22	55105.57
573.38	55089.19
573.55	55077.49
573.71	55227.28
573.87	55070.46
574.03	54782.58
574.20	54836.41
574.36	54244.26
574.52	54562.57
574.68	54120.21
574.84	53705.93
575.01	53647.42
575.17	53186.33
575.33	53670.82
575.49	53860.41
575.65	54007.86
575.82	53853.39
575.98	53577.20
576.14	53656.78
576.30	54220.85
576.46	54211.49
576.62	54122.55
576.79	54316.81
576.95	53769.13
577.11	53815.94
577.27	53886.15
577.43	54113.19
577.59	53354.85
577.75	53148.88
577.92	52530.98
578.08	52402.25
578.24	52341.40
578.40	52783.76
578.56	53148.88
578.72	52739.29
578.88	53193.36
579.04	53469.54
579.21	53396.98
579.37	53570.18
579.53	53715.29
579.69	53504.65
579.85	53607.63
580.01	53481.24
580.17	52886.74
580.33	53104.41
580.49	53116.12
580.65	53432.09
580.82	53694.23
580.98	53345.49
581.14	53366.55
581.30	53251.87
581.46	53188.67
581.62	53371.24
581.78	53626.35
581.94	53710.61
582.10	53418.05
582.26	54057.01
582.42	53392.30
582.58	53682.53
582.74	53691.89
582.90	53841.68
583.06	53776.15
583.22	53338.47
583.38	53350.17
583.54	53298.68
583.70	53359.53
583.86	53139.52
584.02	53083.35
584.18	53443.79
584.34	53191.01
584.50	53113.78
584.66	52905.47
584.82	52502.90
584.98	52430.34
585.14	52067.56
585.30	51796.06
