SpectraSuite Data File
++++++++++++++++++++++++++++++++++++
Date: Mon Oct 07 14:54:58 GMT-05:00 2013
User: price-jones
Dark Spectrum Present: No
Reference Spectrum Present: No
Number of Sampled Component Spectra: 1
Spectrometers: USB2+H05261
Integration Time (usec): 10000 (USB2+H05261)
Spectra Averaged: 1 (USB2+H05261)
Boxcar Smoothing: 0 (USB2+H05261)
Correct for Electrical Dark: No (USB2+H05261)
Strobe/Lamp Enabled: No (USB2+H05261)
Correct for Detector Non-linearity: No (USB2+H05261)
Correct for Stray Light: No (USB2+H05261)
Number of Pixels in Processed Spectrum: 2048
>>>>>Begin Processed Spectral Data<<<<<
365.73	0.00
365.92	0.00
366.12	0.00
366.32	0.00
366.52	0.00
366.72	0.00
366.91	0.00
367.11	0.00
367.31	0.00
367.51	0.00
367.70	0.00
367.90	0.00
368.10	0.00
368.30	0.00
368.49	0.00
368.69	0.00
368.89	0.00
369.09	0.00
369.28	0.00
369.48	0.00
369.68	0.00
369.87	0.00
370.07	0.00
370.27	0.00
370.47	0.00
370.66	362.78
370.86	484.49
371.06	463.43
371.25	468.11
371.45	451.72
371.65	341.72
371.84	400.23
372.04	418.96
372.24	388.53
372.44	470.45
372.63	444.70
372.83	411.93
373.03	360.44
373.22	320.65
373.42	362.78
373.62	388.53
373.81	442.36
374.01	514.92
374.21	477.47
374.40	322.99
374.60	418.96
374.79	325.33
374.99	638.97
375.19	643.65
375.38	533.64
375.58	528.96
375.78	540.66
375.97	538.32
376.17	507.90
376.37	589.82
376.56	683.44
376.76	585.13
376.95	688.12
377.15	816.85
377.35	746.63
377.54	830.89
377.74	809.83
377.93	863.66
378.13	798.12
378.33	737.27
378.52	737.27
378.72	610.88
378.91	664.71
379.11	624.92
379.31	664.71
379.50	543.00
379.70	636.63
379.89	739.61
380.09	816.85
380.28	774.72
380.48	842.59
380.68	795.78
380.87	713.86
381.07	697.48
381.26	603.86
381.46	634.29
381.65	528.96
381.85	491.51
382.04	477.47
382.24	461.09
382.43	332.36
382.63	337.04
382.83	395.55
383.02	362.78
383.22	376.83
383.41	437.68
383.61	369.80
383.80	615.56
384.00	678.76
384.19	676.41
384.39	744.29
384.58	777.06
384.78	695.14
384.97	690.46
385.17	737.27
385.36	622.58
385.56	603.86
385.75	699.82
385.95	615.56
386.14	755.99
386.34	748.97
386.53	748.97
386.72	671.73
386.92	613.22
387.11	650.67
387.31	774.72
387.50	739.61
387.70	692.80
387.89	685.78
388.09	699.82
388.28	711.52
388.48	709.18
388.67	903.45
388.86	933.87
389.06	1116.44
389.25	1053.24
389.45	1071.97
389.64	1001.75
389.84	1034.52
390.03	929.19
390.22	968.98
390.42	1034.52
390.61	1039.20
390.81	1249.85
391.00	1254.53
391.19	1226.44
391.39	1144.52
391.58	1088.35
391.78	915.15
391.97	887.06
392.16	887.06
392.36	655.35
392.55	531.30
392.75	393.21
392.94	243.42
393.13	224.69
393.33	351.08
393.52	645.99
393.71	713.86
393.91	903.45
394.10	978.34
394.29	992.39
394.49	1151.54
394.68	1233.46
394.88	1137.50
395.07	1327.08
395.26	1284.95
395.46	1235.80
395.65	1114.10
395.84	1020.47
396.04	765.36
396.23	592.16
396.42	512.58
396.62	528.96
396.81	552.37
397.00	795.78
397.19	954.94
397.39	1256.87
397.58	1418.36
397.77	1406.66
397.97	1558.80
398.16	1668.80
398.35	1652.42
398.55	1703.91
398.74	1816.26
398.93	1788.17
399.12	1771.79
399.32	1682.85
399.51	1785.83
399.70	1837.32
399.90	1785.83
400.09	1813.92
400.28	1781.15
400.47	1856.04
400.67	1884.13
400.86	1952.01
401.05	1961.37
401.24	1858.39
401.44	2050.31
401.63	1900.52
401.82	1872.43
402.01	1926.26
402.21	2026.90
402.40	2094.78
402.59	1949.67
402.78	1748.38
402.97	1832.64
403.17	1827.96
403.36	1912.22
403.55	2050.31
403.74	2148.61
403.93	1989.46
404.13	1858.39
404.32	1851.36
404.51	1797.53
404.70	2003.50
404.89	2115.84
405.09	1942.64
405.28	1863.07
405.47	1830.30
405.66	1867.75
405.85	1858.39
406.05	1844.34
406.24	1785.83
406.43	1949.67
406.62	1987.11
406.81	2022.22
407.00	1966.05
407.20	1809.23
407.39	1881.79
407.58	2106.48
407.77	1956.69
407.96	2022.22
408.15	2197.76
408.34	2256.28
408.54	2263.30
408.73	2214.15
408.92	2216.49
409.11	2106.48
409.30	2043.29
409.49	2019.88
409.68	1762.42
409.87	1760.08
410.07	1905.20
410.26	1928.60
410.45	2125.21
410.64	2155.63
410.83	2111.16
411.02	2155.63
411.21	2200.10
411.40	2307.77
411.59	2284.36
411.78	2370.96
411.98	2305.43
412.17	2466.92
412.36	2216.49
412.55	2174.36
412.74	2286.70
412.93	2153.29
413.12	2169.68
413.31	2480.97
413.50	2356.92
413.69	2527.78
413.88	2370.96
414.07	2387.35
414.26	2289.04
414.45	2382.67
414.64	2396.71
414.83	2392.03
415.02	2352.24
415.22	2361.60
415.41	2382.67
415.60	2443.52
415.79	2567.57
415.98	2722.04
416.17	2597.99
416.36	2553.52
416.55	2534.80
416.74	2396.71
416.93	2361.60
417.12	2396.71
417.31	2438.84
417.50	2480.97
417.69	2445.86
417.88	2546.50
418.07	2487.99
418.26	2448.20
418.45	2307.77
418.64	2403.73
418.83	2640.12
419.02	2525.44
419.21	2544.16
419.39	2445.86
419.58	2291.38
419.77	2354.58
419.96	2441.18
420.15	2576.93
420.34	2623.74
420.53	2726.72
420.72	2778.22
420.91	2729.06
421.10	2614.38
421.29	2764.17
421.48	2572.25
421.67	2670.55
421.86	2532.46
422.05	2476.29
422.24	2099.46
422.43	2244.57
422.61	2532.46
422.80	2534.80
422.99	2574.59
423.18	2478.63
423.37	2424.80
423.56	2471.61
423.75	2562.89
423.94	2567.57
424.13	2321.81
424.32	2420.11
424.50	2228.19
424.69	2487.99
424.88	2462.24
425.07	2492.67
425.26	2387.35
425.45	2331.17
425.64	2223.51
425.83	2260.96
426.01	2457.56
426.20	2408.41
426.39	2445.86
426.58	2275.00
426.77	2104.14
426.96	2017.54
427.15	2148.61
427.33	2363.94
427.52	2420.11
427.71	2476.29
427.90	2216.49
428.09	2366.28
428.28	2242.23
428.46	2207.13
428.65	2183.72
428.84	2113.50
429.03	2221.17
429.22	2148.61
429.40	1919.24
429.59	1799.87
429.78	1511.99
429.97	1533.05
430.16	1540.07
430.34	1558.80
430.53	1521.35
430.72	1734.34
430.91	1823.28
431.10	2097.12
431.28	2523.10
431.47	2743.11
431.66	2918.65
431.85	2569.91
432.03	2293.72
432.22	2275.00
432.41	2370.96
432.60	2619.06
432.79	2689.28
432.97	2724.38
433.16	2661.19
433.35	2448.20
433.54	2258.62
433.72	2099.46
433.91	2155.63
434.10	2375.64
434.28	2569.91
434.47	2600.34
434.66	2635.44
434.85	2459.90
435.03	2523.10
435.22	2630.76
435.41	2801.62
435.59	2679.91
435.78	2825.03
435.97	2958.44
436.16	2998.23
436.34	2855.45
436.53	2862.48
436.72	2874.18
436.90	2579.27
437.09	2473.95
437.28	2565.23
437.46	2684.59
437.65	2586.29
437.84	2466.92
438.02	2223.51
438.21	2181.38
438.40	2347.56
438.58	2560.55
438.77	2497.35
438.96	2729.06
439.14	2738.43
439.33	2810.98
439.52	2853.11
439.70	2808.64
439.89	2656.51
440.08	2661.19
440.26	2689.28
440.45	2672.89
440.63	2871.84
440.82	3084.83
441.01	3152.70
441.19	2995.89
441.38	2972.48
441.57	3171.43
441.75	3103.55
441.94	3295.47
442.12	3218.24
442.31	3307.18
442.50	3311.86
442.68	3187.81
442.87	3192.49
443.05	3080.14
443.24	3220.58
443.43	3190.15
443.61	3267.39
443.80	3375.05
443.98	3192.49
444.17	3068.44
444.35	3382.07
444.54	3297.81
444.73	3215.90
444.91	3229.94
445.10	3023.97
445.28	2829.71
445.47	2696.30
445.65	2913.97
445.84	3009.93
446.02	2923.33
446.21	3030.99
446.39	3213.56
446.58	3157.38
446.77	3176.11
446.95	3288.45
447.14	3356.33
447.32	3375.05
447.51	3398.46
447.69	3234.62
447.88	3286.11
448.06	3171.43
448.25	3239.30
448.43	3225.26
448.62	3197.17
448.80	3197.17
448.99	3295.47
449.17	3274.41
449.36	3337.60
449.54	3414.84
449.73	3506.12
449.91	3456.97
450.10	3585.70
450.28	3527.19
450.46	3602.08
450.65	3534.21
450.83	3447.61
451.02	3431.23
451.20	3520.17
451.39	3487.40
451.57	3339.94
451.76	3468.67
451.94	3337.60
452.13	3253.34
452.31	3290.79
452.49	3026.31
452.68	3033.33
452.86	2843.75
453.05	3183.13
453.23	3211.22
453.42	3332.92
453.60	3246.32
453.78	3253.34
453.97	3323.56
454.15	3251.00
454.34	3218.24
454.52	3297.81
454.70	3171.43
454.89	3131.64
455.07	3176.11
455.26	3384.41
455.44	3478.04
455.62	3581.02
455.81	3520.17
455.99	3581.02
456.17	3353.99
456.36	3412.50
456.54	3463.99
456.73	3419.52
456.91	3566.98
457.09	3550.59
457.28	3665.28
457.46	3459.31
457.64	3449.95
457.83	3321.22
458.01	3283.77
458.19	3480.38
458.38	3368.03
458.56	3520.17
458.74	3421.86
458.93	3454.63
459.11	3489.74
459.29	3414.84
459.48	3405.48
459.66	3468.67
459.84	3417.18
460.03	3536.55
460.21	3456.97
460.39	3625.49
460.57	3414.84
460.76	3452.29
460.94	3581.02
461.12	3487.40
461.31	3662.94
461.49	3412.50
461.67	3372.71
461.85	3555.27
462.04	3630.17
462.22	3756.56
462.40	3618.47
462.59	3695.71
462.77	3510.80
462.95	3653.58
463.13	3538.89
463.32	3550.59
463.50	3400.80
463.68	3562.30
463.86	3428.88
464.05	3391.44
464.23	3412.50
464.41	3358.67
464.59	3400.80
464.78	3382.07
464.96	3471.01
465.14	3478.04
465.32	3599.74
465.50	3618.47
465.69	3520.17
465.87	3496.76
466.05	3449.95
466.23	3152.70
466.41	3309.52
466.60	3375.05
466.78	3274.41
466.96	3330.58
467.14	3424.20
467.32	3466.33
467.51	3555.27
467.69	3304.84
467.87	3328.24
468.05	3370.37
468.23	3410.16
468.41	3356.33
468.60	3597.40
468.78	3321.22
468.96	3445.27
469.14	3438.25
469.32	3405.48
469.50	3176.11
469.69	3452.29
469.87	3220.58
470.05	3197.17
470.23	3286.11
470.41	3157.38
470.59	3337.60
470.77	3342.28
470.95	3473.36
471.14	3513.14
471.32	3431.23
471.50	3803.37
471.68	3660.60
471.86	3669.96
472.04	3702.73
472.22	3763.58
472.40	3632.51
472.58	3555.27
472.77	3442.93
472.95	3651.24
473.13	3424.20
473.31	3585.70
473.49	3487.40
473.67	3667.62
473.85	3744.86
474.03	3735.50
474.21	3833.80
474.39	3716.77
474.57	3801.03
474.75	3962.53
474.93	3808.05
475.12	3665.28
475.30	3770.60
475.48	3756.56
475.66	3702.73
475.84	3822.09
476.02	3740.18
476.20	3611.45
476.38	3733.15
476.56	3747.20
476.74	3712.09
476.92	3824.44
477.10	3962.53
477.28	4091.26
477.46	4147.43
477.64	4098.28
477.82	4028.06
478.00	4121.68
478.18	3904.01
478.36	3906.35
478.54	3936.78
478.72	4051.47
478.90	4128.70
479.08	4320.63
479.26	4280.84
479.44	4397.87
479.62	4243.39
479.80	4306.59
479.98	4163.81
480.16	4383.82
480.34	4255.09
480.52	4315.95
480.70	4334.67
480.88	4428.29
481.06	4512.55
481.24	4407.23
481.41	4692.77
481.59	4573.41
481.77	4468.08
481.95	4458.72
482.13	4491.49
482.31	4486.81
482.49	4379.14
482.67	4437.66
482.85	4678.73
483.03	4711.50
483.21	4854.27
483.39	4699.80
483.57	4615.54
483.74	4615.54
483.92	4561.70
484.10	4519.57
484.28	4648.30
484.46	4985.34
484.64	4880.02
484.82	4582.77
485.00	4608.51
485.18	4461.06
485.35	4566.39
485.53	3962.53
485.71	3578.68
485.89	3590.38
486.07	3810.39
486.25	4273.82
486.43	4423.61
486.61	4559.36
486.78	4421.27
486.96	4709.16
487.14	4868.31
487.32	4697.46
487.50	4940.87
487.68	5156.20
487.85	5245.14
488.03	5135.14
488.21	5167.90
488.39	4999.38
488.57	4936.19
488.75	4786.40
488.92	4985.34
489.10	5380.89
489.28	5507.28
489.46	5717.93
489.64	5701.54
489.81	5708.57
489.99	5469.83
490.17	5572.82
490.35	5612.60
490.53	5643.03
490.70	5455.79
490.88	5650.05
491.06	5743.67
491.24	5666.44
491.41	5509.62
491.59	5301.31
491.77	5062.58
491.95	5397.28
492.13	5401.96
492.30	5633.67
492.48	5806.87
492.66	5888.79
492.84	6001.13
493.01	5877.09
493.19	5680.48
493.37	5640.69
493.54	5659.42
493.72	5813.89
493.90	6050.28
494.08	6190.72
494.25	6157.95
494.43	6214.12
494.61	6230.51
494.79	6459.88
494.96	6267.95
495.14	6188.38
495.32	5879.43
495.49	5860.70
495.67	6132.20
495.85	6434.13
496.02	6314.77
496.20	6452.86
496.38	6291.36
496.55	6211.78
496.73	6413.07
496.91	6469.24
497.09	6450.52
497.26	6511.37
497.44	6483.28
497.62	6413.07
497.79	6083.05
497.97	5947.30
498.14	5893.47
498.32	6064.33
498.50	6307.74
498.67	6441.15
498.85	6387.32
499.03	6525.41
499.20	6473.92
499.38	6558.18
499.56	6452.86
499.73	6384.98
499.91	6377.96
500.08	6026.88
500.26	5863.04
500.44	6097.10
500.61	6258.59
500.79	6272.64
500.97	6111.14
501.14	6132.20
501.32	5954.32
501.49	5804.53
501.67	6033.90
501.84	6342.85
502.02	6370.94
502.20	6333.49
502.37	6441.15
502.55	6270.30
502.72	6494.99
502.90	6614.35
503.07	6452.86
503.25	6576.91
503.43	6289.02
503.60	6073.69
503.78	5961.34
503.95	6134.54
504.13	6494.99
504.30	6532.44
504.48	6534.78
504.65	6497.33
504.83	6420.09
505.01	6441.15
505.18	6679.89
505.36	6867.13
505.53	6815.64
505.71	6785.21
505.88	7077.78
506.06	6719.68
506.23	6607.33
506.41	6663.51
506.58	6565.20
506.76	6560.52
506.93	6506.69
507.11	6471.58
507.28	6595.63
507.46	6462.22
507.63	6434.13
507.81	6162.63
507.98	6167.31
508.16	6572.22
508.33	6576.91
508.50	6729.04
508.68	6750.10
508.85	6953.73
509.03	6834.36
509.20	6911.60
509.38	6572.22
509.55	6389.66
509.73	6415.41
509.90	6602.65
510.08	6628.40
510.25	6523.07
510.42	6633.08
510.60	6612.01
510.77	6649.46
510.95	6579.25
511.12	6876.49
511.30	6813.30
511.47	6909.26
511.64	6846.07
511.82	6920.96
511.99	6537.12
512.17	6541.80
512.34	6366.26
512.51	6464.56
512.69	6619.04
512.86	6595.63
513.04	6504.35
513.21	6679.89
513.38	6464.56
513.56	6396.68
513.73	6167.31
513.90	6375.62
514.08	6352.21
514.25	6476.26
514.43	6380.30
514.60	6595.63
514.77	6509.03
514.95	6619.04
515.12	6609.67
515.29	6499.67
515.47	6654.14
515.64	6586.27
515.81	6525.41
515.99	6520.73
516.16	6111.14
516.33	5802.19
516.51	5451.11
516.68	5160.88
516.85	5294.29
517.03	5399.62
517.20	5729.63
517.37	6307.74
517.54	6509.03
517.72	6363.92
517.89	5898.15
518.06	5441.75
518.24	5535.37
518.41	6031.56
518.58	6399.02
518.75	6258.59
518.93	6216.46
519.10	6179.01
519.27	6303.06
519.45	6572.22
519.62	6649.46
519.79	6349.87
519.96	6665.85
520.14	6487.96
520.31	6132.20
520.48	6256.25
520.65	6406.05
520.83	6525.41
521.00	6558.18
521.17	6717.34
521.34	6530.09
521.52	6635.42
521.69	6452.86
521.86	6731.38
522.03	6930.33
522.20	6279.66
522.38	6066.67
522.55	6078.37
522.72	6249.23
522.89	6282.00
523.07	6338.17
523.24	6356.90
523.41	6656.48
523.58	6803.94
523.75	6752.45
523.92	6846.07
524.10	6817.98
524.27	6689.25
524.44	6703.29
524.61	6881.18
524.78	6539.46
524.96	6621.38
525.13	6541.80
525.30	6677.55
525.47	6787.55
525.64	6747.76
525.81	6511.37
525.98	6186.04
526.16	5898.15
526.33	5598.56
526.50	5523.66
526.67	5605.58
526.84	5734.31
527.01	6057.31
527.18	6204.76
527.36	6382.64
527.53	6565.20
527.70	6572.22
527.87	6551.16
528.04	6403.71
528.21	6541.80
528.38	6583.93
528.55	6848.41
528.72	7030.97
528.89	6998.20
529.07	6918.62
529.24	6672.87
529.41	6319.45
529.58	6242.21
529.75	6476.26
529.92	6494.99
530.09	6399.02
530.26	6853.09
530.43	6740.74
530.60	6860.11
530.77	6707.98
530.94	6897.56
531.11	6834.36
531.28	6693.93
531.46	6590.95
531.63	6553.50
531.80	6621.38
531.97	6466.90
532.14	6455.20
532.31	6143.91
532.48	5949.64
532.65	5825.59
532.82	6181.35
532.99	6410.73
533.16	6401.37
533.33	6553.50
533.50	6480.94
533.67	6356.90
533.84	6406.05
534.01	6525.41
534.18	6420.09
534.35	6518.39
534.52	6380.30
534.69	6349.87
534.86	6595.63
535.03	6609.67
535.20	6696.27
535.37	6846.07
535.54	6857.77
535.71	6717.34
535.88	6640.10
536.05	6389.66
536.22	6200.08
536.38	6221.14
536.55	6136.88
536.72	5951.98
536.89	5933.26
537.06	6366.26
537.23	6392.00
537.40	6520.73
537.57	6621.38
537.74	6502.01
537.91	6403.71
538.08	6537.12
538.25	6392.00
538.42	6422.43
538.59	6366.26
538.75	6352.21
538.92	6216.46
539.09	6188.38
539.26	6246.89
539.43	6277.32
539.60	6059.65
539.77	6181.35
539.94	6054.97
540.11	5860.70
540.28	5767.08
540.44	5818.57
540.61	5757.72
540.78	5888.79
540.95	6106.46
541.12	6090.07
541.29	6274.98
541.46	6263.27
541.62	6420.09
541.79	6183.70
541.96	6209.44
542.13	5987.09
542.30	6078.37
542.47	6183.70
542.63	6169.65
542.80	6139.23
542.97	6181.35
543.14	6134.54
543.31	6235.19
543.48	6143.91
543.64	6251.57
543.81	6370.94
543.98	6331.15
544.15	6300.72
544.32	6106.46
544.48	6171.99
544.65	6225.82
544.82	6232.85
544.99	6193.06
545.16	6061.99
545.32	6045.60
545.49	6244.55
545.66	6354.55
545.83	6333.49
546.00	6071.35
546.16	6036.24
546.33	6094.76
546.50	6057.31
546.67	6162.63
546.83	6080.71
547.00	6200.08
547.17	5998.79
547.34	5799.85
547.50	5923.90
547.67	5935.60
547.84	5851.34
548.00	5944.96
548.17	6111.14
548.34	6003.47
548.51	5937.94
548.67	6108.80
548.84	6139.23
549.01	6069.01
549.18	5975.39
549.34	5963.68
549.51	6120.50
549.68	5940.28
549.84	5944.96
550.01	5933.26
550.18	5643.03
550.34	5795.17
550.51	5790.49
550.68	5984.75
550.84	5799.85
551.01	5816.23
551.18	5914.53
551.34	5893.47
551.51	5926.24
551.68	6127.52
551.84	6228.17
552.01	5949.64
552.18	6038.58
552.34	5781.12
552.51	5694.52
552.68	5621.97
552.84	5738.99
553.01	5940.28
553.18	5820.91
553.34	6029.22
553.51	5930.92
553.67	5916.87
553.84	5942.62
554.01	6045.60
554.17	5902.83
554.34	6069.01
554.51	5909.85
554.67	5905.17
554.84	5956.66
555.00	5909.85
555.17	5870.06
555.33	5825.59
555.50	5790.49
555.67	5783.46
555.83	5753.04
556.00	5816.23
556.16	5610.26
556.33	5738.99
556.50	5558.77
556.66	5631.33
556.83	5530.69
556.99	5626.65
557.16	5600.90
557.32	5771.76
557.49	5790.49
557.65	5849.00
557.82	5783.46
557.98	5755.38
558.15	5570.48
558.32	5423.02
558.48	5153.86
558.65	5380.89
558.81	5275.57
558.98	5598.56
559.14	5469.83
559.31	5465.15
559.47	5434.72
559.64	5469.83
559.80	5376.21
559.97	5404.30
560.13	5467.49
560.30	5591.54
560.46	5813.89
560.63	5823.25
560.79	5701.54
560.96	5710.91
561.12	5474.51
561.29	5130.45
561.45	5303.65
561.61	5427.70
561.78	5540.05
561.94	5425.36
562.11	5497.92
562.27	5427.70
562.44	5521.32
562.60	5497.92
562.77	5554.09
562.93	5528.35
563.10	5586.86
563.26	5373.87
563.42	5425.36
563.59	5270.89
563.75	5420.68
563.92	5418.34
564.08	5345.78
564.24	5254.50
564.41	5526.00
564.57	5385.57
564.74	5434.72
564.90	5364.51
565.07	5245.14
565.23	5242.80
565.39	5238.12
565.56	5085.98
565.72	5114.07
565.88	5139.82
566.05	5114.07
566.21	4999.38
566.38	5245.14
566.54	5203.01
566.70	5282.59
566.87	5385.57
567.03	5514.30
567.19	5418.34
567.36	5270.89
567.52	5394.93
567.68	5172.58
567.85	5078.96
568.01	5107.05
568.17	5111.73
568.34	5057.90
568.50	4947.89
568.66	5067.26
568.83	5011.09
568.99	5071.94
569.15	5034.49
569.32	5114.07
569.48	5104.71
569.64	5013.43
569.81	4898.74
569.97	5083.64
570.13	4926.83
570.30	4861.29
570.46	4772.35
570.62	4744.27
570.78	4805.12
570.95	4854.27
571.11	4830.87
571.27	4844.91
571.43	5156.20
571.60	4990.02
571.76	5027.47
571.92	5097.69
572.09	5076.62
572.25	4966.62
572.41	5046.20
572.57	5039.17
572.74	4919.81
572.90	4973.64
573.06	4922.15
573.22	4809.80
573.38	5111.73
573.55	4875.34
573.71	5163.22
573.87	4985.34
574.03	5034.49
574.20	5046.20
574.36	4870.65
574.52	4823.84
574.68	4851.93
574.84	4800.44
575.01	4638.94
575.17	4620.22
575.33	4744.27
575.49	4823.84
575.65	4854.27
575.82	4826.18
575.98	4624.90
576.14	4709.16
576.30	4741.93
576.46	4781.71
576.62	4959.60
576.79	4840.23
576.95	4568.73
577.11	4624.90
577.27	4716.18
577.43	4624.90
577.59	4748.95
577.75	4685.75
577.92	4554.68
578.08	4404.89
578.24	4491.49
578.40	4657.67
578.56	4557.02
578.72	4688.09
578.88	4652.98
579.04	4760.65
579.21	4594.47
579.37	4908.10
579.53	4624.90
579.69	4809.80
579.85	4564.04
580.01	4667.03
580.17	4592.13
580.33	4447.02
580.49	4596.81
580.65	4697.46
580.82	4688.09
580.98	4561.70
581.14	4615.54
581.30	4713.84
581.46	4606.17
581.62	4760.65
581.78	4645.96
581.94	4631.92
582.10	4746.61
582.26	4823.84
582.42	4706.82
582.58	4683.41
582.74	4702.14
582.90	4657.67
583.06	4730.22
583.22	4737.24
583.38	4746.61
583.54	4865.97
583.70	4575.75
583.86	4695.11
584.02	4573.41
584.18	4547.66
584.34	4685.75
584.50	4690.43
584.66	4587.45
584.82	4566.39
584.98	4484.47
585.14	4568.73
585.30	4304.25
585.46	4435.32
585.62	4308.93
585.78	4435.32
585.94	4482.13
586.10	4348.72
586.26	4257.43
586.42	4477.44
586.58	4475.10
586.74	4526.60
586.90	4470.42
587.06	4491.49
587.22	4456.38
587.38	4311.27
587.54	4301.90
587.70	4353.40
587.86	4241.05
588.02	4325.31
588.18	4332.33
588.34	4114.66
588.49	3674.64
588.65	3639.53
588.81	3688.68
588.97	3583.36
589.13	3740.18
589.29	3524.85
589.45	3672.30
589.61	3709.75
589.77	4014.02
589.93	4163.81
590.08	4107.64
590.24	4189.56
590.40	4222.33
590.56	4187.22
590.72	4238.71
590.88	4032.74
591.04	4126.36
591.20	4119.34
591.35	4007.00
591.51	4025.72
591.67	4030.40
591.83	4007.00
591.99	4184.88
592.15	4175.52
592.31	4065.51
592.46	4142.75
592.62	4093.60
592.78	4067.85
592.94	3962.53
593.10	4070.19
593.26	4161.47
593.41	4175.52
593.57	4147.43
593.73	4018.70
593.89	4046.79
594.05	4147.43
594.20	3974.23
594.36	4009.34
594.52	3805.71
594.68	3833.80
594.84	3857.20
594.99	3871.25
595.15	4004.66
595.31	3943.80
595.47	3911.04
595.62	3861.88
595.78	3990.61
595.94	4053.81
596.10	4138.07
596.25	4023.38
596.41	4042.11
596.57	3960.19
596.73	4042.11
596.88	4098.28
597.04	3889.97
597.20	3981.25
597.36	3939.12
597.51	3857.20
597.67	3929.76
