SpectraSuite Data File
++++++++++++++++++++++++++++++++++++
Date: Mon Oct 07 14:55:01 GMT-05:00 2013
User: price-jones
Dark Spectrum Present: No
Reference Spectrum Present: No
Number of Sampled Component Spectra: 1
Spectrometers: USB2+H05261
Integration Time (usec): 10000 (USB2+H05261)
Spectra Averaged: 1 (USB2+H05261)
Boxcar Smoothing: 0 (USB2+H05261)
Correct for Electrical Dark: No (USB2+H05261)
Strobe/Lamp Enabled: No (USB2+H05261)
Correct for Detector Non-linearity: No (USB2+H05261)
Correct for Stray Light: No (USB2+H05261)
Number of Pixels in Processed Spectrum: 2048
>>>>>Begin Processed Spectral Data<<<<<
365.73	0.00
365.92	0.00
366.12	0.00
366.32	0.00
366.52	0.00
366.72	0.00
366.91	0.00
367.11	0.00
367.31	0.00
367.51	0.00
367.70	0.00
367.90	0.00
368.10	0.00
368.30	0.00
368.49	0.00
368.69	0.00
368.89	0.00
369.09	0.00
369.28	0.00
369.48	0.00
369.68	0.00
369.87	0.00
370.07	0.00
370.27	0.00
370.47	315.97
370.66	2235.21
370.86	2567.57
371.06	2806.30
371.25	2789.92
371.45	2513.74
371.65	2202.44
371.84	2092.44
372.04	2282.02
372.24	2649.49
372.44	2766.51
372.63	2518.42
372.83	2242.23
373.03	1966.05
373.22	1914.56
373.42	2225.85
373.62	2471.61
373.81	2562.89
374.01	2569.91
374.21	2242.23
374.40	2029.24
374.60	2298.41
374.79	2597.99
374.99	3061.42
375.19	3208.87
375.38	3183.13
375.58	2935.03
375.78	2995.89
375.97	3014.61
376.17	3171.43
376.37	3197.17
376.56	3328.24
376.76	3508.46
376.95	3721.45
377.15	3875.93
377.35	3978.91
377.54	4100.62
377.74	4360.42
377.93	4365.10
378.13	4196.58
378.33	3864.22
378.52	3646.55
378.72	3545.91
378.91	3349.31
379.11	3318.88
379.31	3239.30
379.50	3262.71
379.70	3695.71
379.89	3819.75
380.09	3983.59
380.28	4297.22
380.48	4210.62
380.68	4159.13
380.87	3840.82
381.07	3705.07
381.26	3337.60
381.46	3150.36
381.65	3117.59
381.85	2928.01
382.04	2771.19
382.24	2750.13
382.43	2621.40
382.63	2532.46
382.83	2487.99
383.02	2469.27
383.22	2579.27
383.41	2689.28
383.61	2829.71
383.80	3162.06
384.00	3669.96
384.19	4028.06
384.39	4177.86
384.58	4337.01
384.78	3999.98
384.97	4095.94
385.17	3941.46
385.36	3688.68
385.56	3431.23
385.75	3789.33
385.95	4215.30
386.14	4287.86
386.34	4210.62
386.53	4049.13
386.72	3995.29
386.92	4091.26
387.11	4227.01
387.31	4332.33
387.50	4362.76
387.70	4131.05
387.89	4025.72
388.09	4135.73
388.28	4184.88
388.48	4222.33
388.67	4655.33
388.86	5212.37
389.06	5324.72
389.25	5776.44
389.45	5830.27
389.64	5734.31
389.84	5727.29
390.03	5612.60
390.22	5792.83
390.42	5968.37
390.61	6143.91
390.81	6586.27
391.00	6544.14
391.19	6553.50
391.39	6307.74
391.58	5863.04
391.78	5799.85
391.97	5565.79
392.16	5029.81
392.36	4444.68
392.55	3419.52
392.75	2820.35
392.94	2312.45
393.13	2377.98
393.33	2998.23
393.52	3726.13
393.71	4631.92
393.91	5156.20
394.10	5767.08
394.29	6179.01
394.49	6640.10
394.68	7173.74
394.88	7112.89
395.07	7564.61
395.26	7236.94
395.46	6991.18
395.65	6272.64
395.84	5334.08
396.04	4444.68
396.23	3693.37
396.42	3232.28
396.62	3232.28
396.81	4107.64
397.00	5263.86
397.19	6658.82
397.39	7559.93
397.58	8191.88
397.77	8585.08
397.97	8901.06
398.16	8868.29
398.35	9100.00
398.55	9603.22
398.74	10097.07
398.93	10207.08
399.12	9994.09
399.32	9591.52
399.51	9837.27
399.70	10583.90
399.90	10377.94
400.09	10459.85
400.28	10188.35
400.47	10560.50
400.67	11185.42
400.86	11297.77
401.05	11178.40
401.24	11363.30
401.44	11431.18
401.63	11730.76
401.82	11836.09
402.01	11520.12
402.21	11775.24
402.40	11669.91
402.59	11267.34
402.78	10867.11
402.97	10654.12
403.17	11297.77
403.36	11681.61
403.55	11927.37
403.74	12404.84
403.93	11597.35
404.13	10546.45
404.32	10614.33
404.51	11201.80
404.70	12063.12
404.89	11829.07
405.09	11686.29
405.28	11360.96
405.47	11499.05
405.66	11513.10
405.85	11140.95
406.05	10927.96
406.24	11330.53
406.43	11583.31
406.62	11824.39
406.81	11948.43
407.00	11693.32
407.20	11009.88
407.39	11440.54
407.58	12224.62
407.77	12559.31
407.96	13071.89
408.15	13263.82
408.34	13156.15
408.54	13785.76
408.73	13727.24
408.92	13720.22
409.11	12985.29
409.30	12187.17
409.49	11562.25
409.68	10998.18
409.87	10920.94
410.07	11674.59
410.26	12554.63
410.45	12971.25
410.64	13422.97
410.83	13832.57
411.02	13823.20
411.21	14532.39
411.40	14312.38
411.59	14724.31
411.78	14490.26
411.98	14434.08
412.17	14604.94
412.36	14494.94
412.55	14071.30
412.74	14071.30
412.93	13647.66
413.12	14052.58
413.31	15665.21
413.50	15531.80
413.69	15779.89
413.88	14537.07
414.07	14944.32
414.26	15044.96
414.45	15452.22
414.64	15241.57
414.83	15377.32
415.02	14970.07
415.22	15009.86
415.41	15564.56
415.60	15962.45
415.79	16636.53
415.98	16767.60
416.17	16844.84
416.36	16358.00
416.55	16168.42
416.74	15566.90
416.93	15342.21
417.12	15421.79
417.31	15283.70
417.50	15997.56
417.69	16407.16
417.88	16397.79
418.07	16009.26
418.26	15896.92
418.45	15999.90
418.64	16470.35
418.83	17291.88
419.02	16648.23
419.21	16379.07
419.39	15934.37
419.58	15360.94
419.77	15520.09
419.96	16664.61
420.15	17088.25
420.34	17998.72
420.53	18319.37
420.72	18698.54
420.91	17905.10
421.10	17652.32
421.29	17734.24
421.48	17397.20
421.67	18235.11
421.86	17451.03
422.05	15868.83
422.24	14600.26
422.43	15180.71
422.61	16915.05
422.80	17645.30
422.99	17015.69
423.18	16528.86
423.37	16458.65
423.56	16858.88
423.75	16938.46
423.94	17170.17
424.13	16652.91
424.32	16685.68
424.50	16641.21
424.69	16386.09
424.88	16697.38
425.07	16547.59
425.26	16397.79
425.45	15545.84
425.64	16116.93
425.83	16430.56
426.01	16835.47
426.20	17069.53
426.39	16720.79
426.58	15559.88
426.77	14391.95
426.96	14382.59
427.15	15016.88
427.33	16215.23
427.52	16695.04
427.71	16629.51
427.90	16416.52
428.09	16526.52
428.28	16121.61
428.46	15372.64
428.65	15157.31
428.84	15833.72
429.03	15466.26
429.22	14930.28
429.40	13783.41
429.59	12713.79
429.78	11323.51
429.97	11796.30
430.16	11573.95
430.34	11611.40
430.53	11772.89
430.72	12571.02
430.91	14125.13
431.10	16177.78
431.28	18794.50
431.47	19946.05
431.66	19887.53
431.85	17511.89
432.03	16063.10
432.22	16269.06
432.41	17476.78
432.60	18684.50
432.79	19723.69
432.97	19709.65
433.16	19147.92
433.35	17043.78
433.54	15667.55
433.72	15028.58
433.91	15819.68
434.10	17731.90
434.28	18675.13
434.47	19506.02
434.66	18525.34
434.85	18644.71
435.03	18916.21
435.22	19103.45
435.41	20154.35
435.59	20208.19
435.78	20507.77
435.97	20837.79
436.16	21039.08
436.34	20826.09
436.53	20596.71
436.72	20400.11
436.90	19344.53
437.09	19456.87
437.28	18981.74
437.46	19688.59
437.65	19370.27
437.84	17799.77
438.02	16807.39
438.21	17319.96
438.40	17621.89
438.58	19019.19
438.77	19527.09
438.96	19971.79
439.14	20814.38
439.33	21149.08
439.52	21612.51
439.70	20538.20
439.89	19707.31
440.08	19407.72
440.26	19957.75
440.45	20943.11
440.63	22682.13
440.82	23264.92
441.01	22771.07
441.19	22185.94
441.38	23559.83
441.57	24411.79
441.75	23889.85
441.94	24388.38
442.12	24149.65
442.31	24549.88
442.50	24320.51
442.68	24063.05
442.87	23939.00
443.05	23772.82
443.24	24189.44
443.43	24397.74
443.61	24652.86
443.80	25530.56
443.98	24004.53
444.17	23751.76
444.35	25289.49
444.54	26176.55
444.73	25219.27
444.91	23817.29
445.10	22899.80
445.28	22466.80
445.47	21783.37
445.65	22209.34
445.84	23255.56
446.02	23442.81
446.21	24074.75
446.39	23899.21
446.58	24407.11
446.77	24858.83
446.95	25240.34
447.14	25312.89
447.32	25956.54
447.51	25184.16
447.69	24147.31
447.88	24032.62
448.06	24919.68
448.25	24851.81
448.43	25174.80
448.62	25247.36
448.80	24402.43
448.99	24404.77
449.17	24790.95
449.36	25563.33
449.54	25738.87
449.73	26370.82
449.91	26995.74
450.10	27407.67
450.28	27276.60
450.46	28053.66
450.65	27686.20
450.83	27466.19
451.02	26991.06
451.20	26752.32
451.39	27225.11
451.57	26794.45
451.76	26752.32
451.94	26316.98
452.13	25486.09
452.31	24329.87
452.49	23590.26
452.68	24224.54
452.86	24194.12
453.05	24472.64
453.23	25860.58
453.42	25984.63
453.60	26490.18
453.78	26338.05
453.97	25886.32
454.15	25970.58
454.34	25025.01
454.52	25242.68
454.70	24896.28
454.89	25345.66
455.07	25701.42
455.26	25919.09
455.44	27187.66
455.62	27826.63
455.81	27435.76
455.99	27475.55
456.17	27838.33
456.36	27754.07
456.54	28318.14
456.73	27735.35
456.91	28130.90
457.09	28533.47
457.28	29392.45
457.46	27796.20
457.64	26892.76
457.83	26923.18
458.01	26576.78
458.19	27227.45
458.38	28112.17
458.56	28683.27
458.74	28013.87
458.93	27686.20
459.11	27716.62
459.29	26890.41
459.48	27402.99
459.66	27484.91
459.84	27992.81
460.03	28353.25
460.21	28624.75
460.39	28364.95
460.57	28496.02
460.76	28711.35
460.94	28947.75
461.12	28692.63
461.31	28774.55
461.49	29097.54
461.67	28819.02
461.85	29685.01
462.04	29434.58
462.22	29221.59
462.40	29277.76
462.59	29214.57
462.77	29294.14
462.95	28966.47
463.13	28814.34
463.32	28723.05
463.50	28498.36
463.68	28741.78
463.86	29064.77
464.05	28203.46
464.23	27346.82
464.41	27728.33
464.59	27503.64
464.78	28697.31
464.96	28556.88
465.14	27894.50
465.32	29369.04
465.50	29544.58
465.69	30569.74
465.87	29376.06
466.05	28222.18
466.23	27281.28
466.41	26387.20
466.60	27508.32
466.78	27782.16
466.96	27807.90
467.14	28896.25
467.32	28800.29
467.51	28980.51
467.69	27482.57
467.87	27978.76
468.05	28727.74
468.23	28587.30
468.41	28355.59
468.60	28737.10
468.78	29097.54
468.96	28893.91
469.14	28837.74
469.32	29404.15
469.50	27737.69
469.69	28587.30
469.87	28006.85
470.05	28100.47
470.23	28056.00
470.41	27953.02
470.59	28680.92
470.77	28566.24
470.95	29369.04
471.14	29935.45
471.32	29696.72
471.50	30597.82
471.68	30955.93
471.86	31459.14
472.04	31035.50
472.22	31414.67
472.40	30057.16
472.58	29804.38
472.77	29844.17
472.95	30038.44
473.13	31409.99
473.31	30178.87
473.49	29773.95
473.67	30466.75
473.85	31330.41
474.03	32776.86
474.21	32479.61
474.39	32968.79
474.57	32701.96
474.75	32769.84
474.93	32161.30
475.12	31524.68
475.30	31917.89
475.48	31613.62
475.66	31044.87
475.84	30796.77
476.02	30855.28
476.20	30658.68
476.38	31999.80
476.56	32627.07
476.74	33270.72
476.92	33457.96
477.10	33249.65
477.28	34478.43
477.46	34211.61
477.64	35042.50
477.82	34941.86
478.00	35409.96
478.18	34073.52
478.36	33769.25
478.54	34391.83
478.72	34920.79
478.90	36268.94
479.08	37783.27
479.26	37603.05
479.44	37579.64
479.62	36236.17
479.80	37677.94
479.98	37666.24
480.16	37956.47
480.34	36493.63
480.52	38263.08
480.70	38476.07
480.88	37956.47
481.06	38972.26
481.24	38710.12
481.41	39594.84
481.59	40662.13
481.77	39395.90
481.95	38829.49
482.13	38132.01
482.31	39342.06
482.49	39871.03
482.67	39395.90
482.85	39573.78
483.03	39849.96
483.21	40999.16
483.39	40201.04
483.57	39372.49
483.74	39573.78
483.92	40994.48
484.10	39866.34
484.28	40414.03
484.46	40399.99
484.64	42424.55
484.82	41071.72
485.00	40069.97
485.18	39597.18
485.35	37900.29
485.53	33560.94
485.71	31480.21
485.89	31917.89
486.07	34148.42
486.25	36964.08
486.43	38962.90
486.61	38653.95
486.78	39091.63
486.96	40072.31
487.14	41361.95
487.32	42218.58
487.50	43044.79
487.68	44231.44
487.85	44966.37
488.03	44374.22
488.21	43957.60
488.39	43119.69
488.57	42876.27
488.75	42494.77
488.92	44149.53
489.10	46302.82
489.28	47803.10
489.46	49214.44
489.64	48114.39
489.81	48769.74
489.99	47353.72
490.17	47756.29
490.35	48102.69
490.53	47367.76
490.70	46621.13
490.88	47136.05
491.06	48591.86
491.24	48697.19
491.41	46838.80
491.59	45415.76
491.77	45464.91
491.95	46953.49
492.13	48318.02
492.30	48835.28
492.48	50019.59
492.66	50394.07
492.84	50103.85
493.01	49642.76
493.19	49968.10
493.37	49207.42
493.54	49818.30
493.72	50267.69
493.90	50536.85
494.08	51503.49
494.25	51360.72
494.43	51938.83
494.61	52435.02
494.79	52739.29
494.96	52931.22
495.14	52341.40
495.32	50672.60
495.49	51262.41
495.67	51957.55
495.85	53317.40
496.02	53722.32
496.20	53298.68
496.38	53029.52
496.55	52877.38
496.73	53815.94
496.91	53729.34
497.09	53518.69
497.26	53785.51
497.44	53373.58
497.62	52339.06
497.79	51351.35
497.97	50586.00
498.14	51430.93
498.32	52959.30
498.50	52839.93
498.67	53008.45
498.85	53179.31
499.03	53897.86
499.20	54415.11
499.38	53808.92
499.56	52926.53
499.73	52463.11
499.91	52362.46
500.08	51842.87
500.26	51632.22
500.44	52273.52
500.61	52718.23
500.79	52322.68
500.97	52549.71
501.14	51372.42
501.32	51519.87
501.49	51475.40
501.67	51810.10
501.84	52266.50
502.02	52914.83
502.20	53675.51
502.37	54045.31
502.55	53895.52
502.72	54405.75
502.90	54920.67
503.07	54735.77
503.25	52961.64
503.43	52313.31
503.60	51770.31
503.78	51536.26
503.95	51690.73
504.13	53251.87
504.30	54129.57
504.48	53415.71
504.65	53375.92
504.83	53932.96
505.01	54323.83
505.18	54810.67
505.36	55025.99
505.53	55491.76
505.71	55716.45
505.88	55643.90
506.06	55121.96
506.23	54731.09
506.41	54316.81
506.58	54766.20
506.76	55143.02
506.93	53951.69
507.11	54162.34
507.28	54326.17
507.46	53745.72
507.63	53581.88
507.81	52671.42
507.98	53506.99
508.16	54714.70
508.33	54901.95
508.50	55250.69
508.68	55552.62
508.85	56128.39
509.03	56142.43
509.20	55278.77
509.38	54218.51
509.55	54206.81
509.73	54333.20
509.90	54754.49
510.08	55089.19
510.25	54438.52
510.42	54604.70
510.60	55157.06
510.77	55463.67
510.95	55676.66
511.12	55627.51
511.30	56308.61
511.47	56259.46
511.64	56336.69
511.82	56100.30
511.99	54925.35
512.17	55379.42
512.34	54623.42
512.51	54440.86
512.69	55035.36
512.86	54997.91
513.04	55363.03
513.21	54770.88
513.38	53616.99
513.56	53757.42
513.73	52919.51
513.90	53415.71
514.08	54005.52
514.25	53485.92
514.43	53925.94
514.60	54656.19
514.77	54719.38
514.95	54796.62
515.12	54532.14
515.29	55538.57
515.47	55899.01
515.64	55653.26
515.81	55391.12
515.99	54038.29
516.16	51688.39
516.33	49284.66
516.51	49055.29
516.68	47227.33
516.85	46625.81
517.03	48664.42
517.20	52011.38
517.37	53928.28
517.54	55072.81
517.72	53560.82
517.89	50134.28
518.06	48903.15
518.24	50295.77
518.41	52285.23
518.58	53570.18
518.75	53104.41
518.93	53659.12
519.10	52823.55
519.27	54017.22
519.45	54164.68
519.62	54923.01
519.79	55023.65
519.96	54817.69
520.14	54394.05
520.31	52973.34
520.48	53366.55
520.65	54454.90
520.83	55290.48
521.00	55274.09
521.17	54389.37
521.34	54731.09
521.52	55194.51
521.69	55491.76
521.86	55938.80
522.03	55959.87
522.20	53956.37
522.38	53256.55
522.55	53972.75
522.72	54934.71
522.89	54354.26
523.07	54431.50
523.24	55000.25
523.41	56413.93
523.58	56556.70
523.75	56896.08
523.92	56495.85
524.10	56013.70
524.27	55831.14
524.44	55770.28
524.61	55405.16
524.78	55814.76
524.96	55927.10
525.13	55774.97
525.30	56545.00
525.47	56294.56
525.64	56112.00
525.81	55393.46
525.98	53411.02
526.16	51819.46
526.33	52353.10
526.50	51487.10
526.67	51980.96
526.84	51985.64
527.01	53148.88
527.18	53867.43
527.36	55238.98
527.53	55985.61
527.70	55128.98
527.87	53846.36
528.04	54815.35
528.21	55393.46
528.38	56217.33
528.55	57324.40
528.72	56678.41
528.89	56219.67
529.07	55812.41
529.24	54607.04
529.41	54277.02
529.58	54597.68
529.75	55512.83
529.92	55913.06
530.09	55831.14
530.26	56343.72
530.43	57134.82
530.60	56182.22
530.77	56446.70
530.94	56729.90
531.11	56107.32
531.28	56491.17
531.46	56624.58
531.63	56055.83
531.80	55508.14
531.97	54796.62
532.14	54780.24
532.31	53432.09
532.48	52601.20
532.65	52797.80
532.82	53563.16
532.99	55194.51
533.16	55435.59
533.33	55194.51
533.50	55789.01
533.67	55475.38
533.84	54934.71
534.01	55365.37
534.18	55746.88
534.35	55227.28
534.52	54604.70
534.69	55016.63
534.86	55833.48
535.03	55908.38
535.20	55629.85
535.37	56451.38
535.54	57216.74
535.71	56587.13
535.88	56882.04
536.05	55494.10
536.22	54529.80
536.38	54499.37
536.55	53207.40
536.72	53357.19
536.89	54024.25
537.06	54609.38
537.23	55246.00
537.40	55449.63
537.57	55128.98
537.74	55569.00
537.91	55377.08
538.08	54766.20
538.25	54775.56
538.42	55704.75
538.59	54953.44
538.75	53659.12
538.92	53514.01
539.09	53525.71
539.26	53708.27
539.43	53862.75
539.60	54426.82
539.77	54864.50
539.94	54213.83
540.11	53652.10
540.28	52963.98
540.44	52336.72
540.61	52456.09
540.78	53361.87
540.95	54286.39
541.12	54103.82
541.29	54901.95
541.46	55503.46
541.62	55150.04
541.79	54089.78
541.96	53130.16
542.13	53176.97
542.30	53645.08
542.47	54370.64
542.63	54035.95
542.80	53628.69
542.97	53385.28
543.14	53137.18
543.31	53200.38
543.48	54855.14
543.64	55037.70
543.81	56310.95
543.98	55707.09
544.15	53979.78
544.32	54518.10
544.48	54403.41
544.65	54047.65
544.82	55000.25
544.99	53233.14
545.16	52760.36
545.32	53083.35
545.49	54047.65
545.66	54454.90
545.83	54028.93
546.00	54614.06
546.16	54644.49
546.33	54291.07
546.50	54157.66
546.67	54717.04
546.83	53708.27
547.00	54277.02
547.17	52954.62
547.34	52051.17
547.50	52552.05
547.67	53804.24
547.84	54773.22
548.00	53792.53
548.17	54143.61
548.34	54049.99
548.51	54522.78
548.67	55238.98
548.84	55201.53
549.01	54681.94
549.18	53701.25
549.34	53975.09
549.51	54164.68
549.68	54291.07
549.84	53645.08
550.01	53551.46
550.18	52999.09
550.34	53010.79
550.51	53792.53
550.68	53911.90
550.84	53769.13
551.01	53109.10
551.18	52905.47
551.34	52196.29
551.51	53858.07
551.68	53581.88
551.84	53612.31
552.01	53570.18
552.18	52896.11
552.34	52402.25
552.51	52439.70
552.68	52158.84
552.84	52598.86
553.01	52823.55
553.18	54040.63
553.34	54241.92
553.51	53719.98
553.67	52973.34
553.84	52905.47
554.01	53553.80
554.17	52940.58
554.34	53389.96
554.51	53406.34
554.67	52264.16
554.84	52360.12
555.00	52666.73
555.17	52942.92
555.33	52088.62
555.50	51384.12
555.67	52671.42
555.83	52680.78
556.00	52287.57
556.16	51440.29
556.33	51330.29
556.50	52437.36
556.66	52509.92
556.83	51983.30
556.99	51384.12
557.16	51725.84
557.32	51704.77
557.49	51707.12
557.65	51192.20
557.82	52062.88
557.98	52690.14
558.15	51634.56
558.32	50120.23
558.48	49083.37
558.65	49792.56
558.81	50518.12
558.98	51545.62
559.14	51339.65
559.31	51318.59
559.47	50443.23
559.64	49734.04
559.80	49698.94
559.97	50230.24
560.13	51861.59
560.30	52886.74
560.46	53345.49
560.63	53712.95
560.79	53574.86
560.96	52612.90
561.12	50913.67
561.29	50127.25
561.45	50141.30
561.61	52140.11
561.78	51578.39
561.94	51866.27
562.11	52023.09
562.27	50632.81
562.44	51580.73
562.60	51936.49
562.77	52514.60
562.93	50417.48
563.10	51070.49
563.26	50485.36
563.42	51826.48
563.59	50700.68
563.75	50578.98
563.92	51133.68
564.08	49523.40
564.24	50960.48
564.41	50604.72
564.57	51271.78
564.74	51035.38
564.90	50188.11
565.07	50211.51
565.23	49167.63
565.39	48570.80
565.56	49031.88
565.72	49432.11
565.88	47842.89
566.05	50251.30
566.21	51150.07
566.38	49890.86
566.54	49968.10
566.70	50679.62
566.87	50600.04
567.03	49773.83
567.19	50700.68
567.36	51421.57
567.52	50281.73
567.68	49703.62
567.85	48406.96
568.01	48451.43
568.17	48795.49
568.34	49738.72
568.50	49705.96
568.66	50153.00
568.83	48793.15
568.99	47948.21
569.15	48868.05
569.32	49329.13
569.48	48755.70
569.64	47435.64
569.81	48257.17
569.97	47964.60
570.13	47571.39
570.30	46958.17
570.46	46305.16
570.62	45102.12
570.78	45890.88
570.95	47077.54
571.11	46141.32
571.27	46248.99
571.43	46429.21
571.60	46272.39
571.76	48376.53
571.92	48296.95
572.09	48549.73
572.25	48861.02
572.41	49776.17
572.57	49247.21
572.74	49186.36
572.90	50202.15
573.06	48648.03
573.22	49591.27
573.38	48839.96
573.55	50653.87
573.71	48882.09
573.87	48978.05
574.03	49132.53
574.20	47999.71
574.36	48713.57
574.52	47461.38
574.68	47391.17
574.84	46164.73
575.01	46696.03
575.17	47194.56
575.33	47828.85
575.49	47330.31
575.65	46724.11
575.82	47161.79
575.98	46513.47
576.14	47353.72
576.30	47959.92
576.46	46286.43
576.62	46953.49
576.79	46855.18
576.95	46476.02
577.11	47351.38
577.27	47421.59
577.43	47629.90
577.59	46483.04
577.75	45043.61
577.92	44949.99
578.08	45528.10
578.24	46380.06
578.40	46377.72
578.56	45287.03
578.72	45556.19
578.88	45270.64
579.04	46164.73
579.21	45036.59
579.37	46363.67
579.53	45762.15
579.69	45434.48
579.85	45675.55
580.01	46026.63
580.17	45635.77
580.33	46454.95
580.49	46710.07
580.65	44332.09
580.82	45034.25
580.98	46298.14
581.14	46857.52
581.30	46548.57
581.46	45855.78
581.62	45759.81
581.78	46979.23
581.94	46382.40
582.10	47196.90
582.26	47173.50
582.42	47143.07
582.58	45296.39
582.74	45043.61
582.90	45366.60
583.06	45853.44
583.22	45766.84
583.38	46319.20
583.54	46443.25
583.70	46880.93
583.86	45813.65
584.02	45979.82
584.18	45755.13
584.34	44748.70
584.50	44690.19
584.66	44388.26
584.82	44942.97
584.98	45048.29
585.14	44264.21
585.30	44622.31
