SpectraSuite Data File
++++++++++++++++++++++++++++++++++++
Date: Mon Oct 07 14:53:50 GMT-05:00 2013
User: price-jones
Dark Spectrum Present: No
Reference Spectrum Present: No
Number of Sampled Component Spectra: 1
Spectrometers: USB2+H05261
Integration Time (usec): 100000 (USB2+H05261)
Spectra Averaged: 1 (USB2+H05261)
Boxcar Smoothing: 0 (USB2+H05261)
Correct for Electrical Dark: No (USB2+H05261)
Strobe/Lamp Enabled: No (USB2+H05261)
Correct for Detector Non-linearity: No (USB2+H05261)
Correct for Stray Light: No (USB2+H05261)
Number of Pixels in Processed Spectrum: 2048
>>>>>Begin Processed Spectral Data<<<<<
365.73	0.00
365.92	0.00
366.12	0.00
366.32	0.00
366.52	0.00
366.72	0.00
366.91	0.00
367.11	0.00
367.31	0.00
367.51	0.00
367.70	0.00
367.90	0.00
368.10	0.00
368.30	0.00
368.49	0.00
368.69	0.00
368.89	0.00
369.09	0.00
369.28	0.00
369.48	0.00
369.68	0.00
369.87	0.00
370.07	0.00
370.27	0.00
370.47	594.50
370.66	2991.20
370.86	3403.14
371.06	3716.77
371.25	3885.29
371.45	3487.40
371.65	3234.62
371.84	2995.89
372.04	3061.42
372.24	3524.85
372.44	3602.08
372.63	3548.25
372.83	3335.26
373.03	2902.26
373.22	2569.91
373.42	2832.05
373.62	3290.79
373.81	3751.88
374.01	3595.06
374.21	3229.94
374.40	2988.86
374.60	3094.19
374.79	3342.28
374.99	4119.34
375.19	4456.38
375.38	4421.27
375.58	3904.01
375.78	3971.89
375.97	4196.58
376.17	4212.96
376.37	4304.25
376.56	4461.06
376.76	4718.52
376.95	4940.87
377.15	5256.84
377.35	5535.37
377.54	5554.09
377.74	5715.59
377.93	6136.88
378.13	5659.42
378.33	5547.07
378.52	5104.71
378.72	4791.08
378.91	4622.56
379.11	4713.84
379.31	4423.61
379.50	4454.04
379.70	4877.68
379.89	5015.77
380.09	5584.52
380.28	5783.46
380.48	5703.89
380.68	5652.39
380.87	5535.37
381.07	5006.41
381.26	4671.71
381.46	4519.57
381.65	4395.53
381.85	4290.20
382.04	3974.23
382.24	3728.47
382.43	3473.36
382.63	3424.20
382.83	3510.80
383.02	3499.10
383.22	3538.89
383.41	3424.20
383.61	3810.39
383.80	4241.05
384.00	4833.21
384.19	5427.70
384.39	5853.68
384.58	5790.49
384.78	5558.77
384.97	5533.03
385.17	5359.83
385.36	4966.62
385.56	4805.12
385.75	4889.38
385.95	5322.38
386.14	5984.75
386.34	5963.68
386.53	5497.92
386.72	5322.38
386.92	5350.46
387.11	5795.17
387.31	5928.58
387.50	5970.71
387.70	5729.63
387.89	5624.31
388.09	5561.11
388.28	5488.56
388.48	5570.48
388.67	6162.63
388.86	6705.63
389.06	7258.00
389.25	7609.08
389.45	7721.43
389.64	7566.95
389.84	7550.57
390.03	7339.92
390.22	7346.94
390.42	7836.11
390.61	8180.17
390.81	8821.48
391.00	8858.93
391.19	8819.14
391.39	8594.45
391.58	8133.36
391.78	7445.24
391.97	7250.98
392.16	6729.04
392.36	6179.01
392.55	5041.51
392.75	4131.05
392.94	3251.00
393.13	3054.40
393.33	3791.67
393.52	4753.63
393.71	5877.09
393.91	6586.27
394.10	7222.89
394.29	8210.60
394.49	8613.17
394.68	9226.39
394.88	9179.58
395.07	9710.88
395.26	9572.79
395.46	9273.20
395.65	8777.01
395.84	7564.61
396.04	6480.94
396.23	5181.95
396.42	4423.61
396.62	4332.33
396.81	4802.78
397.00	6225.82
397.19	7756.54
397.39	9446.40
397.58	10377.94
397.77	11337.56
397.97	11370.32
398.16	11852.47
398.35	12123.98
398.55	12243.34
398.74	12945.50
398.93	13280.20
399.12	12959.55
399.32	12571.02
399.51	12989.97
399.70	13769.37
399.90	13752.99
400.09	13518.93
400.28	13366.80
400.47	13762.35
400.67	14097.05
400.86	14574.52
401.05	14497.28
401.24	14808.57
401.44	15187.74
401.63	14792.19
401.82	15019.22
402.01	15077.73
402.21	15178.37
402.40	15176.03
402.59	14855.38
402.78	14244.50
402.97	13855.97
403.17	14249.18
403.36	15000.49
403.55	15646.48
403.74	15929.69
403.93	15365.62
404.13	13867.67
404.32	13617.24
404.51	14394.29
404.70	15529.45
404.89	15501.37
405.09	15218.16
405.28	14853.04
405.47	14839.00
405.66	14958.36
405.85	14516.00
406.05	14033.85
406.24	14326.42
406.43	14803.89
406.62	15176.03
406.81	15653.50
407.00	14558.13
407.20	14602.60
407.39	14518.34
407.58	15323.49
407.77	15943.73
407.96	16425.88
408.15	16793.34
408.34	16755.90
408.54	17465.08
408.73	17460.40
408.92	17451.03
409.11	16776.96
409.30	16123.95
409.49	15190.08
409.68	14078.32
409.87	13755.33
410.07	14281.95
410.26	15508.39
410.45	16659.93
410.64	16999.31
410.83	17467.42
411.02	17935.53
411.21	18597.90
411.40	18272.56
411.59	18654.07
411.78	18249.16
411.98	18295.97
412.17	18808.54
412.36	18073.62
412.55	18225.75
412.74	17315.28
412.93	17401.88
413.12	17493.16
413.31	19351.55
413.50	19349.21
413.69	20034.99
413.88	19035.58
414.07	18314.69
414.26	19028.56
414.45	19410.06
414.64	19431.13
414.83	19513.05
415.02	19304.74
415.22	19218.14
415.41	19192.39
415.60	20175.42
415.79	20685.65
415.98	21198.23
416.17	21371.43
416.36	20868.22
416.55	20346.28
416.74	19833.70
416.93	18948.98
417.12	19176.01
417.31	19271.97
417.50	19702.63
417.69	20521.82
417.88	20357.98
418.07	20102.86
418.26	19948.39
418.45	19800.93
418.64	20662.25
418.83	21324.62
419.02	21111.63
419.21	21027.37
419.39	20152.01
419.58	18932.59
419.77	19061.32
419.96	19887.53
420.15	21027.37
420.34	21731.87
420.53	22485.53
420.72	23124.49
420.91	22546.38
421.10	22445.74
421.29	22532.34
421.48	21207.59
421.67	22277.22
421.86	22057.21
422.05	20503.09
422.24	18354.48
422.43	17975.31
422.61	19976.47
422.80	21338.66
422.99	22214.02
423.18	21095.25
423.37	20774.60
423.56	20430.54
423.75	20954.82
423.94	21305.90
424.13	20135.63
424.32	20503.09
424.50	20671.61
424.69	20360.32
424.88	20531.18
425.07	20180.10
425.26	20402.45
425.45	20180.10
425.64	19225.16
425.83	19487.30
426.01	20936.09
426.20	21149.08
426.39	21207.59
426.58	19417.08
426.77	18307.67
426.96	17298.90
427.15	18293.63
427.33	19667.52
427.52	20421.17
427.71	20304.15
427.90	20168.40
428.09	20343.94
428.28	19683.91
428.46	19077.71
428.65	18862.38
428.84	19166.65
429.03	19461.55
429.22	18602.58
429.40	17528.27
429.59	15751.81
429.78	13788.10
429.97	14052.58
430.16	14218.75
430.34	14375.57
430.53	14232.80
430.72	14555.79
430.91	16114.59
431.10	18752.37
431.28	22249.13
431.47	24084.11
431.66	24634.14
431.85	22258.49
432.03	20540.54
432.22	19367.93
432.41	20285.42
432.60	22401.27
432.79	23374.93
432.97	24074.75
433.16	23524.72
433.35	21530.59
433.54	19136.22
433.72	18068.94
433.91	18555.77
434.10	20943.11
434.28	22345.09
434.47	23339.82
434.66	23396.00
434.85	22588.51
435.03	22354.46
435.22	23108.11
435.41	24915.00
435.59	24442.21
435.78	24592.01
435.97	25406.52
436.16	25497.80
436.34	25048.41
436.53	24755.85
436.72	24720.74
436.90	23520.04
437.09	22925.55
437.28	22955.97
437.46	23990.49
437.65	23608.98
437.84	22394.25
438.02	20327.55
438.21	19892.21
438.40	21252.06
438.58	22946.61
438.77	23782.18
438.96	24044.32
439.14	25153.74
439.33	25975.27
439.52	25788.02
439.70	25448.64
439.89	24886.92
440.08	23688.56
440.26	23922.62
440.45	24833.08
440.63	26654.02
440.82	27770.46
441.01	27445.12
441.19	27358.52
441.38	27688.54
441.57	28683.27
441.75	29291.80
441.94	29062.43
442.12	28650.50
442.31	29584.37
442.50	29488.41
442.68	29242.65
442.87	28994.56
443.05	28552.20
443.24	28587.30
443.43	29357.34
443.61	29668.63
443.80	30242.06
443.98	28446.87
444.17	28002.17
444.35	29804.38
444.54	30909.11
444.73	30389.52
444.91	28807.31
445.10	27761.09
445.28	26424.65
445.47	26302.94
445.65	26382.52
445.84	27136.17
446.02	27943.66
446.21	28807.31
446.39	28556.88
446.58	28781.57
446.77	29235.63
446.95	28929.02
447.14	30218.66
447.32	31517.65
447.51	30398.88
447.69	29125.63
447.88	28655.18
448.06	29287.12
448.25	29788.00
448.43	30368.45
448.62	29125.63
448.80	29427.56
448.99	29710.76
449.17	29986.94
449.36	29748.21
449.54	31264.88
449.73	31653.40
449.91	32161.30
450.10	33092.83
450.28	33256.67
450.46	32767.50
450.65	32954.74
450.83	32606.00
451.02	31934.27
451.20	31796.18
451.39	31718.94
451.57	31564.46
451.76	31583.19
451.94	31449.78
452.13	30988.69
452.31	29310.53
452.49	27960.04
452.68	28222.18
452.86	28467.94
453.05	29034.35
453.23	29965.88
453.42	30373.13
453.60	31363.18
453.78	31234.45
453.97	31000.40
454.15	31019.12
454.34	30183.55
454.52	30822.51
454.70	30022.05
454.89	30092.27
455.07	30670.38
455.26	30822.51
455.44	31812.56
455.62	32577.92
455.81	32767.50
455.99	32591.96
456.17	31864.05
456.36	32051.30
456.54	33308.16
456.73	32929.00
456.91	33944.79
457.09	33694.35
457.28	34621.20
457.46	33127.94
457.64	32687.92
457.83	31962.36
458.01	30859.96
458.19	31529.36
458.38	32128.53
458.56	33390.08
458.74	33291.78
458.93	32383.65
459.11	32362.59
459.29	32074.70
459.48	32397.70
459.66	32224.50
459.84	32481.95
460.03	32973.47
460.21	32999.21
460.39	33586.69
460.57	33570.30
460.76	33961.17
460.94	33930.75
461.12	33560.94
461.31	33909.68
461.49	33677.97
461.67	33855.85
461.85	35000.37
462.04	34450.35
462.22	34726.53
462.40	34763.98
462.59	34433.96
462.77	34558.01
462.95	34492.47
463.13	33979.90
463.32	33876.91
463.50	33338.59
463.68	33532.86
463.86	33876.91
464.05	33408.81
464.23	32318.12
464.41	32374.29
464.59	31789.16
464.78	33479.02
464.96	33319.87
465.14	32940.70
465.32	33975.22
465.50	34700.78
465.69	35136.12
465.87	34162.46
466.05	33450.94
466.23	31850.01
466.41	30890.39
466.60	31934.27
466.78	32053.64
466.96	32725.37
467.14	32931.34
467.32	33809.04
467.51	33837.12
467.69	32336.84
467.87	32531.11
468.05	33610.09
468.23	33411.15
468.41	33572.64
468.60	33422.85
468.78	33792.65
468.96	33041.34
469.14	34359.06
469.32	34403.53
469.50	32830.69
469.69	33394.76
469.87	32748.78
470.05	31908.52
470.23	32259.60
470.41	32891.55
470.59	32758.14
470.77	32959.42
470.95	33532.86
471.14	34244.38
471.32	33958.83
471.50	36336.82
471.68	36224.47
471.86	36428.10
472.04	36481.93
472.22	37139.62
472.40	34986.33
472.58	34780.36
472.77	34204.59
472.95	34864.62
473.13	35751.68
473.31	35072.93
473.49	34988.67
473.67	35828.92
473.85	35800.83
474.03	36968.76
474.21	36613.00
474.39	37495.38
474.57	37750.50
474.75	37635.81
474.93	37727.10
475.12	36451.50
475.30	36385.97
475.48	36432.78
475.66	37268.35
475.84	36278.30
476.02	36601.30
476.20	35505.93
476.38	36708.96
476.56	37275.37
476.74	38232.65
476.92	38361.38
477.10	38693.74
477.28	39690.80
477.46	39674.42
477.64	40638.72
477.82	40774.47
478.00	40673.83
478.18	40428.07
478.36	40088.70
478.54	39803.15
478.72	40062.95
478.90	41099.81
479.08	42150.71
479.26	42328.59
479.44	42464.34
479.62	42405.83
479.80	42361.36
479.98	42141.35
480.16	43194.59
480.34	42667.97
480.52	42508.81
480.70	43012.02
480.88	43016.71
481.06	43646.31
481.24	43943.56
481.41	44868.07
481.59	45670.87
481.77	45373.63
481.95	44603.59
482.13	44395.28
482.31	44516.99
482.49	45673.21
482.67	44737.00
482.85	45214.47
483.03	45790.24
483.21	46244.30
483.39	46094.51
483.57	45207.45
483.74	45230.85
483.92	45640.45
484.10	45446.18
484.28	46597.73
484.46	47058.81
484.64	47531.60
484.82	46370.69
485.00	46244.30
485.18	45226.17
485.35	44259.53
485.53	41106.83
485.71	37174.73
485.89	36697.26
486.07	38515.86
486.25	42239.65
486.43	44395.28
486.61	45062.33
486.78	44720.62
486.96	45013.18
487.14	47033.07
487.32	47744.59
487.50	48390.58
487.68	49453.18
487.85	50145.98
488.03	50047.68
488.21	49635.74
488.39	48928.90
488.57	48247.80
488.75	47583.09
488.92	49251.89
489.10	51412.21
489.28	52540.35
489.46	53214.42
489.64	53090.37
489.81	53294.00
489.99	53258.89
490.17	53015.47
490.35	53385.28
490.53	52725.25
490.70	52577.79
490.88	52184.58
491.06	53162.93
491.24	53106.76
491.41	52608.22
491.59	50511.10
491.77	49846.39
491.95	50791.97
492.13	52317.99
492.30	53118.46
492.48	54199.79
492.66	54698.32
492.84	54852.80
493.01	54337.88
493.19	53790.19
493.37	53499.97
493.54	53427.41
493.72	53918.92
493.90	54864.50
494.08	55711.77
494.25	56009.02
494.43	56296.91
494.61	56523.94
494.79	56516.92
494.96	56470.11
495.14	55941.14
495.32	54892.58
495.49	53989.14
495.67	55285.79
495.85	56619.90
496.02	57041.20
496.20	56868.00
496.38	56465.42
496.55	56200.94
496.73	56875.02
496.91	56662.03
497.09	57567.82
497.26	57755.06
497.44	57006.09
497.62	56488.83
497.79	55758.58
497.97	54436.18
498.14	54688.96
498.32	56048.81
498.50	56825.87
498.67	57223.76
498.85	57310.36
499.03	57308.02
499.20	57485.90
499.38	57623.99
499.56	57190.99
499.73	57064.60
499.91	56467.76
500.08	56081.58
500.26	55304.52
500.44	55763.26
500.61	56636.28
500.79	56144.77
500.97	55833.48
501.14	55758.58
501.32	55686.03
501.49	55559.64
501.67	56030.08
501.84	56545.00
502.02	56849.27
502.20	56767.35
502.37	56886.72
502.55	57085.67
502.72	57616.97
502.90	57883.79
503.07	57818.25
503.25	57579.52
503.43	56498.19
503.60	55999.66
503.78	55248.35
503.95	55711.77
504.13	56982.68
504.30	57750.38
504.48	57628.67
504.65	57258.87
504.83	57577.18
505.01	57886.13
505.18	58230.19
505.36	58927.67
505.53	58927.67
505.71	59126.61
505.88	59318.54
506.06	58522.76
506.23	58293.38
506.41	57928.26
506.58	57946.98
506.76	58136.57
506.93	58134.23
507.11	57799.53
507.28	58033.58
507.46	57506.96
507.63	57088.01
507.81	56891.40
507.98	57006.09
508.16	57553.77
508.33	58485.31
508.50	58604.67
508.68	58801.28
508.85	59124.27
509.03	59220.23
509.20	59037.67
509.38	58424.45
509.55	57815.91
509.73	57860.38
509.90	58274.66
510.08	58574.25
510.25	58466.58
510.42	58188.06
510.60	58326.15
510.77	58686.59
510.95	58925.33
511.12	59309.18
511.30	59341.94
511.47	59760.90
511.64	59686.00
511.82	59437.90
511.99	58485.31
512.17	58178.70
512.34	57675.48
512.51	57958.69
512.69	58143.59
512.86	58115.50
513.04	58796.60
513.21	58768.51
513.38	58232.53
513.56	57930.60
513.73	57336.10
513.90	57549.09
514.08	57368.87
514.25	57869.75
514.43	58066.35
514.60	58049.97
514.77	58319.13
514.95	58314.45
515.12	58045.29
515.29	58314.45
515.47	58796.60
515.64	59030.65
515.81	58560.20
515.99	58197.42
516.16	57109.07
516.33	54527.46
516.51	52760.36
516.68	52374.17
516.85	51557.32
517.03	52210.33
517.20	54845.77
517.37	57286.95
517.54	58370.62
517.72	57853.36
517.89	55435.59
518.06	53141.86
518.24	53289.32
518.41	55554.96
518.58	56762.67
518.75	57092.69
518.93	57357.17
519.10	57198.01
519.27	57602.92
519.45	57806.55
519.62	58494.67
519.79	58752.13
519.96	58726.38
520.14	57984.43
520.31	57509.30
520.48	57352.49
520.65	57755.06
520.83	58667.87
521.00	59009.59
521.17	58450.20
521.34	58078.05
521.52	58337.85
521.69	59103.21
521.86	59519.82
522.03	59208.53
522.20	58131.89
522.38	56858.63
522.55	56945.23
522.72	57427.38
522.89	57790.17
523.07	57954.00
523.24	58267.64
523.41	59044.69
523.58	59381.73
523.75	59842.82
523.92	59629.83
524.10	59667.28
524.27	59693.02
524.44	59442.59
524.61	59257.68
524.78	59000.22
524.96	58972.14
525.13	58965.12
525.30	59271.73
525.47	59667.28
525.64	59606.42
525.81	58787.24
525.98	57614.63
526.16	56165.84
526.33	55320.90
526.50	55229.62
526.67	54588.31
526.84	55154.72
527.01	56294.56
527.18	57188.65
527.36	58010.18
527.53	58733.40
527.70	58866.81
527.87	58672.55
528.04	58159.97
528.21	58581.27
528.38	59138.32
528.55	59611.10
528.72	60203.26
528.89	60203.26
529.07	59831.11
529.24	59316.20
529.41	58576.59
529.58	58045.29
529.75	58096.78
529.92	58670.21
530.09	59070.44
530.26	59606.42
530.43	59714.09
530.60	59559.61
530.77	60044.10
530.94	60055.81
531.11	59737.49
531.28	59157.04
531.46	59112.57
531.63	59072.78
531.80	59035.33
531.97	58789.58
532.14	57963.37
532.31	57179.29
532.48	56523.94
532.65	56395.21
532.82	57441.43
532.99	58314.45
533.16	58810.64
533.33	59187.47
533.50	59042.35
533.67	58480.63
533.84	57956.35
534.01	58052.31
534.18	58412.75
534.35	58595.31
534.52	58417.43
534.69	58686.59
534.86	58845.75
535.03	59154.70
535.20	59573.66
535.37	60088.57
535.54	60095.60
535.71	59894.31
535.88	59344.28
536.05	58691.27
536.22	58197.42
536.38	58075.71
536.55	57406.32
536.72	57064.60
536.89	57010.77
537.06	57787.83
537.23	58698.30
537.40	58791.92
537.57	58876.18
537.74	58710.00
537.91	58679.57
538.08	58391.68
538.25	58464.24
538.42	58728.72
538.59	58649.14
538.75	58021.88
538.92	57867.40
539.09	57876.77
539.26	57347.81
539.43	57399.30
539.60	57319.72
539.77	57509.30
539.94	57549.09
540.11	56369.46
540.28	56158.81
540.44	56317.97
540.61	56633.94
540.78	56856.29
540.95	57111.41
541.12	57518.67
541.29	57799.53
541.46	58326.15
541.62	58012.52
541.79	58071.03
541.96	57352.49
542.13	57474.20
542.30	57609.95
542.47	57689.52
542.63	57565.48
542.80	57305.68
542.97	57542.07
543.14	57083.33
543.31	57427.38
543.48	57895.49
543.64	58775.53
543.81	59030.65
543.98	58848.09
544.15	57907.19
544.32	57291.63
544.48	57577.18
544.65	58066.35
544.82	58365.94
544.99	58038.26
545.16	57745.70
545.32	57298.65
545.49	58349.56
545.66	58607.01
545.83	58174.02
546.00	57975.07
546.16	57621.65
546.33	57574.84
546.50	57668.46
546.67	58138.91
546.83	57701.23
547.00	57748.04
547.17	57118.43
547.34	56467.76
547.50	56254.78
547.67	56999.07
547.84	56781.40
548.00	57392.28
548.17	57635.69
548.34	57455.47
548.51	57476.54
548.67	57453.13
548.84	57645.05
549.01	57364.19
549.18	57420.36
549.34	57275.25
549.51	57628.67
549.68	57443.77
549.84	57066.94
550.01	57102.05
550.18	56931.19
550.34	57116.09
550.51	57310.36
550.68	57207.37
550.84	56779.06
551.01	56760.33
551.18	56568.41
551.34	57034.17
551.51	57378.23
551.68	57649.74
551.84	57602.92
552.01	57553.77
552.18	57378.23
552.34	56488.83
552.51	56163.50
552.68	55959.87
552.84	56624.58
553.01	56676.07
553.18	56694.80
553.34	56928.85
553.51	56940.55
553.67	57272.91
553.84	57275.25
554.01	57198.01
554.17	56921.83
554.34	57130.14
554.51	57034.17
554.67	57282.27
554.84	57293.97
555.00	56917.15
555.17	56715.86
555.33	56605.86
555.50	56530.96
555.67	56598.83
555.83	56474.79
556.00	56179.88
556.16	56289.88
556.33	56074.55
556.50	55686.03
556.66	55613.47
556.83	55676.66
556.99	55592.40
557.16	55966.89
557.32	56172.86
557.49	56212.65
557.65	56165.84
557.82	56261.80
557.98	56044.13
558.15	55749.22
558.32	54817.69
558.48	53567.84
558.65	54138.93
558.81	54365.96
558.98	54630.44
559.14	54944.08
559.31	55150.04
559.47	55098.55
559.64	54768.54
559.80	54354.26
559.97	54422.14
560.13	54946.42
560.30	55721.13
560.46	56449.04
560.63	56444.36
560.79	56765.01
560.96	56020.72
561.12	54894.92
561.29	53991.48
561.45	54049.99
561.61	54635.13
561.78	55063.44
561.94	55171.11
562.11	54695.98
562.27	54803.64
562.44	55136.00
562.60	55388.78
562.77	55576.02
562.93	55533.89
563.10	55238.98
563.26	54923.01
563.42	55065.78
563.59	54396.39
563.75	54698.32
563.92	54815.35
564.08	54836.41
564.24	54873.86
564.41	54908.97
564.57	54857.48
564.74	54679.60
564.90	54417.46
565.07	54562.57
565.23	53993.82
565.39	53846.36
565.56	53329.11
565.72	53111.44
565.88	53593.59
566.05	53932.96
566.21	53659.12
566.38	53841.68
566.54	54103.82
566.70	54337.88
566.87	54731.09
567.03	54543.84
567.19	54789.60
567.36	54770.88
567.52	54253.62
567.68	54106.16
567.85	53432.09
568.01	53024.84
568.17	52615.24
568.34	52804.83
568.50	52526.30
568.66	52966.32
568.83	53258.89
568.99	53127.82
569.15	53518.69
569.32	53506.99
569.48	53191.01
569.64	53031.86
569.81	52720.57
569.97	52486.51
570.13	52566.09
570.30	51679.03
570.46	51751.59
570.62	51241.35
570.78	50766.22
570.95	51140.71
571.11	51695.41
571.27	52123.73
571.43	52456.09
571.60	52748.65
571.76	52772.06
571.92	53172.29
572.09	53015.47
572.25	53176.97
572.41	53315.06
572.57	52947.60
572.74	52982.71
572.90	52722.91
573.06	52481.83
573.22	52816.53
573.38	52940.58
573.55	52673.76
573.71	52851.64
573.87	52626.95
574.03	52664.39
574.20	52528.64
574.36	52081.60
574.52	51906.06
574.68	52004.36
574.84	51625.20
575.01	51297.52
575.17	50735.79
575.33	51014.32
575.49	51255.39
575.65	51583.07
575.82	51414.55
575.98	51065.81
576.14	51480.08
576.30	51835.84
576.46	51854.57
576.62	51554.98
576.79	51767.97
576.95	51243.69
577.11	51063.47
577.27	51255.39
577.43	51700.09
577.59	50990.91
577.75	50801.33
577.92	49794.90
578.08	49797.24
578.24	49668.51
578.40	50183.43
578.56	50541.53
578.72	50459.61
578.88	50595.36
579.04	50817.71
579.21	50974.53
579.37	50581.32
579.53	51192.20
579.69	50845.80
579.85	51246.03
580.01	50705.37
580.17	50328.54
580.33	50190.45
580.49	50522.80
580.65	50761.54
580.82	50862.18
580.98	50887.93
581.14	50581.32
581.30	50918.35
581.46	50597.70
581.62	51021.34
581.78	50916.01
581.94	51306.88
582.10	50562.59
582.26	51398.16
582.42	51100.92
582.58	51040.06
582.74	50934.74
582.90	50923.04
583.06	51201.56
583.22	50794.31
583.38	50731.11
583.54	50616.43
583.70	50588.34
583.86	50766.22
584.02	50602.38
584.18	51180.49
584.34	50494.72
584.50	50468.97
584.66	50246.62
584.82	49689.57
584.98	50005.55
585.14	49317.43
585.30	48252.48
