SpectraSuite Data File
++++++++++++++++++++++++++++++++++++
Date: Mon Oct 07 14:53:42 GMT-05:00 2013
User: price-jones
Dark Spectrum Present: No
Reference Spectrum Present: No
Number of Sampled Component Spectra: 1
Spectrometers: USB2+H05261
Integration Time (usec): 100000 (USB2+H05261)
Spectra Averaged: 1 (USB2+H05261)
Boxcar Smoothing: 0 (USB2+H05261)
Correct for Electrical Dark: No (USB2+H05261)
Strobe/Lamp Enabled: No (USB2+H05261)
Correct for Detector Non-linearity: No (USB2+H05261)
Correct for Stray Light: No (USB2+H05261)
Number of Pixels in Processed Spectrum: 2048
>>>>>Begin Processed Spectral Data<<<<<
365.73	0.00
365.92	0.00
366.12	0.00
366.32	0.00
366.52	0.00
366.72	0.00
366.91	0.00
367.11	0.00
367.31	0.00
367.51	0.00
367.70	0.00
367.90	0.00
368.10	0.00
368.30	0.00
368.49	0.00
368.69	0.00
368.89	0.00
369.09	0.00
369.28	0.00
369.48	0.00
369.68	0.00
369.87	0.00
370.07	0.00
370.27	0.00
370.47	690.46
370.66	3452.29
370.86	4035.08
371.06	4493.83
371.25	4404.89
371.45	3983.59
371.65	3702.73
371.84	3302.50
372.04	3508.46
372.24	3889.97
372.44	4117.00
372.63	3983.59
372.83	3857.20
373.03	3286.11
373.22	3042.70
373.42	3201.85
373.62	3747.20
373.81	4079.55
374.01	4131.05
374.21	3737.84
374.40	3379.73
374.60	3609.11
374.79	4072.53
374.99	4617.88
375.19	4950.23
375.38	4964.28
375.58	4564.04
375.78	4676.39
375.97	4720.86
376.17	4905.76
376.37	4922.15
376.56	5057.90
376.76	5289.61
376.95	5746.02
377.15	5926.24
377.35	6136.88
377.54	6487.96
377.74	6707.98
377.93	6752.45
378.13	6546.48
378.33	6207.10
378.52	5668.78
378.72	5425.36
378.91	5467.49
379.11	5177.26
379.31	5013.43
379.50	5018.11
379.70	5444.09
379.89	5949.64
380.09	6436.47
380.28	6640.10
380.48	6555.84
380.68	6459.88
380.87	6333.49
381.07	5790.49
381.26	5376.21
381.46	5128.11
381.65	4882.36
381.85	4828.53
382.04	4496.17
382.24	4217.65
382.43	3978.91
382.63	3838.48
382.83	4074.87
383.02	3920.40
383.22	3941.46
383.41	3882.95
383.61	4292.54
383.80	4915.12
384.00	5383.23
384.19	6253.91
384.39	6502.01
384.58	6527.75
384.78	6373.28
384.97	6317.11
385.17	6087.73
385.36	5879.43
385.56	5610.26
385.75	5528.35
385.95	5975.39
386.14	6686.91
386.34	6682.23
386.53	6494.99
386.72	6031.56
386.92	6307.74
387.11	6370.94
387.31	6682.23
387.50	6544.14
387.70	6513.71
387.89	6354.55
388.09	6464.56
388.28	6377.96
388.48	6373.28
388.67	6876.49
388.86	7597.38
389.06	8386.14
389.25	8545.30
389.45	8718.50
389.64	8702.11
389.84	8730.20
390.03	8650.62
390.22	8468.06
390.42	8978.30
390.61	9205.33
390.81	9902.81
391.00	10214.10
391.19	10101.75
391.39	9778.76
391.58	9210.01
391.78	8578.06
391.97	8383.80
392.16	7805.69
392.36	7119.91
392.55	5900.49
392.75	4697.46
392.94	3801.03
393.13	3707.41
393.33	4238.71
393.52	5593.88
393.71	6799.26
393.91	7721.43
394.10	8264.43
394.29	9104.68
394.49	9858.34
394.68	10806.25
394.88	10801.57
395.07	11110.52
395.26	11059.03
395.46	10738.38
395.65	10017.49
395.84	8947.87
396.04	7513.12
396.23	5907.51
396.42	5135.14
396.62	4809.80
396.81	5582.18
397.00	6888.20
397.19	8919.78
397.39	10766.46
397.58	12053.76
397.77	12999.34
397.97	13404.25
398.16	13390.20
398.35	13802.14
398.55	14691.54
398.74	14831.97
398.93	15309.44
399.12	14869.42
399.32	14445.79
399.51	14817.93
399.70	15838.41
399.90	15522.43
400.09	15775.21
400.28	15545.84
400.47	15630.10
400.67	16510.14
400.86	16751.21
401.05	16652.91
401.24	16938.46
401.44	17160.81
401.63	17128.04
401.82	17514.23
402.01	17135.06
402.21	17338.69
402.40	17324.65
402.59	16975.91
402.78	16428.22
402.97	15988.20
403.17	16332.26
403.36	17366.78
403.55	18122.77
403.74	18441.08
403.93	17619.55
404.13	16091.18
404.32	15889.90
404.51	16498.44
404.70	17951.91
404.89	17790.41
405.09	17341.03
405.28	17067.19
405.47	17128.04
405.66	17160.81
405.85	16521.84
406.05	16056.08
406.24	16287.79
406.43	16872.92
406.62	17610.19
406.81	17846.58
407.00	17160.81
407.20	16978.25
407.39	16856.54
407.58	17776.37
407.77	18281.92
407.96	19016.85
408.15	19192.39
408.34	19389.00
408.54	20100.52
408.73	19936.68
408.92	19847.74
409.11	19592.62
409.30	18684.50
409.49	17326.99
409.68	16159.06
409.87	15817.34
410.07	16802.71
410.26	18265.54
410.45	19229.84
410.64	19798.59
410.83	20306.49
411.02	20599.05
411.21	21441.65
411.40	21453.35
411.59	21163.12
411.78	21216.96
411.98	21099.93
412.17	21184.19
412.36	21032.05
412.55	21413.56
412.74	20709.06
412.93	20233.93
413.12	20446.92
413.31	21816.13
413.50	22340.41
413.69	22761.71
413.88	22120.40
414.07	21525.91
414.26	21453.35
414.45	22370.84
414.64	22759.37
414.83	22731.28
415.02	22253.81
415.22	22047.85
415.41	22654.05
415.60	22916.19
415.79	24240.93
415.98	24676.27
416.17	24720.74
416.36	24325.19
416.55	23700.26
416.74	23108.11
416.93	22349.78
417.12	21898.05
417.31	22801.50
417.50	23096.41
417.69	23627.71
417.88	23695.58
418.07	23091.73
418.26	22960.66
418.45	23307.05
418.64	23969.43
418.83	24826.06
419.02	24535.84
419.21	24664.57
419.39	23367.91
419.58	22340.41
419.77	22284.24
419.96	23784.52
420.15	24709.04
420.34	25336.30
420.53	26216.34
420.72	26824.88
420.91	26412.95
421.10	26001.01
421.29	26008.03
421.48	25275.45
421.67	26387.20
421.86	25553.97
422.05	24011.56
422.24	21472.07
422.43	21003.97
422.61	22918.53
422.80	25411.20
422.99	25425.24
423.18	24435.19
423.37	24224.54
423.56	23616.01
423.75	24318.17
423.94	24985.22
424.13	23295.35
424.32	24004.53
424.50	23779.84
424.69	23627.71
424.88	23812.61
425.07	23590.26
425.26	23304.71
425.45	23545.79
425.64	22661.07
425.83	22897.46
426.01	24292.42
426.20	24547.54
426.39	24786.27
426.58	22944.27
426.77	21142.06
426.96	20294.79
427.15	21001.63
427.33	22979.38
427.52	23917.93
427.71	24147.31
427.90	23789.20
428.09	23805.59
428.28	22944.27
428.46	22607.23
428.65	21766.98
428.84	22169.55
429.03	22766.39
429.22	21411.22
429.40	20491.39
429.59	18754.71
429.78	16315.87
429.97	16423.54
430.16	16786.32
430.34	16835.47
430.53	16753.55
430.72	17193.58
430.91	18740.67
431.10	22066.57
431.28	26293.58
431.47	28299.42
431.66	28662.20
431.85	25949.52
432.03	23903.89
432.22	22787.46
432.41	23852.40
432.60	26471.46
432.79	27414.69
432.97	28327.50
433.16	27730.67
433.35	25184.16
433.54	22647.02
433.72	21069.50
433.91	21610.17
434.10	24339.23
434.28	26192.94
434.47	27424.06
434.66	27435.76
434.85	26419.97
435.03	26429.33
435.22	27054.25
435.41	28467.94
435.59	28758.16
435.78	29106.90
435.97	29888.64
436.16	30099.29
436.34	29364.36
436.53	29170.10
436.72	28912.64
436.90	27353.84
437.09	27768.12
437.28	26857.65
437.46	27889.82
437.65	27777.48
437.84	25947.18
438.02	23702.61
438.21	23447.49
438.40	24875.21
438.58	27213.41
438.77	27655.77
438.96	28144.94
439.14	29280.10
439.33	29928.43
439.52	30572.08
439.70	29914.39
439.89	29008.60
440.08	28203.46
440.26	27908.55
440.45	29263.72
440.63	31372.54
440.82	32327.48
441.01	32306.41
441.19	31782.13
441.38	32278.33
441.57	33699.03
441.75	34235.02
441.94	34286.51
442.12	33717.76
442.31	34618.86
442.50	34274.80
442.68	33949.47
442.87	33479.02
443.05	33324.55
443.24	33823.08
443.43	34424.60
443.61	35185.27
443.80	35878.07
443.98	33642.86
444.17	33617.11
444.35	35321.02
444.54	35625.29
444.73	35534.01
444.91	34103.95
445.10	32725.37
445.28	31328.07
445.47	31072.95
445.65	31040.18
445.84	31927.25
446.02	32800.27
446.21	34057.14
446.39	33816.06
446.58	34185.86
446.77	34380.13
446.95	34642.27
447.14	35840.62
447.32	36341.50
447.51	35892.12
447.69	34492.47
447.88	33811.38
448.06	34813.13
448.25	35318.68
448.43	35744.66
448.62	34976.97
448.80	34405.88
448.99	34827.17
449.17	35199.32
449.36	34986.33
449.54	36652.79
449.73	37090.47
449.91	37567.94
450.10	38293.50
450.28	38897.36
450.46	38529.90
450.65	38443.30
450.83	38043.07
451.02	37343.25
451.20	37556.24
451.39	37621.77
451.57	36898.55
451.76	37261.33
451.94	37228.56
452.13	36002.12
452.31	34616.52
452.49	33350.29
452.68	33610.09
452.86	33825.42
453.05	34036.07
453.23	35332.73
453.42	35990.42
453.60	37008.55
453.78	37230.90
453.97	36194.04
454.15	36601.30
454.34	35924.88
454.52	36170.64
454.70	35412.31
454.89	35576.14
455.07	35882.75
455.26	36488.95
455.44	37780.93
455.62	38611.82
455.81	38455.00
455.99	38272.44
456.17	38129.67
456.36	38157.75
456.54	39267.17
456.73	39189.93
456.91	39433.35
457.09	39833.58
457.28	40514.67
457.46	39206.31
457.64	38920.77
457.83	37668.58
458.01	37013.23
458.19	37551.56
458.38	37977.53
458.56	39400.58
458.74	39100.99
458.93	38143.71
459.11	38281.80
459.29	37837.10
459.48	38286.48
459.66	38108.60
459.84	38670.33
460.03	39077.58
460.21	39000.35
460.39	39793.79
460.57	39880.39
460.76	40123.80
460.94	40109.76
461.12	39913.16
461.31	40002.10
461.49	40254.87
461.67	39854.64
461.85	41057.68
462.04	40776.81
462.22	40966.40
462.40	41048.32
462.59	40662.13
462.77	40781.49
462.95	41083.42
463.13	40481.91
463.32	40212.74
463.50	39793.79
463.68	39597.18
463.86	40079.33
464.05	39313.98
464.23	38513.52
464.41	38312.23
464.59	37258.99
464.78	39810.17
464.96	39208.65
465.14	39346.75
465.32	39943.58
465.50	41174.70
465.69	41450.89
465.87	40542.76
466.05	39613.57
466.23	38019.66
466.41	36584.91
466.60	37734.12
466.78	38113.28
466.96	38930.13
467.14	39154.82
467.32	39793.79
467.51	40004.44
467.69	38251.38
467.87	38677.35
468.05	39592.50
468.23	39562.08
468.41	39487.18
468.60	39491.86
468.78	40105.08
468.96	39484.84
469.14	40467.86
469.32	40605.95
469.50	38490.11
469.69	38953.54
469.87	38665.65
470.05	38340.32
470.23	38291.16
470.41	38639.90
470.59	39009.71
470.77	39246.10
470.95	40149.55
471.14	40395.31
471.32	40212.74
471.50	42323.91
471.68	42646.90
471.86	42777.97
472.04	42934.79
472.22	43187.56
472.40	41811.33
472.58	41132.57
472.77	40966.40
472.95	41167.68
473.13	42326.25
473.31	41322.16
473.49	41897.93
473.67	42150.71
473.85	42518.17
474.03	43653.33
474.21	43765.68
474.39	44493.58
474.57	44355.49
474.75	43957.60
474.93	43992.71
475.12	43414.60
475.30	43353.74
475.48	43100.97
475.66	43789.08
475.84	43536.30
476.02	42707.76
476.20	42279.44
476.38	42909.04
476.56	44348.47
476.74	44746.36
476.92	44985.10
477.10	45661.51
477.28	46607.09
477.46	46719.43
477.64	47437.98
477.82	47501.17
478.00	47744.59
478.18	47138.39
478.36	46941.78
478.54	47100.94
478.72	47096.26
478.90	48254.82
479.08	49022.52
479.26	49841.71
479.44	49626.38
479.62	48875.07
479.80	49495.31
479.98	49338.49
480.16	49340.83
480.34	49088.06
480.52	49780.85
480.70	49593.61
480.88	49869.79
481.06	50368.33
481.24	50733.45
481.41	51646.26
481.59	51955.21
481.77	51702.43
481.95	51306.88
482.13	51140.71
482.31	51377.10
482.49	51793.71
482.67	51821.80
482.85	51917.76
483.03	52315.65
483.21	52701.84
483.39	52610.56
483.57	52264.16
483.74	51662.64
483.92	51838.18
484.10	52079.26
484.28	52896.11
484.46	53160.59
484.64	53516.35
484.82	52889.09
485.00	52559.07
485.18	51772.65
485.35	50813.03
485.53	47842.89
485.71	44273.57
485.89	43835.89
486.07	45895.56
486.25	48858.68
486.43	51187.52
486.61	51807.76
486.78	51536.26
486.96	51798.40
487.14	53055.26
487.32	53862.75
487.50	54637.47
487.68	55194.51
487.85	55538.57
488.03	55760.92
488.21	55341.97
488.39	54817.69
488.57	54443.20
488.75	53942.33
488.92	55011.95
489.10	56687.78
489.28	57724.63
489.46	58480.63
489.64	58234.87
489.81	58305.09
489.99	57949.32
490.17	58017.20
490.35	58319.13
490.53	57972.73
490.70	57609.95
490.88	57340.78
491.06	58286.36
491.24	58499.35
491.41	57635.69
491.59	56144.77
491.77	55545.59
491.95	56205.62
492.13	57326.74
492.30	58337.85
492.48	59103.21
492.66	59540.89
492.84	59704.73
493.01	59407.48
493.19	58714.68
493.37	58623.40
493.54	58298.06
493.72	58777.87
493.90	59751.54
494.08	60470.08
494.25	60727.54
494.43	60640.94
494.61	61127.77
494.79	61265.86
494.96	60884.36
495.14	60397.52
495.32	59681.32
495.49	59063.42
495.67	60133.04
495.85	61256.50
496.02	61551.41
496.20	61432.04
496.38	61102.03
496.55	60858.61
496.73	61228.41
496.91	61389.91
497.09	61951.64
497.26	62026.54
497.44	61593.54
497.62	61385.23
497.79	60477.10
497.97	59412.16
498.14	59686.00
498.32	60514.55
498.50	61366.51
498.67	61855.68
498.85	61581.84
499.03	61766.74
499.20	62134.20
499.38	62103.77
499.56	62054.62
499.73	61588.86
499.91	61010.74
500.08	60851.59
500.26	60027.72
500.44	60327.31
500.61	61165.22
500.79	60982.66
500.97	60757.97
501.14	60514.55
501.32	60392.84
501.49	60254.75
501.67	60633.92
501.84	61095.00
502.02	61263.52
502.20	61755.03
502.37	61806.53
502.55	61612.26
502.72	62202.08
502.90	62752.10
503.07	62487.62
503.25	61963.34
503.43	61202.67
503.60	60643.28
503.78	60032.40
503.95	60392.84
504.13	61869.72
504.30	62585.92
504.48	62557.84
504.65	62049.94
504.83	61944.62
505.01	62496.98
505.18	62841.04
505.36	63484.69
505.53	63653.21
505.71	63585.33
505.88	63604.06
506.06	63131.27
506.23	62787.21
506.41	62606.99
506.58	62501.67
506.76	62616.35
506.93	62674.87
507.11	62379.96
507.28	62567.20
507.46	62344.85
507.63	61881.42
507.81	61502.26
507.98	61769.08
508.16	62363.57
508.33	62738.06
508.50	63339.58
508.68	63437.88
508.85	63770.24
509.03	63779.60
509.20	63721.08
509.38	63178.08
509.55	62440.81
509.73	62450.17
509.90	62827.00
510.08	63206.17
510.25	63049.35
510.42	62983.82
510.60	62894.88
510.77	62953.39
510.95	63377.03
511.12	63774.92
511.30	63810.03
511.47	64090.89
511.64	64123.66
511.82	63884.92
511.99	63138.29
512.17	62822.32
512.34	62419.75
512.51	62695.93
512.69	62475.92
512.86	62724.02
513.04	63346.60
513.21	63267.02
513.38	62815.30
513.56	62478.26
513.73	61738.65
513.90	62089.73
514.08	62115.48
514.25	62489.96
514.43	62482.94
514.60	62848.06
514.77	62876.15
514.95	62852.75
515.12	62906.58
515.29	63084.46
515.47	63529.16
515.64	63664.91
515.81	63451.92
515.99	62920.62
516.16	61612.26
516.33	59526.84
516.51	58293.38
516.68	57743.36
516.85	57427.38
517.03	57771.44
517.20	59751.54
517.37	62014.83
517.54	63025.95
517.72	62583.58
517.89	60453.70
518.06	58316.79
518.24	58618.72
518.41	60350.71
518.58	61776.10
518.75	61680.14
518.93	62000.79
519.10	61848.66
519.27	62248.89
519.45	62321.44
519.62	63093.82
519.79	63538.52
519.96	63227.23
520.14	62983.82
520.31	61946.96
520.48	62106.12
520.65	62628.05
520.83	63332.56
521.00	63763.21
521.17	63283.40
521.34	62997.86
521.52	63229.57
521.69	63781.94
521.86	64228.98
522.03	63728.11
522.20	63023.61
522.38	61879.08
522.55	61759.72
522.72	62351.87
522.89	62518.05
523.07	62667.84
523.24	63042.33
523.41	63742.15
523.58	63997.27
523.75	64320.26
523.92	64271.11
524.10	64067.48
524.27	64221.96
524.44	64011.31
524.61	63849.81
524.78	63852.15
524.96	63671.93
525.13	63807.68
525.30	63873.22
525.47	64416.22
525.64	64243.02
525.81	63592.36
525.98	62382.30
526.16	60982.66
526.33	60371.78
526.50	60191.56
526.67	59601.74
526.84	60348.37
527.01	61228.41
527.18	61876.74
527.36	62838.70
527.53	63538.52
527.70	63833.43
527.87	63325.53
528.04	62995.52
528.21	63234.25
528.38	63681.30
528.55	64472.40
528.72	64713.47
528.89	64870.29
529.07	64566.02
529.24	64037.06
529.41	63159.36
529.58	62770.83
529.75	63070.42
529.92	63372.34
530.09	63753.85
530.26	64090.89
530.43	64266.43
530.60	64591.76
530.77	64680.70
530.94	64645.60
531.11	64343.67
531.28	63854.50
531.46	63648.53
531.63	63835.77
531.80	63781.94
531.97	63545.54
532.14	62770.83
532.31	61914.19
532.48	61317.35
532.65	61254.16
532.82	62061.64
532.99	63133.61
533.16	63456.60
533.33	64093.23
533.50	63800.66
533.67	63341.92
533.84	62808.28
534.01	62990.84
534.18	63423.84
534.35	63238.93
534.52	63318.51
534.69	63224.89
534.86	63854.50
535.03	63891.94
535.20	64392.82
535.37	64652.62
535.54	64694.75
535.71	64446.65
535.88	64140.04
536.05	63749.17
536.22	63285.75
536.38	62883.17
536.55	62539.11
536.72	62045.26
536.89	61977.39
537.06	62735.72
537.23	63461.29
537.40	63671.93
537.57	63730.45
537.74	63454.26
537.91	63414.47
538.08	63229.57
538.25	63220.21
538.42	63725.77
538.59	63538.52
538.75	62960.41
538.92	62670.18
539.09	62569.54
539.26	62410.38
539.43	62166.97
539.60	62155.27
539.77	62496.98
539.94	62438.47
540.11	61619.28
540.28	61317.35
540.44	61326.72
540.61	61406.30
540.78	61612.26
540.95	62232.50
541.12	62553.16
541.29	62639.76
541.46	62745.08
541.62	63056.37
541.79	62782.53
541.96	62340.17
542.13	62258.25
542.30	62679.55
542.47	62791.89
542.63	62621.03
542.80	62321.44
542.97	62447.83
543.14	62356.55
543.31	62300.38
543.48	62812.96
543.64	63405.11
543.81	63824.07
543.98	63519.80
544.15	62969.77
544.32	62328.47
544.48	62597.63
544.65	63007.22
544.82	63365.32
544.99	62871.47
545.16	62880.83
545.32	62351.87
545.49	63063.39
545.66	63608.74
545.83	63047.01
546.00	62951.05
546.16	62386.98
546.33	62518.05
546.50	62623.37
546.67	63042.33
546.83	62679.55
547.00	62592.95
547.17	62087.39
547.34	61614.60
547.50	61614.60
547.67	61865.04
547.84	62019.52
548.00	62281.66
548.17	62632.74
548.34	62440.81
548.51	62602.31
548.67	62548.48
548.84	62698.27
549.01	62536.77
549.18	62557.84
549.34	62394.00
549.51	62583.58
549.68	62513.37
549.84	62323.78
550.01	62092.07
550.18	62054.62
550.34	62103.77
550.51	62145.90
550.68	62384.64
550.84	61886.10
551.01	62059.30
551.18	61853.34
551.34	61949.30
551.51	62415.07
551.68	62681.89
551.84	62583.58
552.01	62578.90
552.18	62424.43
552.34	61694.18
552.51	61247.14
552.68	61432.04
552.84	61834.61
553.01	62035.90
553.18	61797.16
553.34	61848.66
553.51	61970.36
553.67	62281.66
553.84	62433.79
554.01	62398.68
554.17	62071.01
554.34	62052.28
554.51	62288.68
554.67	62489.96
554.84	62426.77
555.00	62127.18
555.17	62019.52
555.33	61808.87
555.50	61902.49
555.67	61949.30
555.83	61724.61
556.00	61450.77
556.16	61518.64
556.33	60949.89
556.50	60849.25
556.66	60926.49
556.83	60563.70
556.99	60952.23
557.16	60926.49
557.32	61230.75
557.49	61434.38
557.65	61389.91
557.82	61385.23
557.98	61214.37
558.15	60893.72
558.32	60046.44
558.48	59227.26
558.65	59458.97
558.81	60016.02
558.98	60147.09
559.14	60261.77
559.31	60416.25
559.47	60533.28
559.64	60151.77
559.80	59952.82
559.97	60065.17
560.13	60324.97
560.30	60982.66
560.46	61539.71
560.63	61743.33
560.79	61673.12
560.96	61300.97
561.12	60395.18
561.29	59749.20
561.45	59643.87
561.61	60025.38
561.78	60573.06
561.94	60423.27
562.11	60207.94
562.27	60034.74
562.44	60383.48
562.60	60697.11
562.77	60963.93
562.93	60968.61
563.10	60807.12
563.26	60425.61
563.42	60343.69
563.59	59964.52
563.75	60247.73
563.92	60257.09
564.08	59922.40
564.24	60397.52
564.41	60563.70
564.57	60280.50
564.74	60158.79
564.90	60133.04
565.07	59992.61
565.23	59599.40
565.39	59302.15
565.56	58951.07
565.72	58869.15
565.88	58979.16
566.05	59297.47
566.21	59533.87
566.38	59501.10
566.54	59458.97
566.70	59915.37
566.87	60126.02
567.03	60182.19
567.19	60362.42
567.36	60198.58
567.52	60093.25
567.68	59824.09
567.85	59419.18
568.01	58780.21
568.17	58663.19
568.34	58632.76
568.50	58389.34
568.66	58663.19
568.83	59061.08
568.99	59112.57
569.15	59143.00
569.32	59168.74
569.48	59140.66
569.64	58852.77
569.81	58464.24
569.97	58614.04
570.13	58410.41
570.30	58068.69
570.46	57930.60
570.62	57228.44
570.78	57270.57
570.95	57284.61
571.11	57855.70
571.27	58216.14
571.43	58438.50
571.60	58564.88
571.76	58642.12
571.92	59004.91
572.09	59203.85
572.25	59110.23
572.41	58941.71
572.57	58965.12
572.74	58857.45
572.90	58642.12
573.06	58405.73
573.22	58534.46
573.38	58667.87
573.55	58541.48
573.71	58663.19
573.87	58525.10
574.03	58475.94
574.20	58438.50
574.36	58204.44
574.52	57841.66
574.68	58000.82
574.84	57733.99
575.01	57212.06
575.17	57120.77
575.33	57513.98
575.49	57640.37
575.65	57780.81
575.82	57748.04
575.98	57380.57
576.14	57616.97
576.30	57869.75
576.46	57935.28
576.62	57918.90
576.79	57895.49
576.95	57652.08
577.11	57544.41
577.27	57691.86
577.43	57750.38
577.59	57123.11
577.75	56966.30
577.92	56493.51
578.08	56409.25
578.24	56254.78
578.40	56594.15
578.56	56956.94
578.72	56851.61
578.88	57139.50
579.04	57073.96
579.21	57411.00
579.37	57162.90
579.53	57399.30
579.69	57331.42
579.85	57425.04
580.01	57237.80
580.17	56853.95
580.33	56687.78
580.49	56963.96
580.65	57174.61
580.82	57350.15
580.98	57371.21
581.14	57111.41
581.30	57034.17
581.46	57095.03
581.62	57392.28
581.78	57251.84
581.94	57525.69
582.10	57523.35
582.26	57336.10
582.42	57387.60
582.58	57628.67
582.74	57073.96
582.90	57228.44
583.06	57303.34
583.22	57148.86
583.38	56959.28
583.54	56949.92
583.70	57029.49
583.86	57118.43
584.02	56748.63
584.18	57202.69
584.34	56947.57
584.50	56800.12
584.66	56470.11
584.82	56500.53
584.98	56498.19
585.14	56222.01
