SpectraSuite Data File
++++++++++++++++++++++++++++++++++++
Date: Mon Oct 07 14:54:58 GMT-05:00 2013
User: price-jones
Dark Spectrum Present: No
Reference Spectrum Present: No
Number of Sampled Component Spectra: 1
Spectrometers: USB2+H05261
Integration Time (usec): 10000 (USB2+H05261)
Spectra Averaged: 1 (USB2+H05261)
Boxcar Smoothing: 0 (USB2+H05261)
Correct for Electrical Dark: No (USB2+H05261)
Strobe/Lamp Enabled: No (USB2+H05261)
Correct for Detector Non-linearity: No (USB2+H05261)
Correct for Stray Light: No (USB2+H05261)
Number of Pixels in Processed Spectrum: 2048
>>>>>Begin Processed Spectral Data<<<<<
365.73	0.00
365.92	0.00
366.12	0.00
366.32	0.00
366.52	0.00
366.72	0.00
366.91	0.00
367.11	0.00
367.31	0.00
367.51	0.00
367.70	0.00
367.90	0.00
368.10	0.00
368.30	0.00
368.49	0.00
368.69	0.00
368.89	0.00
369.09	0.00
369.28	0.00
369.48	0.00
369.68	0.00
369.87	0.00
370.07	0.00
370.27	0.00
370.47	0.00
370.66	72.56
370.86	154.48
371.06	180.22
371.25	205.97
371.45	177.88
371.65	140.43
371.84	168.52
372.04	149.79
372.24	198.95
372.44	238.73
372.63	266.82
372.83	145.11
373.03	138.09
373.22	173.20
373.42	159.16
373.62	203.63
373.81	243.42
374.01	278.52
374.21	196.60
374.40	147.45
374.60	215.33
374.79	292.57
374.99	301.93
375.19	308.95
375.38	386.19
375.58	365.12
375.78	320.65
375.97	351.08
376.17	294.91
376.37	428.32
376.56	376.83
376.76	505.56
376.95	393.21
377.15	458.74
377.35	468.11
377.54	545.34
377.74	503.22
377.93	552.37
378.13	489.17
378.33	500.87
378.52	388.53
378.72	407.25
378.91	379.17
379.11	369.80
379.31	325.33
379.50	318.31
379.70	425.98
379.89	468.11
380.09	451.72
380.28	458.74
380.48	580.45
380.68	528.96
380.87	479.81
381.07	435.34
381.26	374.49
381.46	369.80
381.65	306.61
381.85	212.99
382.04	255.12
382.24	184.90
382.43	250.44
382.63	112.35
382.83	215.33
383.02	259.80
383.22	215.33
383.41	154.48
383.61	187.24
383.80	276.18
384.00	430.66
384.19	540.66
384.39	517.26
384.58	498.53
384.78	475.13
384.97	533.64
385.17	449.38
385.36	458.74
385.56	351.08
385.75	353.42
385.95	435.34
386.14	547.69
386.34	433.00
386.53	458.74
386.72	437.68
386.92	360.44
387.11	388.53
387.31	493.85
387.50	500.87
387.70	444.70
387.89	381.51
388.09	397.89
388.28	369.80
388.48	519.60
388.67	538.32
388.86	552.37
389.06	648.33
389.25	615.56
389.45	615.56
389.64	807.48
389.84	634.29
390.03	624.92
390.22	711.52
390.42	741.95
390.61	709.18
390.81	793.44
391.00	929.19
391.19	828.55
391.39	774.72
391.58	744.29
391.78	697.48
391.97	681.10
392.16	606.20
392.36	496.19
392.55	292.57
392.75	264.48
392.94	208.31
393.13	156.82
393.33	224.69
393.52	421.30
393.71	531.30
393.91	592.16
394.10	608.54
394.29	730.25
394.49	805.14
394.68	891.74
394.88	894.08
395.07	849.61
395.26	875.36
395.46	784.08
395.65	828.55
395.84	725.57
396.04	596.84
396.23	416.62
396.42	252.78
396.62	285.55
396.81	337.04
397.00	479.81
397.19	746.63
397.39	812.17
397.58	940.90
397.77	1151.54
397.97	1013.45
398.16	1228.78
398.35	1170.27
398.55	1256.87
398.74	1263.89
398.93	1348.15
399.12	1221.76
399.32	1181.97
399.51	1254.53
399.70	1376.24
399.90	1308.36
400.09	1252.19
400.28	1383.26
400.47	1324.74
400.67	1329.42
400.86	1509.65
401.05	1437.09
401.24	1401.98
401.44	1521.35
401.63	1469.86
401.82	1390.28
402.01	1409.00
402.21	1528.37
402.40	1469.86
402.59	1359.85
402.78	1371.55
402.97	1366.87
403.17	1404.32
403.36	1551.78
403.55	1572.84
403.74	1626.67
403.93	1448.79
404.13	1373.89
404.32	1348.15
404.51	1437.09
404.70	1476.88
404.89	1554.12
405.09	1469.86
405.28	1425.39
405.47	1437.09
405.66	1441.77
405.85	1425.39
406.05	1383.26
406.24	1383.26
406.43	1373.89
406.62	1519.01
406.81	1504.96
407.00	1446.45
407.20	1423.05
407.39	1411.34
407.58	1507.30
407.77	1554.12
407.96	1621.99
408.15	1626.67
408.34	1818.60
408.54	1732.00
408.73	1657.10
408.92	1650.08
409.11	1542.41
409.30	1469.86
409.49	1364.53
409.68	1373.89
409.87	1217.08
410.07	1362.19
410.26	1399.64
410.45	1633.69
410.64	1661.78
410.83	1703.91
411.02	1692.21
411.21	1860.73
411.40	1804.55
411.59	1757.74
411.78	1788.17
411.98	1811.57
412.17	1865.41
412.36	1785.83
412.55	1717.95
412.74	1776.47
412.93	1708.59
413.12	1706.25
413.31	1877.11
413.50	1912.22
413.69	1856.04
413.88	1872.43
414.07	1762.42
414.26	1820.94
414.45	1984.77
414.64	1933.28
414.83	1944.99
415.02	1886.47
415.22	1874.77
415.41	1832.64
415.60	1966.05
415.79	2071.37
415.98	2094.78
416.17	2094.78
416.36	1961.37
416.55	1937.96
416.74	1891.15
416.93	1781.15
417.12	1856.04
417.31	1926.26
417.50	1832.64
417.69	1973.07
417.88	2003.50
418.07	2001.16
418.26	1909.88
418.45	1839.66
418.64	1989.46
418.83	2085.42
419.02	2022.22
419.21	1952.01
419.39	1902.86
419.58	1788.17
419.77	1874.77
419.96	1956.69
420.15	2043.29
420.34	2300.75
420.53	2134.57
420.72	2204.78
420.91	2101.80
421.10	2052.65
421.29	2099.46
421.48	2129.89
421.67	2282.02
421.86	2106.48
422.05	2022.22
422.24	1788.17
422.43	1750.72
422.61	1863.07
422.80	2108.82
422.99	2066.69
423.18	2033.93
423.37	2005.84
423.56	1994.14
423.75	2003.50
423.94	2087.76
424.13	1937.96
424.32	1919.24
424.50	1996.48
424.69	2029.24
424.88	1858.39
425.07	1942.64
425.26	1912.22
425.45	1888.81
425.64	1832.64
425.83	1909.88
426.01	1996.48
426.20	1956.69
426.39	1919.24
426.58	1736.68
426.77	1593.90
426.96	1661.78
427.15	1678.16
427.33	1881.79
427.52	1984.77
427.71	1923.92
427.90	1914.56
428.09	1849.02
428.28	1809.23
428.46	1764.76
428.65	1879.45
428.84	1788.17
429.03	1804.55
429.22	1708.59
429.40	1556.46
429.59	1350.49
429.78	1252.19
429.97	1334.11
430.16	1270.91
430.34	1263.89
430.53	1334.11
430.72	1296.66
430.91	1460.49
431.10	1781.15
431.28	2202.44
431.47	2417.77
431.66	2214.15
431.85	2106.48
432.03	1961.37
432.22	1771.79
432.41	1900.52
432.60	2115.84
432.79	2207.13
432.97	2188.40
433.16	2195.42
433.35	1994.14
433.54	1748.38
433.72	1654.76
433.91	1544.75
434.10	1888.81
434.28	2015.20
434.47	2127.55
434.66	2200.10
434.85	2181.38
435.03	2172.02
435.22	2167.34
435.41	2296.07
435.59	2176.70
435.78	2282.02
435.97	2382.67
436.16	2417.77
436.34	2385.01
436.53	2298.41
436.72	2340.54
436.90	2090.10
437.09	2132.23
437.28	2024.56
437.46	2293.72
437.65	2143.93
437.84	2064.35
438.02	1830.30
438.21	1816.26
438.40	2069.03
438.58	2012.86
438.77	2225.85
438.96	2200.10
439.14	2277.34
439.33	2349.90
439.52	2417.77
439.70	2253.94
439.89	2223.51
440.08	2204.78
440.26	2249.25
440.45	2328.83
440.63	2394.37
440.82	2546.50
441.01	2413.09
441.19	2574.59
441.38	2534.80
441.57	2682.25
441.75	2752.47
441.94	2963.12
442.12	2715.02
442.31	2778.22
442.50	2717.36
442.68	2715.02
442.87	2623.74
443.05	2619.06
443.24	2672.89
443.43	2764.17
443.61	2754.81
443.80	2750.13
443.98	2609.70
444.17	2675.23
444.35	2834.39
444.54	2916.31
444.73	2796.94
444.91	2708.00
445.10	2516.08
445.28	2443.52
445.47	2377.98
445.65	2387.35
445.84	2555.86
446.02	2612.04
446.21	2677.57
446.39	2656.51
446.58	2649.49
446.77	2684.59
446.95	2700.98
447.14	2719.70
447.32	2862.48
447.51	2848.43
447.69	2750.13
447.88	2717.36
448.06	2696.30
448.25	2829.71
448.43	2773.53
448.62	2750.13
448.80	2752.47
448.99	2712.68
449.17	2768.85
449.36	2818.00
449.54	2871.84
449.73	2920.99
449.91	2970.14
450.10	3136.32
450.28	3162.06
450.46	3157.38
450.65	3033.33
450.83	3061.42
451.02	2993.55
451.20	2892.90
451.39	2972.48
451.57	2956.10
451.76	2928.01
451.94	2860.13
452.13	2810.98
452.31	2691.62
452.49	2705.66
452.68	2544.16
452.86	2640.12
453.05	2663.53
453.23	2628.42
453.42	2696.30
453.60	2871.84
453.78	2878.86
453.97	2771.19
454.15	2825.03
454.34	2836.73
454.52	2792.26
454.70	2829.71
454.89	2757.15
455.07	2747.79
455.26	2766.51
455.44	3028.65
455.62	2832.05
455.81	3042.70
455.99	2974.82
456.17	2928.01
456.36	2946.73
456.54	2972.48
456.73	3005.25
456.91	3101.21
457.09	3033.33
457.28	3162.06
457.46	2970.14
457.64	2970.14
457.83	2871.84
458.01	2771.19
458.19	2906.95
458.38	3016.95
458.56	3073.12
458.74	3129.30
458.93	2995.89
459.11	2995.89
459.29	3002.91
459.48	2923.33
459.66	3002.91
459.84	2949.08
460.03	2963.12
460.21	2895.24
460.39	3119.93
460.57	3126.96
460.76	3061.42
460.94	3183.13
461.12	3047.38
461.31	3162.06
461.49	3049.72
461.67	3033.33
461.85	3190.15
462.04	3007.59
462.22	3227.60
462.40	3239.30
462.59	3164.40
462.77	3068.44
462.95	3023.97
463.13	3143.34
463.32	3028.65
463.50	3040.36
463.68	3068.44
463.86	2963.12
464.05	2979.50
464.23	3084.83
464.41	3054.40
464.59	2932.69
464.78	3026.31
464.96	2918.65
465.14	2984.18
465.32	3068.44
465.50	3068.44
465.69	3225.26
465.87	3049.72
466.05	2904.60
466.23	2913.97
466.41	2789.92
466.60	2827.37
466.78	2841.41
466.96	2883.54
467.14	2885.88
467.32	2991.20
467.51	3103.55
467.69	2960.78
467.87	2850.77
468.05	3035.67
468.23	3014.61
468.41	2928.01
468.60	2974.82
468.78	3073.12
468.96	2885.88
469.14	2928.01
469.32	3061.42
469.50	2825.03
469.69	2890.56
469.87	2733.75
470.05	2841.41
470.23	2754.81
470.41	2771.19
470.59	2935.03
470.77	3002.91
470.95	2963.12
471.14	3000.57
471.32	2995.89
471.50	3274.41
471.68	3276.75
471.86	3344.63
472.04	3377.39
472.22	3421.86
472.40	3131.64
472.58	3145.68
472.77	3126.96
472.95	3084.83
473.13	3131.64
473.31	3040.36
473.49	3185.47
473.67	3243.98
473.85	3213.56
474.03	3288.45
474.21	3325.90
474.39	3297.81
474.57	3316.54
474.75	3438.25
474.93	3302.50
475.12	3197.17
475.30	3211.22
475.48	3283.77
475.66	3218.24
475.84	3311.86
476.02	3206.53
476.20	3183.13
476.38	3136.32
476.56	3332.92
476.74	3377.39
476.92	3419.52
477.10	3492.08
477.28	3543.57
477.46	3496.76
477.64	3545.91
477.82	3602.08
478.00	3606.77
478.18	3613.79
478.36	3571.66
478.54	3478.04
478.72	3541.23
478.90	3669.96
479.08	3660.60
479.26	3805.71
479.44	3847.84
479.62	3709.75
479.80	3658.26
479.98	3955.51
480.16	3859.54
480.34	3714.43
480.52	3735.50
480.70	3943.80
480.88	3941.46
481.06	3852.52
481.24	3925.08
481.41	3985.93
481.59	4009.34
481.77	3920.40
481.95	4117.00
482.13	3960.19
482.31	3985.93
482.49	4030.40
482.67	4021.04
482.85	3985.93
483.03	4189.56
483.21	4056.15
483.39	4234.03
483.57	4049.13
483.74	4030.40
483.92	4196.58
484.10	4058.49
484.28	4154.45
484.46	4367.44
484.64	4337.01
484.82	4067.85
485.00	4180.20
485.18	4109.98
485.35	3843.16
485.53	3714.43
485.71	3344.63
485.89	3246.32
486.07	3384.41
486.25	3688.68
486.43	3967.21
486.61	4014.02
486.78	3969.55
486.96	3873.59
487.14	4088.92
487.32	4210.62
487.50	4376.80
487.68	4505.53
487.85	4465.74
488.03	4538.30
488.21	4542.98
488.39	4447.02
488.57	4374.46
488.75	4290.20
488.92	4376.80
489.10	4746.61
489.28	4889.38
489.46	4997.04
489.64	5109.39
489.81	5034.49
489.99	4971.30
490.17	5078.96
490.35	5139.82
490.53	5039.17
490.70	5004.07
490.88	4926.83
491.06	5057.90
491.24	5128.11
491.41	4954.91
491.59	4599.15
491.77	4528.94
491.95	4620.22
492.13	4873.00
492.30	4870.65
492.48	5327.06
492.66	5277.91
492.84	5324.72
493.01	5118.75
493.19	5149.18
493.37	5135.14
493.54	5085.98
493.72	5114.07
493.90	5273.23
494.08	5469.83
494.25	5675.80
494.43	5460.47
494.61	5598.56
494.79	5736.65
494.96	5654.73
495.14	5603.24
495.32	5275.57
495.49	5294.29
495.67	5387.91
495.85	5584.52
496.02	5678.14
496.20	5633.67
496.38	5603.24
496.55	5444.09
496.73	5561.11
496.91	5689.84
497.09	5872.40
497.26	5734.31
497.44	5767.08
497.62	5689.84
497.79	5507.28
497.97	5238.12
498.14	5341.10
498.32	5577.50
498.50	5488.56
498.67	5713.25
498.85	5839.64
499.03	5685.16
499.20	5790.49
499.38	5858.36
499.56	5731.97
499.73	5617.29
499.91	5605.58
500.08	5710.91
500.26	5390.25
500.44	5446.43
500.61	5582.18
500.79	5554.09
500.97	5317.70
501.14	5376.21
501.32	5172.58
501.49	5425.36
501.67	5540.05
501.84	5680.48
502.02	5757.72
502.20	5708.57
502.37	5743.67
502.55	5687.50
502.72	5799.85
502.90	5961.34
503.07	5764.74
503.25	5820.91
503.43	5476.85
503.60	5572.82
503.78	5324.72
503.95	5310.68
504.13	5659.42
504.30	5893.47
504.48	5893.47
504.65	5610.26
504.83	5717.93
505.01	5757.72
505.18	5921.56
505.36	6036.24
505.53	6146.25
505.71	6045.60
505.88	6134.54
506.06	5947.30
506.23	5975.39
506.41	5785.80
506.58	5968.37
506.76	5905.17
506.93	5987.09
507.11	5856.02
507.28	5846.66
507.46	5867.72
507.63	5542.39
507.81	5509.62
507.98	5533.03
508.16	5827.93
508.33	6066.67
508.50	5811.55
508.68	6001.13
508.85	6228.17
509.03	6237.53
509.20	6139.23
509.38	5989.43
509.55	5689.84
509.73	5830.27
509.90	5937.94
510.08	5975.39
510.25	5865.38
510.42	5909.85
510.60	5795.17
510.77	5930.92
510.95	5921.56
511.12	5966.03
511.30	6073.69
511.47	6066.67
511.64	6092.41
511.82	6136.88
511.99	5937.94
512.17	5902.83
512.34	5888.79
512.51	5741.33
512.69	5727.29
512.86	5781.12
513.04	5919.21
513.21	5860.70
513.38	5832.62
513.56	5846.66
513.73	5390.25
513.90	5685.16
514.08	5668.78
514.25	5771.76
514.43	5769.42
514.60	5858.36
514.77	5703.89
514.95	5858.36
515.12	5778.78
515.29	5736.65
515.47	5949.64
515.64	6113.48
515.81	5912.19
515.99	5813.89
516.16	5476.85
516.33	5123.43
516.51	4978.32
516.68	4730.22
516.85	4557.02
517.03	4681.07
517.20	5149.18
517.37	5589.20
517.54	5919.21
517.72	5682.82
517.89	5097.69
518.06	4837.89
518.24	4802.78
518.41	5315.36
518.58	5451.11
518.75	5427.70
518.93	5628.99
519.10	5549.41
519.27	5715.59
519.45	5872.40
519.62	5891.13
519.79	5874.74
519.96	5795.17
520.14	5830.27
520.31	5572.82
520.48	5933.26
520.65	5577.50
520.83	5790.49
521.00	5961.34
521.17	6015.18
521.34	5811.55
521.52	5921.56
521.69	6054.97
521.86	6097.10
522.03	5973.05
522.20	5682.82
522.38	5533.03
522.55	5584.52
522.72	5724.95
522.89	5715.59
523.07	5650.05
523.24	5668.78
523.41	6003.47
523.58	5977.73
523.75	6270.30
523.92	6073.69
524.10	6083.05
524.27	6029.22
524.44	6069.01
524.61	5940.28
524.78	6120.50
524.96	5980.07
525.13	5900.49
525.30	5942.62
525.47	6167.31
525.64	6080.71
525.81	5830.27
525.98	5509.62
526.16	5341.10
526.33	5163.22
526.50	5116.41
526.67	5097.69
526.84	5107.05
527.01	5380.89
527.18	5394.93
527.36	5757.72
527.53	5748.36
527.70	5832.62
527.87	5963.68
528.04	5760.06
528.21	5977.73
528.38	5973.05
528.55	6157.95
528.72	6303.06
528.89	6256.25
529.07	6125.18
529.24	6005.81
529.41	5823.25
529.58	5654.73
529.75	5849.00
529.92	5750.70
530.09	6005.81
530.26	6076.03
530.43	6064.33
530.60	6106.46
530.77	6176.67
530.94	6232.85
531.11	6099.44
531.28	5994.11
531.46	5860.70
531.63	5905.17
531.80	6003.47
531.97	5795.17
532.14	5757.72
532.31	5387.91
532.48	5301.31
532.65	5535.37
532.82	5554.09
532.99	5743.67
533.16	5851.34
533.33	5930.92
533.50	5895.81
533.67	5905.17
533.84	5694.52
534.01	5783.46
534.18	5935.60
534.35	5811.55
534.52	5877.09
534.69	5731.97
534.86	5909.85
535.03	5926.24
535.20	6069.01
535.37	6160.29
535.54	6150.93
535.71	6169.65
535.88	5968.37
536.05	5923.90
536.22	5856.02
536.38	5617.29
536.55	5476.85
536.72	5404.30
536.89	5516.64
537.06	5561.11
537.23	5956.66
537.40	5872.40
537.57	5961.34
537.74	5713.25
537.91	5795.17
538.08	5841.98
538.25	5872.40
538.42	5886.45
538.59	5694.52
538.75	5628.99
538.92	5500.26
539.09	5488.56
539.26	5544.73
539.43	5584.52
539.60	5383.23
539.77	5563.45
539.94	5570.48
540.11	5284.93
540.28	5167.90
540.44	5228.76
540.61	5376.21
540.78	5453.45
540.95	5423.02
541.12	5561.11
541.29	5685.16
541.46	5551.75
541.62	5680.48
541.79	5589.20
541.96	5406.64
542.13	5561.11
542.30	5465.15
542.47	5528.35
542.63	5495.58
542.80	5245.14
542.97	5507.28
543.14	5430.04
543.31	5516.64
543.48	5678.14
543.64	5710.91
543.81	5820.91
543.98	5776.44
544.15	5647.71
544.32	5575.16
544.48	5638.35
544.65	5572.82
544.82	5659.42
544.99	5596.22
545.16	5425.36
545.32	5444.09
545.49	5760.06
545.66	5874.74
545.83	5680.48
546.00	5605.58
546.16	5556.43
546.33	5612.60
546.50	5607.92
546.67	5568.13
546.83	5448.77
547.00	5530.69
547.17	5432.38
547.34	5275.57
547.50	5249.82
547.67	5289.61
547.84	5416.00
548.00	5476.85
548.17	5416.00
548.34	5430.04
548.51	5380.89
548.67	5509.62
548.84	5561.11
549.01	5563.45
549.18	5420.68
549.34	5469.83
549.51	5556.43
549.68	5507.28
549.84	5474.51
550.01	5366.85
550.18	5359.83
550.34	5387.91
550.51	5259.18
550.68	5322.38
550.84	5177.26
551.01	5320.04
551.18	5439.40
551.34	5434.72
551.51	5490.90
551.68	5540.05
551.84	5383.23
552.01	5380.89
552.18	5352.81
552.34	5249.82
552.51	5125.77
552.68	5135.14
552.84	5357.49
553.01	5181.95
553.18	5207.69
553.34	5411.32
553.51	5198.33
553.67	5256.84
553.84	5647.71
554.01	5472.17
554.17	5397.28
554.34	5296.63
554.51	5315.36
554.67	5427.70
554.84	5437.06
555.00	5242.80
555.17	5308.34
555.33	5296.63
555.50	5195.99
555.67	5273.23
555.83	5167.90
556.00	5188.97
556.16	5181.95
556.33	5039.17
556.50	5132.79
556.66	5235.78
556.83	5146.84
556.99	4997.04
557.16	5107.05
557.32	5071.94
557.49	5259.18
557.65	5102.37
557.82	5069.60
557.98	5060.24
558.15	4980.66
558.32	4903.42
558.48	4746.61
558.65	4830.87
558.81	4770.01
558.98	4980.66
559.14	4814.48
559.31	5048.54
559.47	5013.43
559.64	4842.57
559.80	4870.65
559.97	4856.61
560.13	4964.28
560.30	5032.15
560.46	5107.05
560.63	5226.42
560.79	5153.86
560.96	5048.54
561.12	4910.44
561.29	4805.12
561.45	4828.53
561.61	5008.75
561.78	4997.04
561.94	4990.02
562.11	4901.08
562.27	4919.81
562.44	4908.10
562.60	4945.55
562.77	4971.30
562.93	4973.64
563.10	4884.70
563.26	4837.89
563.42	4816.82
563.59	4828.53
563.75	4699.80
563.92	4849.59
564.08	4802.78
564.24	4802.78
564.41	4847.25
564.57	4760.65
564.74	4767.67
564.90	4812.14
565.07	4629.58
565.23	4685.75
565.39	4432.97
565.56	4610.86
565.72	4585.11
565.88	4573.41
566.05	4755.97
566.21	4596.81
566.38	4784.06
566.54	4777.03
566.70	4865.97
566.87	4835.55
567.03	4816.82
567.19	4788.74
567.36	4692.77
567.52	4786.40
567.68	4695.11
567.85	4660.01
568.01	4564.04
568.17	4465.74
568.34	4451.70
568.50	4657.67
568.66	4416.59
568.83	4535.96
568.99	4517.23
569.15	4435.32
569.32	4580.43
569.48	4603.83
569.64	4531.28
569.81	4610.86
569.97	4388.50
570.13	4421.27
570.30	4344.03
570.46	4252.75
570.62	4175.52
570.78	4278.50
570.95	4318.29
571.11	4332.33
571.27	4365.10
571.43	4454.04
571.60	4519.57
571.76	4432.97
571.92	4535.96
572.09	4634.26
572.25	4484.47
572.41	4526.60
572.57	4528.94
572.74	4601.49
572.90	4559.36
573.06	4547.66
573.22	4507.87
573.38	4498.51
573.55	4535.96
573.71	4437.66
573.87	4358.08
574.03	4358.08
574.20	4451.70
574.36	4337.01
574.52	4421.27
574.68	4292.54
574.84	4376.80
575.01	4201.26
575.17	4252.75
575.33	4294.88
575.49	4313.61
575.65	4472.76
575.82	4152.11
575.98	4208.28
576.14	4306.59
576.30	4418.93
576.46	4311.27
576.62	4353.40
576.79	4381.48
576.95	4308.93
577.11	4280.84
577.27	4236.37
577.43	4243.39
577.59	4191.90
577.75	4231.69
577.92	4257.43
578.08	4016.36
578.24	3957.85
578.40	4133.39
578.56	4161.47
578.72	4245.73
578.88	4227.01
579.04	4215.30
579.21	4074.87
579.37	4273.82
579.53	4280.84
579.69	4107.64
579.85	4299.56
580.01	4215.30
580.17	4231.69
580.33	4170.83
580.49	4109.98
580.65	4269.14
580.82	4203.60
580.98	4219.99
581.14	4243.39
581.30	4180.20
581.46	4217.65
581.62	4133.39
581.78	4161.47
581.94	4271.48
582.10	4222.33
582.26	4161.47
582.42	4236.37
582.58	4196.58
582.74	4168.49
582.90	4063.17
583.06	4198.92
583.22	4322.97
583.38	4250.41
583.54	4152.11
583.70	4114.66
583.86	4147.43
584.02	4180.20
584.18	4219.99
584.34	4198.92
584.50	4227.01
584.66	4011.68
584.82	4049.13
584.98	4021.04
585.14	4018.70
585.30	3948.48
585.46	3777.62
585.62	3756.56
585.78	3875.93
585.94	4063.17
586.10	3960.19
586.26	4032.74
586.42	4042.11
586.58	3939.12
586.74	3925.08
586.90	4121.68
587.06	3880.61
587.22	4021.04
587.38	4109.98
587.54	3971.89
587.70	3957.85
587.86	4023.38
588.02	3822.09
588.18	3822.09
588.34	3728.47
588.49	3489.74
588.65	3225.26
588.81	3325.90
588.97	3248.66
589.13	3248.66
589.29	3258.03
589.45	3309.52
589.61	3466.33
589.77	3651.24
589.93	3604.42
590.08	3728.47
590.24	3700.39
590.40	3726.13
590.56	3866.56
590.72	3758.90
590.88	3744.86
591.04	3700.39
591.20	3754.22
591.35	3522.51
591.51	3574.00
591.67	3707.41
591.83	3707.41
591.99	3641.87
592.15	3695.71
592.31	3740.18
592.46	3641.87
592.62	3637.19
592.78	3634.85
592.94	3552.93
593.10	3660.60
593.26	3714.43
593.41	3719.11
593.57	3702.73
593.73	3714.43
593.89	3424.20
594.05	3515.48
594.20	3543.57
594.36	3564.64
594.52	3435.91
594.68	3478.04
594.84	3489.74
594.99	3403.14
595.15	3496.76
595.31	3604.42
595.47	3606.77
595.62	3583.36
595.78	3557.61
595.94	3669.96
596.10	3463.99
596.25	3522.51
596.41	3513.14
596.57	3478.04
596.73	3674.64
596.88	3595.06
597.04	3576.34
597.20	3550.59
597.36	3494.42
597.51	3545.91
597.67	3555.27
597.83	3445.27
597.99	3569.32
