SpectraSuite Data File
++++++++++++++++++++++++++++++++++++
Date: Mon Oct 07 14:53:51 GMT-05:00 2013
User: price-jones
Dark Spectrum Present: No
Reference Spectrum Present: No
Number of Sampled Component Spectra: 1
Spectrometers: USB2+H05261
Integration Time (usec): 100000 (USB2+H05261)
Spectra Averaged: 1 (USB2+H05261)
Boxcar Smoothing: 0 (USB2+H05261)
Correct for Electrical Dark: No (USB2+H05261)
Strobe/Lamp Enabled: No (USB2+H05261)
Correct for Detector Non-linearity: No (USB2+H05261)
Correct for Stray Light: No (USB2+H05261)
Number of Pixels in Processed Spectrum: 2048
>>>>>Begin Processed Spectral Data<<<<<
365.73	0.00
365.92	0.00
366.12	0.00
366.32	0.00
366.52	0.00
366.72	0.00
366.91	0.00
367.11	0.00
367.31	0.00
367.51	0.00
367.70	0.00
367.90	0.00
368.10	0.00
368.30	0.00
368.49	0.00
368.69	0.00
368.89	0.00
369.09	0.00
369.28	0.00
369.48	0.00
369.68	0.00
369.87	0.00
370.07	0.00
370.27	0.00
370.47	589.82
370.66	2944.39
370.86	3466.33
371.06	3803.37
371.25	4021.04
371.45	3510.80
371.65	3218.24
371.84	2998.23
372.04	3115.25
372.24	3417.18
372.44	3740.18
372.63	3562.30
372.83	3370.37
373.03	2909.29
373.22	2768.85
373.42	2850.77
373.62	3253.34
373.81	3637.19
374.01	3482.72
374.21	3094.19
374.40	2942.05
374.60	3176.11
374.79	3557.61
374.99	4159.13
375.19	4304.25
375.38	4519.57
375.58	4262.12
375.78	4067.85
375.97	4086.58
376.17	4203.60
376.37	4180.20
376.56	4409.57
376.76	4704.48
376.95	4964.28
377.15	5334.08
377.35	5355.15
377.54	5678.14
377.74	5823.25
377.93	6012.84
378.13	5703.89
378.33	5411.32
378.52	5074.28
378.72	4868.31
378.91	4854.27
379.11	4540.64
379.31	4362.76
379.50	4388.50
379.70	4798.10
379.89	5345.78
380.09	5577.50
380.28	5837.30
380.48	5685.16
380.68	5689.84
380.87	5523.66
381.07	5153.86
381.26	4772.35
381.46	4606.17
381.65	4306.59
381.85	4117.00
382.04	4030.40
382.24	3784.65
382.43	3527.19
382.63	3431.23
382.83	3482.72
383.02	3536.55
383.22	3475.70
383.41	3506.12
383.61	3749.54
383.80	4255.09
384.00	4858.95
384.19	5469.83
384.39	5792.83
384.58	5544.73
384.78	5441.75
384.97	5621.97
385.17	5298.97
385.36	5153.86
385.56	4929.17
385.75	5006.41
385.95	5418.34
386.14	5867.72
386.34	5982.41
386.53	5530.69
386.72	5146.84
386.92	5270.89
387.11	5713.25
387.31	5856.02
387.50	5858.36
387.70	5699.20
387.89	5451.11
388.09	5549.41
388.28	5654.73
388.48	5678.14
388.67	6111.14
388.86	6729.04
389.06	7185.44
389.25	7571.63
389.45	7779.94
389.64	7510.78
389.84	7517.80
390.03	7487.37
390.22	7346.94
390.42	7819.73
390.61	8030.38
390.81	8755.94
391.00	8657.64
391.19	8798.07
391.39	8582.74
391.58	8018.68
391.78	7368.01
391.97	7248.64
392.16	6801.60
392.36	6389.66
392.55	4894.06
392.75	3999.98
392.94	3307.18
393.13	3166.74
393.33	3833.80
393.52	4781.71
393.71	5846.66
393.91	6775.85
394.10	7187.79
394.29	8056.12
394.49	8491.46
394.68	9488.53
394.88	9315.33
395.07	9727.27
395.26	9664.07
395.46	9160.86
395.65	8835.52
395.84	7665.25
396.04	6593.29
396.23	5280.25
396.42	4465.74
396.62	4217.65
396.81	4917.47
397.00	6321.79
397.19	7728.45
397.39	9488.53
397.58	10492.62
397.77	11084.78
397.97	11562.25
398.16	11627.78
398.35	12030.35
398.55	12592.08
398.74	13055.51
398.93	13420.63
399.12	13085.94
399.32	12461.01
399.51	13202.96
399.70	13551.70
399.90	13401.91
400.09	13507.23
400.28	13261.48
400.47	13511.91
400.67	14443.45
400.86	14780.48
401.05	14352.16
401.24	14736.01
401.44	14705.59
401.63	14923.26
401.82	15089.43
402.01	14878.79
402.21	15166.67
402.40	15063.69
402.59	14583.88
402.78	14157.90
402.97	13530.64
403.17	14312.38
403.36	15356.25
403.55	15728.40
403.74	16187.14
403.93	15122.20
404.13	13937.89
404.32	13748.31
404.51	14326.42
404.70	15412.43
404.89	15536.48
405.09	15403.07
405.28	14717.29
405.47	14534.73
405.66	14567.49
405.85	14476.21
406.05	13937.89
406.24	14368.55
406.43	14576.86
406.62	15283.70
406.81	15779.89
407.00	14710.27
407.20	14757.08
407.39	14647.07
407.58	15323.49
407.77	15934.37
407.96	16428.22
408.15	16519.50
408.34	16437.58
408.54	17589.13
408.73	17455.72
408.92	17600.83
409.11	16877.60
409.30	15744.78
409.49	15131.56
409.68	14178.97
409.87	13390.20
410.07	14562.81
410.26	15620.74
410.45	16751.21
410.64	16978.25
410.83	17848.93
411.02	17818.50
411.21	18759.39
411.40	18424.70
411.59	18485.55
411.78	18197.67
411.98	18347.46
412.17	18424.70
412.36	18272.56
412.55	18354.48
412.74	17844.24
412.93	17284.86
413.12	17509.55
413.31	19154.94
413.50	19550.49
413.69	19929.66
413.88	19051.96
414.07	18295.97
414.26	18771.10
414.45	19171.33
414.64	19316.44
414.83	19501.34
415.02	18902.17
415.22	18764.07
415.41	19396.02
415.60	19969.45
415.79	21057.80
415.98	21324.62
416.17	21626.55
416.36	20912.69
416.55	20563.95
416.74	20079.46
416.93	19229.84
417.12	19019.19
417.31	19578.58
417.50	19782.21
417.69	20435.22
417.88	20383.73
418.07	20140.31
418.26	19974.13
418.45	19969.45
418.64	20982.90
418.83	21429.94
419.02	21128.02
419.21	21046.10
419.39	19819.66
419.58	18972.38
419.77	19103.45
419.96	20194.14
420.15	21191.21
420.34	21816.13
420.53	22668.09
420.72	22721.92
420.91	22448.08
421.10	22181.26
421.29	22197.64
421.48	21422.92
421.67	22366.16
421.86	21991.67
422.05	20365.00
422.24	18307.67
422.43	18214.05
422.61	20238.61
422.80	21645.27
422.99	21451.01
423.18	21099.93
423.37	20467.98
423.56	20524.16
423.75	21081.21
423.94	21331.64
424.13	19868.81
424.32	20322.87
424.50	20510.11
424.69	19990.52
424.88	20304.15
425.07	20159.03
425.26	20341.60
425.45	19969.45
425.64	19630.07
425.83	19545.81
426.01	20929.07
426.20	21322.28
426.39	21350.37
426.58	19807.95
426.77	17984.68
426.96	17296.56
427.15	17914.46
427.33	19389.00
427.52	20556.93
427.71	20482.03
427.90	20243.29
428.09	19908.60
428.28	19733.06
428.46	18965.36
428.65	19199.41
428.84	18864.72
429.03	19344.53
429.22	18600.24
429.40	17689.77
429.59	16018.63
429.78	14033.85
429.97	14274.93
430.16	14286.63
430.34	14286.63
430.53	14483.24
430.72	14516.00
430.91	16102.89
431.10	18948.98
431.28	22092.32
431.47	24177.73
431.66	24182.42
431.85	22464.46
432.03	20273.72
432.22	19307.08
432.41	20311.17
432.60	22604.89
432.79	23307.05
432.97	24123.90
433.16	23758.78
433.35	21359.73
433.54	19740.08
433.72	18204.69
433.91	18941.96
434.10	21090.57
434.28	22586.17
434.47	23543.45
434.66	23204.07
434.85	22696.17
435.03	22419.99
435.22	23379.61
435.41	24439.87
435.59	24552.22
435.78	24875.21
435.97	25282.47
436.16	25575.03
436.34	25364.39
436.53	24697.33
436.72	24776.91
436.90	23396.00
437.09	23335.14
437.28	22803.84
437.46	23934.32
437.65	23606.64
437.84	22059.55
438.02	20081.80
438.21	19910.94
438.40	21413.56
438.58	22838.95
438.77	23744.73
438.96	23508.34
439.14	25202.89
439.33	25881.64
439.52	25837.17
439.70	25703.76
439.89	24685.63
440.08	23744.73
440.26	23859.42
440.45	24713.72
440.63	26373.16
440.82	27868.76
441.01	27555.13
441.19	27330.44
441.38	27452.14
441.57	28416.44
441.75	28957.11
441.94	29032.00
442.12	29022.64
442.31	29259.04
442.50	29024.98
442.68	29095.20
442.87	28732.42
443.05	28336.87
443.24	28856.46
443.43	29046.05
443.61	29729.48
443.80	30345.05
443.98	28439.85
444.17	28268.99
444.35	30029.07
444.54	30543.99
444.73	30012.69
444.91	29099.88
445.10	27543.42
445.28	26749.98
445.47	26394.22
445.65	26651.68
445.84	27098.72
446.02	28016.21
446.21	28533.47
446.39	28938.38
446.58	29167.76
446.77	29539.90
446.95	29876.94
447.14	30754.64
447.32	31012.10
447.51	30429.30
447.69	29252.02
447.88	28788.59
448.06	29296.49
448.25	29900.34
448.43	30436.33
448.62	29544.58
448.80	29144.35
448.99	29673.31
449.17	29905.02
449.36	30052.48
449.54	31000.40
449.73	31716.60
449.91	31852.35
450.10	32451.53
450.28	33118.58
450.46	32868.14
450.65	32865.80
450.83	32519.40
451.02	32245.56
451.20	32151.94
451.39	31487.23
451.57	31201.68
451.76	31449.78
451.94	31229.77
452.13	31248.49
452.31	29095.20
452.49	28077.07
452.68	28676.24
452.86	28416.44
453.05	29191.16
453.23	29764.59
453.42	30473.78
453.60	30686.76
453.78	31714.26
453.97	30874.01
454.15	30799.11
454.34	30412.92
454.52	30972.31
454.70	29680.33
454.89	29989.28
455.07	30658.68
455.26	30707.83
455.44	32292.37
455.62	32491.32
455.81	32823.67
455.99	32746.44
456.17	32257.26
456.36	32493.66
456.54	32978.15
456.73	32919.63
456.91	33572.64
457.09	34120.33
457.28	34611.84
457.46	33130.28
457.64	32704.31
457.83	32102.79
458.01	31063.59
458.19	32072.36
458.38	32357.91
458.56	33237.95
458.74	32886.87
458.93	32311.10
459.11	32121.51
459.29	32102.79
459.48	32507.70
459.66	32226.84
459.84	32453.87
460.03	32912.61
460.21	33043.68
460.39	33582.01
460.57	33837.12
460.76	33933.09
460.94	34059.48
461.12	33493.07
461.31	33963.51
461.49	33715.42
461.67	33771.59
461.85	34862.28
462.04	34429.28
462.22	34597.80
462.40	34911.43
462.59	34354.38
462.77	34260.76
462.95	34520.56
463.13	33972.88
463.32	33823.08
463.50	33532.86
463.68	33818.40
463.86	33663.93
464.05	33612.43
464.23	32713.67
464.41	32542.81
464.59	31894.48
464.78	33731.80
464.96	33015.60
465.14	32512.38
465.32	33879.25
465.50	34660.99
465.69	34719.51
465.87	34206.93
466.05	33237.95
466.23	32165.98
466.41	31323.39
466.60	32215.13
466.78	32020.87
466.96	32816.65
467.14	33104.54
467.32	33450.94
467.51	33649.88
467.69	32201.09
467.87	33076.45
468.05	33310.50
468.23	33251.99
468.41	33600.73
468.60	33460.30
468.78	33509.45
468.96	33275.40
469.14	33848.83
469.32	34232.68
469.50	32706.65
469.69	33233.27
469.87	32311.10
470.05	32250.24
470.23	32598.98
470.41	32631.75
470.59	32910.27
470.77	32783.88
470.95	33907.34
471.14	34115.65
471.32	34223.31
471.50	36215.11
471.68	36128.51
471.86	36170.64
472.04	36568.53
472.22	36673.85
472.40	34693.76
472.58	34836.53
472.77	34263.10
472.95	34927.81
473.13	36205.75
473.31	34705.46
473.49	34885.68
473.67	35798.49
473.85	35913.18
474.03	36680.88
474.21	36919.61
474.39	37544.53
474.57	37443.89
474.75	37748.16
474.93	37324.52
475.12	36362.56
475.30	36521.72
475.48	36732.37
475.66	36807.26
475.84	36758.11
476.02	36128.51
476.20	36027.87
476.38	36470.23
476.56	37584.32
476.74	38132.01
476.92	38260.74
477.10	38960.56
477.28	39983.37
477.46	40149.55
477.64	40289.98
477.82	40587.23
478.00	40538.08
478.18	39817.19
478.36	39655.70
478.54	40060.61
478.72	40449.14
478.90	40999.16
479.08	41511.74
479.26	42464.34
479.44	42239.65
479.62	42043.04
479.80	41984.53
479.98	42370.72
480.16	42609.45
480.34	42494.77
480.52	42759.25
480.70	42719.46
480.88	42932.45
481.06	43847.60
481.24	43899.09
481.41	45249.58
481.59	45792.58
481.77	45303.41
481.95	44711.25
482.13	44292.30
482.31	44334.43
482.49	44987.44
482.67	45088.08
482.85	45345.54
483.03	45607.68
483.21	46490.06
483.39	46335.59
483.57	45492.99
483.74	44683.17
483.92	45518.74
484.10	45811.31
484.28	46457.29
484.46	46700.71
484.64	47363.08
484.82	46574.32
485.00	46361.33
485.18	45120.85
485.35	44268.89
485.53	41015.55
485.71	37109.19
485.89	36793.22
486.07	38115.62
486.25	41588.98
486.43	44484.22
486.61	45141.91
486.78	45258.94
486.96	45167.66
487.14	46710.07
487.32	47585.43
487.50	48388.24
487.68	49488.29
487.85	50162.36
488.03	50014.91
488.21	49530.42
488.39	48980.39
488.57	48505.26
488.75	47901.40
488.92	49137.21
489.10	51196.88
489.28	52566.09
489.46	53298.68
489.64	52835.25
489.81	53294.00
489.99	52804.83
490.17	52896.11
490.35	53261.23
490.53	52741.63
490.70	52446.72
490.88	52303.95
491.06	53460.18
491.24	53329.11
491.41	52336.72
491.59	50277.05
491.77	49703.62
491.95	51117.30
492.13	52191.61
492.30	53282.30
492.48	54075.74
492.66	54461.93
492.84	54838.75
493.01	54681.94
493.19	53893.18
493.37	53399.32
493.54	53130.16
493.72	53815.94
493.90	54862.16
494.08	55800.71
494.25	55821.78
494.43	56011.36
494.61	56444.36
494.79	56673.73
494.96	56449.04
495.14	55814.76
495.32	54866.84
495.49	54239.57
495.67	55061.10
495.85	56561.39
496.02	56994.39
496.20	56931.19
496.38	56404.57
496.55	56378.82
496.73	56753.31
496.91	56882.04
497.09	57429.72
497.26	57544.41
497.44	56910.13
497.62	56568.41
497.79	55695.39
497.97	54548.53
498.14	54548.53
498.32	55810.07
498.50	56622.24
498.67	57324.40
498.85	56994.39
499.03	57308.02
499.20	57453.13
499.38	57532.71
499.56	57513.98
499.73	56886.72
499.91	56264.14
500.08	55957.53
500.26	55278.77
500.44	55758.58
500.61	56488.83
500.79	56465.42
500.97	55732.84
501.14	55618.15
501.32	55613.47
501.49	55458.99
501.67	55714.11
501.84	56282.86
502.02	56711.18
502.20	56938.21
502.37	57137.16
502.55	57151.20
502.72	57570.16
502.90	58092.10
503.07	57701.23
503.25	57345.47
503.43	56240.73
503.60	56020.72
503.78	55320.90
503.95	55519.85
504.13	57078.64
504.30	58166.99
504.48	57773.78
504.65	57511.64
504.83	57258.87
505.01	58225.51
505.18	58429.13
505.36	58869.15
505.53	58899.58
505.71	59114.91
505.88	59187.47
506.06	58607.01
506.23	58202.10
506.41	57883.79
506.58	58052.31
506.76	58066.35
506.93	57925.92
507.11	57886.13
507.28	58047.63
507.46	57535.05
507.63	57008.43
507.81	56514.58
507.98	56949.92
508.16	57743.36
508.33	58305.09
508.50	58424.45
508.68	58667.87
508.85	59245.98
509.03	59299.81
509.20	58997.88
509.38	58389.34
509.55	57649.74
509.73	57710.59
509.90	58363.60
510.08	58478.28
510.25	58520.41
510.42	58295.72
510.60	58241.89
510.77	58485.31
510.95	58988.52
511.12	58997.88
511.30	59400.46
511.47	59714.09
511.64	59554.93
511.82	59133.63
511.99	58632.76
512.17	58192.74
512.34	57481.22
512.51	57876.77
512.69	58047.63
512.86	58174.02
513.04	58508.71
513.21	58398.71
513.38	58052.31
513.56	57851.02
513.73	57186.31
513.90	57221.42
514.08	57212.06
514.25	57719.95
514.43	57902.51
514.60	58103.80
514.77	58321.47
514.95	58096.78
515.12	58120.18
515.29	58291.04
515.47	58894.90
515.64	59107.89
515.81	58742.77
515.99	57832.30
516.16	56788.42
516.33	54408.09
516.51	52999.09
516.68	52374.17
516.85	51475.40
517.03	51835.84
517.20	54684.28
517.37	57205.03
517.54	58333.17
517.72	57666.12
517.89	55306.86
518.06	53027.18
518.24	53301.02
518.41	55688.37
518.58	56830.55
518.75	56938.21
518.93	57268.23
519.10	57155.88
519.27	57626.33
519.45	57652.08
519.62	58499.35
519.79	58782.55
519.96	58679.57
520.14	58213.80
520.31	57247.16
520.48	57354.83
520.65	57631.01
520.83	58621.06
521.00	58901.92
521.17	58761.49
521.34	58178.70
521.52	58614.04
521.69	59007.25
521.86	59253.00
522.03	59124.27
522.20	58099.12
522.38	56856.29
522.55	56870.34
522.72	57787.83
522.89	57687.18
523.07	58204.44
523.24	58387.00
523.41	58948.73
523.58	59351.30
523.75	59742.17
523.92	59643.87
524.10	59519.82
524.27	59480.03
524.44	59416.84
524.61	59285.77
524.78	59072.78
524.96	58983.84
525.13	58983.84
525.30	59086.82
525.47	59487.06
525.64	59550.25
525.81	58777.87
525.98	57392.28
526.16	56196.26
526.33	55290.48
526.50	55002.59
526.67	54700.66
526.84	55473.04
527.01	56275.84
527.18	56968.64
527.36	57682.50
527.53	58649.14
527.70	58934.69
527.87	58534.46
528.04	58033.58
528.21	58562.54
528.38	58864.47
528.55	59700.04
528.72	59964.52
528.89	60238.37
529.07	59866.22
529.24	59318.54
529.41	58571.91
529.58	58010.18
529.75	58033.58
529.92	58702.98
530.09	58829.37
530.26	59346.62
530.43	59517.48
530.60	59693.02
530.77	59934.10
530.94	59906.01
531.11	59702.38
531.28	59243.64
531.46	58972.14
531.63	59112.57
531.80	59063.42
531.97	58681.91
532.14	58071.03
532.31	56987.36
532.48	56147.11
532.65	56357.76
532.82	57308.02
532.99	58143.59
533.16	58569.57
533.33	59274.07
533.50	58955.75
533.67	58363.60
533.84	57769.10
534.01	58019.54
534.18	58342.53
534.35	58576.59
534.52	58333.17
534.69	58707.66
534.86	58965.12
535.03	59107.89
535.20	59683.66
535.37	59957.50
535.54	60027.72
535.71	59669.62
535.88	59440.24
536.05	58803.62
536.22	58365.94
536.38	58042.95
536.55	57649.74
536.72	57085.67
536.89	56872.68
537.06	57792.51
537.23	58658.51
537.40	58941.71
537.57	59192.15
537.74	58642.12
537.91	58541.48
538.08	58499.35
538.25	58595.31
538.42	58948.73
538.59	58571.91
538.75	57904.85
538.92	57804.21
539.09	57411.00
539.26	57263.55
539.43	57237.80
539.60	57352.49
539.77	57640.37
539.94	57366.53
540.11	56638.62
540.28	56097.96
540.44	56278.18
540.61	56481.81
540.78	56622.24
540.95	57137.16
541.12	57556.11
541.29	57853.36
541.46	57993.79
541.62	58042.95
541.79	57998.48
541.96	57226.10
542.13	57368.87
542.30	57467.17
542.47	57872.09
542.63	57659.10
542.80	57162.90
542.97	57357.17
543.14	57282.27
543.31	57432.07
543.48	57916.56
543.64	58494.67
543.81	58831.71
543.98	58651.48
544.15	58059.33
544.32	57396.96
544.48	57738.68
544.65	58075.71
544.82	58389.34
544.99	58169.33
545.16	57851.02
545.32	57387.60
545.49	58169.33
545.66	58394.03
545.83	58185.72
546.00	57954.00
546.16	57457.81
546.33	57708.25
546.50	57687.18
546.67	57932.94
546.83	57673.14
547.00	57652.08
547.17	57080.98
547.34	56479.47
547.50	56437.34
547.67	56767.35
547.84	56910.13
548.00	57378.23
548.17	57553.77
548.34	57488.24
548.51	57509.30
548.67	57588.88
548.84	57602.92
549.01	57726.97
549.18	57422.70
549.34	57324.40
549.51	57542.07
549.68	57436.75
549.84	57071.62
550.01	56851.61
550.18	56987.36
550.34	57212.06
550.51	57111.41
550.68	57247.16
550.84	56554.36
551.01	56914.81
551.18	56423.29
551.34	57036.51
551.51	57130.14
551.68	57595.90
551.84	57626.33
552.01	57336.10
552.18	57392.28
552.34	56460.74
552.51	56182.22
552.68	56002.00
552.84	56505.21
553.01	56601.18
553.18	56671.39
553.34	56900.76
553.51	56870.34
553.67	57116.09
553.84	57298.65
554.01	56886.72
554.17	56701.82
554.34	57174.61
554.51	57059.92
554.67	57350.15
554.84	57214.40
555.00	56788.42
555.17	56846.93
555.33	56582.45
555.50	56481.81
555.67	56776.72
555.83	56493.51
556.00	56353.08
556.16	55997.32
556.33	55723.47
556.50	55559.64
556.66	55683.69
556.83	55515.17
556.99	55810.07
557.16	55746.88
557.32	56245.41
557.49	56151.79
557.65	56067.53
557.82	56058.17
557.98	55856.88
558.15	55407.50
558.32	54569.59
558.48	53558.48
558.65	54087.44
558.81	54363.62
558.98	54831.73
559.14	54960.46
559.31	54775.56
559.47	54946.42
559.64	54487.67
559.80	54445.54
559.97	54099.14
560.13	54768.54
560.30	55791.35
560.46	56119.02
560.63	56542.66
560.79	56505.21
560.96	56182.22
561.12	54958.12
561.29	54148.29
561.45	54061.69
561.61	54798.96
561.78	54958.12
561.94	54855.14
562.11	54852.80
562.27	54775.56
562.44	55084.51
562.60	55370.05
562.77	55449.63
562.93	55573.68
563.10	55290.48
563.26	54632.78
563.42	55023.65
563.59	54691.30
563.75	54670.23
563.92	54705.34
564.08	54710.02
564.24	55185.15
564.41	54871.52
564.57	54766.20
564.74	54480.65
564.90	54623.42
565.07	54663.21
565.23	54040.63
565.39	53565.50
565.56	53560.82
565.72	52816.53
565.88	53490.60
566.05	53331.45
566.21	53851.05
566.38	53979.78
566.54	53858.07
566.70	54333.20
566.87	54508.74
567.03	54274.68
567.19	54700.66
567.36	54473.63
567.52	54171.70
567.68	53972.75
567.85	53387.62
568.01	53015.47
568.17	52591.84
568.34	52835.25
568.50	52538.01
568.66	52900.79
568.83	53209.74
568.99	52882.06
569.15	53322.08
569.32	53167.61
569.48	53146.54
569.64	52795.46
569.81	52720.57
569.97	52664.39
570.13	52589.50
570.30	51796.06
570.46	51676.69
570.62	50883.25
570.78	50637.49
570.95	51114.96
571.11	52013.73
571.27	52123.73
571.43	52289.91
571.60	52732.27
571.76	52807.17
571.92	53242.51
572.09	53366.55
572.25	53153.57
572.41	53336.13
572.57	53155.91
572.74	52865.68
572.90	52402.25
573.06	52566.09
573.22	52530.98
573.38	52640.99
573.55	52704.18
573.71	52739.29
573.87	52516.94
574.03	52350.76
574.20	52605.88
574.36	52205.65
574.52	52112.03
574.68	51716.48
574.84	51487.10
575.01	50955.80
575.17	50960.48
575.33	51000.27
575.49	51161.77
575.65	51709.46
575.82	51201.56
575.98	50838.78
576.14	51267.09
576.30	51440.29
576.46	51648.60
576.62	51948.19
576.79	51599.45
576.95	51255.39
577.11	51442.63
577.27	51423.91
577.43	51365.40
577.59	50937.08
577.75	50447.91
577.92	49895.54
578.08	49624.04
578.24	49818.30
578.40	49811.28
578.56	50248.96
578.72	50398.76
578.88	50564.93
579.04	50623.45
579.21	50569.61
579.37	50705.37
579.53	50822.39
579.69	50859.84
579.85	51114.96
580.01	50728.77
580.17	50260.66
580.33	50295.77
580.49	50576.64
580.65	50555.57
580.82	50698.34
580.98	50920.70
581.14	50712.39
581.30	50712.39
581.46	50667.92
581.62	51164.11
581.78	50735.79
581.94	51140.71
582.10	51096.24
582.26	51084.53
582.42	51290.50
582.58	51299.86
582.74	50820.05
582.90	51009.64
583.06	50845.80
583.22	50696.00
583.38	50499.40
583.54	50309.82
583.70	50766.22
583.86	50543.87
584.02	50625.79
584.18	50300.45
584.34	50553.23
584.50	50333.22
584.66	50263.00
584.82	49787.88
584.98	49743.41
585.14	48931.24
585.30	48453.77
