SpectraSuite Data File
++++++++++++++++++++++++++++++++++++
Date: Mon Oct 07 14:54:01 GMT-05:00 2013
User: price-jones
Dark Spectrum Present: No
Reference Spectrum Present: No
Number of Sampled Component Spectra: 1
Spectrometers: USB2+H05261
Integration Time (usec): 100000 (USB2+H05261)
Spectra Averaged: 1 (USB2+H05261)
Boxcar Smoothing: 0 (USB2+H05261)
Correct for Electrical Dark: No (USB2+H05261)
Strobe/Lamp Enabled: No (USB2+H05261)
Correct for Detector Non-linearity: No (USB2+H05261)
Correct for Stray Light: No (USB2+H05261)
Number of Pixels in Processed Spectrum: 2048
>>>>>Begin Processed Spectral Data<<<<<
365.73	0.00
365.92	0.00
366.12	0.00
366.32	0.00
366.52	0.00
366.72	0.00
366.91	0.00
367.11	0.00
367.31	0.00
367.51	0.00
367.70	0.00
367.90	0.00
368.10	0.00
368.30	0.00
368.49	0.00
368.69	0.00
368.89	0.00
369.09	0.00
369.28	0.00
369.48	0.00
369.68	0.00
369.87	0.00
370.07	0.00
370.27	0.00
370.47	631.94
370.66	3194.83
370.86	3850.18
371.06	4070.19
371.25	4308.93
371.45	3824.44
371.65	3475.70
371.84	3208.87
372.04	3538.89
372.24	3824.44
372.44	4138.07
372.63	3964.87
372.83	3583.36
373.03	3328.24
373.22	2911.63
373.42	3054.40
373.62	3569.32
373.81	3887.63
374.01	3927.42
374.21	3620.81
374.40	3304.84
374.60	3459.31
374.79	3861.88
374.99	4542.98
375.19	4800.44
375.38	4793.42
375.58	4634.26
375.78	4400.21
375.97	4603.83
376.17	4732.56
376.37	4762.99
376.56	4975.98
376.76	5081.30
376.95	5373.87
377.15	5902.83
377.35	6143.91
377.54	6370.94
377.74	6420.09
377.93	6370.94
378.13	6274.98
378.33	6001.13
378.52	5348.12
378.72	5362.17
378.91	5324.72
379.11	4938.53
379.31	4858.95
379.50	4805.12
379.70	5224.08
379.89	5863.04
380.09	6005.81
380.28	6225.82
380.48	6413.07
380.68	6146.25
380.87	6085.39
381.07	5657.07
381.26	5123.43
381.46	4894.06
381.65	4683.41
381.85	4650.64
382.04	4278.50
382.24	3932.10
382.43	3894.65
382.63	3866.56
382.83	3815.07
383.02	3847.84
383.22	3854.86
383.41	3967.21
383.61	4191.90
383.80	4648.30
384.00	5301.31
384.19	5844.32
384.39	6317.11
384.58	6326.47
384.78	6352.21
384.97	6146.25
385.17	5867.72
385.36	5511.96
385.56	5256.84
385.75	5408.98
385.95	5947.30
386.14	6630.74
386.34	6502.01
386.53	6274.98
386.72	5731.97
386.92	5884.11
387.11	6167.31
387.31	6438.81
387.50	6359.24
387.70	6094.76
387.89	6087.73
388.09	6237.53
388.28	6202.42
388.48	6200.08
388.67	6794.58
388.86	7267.36
389.06	7826.75
389.25	8315.92
389.45	8306.56
389.64	8236.35
389.84	8187.19
390.03	8166.13
390.22	7866.54
390.42	8395.50
390.61	8915.10
390.81	9680.46
391.00	9797.48
391.19	9575.13
391.39	9413.63
391.58	8802.75
391.78	8121.66
391.97	8074.85
392.16	7531.84
392.36	6766.49
392.55	5530.69
392.75	4503.19
392.94	3445.27
393.13	3459.31
393.33	4067.85
393.52	5420.68
393.71	6464.56
393.91	7232.26
394.10	7908.67
394.29	8788.71
394.49	9298.95
394.68	10200.05
394.88	10202.40
395.07	10429.43
395.26	10480.92
395.46	10129.84
395.65	9434.70
395.84	8322.94
396.04	7129.27
396.23	5753.04
396.42	4770.01
396.62	4542.98
396.81	5404.30
397.00	6949.05
397.19	8669.34
397.39	10164.95
397.58	11384.37
397.77	12131.00
397.97	12643.57
398.16	12781.67
398.35	13195.94
398.55	13401.91
398.74	13961.30
398.93	14291.31
399.12	14071.30
399.32	13575.11
399.51	13998.74
399.70	14895.17
399.90	14764.10
400.09	14883.47
400.28	14382.59
400.47	14792.19
400.67	15641.80
400.86	15875.85
401.05	16018.63
401.24	15634.78
401.44	16306.51
401.63	16053.73
401.82	16444.60
402.01	16208.21
402.21	16652.91
402.40	16606.10
402.59	16304.17
402.78	15536.48
402.97	14920.92
403.17	15426.47
403.36	16531.20
403.55	16725.47
403.74	17296.56
403.93	16339.28
404.13	15108.16
404.32	14726.65
404.51	15632.44
404.70	16570.99
404.89	16723.13
405.09	16423.54
405.28	16102.89
405.47	16257.36
405.66	15887.56
405.85	15559.88
406.05	15199.44
406.24	15300.08
406.43	16163.74
406.62	16620.14
406.81	16676.32
407.00	16102.89
407.20	15473.28
407.39	15971.82
407.58	16318.22
407.77	17090.59
407.96	17542.32
408.15	18068.94
408.34	17696.79
408.54	18778.12
408.73	18909.19
408.92	18766.42
409.11	18349.80
409.30	17076.55
409.49	16210.55
409.68	15435.83
409.87	14864.74
410.07	15941.39
410.26	16908.03
410.45	17891.06
410.64	18302.99
410.83	18902.17
411.02	19159.63
411.21	20397.77
411.40	19861.79
411.59	19854.76
411.78	20025.62
411.98	19580.92
412.17	20042.01
412.36	19365.59
412.55	19747.10
412.74	19302.40
412.93	18705.56
413.12	19021.53
413.31	20676.29
413.50	21158.44
413.69	21128.02
413.88	20748.85
414.07	19819.66
414.26	20163.72
414.45	20877.58
414.64	20992.26
414.83	20936.09
415.02	20676.29
415.22	20465.64
415.41	20994.61
415.60	21514.20
415.79	22366.16
415.98	22764.05
416.17	22951.29
416.36	22457.44
416.55	21994.01
416.74	21530.59
416.93	21018.01
417.12	20585.01
417.31	20903.32
417.50	21228.66
417.69	22256.15
417.88	21895.71
418.07	21539.95
418.26	21324.62
418.45	21748.26
418.64	22338.07
418.83	23407.70
419.02	22625.96
419.21	22733.62
419.39	21642.93
419.58	20603.74
419.77	20755.87
419.96	21668.68
420.15	22567.45
420.34	23618.35
420.53	24037.30
420.72	24877.55
420.91	24542.86
421.10	24304.12
421.29	23796.23
421.48	23145.56
421.67	24388.38
421.86	23520.04
422.05	21947.20
422.24	19765.82
422.43	19374.95
422.61	21645.27
422.80	23470.89
422.99	23688.56
423.18	22326.37
423.37	22211.68
423.56	22073.59
423.75	22757.03
423.94	22874.06
424.13	22005.72
424.32	21799.75
424.50	21935.50
424.69	21350.37
424.88	21514.20
425.07	21834.86
425.26	21699.11
425.45	21034.39
425.64	21078.86
425.83	21137.38
426.01	22178.92
426.20	22686.81
426.39	22822.56
426.58	21029.71
426.77	19253.25
426.96	18946.64
427.15	19463.90
427.33	20971.20
427.52	22143.81
427.71	22031.46
427.90	21490.80
428.09	21497.82
428.28	20816.72
428.46	20170.74
428.65	20154.35
428.84	20760.55
429.03	20950.14
429.22	19522.41
429.40	18731.31
429.59	17130.38
429.78	15222.84
429.97	15021.56
430.16	15492.01
430.34	15405.41
430.53	15269.66
430.72	15639.46
430.91	16987.61
431.10	19941.36
431.28	24041.98
431.47	25886.32
431.66	26183.57
431.85	24159.01
432.03	22094.66
432.22	20858.85
432.41	21743.58
432.60	23967.09
432.79	25153.74
432.97	25809.09
433.16	25259.06
433.35	23475.57
433.54	20765.23
433.72	19438.15
433.91	19922.64
434.10	22389.56
434.28	23850.06
434.47	25242.68
434.66	24891.60
434.85	24215.18
435.03	24060.71
435.22	24526.47
435.41	26075.91
435.59	26012.71
435.78	26389.54
435.97	27257.88
436.16	27344.48
436.34	27108.08
436.53	26419.97
436.72	26246.77
436.90	24884.58
437.09	24554.56
437.28	24697.33
437.46	25467.37
437.65	25266.08
437.84	23637.07
438.02	21659.32
438.21	21460.37
438.40	23056.62
438.58	25233.32
438.77	25245.02
438.96	25312.89
439.14	26576.78
439.33	27365.54
439.52	27634.71
439.70	27197.02
439.89	26487.84
440.08	25572.69
440.26	25596.10
440.45	26445.71
440.63	28018.55
440.82	29984.60
441.01	29439.26
441.19	29247.33
441.38	29291.80
441.57	30483.14
441.75	31136.15
441.94	31454.46
442.12	30771.02
442.31	31435.74
442.50	31157.21
442.68	30958.27
442.87	30529.95
443.05	30092.27
443.24	30852.94
443.43	31353.82
443.61	31913.20
443.80	32175.34
443.98	30265.47
444.17	30300.58
444.35	32191.73
444.54	32201.09
444.73	32114.49
444.91	30808.47
445.10	29443.94
445.28	28479.64
445.47	28245.58
445.65	28308.78
445.84	29270.74
446.02	30024.39
446.21	30174.19
446.39	29937.79
446.58	31112.74
446.77	31381.90
446.95	31775.11
447.14	32542.81
447.32	33027.30
447.51	32407.06
447.69	31009.76
447.88	30607.19
448.06	30932.52
448.25	31817.24
448.43	32404.72
448.62	31316.37
448.80	31150.19
448.99	31580.85
449.17	31730.64
449.36	31714.26
449.54	32608.34
449.73	33434.55
449.91	33921.38
450.10	34628.23
450.28	35103.35
450.46	34637.59
450.65	34558.01
450.83	34974.63
451.02	33972.88
451.20	33883.94
451.39	33612.43
451.57	33626.48
451.76	33862.87
451.94	33464.98
452.13	32826.01
452.31	31208.70
452.49	29818.42
452.68	30256.11
452.86	30078.22
453.05	30721.87
453.23	31604.25
453.42	32311.10
453.60	32891.55
453.78	33539.88
453.97	33017.94
454.15	33460.30
454.34	32016.19
454.52	32332.16
454.70	31730.64
454.89	32233.86
455.07	32130.87
455.26	32613.02
455.44	33656.90
455.62	34155.44
455.81	34789.72
455.99	34635.25
456.17	33919.04
456.36	33907.34
456.54	35222.72
456.73	35314.00
456.91	35634.66
457.09	35269.53
457.28	36421.08
457.46	35147.82
457.64	34773.34
457.83	33577.33
458.01	33001.55
458.19	33839.47
458.38	33916.70
458.56	35419.33
458.74	34747.59
458.93	34632.91
459.11	34251.40
459.29	34092.24
459.48	34501.84
459.66	34286.51
459.84	34394.17
460.03	34962.92
460.21	35180.59
460.39	35758.70
460.57	35494.22
460.76	36105.10
460.94	36121.49
461.12	35655.72
461.31	35742.32
461.49	35564.44
461.67	35903.82
461.85	36407.03
462.04	36783.86
462.22	37118.56
462.40	36446.82
462.59	36140.21
462.77	36755.77
462.95	36336.82
463.13	35674.45
463.32	36081.70
463.50	35384.22
463.68	35377.20
463.86	35690.83
464.05	35634.66
464.23	34581.42
464.41	34291.19
464.59	33457.96
464.78	35459.12
464.96	35199.32
465.14	34934.84
465.32	35672.10
465.50	36460.87
465.69	37523.47
465.87	36287.67
466.05	34768.66
466.23	33528.17
466.41	32657.49
466.60	33975.22
466.78	33570.30
466.96	34342.68
467.14	35159.53
467.32	35627.63
467.51	35452.09
467.69	33280.08
467.87	34876.32
468.05	35269.53
468.23	35131.44
468.41	35491.88
468.60	35140.80
468.78	35789.13
468.96	34766.32
469.14	35938.93
469.32	36336.82
469.50	34749.93
469.69	34820.15
469.87	34532.26
470.05	34646.95
470.23	34064.16
470.41	34312.25
470.59	34675.04
470.77	35035.48
470.95	35517.63
471.14	36392.99
471.32	36037.23
471.50	37783.27
471.68	38136.69
471.86	38396.49
472.04	38242.01
472.22	38672.67
472.40	36563.85
472.58	36524.06
472.77	36182.34
472.95	36868.12
473.13	37771.57
473.31	36996.85
473.49	37153.66
473.67	37731.78
473.85	38026.68
474.03	38895.02
474.21	38763.95
474.39	39246.10
474.57	39438.03
474.75	39428.66
474.93	38955.88
475.12	38153.07
475.30	38340.32
475.48	38417.55
475.66	39166.52
475.84	38623.52
476.02	38719.48
476.20	37645.18
476.38	38349.68
476.56	39304.62
476.74	39796.13
476.92	40002.10
477.10	40446.80
477.28	41624.09
477.46	41764.52
477.64	42525.19
477.82	41949.42
478.00	42618.81
478.18	41624.09
478.36	41305.77
478.54	41563.23
478.72	41918.99
478.90	42965.21
479.08	43782.06
479.26	44781.47
479.44	44678.49
479.62	43475.45
479.80	44114.42
479.98	44596.57
480.16	44327.41
480.34	44458.48
480.52	44830.62
480.70	44961.69
480.88	44928.92
481.06	45874.50
481.24	46162.39
481.41	46866.89
481.59	46958.17
481.77	47082.22
481.95	46607.09
482.13	46120.26
482.31	46745.18
482.49	47414.57
482.67	47096.26
482.85	46930.08
483.03	47606.50
483.21	48224.40
483.39	48229.08
483.57	47435.64
483.74	47054.13
483.92	47185.20
484.10	47945.87
484.28	48456.11
484.46	48704.21
484.64	49242.53
484.82	48142.48
485.00	47796.08
485.18	47012.00
485.35	45900.25
485.53	42873.93
485.71	39299.94
485.89	38352.02
486.07	40282.96
486.25	44002.07
486.43	46033.66
486.61	47145.41
486.78	46958.17
486.96	46791.99
487.14	48811.87
487.32	49022.52
487.50	50595.36
487.68	51091.55
487.85	52002.02
488.03	51721.16
488.21	51210.92
488.39	50560.25
488.57	49935.33
488.75	49331.47
488.92	50813.03
489.10	52619.92
489.28	53820.62
489.46	54759.17
489.64	54433.84
489.81	54688.96
489.99	54361.28
490.17	54260.64
490.35	54555.55
490.53	54642.15
490.70	53666.14
490.88	53581.88
491.06	54710.02
491.24	54578.95
491.41	53736.36
491.59	52196.29
491.77	51349.01
491.95	52413.96
492.13	53652.10
492.30	54583.63
492.48	55580.70
492.66	56067.53
492.84	55873.27
493.01	55618.15
493.19	55260.05
493.37	54698.32
493.54	54878.54
493.72	55566.66
493.90	56175.20
494.08	56949.92
494.25	57076.30
494.43	57270.57
494.61	57771.44
494.79	57766.76
494.96	57682.50
495.14	57078.64
495.32	56163.50
495.49	55433.25
495.67	56573.09
495.85	57733.99
496.02	58471.26
496.20	58007.84
496.38	57549.09
496.55	57528.03
496.73	57785.49
496.91	58021.88
497.09	58607.01
497.26	58691.27
497.44	58223.17
497.62	57673.14
497.79	56987.36
497.97	55578.36
498.14	55994.98
498.32	57001.41
498.50	57932.94
498.67	58539.14
498.85	58295.72
499.03	58459.56
499.20	58494.67
499.38	58754.47
499.56	58534.46
499.73	57972.73
499.91	57640.37
500.08	57277.59
500.26	56470.11
500.44	56903.10
500.61	57682.50
500.79	57570.16
500.97	56985.02
501.14	57083.33
501.32	56842.25
501.49	56891.40
501.67	57069.28
501.84	57446.11
502.02	57528.03
502.20	58171.67
502.37	57968.05
502.55	58120.18
502.72	58789.58
502.90	59180.45
503.07	58831.71
503.25	58691.27
503.43	57808.89
503.60	57088.01
503.78	56217.33
503.95	56898.42
504.13	58056.99
504.30	58937.03
504.48	58700.64
504.65	58534.46
504.83	58494.67
505.01	59091.51
505.18	59355.99
505.36	60030.06
505.53	60001.97
505.71	60371.78
505.88	60355.39
506.06	59700.04
506.23	59377.05
506.41	58997.88
506.58	59100.87
506.76	59201.51
506.93	59068.10
507.11	58749.79
507.28	59100.87
507.46	58625.74
507.63	58071.03
507.81	57923.58
507.98	58052.31
508.16	58700.64
508.33	59220.23
508.50	59580.68
508.68	60011.34
508.85	60411.57
509.03	60287.52
509.20	60055.81
509.38	59412.16
509.55	58735.74
509.73	58997.88
509.90	59454.29
510.08	59594.72
510.25	59381.73
510.42	59398.12
510.60	59185.13
510.77	59494.08
510.95	59941.12
511.12	60135.38
511.30	60193.90
511.47	60678.39
511.64	60568.38
511.82	60416.25
511.99	59517.48
512.17	59133.63
512.34	58805.96
512.51	59079.80
512.69	58901.92
512.86	59309.18
513.04	59608.76
513.21	59781.96
513.38	59243.64
513.56	58599.99
513.73	58312.11
513.90	58356.58
514.08	58122.52
514.25	58681.91
514.43	59021.29
514.60	59061.08
514.77	59316.20
514.95	59444.93
515.12	59131.29
515.29	59145.34
515.47	59664.94
515.64	59971.55
515.81	59784.30
515.99	59260.02
516.16	57719.95
516.33	55716.45
516.51	54010.20
516.68	53460.18
516.85	52900.79
517.03	53357.19
517.20	55849.86
517.37	58237.21
517.54	59145.34
517.72	58717.02
517.89	56388.19
518.06	54005.52
518.24	54333.20
518.41	56390.53
518.58	57609.95
518.75	58424.45
518.93	58497.01
519.10	58206.78
519.27	58628.08
519.45	58932.35
519.62	59550.25
519.79	59643.87
519.96	59678.98
520.14	58960.44
520.31	58319.13
520.48	58267.64
520.65	58546.16
520.83	59515.14
521.00	59887.29
521.17	59597.06
521.34	59231.94
521.52	59517.48
521.69	60025.38
521.86	60409.23
522.03	60046.44
522.20	58890.22
522.38	58005.50
522.55	58115.50
522.72	58637.44
522.89	58749.79
523.07	58876.18
523.24	59264.70
523.41	59798.35
523.58	60114.32
523.75	60547.32
523.92	60526.25
524.10	60308.58
524.27	60491.15
524.44	60301.56
524.61	60006.65
524.78	59938.78
524.96	59746.86
525.13	59742.17
525.30	60041.76
525.47	60458.38
525.64	60343.69
525.81	59866.22
525.98	58248.91
526.16	57293.97
526.33	56285.20
526.50	56247.75
526.67	55671.98
526.84	56404.57
527.01	57151.20
527.18	58005.50
527.36	58712.34
527.53	59580.68
527.70	60151.77
527.87	59253.00
528.04	58873.84
528.21	59412.16
528.38	60191.56
528.55	60772.01
528.72	60818.82
528.89	61020.11
529.07	60783.71
529.24	60231.35
529.41	59437.90
529.58	58803.62
529.75	58841.07
529.92	59552.59
530.09	59929.42
530.26	60221.98
530.43	60502.85
530.60	60662.00
530.77	60821.16
530.94	60828.18
531.11	60449.02
531.28	60046.44
531.46	59915.37
531.63	60156.45
531.80	60083.89
531.97	59402.80
532.14	58812.98
532.31	57806.55
532.48	57076.30
532.65	57176.95
532.82	58185.72
532.99	59077.46
533.16	59311.52
533.33	59838.14
533.50	59606.42
533.67	59353.65
533.84	58672.55
534.01	58965.12
534.18	59213.21
534.35	59318.54
534.52	59185.13
534.69	59384.07
534.86	59791.33
535.03	59758.56
535.20	60355.39
535.37	60711.16
535.54	60680.73
535.71	60362.42
535.88	60189.22
536.05	59559.61
536.22	59180.45
536.38	58878.52
536.55	58387.00
536.72	58021.88
536.89	57771.44
537.06	58810.64
537.23	59615.79
537.40	59545.57
537.57	59662.60
537.74	59407.48
537.91	59398.12
538.08	59440.24
538.25	59536.21
538.42	59648.55
538.59	59363.01
538.75	58702.98
538.92	58642.12
539.09	58485.31
539.26	58370.62
539.43	58033.58
539.60	58106.14
539.77	58412.75
539.94	58150.61
540.11	57483.56
540.28	57146.52
540.44	56996.73
540.61	57123.11
540.78	57815.91
540.95	58024.22
541.12	58384.66
541.29	58518.07
541.46	59014.27
541.62	58827.02
541.79	58798.94
541.96	58265.30
542.13	58031.24
542.30	58454.88
542.47	58658.51
542.63	58066.35
542.80	57986.77
542.97	58174.02
543.14	58174.02
543.31	57993.79
543.48	58621.06
543.64	59564.29
543.81	59604.08
543.98	59482.37
544.15	58829.37
544.32	58337.85
544.48	58377.64
544.65	58618.72
544.82	59124.27
544.99	58745.11
545.16	58492.33
545.32	58255.93
545.49	58990.86
545.66	59421.52
545.83	58939.37
546.00	58473.60
546.16	58401.05
546.33	58321.47
546.50	58225.51
546.67	58927.67
546.83	58494.67
547.00	58588.29
547.17	57633.35
547.34	57483.56
547.50	57198.01
547.67	57623.99
547.84	57434.41
548.00	58056.99
548.17	58548.50
548.34	58368.28
548.51	58122.52
548.67	58239.55
548.84	58443.18
549.01	58302.74
549.18	58309.77
549.34	58209.12
549.51	58209.12
549.68	58169.33
549.84	57764.42
550.01	57811.23
550.18	57614.63
550.34	57808.89
550.51	57794.85
550.68	58021.88
550.84	57359.51
551.01	57542.07
551.18	57375.89
551.34	57726.97
551.51	57998.48
551.68	58408.07
551.84	58110.82
552.01	58141.25
552.18	58052.31
552.34	57228.44
552.51	56832.89
552.68	56687.78
552.84	57340.78
553.01	57563.14
553.18	57401.64
553.34	57462.49
553.51	57506.96
553.67	57918.90
553.84	57918.90
554.01	57888.47
554.17	57750.38
554.34	57827.62
554.51	58089.76
554.67	58134.23
554.84	57853.36
555.00	57691.86
555.17	57422.70
555.33	57340.78
555.50	57347.81
555.67	57532.71
555.83	57293.97
556.00	57132.48
556.16	56835.23
556.33	56463.08
556.50	56413.93
556.66	56552.02
556.83	55987.95
556.99	56456.06
557.16	56690.12
557.32	56870.34
557.49	57134.82
557.65	56804.80
557.82	56846.93
557.98	56547.34
558.15	56231.37
558.32	55655.60
558.48	54646.83
558.65	54749.81
558.81	55285.79
558.98	55477.72
559.14	55721.13
559.31	55882.63
559.47	55913.06
559.64	55543.25
559.80	55271.75
559.97	55061.10
560.13	55760.92
560.30	56453.72
560.46	56938.21
560.63	57092.69
560.79	57373.55
560.96	56903.10
561.12	55601.77
561.29	54878.54
561.45	55121.96
561.61	55477.72
561.78	55927.10
561.94	55826.46
562.11	55561.98
562.27	55480.06
562.44	55744.54
562.60	56219.67
562.77	56212.65
562.93	56229.03
563.10	55948.17
563.26	55594.74
563.42	55592.40
563.59	55250.69
563.75	55348.99
563.92	55302.18
564.08	55201.53
564.24	55695.39
564.41	55840.50
564.57	55550.27
564.74	55234.30
564.90	55288.13
565.07	55054.08
565.23	54784.92
565.39	54511.08
565.56	53846.36
565.72	53759.76
565.88	54178.72
566.05	53923.60
566.21	54312.13
566.38	54794.28
566.54	54714.70
566.70	55203.88
566.87	55250.69
567.03	55283.45
567.19	55372.39
567.36	55327.92
567.52	55150.04
567.68	54759.17
567.85	54405.75
568.01	53715.29
568.17	53425.07
568.34	53474.22
568.50	53254.21
568.66	53600.61
568.83	54127.23
568.99	53865.09
569.15	54000.84
569.32	54227.87
569.48	53626.35
569.64	53675.51
569.81	53305.70
569.97	53474.22
570.13	53050.58
570.30	52687.80
570.46	52116.71
570.62	51847.55
570.78	51578.39
570.95	51770.31
571.11	52430.34
571.27	52945.26
571.43	53270.59
571.60	53226.12
571.76	53492.94
571.92	54059.35
572.09	54042.97
572.25	53907.22
572.41	53829.98
572.57	53734.02
572.74	53883.81
572.90	53172.29
573.06	53209.74
573.22	53551.46
573.38	53453.15
573.55	53378.26
573.71	53469.54
573.87	53392.30
574.03	53144.20
574.20	52889.09
574.36	52664.39
574.52	52788.44
574.68	52481.83
574.84	52222.03
575.01	51608.81
575.17	51524.55
575.33	51870.95
575.49	52083.94
575.65	52491.19
575.82	52009.04
575.98	51725.84
576.14	51924.78
576.30	52662.05
576.46	52484.17
576.62	52500.56
576.79	52175.22
576.95	51828.82
577.11	51887.34
577.27	52060.54
577.43	52128.41
577.59	51547.96
577.75	51267.09
577.92	50707.71
578.08	50438.54
578.24	50412.80
578.40	50733.45
578.56	50801.33
578.72	51084.53
578.88	51189.86
579.04	51323.27
579.21	51470.72
579.37	51700.09
579.53	51765.63
579.69	51398.16
579.85	51833.50
580.01	51372.42
580.17	51290.50
580.33	51000.27
580.49	51047.08
580.65	51491.79
580.82	51908.40
580.98	51461.36
581.14	51547.96
581.30	51365.40
581.46	51377.10
581.62	51751.59
581.78	51508.17
581.94	51688.39
582.10	51751.59
582.26	52048.83
582.42	51627.54
582.58	51583.07
582.74	51664.99
582.90	51540.94
583.06	51915.42
583.22	51473.06
583.38	51278.80
583.54	51239.01
583.70	51058.79
583.86	51255.39
584.02	50901.97
584.18	51524.55
584.34	51210.92
584.50	51063.47
584.66	50908.99
584.82	50452.59
584.98	50408.12
585.14	50157.68
