SpectraSuite Data File
++++++++++++++++++++++++++++++++++++
Date: Mon Oct 07 14:53:02 GMT-05:00 2013
User: price-jones
Dark Spectrum Present: No
Reference Spectrum Present: No
Number of Sampled Component Spectra: 1
Spectrometers: USB2+H05261
Integration Time (usec): 100000 (USB2+H05261)
Spectra Averaged: 1 (USB2+H05261)
Boxcar Smoothing: 0 (USB2+H05261)
Correct for Electrical Dark: No (USB2+H05261)
Strobe/Lamp Enabled: No (USB2+H05261)
Correct for Detector Non-linearity: No (USB2+H05261)
Correct for Stray Light: No (USB2+H05261)
Number of Pixels in Processed Spectrum: 2048
>>>>>Begin Processed Spectral Data<<<<<
365.73	0.00
365.92	0.00
366.12	0.00
366.32	0.00
366.52	0.00
366.72	0.00
366.91	0.00
367.11	0.00
367.31	0.00
367.51	0.00
367.70	0.00
367.90	0.00
368.10	0.00
368.30	0.00
368.49	0.00
368.69	0.00
368.89	0.00
369.09	0.00
369.28	0.00
369.48	0.00
369.68	0.00
369.87	0.00
370.07	0.00
370.27	0.00
370.47	538.32
370.66	2829.71
370.86	3358.67
371.06	3674.64
371.25	3742.52
371.45	3199.51
371.65	3038.02
371.84	2801.62
372.04	2935.03
372.24	3283.77
372.44	3482.72
372.63	3215.90
372.83	3162.06
373.03	2738.43
373.22	2583.95
373.42	2705.66
373.62	3176.11
373.81	3351.65
374.01	3447.61
374.21	3173.77
374.40	2895.24
374.60	2867.16
374.79	3274.41
374.99	3978.91
375.19	4163.81
375.38	4196.58
375.58	4095.94
375.78	3974.23
375.97	3932.10
376.17	4140.41
376.37	4072.53
376.56	4145.09
376.76	4540.64
376.95	4655.33
377.15	4987.68
377.35	5256.84
377.54	5441.75
377.74	5605.58
377.93	5516.64
378.13	5495.58
378.33	5275.57
378.52	4674.05
378.72	4566.39
378.91	4442.34
379.11	4367.44
379.31	4397.87
379.50	4301.90
379.70	4587.45
379.89	5093.01
380.09	5444.09
380.28	5612.60
380.48	5633.67
380.68	5420.68
380.87	5217.05
381.07	4823.84
381.26	4388.50
381.46	4257.43
381.65	4135.73
381.85	4021.04
382.04	3756.56
382.24	3618.47
382.43	3346.97
382.63	3382.07
382.83	3255.69
383.02	3356.33
383.22	3283.77
383.41	3389.10
383.61	3655.92
383.80	4091.26
384.00	4578.09
384.19	5151.52
384.39	5600.90
384.58	5500.26
384.78	5392.59
384.97	5383.23
385.17	5149.18
385.36	4711.50
385.56	4458.72
385.75	4695.11
385.95	5025.13
386.14	5731.97
386.34	5584.52
386.53	5526.00
386.72	5008.75
386.92	5231.10
387.11	5317.70
387.31	5657.07
387.50	5589.20
387.70	5219.39
387.89	5214.71
388.09	5490.90
388.28	5303.65
388.48	5497.92
388.67	5818.57
388.86	6317.11
389.06	6715.00
389.25	6977.14
389.45	7375.03
389.64	7431.20
389.84	7218.21
390.03	6944.37
390.22	7066.08
390.42	7255.66
390.61	7822.07
390.81	8236.35
391.00	8402.52
391.19	8421.25
391.39	8063.15
391.58	7627.81
391.78	7325.88
391.97	7063.74
392.16	6387.32
392.36	5893.47
392.55	4655.33
392.75	3801.03
392.94	3164.40
393.13	3002.91
393.33	3686.34
393.52	4573.41
393.71	5584.52
393.91	6459.88
394.10	7023.95
394.29	7630.15
394.49	8201.24
394.68	8812.12
394.88	8823.82
395.07	9146.81
395.26	8898.72
395.46	8905.74
395.65	8131.02
395.84	7304.81
396.04	6092.41
396.23	4950.23
396.42	4198.92
396.62	4063.17
396.81	4765.33
397.00	6071.35
397.19	7702.70
397.39	9100.00
397.58	10092.39
397.77	10602.63
397.97	11129.25
398.16	11162.01
398.35	11639.48
398.55	11735.45
398.74	12290.15
398.93	12774.64
399.12	12425.90
399.32	11700.34
399.51	12336.96
399.70	13252.11
399.90	12788.69
400.09	12908.05
400.28	12872.95
400.47	12751.24
400.67	13582.13
400.86	13973.00
401.05	13928.53
401.24	13989.38
401.44	14485.58
401.63	14265.57
401.82	14263.22
402.01	14539.41
402.21	14310.04
402.40	14492.60
402.59	14204.71
402.78	13483.83
402.97	12823.80
403.17	13888.74
403.36	14429.40
403.55	14878.79
403.74	15428.81
403.93	14518.34
404.13	13303.60
404.32	12980.61
404.51	13682.77
404.70	14960.70
404.89	14614.30
405.09	14420.04
405.28	14242.16
405.47	14267.91
405.66	14059.60
405.85	13743.63
406.05	13296.58
406.24	13451.06
406.43	14185.99
406.62	14665.80
406.81	14995.81
407.00	14256.20
407.20	13823.20
407.39	13874.70
407.58	14738.35
407.77	15461.58
407.96	15339.87
408.15	16128.63
408.34	16065.44
408.54	16535.88
408.73	16765.26
408.92	16423.54
409.11	15910.96
409.30	15520.09
409.49	14384.93
409.68	13317.65
409.87	13067.21
410.07	13951.93
410.26	14913.89
410.45	15810.32
410.64	16276.09
410.83	16760.58
411.02	17144.42
411.21	18057.23
411.40	17331.67
411.59	17472.10
411.78	17537.63
411.98	17191.23
412.17	17987.02
412.36	17167.83
412.55	17472.10
412.74	17156.13
412.93	16791.00
413.12	17041.44
413.31	18452.78
413.50	18668.11
413.69	18712.58
413.88	18267.88
414.07	17645.30
414.26	17570.40
414.45	18464.49
414.64	18583.85
414.83	18464.49
415.02	17933.18
415.22	18185.96
415.41	18853.02
415.60	19510.71
415.79	20100.52
415.98	20575.65
416.17	20489.05
416.36	20051.37
416.55	19674.54
416.74	18911.53
416.93	18457.46
417.12	17989.36
417.31	18700.88
417.50	18939.62
417.69	19494.32
417.88	19524.75
418.07	19168.99
418.26	18860.04
418.45	19304.74
418.64	20051.37
418.83	20585.01
419.02	20407.13
419.21	20135.63
419.39	19267.29
419.58	18237.45
419.77	18380.23
419.96	19253.25
420.15	20334.57
420.34	21057.80
420.53	21607.83
420.72	21975.29
420.91	21722.51
421.10	21507.18
421.29	21497.82
421.48	20465.64
421.67	21731.87
421.86	20903.32
422.05	19503.68
422.24	17666.36
422.43	17554.02
422.61	19091.75
422.80	20678.63
422.99	21078.86
423.18	19932.00
423.37	19693.27
423.56	19742.42
423.75	20238.61
423.94	20594.37
424.13	19730.72
424.32	19543.47
424.50	19775.19
424.69	19501.34
424.88	19520.07
425.07	19470.92
425.26	19522.41
425.45	19248.57
425.64	18768.76
425.83	18979.40
426.01	20212.87
426.20	20379.04
426.39	20566.29
426.58	19042.60
426.77	17523.59
426.96	16758.24
427.15	17458.06
427.33	19103.45
427.52	19625.39
427.71	19625.39
427.90	19229.84
428.09	19410.06
428.28	18628.32
428.46	18267.88
428.65	17947.23
428.84	18710.24
429.03	18909.19
429.22	17792.75
429.40	16959.52
429.59	15246.25
429.78	13434.68
429.97	13802.14
430.16	13792.78
430.34	13930.87
430.53	13947.25
430.72	14384.93
430.91	15957.77
431.10	18373.21
431.28	21893.37
431.47	23515.36
431.66	23569.19
431.85	21493.14
432.03	19726.04
432.22	19044.94
432.41	19775.19
432.60	21991.67
432.79	22991.08
432.97	23424.08
433.16	22417.65
433.35	20683.31
433.54	18597.90
433.72	17654.66
433.91	18162.56
434.10	20428.20
434.28	21591.44
434.47	23002.78
434.66	22307.65
434.85	21869.97
435.03	21654.64
435.22	22600.21
435.41	23814.95
435.59	23555.15
435.78	24266.67
435.97	24982.88
436.16	24659.88
436.34	24245.61
436.53	23702.61
436.72	24079.43
436.90	22640.00
437.09	22979.38
437.28	22176.58
437.46	22897.46
437.65	22754.69
437.84	21366.75
438.02	19484.96
438.21	19946.05
438.40	20648.21
438.58	22658.73
438.77	22937.25
438.96	23377.27
439.14	24329.87
439.33	25149.06
439.52	25153.74
439.70	24318.17
439.89	23971.77
440.08	23400.68
440.26	23276.63
440.45	24194.12
440.63	25907.39
440.82	27281.28
441.01	26689.13
441.19	26602.53
441.38	26944.25
441.57	27648.75
441.75	28304.10
441.94	28425.81
442.12	28161.33
442.31	28690.29
442.50	28500.70
442.68	28353.25
442.87	27938.97
443.05	27353.84
443.24	27796.20
443.43	28540.49
443.61	29270.74
443.80	29465.00
443.98	27620.66
444.17	27772.80
444.35	29605.44
444.54	29692.04
444.73	29301.17
444.91	28304.10
445.10	27131.49
445.28	26134.42
445.47	25855.90
445.65	25956.54
445.84	26801.47
446.02	27590.24
446.21	28191.75
446.39	28140.26
446.58	28493.68
446.77	28762.84
446.95	29057.75
447.14	29422.87
447.32	30338.02
447.51	29465.00
447.69	28374.31
447.88	28327.50
448.06	28449.21
448.25	29455.64
448.43	29708.42
448.62	28641.14
448.80	28844.76
448.99	28601.35
449.17	29179.46
449.36	29329.25
449.54	30183.55
449.73	30890.39
449.91	30998.06
450.10	31761.07
450.28	32147.26
450.46	32594.30
450.65	32086.40
450.83	31758.73
451.02	31072.95
451.20	31208.70
451.39	30958.27
451.57	31012.10
451.76	30841.24
451.94	30422.28
452.13	30047.80
452.31	28662.20
452.49	27468.53
452.68	28203.46
452.86	27513.00
453.05	28058.34
453.23	29308.19
453.42	30050.14
453.60	30295.89
453.78	30719.53
453.97	30546.33
454.15	30333.34
454.34	29876.94
454.52	29745.87
454.70	29322.23
454.89	29930.77
455.07	30125.04
455.26	30492.50
455.44	31318.71
455.62	31840.65
455.81	32481.95
455.99	31992.78
456.17	31409.99
456.36	31943.63
456.54	32531.11
456.73	32847.08
456.91	33153.69
457.09	33244.97
457.28	33364.34
457.46	32421.10
457.64	32332.16
457.83	31143.17
458.01	30651.66
458.19	31182.96
458.38	31587.87
458.56	32711.33
458.74	32051.30
458.93	31630.00
459.11	32231.52
459.29	31189.98
459.48	32481.95
459.66	31503.61
459.84	31803.20
460.03	32194.07
460.21	32184.71
460.39	33235.61
460.57	33532.86
460.76	33795.00
460.94	33607.75
461.12	33146.67
461.31	33298.80
461.49	33034.32
461.67	33207.52
461.85	34450.35
462.04	34022.03
462.22	34609.50
462.40	34204.59
462.59	34132.03
462.77	34508.86
462.95	34085.22
463.13	33439.23
463.32	33251.99
463.50	33069.43
463.68	33263.69
463.86	33486.04
464.05	32474.93
464.23	32189.39
464.41	32521.74
464.59	31527.02
464.78	33109.22
464.96	33275.40
465.14	32538.13
465.32	33450.94
465.50	34330.98
465.69	34396.51
465.87	33411.15
466.05	33046.02
466.23	31353.82
466.41	30548.67
466.60	31824.26
466.78	32116.83
466.96	32575.58
467.14	32961.76
467.32	33076.45
467.51	33497.75
467.69	31915.54
467.87	32896.23
468.05	32919.63
468.23	33156.03
468.41	32959.42
468.60	33450.94
468.78	33507.11
468.96	32786.22
469.14	34017.35
469.32	33914.36
469.50	32999.21
469.69	32865.80
469.87	32369.61
470.05	31894.48
470.23	31983.42
470.41	32610.68
470.59	32704.31
470.77	32535.79
470.95	33443.91
471.14	34117.99
471.32	34361.40
471.50	36020.84
471.68	36023.19
471.86	36037.23
472.04	36392.99
472.22	36748.75
472.40	34773.34
472.58	34536.94
472.77	34012.66
472.95	34473.75
473.13	35615.93
473.31	34611.84
473.49	35086.97
473.67	35281.24
473.85	35714.23
474.03	36837.69
474.21	37078.77
474.39	37111.53
474.57	37507.08
474.75	37361.97
474.93	36926.63
475.12	35819.56
475.30	36477.25
475.48	36793.22
475.66	37034.30
475.84	36669.17
476.02	36023.19
476.20	35611.25
476.38	36622.36
476.56	37724.75
476.74	37776.25
476.92	38295.85
477.10	38492.45
477.28	39852.30
477.46	39393.56
477.64	40435.10
477.82	40304.02
478.00	40526.38
478.18	39765.70
478.36	39653.36
478.54	39428.66
478.72	39985.71
478.90	41139.60
479.08	42342.63
479.26	42543.92
479.44	42368.38
479.62	42092.19
479.80	42223.26
479.98	42513.49
480.16	42799.04
480.34	42026.66
480.52	42401.14
480.70	43210.97
480.88	43075.22
481.06	43475.45
481.24	44357.83
481.41	44865.73
481.59	45254.26
481.77	45062.33
481.95	44322.72
482.13	44318.04
482.31	44280.60
482.49	45507.04
482.67	44556.78
482.85	44746.36
483.03	46309.84
483.21	46309.84
483.39	46681.98
483.57	45638.11
483.74	45284.68
483.92	45436.82
484.10	45556.19
484.28	46639.86
484.46	47047.11
484.64	47430.96
484.82	46363.67
485.00	45977.48
485.18	45067.02
485.35	43896.75
485.53	40322.75
485.71	37055.36
485.89	36865.78
486.07	39122.05
486.25	42513.49
486.43	44013.77
486.61	45029.57
486.78	45078.72
486.96	45013.18
487.14	46897.31
487.32	47863.96
487.50	49013.16
487.68	49932.99
487.85	50209.17
488.03	50153.00
488.21	49514.03
488.39	49069.33
488.57	48158.86
488.75	48215.04
488.92	49621.70
489.10	51250.71
489.28	52732.27
489.46	53043.56
489.64	53144.20
489.81	53198.04
489.99	52907.81
490.17	53013.13
490.35	53289.32
490.53	52893.77
490.70	52657.37
490.88	52348.42
491.06	53389.96
491.24	53312.72
491.41	52116.71
491.59	50447.91
491.77	49825.32
491.95	51117.30
492.13	52404.59
492.30	53544.44
492.48	54363.62
492.66	54944.08
492.84	54923.01
493.01	54728.75
493.19	53738.70
493.37	54000.84
493.54	53209.74
493.72	54340.22
493.90	54990.89
494.08	55690.71
494.25	56062.85
494.43	56002.00
494.61	56619.90
494.79	56683.09
494.96	56521.60
495.14	55906.04
495.32	55068.12
495.49	54410.43
495.67	55519.85
495.85	56828.21
496.02	57380.57
496.20	57034.17
496.38	56463.08
496.55	56591.81
496.73	57158.22
496.91	57029.49
497.09	57614.63
497.26	57907.19
497.44	57249.50
497.62	56535.64
497.79	56072.21
497.97	54721.72
498.14	54913.65
498.32	56332.01
498.50	57045.88
498.67	57516.32
498.85	57462.49
499.03	57654.42
499.20	57755.06
499.38	57799.53
499.56	57506.96
499.73	57031.83
499.91	56811.82
500.08	56481.81
500.26	55657.94
500.44	56444.36
500.61	56816.50
500.79	56507.55
500.97	56151.79
501.14	56121.37
501.32	55884.97
501.49	56198.60
501.67	55990.30
501.84	56638.62
502.02	57010.77
502.20	57268.23
502.37	57439.09
502.55	57481.22
502.72	57876.77
502.90	58309.77
503.07	57977.41
503.25	57736.34
503.43	56987.36
503.60	56332.01
503.78	55330.26
503.95	56163.50
504.13	57464.83
504.30	58319.13
504.48	57925.92
504.65	57729.31
504.83	57918.90
505.01	58319.13
505.18	58787.24
505.36	59292.79
505.53	59175.76
505.71	59784.30
505.88	59538.55
506.06	58859.79
506.23	58815.32
506.41	58349.56
506.58	58358.92
506.76	58436.16
506.93	58553.18
507.11	58213.80
507.28	58454.88
507.46	57911.88
507.63	57303.34
507.81	57235.46
507.98	57649.74
508.16	58136.57
508.33	58824.68
508.50	58894.90
508.68	59121.93
508.85	59744.51
509.03	59564.29
509.20	59381.73
509.38	58674.89
509.55	58216.14
509.73	58295.72
509.90	58607.01
510.08	58941.71
510.25	58878.52
510.42	58777.87
510.60	58805.96
510.77	59044.69
510.95	59409.82
511.12	59597.06
511.30	59826.43
511.47	60119.00
511.64	60053.47
511.82	59920.05
511.99	58930.01
512.17	58415.09
512.34	58131.89
512.51	58159.97
512.69	58679.57
512.86	58712.34
513.04	58986.18
513.21	58962.78
513.38	58798.94
513.56	58089.76
513.73	57666.12
513.90	57942.30
514.08	57888.47
514.25	58342.53
514.43	58450.20
514.60	58630.42
514.77	58824.68
514.95	58803.62
515.12	58621.06
515.29	58976.82
515.47	59407.48
515.64	59664.94
515.81	59222.58
515.99	58686.59
516.16	56900.76
516.33	54960.46
516.51	53715.29
516.68	52811.85
516.85	52154.16
517.03	53036.54
517.20	55854.54
517.37	57708.25
517.54	59054.06
517.72	58195.08
517.89	55679.00
518.06	53464.86
518.24	54192.76
518.41	56303.93
518.58	57326.74
518.75	57584.20
518.93	57684.84
519.10	57638.03
519.27	58068.69
519.45	58262.96
519.62	58955.75
519.79	59332.58
519.96	59047.04
520.14	58646.80
520.31	57895.49
520.48	57783.15
520.65	58344.87
520.83	59292.79
521.00	59468.33
521.17	59187.47
521.34	58838.73
521.52	59274.07
521.69	59585.36
521.86	60001.97
522.03	59723.45
522.20	58365.94
522.38	57605.26
522.55	57909.53
522.72	58258.27
522.89	58361.26
523.07	59009.59
523.24	59157.04
523.41	59826.43
523.58	60100.28
523.75	60552.00
523.92	60214.96
524.10	60198.58
524.27	60048.78
524.44	60020.70
524.61	59657.91
524.78	59817.07
524.96	59475.35
525.13	59723.45
525.30	59903.67
525.47	60322.63
525.64	60292.20
525.81	59458.97
525.98	58082.73
526.16	56851.61
526.33	56133.07
526.50	55906.04
526.67	55753.90
526.84	56149.45
527.01	57141.84
527.18	57815.91
527.36	58871.49
527.53	59690.68
527.70	59667.28
527.87	59121.93
528.04	58791.92
528.21	59271.73
528.38	59835.80
528.55	60378.80
528.72	60554.34
528.89	60746.26
529.07	60540.30
529.24	59805.37
529.41	59346.62
529.58	58728.72
529.75	58901.92
529.92	59114.91
530.09	59777.28
530.26	60268.79
530.43	60306.24
530.60	60453.70
530.77	60582.43
530.94	60849.25
531.11	60182.19
531.28	59971.55
531.46	59922.40
531.63	59987.93
531.80	59718.77
531.97	59468.33
532.14	58749.79
532.31	57745.70
532.48	57165.24
532.65	57230.78
532.82	58195.08
532.99	59255.34
533.16	59519.82
533.33	60135.38
533.50	59751.54
533.67	59103.21
533.84	58724.04
534.01	59112.57
534.18	59337.26
534.35	59243.64
534.52	59143.00
534.69	59473.01
534.86	59845.16
535.03	59908.35
535.20	60385.82
535.37	60835.20
535.54	60790.73
535.71	60221.98
535.88	60334.33
536.05	59440.24
536.22	59229.60
536.38	59063.42
536.55	58321.47
536.72	57827.62
536.89	58124.86
537.06	58789.58
537.23	59648.55
537.40	59723.45
537.57	59702.38
537.74	59477.69
537.91	59353.65
538.08	59470.67
538.25	59484.72
538.42	59728.13
538.59	59636.85
538.75	58815.32
538.92	58740.42
539.09	58604.67
539.26	58534.46
539.43	58237.21
539.60	58337.85
539.77	58412.75
539.94	58312.11
540.11	57752.72
540.28	57226.10
540.44	57373.55
540.61	57598.24
540.78	57762.08
540.95	58155.29
541.12	58548.50
541.29	58815.32
541.46	59054.06
541.62	59089.16
541.79	58845.75
541.96	58253.59
542.13	58368.28
542.30	58798.94
542.47	58873.84
542.63	58466.58
542.80	58511.05
542.97	58480.63
543.14	58148.27
543.31	58415.09
543.48	58808.30
543.64	59793.67
543.81	59812.39
543.98	59711.75
544.15	58932.35
544.32	58670.21
544.48	58791.92
544.65	59035.33
544.82	59351.30
544.99	58948.73
545.16	58642.12
545.32	58478.28
545.49	59229.60
545.66	59681.32
545.83	58906.60
546.00	58719.36
546.16	58506.37
546.33	58639.78
546.50	58843.41
546.67	59332.58
546.83	58775.53
547.00	58555.52
547.17	58115.50
547.34	57453.13
547.50	57563.14
547.67	58019.54
547.84	57954.00
548.00	58553.18
548.17	58873.84
548.34	58663.19
548.51	58520.41
548.67	58768.51
548.84	58625.74
549.01	58644.46
549.18	58607.01
549.34	58489.99
549.51	58759.15
549.68	58550.84
549.84	58237.21
550.01	58115.50
550.18	58075.71
550.34	58054.65
550.51	58309.77
550.68	58258.27
550.84	57731.65
551.01	57993.79
551.18	57888.47
551.34	57944.64
551.51	58384.66
551.68	58714.68
551.84	58831.71
552.01	58396.37
552.18	58543.82
552.34	57312.70
552.51	57270.57
552.68	57308.02
552.84	57836.98
553.01	57911.88
553.18	57731.65
553.34	57869.75
553.51	58145.93
553.67	58398.71
553.84	58405.73
554.01	58347.21
554.17	58356.58
554.34	58092.10
554.51	58262.96
554.67	58710.00
554.84	58396.37
555.00	58211.46
555.17	58115.50
555.33	57935.28
555.50	57970.39
555.67	57858.04
555.83	57684.84
556.00	57595.90
556.16	57560.79
556.33	56961.62
556.50	57125.46
556.66	57099.71
556.83	56612.88
556.99	57048.22
557.16	57158.22
557.32	57247.16
557.49	57457.81
557.65	57343.12
557.82	57462.49
557.98	57240.14
558.15	56896.08
558.32	56006.68
558.48	55428.57
558.65	55697.73
558.81	55751.56
558.98	56189.24
559.14	56423.29
559.31	56406.91
559.47	56413.93
559.64	56128.39
559.80	55561.98
559.97	55906.04
560.13	56219.67
560.30	57167.58
560.46	57633.35
560.63	57839.32
560.79	57883.79
560.96	57387.60
561.12	56399.89
561.29	55786.67
561.45	55580.70
561.61	56315.63
561.78	56872.68
561.94	56512.23
562.11	56458.40
562.27	56161.15
562.44	56779.06
562.60	56821.19
562.77	56914.81
562.93	56924.17
563.10	56802.46
563.26	56324.99
563.42	56112.00
563.59	56416.27
563.75	56196.26
563.92	56313.29
564.08	56266.48
564.24	56360.10
564.41	56378.82
564.57	56528.62
564.74	56217.33
564.90	56062.85
565.07	56041.79
565.23	55416.86
565.39	55243.66
565.56	54834.07
565.72	54674.91
565.88	55133.66
566.05	55227.28
566.21	55622.83
566.38	55393.46
566.54	55501.12
566.70	56053.49
566.87	56182.22
567.03	56079.24
567.19	56406.91
567.36	55973.91
567.52	55772.63
567.68	55482.40
567.85	55004.93
568.01	54822.37
568.17	54499.37
568.34	54541.50
568.50	54649.17
568.66	54621.08
568.83	54810.67
568.99	54892.58
569.15	55187.49
569.32	55334.95
569.48	54621.08
569.64	54677.25
569.81	54323.83
569.97	54185.74
570.13	54094.46
570.30	53464.86
570.46	53483.58
570.62	52823.55
570.78	52701.84
570.95	52963.98
571.11	53659.12
571.27	53832.32
571.43	54106.16
571.60	54499.37
571.76	54543.84
571.92	54815.35
572.09	55126.64
572.25	54735.77
572.41	55042.38
572.57	54590.66
572.74	54674.91
572.90	54454.90
573.06	54485.33
573.22	54314.47
573.38	54600.02
573.55	54562.57
573.71	55028.34
573.87	54485.33
574.03	54237.23
574.20	54302.77
574.36	54035.95
574.52	53736.36
574.68	53560.82
574.84	53237.83
575.01	52732.27
575.17	52839.93
575.33	53064.63
575.49	53282.30
575.65	53394.64
575.82	53305.70
575.98	53258.89
576.14	53270.59
576.30	53528.05
576.46	53478.90
576.62	53581.88
576.79	53666.14
576.95	53261.23
577.11	52999.09
577.27	53310.38
577.43	53602.95
577.59	52921.85
577.75	52481.83
577.92	51798.40
578.08	51690.73
578.24	51746.90
578.40	52177.56
578.56	52362.46
578.72	52289.91
578.88	52498.22
579.04	52947.60
579.21	52872.70
579.37	52640.99
579.53	53265.91
579.69	53043.56
579.85	53127.82
580.01	52978.03
580.17	52425.66
580.33	52477.15
580.49	52566.09
580.65	52907.81
580.82	53141.86
580.98	52835.25
581.14	52610.56
581.30	53165.27
581.46	52987.39
581.62	53219.10
581.78	53151.23
581.94	53085.69
582.10	53097.39
582.26	53394.64
582.42	53151.23
582.58	53123.14
582.74	53186.33
582.90	53244.85
583.06	52956.96
583.22	53329.11
583.38	52839.93
583.54	53017.82
583.70	52945.26
583.86	52907.81
584.02	52526.30
584.18	52662.05
584.34	52722.91
584.50	52652.69
584.66	52442.04
584.82	51903.72
584.98	51962.23
585.14	51522.21
585.30	50958.14
