SpectraSuite Data File
++++++++++++++++++++++++++++++++++++
Date: Mon Oct 07 14:53:36 GMT-05:00 2013
User: price-jones
Dark Spectrum Present: No
Reference Spectrum Present: No
Number of Sampled Component Spectra: 1
Spectrometers: USB2+H05261
Integration Time (usec): 100000 (USB2+H05261)
Spectra Averaged: 1 (USB2+H05261)
Boxcar Smoothing: 0 (USB2+H05261)
Correct for Electrical Dark: No (USB2+H05261)
Strobe/Lamp Enabled: No (USB2+H05261)
Correct for Detector Non-linearity: No (USB2+H05261)
Correct for Stray Light: No (USB2+H05261)
Number of Pixels in Processed Spectrum: 2048
>>>>>Begin Processed Spectral Data<<<<<
365.73	0.00
365.92	0.00
366.12	0.00
366.32	0.00
366.52	0.00
366.72	0.00
366.91	0.00
367.11	0.00
367.31	0.00
367.51	0.00
367.70	0.00
367.90	0.00
368.10	0.00
368.30	0.00
368.49	0.00
368.69	0.00
368.89	0.00
369.09	0.00
369.28	0.00
369.48	0.00
369.68	0.00
369.87	0.00
370.07	0.00
370.27	0.00
370.47	685.78
370.66	3487.40
370.86	4126.36
371.06	4440.00
371.25	4402.55
371.45	4107.64
371.65	3723.79
371.84	3389.10
372.04	3705.07
372.24	4168.49
372.44	4163.81
372.63	4191.90
372.83	3906.35
373.03	3459.31
373.22	3091.85
373.42	3262.71
373.62	3749.54
373.81	4177.86
374.01	4236.37
374.21	3812.73
374.40	3550.59
374.60	3604.42
374.79	4060.83
374.99	4521.92
375.19	5191.31
375.38	5254.50
375.58	4952.57
375.78	4648.30
375.97	4748.95
376.17	4908.10
376.37	5097.69
376.56	5291.95
376.76	5324.72
376.95	5774.10
377.15	6087.73
377.35	6558.18
377.54	6672.87
377.74	6712.66
377.93	6925.65
378.13	6736.06
378.33	6235.19
378.52	5858.36
378.72	5638.35
378.91	5610.26
379.11	5282.59
379.31	5057.90
379.50	5217.05
379.70	5432.38
379.89	6239.87
380.09	6471.58
380.28	6686.91
380.48	6663.51
380.68	6541.80
380.87	6567.54
381.07	6024.54
381.26	5507.28
381.46	5324.72
381.65	5088.32
381.85	4826.18
382.04	4725.54
382.24	4276.16
382.43	4084.23
382.63	4039.76
382.83	4032.74
383.02	4142.75
383.22	4128.70
383.41	4114.66
383.61	4259.78
383.80	4971.30
384.00	5760.06
384.19	6317.11
384.39	6857.77
384.58	6766.49
384.78	6396.68
384.97	6562.86
385.17	6242.21
385.36	5905.17
385.56	5547.07
385.75	5884.11
385.95	6377.96
386.14	7037.99
386.34	6846.07
386.53	6698.61
386.72	6129.86
386.92	6335.83
387.11	6469.24
387.31	6832.02
387.50	6799.26
387.70	6595.63
387.89	6560.52
388.09	6525.41
388.28	6747.76
388.48	6616.69
388.67	7033.31
388.86	7810.37
389.06	8374.44
389.25	8940.85
389.45	8957.23
389.64	8966.59
389.84	8781.69
390.03	8688.07
390.22	8713.81
390.42	8940.85
390.61	9568.11
390.81	10246.87
391.00	10403.68
391.19	10312.40
391.39	10111.11
391.58	9359.80
391.78	8823.82
391.97	8564.02
392.16	8032.72
392.36	7112.89
392.55	5816.23
392.75	4510.21
392.94	3712.09
393.13	3618.47
393.33	4404.89
393.52	5621.97
393.71	7321.20
393.91	7625.47
394.10	8512.53
394.29	9490.87
394.49	10256.23
394.68	10895.19
394.88	10918.60
395.07	11192.44
395.26	11248.61
395.46	10867.11
395.65	10223.46
395.84	9078.94
396.04	7691.00
396.23	6277.32
396.42	5221.74
396.62	5025.13
396.81	5542.39
397.00	7372.69
397.19	9205.33
397.39	10984.13
397.58	12554.63
397.77	13015.72
397.97	13802.14
398.16	13642.98
398.35	14342.80
398.55	14647.07
398.74	15009.86
398.93	15693.29
399.12	15428.81
399.32	14813.25
399.51	14878.79
399.70	16203.53
399.90	16030.33
400.09	15936.71
400.28	15896.92
400.47	15995.22
400.67	16896.33
400.86	17254.43
401.05	17233.36
401.24	17504.87
401.44	17493.16
401.63	17731.90
401.82	18015.10
402.01	17713.17
402.21	17715.51
402.40	17921.48
402.59	17348.05
402.78	16613.12
402.97	16072.46
403.17	16861.22
403.36	17879.35
403.55	18532.36
403.74	18888.12
403.93	17804.46
404.13	16704.40
404.32	16002.24
404.51	16861.22
404.70	18319.37
404.89	18256.18
405.09	18174.26
405.28	17542.32
405.47	17523.59
405.66	17507.21
405.85	17074.21
406.05	16681.00
406.24	16627.17
406.43	17563.38
406.62	18204.69
406.81	17951.91
407.00	17504.87
407.20	17158.47
407.39	17247.41
407.58	17947.23
407.77	18499.59
407.96	19452.19
408.15	19880.51
408.34	19515.39
408.54	20662.25
408.73	20489.05
408.92	20608.42
409.11	19887.53
409.30	18951.32
409.49	17591.47
409.68	16629.51
409.87	15763.51
410.07	17224.00
410.26	18401.29
410.45	19531.77
410.64	20201.16
410.83	20446.92
411.02	21256.75
411.21	22026.78
411.40	21553.99
411.59	21898.05
411.78	21439.31
411.98	21439.31
412.17	22176.58
412.36	21556.33
412.55	21376.11
412.74	20931.41
412.93	20512.46
413.12	20875.24
413.31	22824.90
413.50	22944.27
413.69	23697.92
413.88	22363.82
414.07	21853.58
414.26	21830.18
414.45	22609.58
414.64	22691.49
414.83	23133.86
415.02	22806.18
415.22	22333.39
415.41	23124.49
415.60	23367.91
415.79	24797.98
415.98	25046.07
416.17	25130.33
416.36	24517.11
416.55	24278.38
416.74	23552.81
416.93	22909.16
417.12	22611.92
417.31	23190.03
417.50	23087.04
417.69	24432.85
417.88	24121.56
418.07	24020.92
418.26	23388.97
418.45	23779.84
418.64	24212.84
418.83	25191.19
419.02	25427.58
419.21	25240.34
419.39	23707.29
419.58	22134.45
419.77	22593.19
419.96	23850.06
420.15	24968.84
420.34	26073.57
420.53	26675.09
420.72	27159.58
420.91	27180.64
421.10	26630.62
421.29	26253.79
421.48	25727.17
421.67	26852.97
421.86	25832.49
422.05	24444.56
422.24	21797.41
422.43	21518.89
422.61	23782.18
422.80	25694.40
422.99	25673.34
423.18	24954.79
423.37	24414.13
423.56	24442.21
423.75	25113.95
423.94	25348.00
424.13	24170.71
424.32	24430.51
424.50	24264.33
424.69	23744.73
424.88	24130.92
425.07	23999.85
425.26	24196.46
425.45	23674.52
425.64	23571.54
425.83	23311.74
426.01	24879.89
426.20	25598.44
426.39	25177.14
426.58	23241.52
426.77	21572.72
426.96	20954.82
427.15	21645.27
427.33	23274.29
427.52	24196.46
427.71	24589.67
427.90	24379.02
428.09	24240.93
428.28	23424.08
428.46	22583.83
428.65	21921.46
428.84	22944.27
429.03	23447.49
429.22	22281.90
429.40	20844.81
429.59	18831.95
429.78	16636.53
429.97	17151.45
430.16	17207.62
430.34	17074.21
430.53	17043.78
430.72	17411.25
430.91	19349.21
431.10	22640.00
431.28	26698.49
431.47	28716.03
431.66	28982.85
431.85	26529.97
432.03	24355.61
432.22	23241.52
432.41	24507.75
432.60	26953.61
432.79	28041.96
432.97	28549.85
433.16	28074.73
433.35	25654.61
433.54	23428.76
433.72	21453.35
433.91	22380.20
434.10	24950.11
434.28	27026.17
434.47	28453.89
434.66	27831.31
434.85	27367.88
435.03	27145.53
435.22	27309.37
435.41	29046.05
435.59	29287.12
435.78	29668.63
435.97	30352.07
436.16	30621.23
436.34	30363.77
436.53	29390.11
436.72	29638.20
436.90	27892.16
437.09	27697.90
437.28	27330.44
437.46	28395.38
437.65	28313.46
437.84	26569.76
438.02	24226.89
438.21	23983.47
438.40	25579.71
438.58	27683.86
438.77	28395.38
438.96	28730.08
439.14	29675.65
439.33	30569.74
439.52	30831.88
439.70	30560.37
439.89	29848.85
440.08	28959.45
440.26	28819.02
440.45	29612.46
440.63	31644.04
440.82	33036.66
441.01	32772.18
441.19	32788.56
441.38	32996.87
441.57	34036.07
441.75	34991.01
441.94	34693.76
442.12	34284.17
442.31	35356.13
442.50	35288.26
442.68	34649.29
442.87	34663.33
443.05	33841.81
443.24	34227.99
443.43	35054.20
443.61	35854.67
443.80	36407.03
443.98	34363.75
444.17	34136.71
444.35	36318.09
444.54	36884.50
444.73	36144.89
444.91	35012.07
445.10	33472.00
445.28	32013.85
445.47	31569.15
445.65	31929.59
445.84	32488.98
446.02	34040.75
446.21	34211.61
446.39	34483.11
446.58	34693.76
446.77	35475.50
446.95	35374.86
447.14	36652.79
447.32	37163.03
447.51	36233.83
447.69	35005.05
447.88	34553.33
448.06	35255.49
448.25	36100.42
448.43	36669.17
448.62	35524.65
448.80	35360.81
448.99	35264.85
449.17	35882.75
449.36	36067.66
449.54	36917.27
449.73	37867.53
449.91	38124.99
450.10	39325.68
450.28	39758.68
450.46	39337.38
450.65	39529.31
450.83	39428.66
451.02	38239.67
451.20	38443.30
451.39	38588.41
451.57	37799.65
451.76	38061.79
451.94	37394.74
452.13	37184.09
452.31	35086.97
452.49	33820.74
452.68	34230.33
452.86	34501.84
453.05	34342.68
453.23	35777.43
453.42	36435.12
453.60	37710.71
453.78	37874.55
453.97	37310.48
454.15	37170.05
454.34	36828.33
454.52	37038.98
454.70	35908.50
454.89	36510.02
455.07	36676.19
455.26	37038.98
455.44	38555.64
455.62	39019.07
455.81	39707.19
455.99	38780.34
456.17	38742.89
456.36	38801.40
456.54	39922.52
456.73	39948.26
456.91	40364.88
457.09	40835.33
457.28	41516.42
457.46	39842.94
457.64	39239.08
457.83	38387.13
458.01	37476.66
458.19	38370.74
458.38	38452.66
458.56	40076.99
458.74	39943.58
458.93	38581.39
459.11	39098.65
459.29	38707.78
459.48	38852.89
459.66	38646.93
459.84	39515.26
460.03	39679.10
460.21	39370.15
460.39	40371.90
460.57	40254.87
460.76	41031.93
460.94	41659.20
461.12	40381.26
461.31	40493.61
461.49	40547.44
461.67	40514.67
461.85	41949.42
462.04	41317.48
462.22	41776.22
462.40	41670.90
462.59	41277.69
462.77	41762.18
462.95	42031.34
463.13	40961.72
463.32	40893.84
463.50	40519.35
463.68	40367.22
463.86	41102.15
464.05	40161.25
464.23	39173.55
464.41	39215.68
464.59	38256.06
464.78	40603.61
464.96	40280.62
465.14	39929.54
465.32	40931.29
465.50	41848.78
465.69	42143.69
465.87	41120.87
466.05	40259.55
466.23	38808.42
466.41	37631.13
466.60	38628.20
466.78	38806.08
466.96	39810.17
467.14	40268.92
467.32	40657.45
467.51	40577.87
467.69	38794.38
467.87	39723.57
468.05	40722.98
468.23	40175.30
468.41	40540.42
468.60	40605.95
468.78	40746.39
468.96	40332.11
469.14	41109.17
469.32	41354.93
469.50	39924.86
469.69	39643.99
469.87	39292.91
470.05	38995.67
470.23	39335.04
470.41	39412.28
470.59	40224.45
470.77	40397.65
470.95	41095.13
471.14	41684.94
471.32	41654.51
471.50	43543.33
471.68	43817.17
471.86	43910.79
472.04	43931.86
472.22	44346.13
472.40	42263.05
472.58	41961.12
472.77	41383.01
472.95	42347.31
473.13	43281.19
473.31	42211.56
473.49	42532.22
473.67	43290.55
473.85	43161.82
474.03	44615.29
474.21	44381.24
474.39	45174.68
474.57	44795.51
474.75	45162.98
474.93	45209.79
475.12	43978.67
475.30	44126.12
475.48	44385.92
475.66	45059.99
475.84	44556.78
476.02	44074.63
476.20	43346.72
476.38	43969.30
476.56	45319.79
476.74	46157.70
476.92	46410.48
477.10	46607.09
477.28	47878.00
477.46	47402.87
477.64	48287.59
477.82	48186.95
478.00	48453.77
478.18	47604.16
478.36	48016.09
478.54	47271.80
478.72	48200.99
478.90	48854.00
479.08	49846.39
479.26	50642.17
479.44	50223.22
479.62	49640.42
479.80	49923.63
479.98	50195.13
480.16	50490.04
480.34	50145.98
480.52	50227.90
480.70	50679.62
480.88	50684.30
481.06	51332.63
481.24	51536.26
481.41	52224.37
481.59	52655.03
481.77	52645.67
481.95	52161.18
482.13	51877.97
482.31	51973.94
482.49	52718.23
482.67	52325.02
482.85	52715.89
483.03	52933.56
483.21	53268.25
483.39	53183.99
483.57	52762.70
483.74	52538.01
483.92	53116.12
484.10	52870.36
484.28	53546.78
484.46	53757.42
484.64	54232.55
484.82	53663.80
485.00	53359.53
485.18	52207.99
485.35	51681.37
485.53	48736.98
485.71	45202.77
485.89	44519.33
486.07	46014.93
486.25	49668.51
486.43	51789.03
486.61	52535.66
486.78	52339.06
486.96	52743.97
487.14	53551.46
487.32	54433.84
487.50	55131.32
487.68	55929.44
487.85	56406.91
488.03	56369.46
488.21	55891.99
488.39	55407.50
488.57	54997.91
488.75	54609.38
488.92	55498.78
489.10	57315.04
489.28	58211.46
489.46	58728.72
489.64	58644.46
489.81	58798.94
489.99	58379.98
490.17	58539.14
490.35	59063.42
490.53	58564.88
490.70	58024.22
490.88	58117.84
491.06	58918.31
491.24	58972.14
491.41	58333.17
491.59	56914.81
491.77	56112.00
491.95	56914.81
492.13	58131.89
492.30	58864.47
492.48	59744.51
492.66	60231.35
492.84	60032.40
493.01	59985.59
493.19	59337.26
493.37	59096.19
493.54	58951.07
493.72	59407.48
493.90	60196.24
494.08	60884.36
494.25	61387.57
494.43	61167.56
494.61	61663.75
494.79	61642.69
494.96	61474.17
495.14	61029.47
495.32	60413.91
495.49	59599.40
495.67	60449.02
495.85	61755.03
496.02	62089.73
496.20	62159.95
496.38	61740.99
496.55	61626.31
496.73	62019.52
496.91	61902.49
497.09	62642.10
497.26	62714.65
497.44	61923.55
497.62	61820.57
497.79	60999.04
497.97	60247.73
498.14	59987.93
498.32	61214.37
498.50	61836.95
498.67	62532.09
498.85	62323.78
499.03	62445.49
499.20	62756.78
499.38	62775.51
499.56	62300.38
499.73	62115.48
499.91	61799.50
500.08	61403.95
500.26	60636.26
500.44	61045.85
500.61	61635.67
500.79	61654.39
500.97	61354.80
501.14	61097.34
501.32	60858.61
501.49	61116.07
501.67	61113.73
501.84	61560.77
502.02	61858.02
502.20	62312.08
502.37	62246.55
502.55	62375.28
502.72	62684.23
502.90	63250.64
503.07	62958.07
503.25	62574.22
503.43	61932.92
503.60	61340.76
503.78	60795.42
503.95	61130.11
504.13	62253.57
504.30	63189.78
504.48	63058.71
504.65	62368.26
504.83	62508.69
505.01	63091.48
505.18	63409.79
505.36	64165.79
505.53	63959.82
505.71	64037.06
505.88	64409.20
506.06	63751.51
506.23	63388.73
506.41	63103.18
506.58	63220.21
506.76	63089.14
506.93	63112.55
507.11	62915.94
507.28	63105.52
507.46	62639.76
507.63	62248.89
507.81	62031.22
507.98	62394.00
508.16	62805.94
508.33	63407.45
508.50	63536.18
508.68	63835.77
508.85	64402.18
509.03	64317.92
509.20	64294.52
509.38	63662.57
509.55	62927.64
509.73	63039.99
509.90	63377.03
510.08	63641.51
510.25	63819.39
510.42	63472.99
510.60	63311.49
510.77	63765.56
510.95	64254.73
511.12	64196.21
511.30	64437.29
511.47	64818.80
511.64	64622.19
511.82	64458.35
511.99	63877.90
512.17	63285.75
512.34	63047.01
512.51	63278.72
512.69	63224.89
512.86	63494.05
513.04	63812.37
513.21	63707.04
513.38	63454.26
513.56	63100.84
513.73	62550.82
513.90	62866.79
514.08	62808.28
514.25	63147.65
514.43	63171.06
514.60	63072.76
514.77	63313.83
514.95	63407.45
515.12	63318.51
515.29	63489.37
515.47	64025.35
515.64	64126.00
515.81	63945.78
515.99	63395.75
516.16	62045.26
516.33	60324.97
516.51	58892.56
516.68	58312.11
516.85	57855.70
517.03	58164.65
517.20	60331.99
517.37	62635.08
517.54	63620.44
517.72	63009.56
517.89	61001.38
518.06	59206.19
518.24	59157.04
518.41	61048.19
518.58	62166.97
518.75	62522.73
518.93	62482.94
519.10	62279.31
519.27	62925.30
519.45	63016.58
519.62	63723.43
519.79	64083.87
519.96	63866.20
520.14	63494.05
520.31	62702.95
520.48	62677.21
520.65	63072.76
520.83	63856.84
521.00	64142.38
521.17	63814.71
521.34	63510.44
521.52	63817.05
521.69	64423.25
521.86	64605.81
522.03	64420.90
522.20	63290.43
522.38	62461.88
522.55	62396.34
522.72	62782.53
522.89	63070.42
523.07	63454.26
523.24	63592.36
523.41	64250.05
523.58	64573.04
523.75	64966.25
523.92	64851.56
524.10	64809.43
524.27	64694.75
524.44	64661.98
524.61	64395.16
524.78	64296.86
524.96	64250.05
525.13	64259.41
525.30	64441.97
525.47	64914.76
525.64	64732.20
525.81	64135.36
525.98	62953.39
526.16	61663.75
526.33	61052.87
526.50	61034.15
526.67	60381.14
526.84	60821.16
527.01	61682.48
527.18	62611.67
527.36	63185.10
527.53	64193.87
527.70	64360.05
527.87	64111.95
528.04	63447.24
528.21	63983.22
528.38	64551.98
528.55	64989.66
528.72	65193.28
528.89	65513.94
529.07	65106.68
529.24	64743.90
529.41	63756.19
529.58	63440.22
529.75	63348.94
529.92	63887.26
530.09	64327.28
530.26	64669.00
530.43	64924.12
530.60	65020.08
530.77	65284.56
530.94	65317.33
531.11	64924.12
531.28	64507.50
531.46	64493.46
531.63	64573.04
531.80	64413.88
531.97	64015.99
532.14	63353.62
532.31	62452.51
532.48	61787.80
532.65	61883.76
532.82	62791.89
532.99	63674.27
533.16	64114.29
533.33	64470.06
533.50	64530.91
533.67	63767.90
533.84	63423.84
534.01	63482.35
534.18	63917.69
534.35	64013.65
534.52	63819.39
534.69	63898.97
534.86	64118.98
535.03	64519.21
535.20	64776.67
535.37	65284.56
535.54	65251.80
535.71	65029.44
535.88	64722.83
536.05	64079.19
536.22	63826.41
536.38	63512.78
536.55	63044.67
536.72	62543.80
536.89	62532.09
537.06	63330.22
537.23	64034.72
537.40	64228.98
537.57	64292.18
537.74	64034.72
537.91	63859.18
538.08	63908.33
538.25	63882.58
538.42	64243.02
538.59	63994.93
538.75	63496.39
538.92	63260.00
539.09	62979.14
539.26	63042.33
539.43	62728.70
539.60	62798.91
539.77	63105.52
539.94	63021.26
540.11	62253.57
540.28	61818.23
540.44	61872.06
540.61	62237.19
540.78	62555.50
540.95	62812.96
541.12	63004.88
541.29	63320.85
541.46	63641.51
541.62	63545.54
541.79	63461.29
541.96	62871.47
542.13	62787.21
542.30	63217.87
542.47	63393.41
542.63	63093.82
542.80	63096.16
542.97	63093.82
543.14	62953.39
543.31	62864.45
543.48	63269.36
543.64	64107.27
543.81	64374.09
543.98	63978.54
544.15	63634.48
544.32	63173.40
544.48	62993.18
544.65	63501.07
544.82	63845.13
544.99	63515.12
545.16	63260.00
545.32	62880.83
545.49	63725.77
545.66	64163.45
545.83	63683.64
546.00	63426.18
546.16	62988.50
546.33	62922.96
546.50	63302.13
546.67	63669.59
546.83	63194.46
547.00	63241.28
547.17	62632.74
547.34	62115.48
547.50	62010.15
547.67	62440.81
547.84	62513.37
548.00	62878.49
548.17	63131.27
548.34	63252.98
548.51	63037.65
548.67	63320.85
548.84	63398.09
549.01	63309.15
549.18	63056.37
549.34	63000.20
549.51	63096.16
549.68	62972.11
549.84	62777.85
550.01	62719.34
550.18	62695.93
550.34	62487.62
550.51	62906.58
550.68	62899.56
550.84	62426.77
551.01	62653.80
551.18	62588.27
551.34	62712.31
551.51	62929.98
551.68	63149.99
551.84	63206.17
552.01	63243.62
552.18	62932.32
552.34	62349.53
552.51	61886.10
552.68	61687.16
552.84	62230.16
553.01	62639.76
553.18	62384.64
553.34	62447.83
553.51	62684.23
553.67	62901.90
553.84	62995.52
554.01	62906.58
554.17	62578.90
554.34	62845.72
554.51	62819.98
554.67	63047.01
554.84	63089.14
555.00	62585.92
555.17	62284.00
555.33	62527.41
555.50	62443.15
555.67	62410.38
555.83	62527.41
556.00	62190.37
556.16	62000.79
556.33	61726.95
556.50	61535.02
556.66	61539.71
556.83	61401.61
556.99	61450.77
557.16	61485.87
557.32	61860.36
557.49	62031.22
557.65	62049.94
557.82	61904.83
557.98	61958.66
558.15	61549.07
558.32	60783.71
558.48	60001.97
558.65	60224.32
558.81	60601.15
558.98	60917.12
559.14	61153.52
559.31	60877.33
559.47	61066.92
559.64	60701.79
559.80	60542.64
559.97	60463.06
560.13	60985.00
560.30	61616.94
560.46	62143.56
560.63	62321.44
560.79	62436.13
560.96	61911.85
561.12	60886.70
561.29	60343.69
561.45	60350.71
561.61	60694.77
561.78	61006.06
561.94	61090.32
562.11	60921.80
562.27	60940.53
562.44	61041.17
562.60	61345.44
562.77	61567.79
562.93	61591.20
563.10	61209.69
563.26	60891.38
563.42	61057.56
563.59	60837.54
563.75	60900.74
563.92	60734.56
564.08	60727.54
564.24	61045.85
564.41	61010.74
564.57	60797.76
564.74	61015.43
564.90	60853.93
565.07	60528.59
565.23	60210.28
565.39	60088.57
565.56	59784.30
565.72	59461.31
565.88	59700.04
566.05	59880.27
566.21	60261.77
566.38	60102.62
566.54	60336.67
566.70	60629.24
566.87	60566.04
567.03	60987.34
567.19	60879.67
567.36	60823.50
567.52	60720.52
567.68	60233.69
567.85	59908.35
568.01	59625.15
568.17	59283.43
568.34	59227.26
568.50	59241.30
568.66	59309.18
568.83	59566.63
568.99	59519.82
569.15	59847.50
569.32	59826.43
569.48	59779.62
569.64	59428.54
569.81	59182.79
569.97	59213.21
570.13	59093.85
570.30	58794.26
570.46	58597.65
570.62	58068.69
570.78	57942.30
570.95	57991.45
571.11	58630.42
571.27	58944.05
571.43	59173.42
571.60	59267.05
571.76	59358.33
571.92	59765.58
572.09	59894.31
572.25	59618.13
572.41	59690.68
572.57	59559.61
572.74	59625.15
572.90	59124.27
573.06	59009.59
573.22	59196.83
573.38	59274.07
573.55	59241.30
573.71	59519.82
573.87	59320.88
574.03	58997.88
574.20	59098.53
574.36	58878.52
574.52	58707.66
574.68	58578.93
574.84	58527.44
575.01	57965.71
575.17	57722.29
575.33	58120.18
575.49	58174.02
575.65	58459.56
575.82	58347.21
575.98	58183.38
576.14	58159.97
576.30	58667.87
576.46	58719.36
576.62	58525.10
576.79	58424.45
576.95	58143.59
577.11	58265.30
577.27	58099.12
577.43	58232.53
577.59	57930.60
577.75	57829.96
577.92	57315.04
578.08	57043.54
578.24	56938.21
578.40	57193.33
578.56	57364.19
578.72	57530.37
578.88	57656.76
579.04	57666.12
579.21	57848.68
579.37	57932.94
579.53	58026.56
579.69	57970.39
579.85	58010.18
580.01	57865.06
580.17	57516.32
580.33	57446.11
580.49	57663.78
580.65	57663.78
580.82	57954.00
580.98	57677.82
581.14	57865.06
581.30	57918.90
581.46	57647.39
581.62	57949.32
581.78	57984.43
581.94	58103.80
582.10	57932.94
582.26	57979.75
582.42	58204.44
582.58	58260.62
582.74	57902.51
582.90	58164.65
583.06	57895.49
583.22	57661.44
583.38	57755.06
583.54	57483.56
583.70	57675.48
583.86	57769.10
584.02	57483.56
584.18	57661.44
584.34	57467.17
584.50	57525.69
584.66	57378.23
584.82	57146.52
584.98	57155.88
585.14	56741.61
