SpectraSuite Data File
++++++++++++++++++++++++++++++++++++
Date: Mon Oct 07 14:53:20 GMT-05:00 2013
User: price-jones
Dark Spectrum Present: No
Reference Spectrum Present: No
Number of Sampled Component Spectra: 1
Spectrometers: USB2+H05261
Integration Time (usec): 100000 (USB2+H05261)
Spectra Averaged: 1 (USB2+H05261)
Boxcar Smoothing: 0 (USB2+H05261)
Correct for Electrical Dark: No (USB2+H05261)
Strobe/Lamp Enabled: No (USB2+H05261)
Correct for Detector Non-linearity: No (USB2+H05261)
Correct for Stray Light: No (USB2+H05261)
Number of Pixels in Processed Spectrum: 2048
>>>>>Begin Processed Spectral Data<<<<<
365.73	0.00
365.92	0.00
366.12	0.00
366.32	0.00
366.52	0.00
366.72	0.00
366.91	0.00
367.11	0.00
367.31	0.00
367.51	0.00
367.70	0.00
367.90	0.00
368.10	0.00
368.30	0.00
368.49	0.00
368.69	0.00
368.89	0.00
369.09	0.00
369.28	0.00
369.48	0.00
369.68	0.00
369.87	0.00
370.07	0.00
370.27	0.00
370.47	681.10
370.66	3424.20
370.86	4128.70
371.06	4617.88
371.25	4400.21
371.45	3950.82
371.65	3581.02
371.84	3463.99
372.04	3644.21
372.24	4072.53
372.44	4257.43
372.63	4133.39
372.83	3899.33
373.03	3604.42
373.22	3187.81
373.42	3358.67
373.62	3868.91
373.81	4084.23
374.01	4058.49
374.21	3880.61
374.40	3386.76
374.60	3585.70
374.79	4105.30
374.99	4793.42
375.19	5167.90
375.38	5165.56
375.58	4917.47
375.78	4805.12
375.97	4716.18
376.17	5207.69
376.37	5006.41
376.56	5158.54
376.76	5437.06
376.95	5605.58
377.15	6186.04
377.35	6282.00
377.54	6740.74
377.74	6822.66
377.93	7000.54
378.13	6490.31
378.33	6389.66
378.52	5778.78
378.72	5497.92
378.91	5549.41
379.11	5313.02
379.31	5104.71
379.50	5100.03
379.70	5533.03
379.89	6010.50
380.09	6539.46
380.28	6675.21
380.48	6487.96
380.68	6562.86
380.87	6352.21
381.07	5806.87
381.26	5654.73
381.46	5203.01
381.65	4809.80
381.85	4840.23
382.04	4627.24
382.24	4276.16
382.43	4107.64
382.63	3885.29
382.83	4053.81
383.02	4011.68
383.22	4102.96
383.41	4091.26
383.61	4353.40
383.80	5036.83
384.00	5633.67
384.19	6209.44
384.39	6609.67
384.58	6539.46
384.78	6586.27
384.97	6392.00
385.17	6120.50
385.36	5874.74
385.56	5554.09
385.75	5760.06
385.95	6368.60
386.14	6738.40
386.34	6689.25
386.53	6506.69
386.72	6054.97
386.92	6225.82
387.11	6380.30
387.31	6869.47
387.50	6712.66
387.70	6504.35
387.89	6239.87
388.09	6619.04
388.28	6473.92
388.48	6614.35
388.67	7049.69
388.86	7772.92
389.06	8496.14
389.25	8856.59
389.45	8753.60
389.64	8875.31
389.84	8629.56
390.03	8369.76
390.22	8489.12
390.42	8915.10
390.61	9305.97
390.81	10040.90
391.00	10209.42
391.19	10087.71
391.39	9708.54
391.58	9184.26
391.78	8631.90
391.97	8362.73
392.16	7929.74
392.36	7166.72
392.55	5722.61
392.75	4650.64
392.94	3747.20
393.13	3801.03
393.33	4456.38
393.52	5633.67
393.71	6715.00
393.91	7681.64
394.10	8372.10
394.29	9280.22
394.49	9806.84
394.68	10759.44
394.88	10651.78
395.07	11030.94
395.26	10892.85
395.46	10633.05
395.65	10099.41
395.84	8982.98
396.04	7548.23
396.23	6099.44
396.42	4952.57
396.62	4856.61
396.81	5586.86
397.00	7213.53
397.19	9121.07
397.39	10773.49
397.58	12175.47
397.77	12933.80
397.97	13364.46
398.16	13554.04
398.35	14420.04
398.55	14256.20
398.74	15007.52
398.93	15164.33
399.12	14806.23
399.32	14497.28
399.51	14628.35
399.70	15833.72
399.90	15655.84
400.09	15901.60
400.28	15445.20
400.47	15733.08
400.67	16280.77
400.86	16800.37
401.05	16615.46
401.24	16823.77
401.44	17165.49
401.63	17102.29
401.82	17399.54
402.01	17247.41
402.21	17467.42
402.40	17497.84
402.59	17296.56
402.78	16287.79
402.97	15899.26
403.17	16397.79
403.36	17348.05
403.55	17958.93
403.74	18595.56
403.93	17635.94
404.13	16409.50
404.32	15793.94
404.51	16772.28
404.70	17806.80
404.89	17823.18
405.09	17495.50
405.28	17069.53
405.47	17128.04
405.66	17076.55
405.85	16500.78
406.05	16145.02
406.24	16250.34
406.43	17242.73
406.62	17963.61
406.81	17907.44
407.00	17334.01
407.20	16706.74
407.39	16765.26
407.58	17664.02
407.77	18628.32
407.96	19009.83
408.15	19143.24
408.34	19630.07
408.54	20191.80
408.73	20276.06
408.92	19765.82
409.11	19428.79
409.30	18576.83
409.49	17397.20
409.68	16212.89
409.87	15805.64
410.07	16849.52
410.26	18106.38
410.45	19384.32
410.64	19559.86
410.83	20409.47
411.02	20587.35
411.21	21837.20
411.40	21565.70
411.59	21333.98
411.78	20987.58
411.98	21039.08
412.17	21432.29
412.36	20861.19
412.55	21158.44
412.74	20629.48
412.93	20170.74
413.12	20556.93
413.31	22373.18
413.50	22637.66
413.69	23178.33
413.88	21837.20
414.07	21659.32
414.26	21668.68
414.45	21994.01
414.64	22518.29
414.83	22525.32
415.02	21741.24
415.22	22146.15
415.41	22436.38
415.60	23082.36
415.79	24084.11
415.98	24931.39
416.17	24685.63
416.36	24046.66
416.55	23576.22
416.74	22876.40
416.93	22185.94
417.12	22263.18
417.31	22602.55
417.50	23026.19
417.69	23690.90
417.88	23639.41
418.07	23421.74
418.26	22857.67
418.45	23152.58
418.64	24224.54
418.83	25060.12
419.02	24400.08
419.21	24620.10
419.39	23487.28
419.58	22401.27
419.77	22239.77
419.96	23417.06
420.15	24112.20
420.34	25324.60
420.53	26221.02
420.72	26602.53
420.91	26417.63
421.10	26099.31
421.29	25729.51
421.48	24849.47
421.67	26546.36
421.86	25551.63
422.05	23934.32
422.24	21385.47
422.43	21240.36
422.61	23400.68
422.80	25312.89
422.99	25263.74
423.18	24479.66
423.37	23880.49
423.56	23796.23
423.75	24257.31
423.94	25034.37
424.13	23208.75
424.32	23534.09
424.50	23768.14
424.69	23466.21
424.88	23789.20
425.07	23754.10
425.26	23592.60
425.45	23342.16
425.64	22792.14
425.83	23042.57
426.01	24151.99
426.20	24755.85
426.39	24781.59
426.58	22881.08
426.77	21078.86
426.96	20666.93
427.15	21167.80
427.33	22848.31
427.52	23826.65
427.71	23805.59
427.90	23768.14
428.09	23332.80
428.28	23096.41
428.46	22246.79
428.65	21652.30
428.84	22199.98
429.03	22576.81
429.22	21333.98
429.40	20498.41
429.59	18436.40
429.78	16128.63
429.97	16444.60
430.16	16374.39
430.34	16472.69
430.53	16814.41
430.72	17214.64
430.91	18923.23
431.10	22132.11
431.28	26022.08
431.47	28044.30
431.66	28315.80
431.85	26064.21
432.03	24166.03
432.22	22384.88
432.41	24016.24
432.60	26583.80
432.79	27395.97
432.97	28245.58
433.16	27005.10
433.35	25083.52
433.54	22771.07
433.72	21163.12
433.91	21888.69
434.10	24437.53
434.28	25949.52
434.47	27814.93
434.66	26888.07
434.85	26431.67
435.03	26279.54
435.22	26663.38
435.41	28540.49
435.59	28393.04
435.78	29111.58
435.97	29743.53
436.16	29827.79
436.34	29273.08
436.53	28711.35
436.72	28669.22
436.90	27211.07
437.09	27269.58
437.28	26389.54
437.46	27672.15
437.65	27555.13
437.84	26019.74
438.02	23651.11
438.21	23583.24
438.40	25373.75
438.58	26953.61
438.77	27770.46
438.96	28016.21
439.14	29139.67
439.33	29762.25
439.52	30487.82
439.70	29914.39
439.89	28954.77
440.08	28311.12
440.26	27953.02
440.45	29338.62
440.63	30778.04
440.82	32706.65
441.01	31704.90
441.19	31728.30
441.38	32336.84
441.57	33790.31
441.75	33830.10
441.94	33874.57
442.12	34176.50
442.31	34883.34
442.50	34249.06
442.68	34017.35
442.87	33668.61
443.05	32940.70
443.24	33366.68
443.43	34298.21
443.61	34541.63
443.80	35299.96
443.98	33876.91
444.17	32936.02
444.35	34995.69
444.54	36161.28
444.73	35115.06
444.91	34045.43
445.10	32690.26
445.28	31365.52
445.47	31009.76
445.65	31042.53
445.84	32020.87
446.02	32730.05
446.21	32877.51
446.39	33186.46
446.58	33823.08
446.77	34455.03
446.95	34684.40
447.14	36231.49
447.32	36229.15
447.51	35416.99
447.69	33977.56
447.88	33610.09
448.06	34263.10
448.25	34958.24
448.43	35103.35
448.62	34649.29
448.80	34618.86
448.99	34991.01
449.17	34782.70
449.36	35093.99
449.54	36079.36
449.73	36631.72
449.91	37191.11
450.10	38227.97
450.28	38628.20
450.46	38422.23
450.65	38644.59
450.83	38272.44
451.02	37509.43
451.20	37144.30
451.39	37020.25
451.57	36980.46
451.76	36959.40
451.94	36690.24
452.13	36121.49
452.31	34689.08
452.49	32884.53
452.68	33392.42
452.86	33577.33
453.05	33862.87
453.23	35082.29
453.42	35559.76
453.60	36119.15
453.78	36620.02
453.97	36437.46
454.15	36554.49
454.34	35557.42
454.52	36388.31
454.70	35274.21
454.89	35557.42
455.07	35728.28
455.26	35952.97
455.44	37488.36
455.62	38209.25
455.81	38684.37
455.99	38038.39
456.17	37825.40
456.36	37600.71
456.54	39100.99
456.73	38387.13
456.91	39541.01
457.09	39749.32
457.28	40222.11
457.46	38960.56
457.64	38602.46
457.83	37144.30
458.01	36360.22
458.19	37825.40
458.38	37900.29
458.56	38859.91
458.74	38679.69
458.93	38139.03
459.11	38153.07
459.29	37612.41
459.48	38169.46
459.66	37954.13
459.84	38082.86
460.03	38747.57
460.21	38312.23
460.39	39805.49
460.57	39805.49
460.76	40016.14
460.94	40088.70
461.12	39182.91
461.31	39838.26
461.49	39461.43
461.67	39578.46
461.85	40807.24
462.04	40809.58
462.22	41331.52
462.40	40830.65
462.59	41104.49
462.77	40891.50
462.95	40751.07
463.13	39995.07
463.32	39622.93
463.50	38899.70
463.68	39702.51
463.86	39913.16
464.05	39438.03
464.23	38270.10
464.41	38581.39
464.59	37235.58
464.78	39861.66
464.96	39023.75
465.14	38679.69
465.32	40219.77
465.50	40591.91
465.69	41013.21
465.87	40451.48
466.05	39526.97
466.23	37167.71
466.41	37242.60
466.60	38115.62
466.78	38059.45
466.96	38721.82
467.14	39335.04
467.32	39541.01
467.51	39351.43
467.69	38026.68
467.87	38864.60
468.05	39515.26
468.23	39470.79
468.41	39405.26
468.60	39454.41
468.78	39667.40
468.96	39178.23
469.14	40528.72
469.32	40275.94
469.50	38684.37
469.69	39044.82
469.87	38361.38
470.05	38148.39
470.23	37820.72
470.41	38366.06
470.59	38293.50
470.77	38778.00
470.95	39679.10
471.14	40760.43
471.32	40570.85
471.50	42520.51
471.68	43037.77
471.86	42866.91
472.04	43068.20
472.22	42880.95
472.40	41085.76
472.58	40704.26
472.77	40444.46
472.95	41315.14
473.13	42096.88
473.31	41359.61
473.49	41598.34
473.67	42188.16
473.85	42635.20
474.03	43299.91
474.21	44032.50
474.39	44114.42
474.57	44657.42
474.75	43952.92
474.93	43536.30
475.12	43005.00
475.30	42777.97
475.48	43751.63
475.66	43515.24
475.84	43140.75
476.02	43009.68
476.20	42230.29
476.38	43217.99
476.56	44610.61
476.74	44863.39
476.92	45240.21
477.10	45890.88
477.28	46873.91
477.46	46770.93
477.64	47131.37
477.82	46983.91
478.00	47295.21
478.18	46623.47
478.36	46717.09
478.54	46918.38
478.72	46728.80
478.90	47821.83
479.08	48839.96
479.26	49563.18
479.44	48968.69
479.62	48968.69
479.80	49195.72
479.98	49099.76
480.16	49338.49
480.34	48788.47
480.52	49221.47
480.70	49673.19
480.88	49815.96
481.06	50450.25
481.24	50410.46
481.41	51306.88
481.59	52109.69
481.77	51636.90
481.95	51182.84
482.13	50979.21
482.31	51047.08
482.49	51702.43
482.67	51562.00
482.85	51430.93
483.03	52182.24
483.21	52598.86
483.39	52374.17
483.57	52027.77
483.74	51756.27
483.92	51786.69
484.10	51910.74
484.28	53001.43
484.46	53113.78
484.64	53673.16
484.82	52708.86
485.00	52395.23
485.18	51835.84
485.35	50431.52
485.53	47878.00
485.71	44278.25
485.89	43627.59
486.07	45619.38
486.25	49165.29
486.43	50932.40
486.61	51295.18
486.78	51274.12
486.96	51814.78
487.14	52992.07
487.32	53595.93
487.50	54759.17
487.68	54901.95
487.85	55594.74
488.03	55543.25
488.21	55316.22
488.39	54607.04
488.57	54267.66
488.75	53832.32
488.92	54588.31
489.10	56329.67
489.28	57631.01
489.46	58085.07
489.64	57832.30
489.81	58150.61
489.99	57801.87
490.17	57858.04
490.35	58340.19
490.53	57691.86
490.70	57563.14
490.88	57270.57
491.06	58333.17
491.24	58277.00
491.41	57268.23
491.59	55976.25
491.77	55253.03
491.95	56299.25
492.13	57193.33
492.30	58321.47
492.48	59140.66
492.66	59456.63
492.84	59379.39
493.01	59208.53
493.19	58749.79
493.37	58501.69
493.54	58248.91
493.72	58749.79
493.90	59796.01
494.08	60449.02
494.25	60598.81
494.43	60631.58
494.61	60914.78
494.79	61038.83
494.96	61062.24
495.14	60425.61
495.32	59615.79
495.49	59096.19
495.67	59950.48
495.85	61153.52
496.02	61329.06
496.20	61464.81
496.38	61015.43
496.55	60912.44
496.73	61104.37
496.91	61425.02
497.09	62010.15
497.26	61977.39
497.44	61563.11
497.62	61202.67
497.79	60451.36
497.97	59367.69
498.14	59503.44
498.32	60463.06
498.50	61352.46
498.67	61635.67
498.85	61558.43
499.03	61745.67
499.20	62232.50
499.38	61923.55
499.56	61937.60
499.73	61258.84
499.91	61057.56
500.08	60563.70
500.26	59948.14
500.44	60381.14
500.61	61221.39
500.79	61029.47
500.97	60397.52
501.14	60303.90
501.32	60207.94
501.49	60430.29
501.67	60507.53
501.84	61015.43
502.02	61141.81
502.20	61504.60
502.37	61848.66
502.55	61755.03
502.72	62188.03
502.90	62602.31
503.07	62274.63
503.25	62110.80
503.43	61127.77
503.60	60671.37
503.78	60009.00
503.95	60591.79
504.13	61696.52
504.30	62532.09
504.48	62246.55
504.65	61750.35
504.83	61874.40
505.01	62438.47
505.18	62724.02
505.36	63320.85
505.53	63456.60
505.71	63517.46
505.88	63721.08
506.06	63194.46
506.23	62707.63
506.41	62370.60
506.58	62717.00
506.76	62632.74
506.93	62539.11
507.11	62298.04
507.28	62485.28
507.46	62056.96
507.63	61607.58
507.81	61492.89
507.98	61516.30
508.16	62204.42
508.33	62688.91
508.50	62922.96
508.68	63117.23
508.85	63763.21
509.03	63664.91
509.20	63508.10
509.38	62887.85
509.55	62108.46
509.73	62419.75
509.90	62721.68
510.08	63072.76
510.25	63098.50
510.42	62955.73
510.60	62878.49
510.77	63061.05
510.95	63515.12
511.12	63568.95
511.30	63894.28
511.47	64093.23
511.64	63905.99
511.82	63503.42
511.99	62904.24
512.17	62632.74
512.34	62351.87
512.51	62436.13
512.69	62424.43
512.86	62688.91
513.04	63281.06
513.21	63236.59
513.38	62724.02
513.56	62354.21
513.73	61759.72
513.90	61975.05
514.08	62085.05
514.25	62394.00
514.43	62590.61
514.60	62557.84
514.77	62843.38
514.95	62742.74
515.12	62611.67
515.29	62915.94
515.47	63224.89
515.64	63463.63
515.81	63107.86
515.99	62681.89
516.16	61460.13
516.33	59461.31
516.51	58284.02
516.68	57556.11
516.85	57181.63
517.03	57712.93
517.20	59999.63
517.37	61928.23
517.54	62848.06
517.72	62298.04
517.89	60226.66
518.06	58169.33
518.24	58452.54
518.41	60427.95
518.58	61621.62
518.75	61752.69
518.93	61953.98
519.10	61836.95
519.27	62209.10
519.45	62368.26
519.62	63117.23
519.79	63323.19
519.96	63206.17
520.14	62836.36
520.31	62047.60
520.48	62087.39
520.65	62342.51
520.83	63140.63
521.00	63618.10
521.17	63231.91
521.34	62686.57
521.52	63051.69
521.69	63681.30
521.86	63999.61
522.03	63674.27
522.20	62496.98
522.38	61668.44
522.55	61834.61
522.72	62255.91
522.89	62461.88
523.07	62499.33
523.24	62929.98
523.41	63547.89
523.58	63934.07
523.75	64348.35
523.92	64257.07
524.10	64137.70
524.27	64104.93
524.44	63898.97
524.61	63838.11
524.78	63487.03
524.96	63370.00
525.13	63580.65
525.30	63819.39
525.47	64140.04
525.64	64006.63
525.81	63442.56
525.98	62089.73
526.16	61001.38
526.33	60238.37
526.50	60158.79
526.67	59622.81
526.84	60261.77
527.01	61146.50
527.18	61853.34
527.36	62663.16
527.53	63489.37
527.70	63697.68
527.87	62986.16
528.04	62588.27
528.21	63379.37
528.38	63943.44
528.55	64367.07
528.72	64566.02
528.89	64542.61
529.07	64486.44
529.24	63824.07
529.41	63444.90
529.58	62644.44
529.75	62864.45
529.92	63203.83
530.09	63620.44
530.26	64170.47
530.43	64381.12
530.60	64317.92
530.77	64577.72
530.94	64793.05
531.11	64081.53
531.28	63840.45
531.46	63597.04
531.63	63891.94
531.80	63803.00
531.97	63178.08
532.14	62728.70
532.31	61797.16
532.48	61258.84
532.65	61202.67
532.82	62042.92
532.99	63096.16
533.16	63252.98
533.33	63756.19
533.50	63594.70
533.67	63096.16
533.84	62672.52
534.01	62915.94
534.18	63107.86
534.35	63341.92
534.52	63093.82
534.69	63470.65
534.86	63650.87
535.03	63774.92
535.20	64179.83
535.37	64612.83
535.54	64750.92
535.71	64397.50
535.88	64086.21
536.05	63379.37
536.22	63009.56
536.38	62789.55
536.55	62522.73
536.72	62017.17
536.89	61914.19
537.06	62639.76
537.23	63351.28
537.40	63498.73
537.57	63501.07
537.74	63299.79
537.91	63400.43
538.08	63351.28
538.25	63189.78
538.42	63575.97
538.59	63252.98
538.75	62787.21
538.92	62562.52
539.09	62436.13
539.26	62314.42
539.43	62333.15
539.60	62150.59
539.77	62258.25
539.94	62145.90
540.11	61492.89
540.28	61146.50
540.44	61165.22
540.61	61539.71
540.78	61530.34
540.95	61993.77
541.12	62370.60
541.29	62429.11
541.46	63021.26
541.62	62873.81
541.79	62630.40
541.96	62218.46
542.13	62417.41
542.30	62644.44
542.47	62525.07
542.63	62504.01
542.80	62131.86
542.97	62464.22
543.14	62127.18
543.31	62244.21
543.48	62738.06
543.64	63472.99
543.81	63714.06
543.98	63442.56
544.15	62539.11
544.32	62237.19
544.48	62356.55
544.65	62880.83
544.82	63035.31
544.99	62810.62
545.16	62471.24
545.32	62504.01
545.49	63131.27
545.66	63243.62
545.83	63082.12
546.00	62625.71
546.16	62396.34
546.33	62513.37
546.50	62305.06
546.67	62812.96
546.83	62452.51
547.00	62590.61
547.17	61996.11
547.34	61340.76
547.50	61396.93
547.67	61776.10
547.84	61914.19
548.00	62204.42
548.17	62635.08
548.34	62513.37
548.51	62480.60
548.67	62466.56
548.84	62447.83
549.01	62485.28
549.18	62286.34
549.34	62405.70
549.51	62323.78
549.68	62349.53
549.84	62007.81
550.01	62099.09
550.18	61953.98
550.34	61874.40
550.51	62164.63
550.68	62115.48
550.84	61703.54
551.01	61703.54
551.18	61865.04
551.34	61918.87
551.51	62190.37
551.68	62518.05
551.84	62461.88
552.01	62218.46
552.18	62365.91
552.34	61275.22
552.51	61174.58
552.68	61113.73
552.84	61687.16
553.01	61806.53
553.18	61687.16
553.34	61923.55
553.51	62005.47
553.67	62066.33
553.84	62209.10
554.01	62199.74
554.17	62021.86
554.34	61968.02
554.51	62237.19
554.67	62452.51
554.84	62396.34
555.00	61942.28
555.17	61916.53
555.33	61780.78
555.50	61745.67
555.67	61703.54
555.83	61635.67
556.00	61422.68
556.16	61420.34
556.33	61167.56
556.50	60774.35
556.66	60968.61
556.83	60781.37
556.99	60874.99
557.16	60781.37
557.32	61293.95
557.49	61296.29
557.65	61385.23
557.82	61116.07
557.98	61036.49
558.15	60608.17
558.32	60102.62
558.48	59290.45
558.65	59632.17
558.81	59863.88
558.98	60196.24
559.14	60346.03
559.31	60238.37
559.47	60336.67
559.64	60189.22
559.80	59681.32
559.97	59934.10
560.13	60154.11
560.30	61190.97
560.46	61427.36
560.63	61518.64
560.79	61502.26
560.96	61205.01
561.12	60182.19
561.29	59519.82
561.45	59561.95
561.61	60065.17
561.78	60540.30
561.94	60439.65
562.11	60083.89
562.27	60079.21
562.44	60434.97
562.60	60519.23
562.77	60882.02
562.93	60718.18
563.10	60603.49
563.26	59978.57
563.42	60097.94
563.59	60079.21
563.75	60041.76
563.92	60203.26
564.08	60086.23
564.24	60376.46
564.41	60266.45
564.57	60271.14
564.74	60004.31
564.90	60041.76
565.07	59915.37
565.23	59533.87
565.39	59030.65
565.56	58717.02
565.72	58684.25
565.88	59133.63
566.05	59171.08
566.21	59388.75
566.38	59590.04
566.54	59501.10
566.70	59901.33
566.87	60140.07
567.03	60001.97
567.19	60205.60
567.36	59845.16
567.52	59803.03
567.68	59606.42
567.85	59145.34
568.01	58852.77
568.17	58354.24
568.34	58674.89
568.50	58431.47
568.66	58597.65
568.83	58796.60
568.99	59124.27
569.15	59171.08
569.32	58962.78
569.48	58953.41
569.64	58698.30
569.81	58321.47
569.97	58398.71
570.13	58176.36
570.30	57794.85
570.46	57574.84
570.62	57109.07
570.78	56711.18
570.95	57169.93
571.11	57846.34
571.27	57975.07
571.43	58181.04
571.60	58438.50
571.76	58642.12
571.92	58890.22
572.09	59037.67
572.25	58777.87
572.41	58904.26
572.57	58705.32
572.74	58857.45
572.90	58185.72
573.06	58284.02
573.22	58410.41
573.38	58305.09
573.55	58471.26
573.71	58609.35
573.87	58457.22
574.03	58248.91
574.20	58272.32
574.36	58024.22
574.52	58094.44
574.68	57848.68
574.84	57324.40
575.01	56898.42
575.17	56949.92
575.33	57298.65
575.49	57528.03
575.65	57682.50
575.82	57462.49
575.98	57256.53
576.14	57457.81
576.30	57570.16
576.46	57776.12
576.62	57818.25
576.79	57600.58
576.95	57176.95
577.11	57174.61
577.27	57389.94
577.43	57591.22
577.59	57125.46
577.75	56882.04
577.92	56219.67
578.08	56147.11
578.24	56093.28
578.40	56343.72
578.56	56823.53
578.72	56624.58
578.88	56879.70
579.04	56954.60
579.21	57024.81
579.37	57069.28
579.53	57303.34
579.69	57193.33
579.85	57277.59
580.01	57214.40
580.17	56725.22
580.33	56605.86
580.49	56769.69
580.65	56898.42
580.82	57036.51
580.98	57050.56
581.14	56786.08
581.30	57198.01
581.46	56875.02
581.62	57293.97
581.78	57389.94
581.94	57258.87
582.10	57366.53
582.26	57312.70
582.42	57160.56
582.58	57134.82
582.74	57146.52
582.90	57214.40
583.06	57289.29
583.22	57144.18
583.38	56928.85
583.54	57038.86
583.70	57052.90
583.86	57064.60
584.02	56790.76
584.18	56879.70
584.34	56750.97
584.50	56650.33
584.66	56722.88
584.82	56238.39
584.98	56226.69
585.14	55835.82
