SpectraSuite Data File
++++++++++++++++++++++++++++++++++++
Date: Mon Oct 07 14:53:15 GMT-05:00 2013
User: price-jones
Dark Spectrum Present: No
Reference Spectrum Present: No
Number of Sampled Component Spectra: 1
Spectrometers: USB2+H05261
Integration Time (usec): 100000 (USB2+H05261)
Spectra Averaged: 1 (USB2+H05261)
Boxcar Smoothing: 0 (USB2+H05261)
Correct for Electrical Dark: No (USB2+H05261)
Strobe/Lamp Enabled: No (USB2+H05261)
Correct for Detector Non-linearity: No (USB2+H05261)
Correct for Stray Light: No (USB2+H05261)
Number of Pixels in Processed Spectrum: 2048
>>>>>Begin Processed Spectral Data<<<<<
365.73	0.00
365.92	0.00
366.12	0.00
366.32	0.00
366.52	0.00
366.72	0.00
366.91	0.00
367.11	0.00
367.31	0.00
367.51	0.00
367.70	0.00
367.90	0.00
368.10	0.00
368.30	0.00
368.49	0.00
368.69	0.00
368.89	0.00
369.09	0.00
369.28	0.00
369.48	0.00
369.68	0.00
369.87	0.00
370.07	0.00
370.27	0.00
370.47	557.05
370.66	3033.33
370.86	3396.12
371.06	3510.80
371.25	3557.61
371.45	3290.79
371.65	2970.14
371.84	2726.72
372.04	3012.27
372.24	3297.81
372.44	3569.32
372.63	3400.80
372.83	3089.51
373.03	2867.16
373.22	2602.68
373.42	2710.34
373.62	3260.37
373.81	3295.47
374.01	3419.52
374.21	2857.79
374.40	2841.41
374.60	2958.44
374.79	3368.03
374.99	3925.08
375.19	4219.99
375.38	4259.78
375.58	3955.51
375.78	3852.52
375.97	3929.76
376.17	4079.55
376.37	4098.28
376.56	4227.01
376.76	4346.37
376.95	4795.76
377.15	5172.58
377.35	5135.14
377.54	5460.47
377.74	5750.70
377.93	5502.60
378.13	5420.68
378.33	5144.50
378.52	4634.26
378.72	4514.89
378.91	4585.11
379.11	4304.25
379.31	4255.09
379.50	4074.87
379.70	4587.45
379.89	5097.69
380.09	5235.78
380.28	5462.81
380.48	5624.31
380.68	5474.51
380.87	5186.63
381.07	4870.65
381.26	4414.25
381.46	4257.43
381.65	3999.98
381.85	4105.30
382.04	3761.24
382.24	3630.17
382.43	3208.87
382.63	3201.85
382.83	3234.62
383.02	3220.58
383.22	3173.77
383.41	3272.07
383.61	3672.30
383.80	4245.73
384.00	4580.43
384.19	5210.03
384.39	5486.22
384.58	5462.81
384.78	5261.52
384.97	5198.33
385.17	4938.53
385.36	4587.45
385.56	4610.86
385.75	4601.49
385.95	5177.26
386.14	5743.67
386.34	5668.78
386.53	5411.32
386.72	5048.54
386.92	5097.69
387.11	5334.08
387.31	5750.70
387.50	5455.79
387.70	5322.38
387.89	5320.04
388.09	5310.68
388.28	5537.71
388.48	5387.91
388.67	6005.81
388.86	6560.52
389.06	6853.09
389.25	7346.94
389.45	7470.99
389.64	7368.01
389.84	7173.74
390.03	7232.26
390.22	7208.85
390.42	7323.54
390.61	7726.11
390.81	8229.32
391.00	8765.31
391.19	8540.61
391.39	8102.93
391.58	7583.34
391.78	6995.86
391.97	6984.16
392.16	6551.16
392.36	5966.03
392.55	4606.17
392.75	3826.78
392.94	3124.62
393.13	3035.67
393.33	3726.13
393.52	4573.41
393.71	5783.46
393.91	6328.81
394.10	6913.94
394.29	7637.17
394.49	8285.50
394.68	8943.19
394.88	8982.98
395.07	9329.38
395.26	9310.65
395.46	8908.08
395.65	8393.16
395.84	7293.11
396.04	6136.88
396.23	4957.25
396.42	4187.22
396.62	4112.32
396.81	4842.57
397.00	6031.56
397.19	7683.98
397.39	9069.58
397.58	10279.63
397.77	10490.28
397.97	11199.46
398.16	11405.43
398.35	11716.72
398.55	11756.51
398.74	12461.01
398.93	12575.70
399.12	12416.54
399.32	11934.39
399.51	12381.43
399.70	13109.34
399.90	13170.19
400.09	13046.15
400.28	13076.57
400.47	13034.44
400.67	13811.50
400.86	14043.21
401.05	14033.85
401.24	14071.30
401.44	14485.58
401.63	14200.03
401.82	14640.05
402.01	14628.35
402.21	15012.20
402.40	14918.57
402.59	14003.43
402.78	13635.96
402.97	13200.62
403.17	13635.96
403.36	14733.67
403.55	15042.62
403.74	15435.83
403.93	14820.27
404.13	13687.45
404.32	13027.42
404.51	14097.05
404.70	15047.30
404.89	15213.48
405.09	14829.63
405.28	14305.35
405.47	14328.76
405.66	14171.94
405.85	13790.44
406.05	13394.89
406.24	13832.57
406.43	14431.74
406.62	14848.36
406.81	15190.08
407.00	14750.06
407.20	14136.84
407.39	14429.40
407.58	15316.47
407.77	15772.87
407.96	15939.05
408.15	15939.05
408.34	16299.49
408.54	16994.63
408.73	17074.21
408.92	16751.21
409.11	16512.48
409.30	15618.39
409.49	14623.67
409.68	13888.74
409.87	13202.96
410.07	14305.35
410.26	15309.44
410.45	16458.65
410.64	17032.08
410.83	17163.15
411.02	17607.85
411.21	18218.73
411.40	17813.82
411.59	18099.36
411.78	17909.78
411.98	17827.86
412.17	18134.47
412.36	17785.73
412.55	17631.26
412.74	17291.88
412.93	17172.51
413.12	17109.32
413.31	18682.16
413.50	18801.52
413.69	19475.60
413.88	18403.63
414.07	17998.72
414.26	18143.83
414.45	19180.69
414.64	18874.08
414.83	18888.12
415.02	18661.09
415.22	18628.32
415.41	19225.16
415.60	19882.85
415.79	20514.80
415.98	21130.36
416.17	20985.24
416.36	20276.06
416.55	20060.73
416.74	19342.19
416.93	18836.63
417.12	18799.18
417.31	19257.93
417.50	19370.27
417.69	19978.81
417.88	20166.06
418.07	19864.13
418.26	19611.35
418.45	19735.40
418.64	20545.22
418.83	21387.82
419.02	20816.72
419.21	20446.92
419.39	19871.15
419.58	18960.68
419.77	19063.66
419.96	19747.10
420.15	21095.25
420.34	21474.42
420.53	22192.96
420.72	22305.31
420.91	22377.86
421.10	22202.32
421.29	21905.07
421.48	21565.70
421.67	22286.58
421.86	21474.42
422.05	20212.87
422.24	18356.82
422.43	18036.17
422.61	20201.16
422.80	21329.30
422.99	21432.29
423.18	20886.94
423.37	20496.07
423.56	20479.69
423.75	20575.65
423.94	21451.01
424.13	20049.03
424.32	20177.76
424.50	20283.08
424.69	19955.41
424.88	20545.22
425.07	20123.93
425.26	20149.67
425.45	19798.59
425.64	19786.89
425.83	19410.06
426.01	20758.21
426.20	21469.73
426.39	20987.58
426.58	19733.06
426.77	18232.77
426.96	17275.49
427.15	17715.51
427.33	19880.51
427.52	20308.83
427.71	20664.59
427.90	20217.55
428.09	19983.49
428.28	19531.77
428.46	19269.63
428.65	18455.12
428.84	19136.22
429.03	19889.87
429.22	18457.46
429.40	17488.48
429.59	15932.03
429.78	13877.04
429.97	14157.90
430.16	14298.33
430.34	14356.85
430.53	14321.74
430.72	14583.88
430.91	16156.72
431.10	19080.05
431.28	22787.46
431.47	24041.98
431.66	24362.64
431.85	22251.47
432.03	20645.87
432.22	19566.88
432.41	20510.11
432.60	22789.80
432.79	23414.72
432.97	24280.72
433.16	23524.72
433.35	21579.74
433.54	19267.29
433.72	18040.85
433.91	18981.74
434.10	21298.88
434.28	22555.74
434.47	23723.67
434.66	23548.13
434.85	22948.95
435.03	22553.40
435.22	23185.35
435.41	24503.07
435.59	24739.46
435.78	25003.94
435.97	25722.49
436.16	25734.19
436.34	25469.71
436.53	24830.74
436.72	24893.94
436.90	23697.92
437.09	23641.75
437.28	23145.56
437.46	23854.74
437.65	23896.87
437.84	22160.19
438.02	20336.91
438.21	20322.87
438.40	21376.11
438.58	23449.83
438.77	23882.83
438.96	24350.93
439.14	25179.48
439.33	26019.74
439.52	26108.68
439.70	25268.42
439.89	24961.81
440.08	24039.64
440.26	24278.38
440.45	25308.21
440.63	26916.16
440.82	28428.15
441.01	27847.69
441.19	27618.32
441.38	28093.45
441.57	28868.17
441.75	29567.99
441.94	29811.40
442.12	29291.80
442.31	29874.60
442.50	30150.78
442.68	29612.46
442.87	29448.62
443.05	28631.77
443.24	29029.66
443.43	29750.55
443.61	30595.48
443.80	30773.36
443.98	29174.78
444.17	29139.67
444.35	31021.46
444.54	31438.08
444.73	30885.71
444.91	29549.26
445.10	28353.25
445.28	27143.19
445.47	26789.77
445.65	27173.62
445.84	27917.91
446.02	28947.75
446.21	29287.12
446.39	29432.24
446.58	29788.00
446.77	30115.67
446.95	30174.19
447.14	31112.74
447.32	31798.52
447.51	30939.54
447.69	29806.72
447.88	29521.18
448.06	29984.60
448.25	30579.10
448.43	30946.56
448.62	30005.67
448.80	30122.69
448.99	30157.80
449.17	30991.03
449.36	30785.07
449.54	31845.33
449.73	32683.24
449.91	33074.11
450.10	33860.53
450.28	34146.08
450.46	33996.28
450.65	33701.37
450.83	33200.50
451.02	32355.57
451.20	32306.41
451.39	32683.24
451.57	32540.47
451.76	32376.63
451.94	32411.74
452.13	31683.83
452.31	30239.72
452.49	29024.98
452.68	29118.60
452.86	29338.62
453.05	29724.80
453.23	30637.61
453.42	31693.19
453.60	32140.24
453.78	32245.56
453.97	32023.21
454.15	32259.60
454.34	31452.12
454.52	31508.29
454.70	31068.27
454.89	31424.03
455.07	31227.43
455.26	32287.69
455.44	33153.69
455.62	33603.07
455.81	34263.10
455.99	33551.58
456.17	33336.25
456.36	33347.95
456.54	34230.33
456.73	33799.68
456.91	34466.73
457.09	35061.22
457.28	35566.78
457.46	34192.89
457.64	33567.96
457.83	32826.01
458.01	32238.54
458.19	32926.66
458.38	33785.63
458.56	34501.84
458.74	34242.04
458.93	33324.55
459.11	33638.18
459.29	33350.29
459.48	34043.09
459.66	33186.46
459.84	33790.31
460.03	34595.46
460.21	34136.71
460.39	35068.25
460.57	35079.95
460.76	36020.84
460.94	35737.64
461.12	34682.06
461.31	35147.82
461.49	34873.98
461.67	34675.04
461.85	35725.94
462.04	36332.14
462.22	36463.21
462.40	36304.05
462.59	35878.07
462.77	36041.91
462.95	36165.96
463.13	35346.77
463.32	35321.02
463.50	35136.12
463.68	35243.79
463.86	35255.49
464.05	35016.75
464.23	33464.98
464.41	33830.10
464.59	33132.62
464.78	34845.90
464.96	34698.44
465.14	34403.53
465.32	35468.48
465.50	36275.96
465.69	36371.92
465.87	35878.07
466.05	35084.63
466.23	33270.72
466.41	32336.84
466.60	33591.37
466.78	33481.36
466.96	33984.58
467.14	34892.71
467.32	34852.92
467.51	34993.35
467.69	33666.27
467.87	34525.24
468.05	34656.31
468.23	35033.14
468.41	35103.35
468.60	34838.87
468.78	35508.27
468.96	34728.87
469.14	35627.63
469.32	36137.87
469.50	34270.12
469.69	34246.72
469.87	34106.29
470.05	34190.55
470.23	33642.86
470.41	33642.86
470.59	34347.36
470.77	34857.60
470.95	35573.80
471.14	36084.04
471.32	36325.11
471.50	38380.10
471.68	37961.15
471.86	38330.95
472.04	38101.58
472.22	38803.74
472.40	36725.35
472.58	36105.10
472.77	36121.49
472.95	36837.69
473.13	37699.01
473.31	36718.32
473.49	36765.14
473.67	37326.86
473.85	37923.70
474.03	38700.76
474.21	38930.13
474.39	38962.90
474.57	39421.64
474.75	39061.20
474.93	38873.96
475.12	38431.60
475.30	38293.50
475.48	38700.76
475.66	39082.27
475.84	38611.82
476.02	38064.13
476.20	37691.99
476.38	38721.82
476.56	39606.55
476.74	40060.61
476.92	40259.55
477.10	40840.01
477.28	42021.98
477.46	42043.04
477.64	42415.19
477.82	42752.23
478.00	42934.79
478.18	41963.46
478.36	41902.61
478.54	41839.42
478.72	42337.95
478.90	43302.25
479.08	44495.92
479.26	45036.59
479.44	44404.64
479.62	44446.77
479.80	43927.17
479.98	45043.61
480.16	44835.30
480.34	44568.48
480.52	44893.82
480.70	45448.52
480.88	45191.06
481.06	46171.75
481.24	46417.50
481.41	47456.70
481.59	47878.00
481.77	47889.70
481.95	47075.19
482.13	46916.04
482.31	46967.53
482.49	47739.91
482.67	47667.35
482.85	47753.95
483.03	47920.13
483.21	48622.29
483.39	48648.03
483.57	47868.64
483.74	47463.72
483.92	47693.10
484.10	47760.97
484.28	49092.74
484.46	49731.70
484.64	49593.61
484.82	48851.66
485.00	48453.77
485.18	47435.64
485.35	46471.34
485.53	43320.98
485.71	39594.84
485.89	39323.34
486.07	41179.39
486.25	44678.49
486.43	46906.68
486.61	47805.44
486.78	47461.38
486.96	47613.52
487.14	49602.97
487.32	50167.04
487.50	51213.26
487.68	51707.12
487.85	52200.97
488.03	52109.69
488.21	51959.89
488.39	51559.66
488.57	50726.43
488.75	50265.34
488.92	51557.32
489.10	53570.18
489.28	54681.94
489.46	55290.48
489.64	55068.12
489.81	55236.64
489.99	55002.59
490.17	55051.74
490.35	55444.95
490.53	54768.54
490.70	54293.41
490.88	54574.27
491.06	55285.79
491.24	55428.57
491.41	54525.12
491.59	52584.82
491.77	52121.39
491.95	53057.60
492.13	54384.69
492.30	55444.95
492.48	56198.60
492.66	56783.74
492.84	56650.33
493.01	56343.72
493.19	56156.47
493.37	55805.39
493.54	55526.87
493.72	55969.23
493.90	56687.78
494.08	57485.90
494.25	57902.51
494.43	58087.42
494.61	58454.88
494.79	58370.62
494.96	58319.13
495.14	57528.03
495.32	56795.44
495.49	56430.32
495.67	57293.97
495.85	58489.99
496.02	58857.45
496.20	58651.48
496.38	58513.39
496.55	58003.16
496.73	58698.30
496.91	58791.92
497.09	59442.59
497.26	59463.65
497.44	58859.79
497.62	58672.55
497.79	57813.57
497.97	56797.78
498.14	56697.14
498.32	57851.02
498.50	58913.62
498.67	59337.26
498.85	58997.88
499.03	59091.51
499.20	59646.21
499.38	59611.10
499.56	59388.75
499.73	58710.00
499.91	58424.45
500.08	58171.67
500.26	57270.57
500.44	57886.13
500.61	58635.10
500.79	58429.13
500.97	58244.23
501.14	57930.60
501.32	57834.64
501.49	57804.21
501.67	57993.79
501.84	58513.39
502.02	58880.86
502.20	58841.07
502.37	59365.35
502.55	59014.27
502.72	59856.86
502.90	59943.46
503.07	59767.92
503.25	59554.93
503.43	58621.06
503.60	58164.65
503.78	57602.92
503.95	58087.42
504.13	59262.36
504.30	60083.89
504.48	59966.87
504.65	59482.37
504.83	59533.87
505.01	60346.03
505.18	60493.49
505.36	61141.81
505.53	60968.61
505.71	61092.66
505.88	61209.69
506.06	60739.24
506.23	60364.76
506.41	60165.81
506.58	60451.36
506.76	60207.94
506.93	60324.97
507.11	60126.02
507.28	60264.11
507.46	59611.10
507.63	59131.29
507.81	59068.10
507.98	59341.94
508.16	59625.15
508.33	60388.16
508.50	60549.66
508.68	60853.93
508.85	61422.68
509.03	61336.08
509.20	61282.25
509.38	60636.26
509.55	59826.43
509.73	60102.62
509.90	60470.08
510.08	60828.18
510.25	60832.86
510.42	60479.44
510.60	60245.39
510.77	60849.25
510.95	61216.71
511.12	61354.80
511.30	61476.51
511.47	61834.61
511.64	61846.32
511.82	61490.55
511.99	60851.59
512.17	60259.43
512.34	59943.46
512.51	60416.25
512.69	60636.26
512.86	60402.21
513.04	60727.54
513.21	60865.63
513.38	60444.33
513.56	60271.14
513.73	59311.52
513.90	59833.46
514.08	59683.66
514.25	60006.65
514.43	60303.90
514.60	60308.58
514.77	60519.23
514.95	60357.74
515.12	60409.23
515.29	60860.95
515.47	61279.91
515.64	61591.20
515.81	60900.74
515.99	60500.51
516.16	59030.65
516.33	57130.14
516.51	55566.66
516.68	55253.03
516.85	54752.15
517.03	54859.82
517.20	57530.37
517.37	59906.01
517.54	60776.69
517.72	60282.84
517.89	57794.85
518.06	55868.59
518.24	56130.73
518.41	58164.65
518.58	59367.69
518.75	59536.21
518.93	59650.89
519.10	59625.15
519.27	60067.51
519.45	60350.71
519.62	61132.45
519.79	61183.94
519.96	61200.33
520.14	60673.71
520.31	59821.75
520.48	59852.18
520.65	60196.24
520.83	61188.63
521.00	61499.92
521.17	61020.11
521.34	60736.90
521.52	61006.06
521.69	61516.30
521.86	61888.45
522.03	61539.71
522.20	60313.26
522.38	59393.43
522.55	59573.66
522.72	60179.85
522.89	60292.20
523.07	60509.87
523.24	60734.56
523.41	61516.30
523.58	61701.20
523.75	62323.78
523.92	62024.20
524.10	62031.22
524.27	62101.43
524.44	61738.65
524.61	61539.71
524.78	61483.53
524.96	61462.47
525.13	61682.48
525.30	61600.56
525.47	62159.95
525.64	61979.73
525.81	61464.81
525.98	60191.56
526.16	58780.21
526.33	58295.72
526.50	57855.70
526.67	57460.15
526.84	58361.26
527.01	59040.01
527.18	59978.57
527.36	60664.35
527.53	61497.58
527.70	61677.80
527.87	61118.41
528.04	60746.26
528.21	61200.33
528.38	61801.85
528.55	62237.19
528.72	62377.62
528.89	62698.27
529.07	62452.51
529.24	62028.88
529.41	61249.48
529.58	60762.65
529.75	60839.89
529.92	61460.13
530.09	61628.65
530.26	62085.05
530.43	62361.23
530.60	62415.07
530.77	62562.52
530.94	62714.65
531.11	62143.56
531.28	61846.32
531.46	61712.91
531.63	62078.03
531.80	61623.96
531.97	61326.72
532.14	60727.54
532.31	59735.15
532.48	58944.05
532.65	59370.03
532.82	59866.22
532.99	61123.09
533.16	61443.74
533.33	61773.76
533.50	61581.84
533.67	60924.14
533.84	60512.21
534.01	60992.02
534.18	61057.56
534.35	61331.40
534.52	61080.96
534.69	61439.06
534.86	61502.26
535.03	62166.97
535.20	62487.62
535.37	62614.01
535.54	62693.59
535.71	62440.81
535.88	61951.64
536.05	61418.00
536.22	61057.56
536.38	60844.57
536.55	60568.38
536.72	59786.64
536.89	59877.93
537.06	60769.67
537.23	61656.73
537.40	61640.35
537.57	61513.96
537.74	61364.17
537.91	61408.64
538.08	61525.66
538.25	61513.96
538.42	61462.47
538.59	61450.77
538.75	60825.84
538.92	60774.35
539.09	60486.46
539.26	60392.84
539.43	60264.11
539.60	60320.29
539.77	60570.72
539.94	60294.54
540.11	59709.41
540.28	59175.76
540.44	59201.51
540.61	59568.97
540.78	59676.64
540.95	60203.26
541.12	60446.68
541.29	60582.43
541.46	60956.91
541.62	60931.17
541.79	60893.72
541.96	60287.52
542.13	60411.57
542.30	60526.25
542.47	60610.51
542.63	60420.93
542.80	60423.27
542.97	60591.79
543.14	60470.08
543.31	60374.12
543.48	61001.38
543.64	61595.88
543.81	61778.44
543.98	61497.58
544.15	61048.19
544.32	60566.04
544.48	60769.67
544.65	60846.91
544.82	61380.55
544.99	60800.10
545.16	60711.16
545.32	60676.05
545.49	61195.65
545.66	61516.30
545.83	61055.21
546.00	60882.02
546.16	60610.51
546.33	60601.15
546.50	60903.08
546.67	61221.39
546.83	60762.65
547.00	60741.58
547.17	60238.37
547.34	59519.82
547.50	59512.80
547.67	59980.91
547.84	60109.64
548.00	60172.83
548.17	60774.35
548.34	60786.05
548.51	60512.21
548.67	60804.78
548.84	60673.71
549.01	60835.20
549.18	60640.94
549.34	60547.32
549.51	60598.81
549.68	60626.90
549.84	60502.85
550.01	60179.85
550.18	60184.54
550.34	60301.56
550.51	60367.10
550.68	60381.14
550.84	59803.03
551.01	59920.05
551.18	59971.55
551.34	60137.72
551.51	60470.08
551.68	60940.53
551.84	60924.14
552.01	60523.91
552.18	60320.29
552.34	59662.60
552.51	59400.46
552.68	59285.77
552.84	59711.75
553.01	59908.35
553.18	59774.94
553.34	60062.83
553.51	60252.41
553.67	60495.83
553.84	60563.70
554.01	60505.19
554.17	60203.26
554.34	60282.84
554.51	60411.57
554.67	60851.59
554.84	60601.15
555.00	60095.60
555.17	60133.04
555.33	60104.96
555.50	59793.67
555.67	60044.10
555.83	59882.61
556.00	59379.39
556.16	59756.22
556.33	59339.60
556.50	59171.08
556.66	59250.66
556.83	58962.78
556.99	59124.27
557.16	59000.22
557.32	59348.96
557.49	59732.81
557.65	59512.80
557.82	59426.20
557.98	59601.74
558.15	58857.45
558.32	58216.14
558.48	57616.97
558.65	57687.18
558.81	58014.86
558.98	58321.47
559.14	58560.20
559.31	58630.42
559.47	58630.42
559.64	58475.94
559.80	58066.35
559.97	58232.53
560.13	58365.94
560.30	59320.88
560.46	59941.12
560.63	60030.06
560.79	59842.82
560.96	59484.72
561.12	58632.76
561.29	57886.13
561.45	57986.77
561.61	58269.98
561.78	58663.19
561.94	58784.90
562.11	58452.54
562.27	58286.36
562.44	58543.82
562.60	59051.72
562.77	59037.67
562.93	59201.51
563.10	59072.78
563.26	58534.46
563.42	58529.78
563.59	58281.68
563.75	58309.77
563.92	58351.90
564.08	58356.58
564.24	58541.48
564.41	58527.44
564.57	58562.54
564.74	58277.00
564.90	58396.37
565.07	58056.99
565.23	57698.89
565.39	57347.81
565.56	56933.53
565.72	56933.53
565.88	57354.83
566.05	57380.57
566.21	57701.23
566.38	57623.99
566.54	57883.79
566.70	58148.27
566.87	58403.39
567.03	58365.94
567.19	58520.41
567.36	58213.80
567.52	58244.23
567.68	57883.79
567.85	57322.06
568.01	57045.88
568.17	56589.47
568.34	56704.16
568.50	56622.24
568.66	56750.97
568.83	57331.42
568.99	57123.11
569.15	57530.37
569.32	57373.55
569.48	57134.82
569.64	56891.40
569.81	56596.49
569.97	56472.45
570.13	56463.08
570.30	56081.58
570.46	55856.88
570.62	55327.92
570.78	55255.37
570.95	55561.98
571.11	56170.52
571.27	56257.12
571.43	56481.81
571.60	56755.65
571.76	57024.81
571.92	57193.33
572.09	57425.04
572.25	57179.29
572.41	57235.46
572.57	57167.58
572.74	56975.66
572.90	56956.94
573.06	56762.67
573.22	56760.33
573.38	56802.46
573.55	56720.54
573.71	57111.41
573.87	57027.15
574.03	56598.83
574.20	56631.60
574.36	56268.82
574.52	56193.92
574.68	55784.33
574.84	56034.77
575.01	55430.91
575.17	55348.99
575.33	55533.89
575.49	55676.66
575.65	56016.04
575.82	55807.73
575.98	55601.77
576.14	56016.04
576.30	56060.51
576.46	56184.56
576.62	55868.59
576.79	55868.59
576.95	55723.47
577.11	55943.48
577.27	55686.03
577.43	55756.24
577.59	55601.77
577.75	55234.30
577.92	54700.66
578.08	54141.27
578.24	54134.25
578.40	54834.07
578.56	55037.70
578.72	54951.10
578.88	55168.77
579.04	55580.70
579.21	55393.46
579.37	55234.30
579.53	55463.67
579.69	55554.96
579.85	55693.05
580.01	55599.43
580.17	55222.60
580.33	54754.49
580.49	55121.96
580.65	55215.58
580.82	55601.77
580.98	55510.49
581.14	55391.12
581.30	55608.79
581.46	55297.50
581.62	55742.20
581.78	55444.95
581.94	55709.43
582.10	55421.55
582.26	55758.58
582.42	55634.53
582.58	55847.52
582.74	55566.66
582.90	55913.06
583.06	55538.57
583.22	55330.26
583.38	55367.71
583.54	55100.89
583.70	55077.49
583.86	55358.35
584.02	55173.45
584.18	55547.93
584.34	55215.58
584.50	55208.56
584.66	55030.68
584.82	54438.52
584.98	54653.85
585.14	54047.65
585.30	53689.55
