SpectraSuite Data File
++++++++++++++++++++++++++++++++++++
Date: Mon Oct 07 14:54:57 GMT-05:00 2013
User: price-jones
Dark Spectrum Present: No
Reference Spectrum Present: No
Number of Sampled Component Spectra: 1
Spectrometers: USB2+H05261
Integration Time (usec): 10000 (USB2+H05261)
Spectra Averaged: 1 (USB2+H05261)
Boxcar Smoothing: 0 (USB2+H05261)
Correct for Electrical Dark: No (USB2+H05261)
Strobe/Lamp Enabled: No (USB2+H05261)
Correct for Detector Non-linearity: No (USB2+H05261)
Correct for Stray Light: No (USB2+H05261)
Number of Pixels in Processed Spectrum: 2048
>>>>>Begin Processed Spectral Data<<<<<
365.73	0.00
365.92	0.00
366.12	0.00
366.32	0.00
366.52	0.00
366.72	0.00
366.91	0.00
367.11	0.00
367.31	0.00
367.51	0.00
367.70	0.00
367.90	0.00
368.10	0.00
368.30	0.00
368.49	0.00
368.69	0.00
368.89	0.00
369.09	0.00
369.28	0.00
369.48	0.00
369.68	0.00
369.87	0.00
370.07	0.00
370.27	0.00
370.47	1064.94
370.66	4760.65
370.86	5273.23
371.06	5919.21
371.25	5832.62
371.45	5334.08
371.65	4889.38
371.84	4547.66
372.04	4753.63
372.24	5474.51
372.44	5645.37
372.63	5476.85
372.83	5006.41
373.03	4491.49
373.22	4098.28
373.42	4510.21
373.62	5076.62
373.81	5563.45
374.01	5526.00
374.21	4896.40
374.40	4702.14
374.60	4814.48
374.79	5547.07
374.99	6401.37
375.19	6686.91
375.38	6710.32
375.58	6377.96
375.78	6263.27
375.97	6406.05
376.17	6403.71
376.37	6747.76
376.56	6895.22
376.76	7412.48
376.95	7768.24
377.15	8285.50
377.35	8475.08
377.54	8779.35
377.74	9144.47
377.93	9401.93
378.13	8945.53
378.33	8177.83
378.52	7712.07
378.72	7431.20
378.91	7407.80
379.11	7197.15
379.31	6803.94
379.50	6839.05
379.70	7541.21
379.89	8439.97
380.09	8667.00
380.28	9132.77
380.48	9163.20
380.68	8884.67
380.87	8739.56
381.07	8021.02
381.26	7419.50
381.46	6902.24
381.65	6703.29
381.85	6572.22
382.04	6289.02
382.24	5692.18
382.43	5521.32
382.63	5418.34
382.83	5762.40
383.02	5563.45
383.22	5584.52
383.41	5699.20
383.61	6050.28
383.80	6862.45
384.00	7845.48
384.19	8844.88
384.39	9076.60
384.58	9027.45
384.78	9067.24
384.97	8746.58
385.17	8580.40
385.36	8060.80
385.56	7747.17
385.75	7950.80
385.95	8870.63
386.14	9525.98
386.34	9516.62
386.53	8816.80
386.72	8458.70
386.92	8748.92
387.11	9228.73
387.31	9591.52
387.50	9268.52
387.70	9114.05
387.89	8936.17
388.09	9050.85
388.28	9083.62
388.48	9217.03
388.67	10003.45
388.86	11124.57
389.06	11761.19
389.25	12116.95
389.45	12547.61
389.64	12245.68
389.84	12072.48
390.03	12088.87
390.22	12444.63
390.42	12723.15
390.61	13439.36
390.81	14328.76
391.00	14443.45
391.19	14305.35
391.39	13832.57
391.58	12800.39
391.78	12381.43
391.97	12065.46
392.16	10988.82
392.36	9909.83
392.55	7691.00
392.75	6340.51
392.94	5228.76
393.13	5474.51
393.33	6490.31
393.52	8503.17
393.71	10073.67
393.91	11232.23
394.10	12187.17
394.29	13458.08
394.49	14291.31
394.68	15227.53
394.88	15815.00
395.07	15838.41
395.26	15815.00
395.46	15339.87
395.65	14012.79
395.84	12173.13
396.04	10211.76
396.23	8301.88
396.42	6979.48
396.62	7140.97
396.81	8573.38
397.00	10981.79
397.19	13603.19
397.39	16301.83
397.58	17827.86
397.77	18787.48
397.97	19620.71
398.16	19971.79
398.35	20475.01
398.55	21294.19
398.74	22008.06
398.93	22501.91
399.12	22017.42
399.32	21319.94
399.51	21729.53
399.70	23264.92
399.90	22848.31
400.09	22925.55
400.28	23056.62
400.47	23108.11
400.67	24463.28
400.86	25301.19
401.05	24482.00
401.24	24926.71
401.44	25385.45
401.63	25287.15
401.82	25593.76
402.01	25553.97
402.21	25933.14
402.40	25907.39
402.59	25135.01
402.78	23646.43
402.97	23573.88
403.17	24720.74
403.36	26235.06
403.55	27325.75
403.74	27454.48
403.93	25738.87
404.13	23566.85
404.32	23557.49
404.51	25039.05
404.70	26630.62
404.89	26874.03
405.09	26111.02
405.28	25191.19
405.47	25340.98
405.66	25825.47
405.85	24655.20
406.05	23955.38
406.24	24744.14
406.43	25692.06
406.62	26607.21
406.81	26590.83
407.00	26211.66
407.20	25682.70
407.39	25551.63
407.58	26995.74
407.77	28357.93
407.96	28634.11
408.15	28940.72
408.34	29041.37
408.54	30838.90
408.73	30632.93
408.92	30183.55
409.11	28868.17
409.30	27370.22
409.49	25799.73
409.68	24079.43
409.87	23491.96
410.07	26272.51
410.26	27850.03
410.45	29355.00
410.64	29996.31
410.83	30628.25
411.02	31651.06
411.21	33174.75
411.40	32273.65
411.59	32549.83
411.78	32098.11
411.98	31882.78
412.17	32769.84
412.36	31962.36
412.55	32046.62
412.74	30998.06
412.93	30560.37
413.12	31695.53
413.31	34595.46
413.50	33888.62
413.69	34684.40
413.88	33057.73
414.07	32589.62
414.26	33312.84
414.45	34354.38
414.64	34010.32
414.83	34146.08
415.02	33584.35
415.22	34066.50
415.41	35126.76
415.60	36470.23
415.79	37556.24
415.98	37893.27
416.17	38153.07
416.36	36196.38
416.55	36275.96
416.74	35098.67
416.93	33989.26
417.12	34550.99
417.31	34555.67
417.50	35342.09
417.69	36304.05
417.88	36465.55
418.07	35985.74
418.26	35445.07
418.45	36306.39
418.64	37165.37
418.83	38579.05
419.02	37921.36
419.21	37556.24
419.39	35859.35
419.58	34216.29
419.77	35257.83
419.96	36257.24
420.15	38209.25
420.34	39559.73
420.53	40868.09
420.72	40865.75
420.91	40732.34
421.10	40971.08
421.29	40088.70
421.48	38733.53
421.67	40339.13
421.86	39318.66
422.05	36437.46
422.24	32921.98
422.43	34066.50
422.61	37453.25
422.80	39220.36
422.99	38993.32
423.18	37867.53
423.37	37462.61
423.56	38274.78
423.75	38625.86
423.94	39466.11
424.13	37345.59
424.32	37200.47
424.50	37387.72
424.69	36627.04
424.88	37118.56
425.07	36720.66
425.26	37095.15
425.45	36528.74
425.64	35821.90
425.83	36552.15
426.01	39122.05
426.20	40105.08
426.39	39026.09
426.58	35688.49
426.77	33249.65
426.96	32465.57
427.15	34197.57
427.33	36847.05
427.52	38499.47
427.71	38326.27
427.90	38029.02
428.09	37738.80
428.28	36545.12
428.46	35295.28
428.65	35061.22
428.84	36137.87
429.03	36556.83
429.22	34307.57
429.40	32741.75
429.59	29237.97
429.78	26134.42
429.97	26307.62
430.16	26375.50
430.34	26583.80
430.53	27126.81
430.72	27824.29
430.91	31484.89
431.10	37163.03
431.28	43154.80
431.47	45663.85
431.66	45165.32
431.85	41022.57
432.03	38007.96
432.22	37228.56
432.41	39580.80
432.60	42581.37
432.79	44287.62
432.97	45038.93
433.16	43309.27
433.35	39356.11
433.54	35775.09
433.72	34527.58
433.91	35873.39
434.10	40444.46
434.28	42586.05
434.47	44395.28
434.66	43054.15
434.85	42607.11
435.03	42672.65
435.22	43562.05
435.41	44809.56
435.59	45598.32
435.78	46766.24
435.97	47578.41
436.16	47959.92
436.34	46808.37
436.53	46419.84
436.72	46579.00
436.90	43990.37
437.09	43793.76
437.28	43892.07
437.46	45586.61
437.65	45165.32
437.84	41460.25
438.02	38728.84
438.21	39789.11
438.40	40971.08
438.58	44233.78
438.77	45642.79
438.96	45022.54
439.14	47107.96
439.33	47917.79
439.52	48704.21
439.70	47751.61
439.89	46656.24
440.08	45750.45
440.26	46387.08
440.45	47512.88
440.63	49984.48
440.82	51229.65
441.01	50305.13
441.19	50487.70
441.38	51173.47
441.57	52973.34
441.75	52626.95
441.94	52594.18
442.12	52327.36
442.31	53516.35
442.50	53436.77
442.68	53029.52
442.87	52624.60
443.05	51629.88
443.24	52299.27
443.43	53469.54
443.61	53853.39
443.80	53624.01
443.98	52610.56
444.17	52404.59
444.35	54129.57
444.54	54536.82
444.73	54426.82
444.91	53034.20
445.10	51388.80
445.28	50293.43
445.47	49911.92
445.65	49893.20
445.84	50838.78
446.02	52086.28
446.21	52428.00
446.39	53553.80
446.58	53521.03
446.77	53855.73
446.95	54295.75
447.14	55002.59
447.32	55110.25
447.51	54328.52
447.69	53499.97
447.88	53635.72
448.06	53797.21
448.25	54293.41
448.43	54284.04
448.62	54124.89
448.80	53806.58
448.99	54167.02
449.17	54293.41
449.36	54206.81
449.54	55077.49
449.73	55950.51
449.91	56030.08
450.10	57329.08
450.28	57785.49
450.46	57518.67
450.65	57116.09
450.83	56743.95
451.02	56266.48
451.20	55798.37
451.39	56193.92
451.57	56217.33
451.76	56322.65
451.94	56090.94
452.13	54990.89
452.31	53701.25
452.49	52147.14
452.68	53270.59
452.86	53460.18
453.05	53790.19
453.23	54794.28
453.42	55559.64
453.60	55994.98
453.78	56030.08
453.97	55735.18
454.15	55948.17
454.34	55084.51
454.52	54969.82
454.70	54607.04
454.89	55072.81
455.07	55374.73
455.26	55693.05
455.44	56732.25
455.62	57464.83
455.81	57745.70
455.99	57312.70
456.17	56884.38
456.36	56779.06
456.54	57324.40
456.73	57581.86
456.91	58248.91
457.09	57986.77
457.28	58932.35
457.46	57422.70
457.64	56753.31
457.83	56322.65
458.01	56104.98
458.19	57261.21
458.38	57303.34
458.56	58326.15
458.74	57811.23
458.93	57244.82
459.11	57066.94
459.29	57155.88
459.48	57495.26
459.66	57155.88
459.84	57649.74
460.03	57411.00
460.21	57904.85
460.39	58784.90
460.57	58300.40
460.76	58911.28
460.94	59215.55
461.12	58499.35
461.31	58738.08
461.49	58356.58
461.67	58693.61
461.85	59278.75
462.04	58639.78
462.22	58829.37
462.40	59077.46
462.59	59114.91
462.77	59398.12
462.95	59159.38
463.13	59054.06
463.32	58817.66
463.50	59011.93
463.68	58815.32
463.86	58871.49
464.05	57979.75
464.23	57762.08
464.41	57612.29
464.59	57446.11
464.78	59154.70
464.96	58642.12
465.14	58103.80
465.32	59070.44
465.50	59566.63
465.69	59444.93
465.87	58712.34
466.05	58255.93
466.23	56671.39
466.41	56844.59
466.60	58066.35
466.78	57979.75
466.96	58195.08
467.14	58607.01
467.32	58667.87
467.51	58859.79
467.69	57794.85
467.87	58026.56
468.05	58312.11
468.23	58595.31
468.41	58553.18
468.60	58651.48
468.78	59082.14
468.96	58780.21
469.14	59161.72
469.32	59267.05
469.50	57956.35
469.69	58019.54
469.87	57925.92
470.05	58108.48
470.23	58087.42
470.41	58169.33
470.59	58976.82
470.77	58967.46
470.95	59166.40
471.14	59842.82
471.32	59641.53
471.50	60748.60
471.68	60762.65
471.86	60994.36
472.04	61413.32
472.22	61237.78
472.40	60191.56
472.58	59952.82
472.77	60025.38
472.95	60495.83
473.13	60891.38
473.31	60257.09
473.49	60877.33
473.67	60544.98
473.85	61139.47
474.03	61329.06
474.21	61682.48
474.39	61853.34
474.57	62127.18
474.75	62017.17
474.93	62031.22
475.12	61045.85
475.30	61326.72
475.48	61317.35
475.66	61893.13
475.84	61663.75
476.02	61315.01
476.20	60921.80
476.38	61439.06
476.56	62122.50
476.74	62908.92
476.92	62845.72
477.10	63147.65
477.28	63639.17
477.46	63700.02
477.64	64058.12
477.82	64245.36
478.00	64170.47
478.18	64107.27
478.36	63568.95
478.54	63421.50
478.72	63456.60
478.90	64505.16
479.08	65003.70
479.26	65415.63
479.44	65193.28
479.62	64987.31
479.80	65041.15
479.98	65368.82
480.16	65535.00
480.34	65247.11
480.52	65535.00
480.70	65460.10
480.88	65535.00
481.06	65535.00
481.24	65535.00
481.41	65535.00
481.59	65535.00
481.77	65535.00
481.95	65535.00
482.13	65535.00
482.31	65535.00
482.49	65535.00
482.67	65535.00
482.85	65535.00
483.03	65535.00
483.21	65535.00
483.39	65535.00
483.57	65535.00
483.74	65535.00
483.92	65535.00
484.10	65535.00
484.28	65535.00
484.46	65535.00
484.64	65535.00
484.82	65535.00
485.00	65535.00
485.18	65535.00
485.35	65535.00
485.53	64856.24
485.71	61801.85
485.89	62122.50
486.07	63641.51
486.25	65535.00
486.43	65535.00
486.61	65535.00
486.78	65535.00
486.96	65535.00
487.14	65535.00
487.32	65535.00
487.50	65535.00
487.68	65535.00
487.85	65535.00
488.03	65535.00
488.21	65535.00
488.39	65535.00
488.57	65535.00
488.75	65535.00
488.92	65535.00
489.10	65535.00
489.28	65535.00
489.46	65535.00
489.64	65535.00
489.81	65535.00
489.99	65535.00
490.17	65535.00
490.35	65535.00
490.53	65535.00
490.70	65535.00
490.88	65535.00
491.06	65535.00
491.24	65535.00
491.41	65535.00
491.59	65535.00
491.77	65535.00
491.95	65535.00
492.13	65535.00
492.30	65535.00
492.48	65535.00
492.66	65535.00
492.84	65535.00
493.01	65535.00
493.19	65535.00
493.37	65535.00
493.54	65535.00
493.72	65535.00
493.90	65535.00
494.08	65535.00
494.25	65535.00
494.43	65535.00
494.61	65535.00
494.79	65535.00
494.96	65535.00
495.14	65535.00
495.32	65535.00
495.49	65535.00
495.67	65535.00
495.85	65535.00
496.02	65535.00
496.20	65535.00
496.38	65535.00
496.55	65535.00
496.73	65535.00
496.91	65535.00
497.09	65535.00
497.26	65535.00
497.44	65535.00
497.62	65535.00
497.79	65535.00
497.97	65535.00
498.14	65535.00
498.32	65535.00
498.50	65535.00
498.67	65535.00
498.85	65535.00
499.03	65535.00
499.20	65535.00
499.38	65535.00
499.56	65535.00
499.73	65535.00
499.91	65535.00
500.08	65535.00
500.26	65535.00
500.44	65535.00
500.61	65535.00
500.79	65535.00
500.97	65535.00
501.14	65535.00
501.32	65535.00
501.49	65535.00
501.67	65535.00
501.84	65535.00
502.02	65535.00
502.20	65535.00
502.37	65535.00
502.55	65535.00
502.72	65535.00
502.90	65535.00
503.07	65535.00
503.25	65535.00
503.43	65535.00
503.60	65535.00
503.78	65535.00
503.95	65535.00
504.13	65535.00
504.30	65535.00
504.48	65535.00
504.65	65535.00
504.83	65535.00
505.01	65535.00
505.18	65535.00
505.36	65535.00
505.53	65535.00
505.71	65535.00
505.88	65535.00
506.06	65535.00
506.23	65535.00
506.41	65535.00
506.58	65535.00
506.76	65535.00
506.93	65535.00
507.11	65535.00
507.28	65535.00
507.46	65535.00
507.63	65535.00
507.81	65535.00
507.98	65535.00
508.16	65535.00
508.33	65535.00
508.50	65535.00
508.68	65535.00
508.85	65535.00
509.03	65535.00
509.20	65535.00
509.38	65535.00
509.55	65535.00
509.73	65535.00
509.90	65535.00
510.08	65535.00
510.25	65535.00
510.42	65535.00
510.60	65535.00
510.77	65535.00
510.95	65535.00
511.12	65535.00
511.30	65535.00
511.47	65535.00
511.64	65535.00
511.82	65535.00
511.99	65535.00
512.17	65535.00
512.34	65535.00
512.51	65535.00
512.69	65535.00
512.86	65535.00
513.04	65535.00
513.21	65535.00
513.38	65535.00
513.56	65535.00
513.73	65535.00
513.90	65535.00
514.08	65535.00
514.25	65535.00
514.43	65535.00
514.60	65535.00
514.77	65535.00
514.95	65535.00
515.12	65535.00
515.29	65535.00
515.47	65535.00
515.64	65535.00
515.81	65535.00
515.99	65535.00
516.16	65535.00
516.33	65535.00
516.51	65535.00
516.68	65535.00
516.85	65535.00
517.03	65535.00
517.20	65535.00
517.37	65535.00
517.54	65535.00
517.72	65535.00
517.89	65535.00
518.06	65535.00
518.24	65535.00
518.41	65535.00
518.58	65535.00
518.75	65535.00
518.93	65535.00
519.10	65535.00
519.27	65535.00
519.45	65535.00
519.62	65535.00
519.79	65535.00
519.96	65535.00
520.14	65535.00
520.31	65535.00
520.48	65535.00
520.65	65535.00
520.83	65535.00
521.00	65535.00
521.17	65535.00
521.34	65535.00
521.52	65535.00
521.69	65535.00
521.86	65535.00
522.03	65535.00
522.20	65535.00
522.38	65535.00
522.55	65535.00
522.72	65535.00
522.89	65535.00
523.07	65535.00
523.24	65535.00
523.41	65535.00
523.58	65535.00
523.75	65535.00
523.92	65535.00
524.10	65535.00
524.27	65535.00
524.44	65535.00
524.61	65535.00
524.78	65535.00
524.96	65535.00
525.13	65535.00
525.30	65535.00
525.47	65535.00
525.64	65535.00
525.81	65535.00
525.98	65535.00
526.16	65535.00
526.33	65535.00
526.50	65535.00
526.67	65535.00
526.84	65535.00
527.01	65535.00
527.18	65535.00
527.36	65535.00
527.53	65535.00
527.70	65535.00
527.87	65535.00
528.04	65535.00
528.21	65535.00
528.38	65535.00
528.55	65535.00
528.72	65535.00
528.89	65535.00
529.07	65535.00
529.24	65535.00
529.41	65535.00
529.58	65535.00
529.75	65535.00
529.92	65535.00
530.09	65535.00
530.26	65535.00
530.43	65535.00
530.60	65535.00
530.77	65535.00
530.94	65535.00
531.11	65535.00
531.28	65535.00
531.46	65535.00
531.63	65535.00
531.80	65535.00
531.97	65535.00
532.14	65535.00
532.31	65535.00
532.48	65535.00
532.65	65535.00
532.82	65535.00
532.99	65535.00
533.16	65535.00
533.33	65535.00
533.50	65535.00
533.67	65535.00
533.84	65535.00
534.01	65535.00
534.18	65535.00
534.35	65535.00
534.52	65535.00
534.69	65535.00
534.86	65535.00
535.03	65535.00
535.20	65535.00
535.37	65535.00
535.54	65535.00
535.71	65535.00
535.88	65535.00
536.05	65535.00
536.22	65535.00
536.38	65535.00
536.55	65535.00
536.72	65535.00
536.89	65535.00
537.06	65535.00
537.23	65535.00
537.40	65535.00
537.57	65535.00
537.74	65535.00
537.91	65535.00
538.08	65535.00
538.25	65535.00
538.42	65535.00
538.59	65535.00
538.75	65535.00
538.92	65535.00
539.09	65535.00
539.26	65535.00
539.43	65535.00
539.60	65535.00
539.77	65535.00
539.94	65535.00
540.11	65535.00
540.28	65535.00
540.44	65535.00
540.61	65535.00
540.78	65535.00
540.95	65535.00
541.12	65535.00
541.29	65535.00
541.46	65535.00
541.62	65535.00
541.79	65535.00
541.96	65535.00
542.13	65535.00
542.30	65535.00
542.47	65535.00
542.63	65535.00
542.80	65535.00
542.97	65535.00
543.14	65535.00
543.31	65535.00
543.48	65535.00
543.64	65535.00
543.81	65535.00
543.98	65535.00
544.15	65535.00
544.32	65535.00
544.48	65535.00
544.65	65535.00
544.82	65535.00
544.99	65535.00
545.16	65535.00
545.32	65535.00
545.49	65535.00
545.66	65535.00
545.83	65535.00
546.00	65535.00
546.16	65535.00
546.33	65535.00
546.50	65535.00
546.67	65535.00
546.83	65535.00
547.00	65535.00
547.17	65535.00
547.34	65535.00
547.50	65535.00
547.67	65535.00
547.84	65535.00
548.00	65535.00
548.17	65535.00
548.34	65535.00
548.51	65535.00
548.67	65535.00
548.84	65535.00
549.01	65535.00
549.18	65535.00
549.34	65535.00
549.51	65535.00
549.68	65535.00
549.84	65535.00
550.01	65535.00
550.18	65535.00
550.34	65535.00
550.51	65535.00
550.68	65535.00
550.84	65535.00
551.01	65535.00
551.18	65535.00
551.34	65535.00
551.51	65535.00
551.68	65535.00
551.84	65535.00
552.01	65535.00
552.18	65535.00
552.34	65535.00
552.51	65535.00
552.68	65535.00
552.84	65535.00
553.01	65535.00
553.18	65535.00
553.34	65535.00
553.51	65535.00
553.67	65535.00
553.84	65535.00
554.01	65535.00
554.17	65535.00
554.34	65535.00
554.51	65535.00
554.67	65535.00
554.84	65535.00
555.00	65535.00
555.17	65535.00
555.33	65535.00
555.50	65535.00
555.67	65535.00
555.83	65535.00
556.00	65535.00
556.16	65535.00
556.33	65535.00
556.50	65535.00
556.66	65535.00
556.83	65535.00
556.99	65535.00
557.16	65535.00
557.32	65535.00
557.49	65535.00
557.65	65535.00
557.82	65535.00
557.98	65535.00
558.15	65535.00
558.32	65535.00
558.48	65535.00
558.65	65535.00
558.81	65535.00
558.98	65535.00
559.14	65535.00
559.31	65535.00
559.47	65535.00
559.64	65535.00
559.80	65535.00
559.97	65535.00
560.13	65535.00
560.30	65535.00
560.46	65535.00
560.63	65535.00
560.79	65535.00
560.96	65535.00
561.12	65535.00
561.29	65535.00
561.45	65535.00
561.61	65535.00
561.78	65535.00
561.94	65535.00
562.11	65535.00
562.27	65535.00
562.44	65535.00
562.60	65535.00
562.77	65535.00
562.93	65535.00
563.10	65535.00
563.26	65535.00
563.42	65535.00
563.59	65535.00
563.75	65535.00
563.92	65535.00
564.08	65535.00
564.24	65535.00
564.41	65535.00
564.57	65535.00
564.74	65535.00
564.90	65535.00
565.07	65535.00
565.23	65535.00
565.39	65535.00
565.56	65535.00
565.72	65535.00
565.88	65535.00
566.05	65535.00
566.21	65535.00
566.38	65535.00
566.54	65535.00
566.70	65535.00
566.87	65535.00
567.03	65535.00
567.19	65535.00
567.36	65535.00
567.52	65535.00
567.68	65535.00
567.85	65535.00
568.01	65535.00
568.17	65535.00
568.34	65535.00
568.50	65535.00
568.66	65535.00
568.83	65535.00
568.99	65535.00
569.15	65535.00
569.32	65535.00
569.48	65535.00
569.64	65535.00
569.81	65535.00
569.97	65535.00
570.13	65535.00
570.30	65535.00
570.46	65535.00
570.62	65535.00
570.78	65535.00
570.95	65535.00
571.11	65535.00
571.27	65535.00
571.43	65535.00
571.60	65535.00
571.76	65535.00
571.92	65535.00
572.09	65535.00
572.25	65535.00
572.41	65535.00
572.57	65535.00
572.74	65535.00
572.90	65535.00
573.06	65535.00
573.22	65535.00
573.38	65535.00
573.55	65535.00
573.71	65535.00
573.87	65535.00
574.03	65535.00
574.20	65535.00
574.36	65535.00
574.52	65535.00
574.68	65535.00
574.84	65535.00
575.01	65535.00
575.17	65535.00
575.33	65535.00
575.49	65535.00
575.65	65535.00
575.82	65535.00
575.98	65535.00
576.14	65535.00
576.30	65535.00
576.46	65535.00
576.62	65535.00
576.79	65535.00
576.95	65535.00
577.11	65535.00
577.27	65535.00
577.43	65535.00
577.59	65535.00
577.75	65535.00
577.92	65535.00
578.08	65535.00
578.24	65535.00
578.40	65535.00
578.56	65535.00
578.72	65535.00
578.88	65535.00
579.04	65535.00
579.21	65535.00
579.37	65535.00
579.53	65535.00
579.69	65535.00
579.85	65535.00
580.01	65535.00
580.17	65535.00
580.33	65535.00
580.49	65535.00
580.65	65535.00
580.82	65535.00
580.98	65535.00
581.14	65535.00
581.30	65535.00
581.46	65535.00
581.62	65535.00
581.78	65535.00
581.94	65535.00
582.10	65535.00
582.26	65535.00
582.42	65535.00
582.58	65535.00
582.74	65535.00
582.90	65535.00
583.06	65535.00
583.22	65535.00
583.38	65535.00
583.54	65535.00
583.70	65535.00
583.86	65535.00
584.02	65535.00
584.18	65535.00
584.34	65535.00
584.50	65535.00
584.66	65535.00
584.82	65535.00
