SpectraSuite Data File
++++++++++++++++++++++++++++++++++++
Date: Mon Oct 07 14:53:50 GMT-05:00 2013
User: price-jones
Dark Spectrum Present: No
Reference Spectrum Present: No
Number of Sampled Component Spectra: 1
Spectrometers: USB2+H05261
Integration Time (usec): 100000 (USB2+H05261)
Spectra Averaged: 1 (USB2+H05261)
Boxcar Smoothing: 0 (USB2+H05261)
Correct for Electrical Dark: No (USB2+H05261)
Strobe/Lamp Enabled: No (USB2+H05261)
Correct for Detector Non-linearity: No (USB2+H05261)
Correct for Stray Light: No (USB2+H05261)
Number of Pixels in Processed Spectrum: 2048
>>>>>Begin Processed Spectral Data<<<<<
365.73	0.00
365.92	0.00
366.12	0.00
366.32	0.00
366.52	0.00
366.72	0.00
366.91	0.00
367.11	0.00
367.31	0.00
367.51	0.00
367.70	0.00
367.90	0.00
368.10	0.00
368.30	0.00
368.49	0.00
368.69	0.00
368.89	0.00
369.09	0.00
369.28	0.00
369.48	0.00
369.68	0.00
369.87	0.00
370.07	0.00
370.27	0.00
370.47	552.37
370.66	3061.42
370.86	3627.83
371.06	3969.55
371.25	4093.60
371.45	3730.81
371.65	3204.19
371.84	3068.44
372.04	3187.81
372.24	3541.23
372.44	3737.84
372.63	3644.21
372.83	3368.03
373.03	3091.85
373.22	2715.02
373.42	2944.39
373.62	3365.69
373.81	3634.85
374.01	3684.00
374.21	3248.66
374.40	3091.85
374.60	3232.28
374.79	3536.55
374.99	4154.45
375.19	4638.94
375.38	4624.90
375.58	4154.45
375.78	4084.23
375.97	4227.01
376.17	4423.61
376.37	4327.65
376.56	4552.34
376.76	4723.20
376.95	4992.36
377.15	5385.57
377.35	5724.95
377.54	5727.29
377.74	6122.84
377.93	5841.98
378.13	5907.51
378.33	5547.07
378.52	5151.52
378.72	4882.36
378.91	4952.57
379.11	4620.22
379.31	4634.26
379.50	4519.57
379.70	4858.95
379.89	5397.28
380.09	5797.51
380.28	5764.74
380.48	5769.42
380.68	5792.83
380.87	5638.35
381.07	5172.58
381.26	4814.48
381.46	4552.34
381.65	4360.42
381.85	4351.06
382.04	4194.24
382.24	3885.29
382.43	3529.53
382.63	3506.12
382.83	3595.06
383.02	3543.57
383.22	3559.95
383.41	3559.95
383.61	3950.82
383.80	4320.63
384.00	4938.53
384.19	5675.80
384.39	5959.00
384.58	5909.85
384.78	5757.72
384.97	5781.12
385.17	5380.89
385.36	5130.45
385.56	4856.61
385.75	5032.15
385.95	5514.30
386.14	6043.26
386.34	6083.05
386.53	5783.46
386.72	5369.19
386.92	5366.85
387.11	5654.73
387.31	6132.20
387.50	5923.90
387.70	5621.97
387.89	5664.10
388.09	5774.10
388.28	5563.45
388.48	5734.31
388.67	6300.72
388.86	6890.54
389.06	7447.58
389.25	7585.68
389.45	7686.32
389.64	7868.88
389.84	7847.82
390.03	7506.10
390.22	7585.68
390.42	7852.50
390.61	8292.52
390.81	8901.06
391.00	8982.98
391.19	8784.03
391.39	8711.47
391.58	8269.11
391.78	7698.02
391.97	7232.26
392.16	6942.03
392.36	6382.64
392.55	5111.73
392.75	4163.81
392.94	3328.24
393.13	3236.96
393.33	3747.20
393.52	4842.57
393.71	6129.86
393.91	6876.49
394.10	7363.33
394.29	8002.29
394.49	8566.36
394.68	9572.79
394.88	9537.68
395.07	9870.04
395.26	9619.60
395.46	9275.54
395.65	9013.40
395.84	7719.09
396.04	6485.62
396.23	5317.70
396.42	4425.95
396.62	4257.43
396.81	4990.02
397.00	6267.95
397.19	7815.05
397.39	9488.53
397.58	10747.74
397.77	11176.06
397.97	11901.62
398.16	11892.26
398.35	12325.26
398.55	12519.53
398.74	13263.82
398.93	13558.72
399.12	13369.14
399.32	12800.39
399.51	13238.07
399.70	13916.83
399.90	13886.40
400.09	13893.42
400.28	13671.07
400.47	14010.45
400.67	14551.11
400.86	15108.16
401.05	14754.74
401.24	14965.39
401.44	15267.31
401.63	15414.77
401.82	15279.02
402.01	15293.06
402.21	15482.64
402.40	15468.60
402.59	14958.36
402.78	14354.51
402.97	13893.42
403.17	14401.32
403.36	15342.21
403.55	16161.40
403.74	16327.58
403.93	15344.55
404.13	14401.32
404.32	14155.56
404.51	14544.09
404.70	15847.77
404.89	15641.80
405.09	15662.86
405.28	15157.31
405.47	14991.13
405.66	14981.77
405.85	14635.37
406.05	14176.62
406.24	14230.46
406.43	15122.20
406.62	15740.10
406.81	15948.41
407.00	15374.98
407.20	14597.92
407.39	15075.39
407.58	15562.22
407.77	16409.50
407.96	16842.50
408.15	16802.71
408.34	16980.59
408.54	17685.09
408.73	17795.09
408.92	17631.26
409.11	17219.32
409.30	16421.20
409.49	15264.97
409.68	14471.53
409.87	13752.99
410.07	14677.50
410.26	16072.46
410.45	16945.48
410.64	17200.60
410.83	17734.24
411.02	18300.65
411.21	18981.74
411.40	18740.67
411.59	18864.72
411.78	18640.03
411.98	18422.36
412.17	19108.13
412.36	18581.51
412.55	18611.94
412.74	18071.28
412.93	17827.86
413.12	17893.40
413.31	19583.26
413.50	19618.37
413.69	20128.61
413.88	19651.14
414.07	18700.88
414.26	19037.92
414.45	19398.36
414.64	19850.08
414.83	20102.86
415.02	19239.20
415.22	19442.83
415.41	19571.56
415.60	20365.00
415.79	21317.60
415.98	21593.78
416.17	22164.87
416.36	21436.97
416.55	21111.63
416.74	20140.31
416.93	19477.94
417.12	19428.79
417.31	19955.41
417.50	19999.88
417.69	20936.09
417.88	21238.02
418.07	20493.73
418.26	20161.37
418.45	20386.07
418.64	21106.95
418.83	22087.64
419.02	21900.39
419.21	21303.56
419.39	20208.19
419.58	19510.71
419.77	19484.96
419.96	20610.76
420.15	21692.08
420.34	22272.54
420.53	23103.43
420.72	23447.49
420.91	23300.03
421.10	23089.38
421.29	22761.71
421.48	21762.30
421.67	23304.71
421.86	22391.91
422.05	21247.38
422.24	18757.05
422.43	18389.59
422.61	20180.10
422.80	22207.00
422.99	22403.61
423.18	21539.95
423.37	20800.34
423.56	20762.89
423.75	21390.16
423.94	21427.60
424.13	20638.84
424.32	20910.35
424.50	20716.08
424.69	20421.17
424.88	20769.91
425.07	20592.03
425.26	20594.37
425.45	20208.19
425.64	20173.08
425.83	19850.08
426.01	21165.46
426.20	21776.34
426.39	21451.01
426.58	20362.66
426.77	18679.82
426.96	18047.87
427.15	18272.56
427.33	20128.61
427.52	20844.81
427.71	21163.12
427.90	20439.90
428.09	20760.55
428.28	19875.83
428.46	19384.32
428.65	18995.79
428.84	19398.36
429.03	19824.34
429.22	18726.63
429.40	17862.97
429.59	16273.74
429.78	14324.08
429.97	14574.52
430.16	14286.63
430.34	14768.78
430.53	14679.84
430.72	14831.97
430.91	16358.00
431.10	18986.43
431.28	22632.98
431.47	24753.51
431.66	25062.46
431.85	22967.68
432.03	20912.69
432.22	19796.25
432.41	20793.32
432.60	22977.04
432.79	23927.30
432.97	24592.01
433.16	24077.09
433.35	21685.06
433.54	19791.57
433.72	18537.04
433.91	19190.05
434.10	21472.07
434.28	22735.96
434.47	23726.01
434.66	23440.47
434.85	23190.03
435.03	22583.83
435.22	23901.55
435.41	24797.98
435.59	25039.05
435.78	25458.01
435.97	25818.45
436.16	26228.04
436.34	25926.11
436.53	25071.82
436.72	25146.72
436.90	23686.22
437.09	23857.08
437.28	23770.48
437.46	24156.67
437.65	24386.04
437.84	22668.09
438.02	20704.38
438.21	20428.20
438.40	21549.31
438.58	23711.97
438.77	24278.38
438.96	24533.50
439.14	25280.13
439.33	25898.03
439.52	26265.49
439.70	26298.26
439.89	25525.88
440.08	24367.32
440.26	24159.01
440.45	25205.23
440.63	26623.59
440.82	28353.25
441.01	28114.52
441.19	27803.22
441.38	28259.63
441.57	29106.90
441.75	29500.11
441.94	29692.04
442.12	29556.28
442.31	30235.04
442.50	30171.85
442.68	29832.47
442.87	29127.97
443.05	28500.70
443.24	28987.53
443.43	30176.53
443.61	30157.80
443.80	30782.73
443.98	29366.70
444.17	29076.48
444.35	30651.66
444.54	31194.66
444.73	30881.03
444.91	29364.36
445.10	28470.28
445.28	27171.28
445.47	26752.32
445.65	27136.17
445.84	27730.67
446.02	28994.56
446.21	28837.74
446.39	29453.30
446.58	29350.32
446.77	30541.65
446.95	30614.21
447.14	31215.72
447.32	31459.14
447.51	31047.21
447.69	30148.44
447.88	29640.54
448.06	29731.83
448.25	30513.56
448.43	30483.14
448.62	30499.52
448.80	30129.72
448.99	30354.41
449.17	30534.63
449.36	30295.89
449.54	31550.42
449.73	32013.85
449.91	32362.59
450.10	33535.20
450.28	33727.12
450.46	33706.05
450.65	33488.38
450.83	33078.79
451.02	32439.82
451.20	32521.74
451.39	32402.38
451.57	32428.12
451.76	32706.65
451.94	32086.40
452.13	31288.28
452.31	29991.62
452.49	28713.69
452.68	28774.55
452.86	28821.36
453.05	29186.48
453.23	30389.52
453.42	30838.90
453.60	32151.94
453.78	32147.26
453.97	31861.71
454.15	31723.62
454.34	31431.05
454.52	31552.76
454.70	30513.56
454.89	30721.87
455.07	31351.48
455.26	31267.22
455.44	32811.97
455.62	33614.77
455.81	33607.75
455.99	33017.94
456.17	32603.66
456.36	32900.91
456.54	33574.98
456.73	33689.67
456.91	34363.75
457.09	34548.65
457.28	35091.65
457.46	33841.81
457.64	33450.94
457.83	32432.80
458.01	31555.10
458.19	32737.07
458.38	33017.94
458.56	34408.22
458.74	33605.41
458.93	33301.14
459.11	33048.36
459.29	32472.59
459.48	33226.24
459.66	32620.05
459.84	33434.55
460.03	33813.72
460.21	33415.83
460.39	34227.99
460.57	34796.74
460.76	34866.96
460.94	35164.21
461.12	34342.68
461.31	34377.79
461.49	34932.50
461.67	34396.51
461.85	35543.38
462.04	35505.93
462.22	35145.48
462.40	35772.75
462.59	35236.77
462.77	35257.83
462.95	35182.93
463.13	35035.48
463.32	34403.53
463.50	34426.94
463.68	34363.75
463.86	34370.77
464.05	34291.19
464.23	33326.89
464.41	32854.10
464.59	32418.76
464.78	34237.36
464.96	34115.65
465.14	33771.59
465.32	34895.05
465.50	35424.01
465.69	35672.10
465.87	35234.42
466.05	34101.61
466.23	32322.80
466.41	31768.09
466.60	32718.35
466.78	32830.69
466.96	33046.02
467.14	33975.22
467.32	34017.35
467.51	34773.34
467.69	32835.38
467.87	33820.74
468.05	34007.98
468.23	34136.71
468.41	33865.21
468.60	34115.65
468.78	34939.52
468.96	33975.22
469.14	34972.28
469.32	35033.14
469.50	33633.50
469.69	33818.40
469.87	33301.14
470.05	32971.13
470.23	33399.44
470.41	33198.16
470.59	33610.09
470.77	33865.21
470.95	34459.71
471.14	34616.52
471.32	35065.91
471.50	36914.93
471.68	36982.80
471.86	37060.04
472.04	37523.47
472.22	37766.88
472.40	35594.87
472.58	35625.29
472.77	34838.87
472.95	35798.49
473.13	36804.92
473.31	35707.21
473.49	35835.94
473.67	36526.40
473.85	36851.73
474.03	37724.75
474.21	37500.06
474.39	37991.58
474.57	38621.18
474.75	38742.89
474.93	38359.04
475.12	36940.68
475.30	37333.89
475.48	37474.32
475.66	37654.54
475.84	37467.30
476.02	37001.53
476.20	36257.24
476.38	37368.99
476.56	38703.10
476.74	38932.47
476.92	39112.69
477.10	39672.08
477.28	40828.30
477.46	40804.90
477.64	41277.69
477.82	41385.35
478.00	41691.96
478.18	40903.20
478.36	40746.39
478.54	40282.96
478.72	41090.44
478.90	42202.20
479.08	42906.70
479.26	43608.86
479.44	43175.86
479.62	43400.55
479.80	42962.87
479.98	43337.36
480.16	43676.74
480.34	42937.13
480.52	43627.59
480.70	43667.37
480.88	43924.83
481.06	44512.31
481.24	44924.24
481.41	45530.44
481.59	46600.07
481.77	45965.78
481.95	45418.10
482.13	45170.00
482.31	45366.60
482.49	46403.46
482.67	45680.24
482.85	46143.66
483.03	46883.27
483.21	47358.40
483.39	47227.33
483.57	46244.30
483.74	46148.34
483.92	46351.97
484.10	46536.87
484.28	47512.88
484.46	48306.32
484.64	48147.16
484.82	47168.82
485.00	47145.41
485.18	46272.39
485.35	44858.71
485.53	41268.33
485.71	37839.44
485.89	36959.40
486.07	39391.22
486.25	42630.52
486.43	45195.74
486.61	46045.36
486.78	46089.83
486.96	46057.06
487.14	47550.32
487.32	48449.09
487.50	49319.77
487.68	50164.70
487.85	50810.69
488.03	50866.86
488.21	50562.59
488.39	49626.38
488.57	49076.35
488.75	48715.91
488.92	49911.92
489.10	52069.90
489.28	53141.86
489.46	54045.31
489.64	53558.48
489.81	53829.98
489.99	53420.39
490.17	53523.37
490.35	54274.68
490.53	53598.27
490.70	52949.94
490.88	52968.66
491.06	54007.86
491.24	54143.61
491.41	53034.20
491.59	51414.55
491.77	50527.48
491.95	51515.19
492.13	52545.03
492.30	53961.05
492.48	55117.28
492.66	55363.03
492.84	55171.11
493.01	54939.39
493.19	54681.94
493.37	54349.58
493.54	53860.41
493.72	54721.72
493.90	55494.10
494.08	56184.56
494.25	56409.25
494.43	56816.50
494.61	57331.42
494.79	56970.98
494.96	56879.70
495.14	56329.67
495.32	55634.53
495.49	54873.86
495.67	55922.42
495.85	57076.30
496.02	57640.37
496.20	57340.78
496.38	57116.09
496.55	56994.39
496.73	57396.96
496.91	57474.20
497.09	57867.40
497.26	58389.34
497.44	57532.71
497.62	57118.43
497.79	56479.47
497.97	55143.02
498.14	55433.25
498.32	56348.40
498.50	57293.97
498.67	57726.97
498.85	57684.84
499.03	57982.09
499.20	58202.10
499.38	58096.78
499.56	57998.48
499.73	57413.34
499.91	57146.52
500.08	56692.46
500.26	55880.29
500.44	56383.51
500.61	56896.08
500.79	57078.64
500.97	56488.83
501.14	56308.61
501.32	56264.14
501.49	56273.50
501.67	56540.32
501.84	57106.73
502.02	57453.13
502.20	57439.09
502.37	57539.73
502.55	57677.82
502.72	58286.36
502.90	58717.02
503.07	58382.32
503.25	58080.39
503.43	57130.14
503.60	56690.12
503.78	55936.46
503.95	56341.38
504.13	57769.10
504.30	58401.05
504.48	58255.93
504.65	58005.50
504.83	57928.26
505.01	58492.33
505.18	58829.37
505.36	59526.84
505.53	59447.27
505.71	59725.79
505.88	59891.97
506.06	59220.23
506.23	59035.33
506.41	58358.92
506.58	58787.24
506.76	58597.65
506.93	58759.15
507.11	58415.09
507.28	58859.79
507.46	58075.71
507.63	57490.58
507.81	57247.16
507.98	57595.90
508.16	58422.11
508.33	58756.81
508.50	59159.38
508.68	59470.67
508.85	60079.21
509.03	59814.73
509.20	59882.61
509.38	59131.29
509.55	58293.38
509.73	58145.93
509.90	58885.54
510.08	59421.52
510.25	59049.38
510.42	59000.22
510.60	59011.93
510.77	59018.95
510.95	59540.89
511.12	59667.28
511.30	59847.50
511.47	60395.18
511.64	60294.54
511.82	59898.99
511.99	59231.94
512.17	58878.52
512.34	58277.00
512.51	58546.16
512.69	58585.95
512.86	58766.17
513.04	59032.99
513.21	59182.79
513.38	58890.22
513.56	58288.70
513.73	57822.93
513.90	57874.43
514.08	58047.63
514.25	58328.49
514.43	58396.37
514.60	58649.14
514.77	58967.46
514.95	59030.65
515.12	58768.51
515.29	59135.98
515.47	59470.67
515.64	59657.91
515.81	59414.50
515.99	58930.01
516.16	57324.40
516.33	55175.79
516.51	53600.61
516.68	52959.30
516.85	52451.41
517.03	52942.92
517.20	55566.66
517.37	57808.89
517.54	58927.67
517.72	58431.47
517.89	56210.31
518.06	53701.25
518.24	53986.80
518.41	56161.15
518.58	57654.42
518.75	57427.38
518.93	57811.23
519.10	57677.82
519.27	58129.54
519.45	58286.36
519.62	59082.14
519.79	59498.76
519.96	59325.56
520.14	58894.90
520.31	57895.49
520.48	57946.98
520.65	58403.39
520.83	59194.49
521.00	59526.84
521.17	59346.62
521.34	59023.63
521.52	59093.85
521.69	59718.77
521.86	60289.86
522.03	59597.06
522.20	58667.87
522.38	57818.25
522.55	57478.88
522.72	58120.18
522.89	58258.27
523.07	58550.84
523.24	58829.37
523.41	59627.49
523.58	59938.78
523.75	60589.45
523.92	60294.54
524.10	60140.07
524.27	60287.52
524.44	59983.25
524.61	59779.62
524.78	59543.23
524.96	59704.73
525.13	59611.10
525.30	59758.56
525.47	60289.86
525.64	59901.33
525.81	59419.18
525.98	58052.31
526.16	56718.20
526.33	56046.47
526.50	55728.16
526.67	55318.56
526.84	56081.58
527.01	57073.96
527.18	57712.93
527.36	58511.05
527.53	59208.53
527.70	59515.14
527.87	59032.99
528.04	58588.29
528.21	59016.61
528.38	59721.11
528.55	60355.39
528.72	60664.35
528.89	60619.88
529.07	60509.87
529.24	59817.07
529.41	59508.12
529.58	58845.75
529.75	58733.40
529.92	59337.26
530.09	59707.07
530.26	60001.97
530.43	60221.98
530.60	60346.03
530.77	60542.64
530.94	60928.83
531.11	60144.75
531.28	59859.20
531.46	59751.54
531.63	59924.74
531.80	59678.98
531.97	59339.60
532.14	58660.85
532.31	57607.61
532.48	56858.63
532.65	57027.15
532.82	57944.64
532.99	58855.11
533.16	59325.56
533.33	59798.35
533.50	59557.27
533.67	59035.33
533.84	58560.20
534.01	58731.06
534.18	59079.80
534.35	59243.64
534.52	58967.46
534.69	59248.32
534.86	59650.89
535.03	59779.62
535.20	60275.82
535.37	60631.58
535.54	60715.84
535.71	60273.48
535.88	59971.55
536.05	59267.05
536.22	59044.69
536.38	58796.60
536.55	58099.12
536.72	57490.58
536.89	57759.74
537.06	58482.97
537.23	59325.56
537.40	59447.27
537.57	59526.84
537.74	59260.02
537.91	59271.73
538.08	59166.40
538.25	59058.74
538.42	59405.14
538.59	59257.68
538.75	58649.14
538.92	58192.74
539.09	58269.98
539.26	57968.05
539.43	57961.03
539.60	57975.07
539.77	58148.27
539.94	58010.18
540.11	57235.46
540.28	56821.19
540.44	56896.08
540.61	57045.88
540.78	57195.67
540.95	57663.78
541.12	58251.25
541.29	58342.53
541.46	58482.97
541.62	58796.60
541.79	58679.57
541.96	57956.35
542.13	58028.90
542.30	58227.85
542.47	58665.53
542.63	58108.48
542.80	57968.05
542.97	58204.44
543.14	57827.62
543.31	57822.93
543.48	58578.93
543.64	59412.16
543.81	59423.86
543.98	59285.77
544.15	58733.40
544.32	58056.99
544.48	58213.80
544.65	58742.77
544.82	59007.25
544.99	58553.18
545.16	58309.77
545.32	57935.28
545.49	58782.55
545.66	59185.13
545.83	58911.28
546.00	58513.39
546.16	58185.72
546.33	58269.98
546.50	58571.91
546.67	58674.89
546.83	58384.66
547.00	58436.16
547.17	57705.91
547.34	57013.11
547.50	57242.48
547.67	57504.62
547.84	57551.43
548.00	57635.69
548.17	58195.08
548.34	58316.79
548.51	58071.03
548.67	58342.53
548.84	58321.47
549.01	58344.87
549.18	58389.34
549.34	57968.05
549.51	58244.23
549.68	58061.67
549.84	57822.93
550.01	57652.08
550.18	57659.10
550.34	57691.86
550.51	57923.58
550.68	57811.23
550.84	57165.24
551.01	57247.16
551.18	57446.11
551.34	57413.34
551.51	58052.31
551.68	58164.65
551.84	58337.85
552.01	58253.59
552.18	57708.25
552.34	57296.31
552.51	56821.19
552.68	56591.81
552.84	57198.01
553.01	57490.58
553.18	57382.91
553.34	57366.53
553.51	57453.13
553.67	57745.70
553.84	58033.58
554.01	57726.97
554.17	57542.07
554.34	57783.15
554.51	57876.77
554.67	58216.14
554.84	57836.98
555.00	57757.40
555.17	57439.09
555.33	57483.56
555.50	57354.83
555.67	57497.60
555.83	57041.20
556.00	56898.42
556.16	56694.80
556.33	56416.27
556.50	56271.16
556.66	56474.79
556.83	56189.24
556.99	56491.17
557.16	56488.83
557.32	56666.71
557.49	56886.72
557.65	56839.91
557.82	56837.57
557.98	56519.26
558.15	56285.20
558.32	55339.63
558.48	54677.25
558.65	54557.89
558.81	55131.32
558.98	55550.27
559.14	55613.47
559.31	55667.30
559.47	55756.24
559.64	55388.78
559.80	55084.51
559.97	55105.57
560.13	55641.56
560.30	56292.22
560.46	57071.62
560.63	57017.79
560.79	57230.78
560.96	56575.43
561.12	55777.31
561.29	54703.00
561.45	54656.19
561.61	55419.20
561.78	55882.63
561.94	55718.79
562.11	55606.45
562.27	55543.25
562.44	55767.94
562.60	56116.68
562.77	56308.61
562.93	55964.55
563.10	56018.38
563.26	55510.49
563.42	55601.77
563.59	55260.05
563.75	55437.93
563.92	55873.27
564.08	55456.65
564.24	55515.17
564.41	55501.12
564.57	55437.93
564.74	55552.62
564.90	55412.18
565.07	54988.55
565.23	54908.97
565.39	54213.83
565.56	54005.52
565.72	53537.41
565.88	54045.31
566.05	54169.36
566.21	54270.00
566.38	54497.03
566.54	54700.66
566.70	55133.66
566.87	55487.08
567.03	55274.09
567.19	55718.79
567.36	55320.90
567.52	55236.64
567.68	54831.73
567.85	54157.66
568.01	53764.45
568.17	53722.32
568.34	53579.54
568.50	53247.19
568.66	53691.89
568.83	54021.90
568.99	53918.92
569.15	53954.03
569.32	54185.74
569.48	53942.33
569.64	53797.21
569.81	53422.73
569.97	53453.15
570.13	53235.48
570.30	52713.55
570.46	52360.12
570.62	51873.29
570.78	51636.90
570.95	52149.48
571.11	52790.78
571.27	53059.94
571.43	53034.20
571.60	53591.25
571.76	53392.30
571.92	53881.47
572.09	53993.82
572.25	54024.25
572.41	53837.00
572.57	53628.69
572.74	53776.15
572.90	53279.96
573.06	53530.39
573.22	53366.55
573.38	53499.97
573.55	53621.67
573.71	53638.06
573.87	53638.06
574.03	53081.01
574.20	53310.38
574.36	52673.76
574.52	52875.04
574.68	52718.23
574.84	52189.27
575.01	51737.54
575.17	51604.13
575.33	51873.29
575.49	52261.82
575.65	52530.98
575.82	52327.36
575.98	52041.81
576.14	52287.57
576.30	52750.99
576.46	52676.10
576.62	52673.76
576.79	52554.39
576.95	51957.55
577.11	51877.97
577.27	52374.17
577.43	52306.29
577.59	51648.60
577.75	51395.82
577.92	51028.36
578.08	50459.61
578.24	50300.45
578.40	51381.78
578.56	51297.52
578.72	51482.42
578.88	51498.81
579.04	51550.30
579.21	51950.53
579.37	51648.60
579.53	51760.95
579.69	51444.98
579.85	52116.71
580.01	51870.95
580.17	51206.24
580.33	51313.90
580.49	51196.88
580.65	51629.88
580.82	51856.91
580.98	51625.20
581.14	51650.94
581.30	51990.32
581.46	51330.29
581.62	51999.68
581.78	51875.63
581.94	51929.47
582.10	51903.72
582.26	52088.62
582.42	52083.94
582.58	51896.70
582.74	51643.92
582.90	51770.31
583.06	52032.45
583.22	51760.95
583.38	51482.42
583.54	51571.36
583.70	51430.93
583.86	51477.74
584.02	51501.15
584.18	51224.96
584.34	51374.76
584.50	51042.40
584.66	51173.47
584.82	51054.11
584.98	50681.96
585.14	50316.84
585.30	49914.26
