SpectraSuite Data File
++++++++++++++++++++++++++++++++++++
Date: Mon Oct 07 14:53:39 GMT-05:00 2013
User: price-jones
Dark Spectrum Present: No
Reference Spectrum Present: No
Number of Sampled Component Spectra: 1
Spectrometers: USB2+H05261
Integration Time (usec): 100000 (USB2+H05261)
Spectra Averaged: 1 (USB2+H05261)
Boxcar Smoothing: 0 (USB2+H05261)
Correct for Electrical Dark: No (USB2+H05261)
Strobe/Lamp Enabled: No (USB2+H05261)
Correct for Detector Non-linearity: No (USB2+H05261)
Correct for Stray Light: No (USB2+H05261)
Number of Pixels in Processed Spectrum: 2048
>>>>>Begin Processed Spectral Data<<<<<
365.73	0.00
365.92	0.00
366.12	0.00
366.32	0.00
366.52	0.00
366.72	0.00
366.91	0.00
367.11	0.00
367.31	0.00
367.51	0.00
367.70	0.00
367.90	0.00
368.10	0.00
368.30	0.00
368.49	0.00
368.69	0.00
368.89	0.00
369.09	0.00
369.28	0.00
369.48	0.00
369.68	0.00
369.87	0.00
370.07	0.00
370.27	0.00
370.47	131.07
370.66	1544.75
370.86	1774.13
371.06	2054.99
371.25	2195.42
371.45	1860.73
371.65	1654.76
371.84	1495.60
372.04	1598.59
372.24	1842.00
372.44	2033.93
372.63	1973.07
372.83	1682.85
373.03	1516.67
373.22	1441.77
373.42	1572.84
373.62	1774.13
373.81	1977.75
374.01	1856.04
374.21	1783.49
374.40	1582.20
374.60	1638.38
374.79	1949.67
374.99	2221.17
375.19	2289.04
375.38	2375.64
375.58	2186.06
375.78	2073.71
375.97	2228.19
376.17	2387.35
376.37	2202.44
376.56	2270.32
376.76	2537.14
376.95	2705.66
377.15	2864.82
377.35	2876.52
377.54	3148.02
377.74	3201.85
377.93	3194.83
378.13	2991.20
378.33	2834.39
378.52	2708.00
378.72	2572.25
378.91	2541.82
379.11	2520.76
379.31	2401.39
379.50	2314.79
379.70	2633.10
379.89	2775.88
380.09	2937.37
380.28	3133.98
380.48	3061.42
380.68	3000.57
380.87	2888.22
381.07	2698.64
381.26	2480.97
381.46	2319.47
381.65	2328.83
381.85	2284.36
382.04	2120.53
382.24	2022.22
382.43	1849.02
382.63	1863.07
382.83	1863.07
383.02	1865.41
383.22	1757.74
383.41	1879.45
383.61	1984.77
383.80	2377.98
384.00	2574.59
384.19	2780.56
384.39	3045.04
384.58	3098.87
384.78	2986.52
384.97	2977.16
385.17	2860.13
385.36	2616.72
385.56	2651.83
385.75	2635.44
385.95	2878.86
386.14	3241.64
386.34	3241.64
386.53	3162.06
386.72	2953.76
386.92	2867.16
387.11	2993.55
387.31	3166.74
387.50	3260.37
387.70	2949.08
387.89	2832.05
388.09	2953.76
388.28	2899.92
388.48	2988.86
388.67	3393.78
388.86	3702.73
389.06	3932.10
389.25	4112.32
389.45	4152.11
389.64	4046.79
389.84	4053.81
390.03	3985.93
390.22	4032.74
390.42	4175.52
390.61	4421.27
390.81	4751.29
391.00	4800.44
391.19	4805.12
391.39	4730.22
391.58	4339.35
391.78	3997.64
391.97	4023.38
392.16	3796.35
392.36	3279.09
392.55	2682.25
392.75	2050.31
392.94	1593.90
393.13	1724.97
393.33	1937.96
393.52	2670.55
393.71	3300.16
393.91	3632.51
394.10	3960.19
394.29	4339.35
394.49	4739.58
394.68	5139.82
394.88	5186.63
395.07	5160.88
395.26	5078.96
395.46	5067.26
395.65	4788.74
395.84	4161.47
396.04	3627.83
396.23	2841.41
396.42	2326.49
396.62	2307.77
396.81	2684.59
397.00	3468.67
397.19	4266.80
397.39	5153.86
397.58	5856.02
397.77	6188.38
397.97	6396.68
398.16	6487.96
398.35	6729.04
398.55	6792.23
398.74	7152.68
398.93	7293.11
399.12	7148.00
399.32	6960.75
399.51	7243.96
399.70	7541.21
399.90	7391.41
400.09	7463.97
400.28	7323.54
400.47	7515.46
400.67	7857.18
400.86	7941.44
401.05	8067.83
401.24	7946.12
401.44	8329.97
401.63	8175.49
401.82	8271.45
402.01	8327.63
402.21	8198.90
402.40	8322.94
402.59	8039.74
402.78	7822.07
402.97	7566.95
403.17	7838.45
403.36	8306.56
403.55	8437.63
403.74	8992.34
403.93	8500.83
404.13	7719.09
404.32	7562.27
404.51	7997.61
404.70	8613.17
404.89	8655.30
405.09	8528.91
405.28	7983.57
405.47	8234.00
405.66	8250.39
405.85	8042.08
406.05	7810.37
406.24	7840.79
406.43	8304.22
406.62	8507.85
406.81	8737.22
407.00	8231.66
407.20	8116.98
407.39	8306.56
407.58	8655.30
407.77	8762.97
407.96	9011.06
408.15	9245.12
408.34	9245.12
408.54	9745.99
408.73	9678.12
408.92	9502.58
409.11	9348.10
409.30	8966.59
409.49	8446.99
409.68	7742.49
409.87	7674.62
410.07	8126.34
410.26	8638.92
410.45	9025.11
410.64	9568.11
410.83	9706.20
411.02	9923.87
411.21	10347.51
411.40	10118.14
411.59	10181.33
411.78	10284.31
411.98	9846.63
412.17	10242.18
412.36	10108.77
412.55	10174.31
412.74	10019.83
412.93	9673.43
413.12	9891.10
413.31	10595.61
413.50	10633.05
413.69	11091.80
413.88	10686.89
414.07	10209.42
414.26	10335.81
414.45	10810.93
414.64	10668.16
414.83	11019.24
415.02	10932.64
415.22	10869.45
415.41	10712.63
415.60	11115.20
415.79	11880.56
415.98	11740.13
416.17	11932.05
416.36	11702.68
416.55	11496.71
416.74	11068.39
416.93	10707.95
417.12	10736.04
417.31	10820.30
417.50	11096.48
417.69	11449.90
417.88	11419.47
418.07	11246.27
418.26	10944.34
418.45	11126.91
418.64	11618.42
418.83	12241.00
419.02	11826.73
419.21	11779.92
419.39	11154.99
419.58	10548.79
419.77	10719.65
419.96	11190.10
420.15	11871.20
420.34	12191.85
420.53	12514.84
420.72	12828.48
420.91	12645.91
421.10	12664.64
421.29	12514.84
421.48	12217.60
421.67	12482.08
421.86	12400.16
422.05	11375.00
422.24	10445.81
422.43	10319.42
422.61	11171.38
422.80	12287.81
422.99	12276.11
423.18	11702.68
423.37	11702.68
423.56	11730.76
423.75	11597.35
423.94	11999.93
424.13	11403.09
424.32	11318.83
424.50	11564.59
424.69	11164.36
424.88	11576.29
425.07	11403.09
425.26	11307.13
425.45	11169.04
425.64	11019.24
425.83	10988.82
426.01	11609.06
426.20	12184.83
426.39	11864.18
426.58	11037.97
426.77	10307.72
426.96	9804.50
427.15	10307.72
427.33	11005.20
427.52	11679.27
427.71	11463.94
427.90	11529.48
428.09	11360.96
428.28	10960.73
428.46	10698.59
428.65	10558.16
428.84	10881.15
429.03	10977.11
429.22	10335.81
429.40	9933.23
429.59	9132.77
429.78	7918.03
429.97	8196.56
430.16	7922.71
430.34	8241.03
430.53	8006.97
430.72	8390.82
430.91	9263.84
431.10	10977.11
431.28	12772.30
431.47	13659.37
431.66	13795.12
431.85	12610.81
432.03	11669.91
432.22	11000.52
432.41	11421.81
432.60	12713.79
432.79	13444.04
432.97	13764.69
433.16	13256.79
433.35	11925.03
433.54	11077.76
433.72	10370.91
433.91	10832.00
434.10	11735.45
434.28	12821.45
434.47	13268.50
434.66	13359.78
434.85	12856.56
435.03	13004.02
435.22	13242.75
435.41	14090.02
435.59	14080.66
435.78	14101.73
435.97	14459.83
436.16	14317.06
436.34	14202.37
436.53	13870.01
436.72	13984.70
436.90	13310.63
437.09	13399.57
437.28	13132.75
437.46	13434.68
437.65	13689.79
437.84	12540.59
438.02	11527.14
438.21	11400.75
438.40	12088.87
438.58	13273.18
438.77	13406.59
438.96	13638.30
439.14	13935.55
439.33	14562.81
439.52	14499.62
439.70	14508.98
439.89	14307.69
440.08	13673.41
440.26	13640.64
440.45	14368.55
440.63	15222.84
440.82	16137.99
441.01	15925.00
441.19	15569.24
441.38	15644.14
441.57	16442.26
441.75	16477.37
441.94	16528.86
442.12	16587.38
442.31	17006.33
442.50	16954.84
442.68	16760.58
442.87	16545.25
443.05	16119.27
443.24	16381.41
443.43	16751.21
443.61	16975.91
443.80	17479.12
443.98	16273.74
444.17	16205.87
444.35	17341.03
444.54	17680.41
444.73	17322.30
444.91	16926.75
445.10	15852.45
445.28	15524.77
445.47	14998.15
445.65	15220.50
445.84	15690.95
446.02	16301.83
446.21	16472.69
446.39	16327.58
446.58	16673.98
446.77	16936.12
446.95	16968.88
447.14	17530.61
447.32	17881.69
447.51	17867.65
447.69	16791.00
447.88	16856.54
448.06	17027.40
448.25	17350.39
448.43	17488.48
448.62	16940.80
448.80	17022.72
448.99	17015.69
449.17	17310.60
449.36	17254.43
449.54	18122.77
449.73	18162.56
449.91	18171.92
450.10	18848.33
450.28	19358.57
450.46	19524.75
450.65	18714.92
450.83	18630.66
451.02	18551.09
451.20	18455.12
451.39	18260.86
451.57	18040.85
451.76	18256.18
451.94	18221.07
452.13	17937.87
452.31	17200.60
452.49	16226.93
452.68	16498.44
452.86	16219.91
453.05	16819.09
453.23	16996.97
453.42	17436.99
453.60	18134.47
453.78	18075.96
453.97	18101.70
454.15	18338.10
454.34	17516.57
454.52	17668.70
454.70	17207.62
454.89	17713.17
455.07	17364.43
455.26	17954.25
455.44	18492.57
455.62	18995.79
455.81	19115.16
455.99	18775.78
456.17	18602.58
456.36	18684.50
456.54	19183.03
456.73	19154.94
456.91	19585.60
457.09	19585.60
457.28	20161.37
457.46	19220.48
457.64	19096.43
457.83	18623.64
458.01	18134.47
458.19	18640.03
458.38	18799.18
458.56	19454.53
458.74	19194.73
458.93	18885.78
459.11	18815.57
459.29	18810.89
459.48	18609.60
459.66	18618.96
459.84	18897.49
460.03	19211.12
460.21	19054.30
460.39	19761.14
460.57	19721.35
460.76	19955.41
460.94	19683.91
461.12	19784.55
461.31	19644.12
461.49	19365.59
461.67	19700.29
461.85	20673.95
462.04	20072.43
462.22	20688.00
462.40	20482.03
462.59	20201.16
462.77	20116.90
462.95	19892.21
463.13	19826.68
463.32	19730.72
463.50	19707.31
463.68	19735.40
463.86	19709.65
464.05	19335.17
464.23	19023.87
464.41	19021.53
464.59	18651.73
464.78	19606.67
464.96	19531.77
465.14	19318.78
465.32	19798.59
465.50	20084.14
465.69	20620.12
465.87	20102.86
466.05	19625.39
466.23	18513.64
466.41	18153.20
466.60	18712.58
466.78	18698.54
466.96	18824.93
467.14	19381.98
467.32	19892.21
467.51	19882.85
467.69	18672.79
467.87	19438.15
468.05	19583.26
468.23	19508.37
468.41	19515.39
468.60	19449.85
468.78	19775.19
468.96	19733.06
469.14	20095.84
469.32	19859.45
469.50	19056.64
469.69	19185.37
469.87	19026.21
470.05	19161.97
470.23	19037.92
470.41	18803.86
470.59	19384.32
470.77	19501.34
470.95	19651.14
471.14	20018.60
471.32	20109.88
471.50	21200.57
471.68	21343.35
471.86	21479.10
472.04	21647.61
472.22	21420.58
472.40	20479.69
472.58	20233.93
472.77	20098.18
472.95	20538.20
473.13	20798.00
473.31	20081.80
473.49	20545.22
473.67	20945.45
473.85	21404.20
474.03	21797.41
474.21	21855.92
474.39	22202.32
474.57	22003.38
474.75	22038.48
474.93	21982.31
475.12	21451.01
475.30	21776.34
475.48	21944.86
475.66	22066.57
475.84	21699.11
476.02	21509.52
476.20	21235.68
476.38	21689.74
476.56	22258.49
476.74	22852.99
476.92	22326.37
477.10	23002.78
477.28	23484.94
477.46	23580.90
477.64	23936.66
477.82	24004.53
478.00	24037.30
478.18	23648.77
478.36	23501.32
478.54	23459.19
478.72	23789.20
478.90	24278.38
479.08	25085.86
479.26	25483.75
479.44	25507.16
479.62	25055.43
479.80	24985.22
479.98	25214.59
480.16	25167.78
480.34	25156.08
480.52	25481.41
480.70	25336.30
480.88	25507.16
481.06	26403.58
481.24	26127.40
481.41	26799.13
481.59	27538.74
481.77	26974.67
481.95	26717.22
482.13	26965.31
482.31	26735.94
482.49	26946.59
482.67	27152.55
482.85	27269.58
483.03	27938.97
483.21	28100.47
483.39	27906.21
483.57	27274.26
483.74	27033.19
483.92	27054.25
484.10	27431.08
484.28	28348.57
484.46	28245.58
484.64	28587.30
484.82	27786.84
485.00	27798.54
485.18	27330.44
485.35	26473.80
485.53	24334.55
485.71	22001.04
485.89	21797.41
486.07	22941.93
486.25	24957.13
486.43	26637.64
486.61	27253.20
486.78	27211.07
486.96	27377.25
487.14	28327.50
487.32	28727.74
487.50	29921.41
487.68	30511.22
487.85	30932.52
488.03	30998.06
488.21	30764.00
488.39	30129.72
488.57	29544.58
488.75	28676.24
488.92	30181.21
489.10	32381.31
489.28	33069.43
489.46	34192.89
489.64	33832.44
489.81	33979.90
489.99	33792.65
490.17	33731.80
490.35	33916.70
490.53	33734.14
490.70	33366.68
490.88	33177.09
491.06	34366.09
491.24	34157.78
491.41	32821.33
491.59	31234.45
491.77	30604.84
491.95	31831.29
492.13	32673.88
492.30	34293.53
492.48	35365.49
492.66	36051.27
492.84	35807.86
493.01	35103.35
493.19	34897.39
493.37	34630.57
493.54	34220.97
493.72	34838.87
493.90	35807.86
494.08	36966.42
494.25	37766.88
494.43	37942.42
494.61	38211.59
494.79	38328.61
494.96	37703.69
495.14	36959.40
495.32	35751.68
495.49	35349.11
495.67	36814.29
495.85	38185.84
496.02	38859.91
496.20	38986.30
496.38	37745.82
496.55	38026.68
496.73	38660.97
496.91	38972.26
497.09	39784.43
497.26	39662.72
497.44	38969.92
497.62	38625.86
497.79	37572.62
497.97	36051.27
498.14	35632.32
498.32	37605.39
498.50	38469.04
498.67	39276.53
498.85	39398.24
499.03	39522.29
499.20	39686.12
499.38	39835.92
499.56	39377.17
499.73	38689.06
499.91	38164.78
500.08	37771.57
500.26	36723.01
500.44	37502.40
500.61	38314.57
500.79	37993.92
500.97	37523.47
501.14	37184.09
501.32	37148.98
501.49	37273.03
501.67	37596.03
501.84	38359.04
502.02	38550.96
502.20	38969.92
502.37	39372.49
502.55	39316.32
502.72	39943.58
502.90	40603.61
503.07	39976.35
503.25	39887.41
503.43	38675.01
503.60	38129.67
503.78	36772.16
503.95	37523.47
504.13	39653.36
504.30	40472.54
504.48	40112.10
504.65	39615.91
504.83	39742.30
505.01	40928.95
505.18	40945.33
505.36	41727.07
505.53	42087.51
505.71	42213.90
505.88	42155.39
506.06	41275.35
506.23	40905.54
506.41	40648.08
506.58	40690.21
506.76	40905.54
506.93	40994.48
507.11	40027.84
507.28	40566.16
507.46	39913.16
507.63	39562.08
507.81	38733.53
507.98	39124.40
508.16	39824.22
508.33	40844.69
508.50	41923.68
508.68	41975.17
508.85	42747.54
509.03	42782.65
509.20	42555.62
509.38	40821.28
509.55	40348.50
509.73	40594.25
509.90	40877.46
510.08	41638.13
510.25	41380.67
510.42	41317.48
510.60	41155.98
510.77	41635.79
510.95	42567.32
511.12	42185.82
511.30	43042.45
511.47	43299.91
511.64	43103.31
511.82	42511.15
511.99	41523.44
512.17	41127.89
512.34	40545.10
512.51	40676.17
512.69	41195.77
512.86	41160.66
513.04	41776.22
513.21	41881.55
513.38	41397.06
513.56	40414.03
513.73	39690.80
513.90	39866.34
514.08	39952.94
514.25	40128.48
514.43	40367.22
514.60	41106.83
514.77	41057.68
514.95	41184.07
515.12	41331.52
515.29	41579.62
515.47	42464.34
515.64	42562.64
515.81	41687.28
515.99	40891.50
516.16	38628.20
516.33	35747.00
516.51	34366.09
516.68	33560.94
516.85	33041.34
517.03	33804.36
517.20	36542.78
517.37	39906.13
517.54	41539.83
517.72	40685.53
517.89	36987.49
518.06	34162.46
518.24	34878.66
518.41	37722.41
518.58	38735.87
518.75	39721.23
518.93	40088.70
519.10	39620.59
519.27	40381.26
519.45	40786.18
519.62	41464.93
519.79	42153.05
519.96	42129.64
520.14	41345.56
520.31	39915.50
520.48	39866.34
520.65	40208.06
520.83	41930.70
521.00	42562.64
521.17	41982.19
521.34	41404.08
521.52	41893.25
521.69	42389.44
521.86	43533.96
522.03	42693.71
522.20	40765.11
522.38	39756.34
522.55	39519.95
522.72	40554.46
522.89	40608.29
523.07	40816.60
523.24	41588.98
523.41	42665.63
523.58	43454.39
523.75	43667.37
523.92	43868.66
524.10	43681.42
524.27	43510.56
524.44	43337.36
524.61	43112.67
524.78	42424.55
524.96	42344.97
525.13	42604.77
525.30	42827.12
525.47	43901.43
525.64	43133.73
525.81	42316.89
525.98	40191.68
526.16	38213.93
526.33	37584.32
526.50	37202.82
526.67	36594.28
526.84	37256.65
527.01	38976.94
527.18	39861.66
527.36	41338.54
527.53	42646.90
527.70	42604.77
527.87	41635.79
528.04	41514.08
528.21	41921.34
528.38	43049.47
528.55	43796.10
528.72	44521.67
528.89	44631.68
529.07	44350.81
529.24	42953.51
529.41	42440.93
529.58	41261.30
529.75	41390.03
529.92	42141.35
530.09	43075.22
530.26	43430.98
530.43	44292.30
530.60	43976.33
530.77	43934.20
530.94	44554.44
531.11	43360.76
531.28	43154.80
531.46	42967.55
531.63	43082.24
531.80	42946.49
531.97	42195.18
532.14	41532.81
532.31	39934.22
532.48	38946.51
532.65	39042.48
532.82	40371.90
532.99	41720.05
533.16	42120.28
533.33	43688.44
533.50	43213.31
533.67	41823.03
533.84	40954.69
534.01	41490.68
534.18	41972.83
534.35	42286.46
534.52	41729.41
534.69	41886.23
534.86	42866.91
535.03	43416.94
535.20	43552.69
535.37	44685.51
535.54	44449.11
535.71	44222.08
535.88	43587.80
536.05	42581.37
536.22	41874.52
536.38	41535.15
536.55	41198.11
536.72	40226.79
536.89	40371.90
537.06	41130.23
537.23	42384.76
537.40	42705.41
537.57	42600.09
537.74	42380.08
537.91	42518.17
538.08	42335.61
538.25	42335.61
538.42	42747.54
538.59	42674.99
538.75	41113.85
538.92	40840.01
539.09	40924.27
539.26	40727.66
539.43	40498.29
539.60	40460.84
539.77	40917.25
539.94	41078.74
540.11	39180.57
540.28	38581.39
540.44	39276.53
540.61	39473.13
540.78	39978.69
540.95	40156.57
541.12	40776.81
541.29	41179.39
541.46	41551.53
541.62	41715.37
541.79	41446.21
541.96	40493.61
542.13	40385.94
542.30	40818.94
542.47	41031.93
542.63	40786.18
542.80	40748.73
542.97	40898.52
543.14	40631.70
543.31	40596.59
543.48	41773.88
543.64	42445.62
543.81	43456.73
543.98	42696.05
544.15	41937.72
544.32	40701.92
544.48	40774.47
544.65	41408.76
544.82	42106.24
544.99	41628.77
545.16	41118.53
545.32	40521.69
545.49	41902.61
545.66	42749.88
545.83	42087.51
546.00	41675.58
546.16	41029.59
546.33	41172.36
546.50	40957.03
546.67	41736.43
546.83	41219.17
547.00	41460.25
547.17	40156.57
547.34	39538.67
547.50	39086.95
547.67	40020.82
547.84	40069.97
548.00	40708.94
548.17	41097.47
548.34	41284.71
548.51	40687.87
548.67	40971.08
548.84	41125.55
549.01	41170.02
549.18	40964.06
549.34	40748.73
549.51	40844.69
549.68	40961.72
549.84	40612.98
550.01	40942.99
550.18	40142.53
550.34	40481.91
550.51	40364.88
550.68	40605.95
550.84	39922.52
551.01	40210.40
551.18	39686.12
551.34	40470.20
551.51	40875.12
551.68	41179.39
551.84	41013.21
552.01	40694.89
552.18	40676.17
552.34	39608.89
552.51	39232.06
552.68	38794.38
552.84	39711.87
553.01	39803.15
553.18	39632.29
553.34	40334.45
553.51	39992.73
553.67	40727.66
553.84	40385.94
554.01	40432.75
554.17	40552.12
554.34	40217.43
554.51	40650.42
554.67	40961.72
554.84	40830.65
555.00	40198.70
555.17	39938.90
555.33	39702.51
555.50	39894.43
555.67	40116.78
555.83	39409.94
556.00	39288.23
556.16	39007.37
556.33	38478.41
556.50	38335.63
556.66	38897.36
556.83	37916.68
556.99	38511.17
557.16	38382.45
557.32	38665.65
557.49	39325.68
557.65	39292.91
557.82	38616.50
557.98	38899.70
558.15	38167.12
558.32	37462.61
558.48	36278.30
558.65	36554.49
558.81	36498.31
558.98	37717.73
559.14	37532.83
559.31	37455.59
559.47	37691.99
559.64	37305.80
559.80	36989.83
559.97	36849.39
560.13	37450.91
560.30	38756.93
560.46	39583.14
560.63	39751.66
560.79	39976.35
560.96	38829.49
561.12	37867.53
561.29	36479.59
561.45	36589.59
561.61	37560.92
561.78	38153.07
561.94	37577.30
562.11	37549.21
562.27	37509.43
562.44	38017.32
562.60	38415.21
562.77	37977.53
562.93	38345.00
563.10	38572.03
563.26	37090.47
563.42	37392.40
563.59	37123.24
563.75	37305.80
563.92	37371.33
564.08	37034.30
564.24	37673.26
564.41	37581.98
564.57	37706.03
564.74	37474.32
564.90	36790.88
565.07	36795.56
565.23	36549.81
565.39	36301.71
565.56	35959.99
565.72	35337.41
565.88	35974.03
566.05	35938.93
566.21	36514.70
566.38	36411.71
566.54	36208.09
566.70	36793.22
566.87	37071.75
567.03	36994.51
567.19	37425.17
567.36	37041.32
567.52	36652.79
567.68	36517.04
567.85	35899.14
568.01	35435.71
568.17	34983.99
568.34	35033.14
568.50	34976.97
568.66	35557.42
568.83	35800.83
568.99	35271.87
569.15	36098.08
569.32	35431.03
569.48	35400.60
569.64	35400.60
569.81	35318.68
569.97	34773.34
570.13	34679.72
570.30	34242.04
570.46	33790.31
570.62	33036.66
570.78	33179.43
570.95	33628.82
571.11	34265.44
571.27	34522.90
571.43	34644.61
571.60	34969.94
571.76	35470.82
571.92	35648.70
572.09	35866.37
572.25	35917.86
572.41	35564.44
572.57	35498.91
572.74	35564.44
572.90	35068.25
573.06	34918.45
573.22	35522.31
573.38	34998.03
573.55	34960.58
573.71	35243.79
573.87	34939.52
574.03	34653.97
574.20	34850.58
574.36	34342.68
574.52	34499.50
574.68	33958.83
574.84	34206.93
575.01	33443.91
575.17	33509.45
575.33	33619.46
575.49	33654.56
575.65	33720.10
575.82	33998.62
575.98	33607.75
576.14	33706.05
576.30	34359.06
576.46	34279.49
576.62	34141.39
576.79	33970.54
576.95	33495.41
577.11	33556.26
577.27	33682.65
577.43	33860.53
577.59	33223.90
577.75	33296.46
577.92	32673.88
578.08	32198.75
578.24	32175.34
578.40	32669.20
578.56	32711.33
578.72	32924.32
578.88	32968.79
579.04	33092.83
579.21	33043.68
579.37	33354.97
579.53	33474.34
579.69	33354.97
579.85	33230.93
580.01	33457.96
580.17	32781.54
580.33	32481.95
580.49	32957.08
580.65	33532.86
580.82	33326.89
580.98	33041.34
581.14	33153.69
581.30	33734.14
581.46	33081.13
581.62	33539.88
581.78	33816.06
581.94	33867.55
582.10	33516.47
582.26	33909.68
582.42	33539.88
582.58	33558.60
582.74	33418.17
582.90	33720.10
583.06	33743.50
583.22	33195.82
583.38	33357.32
583.54	33029.64
583.70	32900.91
583.86	33177.09
584.02	33312.84
584.18	33039.00
584.34	33008.58
584.50	33242.63
584.66	32582.60
584.82	32147.26
584.98	32446.85
585.14	31859.37
585.30	30927.84
585.46	31412.33
585.62	31370.20
585.78	31597.23
585.94	31374.88
586.10	31859.37
