SpectraSuite Data File
++++++++++++++++++++++++++++++++++++
Date: Mon Oct 07 14:52:57 GMT-05:00 2013
User: price-jones
Dark Spectrum Present: No
Reference Spectrum Present: No
Number of Sampled Component Spectra: 1
Spectrometers: USB2+H05261
Integration Time (usec): 100000 (USB2+H05261)
Spectra Averaged: 1 (USB2+H05261)
Boxcar Smoothing: 0 (USB2+H05261)
Correct for Electrical Dark: No (USB2+H05261)
Strobe/Lamp Enabled: No (USB2+H05261)
Correct for Detector Non-linearity: No (USB2+H05261)
Correct for Stray Light: No (USB2+H05261)
Number of Pixels in Processed Spectrum: 2048
>>>>>Begin Processed Spectral Data<<<<<
365.73	0.00
365.92	0.00
366.12	0.00
366.32	0.00
366.52	0.00
366.72	0.00
366.91	0.00
367.11	0.00
367.31	0.00
367.51	0.00
367.70	0.00
367.90	0.00
368.10	0.00
368.30	0.00
368.49	0.00
368.69	0.00
368.89	0.00
369.09	0.00
369.28	0.00
369.48	0.00
369.68	0.00
369.87	0.00
370.07	0.00
370.27	0.00
370.47	580.45
370.66	2740.77
370.86	3215.90
371.06	3468.67
371.25	3492.08
371.45	3246.32
371.65	2841.41
371.84	2628.42
372.04	2768.85
372.24	3159.72
372.44	3353.99
372.63	3190.15
372.83	2913.97
373.03	2551.18
373.22	2504.37
373.42	2562.89
373.62	2918.65
373.81	3265.05
374.01	3190.15
374.21	2864.82
374.40	2705.66
374.60	2754.81
374.79	3215.90
374.99	3702.73
375.19	3976.57
375.38	3786.99
375.58	3737.84
375.78	3625.49
375.97	3719.11
376.17	3875.93
376.37	3824.44
376.56	4016.36
376.76	4166.15
376.95	4416.59
377.15	4744.27
377.35	5032.15
377.54	4992.36
377.74	5186.63
377.93	5355.15
378.13	5132.79
378.33	4884.70
378.52	4575.75
378.72	4379.14
378.91	4248.07
379.11	4070.19
379.31	3936.78
379.50	3992.95
379.70	4355.74
379.89	4667.03
380.09	4924.49
380.28	5184.29
380.48	5242.80
380.68	5041.51
380.87	4880.02
381.07	4645.96
381.26	4184.88
381.46	4009.34
381.65	3763.58
381.85	3796.35
382.04	3578.68
382.24	3311.86
382.43	3206.53
382.63	3166.74
382.83	3229.94
383.02	3211.22
383.22	3131.64
383.41	3091.85
383.61	3342.28
383.80	3894.65
384.00	4341.69
384.19	4840.23
384.39	5121.09
384.58	5071.94
384.78	4922.15
384.97	5139.82
385.17	4753.63
385.36	4526.60
385.56	4337.01
385.75	4432.97
385.95	4990.02
386.14	5320.04
386.34	5205.35
386.53	4997.04
386.72	4770.01
386.92	4732.56
387.11	4919.81
387.31	5156.20
387.50	5207.69
387.70	4936.19
387.89	4905.76
388.09	4973.64
388.28	4994.70
388.48	5107.05
388.67	5441.75
388.86	6176.67
389.06	6438.81
389.25	6651.80
389.45	6911.60
389.64	6925.65
389.84	6913.94
390.03	6600.31
390.22	6539.46
390.42	6984.16
390.61	7375.03
390.81	7845.48
391.00	8032.72
391.19	7929.74
391.39	7653.55
391.58	7358.64
391.78	6780.53
391.97	6574.56
392.16	6064.33
392.36	5584.52
392.55	4538.30
392.75	3489.74
392.94	2949.08
393.13	2883.54
393.33	3461.65
393.52	4519.57
393.71	5352.81
393.91	6118.16
394.10	6518.39
394.29	7356.30
394.49	7822.07
394.68	8437.63
394.88	8505.51
395.07	8638.92
395.26	8449.33
395.46	8264.43
395.65	7875.90
395.84	6806.28
396.04	5891.13
396.23	4739.58
396.42	3859.54
396.62	3925.08
396.81	4519.57
397.00	5720.27
397.19	7166.72
397.39	8446.99
397.58	9762.37
397.77	10176.65
397.97	10471.56
398.16	10609.65
398.35	11012.22
398.55	11332.87
398.74	11728.42
398.93	12063.12
399.12	11796.30
399.32	11485.01
399.51	11695.66
399.70	12376.75
399.90	12154.40
400.09	12369.73
400.28	12273.77
400.47	12358.03
400.67	12870.61
400.86	13130.41
401.05	13149.13
401.24	13350.42
401.44	13502.55
401.63	13565.74
401.82	13399.57
402.01	13228.71
402.21	13537.66
402.40	13687.45
402.59	13226.37
402.78	12645.91
402.97	12446.97
403.17	12999.34
403.36	13731.92
403.55	14090.02
403.74	14384.93
403.93	13696.82
404.13	12844.86
404.32	12322.92
404.51	12854.22
404.70	14193.01
404.89	13923.85
405.09	13874.70
405.28	13572.77
405.47	13217.01
405.66	13432.33
405.85	13025.08
406.05	12585.06
406.24	12685.70
406.43	13301.26
406.62	13989.38
406.81	14118.11
407.00	13387.86
407.20	13071.89
407.39	13324.67
407.58	13975.34
407.77	14331.10
407.96	14895.17
408.15	15129.22
408.34	15117.52
408.54	16016.29
408.73	15892.24
408.92	15910.96
409.11	15379.66
409.30	14237.48
409.49	13540.00
409.68	12695.07
409.87	12222.28
410.07	13226.37
410.26	14141.52
410.45	15302.42
410.64	15587.97
410.83	15948.41
411.02	16276.09
411.21	17209.96
411.40	16643.55
411.59	16662.27
411.78	16552.27
411.98	16383.75
412.17	16961.86
412.36	16315.87
412.55	16477.37
412.74	16229.27
412.93	15639.46
413.12	16159.06
413.31	17507.21
413.50	17811.48
413.69	17980.00
413.88	17202.94
414.07	16943.14
414.26	17032.08
414.45	17645.30
414.64	17582.10
414.83	17750.62
415.02	17334.01
415.22	17532.95
415.41	17745.94
415.60	18209.37
415.79	19129.20
415.98	19974.13
416.17	19398.36
416.36	18878.76
416.55	18513.64
416.74	18221.07
416.93	17502.53
417.12	17422.95
417.31	17722.54
417.50	18068.94
417.69	18600.24
417.88	18497.25
418.07	18501.93
418.26	18080.64
418.45	18434.06
418.64	19068.34
418.83	19665.18
419.02	19377.30
419.21	18953.66
419.39	18441.08
419.58	17231.02
419.77	17575.08
419.96	18487.89
420.15	19405.38
420.34	19819.66
420.53	20559.27
420.72	21057.80
420.91	21013.33
421.10	20512.46
421.29	20425.86
421.48	19662.84
421.67	20971.20
421.86	20123.93
422.05	18625.98
422.24	16870.58
422.43	16519.50
422.61	18328.74
422.80	20030.30
422.99	20070.09
423.18	19222.82
423.37	18771.10
423.56	18972.38
423.75	19288.35
423.94	19840.72
424.13	18499.59
424.32	18464.49
424.50	18700.88
424.69	18532.36
424.88	18895.14
425.07	18520.66
425.26	18457.46
425.45	18445.76
425.64	18071.28
425.83	18143.83
426.01	19119.84
426.20	19424.11
426.39	19358.57
426.58	18106.38
426.77	16720.79
426.96	16196.51
427.15	17025.06
427.33	18139.15
427.52	18616.62
427.71	18909.19
427.90	18796.84
428.09	18246.82
428.28	18071.28
428.46	17458.06
428.65	17238.05
428.84	17671.04
429.03	17823.18
429.22	17046.12
429.40	16013.95
429.59	14724.31
429.78	12720.81
429.97	12786.35
430.16	12994.65
430.34	13509.57
430.53	13121.04
430.72	13193.60
430.91	15023.90
431.10	17366.78
431.28	20615.44
431.47	22181.26
431.66	22384.88
431.85	20360.32
432.03	18801.52
432.22	18284.26
432.41	18948.98
432.60	20959.50
432.79	21645.27
432.97	22246.79
433.16	21404.20
433.35	19641.78
433.54	17493.16
433.72	16968.88
433.91	17160.81
434.10	19288.35
434.28	21130.36
434.47	21752.94
434.66	21434.63
434.85	20762.89
435.03	20823.75
435.22	21436.97
435.41	22710.22
435.59	22764.05
435.78	23044.91
435.97	24107.52
436.16	23597.28
436.34	23433.44
436.53	22829.59
436.72	23009.81
436.90	21846.56
437.09	21413.56
437.28	21357.39
437.46	21717.83
437.65	22108.70
437.84	20231.59
438.02	18721.95
438.21	18904.51
438.40	20144.99
438.58	21813.79
438.77	22024.44
438.96	22295.94
439.14	23082.36
439.33	23569.19
439.52	24116.88
439.70	23234.50
439.89	22618.94
440.08	22405.95
440.26	22497.23
440.45	23253.22
440.63	24622.44
440.82	25785.68
441.01	25855.90
441.19	25120.97
441.38	25649.93
441.57	26890.41
441.75	26738.28
441.94	27283.62
442.12	27173.62
442.31	27372.57
442.50	27407.67
442.68	27225.11
442.87	26810.84
443.05	26632.96
443.24	26841.26
443.43	27150.21
443.61	27950.68
443.80	28496.02
443.98	26286.56
444.17	26731.26
444.35	28624.75
444.54	28620.07
444.73	28313.46
444.91	27110.43
445.10	25858.24
445.28	24805.00
445.47	24762.87
445.65	24669.25
445.84	25289.49
446.02	26476.14
446.21	26712.53
446.39	26876.37
446.58	27388.95
446.77	27737.69
446.95	27725.99
447.14	28849.44
447.32	29184.14
447.51	28566.24
447.69	27428.74
447.88	26850.63
448.06	27487.25
448.25	28163.67
448.43	28306.44
448.62	27662.79
448.80	27562.15
448.99	27901.53
449.17	28107.49
449.36	27728.33
449.54	29046.05
449.73	29614.80
449.91	30000.99
450.10	30675.06
450.28	31505.95
450.46	30646.97
450.65	30796.77
450.83	30820.17
451.02	30000.99
451.20	29670.97
451.39	29958.86
451.57	29549.26
451.76	29509.47
451.94	29287.12
452.13	28858.81
452.31	27964.72
452.49	26492.52
452.68	26632.96
452.86	26438.69
453.05	27012.12
453.23	27950.68
453.42	28830.72
453.60	29308.19
453.78	29699.06
453.97	29144.35
454.15	29425.22
454.34	28556.88
454.52	28938.38
454.70	28077.07
454.89	28727.74
455.07	28716.03
455.26	29036.69
455.44	30419.94
455.62	31068.27
455.81	30958.27
455.99	30513.56
456.17	30284.19
456.36	30866.98
456.54	31271.90
456.73	31325.73
456.91	31777.45
457.09	31681.49
457.28	32788.56
457.46	31035.50
457.64	31253.17
457.83	30473.78
458.01	29291.80
458.19	30309.94
458.38	30703.15
458.56	31150.19
458.74	31236.79
458.93	30700.81
459.11	31021.46
459.29	30347.39
459.48	30464.41
459.66	30181.21
459.84	30609.53
460.03	31133.81
460.21	31386.58
460.39	32060.66
460.57	31803.20
460.76	32577.92
460.94	32666.86
461.12	31941.29
461.31	32004.49
461.49	31810.22
461.67	31604.25
461.85	33219.22
462.04	32652.81
462.22	33237.95
462.40	33024.96
462.59	33017.94
462.77	33010.92
462.95	32748.78
463.13	32259.60
463.32	32301.73
463.50	31952.99
463.68	32105.13
463.86	31983.42
464.05	31569.15
464.23	30902.09
464.41	30948.90
464.59	30132.06
464.78	31962.36
464.96	31693.19
465.14	30948.90
465.32	32238.54
465.50	33053.05
465.69	33177.09
465.87	32596.64
466.05	31632.34
466.23	30391.86
466.41	29610.12
466.60	30764.00
466.78	30644.63
466.96	31302.32
467.14	31709.58
467.32	32243.22
467.51	32280.67
467.69	30567.40
467.87	31527.02
468.05	31847.67
468.23	31770.43
468.41	32077.04
468.60	31906.18
468.78	32453.87
468.96	31391.26
469.14	32535.79
469.32	32762.82
469.50	31180.62
469.69	31122.10
469.87	31108.06
470.05	30824.86
470.23	30691.44
470.41	31070.61
470.59	31442.76
470.77	31665.11
470.95	32121.51
471.14	32755.80
471.32	32460.89
471.50	34700.78
471.68	34550.99
471.86	34787.38
472.04	34939.52
472.22	35550.40
472.40	33261.35
472.58	33046.02
472.77	32343.86
472.95	33165.39
473.13	34026.71
473.31	33481.36
473.49	33727.12
473.67	34040.75
473.85	34892.71
474.03	35409.96
474.21	35716.58
474.39	35854.67
474.57	36048.93
474.75	35868.71
474.93	35826.58
475.12	34623.54
475.30	34836.53
475.48	35234.42
475.66	35637.00
475.84	35122.08
476.02	34668.02
476.20	34146.08
476.38	35351.45
476.56	35892.12
476.74	36711.30
476.92	36580.23
477.10	36980.46
477.28	38515.86
477.46	38511.17
477.64	39030.77
477.82	38923.11
478.00	39086.95
478.18	38511.17
478.36	38127.33
478.54	38382.45
478.72	38691.40
478.90	39789.11
479.08	40201.04
479.26	41296.41
479.44	40865.75
479.62	40779.15
479.80	40561.48
479.98	41008.53
480.16	41172.36
480.34	40781.49
480.52	40711.28
480.70	41228.54
480.88	41626.43
481.06	42447.96
481.24	42689.03
481.41	43384.17
481.59	43849.94
481.77	43512.90
481.95	42735.84
482.13	42813.08
482.31	43353.74
482.49	43693.12
482.67	43878.02
482.85	44034.84
483.03	44449.11
483.21	44973.39
483.39	44753.38
483.57	43988.03
483.74	43700.14
483.92	43796.10
484.10	44201.02
484.28	45595.98
484.46	45724.71
484.64	45844.07
484.82	44659.76
485.00	44488.90
485.18	44355.49
485.35	42698.39
485.53	39199.29
485.71	35838.28
485.89	35976.37
486.07	38251.38
486.25	40715.96
486.43	42988.62
486.61	43838.23
486.78	43882.70
486.96	44006.75
487.14	45612.36
487.32	46321.54
487.50	47735.23
487.68	48231.42
487.85	49038.90
488.03	48502.92
488.21	47997.37
488.39	47562.03
488.57	46480.70
488.75	46677.30
488.92	47955.24
489.10	50450.25
489.28	51447.32
489.46	52212.67
489.64	52156.50
489.81	52275.87
489.99	52095.64
490.17	51978.62
490.35	52264.16
490.53	51564.34
490.70	51576.04
490.88	51210.92
491.06	52479.49
491.24	52301.61
491.41	51136.02
491.59	49425.09
491.77	48512.28
491.95	50211.51
492.13	51304.54
492.30	52374.17
492.48	53427.41
492.66	54049.99
492.84	53703.59
493.01	53600.61
493.19	52919.51
493.37	52313.31
493.54	52289.91
493.72	53099.73
493.90	54330.86
494.08	54801.30
494.25	54986.21
494.43	55454.31
494.61	55667.30
494.79	55751.56
494.96	55458.99
495.14	54873.86
495.32	53951.69
495.49	53319.74
495.67	54539.16
495.85	55859.23
496.02	56411.59
496.20	56254.78
496.38	55620.49
496.55	55419.20
496.73	56158.81
496.91	56165.84
497.09	56617.56
497.26	56945.23
497.44	56282.86
497.62	55903.70
497.79	55021.31
497.97	53855.73
498.14	54005.52
498.32	55253.03
498.50	56112.00
498.67	56657.35
498.85	56264.14
499.03	56561.39
499.20	56640.96
499.38	56868.00
499.56	56647.99
499.73	56046.47
499.91	55884.97
500.08	55622.83
500.26	54656.19
500.44	55222.60
500.61	55648.58
500.79	55557.30
500.97	55229.62
501.14	55025.99
501.32	54878.54
501.49	55154.72
501.67	55241.32
501.84	55863.91
502.02	56097.96
502.20	56449.04
502.37	56495.85
502.55	56463.08
502.72	57052.90
502.90	57450.79
503.07	57137.16
503.25	56619.90
503.43	55751.56
503.60	55224.94
503.78	54733.43
503.95	55187.49
504.13	56692.46
504.30	57160.56
504.48	57141.84
504.65	56779.06
504.83	56762.67
505.01	57457.81
505.18	57820.59
505.36	58370.62
505.53	58232.53
505.71	58492.33
505.88	58534.46
506.06	58115.50
506.23	57794.85
506.41	57237.80
506.58	57642.71
506.76	57525.69
506.93	57544.41
507.11	57261.21
507.28	57588.88
507.46	56900.76
507.63	56327.33
507.81	56205.62
507.98	56446.70
508.16	57055.24
508.33	57890.81
508.50	57925.92
508.68	58066.35
508.85	58585.95
509.03	58759.15
509.20	58632.76
509.38	57932.94
509.55	57188.65
509.73	57298.65
509.90	57682.50
510.08	58038.26
510.25	58162.31
510.42	57818.25
510.60	57783.15
510.77	57979.75
510.95	58480.63
511.12	58815.32
511.30	59201.51
511.47	59264.70
511.64	59114.91
511.82	58674.89
511.99	57787.83
512.17	57752.72
512.34	57272.91
512.51	57567.82
512.69	57666.12
512.86	57621.65
513.04	58204.44
513.21	58129.54
513.38	57488.24
513.56	57270.57
513.73	56589.47
513.90	56961.62
514.08	57125.46
514.25	57301.00
514.43	57769.10
514.60	57701.23
514.77	57930.60
514.95	57853.36
515.12	57876.77
515.29	58141.25
515.47	58478.28
515.64	58679.57
515.81	58284.02
515.99	57532.71
516.16	56027.74
516.33	54150.63
516.51	52666.73
516.68	51751.59
516.85	51428.59
517.03	52083.94
517.20	54595.34
517.37	56940.55
517.54	57921.24
517.72	57130.14
517.89	54843.43
518.06	52633.97
518.24	53319.74
518.41	55290.48
518.58	56533.30
518.75	56650.33
518.93	56790.76
519.10	56795.44
519.27	57251.84
519.45	57588.88
519.62	58328.49
519.79	58417.43
519.96	58218.49
520.14	57977.41
520.31	57036.51
520.48	57029.49
520.65	57518.67
520.83	58534.46
521.00	58700.64
521.17	58239.55
521.34	58005.50
521.52	58408.07
521.69	59032.99
521.86	59164.06
522.03	58841.07
522.20	57860.38
522.38	56797.78
522.55	56645.65
522.72	57223.76
522.89	57553.77
523.07	57755.06
523.24	57949.32
523.41	58801.28
523.58	59213.21
523.75	59606.42
523.92	59351.30
524.10	59278.75
524.27	59323.22
524.44	59208.53
524.61	59044.69
524.78	58827.02
524.96	58838.73
525.13	58742.77
525.30	59065.76
525.47	59627.49
525.64	59182.79
525.81	58784.90
525.98	57284.61
526.16	55765.60
526.33	55143.02
526.50	54864.50
526.67	54595.34
526.84	55269.41
527.01	56097.96
527.18	56992.04
527.36	57726.97
527.53	58784.90
527.70	59049.38
527.87	58302.74
528.04	58181.04
528.21	58679.57
528.38	59063.42
528.55	59810.05
528.72	59969.21
528.89	59810.05
529.07	59732.81
529.24	59157.04
529.41	58401.05
529.58	57918.90
529.75	58061.67
529.92	58436.16
530.09	58857.45
530.26	59250.66
530.43	59800.69
530.60	59700.04
530.77	59819.41
530.94	59908.35
531.11	59470.67
531.28	59262.36
531.46	59117.25
531.63	59117.25
531.80	58864.47
531.97	58588.29
532.14	57820.59
532.31	56739.27
532.48	56367.12
532.65	56446.70
532.82	57148.86
532.99	58272.32
533.16	58651.48
533.33	59208.53
533.50	59016.61
533.67	58351.90
533.84	57968.05
534.01	58101.46
534.18	58267.64
534.35	58459.56
534.52	58265.30
534.69	58688.93
534.86	59058.74
535.03	59538.55
535.20	59536.21
535.37	60046.44
535.54	60041.76
535.71	59622.81
535.88	59395.77
536.05	58698.30
536.22	58321.47
536.38	57949.32
536.55	57532.71
536.72	57010.77
536.89	57244.82
537.06	57860.38
537.23	58855.11
537.40	58784.90
537.57	58965.12
537.74	58651.48
537.91	58372.96
538.08	58635.10
538.25	58700.64
538.42	58976.82
538.59	58553.18
538.75	57841.66
538.92	57783.15
539.09	57656.76
539.26	57380.57
539.43	57481.22
539.60	57387.60
539.77	57682.50
539.94	57441.43
540.11	56622.24
540.28	56210.31
540.44	56509.89
540.61	56486.49
540.78	56804.80
540.95	57104.39
541.12	57551.43
541.29	57722.29
541.46	58085.07
541.62	58220.83
541.79	58272.32
541.96	57354.83
542.13	57584.20
542.30	57794.85
542.47	57797.19
542.63	57820.59
542.80	57460.15
542.97	57656.76
543.14	57523.35
543.31	57499.94
543.48	58141.25
543.64	58728.72
543.81	59040.01
543.98	58838.73
544.15	58227.85
544.32	57736.34
544.48	58042.95
544.65	58328.49
544.82	58773.19
544.99	57977.41
545.16	57986.77
545.32	57675.48
545.49	58494.67
545.66	58784.90
545.83	58349.56
546.00	58110.82
546.16	57722.29
546.33	57827.62
546.50	57626.33
546.67	58497.01
546.83	57666.12
547.00	57560.79
547.17	57167.58
547.34	56645.65
547.50	56491.17
547.67	57186.31
547.84	57186.31
548.00	57659.10
548.17	58042.95
548.34	57893.15
548.51	57766.76
548.67	57975.07
548.84	57888.47
549.01	57925.92
549.18	57499.94
549.34	57712.93
549.51	57677.82
549.68	57691.86
549.84	57282.27
550.01	57247.16
550.18	57176.95
550.34	57373.55
550.51	57347.81
550.68	57396.96
550.84	56865.66
551.01	57085.67
551.18	57013.11
551.34	57249.50
551.51	57521.01
551.68	57656.76
551.84	57958.69
552.01	57666.12
552.18	57495.26
552.34	56570.75
552.51	56535.64
552.68	56261.80
552.84	56783.74
553.01	57034.17
553.18	57078.64
553.34	57034.17
553.51	57476.54
553.67	57668.46
553.84	57715.27
554.01	57331.42
554.17	57125.46
554.34	57401.64
554.51	57499.94
554.67	57909.53
554.84	57506.96
555.00	57375.89
555.17	57308.02
555.33	57303.34
555.50	56809.48
555.67	56938.21
555.83	57043.54
556.00	56575.43
556.16	56636.28
556.33	56156.47
556.50	56076.90
556.66	56271.16
556.83	55924.76
556.99	56016.04
557.16	56315.63
557.32	56465.42
557.49	56678.41
557.65	56526.28
557.82	56505.21
557.98	56236.05
558.15	55887.31
558.32	55187.49
558.48	54408.09
558.65	54656.19
558.81	54915.99
558.98	55157.06
559.14	55461.33
559.31	55412.18
559.47	55318.56
559.64	55047.06
559.80	54789.60
559.97	55185.15
560.13	55304.52
560.30	56264.14
560.46	56858.63
560.63	57120.77
560.79	56875.02
560.96	56413.93
561.12	55271.75
561.29	54710.02
561.45	54340.22
561.61	55264.73
561.78	55868.59
561.94	55524.53
562.11	55388.78
562.27	55302.18
562.44	55686.03
562.60	55891.99
562.77	56039.45
562.93	56011.36
563.10	55945.83
563.26	55147.70
563.42	55414.52
563.59	55466.02
563.75	55430.91
563.92	55164.09
564.08	55299.84
564.24	55423.89
564.41	55653.26
564.57	55456.65
564.74	55241.32
564.90	55334.95
565.07	54967.48
565.23	54422.14
565.39	54096.80
565.56	53832.32
565.72	53663.80
565.88	54096.80
566.05	54190.42
566.21	54590.66
566.38	54681.94
566.54	54656.19
566.70	54710.02
566.87	55246.00
567.03	55213.24
567.19	55370.05
567.36	55056.42
567.52	55126.64
567.68	54658.53
567.85	54155.32
568.01	53930.62
568.17	53322.08
568.34	53223.78
568.50	53263.57
568.66	53525.71
568.83	54073.40
568.99	53794.87
569.15	54169.36
569.32	54092.12
569.48	53839.34
569.64	53368.90
569.81	53195.70
569.97	53382.94
570.13	53183.99
570.30	52463.11
570.46	52119.05
570.62	51538.60
570.78	51742.22
570.95	51978.62
571.11	52802.49
571.27	53137.18
571.43	52919.51
571.60	53539.75
571.76	53722.32
571.92	53935.30
572.09	54007.86
572.25	54155.32
572.41	53949.35
572.57	53647.42
572.74	53860.41
572.90	53214.42
573.06	53116.12
573.22	53425.07
573.38	53467.20
573.55	53738.70
573.71	53673.16
573.87	53675.51
574.03	53286.98
574.20	53244.85
574.36	52755.68
574.52	52746.31
574.68	52821.21
574.84	52107.35
575.01	51583.07
575.17	51559.66
575.33	51924.78
575.49	52339.06
575.65	52172.88
575.82	52310.97
575.98	51632.22
576.14	52346.08
576.30	52512.26
576.46	52940.58
576.62	52556.73
576.79	52547.37
576.95	52109.69
577.11	51995.00
577.27	52491.19
577.43	52420.98
577.59	52065.22
577.75	51119.64
577.92	50679.62
578.08	50480.67
578.24	50672.60
578.40	50979.21
578.56	51194.54
578.72	51332.63
578.88	51562.00
579.04	51578.39
579.21	51887.34
579.37	51950.53
579.53	51842.87
579.69	52076.92
579.85	51950.53
580.01	51512.85
580.17	51491.79
580.33	51222.62
580.49	51379.44
580.65	51664.99
580.82	52224.37
580.98	51693.07
581.14	51770.31
581.30	51634.56
581.46	51789.03
581.62	51735.20
581.78	51861.59
581.94	52238.42
582.10	51997.34
582.26	52395.23
582.42	51990.32
582.58	52156.50
582.74	51749.24
582.90	52257.14
583.06	52224.37
583.22	51863.93
583.38	51634.56
583.54	51522.21
583.70	51746.90
583.86	51840.53
584.02	51606.47
584.18	51674.35
584.34	51491.79
584.50	51437.95
584.66	50986.23
584.82	51110.28
584.98	50721.75
585.14	50562.59
585.30	49476.58
