SpectraSuite Data File
++++++++++++++++++++++++++++++++++++
Date: Mon Oct 07 14:53:54 GMT-05:00 2013
User: price-jones
Dark Spectrum Present: No
Reference Spectrum Present: No
Number of Sampled Component Spectra: 1
Spectrometers: USB2+H05261
Integration Time (usec): 100000 (USB2+H05261)
Spectra Averaged: 1 (USB2+H05261)
Boxcar Smoothing: 0 (USB2+H05261)
Correct for Electrical Dark: No (USB2+H05261)
Strobe/Lamp Enabled: No (USB2+H05261)
Correct for Detector Non-linearity: No (USB2+H05261)
Correct for Stray Light: No (USB2+H05261)
Number of Pixels in Processed Spectrum: 2048
>>>>>Begin Processed Spectral Data<<<<<
365.73	0.00
365.92	0.00
366.12	0.00
366.32	0.00
366.52	0.00
366.72	0.00
366.91	0.00
367.11	0.00
367.31	0.00
367.51	0.00
367.70	0.00
367.90	0.00
368.10	0.00
368.30	0.00
368.49	0.00
368.69	0.00
368.89	0.00
369.09	0.00
369.28	0.00
369.48	0.00
369.68	0.00
369.87	0.00
370.07	0.00
370.27	0.00
370.47	603.86
370.66	3028.65
370.86	3426.54
371.06	3740.18
371.25	3868.91
371.45	3597.40
371.65	3094.19
371.84	2892.90
372.04	3033.33
372.24	3431.23
372.44	3782.31
372.63	3569.32
372.83	3309.52
373.03	2953.76
373.22	2768.85
373.42	2869.50
373.62	3431.23
373.81	3592.72
374.01	3541.23
374.21	3178.45
374.40	2960.78
374.60	3049.72
374.79	3431.23
374.99	4028.06
375.19	4390.84
375.38	4376.80
375.58	4180.20
375.78	4060.83
375.97	4067.85
376.17	4334.67
376.37	4203.60
376.56	4367.44
376.76	4587.45
376.95	4947.89
377.15	5245.14
377.35	5444.09
377.54	5813.89
377.74	5940.28
377.93	5776.44
378.13	5582.18
378.33	5298.97
378.52	4947.89
378.72	4901.08
378.91	4812.14
379.11	4610.86
379.31	4374.46
379.50	4360.42
379.70	4870.65
379.89	5371.53
380.09	5657.07
380.28	5748.36
380.48	5755.38
380.68	5771.76
380.87	5715.59
381.07	4983.00
381.26	4695.11
381.46	4437.66
381.65	4264.46
381.85	4093.60
382.04	3992.95
382.24	3751.88
382.43	3529.53
382.63	3527.19
382.83	3389.10
383.02	3407.82
383.22	3400.80
383.41	3431.23
383.61	3712.09
383.80	4234.03
384.00	4887.04
384.19	5383.23
384.39	5654.73
384.58	5678.14
384.78	5540.05
384.97	5612.60
385.17	5242.80
385.36	4983.00
385.56	4823.84
385.75	4847.25
385.95	5305.99
386.14	5907.51
386.34	5867.72
386.53	5645.37
386.72	5301.31
386.92	5444.09
387.11	5493.24
387.31	5741.33
387.50	5865.38
387.70	5621.97
387.89	5500.26
388.09	5598.56
388.28	5526.00
388.48	5724.95
388.67	5898.15
388.86	6677.55
389.06	7211.19
389.25	7510.78
389.45	7531.84
389.64	7588.02
389.84	7576.31
390.03	7372.69
390.22	7478.01
390.42	7676.96
390.61	8236.35
390.81	8664.66
391.00	8760.63
391.19	8861.27
391.39	8578.06
391.58	7964.84
391.78	7463.97
391.97	7337.58
392.16	6832.02
392.36	6230.51
392.55	5109.39
392.75	3971.89
392.94	3173.77
393.13	3103.55
393.33	3695.71
393.52	4777.03
393.71	6038.58
393.91	6614.35
394.10	7016.93
394.29	7763.56
394.49	8475.08
394.68	9149.15
394.88	9116.39
395.07	9554.07
395.26	9380.87
395.46	9095.32
395.65	8681.05
395.84	7534.18
396.04	6469.24
396.23	5179.61
396.42	4362.76
396.62	4234.03
396.81	4697.46
397.00	6157.95
397.19	7616.10
397.39	9303.63
397.58	10375.59
397.77	11066.05
397.97	11513.10
398.16	11391.39
398.35	11840.77
398.55	12093.55
398.74	12758.26
398.93	13067.21
399.12	12772.30
399.32	12299.52
399.51	12683.36
399.70	13420.63
399.90	13324.67
400.09	13439.36
400.28	13394.89
400.47	13083.59
400.67	13886.40
400.86	14284.29
401.05	14214.07
401.24	14370.89
401.44	14614.30
401.63	14850.70
401.82	14911.55
402.01	14979.43
402.21	14956.02
402.40	15213.48
402.59	14677.50
402.78	13958.96
402.97	13565.74
403.17	14092.37
403.36	14974.75
403.55	15482.64
403.74	15747.12
403.93	15026.24
404.13	13891.08
404.32	13486.17
404.51	14272.59
404.70	15487.32
404.89	15318.81
405.09	15218.16
405.28	14712.61
405.47	15051.99
405.66	14750.06
405.85	14120.45
406.05	13837.25
406.24	13984.70
406.43	14506.64
406.62	15433.49
406.81	15077.73
407.00	14696.22
407.20	14373.23
407.39	14682.18
407.58	15257.95
407.77	15707.34
407.96	16383.75
408.15	16280.77
408.34	16666.95
408.54	17130.38
408.73	17448.69
408.92	16725.47
409.11	16559.29
409.30	15822.02
409.49	14728.99
409.68	14139.18
409.87	13652.34
410.07	14265.57
410.26	15585.63
410.45	16404.81
410.64	16732.49
410.83	17324.65
411.02	18064.25
411.21	18445.76
411.40	17987.02
411.59	18487.89
411.78	17919.14
411.98	17949.57
412.17	18272.56
412.36	17823.18
412.55	17912.12
412.74	17397.20
412.93	16842.50
413.12	16905.69
413.31	18944.30
413.50	19211.12
413.69	19564.54
413.88	18771.10
414.07	18127.45
414.26	18649.39
414.45	19028.56
414.64	19449.85
414.83	19124.52
415.02	18712.58
415.22	18394.27
415.41	19159.63
415.60	19721.35
415.79	20613.10
415.98	21202.91
416.17	21001.63
416.36	20514.80
416.55	19999.88
416.74	19543.47
416.93	19080.05
417.12	18960.68
417.31	18878.76
417.50	19459.21
417.69	20105.20
417.88	20140.31
418.07	19763.48
418.26	19442.83
418.45	19449.85
418.64	20711.40
418.83	21214.62
419.02	20915.03
419.21	20936.09
419.39	19836.04
419.58	18693.86
419.77	18883.44
419.96	19992.86
420.15	20568.63
420.34	21664.00
420.53	21949.54
420.72	22911.50
420.91	22288.92
421.10	22530.00
421.29	21940.18
421.48	21008.65
421.67	22104.02
421.86	21696.77
422.05	20109.88
422.24	18253.84
422.43	17827.86
422.61	19506.02
422.80	21696.77
422.99	21193.55
423.18	20580.33
423.37	20313.51
423.56	20058.39
423.75	20711.40
423.94	21111.63
424.13	19873.49
424.32	20510.11
424.50	20191.80
424.69	19927.32
424.88	20004.56
425.07	19711.99
425.26	19793.91
425.45	19742.42
425.64	19473.26
425.83	19300.06
426.01	20318.19
426.20	20879.92
426.39	20783.96
426.58	19374.95
426.77	17839.56
426.96	17228.68
427.15	17818.50
427.33	19178.35
427.52	20313.51
427.71	19976.47
427.90	19861.79
428.09	19735.40
428.28	19215.80
428.46	18391.93
428.65	18417.68
428.84	18895.14
429.03	19044.94
429.22	18082.98
429.40	17301.24
429.59	15728.40
429.78	13731.92
429.97	13912.14
430.16	14040.87
430.34	13933.21
430.53	14036.19
430.72	14317.06
430.91	15744.78
431.10	18864.72
431.28	22043.17
431.47	24081.77
431.66	24079.43
431.85	22207.00
432.03	20070.09
432.22	18956.00
432.41	19889.87
432.60	22253.81
432.79	23257.90
432.97	23866.44
433.16	22757.03
433.35	21193.55
433.54	19314.10
433.72	17743.60
433.91	18651.73
434.10	20355.64
434.28	21710.81
434.47	23342.16
434.66	22860.01
434.85	22335.73
435.03	22286.58
435.22	22780.43
435.41	24088.79
435.59	24058.37
435.78	24460.94
435.97	25326.94
436.16	24929.05
436.34	24540.52
436.53	24095.82
436.72	24367.32
436.90	23278.97
437.09	23194.71
437.28	22445.74
437.46	23534.09
437.65	23255.56
437.84	21766.98
438.02	19992.86
438.21	19810.29
438.40	20830.77
438.58	22431.69
438.77	23307.05
438.96	23396.00
439.14	24533.50
439.33	25111.61
439.52	25343.32
439.70	25041.39
439.89	24339.23
440.08	23459.19
440.26	23583.24
440.45	24624.78
440.63	25970.58
440.82	27337.46
441.01	27131.49
441.19	26483.16
441.38	27161.92
441.57	28046.64
441.75	28521.77
441.94	28961.79
442.12	28446.87
442.31	29277.76
442.50	28685.61
442.68	28510.07
442.87	28053.66
443.05	27770.46
443.24	28168.35
443.43	28404.74
443.61	29486.07
443.80	29577.35
443.98	27957.70
444.17	28046.64
444.35	29769.27
444.54	29921.41
444.73	29340.96
444.91	28273.67
445.10	27543.42
445.28	26008.03
445.47	25619.50
445.65	26075.91
445.84	26672.74
446.02	27655.77
446.21	27754.07
446.39	28278.35
446.58	28493.68
446.77	28844.76
446.95	29099.88
447.14	29802.04
447.32	30075.88
447.51	29558.63
447.69	28402.40
447.88	28233.88
448.06	28299.42
448.25	29479.05
448.43	29673.31
448.62	28683.27
448.80	28622.41
448.99	29397.13
449.17	29598.41
449.36	29195.84
449.54	30164.82
449.73	30672.72
449.91	31208.70
450.10	32191.73
450.28	32261.94
450.46	32070.02
450.65	32280.67
450.83	31594.89
451.02	31527.02
451.20	31269.56
451.39	30953.58
451.57	30719.53
451.76	30946.56
451.94	30806.13
452.13	30368.45
452.31	29172.44
452.49	27466.19
452.68	28198.77
452.86	28299.42
453.05	28381.34
453.23	29167.76
453.42	29954.18
453.60	30445.69
453.78	30766.34
453.97	30642.29
454.15	30579.10
454.34	29788.00
454.52	29851.19
454.70	29453.30
454.89	29926.09
455.07	29677.99
455.26	30295.89
455.44	31512.97
455.62	31962.36
455.81	32273.65
455.99	31985.76
456.17	31304.67
456.36	31470.84
456.54	32491.32
456.73	32547.49
456.91	33104.54
457.09	33233.27
457.28	33813.72
457.46	32503.02
457.64	31941.29
457.83	31131.47
458.01	30841.24
458.19	31246.15
458.38	31346.79
458.56	32659.84
458.74	32680.90
458.93	31480.21
459.11	31744.69
459.29	31339.77
459.48	31793.84
459.66	31494.25
459.84	31964.70
460.03	32570.90
460.21	32219.81
460.39	33268.37
460.57	32706.65
460.76	33514.13
460.94	33369.02
461.12	33034.32
461.31	33006.23
461.49	32992.19
461.67	32814.31
461.85	33795.00
462.04	33900.32
462.22	34515.88
462.40	34309.91
462.59	33628.82
462.77	33652.22
462.95	33816.06
463.13	33371.36
463.32	33146.67
463.50	33020.28
463.68	32961.76
463.86	32992.19
464.05	32439.82
464.23	31955.33
464.41	31761.07
464.59	31239.13
464.78	32814.31
464.96	32898.57
465.14	32706.65
465.32	33280.08
465.50	33820.74
465.69	34429.28
465.87	33603.07
466.05	32694.94
466.23	31257.85
466.41	30551.01
466.60	31475.52
466.78	31718.94
466.96	31934.27
467.14	32369.61
467.32	32563.87
467.51	33067.09
467.69	31442.76
467.87	31871.07
468.05	32765.16
468.23	32613.02
468.41	32669.20
468.60	32943.04
468.78	32865.80
468.96	32456.21
469.14	33383.06
469.32	33780.95
469.50	31824.26
469.69	31889.80
469.87	31651.06
470.05	31644.04
470.23	31646.38
470.41	31686.17
470.59	32208.11
470.77	32334.50
470.95	33139.65
471.14	33167.73
471.32	33514.13
471.50	35002.71
471.68	35295.28
471.86	35833.60
472.04	36170.64
472.22	35948.29
472.40	34459.71
472.58	33900.32
472.77	33237.95
472.95	34504.18
473.13	35164.21
473.31	34099.26
473.49	34389.49
473.67	34590.78
473.85	35232.08
474.03	36327.45
474.21	36205.75
474.39	36126.17
474.57	36687.90
474.75	36769.82
474.93	36720.66
475.12	35105.70
475.30	35885.09
475.48	35934.24
475.66	36299.37
475.84	35737.64
476.02	35405.28
476.20	35171.23
476.38	36002.12
476.56	36542.78
476.74	37317.50
476.92	37394.74
477.10	38251.38
477.28	38593.09
477.46	39220.36
477.64	39360.79
477.82	39538.67
478.00	40041.88
478.18	39381.85
478.36	38888.00
478.54	38967.58
478.72	39498.88
478.90	40430.41
479.08	41212.15
479.26	41301.09
479.44	41235.56
479.62	41261.30
479.80	41242.58
479.98	41221.52
480.16	41783.24
480.34	41216.83
480.52	42316.89
480.70	41808.99
480.88	42071.13
481.06	42862.23
481.24	43140.75
481.41	43765.68
481.59	44687.85
481.77	44341.45
481.95	43594.82
482.13	43510.56
482.31	43695.46
482.49	44261.87
482.67	44133.14
482.85	44158.89
483.03	45036.59
483.21	45448.52
483.39	45572.57
483.57	44863.39
483.74	44346.13
483.92	44430.39
484.10	44767.43
484.28	45883.86
484.46	46337.93
484.64	46705.39
484.82	45776.20
485.00	45062.33
485.18	44577.84
485.35	43072.88
485.53	39777.40
485.71	36460.87
485.89	36128.51
486.07	37567.94
486.25	40818.94
486.43	43412.26
486.61	44009.09
486.78	44109.74
486.96	43845.26
487.14	45413.41
487.32	46628.15
487.50	47807.78
487.68	48399.94
487.85	49209.76
488.03	49207.42
488.21	48966.35
488.39	47760.97
488.57	47110.30
488.75	46614.11
488.92	47826.51
489.10	50410.46
489.28	51922.44
489.46	52643.33
489.64	52266.50
489.81	52439.70
489.99	52048.83
490.17	51903.72
490.35	52547.37
490.53	52030.11
490.70	51648.60
490.88	51601.79
491.06	52601.20
491.24	52303.95
491.41	51363.06
491.59	49712.98
491.77	48875.07
491.95	49734.04
492.13	51524.55
492.30	52226.71
492.48	53661.46
492.66	54021.90
492.84	53839.34
493.01	53649.76
493.19	53277.61
493.37	52910.15
493.54	52629.29
493.72	53174.63
493.90	54103.82
494.08	54937.05
494.25	55297.50
494.43	55164.09
494.61	55817.10
494.79	56126.05
494.96	55620.49
495.14	54794.28
495.32	54190.42
495.49	53345.49
495.67	54270.00
495.85	55693.05
496.02	56250.09
496.20	56170.52
496.38	55866.25
496.55	55805.39
496.73	56189.24
496.91	56051.15
497.09	56598.83
497.26	56879.70
497.44	56280.52
497.62	55772.63
497.79	54997.91
497.97	53717.64
498.14	53696.57
498.32	54955.78
498.50	56055.83
498.67	56608.20
498.85	56388.19
499.03	56631.60
499.20	56757.99
499.38	56727.56
499.56	56685.43
499.73	56282.86
499.91	55767.94
500.08	55145.36
500.26	54557.89
500.44	55320.90
500.61	55571.34
500.79	55732.84
500.97	55182.81
501.14	55171.11
501.32	54787.26
501.49	54803.64
501.67	54983.86
501.84	55522.19
502.02	55866.25
502.20	56301.59
502.37	56184.56
502.55	56109.66
502.72	57088.01
502.90	57361.85
503.07	57020.13
503.25	56830.55
503.43	55924.76
503.60	55199.19
503.78	54412.77
503.95	54953.44
504.13	56343.72
504.30	57411.00
504.48	57008.43
504.65	56540.32
504.83	56655.01
505.01	57186.31
505.18	57513.98
505.36	58185.72
505.53	58136.57
505.71	58337.85
505.88	58543.82
506.06	57659.10
506.23	57670.80
506.41	57052.90
506.58	57045.88
506.76	57336.10
506.93	57490.58
507.11	56987.36
507.28	57071.62
507.46	56889.06
507.63	56299.25
507.81	55966.89
507.98	56486.49
508.16	56987.36
508.33	57509.30
508.50	57911.88
508.68	58106.14
508.85	58691.27
509.03	58623.40
509.20	58611.70
509.38	57715.27
509.55	56811.82
509.73	57172.27
509.90	57551.43
510.08	57729.31
510.25	57612.29
510.42	57649.74
510.60	57378.23
510.77	57663.78
510.95	58188.06
511.12	58387.00
511.30	58712.34
511.47	59140.66
511.64	58937.03
511.82	58628.08
511.99	57731.65
512.17	57427.38
512.34	56814.16
512.51	56959.28
512.69	57254.18
512.86	57530.37
513.04	57785.49
513.21	57883.79
513.38	57499.94
513.56	56786.08
513.73	56254.78
513.90	56692.46
514.08	56671.39
514.25	56800.12
514.43	57174.61
514.60	57368.87
514.77	57432.07
514.95	57464.83
515.12	57345.47
515.29	57663.78
515.47	57930.60
515.64	58412.75
515.81	57808.89
515.99	57134.82
516.16	55922.42
516.33	53694.23
516.51	52196.29
516.68	51203.90
516.85	50672.60
517.03	51063.47
517.20	53977.43
517.37	56509.89
517.54	57586.54
517.72	56853.95
517.89	54401.07
518.06	51894.36
518.24	52399.91
518.41	54473.63
518.58	55955.19
518.75	56584.79
518.93	56390.53
519.10	56184.56
519.27	56741.61
519.45	56905.44
519.62	57708.25
519.79	57991.45
519.96	57741.02
520.14	57357.17
520.31	56456.06
520.48	56846.93
520.65	57001.41
520.83	57883.79
521.00	58314.45
521.17	57771.44
521.34	57499.94
521.52	57822.93
521.69	58356.58
521.86	58672.55
522.03	58241.89
522.20	57109.07
522.38	56083.92
522.55	56240.73
522.72	56942.89
522.89	57109.07
523.07	57059.92
523.24	57502.28
523.41	58260.62
523.58	58646.80
523.75	59124.27
523.92	58665.53
524.10	58763.83
524.27	58745.11
524.44	58625.74
524.61	58351.90
524.78	58124.86
524.96	58066.35
525.13	58089.76
525.30	58485.31
525.47	58691.27
525.64	58908.94
525.81	58038.26
525.98	56523.94
526.16	55054.08
526.33	54520.44
526.50	54124.89
526.67	53621.67
526.84	54581.29
527.01	55604.11
527.18	56205.62
527.36	56910.13
527.53	58087.42
527.70	58108.48
527.87	57588.88
528.04	57394.62
528.21	57893.15
528.38	58379.98
528.55	58901.92
528.72	59161.72
528.89	59386.41
529.07	59147.68
529.24	58466.58
529.41	57883.79
529.58	57141.84
529.75	57251.84
529.92	57909.53
530.09	58174.02
530.26	58759.15
530.43	58988.52
530.60	59082.14
530.77	59264.70
530.94	59344.28
531.11	58759.15
531.28	58522.76
531.46	58368.28
531.63	58511.05
531.80	58408.07
531.97	57902.51
532.14	57251.84
532.31	56264.14
532.48	55564.32
532.65	55437.93
532.82	56512.23
532.99	57467.17
533.16	57769.10
533.33	58370.62
533.50	58326.15
533.67	57460.15
533.84	57083.33
534.01	57279.93
534.18	57359.51
534.35	57776.12
534.52	57570.16
534.69	57829.96
534.86	58075.71
535.03	58258.27
535.20	58798.94
535.37	59231.94
535.54	59236.62
535.71	58733.40
535.88	58548.50
536.05	57883.79
536.22	57642.71
536.38	57020.13
536.55	56605.86
536.72	56226.69
536.89	56193.92
537.06	57137.16
537.23	58174.02
537.40	57982.09
537.57	58028.90
537.74	57818.25
537.91	58108.48
538.08	57900.17
538.25	57764.42
538.42	57888.47
538.59	57766.76
538.75	57207.37
538.92	56905.44
539.09	56706.50
539.26	56505.21
539.43	56367.12
539.60	56467.76
539.77	56753.31
539.94	56451.38
540.11	55891.99
540.28	55353.67
540.44	55313.88
540.61	55629.85
540.78	55774.97
540.95	56364.78
541.12	56484.15
541.29	56795.44
541.46	57165.24
541.62	57436.75
541.79	57535.05
541.96	56601.18
542.13	56399.89
542.30	56647.99
542.47	56697.14
542.63	56683.09
542.80	56271.16
542.97	56622.24
543.14	56317.97
543.31	56479.47
543.48	56947.57
543.64	57797.19
543.81	58056.99
543.98	57879.11
544.15	57237.80
544.32	56484.15
544.48	56636.28
544.65	57064.60
544.82	57492.92
544.99	57176.95
545.16	56954.60
545.32	56633.94
545.49	57392.28
545.66	57841.66
545.83	57420.36
546.00	57134.82
546.16	56601.18
546.33	56783.74
546.50	56900.76
546.67	57303.34
546.83	56905.44
547.00	56811.82
547.17	56189.24
547.34	55442.61
547.50	55161.75
547.67	56032.42
547.84	55798.37
548.00	56247.75
548.17	56828.21
548.34	56879.70
548.51	56741.61
548.67	56811.82
548.84	56676.07
549.01	56690.12
549.18	56488.83
549.34	56783.74
549.51	56479.47
549.68	56397.55
549.84	56175.20
550.01	56114.34
550.18	55978.59
550.34	56210.31
550.51	56128.39
550.68	56278.18
550.84	55667.30
551.01	55798.37
551.18	55889.65
551.34	56116.68
551.51	56364.78
551.68	56591.81
551.84	56828.21
552.01	56549.68
552.18	56430.32
552.34	55702.41
552.51	55065.78
552.68	54969.82
552.84	55419.20
553.01	55894.33
553.18	55980.93
553.34	55810.07
553.51	55964.55
553.67	56399.89
553.84	56250.09
554.01	56140.09
554.17	55899.01
554.34	55978.59
554.51	56287.54
554.67	56765.01
554.84	56322.65
555.00	56034.77
555.17	56027.74
555.33	55611.13
555.50	55735.18
555.67	55784.33
555.83	55353.67
556.00	55522.19
556.16	55325.58
556.33	55014.29
556.50	54850.45
556.66	54735.77
556.83	54560.23
556.99	54684.28
557.16	54808.32
557.32	55161.75
557.49	55327.92
557.65	55496.44
557.82	55255.37
557.98	55051.74
558.15	54707.68
558.32	53701.25
558.48	52760.36
558.65	53095.05
558.81	53399.32
558.98	53844.02
559.14	53921.26
559.31	53853.39
559.47	53947.01
559.64	53635.72
559.80	53579.54
559.97	53310.38
560.13	53523.37
560.30	54852.80
560.46	55288.13
560.63	55571.34
560.79	55789.01
560.96	55157.06
561.12	53858.07
561.29	53043.56
561.45	53008.45
561.61	53846.36
561.78	54199.79
561.94	54049.99
562.11	53951.69
562.27	53600.61
562.44	54185.74
562.60	54178.72
562.77	54628.10
562.93	54185.74
563.10	54143.61
563.26	53703.59
563.42	53867.43
563.59	53738.70
563.75	53502.31
563.92	53722.32
564.08	53544.44
564.24	53829.98
564.41	54059.35
564.57	53904.88
564.74	53464.86
564.90	53703.59
565.07	53366.55
565.23	53006.11
565.39	52477.15
565.56	52147.14
565.72	51903.72
565.88	52350.76
566.05	52238.42
566.21	52865.68
566.38	52905.47
566.54	52905.47
566.70	53315.06
566.87	53263.57
567.03	53420.39
567.19	53741.04
567.36	53542.10
567.52	53350.17
567.68	53059.94
567.85	52547.37
568.01	51892.02
568.17	51494.13
568.34	51789.03
568.50	51349.01
568.66	51409.87
568.83	52226.71
568.99	52030.11
569.15	52484.17
569.32	52229.05
569.48	52041.81
569.64	51746.90
569.81	51559.66
569.97	51295.18
570.13	51501.15
570.30	50529.83
570.46	50141.30
570.62	49748.09
570.78	49553.82
570.95	49640.42
571.11	50621.11
571.27	50761.54
571.43	51281.14
571.60	51791.37
571.76	51597.11
571.92	52222.03
572.09	52198.63
572.25	52182.24
572.41	52058.20
572.57	51697.75
572.74	51941.17
572.90	51051.76
573.06	51423.91
573.22	51564.34
573.38	51437.95
573.55	51536.26
573.71	51543.28
573.87	51601.79
574.03	51215.60
574.20	51562.00
574.36	50845.80
574.52	50801.33
574.68	50906.65
574.84	50251.30
575.01	49647.44
575.17	49532.76
575.33	49925.97
575.49	49947.03
575.65	50408.12
575.82	50094.49
575.98	49656.81
576.14	50206.83
576.30	50487.70
576.46	50586.00
576.62	50094.49
576.79	50293.43
576.95	49844.05
577.11	49748.09
577.27	49954.05
577.43	50155.34
577.59	49830.01
577.75	48907.83
577.92	48617.61
578.08	48203.33
578.24	48406.96
578.40	48884.43
578.56	48882.09
578.72	49146.57
578.88	49574.89
579.04	49326.79
579.21	49532.76
579.37	49389.98
579.53	49890.86
579.69	49717.66
579.85	49928.31
580.01	49549.14
580.17	49038.90
580.33	49237.85
580.49	49029.54
580.65	49394.67
580.82	49483.61
580.98	49577.23
581.14	49617.02
581.30	49670.85
581.46	49682.55
581.62	49705.96
581.78	49457.86
581.94	50010.23
582.10	49743.41
582.26	49687.23
582.42	49406.37
582.58	49729.36
582.74	49900.22
582.90	50019.59
583.06	49308.07
583.22	49368.92
583.38	49354.88
583.54	49256.57
583.70	49083.37
583.86	49090.40
584.02	49441.48
584.18	49741.06
584.34	49247.21
584.50	48898.47
584.66	48968.69
584.82	48418.66
584.98	48205.67
585.14	47924.81
585.30	46972.21
