SpectraSuite Data File
++++++++++++++++++++++++++++++++++++
Date: Mon Oct 07 14:53:02 GMT-05:00 2013
User: price-jones
Dark Spectrum Present: No
Reference Spectrum Present: No
Number of Sampled Component Spectra: 1
Spectrometers: USB2+H05261
Integration Time (usec): 100000 (USB2+H05261)
Spectra Averaged: 1 (USB2+H05261)
Boxcar Smoothing: 0 (USB2+H05261)
Correct for Electrical Dark: No (USB2+H05261)
Strobe/Lamp Enabled: No (USB2+H05261)
Correct for Detector Non-linearity: No (USB2+H05261)
Correct for Stray Light: No (USB2+H05261)
Number of Pixels in Processed Spectrum: 2048
>>>>>Begin Processed Spectral Data<<<<<
365.73	0.00
365.92	0.00
366.12	0.00
366.32	0.00
366.52	0.00
366.72	0.00
366.91	0.00
367.11	0.00
367.31	0.00
367.51	0.00
367.70	0.00
367.90	0.00
368.10	0.00
368.30	0.00
368.49	0.00
368.69	0.00
368.89	0.00
369.09	0.00
369.28	0.00
369.48	0.00
369.68	0.00
369.87	0.00
370.07	0.00
370.27	0.00
370.47	585.13
370.66	2733.75
370.86	3236.96
371.06	3611.45
371.25	3475.70
371.45	3190.15
371.65	2960.78
371.84	2754.81
372.04	2942.05
372.24	3325.90
372.44	3346.97
372.63	3251.00
372.83	3056.74
373.03	2663.53
373.22	2466.92
373.42	2572.25
373.62	3126.96
373.81	3155.04
374.01	3089.51
374.21	2897.58
374.40	2661.19
374.60	2899.92
374.79	3171.43
374.99	3695.71
375.19	4011.68
375.38	4056.15
375.58	3754.22
375.78	3728.47
375.97	3705.07
376.17	3999.98
376.37	3901.67
376.56	4156.79
376.76	4440.00
376.95	4533.62
377.15	4854.27
377.35	5076.62
377.54	5235.78
377.74	5408.98
377.93	5551.75
378.13	5240.46
378.33	4992.36
378.52	4535.96
378.72	4475.10
378.91	4388.50
379.11	4255.09
379.31	4236.37
379.50	4095.94
379.70	4442.34
379.89	4856.61
380.09	5022.79
380.28	5266.21
380.48	5327.06
380.68	5284.93
380.87	4990.02
381.07	4620.22
381.26	4212.96
381.46	4018.70
381.65	3950.82
381.85	3873.59
382.04	3552.93
382.24	3454.63
382.43	3269.73
382.63	3225.26
382.83	3239.30
383.02	3105.89
383.22	3108.23
383.41	3115.25
383.61	3590.38
383.80	4011.68
384.00	4500.85
384.19	5146.84
384.39	5268.55
384.58	5298.97
384.78	5057.90
384.97	5107.05
385.17	4795.76
385.36	4711.50
385.56	4440.00
385.75	4678.73
385.95	5053.22
386.14	5488.56
386.34	5357.49
386.53	5142.16
386.72	4784.06
386.92	4828.53
387.11	5203.01
387.31	5359.83
387.50	5338.76
387.70	5050.88
387.89	5130.45
388.09	5163.22
388.28	5158.54
388.48	5268.55
388.67	5666.44
388.86	6150.93
389.06	6644.78
389.25	6939.69
389.45	7066.08
389.64	6913.94
389.84	6848.41
390.03	6761.81
390.22	6871.81
390.42	7148.00
390.61	7627.81
390.81	7918.03
391.00	8107.62
391.19	8084.21
391.39	7667.60
391.58	7272.04
391.78	6848.41
391.97	6764.15
392.16	6338.17
392.36	5685.16
392.55	4542.98
392.75	3461.65
392.94	2988.86
393.13	2970.14
393.33	3569.32
393.52	4622.56
393.71	5488.56
393.91	6146.25
394.10	6670.53
394.29	7300.13
394.49	7775.26
394.68	8446.99
394.88	8376.78
395.07	9029.79
395.26	8791.05
395.46	8435.29
395.65	7740.15
395.84	6923.30
396.04	5942.62
396.23	4713.84
396.42	4032.74
396.62	3999.98
396.81	4557.02
397.00	5664.10
397.19	7307.15
397.39	8779.35
397.58	9495.55
397.77	10305.38
397.97	10590.92
398.16	10668.16
398.35	11052.01
398.55	11410.11
398.74	11822.05
398.93	12173.13
399.12	11810.34
399.32	11440.54
399.51	11950.78
399.70	12704.43
399.90	12346.33
400.09	12215.26
400.28	12287.81
400.47	12299.52
400.67	13036.78
400.86	13598.51
401.05	13362.12
401.24	13355.10
401.44	13790.44
401.63	13628.94
401.82	13818.52
402.01	13659.37
402.21	13818.52
402.40	14176.62
402.59	13420.63
402.78	12912.74
402.97	12482.08
403.17	13294.24
403.36	13991.72
403.55	14497.28
403.74	14518.34
403.93	13865.33
404.13	12858.90
404.32	12620.17
404.51	13270.84
404.70	14342.80
404.89	14075.98
405.09	14057.26
405.28	13486.17
405.47	13490.85
405.66	13437.02
405.85	13195.94
406.05	12744.22
406.24	13151.47
406.43	13558.72
406.62	14085.34
406.81	14225.78
407.00	13561.06
407.20	13284.88
407.39	13476.80
407.58	13940.23
407.77	14644.73
407.96	14993.47
408.15	15414.77
408.34	15428.81
408.54	16079.48
408.73	15992.88
408.92	16030.33
409.11	15199.44
409.30	14846.02
409.49	13722.56
409.68	12870.61
409.87	12512.50
410.07	13343.39
410.26	14420.04
410.45	15328.17
410.64	15531.80
410.83	16088.84
411.02	16472.69
411.21	17099.95
411.40	17025.06
411.59	17397.20
411.78	16943.14
411.98	16961.86
412.17	16842.50
412.36	16596.74
412.55	16662.27
412.74	16135.65
412.93	15632.44
413.12	16299.49
413.31	17717.86
413.50	17703.81
413.69	18298.31
413.88	17341.03
414.07	16938.46
414.26	17334.01
414.45	17743.60
414.64	17694.45
414.83	17923.82
415.02	17429.97
415.22	17214.64
415.41	18099.36
415.60	18448.10
415.79	18979.40
415.98	19896.89
416.17	19807.95
416.36	19311.76
416.55	18822.59
416.74	18373.21
416.93	17474.44
417.12	17572.74
417.31	17806.80
417.50	18181.28
417.69	19084.73
417.88	18420.02
418.07	18691.52
418.26	18607.26
418.45	18511.30
418.64	19049.62
418.83	19585.60
419.02	19597.31
419.21	19531.77
419.39	18644.71
419.58	17743.60
419.77	17731.90
419.96	18558.11
420.15	19660.50
420.34	19924.98
420.53	20922.05
420.72	20847.15
420.91	21177.17
421.10	20381.38
421.29	20753.53
421.48	20189.46
421.67	20741.83
421.86	20315.85
422.05	18979.40
422.24	16772.28
422.43	16690.36
422.61	18761.73
422.80	20159.03
422.99	20467.98
423.18	19075.37
423.37	18768.76
423.56	19087.07
423.75	19513.05
423.94	19634.75
424.13	18757.05
424.32	18848.33
424.50	18927.91
424.69	18792.16
424.88	18998.13
425.07	18743.01
425.26	18630.66
425.45	18541.72
425.64	18515.98
425.83	18291.29
426.01	19176.01
426.20	19522.41
426.39	19836.04
426.58	18036.17
426.77	16858.88
426.96	16325.24
427.15	16882.28
427.33	18326.39
427.52	19091.75
427.71	18761.73
427.90	18647.05
428.09	18382.57
428.28	18370.86
428.46	17397.20
428.65	17521.25
428.84	17834.88
429.03	18164.90
429.22	16943.14
429.40	16318.22
429.59	14654.09
429.78	13114.02
429.97	13191.26
430.16	13092.96
430.34	13195.94
430.53	13198.28
430.72	13654.69
430.91	15185.40
431.10	17776.37
431.28	20961.84
431.47	22333.39
431.66	22656.39
431.85	20545.22
432.03	18808.54
432.22	18424.70
432.41	19129.20
432.60	20985.24
432.79	21802.09
432.97	22537.02
433.16	21715.49
433.35	19854.76
433.54	17951.91
433.72	16645.89
433.91	17635.94
434.10	19391.34
434.28	21010.99
434.47	21738.90
434.66	21748.26
434.85	21394.84
435.03	20844.81
435.22	21326.96
435.41	23140.88
435.59	22939.59
435.78	23049.60
435.97	23576.22
436.16	23887.51
436.34	23147.90
436.53	23056.62
436.72	22953.63
436.90	21895.71
437.09	22059.55
437.28	21303.56
437.46	22251.47
437.65	22031.46
437.84	20531.18
438.02	18986.43
438.21	19091.75
438.40	19981.15
438.58	21413.56
438.77	22104.02
438.96	22429.35
439.14	23147.90
439.33	24065.39
439.52	24133.26
439.70	23758.78
439.89	23222.80
440.08	22342.75
440.26	22221.05
440.45	22991.08
440.63	24678.61
440.82	26225.70
441.01	25699.08
441.19	25486.09
441.38	25568.01
441.57	26644.66
441.75	26923.18
441.94	27491.93
442.12	26998.08
442.31	27784.50
442.50	27302.35
442.68	27440.44
442.87	26759.34
443.05	26312.30
443.24	26909.14
443.43	27239.15
443.61	27981.10
443.80	28339.21
443.98	26827.22
444.17	26405.92
444.35	28240.90
444.54	28388.36
444.73	28177.71
444.91	27318.73
445.10	26188.25
445.28	25223.95
445.47	24671.59
445.65	24744.14
445.84	25596.10
446.02	26368.48
446.21	26562.74
446.39	26981.70
446.58	27201.71
446.77	27826.63
446.95	27854.72
447.14	28737.10
447.32	29294.14
447.51	28404.74
447.69	27339.80
447.88	27136.17
448.06	27271.92
448.25	27962.38
448.43	28004.51
448.62	28046.64
448.80	27620.66
448.99	27833.65
449.17	28210.48
449.36	28039.62
449.54	29090.52
449.73	29715.44
449.91	30279.51
450.10	30565.06
450.28	31199.34
450.46	30742.94
450.65	30551.01
450.83	30555.69
451.02	30258.45
451.20	30043.12
451.39	30305.26
451.57	29495.43
451.76	29696.72
451.94	29397.13
452.13	28877.53
452.31	27538.74
452.49	26410.60
452.68	26934.88
452.86	26373.16
453.05	27051.91
453.23	27967.06
453.42	28446.87
453.60	29242.65
453.78	29364.36
453.97	28917.32
454.15	29331.59
454.34	28409.42
454.52	28903.28
454.70	28114.52
454.89	28332.18
455.07	28437.51
455.26	29149.03
455.44	30071.20
455.62	31028.48
455.81	30682.08
455.99	30632.93
456.17	30249.08
456.36	29898.00
456.54	31271.90
456.73	31072.95
456.91	32006.83
457.09	32231.52
457.28	32470.25
457.46	31091.68
457.64	31016.78
457.83	30209.29
458.01	29343.30
458.19	30064.18
458.38	30691.44
458.56	31608.93
458.74	31213.38
458.93	30450.37
459.11	30574.42
459.29	30522.93
459.48	30792.09
459.66	30473.78
459.84	31180.62
460.03	31377.22
460.21	30981.67
460.39	31976.40
460.57	32016.19
460.76	32442.17
460.94	32552.17
461.12	31732.98
461.31	31988.10
461.49	32013.85
461.67	31957.67
461.85	33151.35
462.04	32498.34
462.22	33336.25
462.40	32844.74
462.59	32896.23
462.77	32643.45
462.95	32989.85
463.13	32158.96
463.32	31831.29
463.50	32140.24
463.68	31882.78
463.86	32018.53
464.05	31229.77
464.23	31110.40
464.41	30696.13
464.59	30146.10
464.78	31842.99
464.96	31182.96
465.14	31407.65
465.32	32233.86
465.50	32914.95
465.69	33057.73
465.87	32673.88
466.05	31721.28
466.23	30087.59
466.41	29673.31
466.60	30492.50
466.78	30621.23
466.96	30895.07
467.14	31480.21
467.32	31995.12
467.51	32425.78
467.69	30466.75
467.87	31353.82
468.05	31861.71
468.23	31861.71
468.41	31784.48
468.60	31789.16
468.78	32065.34
468.96	31676.81
469.14	32362.59
469.32	32383.65
469.50	31325.73
469.69	31426.37
469.87	30820.17
470.05	30560.37
470.23	30866.98
470.41	31164.23
470.59	31580.85
470.77	31709.58
470.95	32301.73
471.14	32680.90
471.32	32378.97
471.50	34293.53
471.68	34541.63
471.86	34986.33
472.04	34848.24
472.22	34981.65
472.40	32828.35
472.58	32816.65
472.77	32453.87
472.95	33542.22
473.13	34412.90
473.31	32954.74
473.49	33560.94
473.67	34197.57
473.85	34443.32
474.03	34962.92
474.21	35302.30
474.39	35686.15
474.57	35899.14
474.75	35770.41
474.93	35526.99
475.12	34593.12
475.30	35042.50
475.48	35154.85
475.66	35524.65
475.84	35065.91
476.02	34721.85
476.20	34185.86
476.38	35218.04
476.56	36481.93
476.74	36528.74
476.92	36308.73
477.10	37074.09
477.28	38333.29
477.46	38251.38
477.64	38539.26
477.82	38911.41
478.00	38527.56
478.18	38192.86
478.36	37998.60
478.54	38000.94
478.72	38546.28
478.90	39175.89
479.08	40526.38
479.26	41095.13
479.44	40362.54
479.62	40552.12
479.80	40858.73
479.98	40730.00
480.16	40737.02
480.34	40297.00
480.52	41109.17
480.70	41223.86
480.88	40823.62
481.06	42515.83
481.24	42288.80
481.41	43648.65
481.59	43779.72
481.77	43419.28
481.95	42817.76
482.13	42822.44
482.31	42955.85
482.49	43569.07
482.67	43498.86
482.85	43482.47
483.03	44278.25
483.21	44542.74
483.39	44542.74
483.57	43852.28
483.74	43430.98
483.92	43599.50
484.10	43927.17
484.28	44676.15
484.46	45092.76
484.64	45808.96
484.82	44980.42
485.00	44414.01
485.18	43608.86
485.35	42497.11
485.53	38841.19
485.71	35538.69
485.89	35199.32
486.07	37699.01
486.25	40238.49
486.43	42319.23
486.61	43583.12
486.78	42878.61
486.96	43550.35
487.14	44957.01
487.32	46408.14
487.50	47580.75
487.68	48107.37
487.85	48828.26
488.03	48563.78
488.21	47983.32
488.39	47344.36
488.57	46773.27
488.75	46377.72
488.92	47927.15
489.10	50136.62
489.28	51323.27
489.46	52051.17
489.64	51941.17
489.81	52158.84
489.99	51791.37
490.17	51704.77
490.35	52275.87
490.53	51615.83
490.70	51161.77
490.88	51150.07
491.06	52121.39
491.24	51833.50
491.41	50515.78
491.59	48928.90
491.77	48652.72
491.95	49610.00
492.13	51009.64
492.30	51906.06
492.48	53216.76
492.66	53425.07
492.84	53705.93
493.01	53439.11
493.19	52811.85
493.37	52570.77
493.54	52406.94
493.72	53017.82
493.90	53785.51
494.08	54628.10
494.25	54749.81
494.43	55154.72
494.61	55547.93
494.79	55557.30
494.96	55629.85
495.14	54663.21
495.32	53724.66
495.49	52959.30
495.67	54370.64
495.85	55477.72
496.02	56107.32
496.20	55859.23
496.38	55231.96
496.55	55526.87
496.73	55807.73
496.91	55950.51
497.09	56554.36
497.26	56676.07
497.44	56184.56
497.62	55601.77
497.79	54808.32
497.97	53422.73
498.14	53691.89
498.32	54944.08
498.50	55894.33
498.67	56369.46
498.85	56348.40
499.03	56516.92
499.20	56736.93
499.38	56680.75
499.56	56388.19
499.73	55770.28
499.91	55643.90
500.08	54906.63
500.26	54438.52
500.44	54878.54
500.61	55767.94
500.79	55517.51
500.97	54986.21
501.14	55016.63
501.32	54532.14
501.49	54698.32
501.67	55049.40
501.84	55683.69
502.02	55978.59
502.20	56299.25
502.37	56289.88
502.55	56378.82
502.72	56746.29
502.90	57340.78
503.07	56926.51
503.25	56673.73
503.43	55590.06
503.60	54960.46
503.78	54571.93
503.95	54937.05
504.13	56484.15
504.30	57188.65
504.48	56868.00
504.65	56500.53
504.83	56842.25
505.01	57301.00
505.18	57471.85
505.36	58269.98
505.53	58066.35
505.71	58492.33
505.88	58665.53
506.06	57958.69
506.23	57553.77
506.41	56994.39
506.58	57532.71
506.76	57265.89
506.93	57396.96
507.11	57062.26
507.28	57577.18
507.46	56783.74
507.63	56207.97
507.81	55917.74
507.98	56238.39
508.16	57174.61
508.33	57448.45
508.50	57897.83
508.68	57984.43
508.85	58466.58
509.03	58810.64
509.20	58316.79
509.38	57439.09
509.55	57036.51
509.73	56999.07
509.90	57708.25
510.08	58007.84
510.25	57900.17
510.42	57619.31
510.60	57670.80
510.77	57911.88
510.95	58485.31
511.12	58248.91
511.30	58658.51
511.47	58946.39
511.64	58986.18
511.82	58585.95
511.99	57806.55
512.17	57448.45
512.34	57216.74
512.51	57071.62
512.69	57413.34
512.86	57471.85
513.04	58010.18
513.21	57911.88
513.38	57593.56
513.56	57214.40
513.73	56580.11
513.90	56772.03
514.08	56985.02
514.25	57193.33
514.43	57385.25
514.60	57427.38
514.77	57670.80
514.95	57645.05
515.12	57528.03
515.29	57893.15
515.47	58134.23
515.64	58424.45
515.81	58138.91
515.99	57495.26
516.16	55894.33
516.33	53659.12
516.51	52460.77
516.68	51391.14
516.85	50866.86
517.03	51512.85
517.20	54267.66
517.37	56619.90
517.54	57710.59
517.72	56931.19
517.89	54548.53
518.06	52325.02
518.24	52849.30
518.41	55009.61
518.58	56287.54
518.75	56701.82
518.93	56587.13
519.10	56442.02
519.27	56900.76
519.45	57233.12
519.62	57984.43
519.79	58211.46
519.96	58078.05
520.14	57614.63
520.31	56837.57
520.48	56907.79
520.65	57244.82
520.83	58337.85
521.00	58361.26
521.17	58064.01
521.34	57668.46
521.52	58267.64
521.69	58693.61
521.86	58885.54
522.03	58705.32
522.20	57347.81
522.38	56470.11
522.55	56523.94
522.72	57221.42
522.89	57254.18
523.07	57478.88
523.24	57944.64
523.41	58754.47
523.58	58979.16
523.75	59379.39
523.92	59154.70
524.10	59241.30
524.27	59100.87
524.44	58791.92
524.61	58592.97
524.78	58581.27
524.96	58548.50
525.13	58438.50
525.30	58810.64
525.47	59360.67
525.64	59086.82
525.81	58281.68
525.98	57111.41
526.16	55686.03
526.33	55042.38
526.50	54616.40
526.67	54443.20
526.84	55030.68
527.01	55852.20
527.18	56865.66
527.36	57790.17
527.53	58532.12
527.70	58777.87
527.87	58024.22
528.04	57853.36
528.21	58253.59
528.38	58850.43
528.55	59327.90
528.72	59702.38
528.89	59821.75
529.07	59545.57
529.24	58796.60
529.41	58274.66
529.58	57724.63
529.75	57794.85
529.92	58305.09
530.09	58782.55
530.26	59070.44
530.43	59510.46
530.60	59285.77
530.77	59676.64
530.94	59639.19
531.11	59456.63
531.28	59117.25
531.46	58822.34
531.63	58880.86
531.80	58679.57
531.97	58344.87
532.14	57656.76
532.31	56481.81
532.48	56025.40
532.65	56095.62
532.82	57153.54
532.99	58045.29
533.16	58520.41
533.33	59007.25
533.50	58639.78
533.67	58031.24
533.84	57794.85
534.01	57811.23
534.18	58136.57
534.35	58394.03
534.52	58141.25
534.69	58473.60
534.86	58621.06
535.03	59044.69
535.20	59409.82
535.37	59578.34
535.54	59604.08
535.71	59255.34
535.88	59054.06
536.05	58354.24
536.22	57939.96
536.38	57722.29
536.55	57195.67
536.72	56970.98
536.89	56860.97
537.06	57687.18
537.23	58438.50
537.40	58599.99
537.57	58845.75
537.74	58480.63
537.91	58497.01
538.08	58354.24
538.25	58436.16
538.42	58665.53
538.59	58527.44
538.75	57675.48
538.92	57668.46
539.09	57586.54
539.26	57310.36
539.43	57097.37
539.60	57293.97
539.77	57352.49
539.94	57277.59
540.11	56474.79
540.28	55973.91
540.44	56261.80
540.61	56324.99
540.78	56612.88
540.95	57038.86
541.12	57415.68
541.29	57619.31
541.46	58089.76
541.62	57764.42
541.79	57640.37
541.96	57158.22
542.13	57333.76
542.30	57315.04
542.47	57731.65
542.63	57364.19
542.80	57169.93
542.97	57148.86
543.14	57209.71
543.31	57441.43
543.48	57741.02
543.64	58628.08
543.81	58887.88
543.98	58611.70
544.15	57813.57
544.32	57649.74
544.48	57483.56
544.65	58052.31
544.82	58155.29
544.99	57771.44
545.16	57439.09
545.32	57305.68
545.49	58314.45
545.66	58513.39
545.83	57975.07
546.00	57757.40
546.16	57427.38
546.33	57474.20
546.50	57378.23
546.67	58047.63
546.83	57497.60
547.00	57645.05
547.17	56970.98
547.34	56554.36
547.50	56416.27
547.67	57034.17
547.84	56978.00
548.00	57221.42
548.17	57867.40
548.34	57825.28
548.51	57598.24
548.67	57619.31
548.84	57804.21
549.01	57504.62
549.18	57432.07
549.34	57359.51
549.51	57609.95
549.68	57256.53
549.84	57169.93
550.01	57088.01
550.18	57059.92
550.34	56980.34
550.51	57013.11
550.68	57020.13
550.84	56577.77
551.01	56860.97
551.18	56940.55
551.34	56793.10
551.51	57176.95
551.68	57563.14
551.84	57827.62
552.01	57602.92
552.18	57038.86
552.34	56507.55
552.51	56184.56
552.68	56147.11
552.84	56673.73
553.01	56652.67
553.18	56683.09
553.34	56645.65
553.51	57155.88
553.67	57244.82
553.84	57385.25
554.01	57240.14
554.17	56985.02
554.34	57116.09
554.51	57125.46
554.67	57509.30
554.84	57439.09
555.00	57097.37
555.17	56807.14
555.33	56823.53
555.50	57034.17
555.67	56545.00
555.83	56788.42
556.00	56175.20
556.16	56350.74
556.33	55679.00
556.50	55889.65
556.66	56039.45
556.83	55531.55
556.99	55641.56
557.16	55641.56
557.32	56032.42
557.49	56498.19
557.65	56203.28
557.82	56481.81
557.98	56067.53
558.15	55781.99
558.32	54796.62
558.48	54012.54
558.65	54195.10
558.81	54635.13
558.98	54897.27
559.14	55356.01
559.31	54990.89
559.47	55004.93
559.64	54684.28
559.80	54501.71
559.97	54644.49
560.13	55168.77
560.30	55966.89
560.46	56493.51
560.63	56699.48
560.79	56875.02
560.96	56156.47
561.12	55030.68
561.29	54314.47
561.45	54347.24
561.61	55056.42
561.78	55423.89
561.94	55271.75
562.11	55253.03
562.27	55093.87
562.44	55524.53
562.60	55482.40
562.77	55873.27
562.93	55601.77
563.10	55643.90
563.26	54911.31
563.42	55082.17
563.59	54866.84
563.75	55189.83
563.92	55124.30
564.08	54930.03
564.24	55473.04
564.41	55327.92
564.57	55178.13
564.74	54698.32
564.90	54841.09
565.07	54836.41
565.23	54171.70
565.39	53715.29
565.56	53635.72
565.72	53373.58
565.88	53734.02
566.05	53944.67
566.21	54040.63
566.38	54356.60
566.54	54436.18
566.70	54852.80
566.87	54960.46
567.03	54906.63
567.19	55124.30
567.36	54639.81
567.52	54775.56
567.68	54199.79
567.85	53701.25
568.01	53574.86
568.17	52842.27
568.34	53134.84
568.50	53104.41
568.66	53071.65
568.83	53563.16
568.99	53652.10
569.15	53914.24
569.32	53614.65
569.48	53546.78
569.64	53387.62
569.81	52788.44
569.97	53020.16
570.13	52713.55
570.30	52395.23
570.46	52142.45
570.62	51372.42
570.78	51466.04
570.95	51957.55
571.11	52554.39
571.27	52332.04
571.43	52989.73
571.60	53146.54
571.76	53174.63
571.92	53577.20
572.09	53799.55
572.25	53703.59
572.41	53708.27
572.57	53652.10
572.74	53647.42
572.90	53073.99
573.06	53158.25
573.22	53366.55
573.38	53268.25
573.55	53057.60
573.71	53588.91
573.87	53052.92
574.03	52994.41
574.20	52898.45
574.36	52673.76
574.52	52811.85
574.68	52191.61
574.84	51826.48
575.01	51213.26
575.17	51323.27
575.33	51650.94
575.49	51957.55
575.65	52203.31
575.82	52065.22
575.98	51547.96
576.14	52273.52
576.30	52292.25
576.46	52097.98
576.62	52453.75
576.79	52226.71
576.95	51959.89
577.11	51966.91
577.27	51938.83
577.43	51936.49
577.59	51386.46
577.75	51037.72
577.92	50518.12
578.08	50377.69
578.24	50333.22
578.40	50908.99
578.56	51334.97
578.72	50930.06
578.88	51398.16
579.04	51292.84
579.21	51253.05
579.37	51580.73
579.53	51803.08
579.69	51430.93
579.85	51751.59
580.01	51552.64
580.17	51070.49
580.33	50686.64
580.49	51037.72
580.65	51629.88
580.82	51870.95
580.98	51587.75
581.14	51437.95
581.30	51276.46
581.46	51503.49
581.62	51615.83
581.78	51704.77
581.94	51664.99
582.10	51744.56
582.26	51969.26
582.42	51782.01
582.58	51672.01
582.74	51615.83
582.90	51786.69
583.06	51877.97
583.22	51278.80
583.38	51742.22
583.54	51182.84
583.70	51332.63
583.86	51494.13
584.02	50918.35
584.18	51379.44
584.34	51320.93
584.50	51152.41
584.66	51054.11
584.82	50677.28
584.98	50752.18
585.14	50127.25
585.30	49069.33
