SpectraSuite Data File
++++++++++++++++++++++++++++++++++++
Date: Mon Oct 07 14:54:58 GMT-05:00 2013
User: price-jones
Dark Spectrum Present: No
Reference Spectrum Present: No
Number of Sampled Component Spectra: 1
Spectrometers: USB2+H05261
Integration Time (usec): 10000 (USB2+H05261)
Spectra Averaged: 1 (USB2+H05261)
Boxcar Smoothing: 0 (USB2+H05261)
Correct for Electrical Dark: No (USB2+H05261)
Strobe/Lamp Enabled: No (USB2+H05261)
Correct for Detector Non-linearity: No (USB2+H05261)
Correct for Stray Light: No (USB2+H05261)
Number of Pixels in Processed Spectrum: 2048
>>>>>Begin Processed Spectral Data<<<<<
365.73	0.00
365.92	0.00
366.12	0.00
366.32	0.00
366.52	0.00
366.72	0.00
366.91	0.00
367.11	0.00
367.31	0.00
367.51	0.00
367.70	0.00
367.90	0.00
368.10	0.00
368.30	0.00
368.49	0.00
368.69	0.00
368.89	0.00
369.09	0.00
369.28	0.00
369.48	0.00
369.68	0.00
369.87	0.00
370.07	0.00
370.27	0.00
370.47	0.00
370.66	180.22
370.86	112.35
371.06	173.20
371.25	285.55
371.45	224.69
371.65	67.88
371.84	194.26
372.04	205.97
372.24	250.44
372.44	229.37
372.63	308.95
372.83	229.37
373.03	133.41
373.22	177.88
373.42	102.98
373.62	142.77
373.81	245.76
374.01	341.72
374.21	224.69
374.40	102.98
374.60	142.77
374.79	255.12
374.99	341.72
375.19	299.59
375.38	330.02
375.58	355.76
375.78	311.29
375.97	301.93
376.17	325.33
376.37	322.99
376.56	327.68
376.76	416.62
376.95	339.38
377.15	477.47
377.35	507.90
377.54	468.11
377.74	505.56
377.93	433.00
378.13	484.49
378.33	554.71
378.52	442.36
378.72	358.10
378.91	381.51
379.11	264.48
379.31	367.46
379.50	320.65
379.70	360.44
379.89	517.26
380.09	524.28
380.28	592.16
380.48	559.39
380.68	496.19
380.87	425.98
381.07	365.12
381.26	407.25
381.46	276.18
381.65	334.70
381.85	269.16
382.04	266.82
382.24	248.10
382.43	198.95
382.63	156.82
382.83	222.35
383.02	177.88
383.22	173.20
383.41	184.90
383.61	229.37
383.80	269.16
384.00	383.85
384.19	381.51
384.39	444.70
384.58	461.09
384.78	486.83
384.97	404.91
385.17	388.53
385.36	386.19
385.56	409.59
385.75	430.66
385.95	484.49
386.14	538.32
386.34	533.64
386.53	503.22
386.72	456.40
386.92	402.57
387.11	496.19
387.31	528.96
387.50	491.51
387.70	449.38
387.89	444.70
388.09	517.26
388.28	491.51
388.48	458.74
388.67	503.22
388.86	596.84
389.06	596.84
389.25	648.33
389.45	718.54
389.64	744.29
389.84	734.93
390.03	734.93
390.22	702.16
390.42	704.50
390.61	753.65
390.81	791.10
391.00	877.70
391.19	894.08
391.39	695.14
391.58	699.82
391.78	697.48
391.97	615.56
392.16	622.58
392.36	557.05
392.55	409.59
392.75	212.99
392.94	163.84
393.13	142.77
393.33	191.92
393.52	400.23
393.71	561.73
393.91	606.20
394.10	608.54
394.29	758.33
394.49	844.93
394.68	849.61
394.88	933.87
395.07	880.04
395.26	882.38
395.46	830.89
395.65	842.59
395.84	655.35
396.04	507.90
396.23	369.80
396.42	341.72
396.62	325.33
396.81	421.30
397.00	475.13
397.19	704.50
397.39	880.04
397.58	1109.41
397.77	1041.54
397.97	1146.86
398.16	1135.16
398.35	1270.91
398.55	1238.14
398.74	1228.78
398.93	1369.21
399.12	1249.85
399.32	1252.19
399.51	1317.72
399.70	1275.59
399.90	1369.21
400.09	1348.15
400.28	1320.06
400.47	1437.09
400.67	1467.52
400.86	1409.00
401.05	1399.64
401.24	1528.37
401.44	1511.99
401.63	1535.39
401.82	1465.18
402.01	1493.26
402.21	1476.88
402.40	1530.71
402.59	1465.18
402.78	1352.83
402.97	1409.00
403.17	1460.49
403.36	1514.33
403.55	1394.96
403.74	1558.80
403.93	1549.43
404.13	1338.79
404.32	1355.17
404.51	1481.56
404.70	1540.07
404.89	1472.20
405.09	1481.56
405.28	1437.09
405.47	1488.58
405.66	1458.15
405.85	1343.47
406.05	1362.19
406.24	1369.21
406.43	1446.45
406.62	1493.26
406.81	1591.56
407.00	1369.21
407.20	1371.55
407.39	1406.66
407.58	1469.86
407.77	1640.72
407.96	1633.69
408.15	1689.87
408.34	1582.20
408.54	1767.10
408.73	1769.44
408.92	1652.42
409.11	1577.52
409.30	1556.46
409.49	1390.28
409.68	1263.89
409.87	1329.42
410.07	1329.42
410.26	1497.94
410.45	1558.80
410.64	1626.67
410.83	1778.81
411.02	1760.08
411.21	1776.47
411.40	1769.44
411.59	1867.75
411.78	1825.62
411.98	1741.36
412.17	1837.32
412.36	1727.32
412.55	1689.87
412.74	1713.27
412.93	1802.21
413.12	1713.27
413.31	1914.56
413.50	1905.20
413.69	1834.98
413.88	1860.73
414.07	1746.04
414.26	1797.53
414.45	1926.26
414.64	1975.41
414.83	1916.90
415.02	1842.00
415.22	1827.96
415.41	1944.99
415.60	1963.71
415.79	2019.88
415.98	2125.21
416.17	2134.57
416.36	2043.29
416.55	1980.09
416.74	1984.77
416.93	1865.41
417.12	1872.43
417.31	1837.32
417.50	1797.53
417.69	2040.95
417.88	1937.96
418.07	1968.39
418.26	1888.81
418.45	1942.64
418.64	2094.78
418.83	2038.61
419.02	2064.35
419.21	1998.82
419.39	1961.37
419.58	1853.70
419.77	1816.26
419.96	1970.73
420.15	2169.68
420.34	2188.40
420.53	2139.25
420.72	2279.68
420.91	2230.53
421.10	2183.72
421.29	2141.59
421.48	2146.27
421.67	2172.02
421.86	2078.40
422.05	2003.50
422.24	1734.34
422.43	1647.74
422.61	1921.58
422.80	2120.53
422.99	2090.10
423.18	2019.88
423.37	1893.49
423.56	1987.11
423.75	1998.82
423.94	2101.80
424.13	1919.24
424.32	1895.83
424.50	1973.07
424.69	1907.54
424.88	1907.54
425.07	1968.39
425.26	1942.64
425.45	2008.18
425.64	1937.96
425.83	1870.09
426.01	1989.46
426.20	1977.75
426.39	2012.86
426.58	1884.13
426.77	1720.29
426.96	1748.38
427.15	1750.72
427.33	1809.23
427.52	1919.24
427.71	1905.20
427.90	1900.52
428.09	1874.77
428.28	1954.35
428.46	1764.76
428.65	1804.55
428.84	1834.98
429.03	1816.26
429.22	1687.53
429.40	1708.59
429.59	1387.94
429.78	1217.08
429.97	1277.93
430.16	1219.42
430.34	1261.55
430.53	1322.40
430.72	1369.21
430.91	1474.54
431.10	1729.66
431.28	2012.86
431.47	2317.13
431.66	2321.81
431.85	2146.27
432.03	1898.17
432.22	1842.00
432.41	1905.20
432.60	2193.08
432.79	2225.85
432.97	2314.79
433.16	2284.36
433.35	1998.82
433.54	1827.96
433.72	1668.80
433.91	1739.02
434.10	1989.46
434.28	2085.42
434.47	2270.32
434.66	2239.89
434.85	2132.23
435.03	2167.34
435.22	2122.87
435.41	2258.62
435.59	2253.94
435.78	2420.11
435.97	2455.22
436.16	2328.83
436.34	2368.62
436.53	2289.04
436.72	2324.15
436.90	2099.46
437.09	2209.47
437.28	2040.95
437.46	2216.49
437.65	2150.95
437.84	2076.06
438.02	1785.83
438.21	1942.64
438.40	2024.56
438.58	2218.83
438.77	2207.13
438.96	2244.57
439.14	2298.41
439.33	2319.47
439.52	2558.21
439.70	2389.69
439.89	2251.60
440.08	2237.55
440.26	2317.13
440.45	2312.45
440.63	2518.42
440.82	2560.55
441.01	2497.35
441.19	2511.39
441.38	2555.86
441.57	2759.49
441.75	2785.24
441.94	2757.15
442.12	2733.75
442.31	2867.16
442.50	2698.64
442.68	2752.47
442.87	2635.44
443.05	2686.94
443.24	2668.21
443.43	2801.62
443.61	2848.43
443.80	2883.54
443.98	2682.25
444.17	2722.04
444.35	2794.60
444.54	2832.05
444.73	2913.97
444.91	2719.70
445.10	2518.42
445.28	2457.56
445.47	2476.29
445.65	2340.54
445.84	2516.08
446.02	2656.51
446.21	2696.30
446.39	2738.43
446.58	2623.74
446.77	2827.37
446.95	2726.72
447.14	2820.35
447.32	2911.63
447.51	2677.57
447.69	2696.30
447.88	2679.91
448.06	2684.59
448.25	2778.22
448.43	2862.48
448.62	2689.28
448.80	2773.53
448.99	2743.11
449.17	2766.51
449.36	2775.88
449.54	2874.18
449.73	2822.69
449.91	2979.50
450.10	3089.51
450.28	3061.42
450.46	3023.97
450.65	3171.43
450.83	3059.08
451.02	3061.42
451.20	2951.42
451.39	2942.05
451.57	3009.93
451.76	2909.29
451.94	2911.63
452.13	2890.56
452.31	2719.70
452.49	2733.75
452.68	2565.23
452.86	2705.66
453.05	2555.86
453.23	2780.56
453.42	2930.35
453.60	2834.39
453.78	2963.12
453.97	2825.03
454.15	2911.63
454.34	2705.66
454.52	2883.54
454.70	2780.56
454.89	2787.58
455.07	2855.45
455.26	2834.39
455.44	2944.39
455.62	2991.20
455.81	2963.12
455.99	3145.68
456.17	2972.48
456.36	3047.38
456.54	3098.87
456.73	2986.52
456.91	3073.12
457.09	2967.80
457.28	3068.44
457.46	2967.80
457.64	2935.03
457.83	2979.50
458.01	2808.64
458.19	2944.39
458.38	2974.82
458.56	3101.21
458.74	2998.23
458.93	2949.08
459.11	2944.39
459.29	2829.71
459.48	2876.52
459.66	2939.71
459.84	3000.57
460.03	2937.37
460.21	3133.98
460.39	3035.67
460.57	3075.46
460.76	3091.85
460.94	3131.64
461.12	3063.76
461.31	2972.48
461.49	3045.04
461.67	3159.72
461.85	3129.30
462.04	3007.59
462.22	3194.83
462.40	3190.15
462.59	3173.77
462.77	3178.45
462.95	3070.78
463.13	3194.83
463.32	3021.63
463.50	3096.53
463.68	3077.80
463.86	3075.46
464.05	2839.07
464.23	2988.86
464.41	2956.10
464.59	2909.29
464.78	3038.02
464.96	2974.82
465.14	3005.25
465.32	3063.76
465.50	3059.08
465.69	3131.64
465.87	3096.53
466.05	3019.29
466.23	2780.56
466.41	2768.85
466.60	2874.18
466.78	2909.29
466.96	2946.73
467.14	2972.48
467.32	2949.08
467.51	3047.38
467.69	2986.52
467.87	2988.86
468.05	3089.51
468.23	3061.42
468.41	2967.80
468.60	2958.44
468.78	3110.57
468.96	3005.25
469.14	3068.44
469.32	3091.85
469.50	2897.58
469.69	2974.82
469.87	2967.80
470.05	2920.99
470.23	2818.00
470.41	2974.82
470.59	3033.33
470.77	2925.67
470.95	2984.18
471.14	3040.36
471.32	3131.64
471.50	3122.27
471.68	3192.49
471.86	3290.79
472.04	3197.17
472.22	3251.00
472.40	3009.93
472.58	3066.10
472.77	3105.89
472.95	3136.32
473.13	3143.34
473.31	2979.50
473.49	3075.46
473.67	3311.86
473.85	3152.70
474.03	3358.67
474.21	3279.09
474.39	3286.11
474.57	3365.69
474.75	3494.42
474.93	3220.58
475.12	3194.83
475.30	3248.66
475.48	3225.26
475.66	3251.00
475.84	3279.09
476.02	3358.67
476.20	3258.03
476.38	3211.22
476.56	3407.82
476.74	3349.31
476.92	3576.34
477.10	3386.76
477.28	3534.21
477.46	3604.42
477.64	3482.72
477.82	3487.40
478.00	3686.34
478.18	3405.48
478.36	3585.70
478.54	3506.12
478.72	3620.81
478.90	3712.09
479.08	3723.79
479.26	3878.27
479.44	3850.18
479.62	3765.92
479.80	3777.62
479.98	3859.54
480.16	3859.54
480.34	3803.37
480.52	3829.12
480.70	3861.88
480.88	3885.29
481.06	3765.92
481.24	3932.10
481.41	4140.41
481.59	4154.45
481.77	4039.76
481.95	3976.57
482.13	4021.04
482.31	3892.31
482.49	3974.23
482.67	4023.38
482.85	4051.47
483.03	4241.05
483.21	4231.69
483.39	4205.94
483.57	4046.79
483.74	4126.36
483.92	4011.68
484.10	4058.49
484.28	4236.37
484.46	4290.20
484.64	4332.33
484.82	4105.30
485.00	4229.35
485.18	4032.74
485.35	3836.14
485.53	3726.13
485.71	3286.11
485.89	3192.49
486.07	3386.76
486.25	3777.62
486.43	3922.74
486.61	4079.55
486.78	4056.15
486.96	3983.59
487.14	4175.52
487.32	4294.88
487.50	4404.89
487.68	4421.27
487.85	4718.52
488.03	4568.73
488.21	4479.79
488.39	4489.15
488.57	4266.80
488.75	4322.97
488.92	4564.04
489.10	4819.16
489.28	4985.34
489.46	5139.82
489.64	5050.88
489.81	5200.67
489.99	5203.01
490.17	5020.45
490.35	4978.32
490.53	4938.53
490.70	4983.00
490.88	4936.19
491.06	5153.86
491.24	5214.71
491.41	4870.65
491.59	4585.11
491.77	4580.43
491.95	4739.58
492.13	4875.34
492.30	5053.22
492.48	5376.21
492.66	5408.98
492.84	5256.84
493.01	5114.07
493.19	5254.50
493.37	5057.90
493.54	5114.07
493.72	5191.31
493.90	5357.49
494.08	5605.58
494.25	5474.51
494.43	5591.54
494.61	5696.86
494.79	5741.33
494.96	5617.29
495.14	5666.44
495.32	5350.46
495.49	5200.67
495.67	5437.06
495.85	5682.82
496.02	5708.57
496.20	5738.99
496.38	5685.16
496.55	5664.10
496.73	5767.08
496.91	5762.40
497.09	5959.00
497.26	6008.16
497.44	5839.64
497.62	5565.79
497.79	5453.45
497.97	5277.91
498.14	5132.79
498.32	5504.94
498.50	5774.10
498.67	5748.36
498.85	5785.80
499.03	5806.87
499.20	5806.87
499.38	5755.38
499.56	5867.72
499.73	5640.69
499.91	5593.88
500.08	5600.90
500.26	5427.70
500.44	5385.57
500.61	5694.52
500.79	5636.01
500.97	5385.57
501.14	5324.72
501.32	5275.57
501.49	5399.62
501.67	5694.52
501.84	5856.02
502.02	5582.18
502.20	5832.62
502.37	5736.65
502.55	5858.36
502.72	5832.62
502.90	5907.51
503.07	5951.98
503.25	5825.59
503.43	5717.93
503.60	5334.08
503.78	5348.12
503.95	5432.38
504.13	5820.91
504.30	5966.03
504.48	5987.09
504.65	6108.80
504.83	5916.87
505.01	5830.27
505.18	5846.66
505.36	6183.70
505.53	6157.95
505.71	6232.85
505.88	6143.91
506.06	5937.94
506.23	6019.86
506.41	5860.70
506.58	5942.62
506.76	5930.92
506.93	6031.56
507.11	5785.80
507.28	5809.21
507.46	5844.32
507.63	5636.01
507.81	5617.29
507.98	5771.76
508.16	5806.87
508.33	5867.72
508.50	6139.23
508.68	6073.69
508.85	6244.55
509.03	6279.66
509.20	6026.88
509.38	5884.11
509.55	5792.83
509.73	5975.39
509.90	5994.11
510.08	5937.94
510.25	6005.81
510.42	5944.96
510.60	5884.11
510.77	5984.75
510.95	5947.30
511.12	6019.86
511.30	6143.91
511.47	6452.86
511.64	6382.64
511.82	6174.33
511.99	5914.53
512.17	5909.85
512.34	5802.19
512.51	5827.93
512.69	5865.38
512.86	5839.64
513.04	5963.68
513.21	5909.85
513.38	5937.94
513.56	5940.28
513.73	5699.20
513.90	5643.03
514.08	5572.82
514.25	5830.27
514.43	5708.57
514.60	5717.93
514.77	5717.93
514.95	5832.62
515.12	5792.83
515.29	5905.17
515.47	5900.49
515.64	6373.28
515.81	5954.32
515.99	5736.65
516.16	5668.78
516.33	5046.20
516.51	4873.00
516.68	4697.46
516.85	4674.05
517.03	4650.64
517.20	5210.03
517.37	5664.10
517.54	5902.83
517.72	5837.30
517.89	5357.49
518.06	4816.82
518.24	4894.06
518.41	5373.87
518.58	5511.96
518.75	5823.25
518.93	5575.16
519.10	5563.45
519.27	5636.01
519.45	5809.21
519.62	5923.90
519.79	6087.73
519.96	6010.50
520.14	5614.95
520.31	5570.48
520.48	5598.56
520.65	5710.91
520.83	5916.87
521.00	5984.75
521.17	5874.74
521.34	5954.32
521.52	5977.73
521.69	5987.09
521.86	6127.52
522.03	6008.16
522.20	5841.98
522.38	5572.82
522.55	5570.48
522.72	5638.35
522.89	5753.04
523.07	5778.78
523.24	5720.27
523.41	6033.90
523.58	6036.24
523.75	6181.35
523.92	6148.59
524.10	5989.43
524.27	6059.65
524.44	6148.59
524.61	6040.92
524.78	6076.03
524.96	5820.91
525.13	5928.58
525.30	6050.28
525.47	6267.95
525.64	5980.07
525.81	5914.53
525.98	5612.60
526.16	5476.85
526.33	5198.33
526.50	5130.45
526.67	5107.05
526.84	5212.37
527.01	5376.21
527.18	5495.58
527.36	5654.73
527.53	6099.44
527.70	6113.48
527.87	5902.83
528.04	5736.65
528.21	5863.04
528.38	5942.62
528.55	6150.93
528.72	6174.33
528.89	6263.27
529.07	6230.51
529.24	6061.99
529.41	5806.87
529.58	5785.80
529.75	5774.10
529.92	6069.01
530.09	5781.12
530.26	5942.62
530.43	6127.52
530.60	6092.41
530.77	6141.57
530.94	6197.74
531.11	6087.73
531.28	5874.74
531.46	5907.51
531.63	6125.18
531.80	6010.50
531.97	5984.75
532.14	5680.48
532.31	5423.02
532.48	5343.44
532.65	5275.57
532.82	5612.60
532.99	5537.71
533.16	5823.25
533.33	6057.31
533.50	5888.79
533.67	5654.73
533.84	5750.70
534.01	5689.84
534.18	5790.49
534.35	5888.79
534.52	5746.02
534.69	5680.48
534.86	6012.84
535.03	6019.86
535.20	6251.57
535.37	6059.65
535.54	6195.40
535.71	6106.46
535.88	6071.35
536.05	5860.70
536.22	5738.99
536.38	5816.23
536.55	5753.04
536.72	5610.26
536.89	5455.79
537.06	5701.54
537.23	5858.36
537.40	5959.00
537.57	5856.02
537.74	5816.23
537.91	5776.44
538.08	5825.59
538.25	5748.36
538.42	5844.32
538.59	5937.94
538.75	5687.50
538.92	5727.29
539.09	5657.07
539.26	5455.79
539.43	5509.62
539.60	5565.79
539.77	5469.83
539.94	5500.26
540.11	5378.55
540.28	5280.25
540.44	5289.61
540.61	5329.40
540.78	5289.61
540.95	5420.68
541.12	5500.26
541.29	5659.42
541.46	5830.27
541.62	5596.22
541.79	5657.07
541.96	5589.20
542.13	5458.13
542.30	5558.77
542.47	5661.76
542.63	5540.05
542.80	5636.01
542.97	5514.30
543.14	5462.81
543.31	5612.60
543.48	5521.32
543.64	5778.78
543.81	5902.83
543.98	5790.49
544.15	5561.11
544.32	5439.40
544.48	5518.98
544.65	5598.56
544.82	5722.61
544.99	5565.79
545.16	5554.09
545.32	5577.50
545.49	5734.31
545.66	5736.65
545.83	5678.14
546.00	5701.54
546.16	5455.79
546.33	5369.19
546.50	5528.35
546.67	5598.56
546.83	5490.90
547.00	5593.88
547.17	5352.81
547.34	5350.46
547.50	5198.33
547.67	5373.87
547.84	5387.91
548.00	5530.69
548.17	5736.65
548.34	5509.62
548.51	5680.48
548.67	5563.45
548.84	5509.62
549.01	5605.58
549.18	5584.52
549.34	5460.47
549.51	5439.40
549.68	5547.07
549.84	5324.72
550.01	5355.15
550.18	5287.27
550.34	5303.65
550.51	5476.85
550.68	5593.88
550.84	5249.82
551.01	5334.08
551.18	5284.93
551.34	5343.44
551.51	5563.45
551.68	5551.75
551.84	5537.71
552.01	5537.71
552.18	5474.51
552.34	5465.15
552.51	5320.04
552.68	5371.53
552.84	5469.83
553.01	5160.88
553.18	5334.08
553.34	5476.85
553.51	5289.61
553.67	5455.79
553.84	5469.83
554.01	5617.29
554.17	5413.66
554.34	5322.38
554.51	5345.78
554.67	5343.44
554.84	5521.32
555.00	5284.93
555.17	5469.83
555.33	5355.15
555.50	5287.27
555.67	5301.31
555.83	5231.10
556.00	5193.65
556.16	5100.03
556.33	5144.50
556.50	5151.52
556.66	5146.84
556.83	5039.17
556.99	5060.24
557.16	5050.88
557.32	5200.67
557.49	5207.69
557.65	5053.22
557.82	5135.14
557.98	5280.25
558.15	5057.90
558.32	4847.25
558.48	4608.51
558.65	4746.61
558.81	4791.08
558.98	4870.65
559.14	4999.38
559.31	5004.07
559.47	5076.62
559.64	4999.38
559.80	4842.57
559.97	4990.02
560.13	5029.81
560.30	5135.14
560.46	5156.20
560.63	5177.26
560.79	5378.55
560.96	5181.95
561.12	4966.62
561.29	4805.12
561.45	4774.69
561.61	4720.86
561.78	5011.09
561.94	4877.68
562.11	4922.15
562.27	4795.76
562.44	4919.81
562.60	4938.53
562.77	5095.35
562.93	4999.38
563.10	4985.34
563.26	4903.42
563.42	5064.92
563.59	4924.49
563.75	4819.16
563.92	4910.44
564.08	4840.23
564.24	4973.64
564.41	4865.97
564.57	4950.23
564.74	4795.76
564.90	4901.08
565.07	4723.20
565.23	4643.62
565.39	4730.22
565.56	4608.51
565.72	4533.62
565.88	4716.18
566.05	4762.99
566.21	4697.46
566.38	4734.90
566.54	4676.39
566.70	4835.55
566.87	4793.42
567.03	4814.48
567.19	4791.08
567.36	4807.46
567.52	4641.28
567.68	4779.37
567.85	4720.86
568.01	4648.30
568.17	4418.93
568.34	4367.44
568.50	4568.73
568.66	4592.13
568.83	4599.15
568.99	4615.54
569.15	4704.48
569.32	4566.39
569.48	4496.17
569.64	4514.89
569.81	4484.47
569.97	4477.44
570.13	4550.00
570.30	4440.00
570.46	4351.06
570.62	4339.35
570.78	4201.26
570.95	4313.61
571.11	4425.95
571.27	4482.13
571.43	4498.51
571.60	4582.77
571.76	4608.51
571.92	4718.52
572.09	4709.16
572.25	4594.47
572.41	4573.41
572.57	4505.53
572.74	4564.04
572.90	4507.87
573.06	4566.39
573.22	4400.21
573.38	4503.19
573.55	4451.70
573.71	4601.49
573.87	4531.28
574.03	4465.74
574.20	4489.15
574.36	4416.59
574.52	4381.48
574.68	4404.89
574.84	4238.71
575.01	4297.22
575.17	4124.02
575.33	4175.52
575.49	4283.18
575.65	4372.12
575.82	4292.54
575.98	4147.43
576.14	4236.37
576.30	4360.42
576.46	4423.61
576.62	4259.78
576.79	4404.89
576.95	4348.72
577.11	4390.84
577.27	4262.12
577.43	4257.43
577.59	4315.95
577.75	4383.82
577.92	4088.92
578.08	3964.87
578.24	4063.17
578.40	3978.91
578.56	4273.82
578.72	4175.52
578.88	4231.69
579.04	4250.41
579.21	4063.17
579.37	4124.02
579.53	4222.33
579.69	4280.84
579.85	4418.93
580.01	4273.82
580.17	4341.69
580.33	4147.43
580.49	4030.40
580.65	4182.54
580.82	4372.12
580.98	4191.90
581.14	4173.18
581.30	4163.81
581.46	4189.56
581.62	4236.37
581.78	4259.78
581.94	4196.58
582.10	4346.37
582.26	4205.94
582.42	4255.09
582.58	4301.90
582.74	4187.22
582.90	4222.33
583.06	4304.25
583.22	4128.70
583.38	4379.14
583.54	4163.81
583.70	4187.22
583.86	4124.02
584.02	4086.58
584.18	4177.86
584.34	4252.75
584.50	4093.60
584.66	4124.02
584.82	4196.58
584.98	4023.38
585.14	3974.23
585.30	4053.81
585.46	4046.79
585.62	3875.93
585.78	3978.91
585.94	3747.20
586.10	3943.80
586.26	4121.68
586.42	4037.42
586.58	4028.06
586.74	3981.25
586.90	4044.45
587.06	4063.17
587.22	4156.79
587.38	4014.02
587.54	3899.33
587.70	4063.17
587.86	3735.50
588.02	3824.44
588.18	3819.75
588.34	3653.58
588.49	3398.46
588.65	3283.77
588.81	3248.66
588.97	3283.77
589.13	3295.47
589.29	3281.43
589.45	3279.09
589.61	3461.65
589.77	3555.27
589.93	3681.66
590.08	3836.14
590.24	3868.91
590.40	3791.67
590.56	3770.60
590.72	3819.75
590.88	3730.81
591.04	3751.88
591.20	3763.58
591.35	3801.03
591.51	3761.24
591.67	3684.00
591.83	3728.47
591.99	3681.66
592.15	3653.58
592.31	3712.09
592.46	3698.05
592.62	3676.98
592.78	3707.41
592.94	3646.55
593.10	3700.39
593.26	3716.77
593.41	3826.78
593.57	3786.99
593.73	3719.11
593.89	3627.83
594.05	3445.27
594.20	3588.04
594.36	3555.27
594.52	3611.45
594.68	3496.76
594.84	3414.84
594.99	3442.93
595.15	3543.57
595.31	3588.04
595.47	3480.38
595.62	3693.37
595.78	3566.98
595.94	3728.47
596.10	3808.05
596.25	3597.40
596.41	3630.17
596.57	3478.04
596.73	3541.23
596.88	3473.36
597.04	3637.19
597.20	3447.61
597.36	3454.63
597.51	3574.00
597.67	3520.17
597.83	3592.72
597.99	3459.31
