SpectraSuite Data File
++++++++++++++++++++++++++++++++++++
Date: Mon Oct 07 14:53:08 GMT-05:00 2013
User: price-jones
Dark Spectrum Present: No
Reference Spectrum Present: No
Number of Sampled Component Spectra: 1
Spectrometers: USB2+H05261
Integration Time (usec): 100000 (USB2+H05261)
Spectra Averaged: 1 (USB2+H05261)
Boxcar Smoothing: 0 (USB2+H05261)
Correct for Electrical Dark: No (USB2+H05261)
Strobe/Lamp Enabled: No (USB2+H05261)
Correct for Detector Non-linearity: No (USB2+H05261)
Correct for Stray Light: No (USB2+H05261)
Number of Pixels in Processed Spectrum: 2048
>>>>>Begin Processed Spectral Data<<<<<
365.73	0.00
365.92	0.00
366.12	0.00
366.32	0.00
366.52	0.00
366.72	0.00
366.91	0.00
367.11	0.00
367.31	0.00
367.51	0.00
367.70	0.00
367.90	0.00
368.10	0.00
368.30	0.00
368.49	0.00
368.69	0.00
368.89	0.00
369.09	0.00
369.28	0.00
369.48	0.00
369.68	0.00
369.87	0.00
370.07	0.00
370.27	0.00
370.47	887.06
370.66	4124.02
370.86	4582.77
371.06	5018.11
371.25	5142.16
371.45	4564.04
371.65	4210.62
371.84	3880.61
372.04	4063.17
372.24	4512.55
372.44	4753.63
372.63	4741.93
372.83	4379.14
373.03	3822.09
373.22	3520.17
373.42	3843.16
373.62	4428.29
373.81	4594.47
374.01	4744.27
374.21	4299.56
374.40	3845.50
374.60	4109.98
374.79	4685.75
374.99	5472.17
375.19	5736.65
375.38	5549.41
375.58	5350.46
375.78	5483.88
375.97	5401.96
376.17	5621.97
376.37	5713.25
376.56	5706.23
376.76	6176.67
376.95	6523.07
377.15	7009.90
377.35	6979.48
377.54	7566.95
377.74	7604.40
377.93	7449.93
378.13	7442.90
378.33	7054.37
378.52	6464.56
378.72	6310.08
378.91	6071.35
379.11	5982.41
379.31	5757.72
379.50	5863.04
379.70	6359.24
379.89	6860.11
380.09	7232.26
380.28	7508.44
380.48	7562.27
380.68	7286.09
380.87	6906.92
381.07	6607.33
381.26	6104.12
381.46	5640.69
381.65	5556.43
381.85	5521.32
382.04	5109.39
382.24	4992.36
382.43	4557.02
382.63	4425.95
382.83	4510.21
383.02	4606.17
383.22	4514.89
383.41	4437.66
383.61	4952.57
383.80	5373.87
384.00	6438.81
384.19	7033.31
384.39	7433.54
384.58	7201.83
384.78	7052.03
384.97	7148.00
385.17	6855.43
385.36	6403.71
385.56	6333.49
385.75	6450.52
385.95	6862.45
386.14	7426.52
386.34	7749.51
386.53	7180.76
386.72	6829.68
386.92	6979.48
387.11	7349.28
387.31	7534.18
387.50	7232.26
387.70	7094.16
387.89	7281.41
388.09	7162.04
388.28	7260.34
388.48	7410.14
388.67	7983.57
388.86	8491.46
389.06	9268.52
389.25	9659.39
389.45	9809.19
389.64	9612.58
389.84	9362.14
390.03	9481.51
390.22	9434.70
390.42	9912.17
390.61	10590.92
390.81	11117.54
391.00	11515.44
391.19	11206.48
391.39	11044.99
391.58	10279.63
391.78	9673.43
391.97	9455.76
392.16	8727.86
392.36	7896.97
392.55	6415.41
392.75	5165.56
392.94	4184.88
393.13	4236.37
393.33	4945.55
393.52	6195.40
393.71	7838.45
393.91	8697.43
394.10	9437.04
394.29	10331.12
394.49	11178.40
394.68	12081.85
394.88	11967.16
395.07	12255.04
395.26	12175.47
395.46	11548.20
395.65	11049.67
395.84	9612.58
396.04	8154.43
396.23	6668.19
396.42	5401.96
396.62	5556.43
396.81	6382.64
397.00	8180.17
397.19	10387.30
397.39	12173.13
397.58	13364.46
397.77	14361.53
397.97	14834.32
398.16	15136.24
398.35	15529.45
398.55	15901.60
398.74	16458.65
398.93	17245.07
399.12	16819.09
399.32	16226.93
399.51	16517.16
399.70	17717.86
399.90	17275.49
400.09	17755.30
400.28	17329.33
400.47	17451.03
400.67	18347.46
400.86	18981.74
401.05	18775.78
401.24	18647.05
401.44	19168.99
401.63	19183.03
401.82	19358.57
402.01	19246.23
402.21	19988.18
402.40	19573.90
402.59	18909.19
402.78	18188.30
402.97	17479.12
403.17	18160.22
403.36	19487.30
403.55	20245.63
403.74	20430.54
403.93	19576.24
404.13	17830.20
404.32	17493.16
404.51	18618.96
404.70	20252.66
404.89	19810.29
405.09	19566.88
405.28	18787.48
405.47	18925.57
405.66	18941.96
405.85	18635.35
406.05	18024.47
406.24	18307.67
406.43	19218.14
406.62	19655.82
406.81	19763.48
407.00	19080.05
407.20	18565.13
407.39	18817.91
407.58	19597.31
407.77	20711.40
407.96	21018.01
408.15	21631.23
408.34	21357.39
408.54	22611.92
408.73	22637.66
408.92	21977.63
409.11	21380.79
409.30	20720.76
409.49	18867.06
409.68	17919.14
409.87	17537.63
410.07	18415.34
410.26	20201.16
410.45	21319.94
410.64	22270.20
410.83	22410.63
411.02	22972.36
411.21	24320.51
411.40	23679.20
411.59	23569.19
411.78	23494.30
411.98	23370.25
412.17	23974.11
412.36	23381.95
412.55	23461.53
412.74	23246.20
412.93	22228.07
413.12	22686.81
413.31	24573.28
413.50	24561.58
413.69	25177.14
413.88	24386.04
414.07	23407.70
414.26	24264.33
414.45	24727.76
414.64	25090.54
414.83	25181.82
415.02	24634.14
415.22	24762.87
415.41	25003.94
415.60	25916.75
415.79	26843.60
415.98	27227.45
416.17	27604.28
416.36	26883.39
416.55	26572.10
416.74	25282.47
416.93	24912.66
417.12	24709.04
417.31	24968.84
417.50	25378.43
417.69	26686.79
417.88	26478.48
418.07	25989.31
418.26	25923.77
418.45	26237.41
418.64	26595.51
418.83	27522.36
419.02	27557.47
419.21	27260.22
419.39	25750.57
419.58	24769.89
419.77	24849.47
419.96	25888.67
420.15	27393.63
420.34	27999.83
420.53	29132.65
420.72	30033.75
420.91	29174.78
421.10	28809.65
421.29	28645.82
421.48	27953.02
421.67	29329.25
421.86	28594.32
422.05	26494.86
422.24	23616.01
422.43	23674.52
422.61	25888.67
422.80	27770.46
422.99	28266.65
423.18	27068.30
423.37	26691.47
423.56	26590.83
423.75	27304.69
423.94	27648.75
424.13	26295.92
424.32	26387.20
424.50	26223.36
424.69	26349.75
424.88	26239.75
425.07	26380.18
425.26	26508.91
425.45	25804.41
425.64	25617.16
425.83	25661.63
426.01	26815.52
426.20	27906.21
426.39	27360.86
426.58	25060.12
426.77	23583.24
426.96	22918.53
427.15	23604.30
427.33	25778.66
427.52	26485.50
427.71	26560.40
427.90	26216.34
428.09	26239.75
428.28	25582.06
428.46	24320.51
428.65	24149.65
428.84	24936.07
429.03	25511.84
429.22	23733.03
429.40	22672.77
429.59	20627.14
429.78	18251.50
429.97	18438.74
430.16	18534.70
430.34	18609.60
430.53	18644.71
430.72	19363.25
430.91	21209.93
431.10	24985.22
431.28	29544.58
431.47	31571.49
431.66	31665.11
431.85	28802.63
432.03	26466.78
432.22	25326.94
432.41	26490.18
432.60	29476.71
432.79	30562.72
432.97	31213.38
433.16	30195.25
433.35	27946.00
433.54	25069.48
433.72	23653.45
433.91	24372.00
434.10	27253.20
434.28	29296.49
434.47	30466.75
434.66	30284.19
434.85	29834.81
435.03	29635.86
435.22	30073.54
435.41	31903.84
435.59	31960.02
435.78	32587.28
435.97	32903.25
436.16	33298.80
436.34	33027.30
436.53	31597.23
436.72	32236.20
436.90	30288.87
437.09	30749.96
437.28	30057.16
437.46	31049.55
437.65	31206.36
437.84	28645.82
438.02	26300.60
438.21	26359.11
438.40	27913.23
438.58	30403.56
438.77	31407.65
438.96	31658.09
439.14	32561.53
439.33	33317.53
439.52	33799.68
439.70	33027.30
439.89	32395.35
440.08	31281.26
440.26	31431.05
440.45	32844.74
440.63	35023.78
440.82	36332.14
441.01	35782.11
441.19	35419.33
441.38	36130.85
441.57	37394.74
441.75	37764.54
441.94	38169.46
442.12	37926.04
442.31	38574.37
442.50	38429.26
442.68	37912.00
442.87	37474.32
443.05	37294.10
443.24	37647.52
443.43	38916.09
443.61	38958.22
443.80	39456.75
443.98	37020.25
444.17	37235.58
444.35	39416.96
444.54	40165.93
444.73	39370.15
444.91	37453.25
445.10	36226.81
445.28	34983.99
445.47	34581.42
445.65	35014.41
445.84	35559.76
446.02	37254.31
446.21	37221.54
446.39	37619.43
446.58	38211.59
446.77	38611.82
446.95	39215.68
447.14	40023.16
447.32	40278.28
447.51	39728.25
447.69	38328.61
447.88	37811.35
448.06	38256.06
448.25	39512.92
448.43	39686.12
448.62	38295.85
448.80	38340.32
448.99	38487.77
449.17	38803.74
449.36	39019.07
449.54	40701.92
449.73	41251.94
449.91	41596.00
450.10	42630.52
450.28	42997.98
450.46	42705.41
450.65	42466.68
450.83	42574.34
451.02	42213.90
451.20	41677.92
451.39	41525.78
451.57	41205.13
451.76	41659.20
451.94	41083.42
452.13	40509.99
452.31	38565.01
452.49	37200.47
452.68	37607.73
452.86	37390.06
453.05	38096.90
453.23	39643.99
453.42	39849.96
453.60	40900.86
453.78	41219.17
453.97	41027.25
454.15	40776.81
454.34	40212.74
454.52	40095.72
454.70	39346.75
454.89	40009.12
455.07	39667.40
455.26	41205.13
455.44	41975.17
455.62	42796.70
455.81	42682.01
455.99	42593.07
456.17	42029.00
456.36	41921.34
456.54	43412.26
456.73	43498.86
456.91	44006.75
457.09	44479.54
457.28	44982.76
457.46	43730.57
457.64	42958.19
457.83	41783.24
458.01	41207.47
458.19	42323.91
458.38	41972.83
458.56	43299.91
458.74	43409.92
458.93	42581.37
459.11	42319.23
459.29	42459.66
459.48	42644.56
459.66	42525.19
459.84	43290.55
460.03	43342.04
460.21	43187.56
460.39	44336.77
460.57	44418.69
460.76	44622.31
460.94	45153.62
461.12	44018.46
461.31	44631.68
461.49	44402.30
461.67	44194.00
461.85	45453.20
462.04	45551.51
462.22	45888.54
462.40	45617.04
462.59	45076.38
462.77	45432.14
462.95	45134.89
463.13	44680.83
463.32	44519.33
463.50	43840.57
463.68	44222.08
463.86	44622.31
464.05	43924.83
464.23	43196.93
464.41	43281.19
464.59	42328.59
464.78	44432.73
464.96	43988.03
465.14	43721.21
465.32	44605.93
465.50	45666.19
465.69	45787.90
465.87	45125.53
466.05	43718.87
466.23	41970.49
466.41	41116.19
466.60	42230.29
466.78	42431.57
466.96	43241.40
467.14	43882.70
467.32	44477.20
467.51	44254.85
467.69	42768.61
467.87	43477.79
468.05	43992.71
468.23	44184.63
468.41	43856.96
468.60	44470.18
468.78	44720.62
468.96	44156.55
469.14	44732.32
469.32	45186.38
469.50	43222.67
469.69	43423.96
469.87	43040.11
470.05	42546.26
470.23	43140.75
470.41	43229.69
470.59	43430.98
470.77	43959.94
470.95	44554.44
471.14	45167.66
471.32	45408.73
471.50	47477.77
471.68	47739.91
471.86	47714.16
472.04	47835.87
472.22	48076.94
472.40	45977.48
472.58	45851.09
472.77	45254.26
472.95	46450.27
473.13	47402.87
473.31	46148.34
473.49	46471.34
473.67	47164.14
473.85	47550.32
474.03	48470.15
474.21	48617.61
474.39	48577.82
474.57	49228.49
474.75	48832.94
474.93	48678.46
475.12	47281.16
475.30	47700.12
475.48	48158.86
475.66	48727.61
475.84	48114.39
476.02	48374.19
476.20	46897.31
476.38	48018.43
476.56	49209.76
476.74	49368.92
476.92	49610.00
477.10	50466.63
477.28	51201.56
477.46	51133.68
477.64	51896.70
477.82	51767.97
478.00	51779.67
478.18	51447.32
478.36	51313.90
478.54	51166.45
478.72	51463.70
478.90	52280.55
479.08	53144.20
479.26	53286.98
479.44	53282.30
479.62	53319.74
479.80	53333.79
479.98	53212.08
480.16	53804.24
480.34	53167.61
480.52	53521.03
480.70	53883.81
480.88	53773.81
481.06	54412.77
481.24	54614.06
481.41	55356.01
481.59	55810.07
481.77	55344.31
481.95	54925.35
482.13	54838.75
482.31	54993.23
482.49	55442.61
482.67	55391.12
482.85	55550.27
483.03	56236.05
483.21	56107.32
483.39	56442.02
483.57	55765.60
483.74	55676.66
483.92	55997.32
484.10	55683.69
484.28	56547.34
484.46	56746.29
484.64	57205.03
484.82	56371.80
485.00	55941.14
485.18	55428.57
485.35	54511.08
485.53	51938.83
485.71	48821.23
485.89	48416.32
486.07	50618.77
486.25	53183.99
486.43	55033.02
486.61	55274.09
486.78	55381.76
486.96	55517.51
487.14	56526.28
487.32	57272.91
487.50	58078.05
487.68	58628.08
487.85	58974.48
488.03	58805.96
488.21	58536.80
488.39	57860.38
488.57	57591.22
488.75	57556.11
488.92	58166.99
489.10	60137.72
489.28	60767.33
489.46	61286.93
489.64	61291.61
489.81	61401.61
489.99	61036.49
490.17	61109.05
490.35	61312.67
490.53	61064.58
490.70	60701.79
490.88	60685.41
491.06	61516.30
491.24	61389.91
491.41	60594.13
491.59	59327.90
491.77	59051.72
491.95	59756.22
492.13	60608.17
492.30	61490.55
492.48	62295.70
492.66	62649.12
492.84	62553.16
493.01	62326.13
493.19	61932.92
493.37	61654.39
493.54	61359.48
493.72	62087.39
493.90	62754.44
494.08	63426.18
494.25	63693.00
494.43	63828.75
494.61	64018.33
494.79	64296.86
494.96	63978.54
495.14	63442.56
495.32	62709.97
495.49	62323.78
495.67	63337.24
495.85	64214.94
496.02	64472.40
496.20	64493.46
496.38	63938.75
496.55	63962.16
496.73	64397.50
496.91	64514.53
497.09	65059.87
497.26	65008.38
497.44	64654.96
497.62	64210.26
497.79	63498.73
497.97	62401.02
498.14	62728.70
498.32	63587.67
498.50	64296.86
498.67	64839.86
498.85	64788.37
499.03	64926.46
499.20	65017.74
499.38	65209.67
499.56	65031.78
499.73	64633.89
499.91	64177.49
500.08	63945.78
500.26	63290.43
500.44	63515.12
500.61	64406.86
500.79	64090.89
500.97	63639.17
501.14	63660.23
501.32	63426.18
501.49	63477.67
501.67	63749.17
501.84	64184.51
502.02	64409.20
502.20	64594.10
502.37	64741.56
502.55	64842.20
502.72	65298.61
502.90	65535.00
503.07	65345.42
503.25	64961.57
503.43	64392.82
503.60	63730.45
503.78	63248.30
503.95	63599.38
504.13	64755.60
504.30	65427.34
504.48	65237.75
504.65	65006.04
504.83	65059.87
505.01	65535.00
505.18	65535.00
505.36	65535.00
505.53	65535.00
505.71	65535.00
505.88	65535.00
506.06	65535.00
506.23	65535.00
506.41	65535.00
506.58	65535.00
506.76	65535.00
506.93	65535.00
507.11	65481.17
507.28	65535.00
507.46	65286.90
507.63	64694.75
507.81	64664.32
507.98	64779.01
508.16	65485.85
508.33	65535.00
508.50	65535.00
508.68	65535.00
508.85	65535.00
509.03	65535.00
509.20	65535.00
509.38	65535.00
509.55	65504.57
509.73	65530.32
509.90	65535.00
510.08	65535.00
510.25	65535.00
510.42	65535.00
510.60	65535.00
510.77	65535.00
510.95	65535.00
511.12	65535.00
511.30	65535.00
511.47	65535.00
511.64	65535.00
511.82	65535.00
511.99	65535.00
512.17	65535.00
512.34	65535.00
512.51	65535.00
512.69	65535.00
512.86	65535.00
513.04	65535.00
513.21	65535.00
513.38	65535.00
513.56	65513.94
513.73	65097.32
513.90	65291.58
514.08	65331.37
514.25	65441.38
514.43	65535.00
514.60	65535.00
514.77	65535.00
514.95	65535.00
515.12	65535.00
515.29	65535.00
515.47	65535.00
515.64	65535.00
515.81	65535.00
515.99	65535.00
516.16	64793.05
516.33	62630.40
516.51	61539.71
516.68	60973.30
516.85	60664.35
517.03	61085.64
517.20	63365.32
517.37	65233.07
517.54	65535.00
517.72	65535.00
517.89	63341.92
518.06	61600.56
518.24	62068.67
518.41	63908.33
518.58	64760.28
518.75	65043.49
518.93	65027.10
519.10	64945.18
519.27	65434.36
519.45	65535.00
519.62	65535.00
519.79	65535.00
519.96	65535.00
520.14	65535.00
520.31	65134.77
520.48	65310.31
520.65	65535.00
520.83	65535.00
521.00	65535.00
521.17	65535.00
521.34	65535.00
521.52	65535.00
521.69	65535.00
521.86	65535.00
522.03	65535.00
522.20	65535.00
522.38	65006.04
522.55	65172.22
522.72	65471.81
522.89	65535.00
523.07	65535.00
523.24	65535.00
523.41	65535.00
523.58	65535.00
523.75	65535.00
523.92	65535.00
524.10	65535.00
524.27	65535.00
524.44	65535.00
524.61	65535.00
524.78	65535.00
524.96	65535.00
525.13	65535.00
525.30	65535.00
525.47	65535.00
525.64	65535.00
525.81	65535.00
525.98	65535.00
526.16	64228.98
526.33	63805.34
526.50	63325.53
526.67	63248.30
526.84	63842.79
527.01	64547.29
527.18	65317.33
527.36	65535.00
527.53	65535.00
527.70	65535.00
527.87	65535.00
528.04	65535.00
528.21	65535.00
528.38	65535.00
528.55	65535.00
528.72	65535.00
528.89	65535.00
529.07	65535.00
529.24	65535.00
529.41	65535.00
529.58	65535.00
529.75	65535.00
529.92	65535.00
530.09	65535.00
530.26	65535.00
530.43	65535.00
530.60	65535.00
530.77	65535.00
530.94	65535.00
531.11	65535.00
531.28	65535.00
531.46	65535.00
531.63	65535.00
531.80	65535.00
531.97	65535.00
532.14	65535.00
532.31	65481.17
532.48	64561.34
532.65	64619.85
532.82	65450.74
532.99	65535.00
533.16	65535.00
533.33	65535.00
533.50	65535.00
533.67	65535.00
533.84	65535.00
534.01	65535.00
534.18	65535.00
534.35	65535.00
534.52	65535.00
534.69	65535.00
534.86	65535.00
535.03	65535.00
535.20	65535.00
535.37	65535.00
535.54	65535.00
535.71	65535.00
535.88	65535.00
536.05	65535.00
536.22	65535.00
536.38	65535.00
536.55	65535.00
536.72	65261.16
536.89	65207.32
537.06	65535.00
537.23	65535.00
537.40	65535.00
537.57	65535.00
537.74	65535.00
537.91	65535.00
538.08	65535.00
538.25	65535.00
538.42	65535.00
538.59	65535.00
538.75	65535.00
538.92	65535.00
539.09	65535.00
539.26	65535.00
539.43	65535.00
539.60	65535.00
539.77	65535.00
539.94	65535.00
540.11	65008.38
540.28	64640.92
540.44	64736.88
540.61	64851.56
540.78	65090.30
540.95	65535.00
541.12	65535.00
541.29	65535.00
541.46	65535.00
541.62	65535.00
541.79	65535.00
541.96	65535.00
542.13	65535.00
542.30	65535.00
542.47	65535.00
542.63	65535.00
542.80	65535.00
542.97	65535.00
543.14	65535.00
543.31	65535.00
543.48	65535.00
543.64	65535.00
543.81	65535.00
543.98	65535.00
544.15	65535.00
544.32	65535.00
544.48	65535.00
544.65	65535.00
544.82	65535.00
544.99	65535.00
545.16	65535.00
545.32	65535.00
545.49	65535.00
545.66	65535.00
545.83	65535.00
546.00	65535.00
546.16	65535.00
546.33	65535.00
546.50	65535.00
546.67	65535.00
546.83	65535.00
547.00	65535.00
547.17	65457.76
547.34	65010.72
547.50	64954.55
547.67	65263.50
547.84	65504.57
548.00	65535.00
548.17	65535.00
548.34	65535.00
548.51	65535.00
548.67	65535.00
548.84	65535.00
549.01	65535.00
549.18	65535.00
549.34	65535.00
549.51	65535.00
549.68	65535.00
549.84	65535.00
550.01	65460.10
550.18	65336.05
550.34	65364.14
550.51	65462.44
550.68	65535.00
550.84	65179.24
551.01	65300.95
551.18	65279.88
551.34	65322.01
551.51	65535.00
551.68	65535.00
551.84	65535.00
552.01	65535.00
552.18	65535.00
552.34	65055.19
552.51	64896.03
552.68	64797.73
552.84	65083.28
553.01	65251.80
553.18	65200.30
553.34	65481.17
553.51	65443.72
553.67	65535.00
553.84	65535.00
554.01	65535.00
554.17	65535.00
554.34	65535.00
554.51	65535.00
554.67	65535.00
554.84	65535.00
555.00	65535.00
555.17	65371.16
555.33	65385.21
555.50	65181.58
555.67	65357.12
555.83	65277.54
556.00	64814.12
556.16	65055.19
556.33	64736.88
556.50	64631.55
556.66	64764.96
556.83	64427.93
556.99	64514.53
557.16	64432.61
557.32	64842.20
557.49	64952.21
557.65	64984.97
557.82	64907.74
557.98	64647.94
558.15	64126.00
558.32	63634.48
558.48	62976.79
558.65	63114.89
558.81	63601.72
558.98	63716.40
559.14	64060.46
559.31	64212.60
559.47	64025.35
559.64	63835.77
559.80	63587.67
559.97	63629.80
560.13	63987.91
560.30	64755.60
560.46	65038.81
560.63	65214.35
560.79	65286.90
560.96	64839.86
561.12	64051.10
561.29	63187.44
561.45	63381.71
561.61	63976.20
561.78	64102.59
561.94	64039.40
562.11	63894.28
562.27	64008.97
562.44	64058.12
562.60	64465.38
562.77	64610.49
562.93	64514.53
563.10	64301.54
563.26	63835.77
563.42	64001.95
563.59	63929.39
563.75	63685.98
563.92	64011.31
564.08	63784.28
564.24	64196.21
564.41	64161.11
564.57	63920.03
564.74	63678.96
564.90	63763.21
565.07	63494.05
565.23	63173.40
565.39	62740.40
565.56	62536.77
565.72	62541.45
565.88	62850.41
566.05	62983.82
566.21	63147.65
566.38	63168.72
566.54	63391.07
566.70	63594.70
566.87	63835.77
567.03	63781.94
567.19	64015.99
567.36	63482.35
567.52	63676.61
567.68	63201.49
567.85	62822.32
568.01	62702.95
568.17	62314.42
568.34	62475.92
568.50	62363.57
568.66	62475.92
568.83	62489.96
568.99	62693.59
569.15	62929.98
569.32	62824.66
569.48	62777.85
569.64	62604.65
569.81	62408.04
569.97	62300.38
570.13	62173.99
570.30	61836.95
570.46	61609.92
570.62	60987.34
570.78	61076.28
570.95	61413.32
571.11	61825.25
571.27	62010.15
571.43	62096.75
571.60	62478.26
571.76	62611.67
571.92	62618.69
572.09	62887.85
572.25	62702.95
572.41	62773.17
572.57	62592.95
572.74	62656.14
572.90	62473.58
573.06	62574.22
573.22	62574.22
573.38	62560.18
573.55	62375.28
573.71	62426.77
573.87	62436.13
574.03	62314.42
574.20	62330.81
574.36	62035.90
574.52	61813.55
574.68	61710.56
574.84	61446.08
575.01	61062.24
575.17	61174.58
575.33	61359.48
575.49	61462.47
575.65	61656.73
575.82	61488.21
575.98	61127.77
576.14	61396.93
576.30	61799.50
576.46	61736.31
576.62	61623.96
576.79	61722.27
576.95	61581.84
577.11	61296.29
577.27	61574.81
577.43	61425.02
577.59	61357.14
577.75	60755.63
577.92	60296.88
578.08	60193.90
578.24	60432.63
578.40	60432.63
578.56	60477.10
578.72	60896.06
578.88	60886.70
579.04	61137.13
579.21	60898.40
579.37	61116.07
579.53	61010.74
579.69	61041.17
579.85	61415.66
580.01	61123.09
580.17	60793.07
580.33	60446.68
580.49	60851.59
580.65	61258.84
580.82	61132.45
580.98	61092.66
581.14	61087.98
581.30	61120.75
581.46	61095.00
581.62	61132.45
581.78	61209.69
581.94	61293.95
582.10	61385.23
582.26	61347.78
582.42	61439.06
582.58	61457.79
582.74	61403.95
582.90	61338.42
583.06	61298.63
583.22	61092.66
583.38	61087.98
583.54	61125.43
583.70	61111.39
583.86	61125.43
584.02	60900.74
584.18	61106.71
584.34	60800.10
584.50	60940.53
584.66	60647.96
584.82	60418.59
584.98	60509.87
585.14	60065.17
