SpectraSuite Data File
++++++++++++++++++++++++++++++++++++
Date: Mon Oct 07 14:53:51 GMT-05:00 2013
User: price-jones
Dark Spectrum Present: No
Reference Spectrum Present: No
Number of Sampled Component Spectra: 1
Spectrometers: USB2+H05261
Integration Time (usec): 100000 (USB2+H05261)
Spectra Averaged: 1 (USB2+H05261)
Boxcar Smoothing: 0 (USB2+H05261)
Correct for Electrical Dark: No (USB2+H05261)
Strobe/Lamp Enabled: No (USB2+H05261)
Correct for Detector Non-linearity: No (USB2+H05261)
Correct for Stray Light: No (USB2+H05261)
Number of Pixels in Processed Spectrum: 2048
>>>>>Begin Processed Spectral Data<<<<<
365.73	0.00
365.92	0.00
366.12	0.00
366.32	0.00
366.52	0.00
366.72	0.00
366.91	0.00
367.11	0.00
367.31	0.00
367.51	0.00
367.70	0.00
367.90	0.00
368.10	0.00
368.30	0.00
368.49	0.00
368.69	0.00
368.89	0.00
369.09	0.00
369.28	0.00
369.48	0.00
369.68	0.00
369.87	0.00
370.07	0.00
370.27	0.00
370.47	587.47
370.66	2911.63
370.86	3475.70
371.06	3885.29
371.25	3911.04
371.45	3562.30
371.65	3159.72
371.84	2855.45
372.04	3091.85
372.24	3452.29
372.44	3604.42
372.63	3520.17
372.83	3335.26
373.03	2867.16
373.22	2661.19
373.42	2906.95
373.62	3241.64
373.81	3433.57
374.01	3604.42
374.21	3194.83
374.40	3028.65
374.60	3089.51
374.79	3630.17
374.99	4053.81
375.19	4320.63
375.38	4442.34
375.58	4219.99
375.78	3946.14
375.97	4070.19
376.17	4234.03
376.37	4245.73
376.56	4346.37
376.76	4606.17
376.95	4875.34
377.15	5324.72
377.35	5607.92
377.54	5750.70
377.74	5867.72
377.93	5827.93
378.13	5636.01
378.33	5441.75
378.52	5006.41
378.72	4746.61
378.91	4865.97
379.11	4748.95
379.31	4416.59
379.50	4484.47
379.70	4770.01
379.89	5490.90
380.09	5673.46
380.28	5891.13
380.48	5776.44
380.68	5650.05
380.87	5476.85
381.07	5146.84
381.26	4830.87
381.46	4400.21
381.65	4154.45
381.85	4203.60
382.04	3950.82
382.24	3812.73
382.43	3625.49
382.63	3487.40
382.83	3574.00
383.02	3548.25
383.22	3515.48
383.41	3733.15
383.61	3920.40
383.80	4315.95
384.00	4856.61
384.19	5467.49
384.39	5764.74
384.58	5764.74
384.78	5589.20
384.97	5778.78
385.17	5401.96
385.36	5144.50
385.56	4959.60
385.75	4924.49
385.95	5441.75
386.14	5982.41
386.34	5977.73
386.53	5584.52
386.72	5256.84
386.92	5233.44
387.11	5488.56
387.31	6045.60
387.50	5851.34
387.70	5652.39
387.89	5668.78
388.09	5638.35
388.28	5666.44
388.48	5753.04
388.67	6092.41
388.86	6698.61
389.06	7101.19
389.25	7606.74
389.45	7669.94
389.64	7492.05
389.84	7765.90
390.03	7592.70
390.22	7489.71
390.42	7693.34
390.61	8224.64
390.81	8847.22
391.00	8887.01
391.19	8954.89
391.39	8695.09
391.58	8095.91
391.78	7648.87
391.97	7496.74
392.16	6871.81
392.36	6305.40
392.55	4987.68
392.75	4079.55
392.94	3276.75
393.13	3218.24
393.33	3712.09
393.52	4784.06
393.71	6059.65
393.91	6752.45
394.10	7293.11
394.29	8100.59
394.49	8575.72
394.68	9448.74
394.88	9362.14
395.07	9645.35
395.26	9415.98
395.46	9338.74
395.65	8877.65
395.84	7740.15
396.04	6537.12
396.23	5289.61
396.42	4470.42
396.62	4182.54
396.81	4919.81
397.00	6136.88
397.19	8018.68
397.39	9509.60
397.58	10366.23
397.77	11262.66
397.97	11552.88
398.16	12030.35
398.35	12194.19
398.55	12491.44
398.74	13231.05
398.93	13418.29
399.12	13289.56
399.32	12547.61
399.51	12985.29
399.70	13668.73
399.90	13652.34
400.09	13710.86
400.28	13624.26
400.47	13455.74
400.67	14204.71
400.86	14834.32
401.05	14525.36
401.24	14728.99
401.44	15005.17
401.63	14815.59
401.82	15056.67
402.01	15096.46
402.21	15569.24
402.40	15161.99
402.59	14792.19
402.78	14347.48
402.97	13912.14
403.17	14204.71
403.36	15339.87
403.55	15709.68
403.74	16081.82
403.93	15396.04
404.13	14122.79
404.32	13867.67
404.51	14286.63
404.70	15548.18
404.89	15777.55
405.09	15566.90
405.28	14740.69
405.47	14876.44
405.66	14611.96
405.85	14413.02
406.05	14143.86
406.24	14253.86
406.43	14841.34
406.62	15529.45
406.81	15435.83
407.00	15016.88
407.20	14656.43
407.39	14754.74
407.58	15480.30
407.77	16051.39
407.96	16397.79
408.15	16423.54
408.34	16613.12
408.54	17661.68
408.73	17425.29
408.92	17572.74
409.11	16812.07
409.30	15943.73
409.49	15445.20
409.68	14209.39
409.87	13404.25
410.07	14235.14
410.26	15733.08
410.45	16650.57
410.64	16959.52
410.83	17451.03
411.02	18345.12
411.21	18642.37
411.40	18593.22
411.59	18574.49
411.78	18417.68
411.98	18160.22
412.17	18649.39
412.36	18120.43
412.55	18218.73
412.74	17823.18
412.93	17277.83
413.12	17589.13
413.31	19077.71
413.50	19447.51
413.69	19903.92
413.88	19040.26
414.07	18171.92
414.26	18869.40
414.45	19290.70
414.64	19269.63
414.83	19548.15
415.02	19222.82
415.22	19087.07
415.41	19157.28
415.60	20280.74
415.79	20781.62
415.98	21259.09
416.17	21282.49
416.36	20840.13
416.55	20554.58
416.74	19772.85
416.93	19253.25
417.12	19379.64
417.31	19772.85
417.50	19756.46
417.69	20713.74
417.88	20786.30
418.07	20491.39
418.26	19669.86
418.45	20067.75
418.64	20989.92
418.83	21783.37
419.02	20987.58
419.21	21050.78
419.39	20170.74
419.58	19157.28
419.77	19421.77
419.96	20175.42
420.15	21064.82
420.34	21898.05
420.53	22860.01
420.72	23239.18
420.91	22773.41
421.10	22448.08
421.29	22197.64
421.48	21692.08
421.67	22745.33
421.86	22120.40
422.05	20587.35
422.24	18551.09
422.43	18094.68
422.61	20042.01
422.80	21832.52
422.99	21951.88
423.18	20992.26
423.37	20730.12
423.56	20645.87
423.75	21324.62
423.94	21301.22
424.13	20446.92
424.32	20489.05
424.50	20477.35
424.69	20357.98
424.88	20224.57
425.07	20285.42
425.26	20402.45
425.45	20002.22
425.64	19405.38
425.83	19686.25
426.01	20758.21
426.20	21413.56
426.39	21401.86
426.58	19749.44
426.77	18146.17
426.96	17654.66
427.15	18249.16
427.33	19681.56
427.52	20673.95
427.71	20390.75
427.90	20327.55
428.09	20381.38
428.28	19625.39
428.46	19023.87
428.65	18813.23
428.84	19342.19
429.03	19660.50
429.22	18792.16
429.40	17902.76
429.59	15864.15
429.78	13991.72
429.97	14118.11
430.16	14312.38
430.34	14544.09
430.53	14532.39
430.72	14850.70
430.91	16095.86
431.10	19066.00
431.28	22530.00
431.47	24332.21
431.66	24563.92
431.85	22518.29
432.03	20856.51
432.22	19215.80
432.41	20556.93
432.60	22766.39
432.79	23639.41
432.97	24011.56
433.16	23639.41
433.35	21792.73
433.54	19447.51
433.72	18398.95
433.91	18864.72
434.10	20905.66
434.28	22424.67
434.47	23800.91
434.66	23016.83
434.85	22595.53
435.03	22544.04
435.22	22934.91
435.41	24629.46
435.59	24652.86
435.78	24884.58
435.97	25692.06
436.16	25862.92
436.34	25472.05
436.53	24926.71
436.72	24903.30
436.90	23407.70
437.09	23344.50
437.28	22712.56
437.46	23896.87
437.65	23536.43
437.84	22387.22
438.02	20292.44
438.21	20095.84
438.40	21226.32
438.58	23185.35
438.77	23777.50
438.96	24070.07
439.14	25266.08
439.33	25675.68
439.52	25916.75
439.70	25322.26
439.89	24957.13
440.08	24180.07
440.26	24112.20
440.45	24753.51
440.63	26555.72
440.82	27976.42
441.01	27447.46
441.19	27594.92
441.38	27587.89
441.57	28903.28
441.75	28968.81
441.94	29256.70
442.12	29401.81
442.31	29977.58
442.50	29427.56
442.68	29074.13
442.87	28755.82
443.05	28339.21
443.24	28332.18
443.43	29259.04
443.61	30185.89
443.80	30581.44
443.98	29123.29
444.17	28491.34
444.35	30174.19
444.54	31049.55
444.73	30415.26
444.91	29076.48
445.10	28210.48
445.28	26902.12
445.47	26380.18
445.65	26803.82
445.84	27227.45
446.02	28496.02
446.21	28823.70
446.39	29024.98
446.58	29020.30
446.77	29645.23
446.95	29816.08
447.14	30621.23
447.32	31112.74
447.51	30536.97
447.69	29619.48
447.88	29209.89
448.06	29560.97
448.25	30199.93
448.43	30504.20
448.62	29596.07
448.80	29727.14
448.99	29806.72
449.17	30150.78
449.36	29975.24
449.54	31271.90
449.73	31505.95
449.91	32217.47
450.10	32914.95
450.28	33289.44
450.46	33172.41
450.65	33015.60
450.83	32758.14
451.02	32320.46
451.20	31749.37
451.39	32133.21
451.57	31765.75
451.76	31887.46
451.94	31658.09
452.13	31019.12
452.31	29621.82
452.49	28259.63
452.68	28465.60
452.86	28545.17
453.05	28919.66
453.23	30061.84
453.42	30403.56
453.60	31309.35
453.78	31697.88
453.97	31501.27
454.15	31328.07
454.34	30611.87
454.52	30848.26
454.70	30000.99
454.89	30551.01
455.07	30714.85
455.26	30895.07
455.44	32112.15
455.62	32655.15
455.81	33074.11
455.99	32678.56
456.17	32496.00
456.36	31880.44
456.54	33123.26
456.73	33132.62
456.91	33699.03
457.09	33888.62
457.28	34728.87
457.46	33919.04
457.64	32982.83
457.83	32430.46
458.01	31098.70
458.19	31915.54
458.38	32444.51
458.56	33221.56
458.74	33329.23
458.93	32739.41
459.11	32723.03
459.29	32144.92
459.48	32484.30
459.66	32116.83
459.84	32552.17
460.03	33149.01
460.21	33074.11
460.39	34141.39
460.57	33612.43
460.76	34291.19
460.94	34581.42
461.12	33677.97
461.31	33916.70
461.49	33890.96
461.67	33750.52
461.85	34817.81
462.04	34562.69
462.22	34675.04
462.40	35044.84
462.59	34806.11
462.77	34913.77
462.95	34574.39
463.13	34272.46
463.32	34096.92
463.50	33441.57
463.68	33867.55
463.86	33834.78
464.05	33132.62
464.23	32390.67
464.41	32519.40
464.59	31704.90
464.78	33759.89
464.96	33315.19
465.14	33298.80
465.32	34087.56
465.50	34429.28
465.69	35182.93
465.87	34195.23
466.05	33701.37
466.23	32020.87
466.41	30995.71
466.60	31871.07
466.78	32077.04
466.96	32823.67
467.14	33642.86
467.32	33823.08
467.51	33944.79
467.69	32121.51
467.87	33132.62
468.05	33582.01
468.23	33692.01
468.41	33614.77
468.60	33940.11
468.78	33830.10
468.96	33310.50
469.14	34335.66
469.32	34452.69
469.50	32919.63
469.69	32905.59
469.87	32615.37
470.05	32538.13
470.23	32889.21
470.41	32577.92
470.59	32767.50
470.77	33289.44
470.95	33848.83
471.14	34300.55
471.32	34508.86
471.50	36198.73
471.68	36381.29
471.86	36842.37
472.04	36491.29
472.22	36465.55
472.40	35117.40
472.58	35028.46
472.77	34546.31
472.95	35199.32
473.13	35938.93
473.31	35082.29
473.49	35407.62
473.67	36109.78
473.85	36037.23
474.03	37254.31
474.21	37296.44
474.39	37333.89
474.57	37418.14
474.75	37614.75
474.93	37261.33
475.12	36622.36
475.30	36287.67
475.48	36685.56
475.66	37347.93
475.84	37029.62
476.02	36603.64
476.20	36414.05
476.38	37053.02
476.56	38022.00
476.74	38293.50
476.92	38490.11
477.10	38866.94
477.28	39924.86
477.46	40350.84
477.64	40456.16
477.82	40905.54
478.00	41228.54
478.18	40133.17
478.36	40137.85
478.54	39754.00
478.72	40425.73
478.90	41006.19
479.08	42260.71
479.26	42827.12
479.44	42564.98
479.62	42403.49
479.80	42663.28
479.98	42424.55
480.16	43173.52
480.34	42263.05
480.52	42937.13
480.70	43440.34
480.88	42983.94
481.06	43915.47
481.24	44065.27
481.41	44987.44
481.59	45745.77
481.77	45127.87
481.95	44549.76
482.13	44610.61
482.31	44643.38
482.49	45495.33
482.67	45504.70
482.85	45626.40
483.03	46251.33
483.21	46408.14
483.39	46017.27
483.57	45771.52
483.74	45237.87
483.92	45448.52
484.10	45883.86
484.28	47208.61
484.46	47042.43
484.64	47760.97
484.82	46513.47
485.00	46178.77
485.18	45317.45
485.35	44430.39
485.53	41015.55
485.71	37715.39
485.89	36816.63
486.07	38579.05
486.25	42220.92
486.43	44275.91
486.61	45261.28
486.78	45172.34
486.96	45280.00
487.14	47107.96
487.32	47896.72
487.50	49146.57
487.68	49776.17
487.85	50298.11
488.03	50328.54
488.21	50246.62
488.39	49162.95
488.57	48460.79
488.75	47789.06
488.92	49027.20
489.10	51358.38
489.28	52790.78
489.46	53546.78
489.64	53249.53
489.81	53584.22
489.99	52891.43
490.17	53191.01
490.35	53439.11
490.53	53235.48
490.70	52416.30
490.88	52163.52
491.06	53336.13
491.24	53289.32
491.41	52144.80
491.59	50681.96
491.77	50087.46
491.95	51313.90
492.13	52102.67
492.30	53296.34
492.48	54408.09
492.66	54768.54
492.84	54880.88
493.01	54728.75
493.19	53837.00
493.37	53902.54
493.54	53406.34
493.72	54162.34
493.90	55014.29
494.08	55805.39
494.25	56186.90
494.43	56240.73
494.61	56545.00
494.79	56732.25
494.96	56505.21
495.14	55866.25
495.32	55262.39
495.49	54253.62
495.67	55461.33
495.85	56783.74
496.02	56945.23
496.20	57048.22
496.38	56463.08
496.55	56357.76
496.73	56992.04
496.91	57034.17
497.09	57495.26
497.26	57862.72
497.44	57148.86
497.62	56617.56
497.79	55821.78
497.97	54560.23
498.14	55103.23
498.32	56013.70
498.50	56760.33
498.67	57364.19
498.85	57305.68
499.03	57502.28
499.20	57563.14
499.38	57792.51
499.56	57563.14
499.73	57022.47
499.91	56444.36
500.08	56259.46
500.26	55288.13
500.44	55835.82
500.61	56413.93
500.79	56259.46
500.97	56006.68
501.14	55819.44
501.32	55716.45
501.49	55709.43
501.67	55910.72
501.84	56336.69
502.02	56755.65
502.20	56952.26
502.37	56992.04
502.55	57270.57
502.72	57780.81
502.90	58211.46
503.07	57930.60
503.25	57670.80
503.43	56704.16
503.60	56104.98
503.78	55468.36
503.95	55873.27
504.13	57329.08
504.30	57975.07
504.48	57783.15
504.65	57406.32
504.83	57490.58
505.01	57946.98
505.18	58262.96
505.36	59058.74
505.53	58976.82
505.71	59175.76
505.88	59264.70
506.06	58635.10
506.23	58417.43
506.41	58096.78
506.58	58438.50
506.76	58389.34
506.93	58176.36
507.11	57886.13
507.28	58204.44
507.46	57979.75
507.63	56849.27
507.81	56755.65
507.98	57071.62
508.16	57705.91
508.33	58391.68
508.50	58616.38
508.68	58969.80
508.85	59423.86
509.03	59456.63
509.20	59334.92
509.38	58426.79
509.55	57497.60
509.73	57876.77
509.90	58539.14
510.08	58585.95
510.25	58609.35
510.42	58632.76
510.60	58389.34
510.77	58700.64
510.95	59021.29
511.12	59257.68
511.30	59578.34
511.47	59695.36
511.64	59660.26
511.82	59386.41
511.99	58571.91
512.17	58272.32
512.34	57792.51
512.51	57860.38
512.69	58220.83
512.86	58272.32
513.04	58796.60
513.21	58841.07
513.38	58225.51
513.56	57600.58
513.73	57375.89
513.90	57434.41
514.08	57591.22
514.25	57886.13
514.43	57996.13
514.60	57979.75
514.77	58396.37
514.95	58417.43
515.12	58405.73
515.29	58513.39
515.47	58951.07
515.64	59264.70
515.81	58805.96
515.99	58461.90
516.16	56844.59
516.33	54705.34
516.51	53317.40
516.68	52624.60
516.85	51901.38
517.03	52006.70
517.20	55192.17
517.37	57558.45
517.54	58487.65
517.72	57982.09
517.89	55337.29
518.06	53244.85
518.24	53457.84
518.41	55789.01
518.58	57020.13
518.75	57132.48
518.93	57352.49
519.10	57254.18
519.27	57495.26
519.45	57925.92
519.62	58564.88
519.79	58922.99
519.96	58770.85
520.14	58300.40
520.31	57371.21
520.48	57434.41
520.65	57712.93
520.83	58890.22
521.00	59110.23
521.17	58747.45
521.34	58560.20
521.52	58890.22
521.69	59274.07
521.86	59681.32
522.03	59419.18
522.20	58085.07
522.38	57062.26
522.55	57057.58
522.72	57874.43
522.89	58010.18
523.07	58056.99
523.24	58452.54
523.41	59058.74
523.58	59536.21
523.75	60048.78
523.92	59793.67
524.10	59763.24
524.27	59711.75
524.44	59447.27
524.61	59337.26
524.78	59035.33
524.96	59075.12
525.13	59089.16
525.30	59267.05
525.47	59664.94
525.64	59814.73
525.81	58993.20
525.98	57593.56
526.16	56392.87
526.33	55229.62
526.50	55604.11
526.67	54560.23
526.84	55430.91
527.01	56575.43
527.18	57169.93
527.36	58061.67
527.53	59011.93
527.70	59119.59
527.87	58499.35
528.04	58141.25
528.21	58740.42
528.38	59145.34
528.55	59718.77
528.72	60210.28
528.89	60224.32
529.07	59906.01
529.24	59271.73
529.41	58637.44
529.58	58145.93
529.75	58284.02
529.92	58670.21
530.09	59082.14
530.26	59529.19
530.43	59669.62
530.60	59767.92
530.77	59971.55
530.94	60322.63
531.11	59550.25
531.28	59295.13
531.46	59173.42
531.63	59468.33
531.80	59114.91
531.97	58597.65
532.14	58066.35
532.31	57022.47
532.48	56303.93
532.65	56596.49
532.82	57219.08
532.99	58520.41
533.16	58805.96
533.33	59243.64
533.50	59049.38
533.67	58403.39
533.84	58092.10
534.01	58220.83
534.18	58358.92
534.35	58756.81
534.52	58642.12
534.69	58803.62
534.86	59040.01
535.03	59318.54
535.20	59709.41
535.37	60025.38
535.54	60308.58
535.71	59880.27
535.88	59449.61
536.05	58845.75
536.22	58494.67
536.38	58169.33
536.55	57773.78
536.72	57350.15
536.89	56860.97
537.06	57860.38
537.23	58686.59
537.40	58789.58
537.57	59004.91
537.74	58639.78
537.91	58599.99
538.08	58672.55
538.25	58702.98
538.42	58831.71
538.59	58777.87
538.75	58181.04
538.92	57677.82
539.09	57687.18
539.26	57455.47
539.43	57457.81
539.60	57429.72
539.77	57490.58
539.94	57549.09
540.11	56580.11
540.28	56315.63
540.44	56170.52
540.61	56729.90
540.78	56666.71
540.95	57160.56
541.12	57673.14
541.29	57860.38
541.46	58122.52
541.62	58192.74
541.79	58019.54
541.96	57535.05
542.13	57308.02
542.30	57633.35
542.47	57909.53
542.63	57565.48
542.80	57478.88
542.97	57464.83
543.14	57338.44
543.31	57633.35
543.48	57958.69
543.64	58667.87
543.81	58953.41
543.98	59030.65
544.15	58239.55
544.32	57621.65
544.48	57633.35
544.65	58260.62
544.82	58426.79
544.99	58169.33
545.16	57762.08
545.32	57581.86
545.49	58202.10
545.66	58817.66
545.83	58326.15
546.00	57858.04
546.16	57600.58
546.33	57668.46
546.50	57640.37
546.67	58246.57
546.83	57836.98
547.00	57829.96
547.17	57158.22
547.34	56570.75
547.50	56404.57
547.67	56879.70
547.84	57083.33
548.00	57497.60
548.17	57855.70
548.34	57907.19
548.51	57635.69
548.67	57645.05
548.84	57975.07
549.01	57794.85
549.18	57811.23
549.34	57614.63
549.51	57523.35
549.68	57291.63
549.84	57240.14
550.01	57120.77
550.18	57085.67
550.34	57066.94
550.51	57254.18
550.68	57275.25
550.84	57050.56
551.01	56961.62
551.18	56767.35
551.34	57144.18
551.51	57251.84
551.68	57874.43
551.84	58007.84
552.01	57687.18
552.18	57406.32
552.34	56549.68
552.51	56247.75
552.68	56041.79
552.84	56629.26
553.01	56949.92
553.18	56772.03
553.34	56956.94
553.51	57008.43
553.67	57371.21
553.84	57385.25
554.01	57357.17
554.17	56877.36
554.34	57153.54
554.51	57106.73
554.67	57471.85
554.84	57223.76
555.00	57031.83
555.17	56739.27
555.33	56809.48
555.50	56933.53
555.67	56839.91
555.83	56598.83
556.00	56442.02
556.16	56207.97
556.33	55793.69
556.50	55924.76
556.66	55922.42
556.83	55489.42
556.99	55704.75
557.16	55805.39
557.32	56287.54
557.49	56640.96
557.65	56327.33
557.82	56266.48
557.98	56198.60
558.15	55468.36
558.32	54920.67
558.48	53745.72
558.65	54244.26
558.81	54553.21
558.98	55011.95
559.14	55112.59
559.31	55309.20
559.47	55086.85
559.64	54967.48
559.80	54490.01
559.97	54485.33
560.13	54939.39
560.30	55924.76
560.46	56425.64
560.63	56856.29
560.79	56760.33
560.96	56259.46
561.12	55075.15
561.29	54099.14
561.45	54396.39
561.61	54838.75
561.78	55255.37
561.94	55302.18
562.11	54876.20
562.27	54864.50
562.44	55196.85
562.60	55496.44
562.77	55917.74
562.93	55641.56
563.10	55552.62
563.26	54862.16
563.42	55093.87
563.59	54733.43
563.75	54864.50
563.92	54876.20
564.08	54775.56
564.24	54862.16
564.41	55091.53
564.57	54918.33
564.74	54717.04
564.90	54829.39
565.07	54534.48
565.23	54145.95
565.39	53968.07
565.56	53254.21
565.72	53198.04
565.88	53640.40
566.05	53778.49
566.21	53911.90
566.38	54024.25
566.54	54220.85
566.70	54478.31
566.87	54791.94
567.03	54869.18
567.19	54969.82
567.36	54810.67
567.52	54677.25
567.68	54466.61
567.85	53682.53
568.01	53261.23
568.17	52954.62
568.34	52830.57
568.50	52683.12
568.66	52952.28
568.83	53221.44
568.99	53247.19
569.15	53635.72
569.32	53450.81
569.48	53212.08
569.64	53118.46
569.81	52765.04
569.97	52971.00
570.13	52741.63
570.30	52065.22
570.46	51789.03
570.62	51070.49
570.78	51255.39
570.95	51150.07
571.11	52191.61
571.27	52210.33
571.43	52809.51
571.60	52664.39
571.76	52875.04
571.92	53226.12
572.09	53762.11
572.25	53631.04
572.41	53296.34
572.57	53006.11
572.74	53279.96
572.90	52552.05
573.06	52769.72
573.22	53020.16
573.38	52978.03
573.55	52722.91
573.71	52971.00
573.87	52842.27
574.03	52725.25
574.20	52603.54
574.36	52196.29
574.52	52046.49
574.68	51889.68
574.84	51440.29
575.01	51222.62
575.17	51100.92
575.33	51044.74
575.49	51477.74
575.65	51625.20
575.82	51711.80
575.98	51330.29
576.14	51899.04
576.30	52046.49
576.46	52032.45
576.62	51959.89
576.79	51910.74
576.95	51475.40
577.11	51578.39
577.27	51473.06
577.43	51325.61
577.59	51164.11
577.75	50614.08
577.92	50368.33
578.08	49621.70
578.24	49654.47
578.40	50337.90
578.56	50787.28
578.72	50518.12
578.88	50827.07
579.04	50887.93
579.21	50995.59
579.37	51175.81
579.53	51505.83
579.69	51187.52
579.85	51234.33
580.01	50965.17
580.17	50347.26
580.33	50691.32
580.49	50351.94
580.65	50862.18
580.82	51082.19
580.98	51208.58
581.14	50845.80
581.30	50894.95
581.46	50887.93
581.62	50960.48
581.78	50841.12
581.94	51510.51
582.10	51304.54
582.26	51206.24
582.42	51014.32
582.58	51089.21
582.74	51231.99
582.90	51224.96
583.06	51475.40
583.22	50665.58
583.38	51007.29
583.54	50705.37
583.70	50691.32
583.86	50876.22
584.02	50815.37
584.18	50632.81
584.34	50684.30
584.50	50408.12
584.66	50525.14
584.82	49991.50
584.98	49865.11
585.14	49411.05
585.30	48596.54
