SpectraSuite Data File
++++++++++++++++++++++++++++++++++++
Date: Mon Oct 07 14:54:58 GMT-05:00 2013
User: price-jones
Dark Spectrum Present: No
Reference Spectrum Present: No
Number of Sampled Component Spectra: 1
Spectrometers: USB2+H05261
Integration Time (usec): 10000 (USB2+H05261)
Spectra Averaged: 1 (USB2+H05261)
Boxcar Smoothing: 0 (USB2+H05261)
Correct for Electrical Dark: No (USB2+H05261)
Strobe/Lamp Enabled: No (USB2+H05261)
Correct for Detector Non-linearity: No (USB2+H05261)
Correct for Stray Light: No (USB2+H05261)
Number of Pixels in Processed Spectrum: 2048
>>>>>Begin Processed Spectral Data<<<<<
365.73	0.00
365.92	0.00
366.12	0.00
366.32	0.00
366.52	0.00
366.72	0.00
366.91	0.00
367.11	0.00
367.31	0.00
367.51	0.00
367.70	0.00
367.90	0.00
368.10	0.00
368.30	0.00
368.49	0.00
368.69	0.00
368.89	0.00
369.09	0.00
369.28	0.00
369.48	0.00
369.68	0.00
369.87	0.00
370.07	0.00
370.27	0.00
370.47	0.00
370.66	215.33
370.86	227.03
371.06	315.97
371.25	334.70
371.45	327.68
371.65	187.24
371.84	93.62
372.04	243.42
372.24	194.26
372.44	332.36
372.63	341.72
372.83	227.03
373.03	208.31
373.22	161.50
373.42	229.37
373.62	266.82
373.81	351.08
374.01	269.16
374.21	198.95
374.40	229.37
374.60	273.84
374.79	264.48
374.99	395.55
375.19	458.74
375.38	493.85
375.58	379.17
375.78	369.80
375.97	400.23
376.17	379.17
376.37	440.02
376.56	465.77
376.76	500.87
376.95	571.09
377.15	521.94
377.35	578.11
377.54	589.82
377.74	650.67
377.93	645.99
378.13	617.90
378.33	500.87
378.52	526.62
378.72	475.13
378.91	397.89
379.11	414.27
379.31	421.30
379.50	461.09
379.70	512.58
379.89	557.05
380.09	575.77
380.28	573.43
380.48	578.11
380.68	587.47
380.87	510.24
381.07	566.41
381.26	383.85
381.46	402.57
381.65	381.51
381.85	376.83
382.04	346.40
382.24	362.78
382.43	196.60
382.63	304.27
382.83	292.57
383.02	287.89
383.22	205.97
383.41	257.46
383.61	276.18
383.80	400.23
384.00	444.70
384.19	585.13
384.39	599.18
384.58	538.32
384.78	582.79
384.97	540.66
385.17	468.11
385.36	433.00
385.56	500.87
385.75	465.77
385.95	564.07
386.14	521.94
386.34	552.37
386.53	505.56
386.72	458.74
386.92	514.92
387.11	503.22
387.31	500.87
387.50	528.96
387.70	496.19
387.89	592.16
388.09	531.30
388.28	594.50
388.48	573.43
388.67	587.47
388.86	657.69
389.06	706.84
389.25	791.10
389.45	840.25
389.64	828.55
389.84	816.85
390.03	812.17
390.22	863.66
390.42	683.44
390.61	854.30
390.81	884.72
391.00	940.90
391.19	903.45
391.39	887.06
391.58	882.38
391.78	770.04
391.97	767.70
392.16	711.52
392.36	627.26
392.55	428.32
392.75	346.40
392.94	140.43
393.13	212.99
393.33	327.68
393.52	465.77
393.71	608.54
393.91	732.59
394.10	763.01
394.29	800.46
394.49	856.64
394.68	1032.18
394.88	1022.81
395.07	936.21
395.26	1078.99
395.46	966.64
395.65	976.00
395.84	734.93
396.04	528.96
396.23	451.72
396.42	374.49
396.62	301.93
396.81	428.32
397.00	512.58
397.19	819.19
397.39	924.51
397.58	1135.16
397.77	1128.14
397.97	1259.21
398.16	1193.67
398.35	1329.42
398.55	1420.71
398.74	1411.34
398.93	1434.75
399.12	1551.78
399.32	1413.68
399.51	1430.07
399.70	1556.46
399.90	1511.99
400.09	1530.71
400.28	1392.62
400.47	1516.67
400.67	1565.82
400.86	1624.33
401.05	1657.10
401.24	1593.90
401.44	1629.01
401.63	1659.44
401.82	1612.63
402.01	1636.03
402.21	1687.53
402.40	1533.05
402.59	1535.39
402.78	1603.27
402.97	1528.37
403.17	1544.75
403.36	1664.12
403.55	1741.36
403.74	1696.89
403.93	1682.85
404.13	1519.01
404.32	1425.39
404.51	1432.41
404.70	1717.95
404.89	1568.16
405.09	1645.40
405.28	1614.97
405.47	1626.67
405.66	1444.11
405.85	1488.58
406.05	1568.16
406.24	1544.75
406.43	1633.69
406.62	1636.03
406.81	1750.72
407.00	1577.52
407.20	1528.37
407.39	1612.63
407.58	1675.82
407.77	1689.87
407.96	1706.25
408.15	1736.68
408.34	1851.36
408.54	1863.07
408.73	1921.58
408.92	1830.30
409.11	1802.21
409.30	1636.03
409.49	1500.28
409.68	1493.26
409.87	1432.41
410.07	1500.28
410.26	1624.33
410.45	1694.55
410.64	1851.36
410.83	1919.24
411.02	1877.11
411.21	2136.91
411.40	1987.11
411.59	2050.31
411.78	2047.97
411.98	1942.64
412.17	1954.35
412.36	1895.83
412.55	1863.07
412.74	1860.73
412.93	1741.36
413.12	1853.70
413.31	2024.56
413.50	2122.87
413.69	2047.97
413.88	2008.18
414.07	1933.28
414.26	2003.50
414.45	2022.22
414.64	1987.11
414.83	2115.84
415.02	1842.00
415.22	2001.16
415.41	1975.41
415.60	2106.48
415.79	2279.68
415.98	2225.85
416.17	2282.02
416.36	2080.74
416.55	2165.00
416.74	2001.16
416.93	2003.50
417.12	2040.95
417.31	2022.22
417.50	2115.84
417.69	2209.47
417.88	2087.76
418.07	2118.18
418.26	2010.52
418.45	2167.34
418.64	2289.04
418.83	2249.25
419.02	2286.70
419.21	2207.13
419.39	2085.42
419.58	1940.30
419.77	1991.80
419.96	2132.23
420.15	2230.53
420.34	2342.88
420.53	2314.79
420.72	2429.48
420.91	2431.82
421.10	2443.52
421.29	2455.22
421.48	2260.96
421.67	2356.92
421.86	2310.11
422.05	2143.93
422.24	1858.39
422.43	1870.09
422.61	1977.75
422.80	2354.58
422.99	2305.43
423.18	2111.16
423.37	2010.52
423.56	2092.44
423.75	2090.10
423.94	2260.96
424.13	2026.90
424.32	2076.06
424.50	2127.55
424.69	2019.88
424.88	2057.33
425.07	2148.61
425.26	2015.20
425.45	2019.88
425.64	1966.05
425.83	1968.39
426.01	2148.61
426.20	2214.15
426.39	2181.38
426.58	2012.86
426.77	1870.09
426.96	1748.38
427.15	1760.08
427.33	2017.54
427.52	2083.08
427.71	2062.01
427.90	2118.18
428.09	2076.06
428.28	1998.82
428.46	1830.30
428.65	1877.11
428.84	1877.11
429.03	1959.03
429.22	1799.87
429.40	1837.32
429.59	1568.16
429.78	1497.94
429.97	1404.32
430.16	1390.28
430.34	1357.51
430.53	1448.79
430.72	1446.45
430.91	1565.82
431.10	1902.86
431.28	2333.51
431.47	2506.71
431.66	2537.14
431.85	2303.09
432.03	2019.88
432.22	1954.35
432.41	2111.16
432.60	2260.96
432.79	2445.86
432.97	2480.97
433.16	2385.01
433.35	2101.80
433.54	2050.31
433.72	1757.74
433.91	1842.00
434.10	2017.54
434.28	2310.11
434.47	2410.75
434.66	2366.28
434.85	2244.57
435.03	2218.83
435.22	2289.04
435.41	2420.11
435.59	2356.92
435.78	2523.10
435.97	2677.57
436.16	2635.44
436.34	2586.29
436.53	2495.01
436.72	2546.50
436.90	2340.54
437.09	2389.69
437.28	2251.60
437.46	2363.94
437.65	2352.24
437.84	2190.74
438.02	2026.90
438.21	1984.77
438.40	2099.46
438.58	2200.10
438.77	2342.88
438.96	2359.26
439.14	2462.24
439.33	2560.55
439.52	2523.10
439.70	2509.05
439.89	2509.05
440.08	2502.03
440.26	2289.04
440.45	2450.54
440.63	2754.81
440.82	2773.53
441.01	2642.46
441.19	2724.38
441.38	2731.41
441.57	2916.31
441.75	3000.57
441.94	2792.26
442.12	2848.43
442.31	2937.37
442.50	2993.55
442.68	2799.28
442.87	2860.13
443.05	2883.54
443.24	2881.20
443.43	2923.33
443.61	2991.20
443.80	3026.31
443.98	2839.07
444.17	2719.70
444.35	3023.97
444.54	3023.97
444.73	2942.05
444.91	3016.95
445.10	2846.09
445.28	2679.91
445.47	2628.42
445.65	2502.03
445.84	2684.59
446.02	2630.76
446.21	2722.04
446.39	2876.52
446.58	2883.54
446.77	2836.73
446.95	2932.69
447.14	3145.68
447.32	3091.85
447.51	3126.96
447.69	2839.07
447.88	2911.63
448.06	2946.73
448.25	2998.23
448.43	2972.48
448.62	3012.27
448.80	2949.08
448.99	2925.67
449.17	3047.38
449.36	2906.95
449.54	3033.33
449.73	3040.36
449.91	3080.14
450.10	3241.64
450.28	3124.62
450.46	3199.51
450.65	3066.10
450.83	3201.85
451.02	3220.58
451.20	3201.85
451.39	3089.51
451.57	3089.51
451.76	3157.38
451.94	3049.72
452.13	2979.50
452.31	2953.76
452.49	2649.49
452.68	2698.64
452.86	2719.70
453.05	2883.54
453.23	2820.35
453.42	2979.50
453.60	3026.31
453.78	2986.52
453.97	2972.48
454.15	2967.80
454.34	2958.44
454.52	2904.60
454.70	2963.12
454.89	2925.67
455.07	2939.71
455.26	3091.85
455.44	3084.83
455.62	3246.32
455.81	3110.57
455.99	3239.30
456.17	3180.79
456.36	3148.02
456.54	3094.19
456.73	3225.26
456.91	3417.18
457.09	3290.79
457.28	3248.66
457.46	3218.24
457.64	3229.94
457.83	3220.58
458.01	3009.93
458.19	3061.42
458.38	3080.14
458.56	3258.03
458.74	3363.35
458.93	3300.16
459.11	3098.87
459.29	3110.57
459.48	3126.96
459.66	3206.53
459.84	2923.33
460.03	3047.38
460.21	3269.73
460.39	3194.83
460.57	3162.06
460.76	3309.52
460.94	3227.60
461.12	3159.72
461.31	3260.37
461.49	3225.26
461.67	3286.11
461.85	3171.43
462.04	3344.63
462.22	3377.39
462.40	3363.35
462.59	3342.28
462.77	3311.86
462.95	3370.37
463.13	3370.37
463.32	3258.03
463.50	3213.56
463.68	3220.58
463.86	3258.03
464.05	3185.47
464.23	3133.98
464.41	3054.40
464.59	3145.68
464.78	3290.79
464.96	3229.94
465.14	3178.45
465.32	3255.69
465.50	3309.52
465.69	3447.61
465.87	3199.51
466.05	3232.28
466.23	3105.89
466.41	2998.23
466.60	3103.55
466.78	2998.23
466.96	3049.72
467.14	3045.04
467.32	3185.47
467.51	3157.38
467.69	3105.89
467.87	3082.49
468.05	3026.31
468.23	3047.38
468.41	3213.56
468.60	3187.81
468.78	3152.70
468.96	3192.49
469.14	3243.98
469.32	3026.31
469.50	3122.27
469.69	3183.13
469.87	3038.02
470.05	2942.05
470.23	3026.31
470.41	3129.30
470.59	3045.04
470.77	3213.56
470.95	3105.89
471.14	3316.54
471.32	3232.28
471.50	3445.27
471.68	3349.31
471.86	3473.36
472.04	3428.88
472.22	3602.08
472.40	3258.03
472.58	3164.40
472.77	3173.77
472.95	3283.77
473.13	3426.54
473.31	3283.77
473.49	3236.96
473.67	3323.56
473.85	3356.33
474.03	3440.59
474.21	3407.82
474.39	3548.25
474.57	3541.23
474.75	3604.42
474.93	3353.99
475.12	3375.05
475.30	3405.48
475.48	3489.74
475.66	3517.83
475.84	3337.60
476.02	3522.51
476.20	3316.54
476.38	3461.65
476.56	3639.53
476.74	3566.98
476.92	3627.83
477.10	3707.41
477.28	3772.94
477.46	3859.54
477.64	3847.84
477.82	3796.35
478.00	3756.56
478.18	3688.68
478.36	3742.52
478.54	3873.59
478.72	3707.41
478.90	3920.40
479.08	4072.53
479.26	4100.62
479.44	3934.44
479.62	3929.76
479.80	4058.49
479.98	4056.15
480.16	3948.48
480.34	3974.23
480.52	4079.55
480.70	4072.53
480.88	4105.30
481.06	4191.90
481.24	4126.36
481.41	4278.50
481.59	4404.89
481.77	4308.93
481.95	4386.16
482.13	4187.22
482.31	4241.05
482.49	4135.73
482.67	4170.83
482.85	4252.75
483.03	4461.06
483.21	4262.12
483.39	4362.76
483.57	4182.54
483.74	4292.54
483.92	4229.35
484.10	4507.87
484.28	4582.77
484.46	4521.92
484.64	4578.09
484.82	4463.40
485.00	4318.29
485.18	4367.44
485.35	4121.68
485.53	3786.99
485.71	3463.99
485.89	3349.31
486.07	3508.46
486.25	3810.39
486.43	4212.96
486.61	4131.05
486.78	4119.34
486.96	4266.80
487.14	4521.92
487.32	4533.62
487.50	4821.50
487.68	4844.91
487.85	4650.64
488.03	4898.74
488.21	4669.37
488.39	4578.09
488.57	4617.88
488.75	4512.55
488.92	4683.41
489.10	4959.60
489.28	5289.61
489.46	5226.42
489.64	5205.35
489.81	5399.62
489.99	5231.10
490.17	5242.80
490.35	5284.93
490.53	5336.42
490.70	5200.67
490.88	5261.52
491.06	5472.17
491.24	5324.72
491.41	5205.35
491.59	4896.40
491.77	4826.18
491.95	4964.28
492.13	5217.05
492.30	5345.78
492.48	5296.63
492.66	5476.85
492.84	5558.77
493.01	5565.79
493.19	5572.82
493.37	5455.79
493.54	5313.02
493.72	5561.11
493.90	5568.13
494.08	5879.43
494.25	5851.34
494.43	5884.11
494.61	5926.24
494.79	5867.72
494.96	5825.59
495.14	5935.60
495.32	5600.90
495.49	5479.19
495.67	5720.27
495.85	5968.37
496.02	5881.77
496.20	6047.94
496.38	5935.60
496.55	5994.11
496.73	6003.47
496.91	6211.78
497.09	6300.72
497.26	6120.50
497.44	6071.35
497.62	6005.81
497.79	5692.18
497.97	5699.20
498.14	5467.49
498.32	5701.54
498.50	6036.24
498.67	6148.59
498.85	6026.88
499.03	6256.25
499.20	6043.26
499.38	6174.33
499.56	6141.57
499.73	6169.65
499.91	5863.04
500.08	5844.32
500.26	5645.37
500.44	5743.67
500.61	5994.11
500.79	5944.96
500.97	5795.17
501.14	5738.99
501.32	5804.53
501.49	5570.48
501.67	5703.89
501.84	5827.93
502.02	6012.84
502.20	5994.11
502.37	6209.44
502.55	5961.34
502.72	6104.12
502.90	6209.44
503.07	6230.51
503.25	6104.12
503.43	6003.47
503.60	5797.51
503.78	5659.42
503.95	5631.33
504.13	6076.03
504.30	6141.57
504.48	6174.33
504.65	5914.53
504.83	6176.67
505.01	6232.85
505.18	6183.70
505.36	6469.24
505.53	6502.01
505.71	6424.77
505.88	6506.69
506.06	6274.98
506.23	6181.35
506.41	6125.18
506.58	6319.45
506.76	6148.59
506.93	6127.52
507.11	6179.01
507.28	6235.19
507.46	6157.95
507.63	5954.32
507.81	5872.40
507.98	5825.59
508.16	6113.48
508.33	6296.04
508.50	6321.79
508.68	6553.50
508.85	6523.07
509.03	6588.61
509.20	6384.98
509.38	6260.93
509.55	6080.71
509.73	6059.65
509.90	6251.57
510.08	6223.48
510.25	6267.95
510.42	6012.84
510.60	6132.20
510.77	6274.98
510.95	6258.59
511.12	6422.43
511.30	6516.05
511.47	6668.19
511.64	6593.29
511.82	6455.20
511.99	6340.51
512.17	6286.68
512.34	6122.84
512.51	6136.88
512.69	6209.44
512.86	5959.00
513.04	6183.70
513.21	6307.74
513.38	6083.05
513.56	6038.58
513.73	6083.05
513.90	6024.54
514.08	5902.83
514.25	6101.78
514.43	6132.20
514.60	6265.61
514.77	6209.44
514.95	6249.23
515.12	6167.31
515.29	6202.42
515.47	6445.84
515.64	6471.58
515.81	6349.87
515.99	6282.00
516.16	5818.57
516.33	5320.04
516.51	5200.67
516.68	4901.08
516.85	4975.98
517.03	4973.64
517.20	5371.53
517.37	5888.79
517.54	6061.99
517.72	6054.97
517.89	5556.43
518.06	5097.69
518.24	5188.97
518.41	5486.22
518.58	5947.30
518.75	5823.25
518.93	5750.70
519.10	5977.73
519.27	5956.66
519.45	6134.54
519.62	6211.78
519.79	5956.66
519.96	6139.23
520.14	6193.06
520.31	6019.86
520.48	5841.98
520.65	5823.25
520.83	6101.78
521.00	6249.23
521.17	6347.53
521.34	5989.43
521.52	5996.45
521.69	6239.87
521.86	6513.71
522.03	6452.86
522.20	6092.41
522.38	5954.32
522.55	5884.11
522.72	6001.13
522.89	6029.22
523.07	6064.33
523.24	6040.92
523.41	6207.10
523.58	6277.32
523.75	6399.02
523.92	6326.47
524.10	6389.66
524.27	6408.39
524.44	6483.28
524.61	6324.13
524.78	6214.12
524.96	6361.58
525.13	6211.78
525.30	6396.68
525.47	6452.86
525.64	6497.33
525.81	6244.55
525.98	5949.64
526.16	5666.44
526.33	5397.28
526.50	5404.30
526.67	5322.38
526.84	5502.60
527.01	5636.01
527.18	5722.61
527.36	5884.11
527.53	6141.57
527.70	6263.27
527.87	6150.93
528.04	6057.31
528.21	6204.76
528.38	6392.00
528.55	6452.86
528.72	6590.95
528.89	6654.14
529.07	6539.46
529.24	6186.04
529.41	6146.25
529.58	5802.19
529.75	5839.64
529.92	6022.20
530.09	6300.72
530.26	6438.81
530.43	6612.01
530.60	6340.51
530.77	6621.38
530.94	6544.14
531.11	6478.60
531.28	6361.58
531.46	6071.35
531.63	6349.87
531.80	6345.19
531.97	6195.40
532.14	6099.44
532.31	5802.19
532.48	5507.28
532.65	5664.10
532.82	5870.06
532.99	6043.26
533.16	6136.88
533.33	6347.53
533.50	6197.74
533.67	6064.33
533.84	6050.28
534.01	6047.94
534.18	5984.75
534.35	6211.78
534.52	6076.03
534.69	6143.91
534.86	6204.76
535.03	6434.13
535.20	6225.82
535.37	6590.95
535.54	6497.33
535.71	6356.90
535.88	6324.13
536.05	6047.94
536.22	6071.35
536.38	6080.71
536.55	5982.41
536.72	5858.36
536.89	5633.67
537.06	5884.11
537.23	6244.55
537.40	6193.06
537.57	6225.82
537.74	6054.97
537.91	6069.01
538.08	5996.45
538.25	6071.35
538.42	6127.52
538.59	6125.18
538.75	5858.36
538.92	5830.27
539.09	5895.81
539.26	5849.00
539.43	5818.57
539.60	5900.49
539.77	5879.43
539.94	5830.27
540.11	5621.97
540.28	5483.88
540.44	5710.91
540.61	5640.69
540.78	5610.26
540.95	5586.86
541.12	5877.09
541.29	5877.09
541.46	5996.45
541.62	5898.15
541.79	5804.53
541.96	5863.04
542.13	5898.15
542.30	5820.91
542.47	5975.39
542.63	5799.85
542.80	5741.33
542.97	5778.78
543.14	5879.43
543.31	5813.89
543.48	5806.87
543.64	6064.33
543.81	6136.88
543.98	6157.95
544.15	5928.58
544.32	5755.38
544.48	5764.74
544.65	6024.54
544.82	6097.10
544.99	5998.79
545.16	5788.14
545.32	5659.42
545.49	6094.76
545.66	6083.05
545.83	6076.03
546.00	5870.06
546.16	5916.87
546.33	5898.15
546.50	5841.98
546.67	5790.49
546.83	5795.17
547.00	5788.14
547.17	5825.59
547.34	5687.50
547.50	5392.59
547.67	5427.70
547.84	5589.20
548.00	5682.82
548.17	5757.72
548.34	5767.08
548.51	5788.14
548.67	5830.27
548.84	5893.47
549.01	5736.65
549.18	5858.36
549.34	5675.80
549.51	5687.50
549.68	5785.80
549.84	5738.99
550.01	5727.29
550.18	5748.36
550.34	5743.67
550.51	5568.13
550.68	5692.18
550.84	5624.31
551.01	5617.29
551.18	5490.90
551.34	5533.03
551.51	5593.88
551.68	5827.93
551.84	5654.73
552.01	5827.93
552.18	5687.50
552.34	5514.30
552.51	5598.56
552.68	5418.34
552.84	5706.23
553.01	5645.37
553.18	5638.35
553.34	5575.16
553.51	5598.56
553.67	5540.05
553.84	5841.98
554.01	5736.65
554.17	5647.71
554.34	5650.05
554.51	5706.23
554.67	5802.19
554.84	5685.16
555.00	5633.67
555.17	5575.16
555.33	5593.88
555.50	5675.80
555.67	5640.69
555.83	5628.99
556.00	5493.24
556.16	5331.74
556.33	5303.65
556.50	5355.15
556.66	5383.23
556.83	5224.08
556.99	5114.07
557.16	5392.59
557.32	5336.42
557.49	5427.70
557.65	5657.07
557.82	5430.04
557.98	5320.04
558.15	5369.19
558.32	5181.95
558.48	4966.62
558.65	5027.47
558.81	5025.13
558.98	5245.14
559.14	5179.61
559.31	5144.50
559.47	5329.40
559.64	5093.01
559.80	4992.36
559.97	4994.70
560.13	5193.65
560.30	5373.87
560.46	5432.38
560.63	5643.03
560.79	5481.53
560.96	5542.39
561.12	5179.61
561.29	5104.71
561.45	5130.45
561.61	5174.92
561.78	5327.06
561.94	5226.42
562.11	5114.07
562.27	5188.97
562.44	5401.96
562.60	5231.10
562.77	5317.70
562.93	5343.44
563.10	5305.99
563.26	5116.41
563.42	5240.46
563.59	5198.33
563.75	5071.94
563.92	5078.96
564.08	5158.54
564.24	5198.33
564.41	5226.42
564.57	5057.90
564.74	5137.48
564.90	5064.92
565.07	5095.35
565.23	4950.23
565.39	4959.60
565.56	4777.03
565.72	4723.20
565.88	4884.70
566.05	4805.12
566.21	4861.29
566.38	5032.15
566.54	5011.09
566.70	4997.04
566.87	5057.90
567.03	5036.83
567.19	5088.32
567.36	4971.30
567.52	5055.56
567.68	5015.77
567.85	4847.25
568.01	4877.68
568.17	4706.82
568.34	4833.21
568.50	4734.90
568.66	4730.22
568.83	4875.34
568.99	4755.97
569.15	4865.97
569.32	4868.31
569.48	4896.40
569.64	4667.03
569.81	4781.71
569.97	4615.54
570.13	4692.77
570.30	4629.58
570.46	4624.90
570.62	4388.50
570.78	4477.44
570.95	4512.55
571.11	4798.10
571.27	4713.84
571.43	4706.82
571.60	4802.78
571.76	4746.61
571.92	4732.56
572.09	4730.22
572.25	4851.93
572.41	4800.44
572.57	4814.48
572.74	4784.06
572.90	4727.88
573.06	4716.18
573.22	4723.20
573.38	4685.75
573.55	4615.54
573.71	4781.71
573.87	4873.00
574.03	4889.38
574.20	4748.95
574.36	4674.05
574.52	4613.20
574.68	4678.73
574.84	4510.21
575.01	4496.17
575.17	4514.89
575.33	4393.19
575.49	4512.55
575.65	4697.46
575.82	4409.57
575.98	4557.02
576.14	4550.00
576.30	4568.73
576.46	4596.81
576.62	4519.57
576.79	4652.98
576.95	4613.20
577.11	4411.91
577.27	4449.36
577.43	4503.19
577.59	4482.13
577.75	4580.43
577.92	4285.52
578.08	4332.33
578.24	4393.19
578.40	4510.21
578.56	4367.44
578.72	4369.78
578.88	4299.56
579.04	4449.36
579.21	4477.44
579.37	4461.06
579.53	4297.22
579.69	4430.63
579.85	4468.08
580.01	4517.23
580.17	4332.33
580.33	4383.82
580.49	4432.97
580.65	4372.12
580.82	4372.12
580.98	4442.34
581.14	4559.36
581.30	4440.00
581.46	4472.76
581.62	4449.36
581.78	4531.28
581.94	4432.97
582.10	4447.02
582.26	4423.61
582.42	4402.55
582.58	4365.10
582.74	4383.82
582.90	4517.23
583.06	4482.13
583.22	4297.22
583.38	4421.27
583.54	4538.30
583.70	4327.65
583.86	4627.24
584.02	4287.86
584.18	4372.12
584.34	4329.99
584.50	4374.46
584.66	4229.35
584.82	4304.25
584.98	4189.56
585.14	4114.66
585.30	4009.34
585.46	4016.36
585.62	4107.64
585.78	4283.18
585.94	4166.15
586.10	4184.88
586.26	4271.48
586.42	4287.86
586.58	4173.18
586.74	4128.70
586.90	4217.65
587.06	4152.11
587.22	4203.60
587.38	4241.05
587.54	4194.24
587.70	4243.39
587.86	4016.36
588.02	3950.82
588.18	3957.85
588.34	3857.20
588.49	3688.68
588.65	3314.20
588.81	3424.20
588.97	3452.29
589.13	3419.52
589.29	3361.01
589.45	3499.10
589.61	3709.75
589.77	3751.88
589.93	3936.78
590.08	3978.91
590.24	4067.85
590.40	4030.40
590.56	3960.19
590.72	3953.16
590.88	3962.53
591.04	3810.39
591.20	3960.19
591.35	3875.93
591.51	3918.06
591.67	3758.90
591.83	3873.59
591.99	3934.44
592.15	3960.19
592.31	3901.67
592.46	3962.53
592.62	3971.89
592.78	3770.60
592.94	3894.65
593.10	3805.71
593.26	3925.08
593.41	3925.08
593.57	3995.29
593.73	3810.39
593.89	3969.55
594.05	3691.02
594.20	3873.59
594.36	3716.77
594.52	3777.62
594.68	3592.72
594.84	3693.37
594.99	3810.39
595.15	3875.93
595.31	3761.24
595.47	3789.33
595.62	3763.58
595.78	3913.38
595.94	3737.84
596.10	3904.01
596.25	3794.01
596.41	3779.97
596.57	3779.97
596.73	3712.09
596.88	3794.01
597.04	3775.28
597.20	3868.91
597.36	3686.34
597.51	3695.71
597.67	3667.62
597.83	3833.80
597.99	3775.28
