SpectraSuite Data File
++++++++++++++++++++++++++++++++++++
Date: Mon Oct 07 14:53:27 GMT-05:00 2013
User: price-jones
Dark Spectrum Present: No
Reference Spectrum Present: No
Number of Sampled Component Spectra: 1
Spectrometers: USB2+H05261
Integration Time (usec): 100000 (USB2+H05261)
Spectra Averaged: 1 (USB2+H05261)
Boxcar Smoothing: 0 (USB2+H05261)
Correct for Electrical Dark: No (USB2+H05261)
Strobe/Lamp Enabled: No (USB2+H05261)
Correct for Detector Non-linearity: No (USB2+H05261)
Correct for Stray Light: No (USB2+H05261)
Number of Pixels in Processed Spectrum: 2048
>>>>>Begin Processed Spectral Data<<<<<
365.73	0.00
365.92	0.00
366.12	0.00
366.32	0.00
366.52	0.00
366.72	0.00
366.91	0.00
367.11	0.00
367.31	0.00
367.51	0.00
367.70	0.00
367.90	0.00
368.10	0.00
368.30	0.00
368.49	0.00
368.69	0.00
368.89	0.00
369.09	0.00
369.28	0.00
369.48	0.00
369.68	0.00
369.87	0.00
370.07	0.00
370.27	0.00
370.47	557.05
370.66	3269.73
370.86	3911.04
371.06	4308.93
371.25	4475.10
371.45	3967.21
371.65	3428.88
371.84	3393.78
372.04	3410.16
372.24	3854.86
372.44	4084.23
372.63	4007.00
372.83	3791.67
373.03	3225.26
373.22	3112.91
373.42	3304.84
373.62	3669.96
373.81	4091.26
374.01	3934.44
374.21	3524.85
374.40	3356.33
374.60	3555.27
374.79	3880.61
374.99	4505.53
375.19	4746.61
375.38	5067.26
375.58	4566.39
375.78	4449.36
375.97	4652.98
376.17	4760.65
376.37	4709.16
376.56	4865.97
376.76	5310.68
376.95	5521.32
377.15	5811.55
377.35	6029.22
377.54	6312.42
377.74	6328.81
377.93	6555.84
378.13	6342.85
378.33	6047.94
378.52	5767.08
378.72	5207.69
378.91	5364.51
379.11	5104.71
379.31	5074.28
379.50	4814.48
379.70	5371.53
379.89	5830.27
380.09	6127.52
380.28	6359.24
380.48	6455.20
380.68	6305.40
380.87	5954.32
381.07	5750.70
381.26	5263.86
381.46	4915.12
381.65	4706.82
381.85	4547.66
382.04	4414.25
382.24	4259.78
382.43	3918.06
382.63	3889.97
382.83	3889.97
383.02	4009.34
383.22	3906.35
383.41	4032.74
383.61	4198.92
383.80	4830.87
384.00	5383.23
384.19	5916.87
384.39	6209.44
384.58	6303.06
384.78	6331.15
384.97	6218.80
385.17	5874.74
385.36	5465.15
385.56	5500.26
385.75	5425.36
385.95	6099.44
386.14	6560.52
386.34	6532.44
386.53	6141.57
386.72	5959.00
386.92	5909.85
387.11	6242.21
387.31	6462.22
387.50	6726.70
387.70	6190.72
387.89	6218.80
388.09	6218.80
388.28	6174.33
388.48	6434.13
388.67	6857.77
388.86	7372.69
389.06	8006.97
389.25	8510.19
389.45	8549.98
389.64	8367.42
389.84	8390.82
390.03	8212.94
390.22	8313.58
390.42	8395.50
390.61	9039.15
390.81	9598.54
391.00	9745.99
391.19	9724.93
391.39	9418.32
391.58	8978.30
391.78	8521.89
391.97	8049.10
392.16	7503.76
392.36	6822.66
392.55	5556.43
392.75	4376.80
392.94	3578.68
393.13	3545.91
393.33	4276.16
393.52	5413.66
393.71	6609.67
393.91	7550.57
394.10	8102.93
394.29	8901.06
394.49	9514.28
394.68	10380.28
394.88	10335.81
395.07	10824.98
395.26	10668.16
395.46	10260.91
395.65	9673.43
395.84	8339.33
396.04	7108.21
396.23	5837.30
396.42	4943.21
396.62	4629.58
396.81	5455.79
397.00	7002.88
397.19	8549.98
397.39	10312.40
397.58	11889.92
397.77	12617.83
397.97	12760.60
398.16	13062.53
398.35	13778.73
398.55	14120.45
398.74	14380.25
398.93	14686.86
399.12	14251.52
399.32	13905.12
399.51	14272.59
399.70	15176.03
399.90	15042.62
400.09	14995.81
400.28	14853.04
400.47	15068.37
400.67	15819.68
400.86	16009.26
401.05	16137.99
401.24	16301.83
401.44	16301.83
401.63	16793.34
401.82	16826.11
402.01	16695.04
402.21	16884.62
402.40	16978.25
402.59	16524.18
402.78	15754.15
402.97	15206.46
403.17	15836.06
403.36	16779.30
403.55	17219.32
403.74	17921.48
403.93	16933.78
404.13	15522.43
404.32	15484.98
404.51	16137.99
404.70	17184.21
404.89	17062.51
405.09	17057.82
405.28	16332.26
405.47	16575.67
405.66	16589.72
405.85	16116.93
406.05	15587.97
406.24	15700.31
406.43	16315.87
406.62	17270.81
406.81	17191.23
407.00	16992.29
407.20	16243.32
407.39	16266.72
407.58	16793.34
407.77	17797.43
407.96	18354.48
408.15	18438.74
408.34	18782.80
408.54	19566.88
408.73	19433.47
408.92	19171.33
409.11	18501.93
409.30	18017.44
409.49	16615.46
409.68	15728.40
409.87	14909.21
410.07	16109.91
410.26	17511.89
410.45	18434.06
410.64	18920.89
410.83	19697.95
411.02	19924.98
411.21	21102.27
411.40	20540.54
411.59	20891.62
411.78	20666.93
411.98	20126.27
412.17	20690.34
412.36	20201.16
412.55	20320.53
412.74	19955.41
412.93	19021.53
413.12	19571.56
413.31	21240.36
413.50	21846.56
413.69	21891.03
413.88	21193.55
414.07	20631.82
414.26	20889.28
414.45	21469.73
414.64	21481.44
414.83	21600.80
415.02	21207.59
415.22	21205.25
415.41	21673.36
415.60	22342.75
415.79	23157.26
415.98	23601.96
416.17	23454.51
416.36	22981.72
416.55	23122.15
416.74	22202.32
416.93	21296.53
417.12	21687.40
417.31	21818.47
417.50	22001.04
417.69	22794.48
417.88	23056.62
418.07	22403.61
418.26	22324.03
418.45	21926.14
418.64	23089.38
418.83	24032.62
419.02	23896.87
419.21	23756.44
419.39	22129.77
419.58	21713.15
419.77	21263.77
419.96	22300.62
420.15	23407.70
420.34	24184.76
420.53	25319.92
420.72	25343.32
420.91	25343.32
421.10	25032.03
421.29	24737.12
421.48	23826.65
421.67	25090.54
421.86	24463.28
422.05	22876.40
422.24	21088.23
422.43	20156.69
422.61	22527.66
422.80	24032.62
422.99	24187.10
423.18	23498.98
423.37	22906.82
423.56	23049.60
423.75	23323.44
423.94	24151.99
424.13	22747.67
424.32	22916.19
424.50	22890.44
424.69	22438.72
424.88	22857.67
425.07	22618.94
425.26	22574.47
425.45	22281.90
425.64	22288.92
425.83	22057.21
426.01	23007.47
426.20	24222.20
426.39	23751.76
426.58	22061.89
426.77	20549.90
426.96	19480.28
427.15	19971.79
427.33	22185.94
427.52	23002.78
427.71	22785.12
427.90	22782.77
428.09	22581.49
428.28	22094.66
428.46	21322.28
428.65	20840.13
428.84	21310.58
429.03	21626.55
429.22	20767.57
429.40	19721.35
429.59	17921.48
429.78	15590.31
429.97	15896.92
430.16	16056.08
430.34	16002.24
430.53	15936.71
430.72	16266.72
430.91	18171.92
431.10	21078.86
431.28	25202.89
431.47	26941.91
431.66	27524.70
431.85	25303.53
432.03	23087.04
432.22	21884.01
432.41	22951.29
432.60	25298.85
432.79	26434.01
432.97	27136.17
433.16	26389.54
433.35	24503.07
433.54	21633.57
433.72	20720.76
433.91	21207.59
434.10	23080.02
434.28	25198.21
434.47	26536.99
434.66	26066.55
434.85	25453.33
435.03	25097.56
435.22	25940.16
435.41	27117.45
435.59	27199.37
435.78	27742.37
435.97	28514.75
436.16	28559.22
436.34	28231.54
436.53	27744.71
436.72	27983.44
436.90	25912.07
437.09	26185.91
437.28	25738.87
437.46	26796.79
437.65	26923.18
437.84	24924.36
438.02	22899.80
438.21	22923.21
438.40	23477.91
438.58	26115.70
438.77	26965.31
438.96	26843.60
439.14	28004.51
439.33	28521.77
439.52	29090.52
439.70	28341.55
439.89	27957.70
440.08	27187.66
440.26	27030.85
440.45	28027.92
440.63	29745.87
440.82	31147.85
441.01	30747.62
441.19	30466.75
441.38	30639.95
441.57	32266.63
441.75	32390.67
441.94	32851.76
442.12	32519.40
442.31	33401.79
442.50	32987.51
442.68	32926.66
442.87	32318.12
443.05	32077.04
443.24	32107.47
443.43	32669.20
443.61	33418.17
443.80	33900.32
443.98	32245.56
444.17	32151.94
444.35	33858.19
444.54	34373.11
444.73	34106.29
444.91	32882.19
445.10	31208.70
445.28	30103.97
445.47	29949.50
445.65	29607.78
445.84	31021.46
446.02	31639.36
446.21	32617.71
446.39	32341.52
446.58	32903.25
446.77	33308.16
446.95	33378.38
447.14	34375.45
447.32	35110.38
447.51	34096.92
447.69	33083.47
447.88	32788.56
448.06	33104.54
448.25	33603.07
448.43	33900.32
448.62	32870.48
448.80	33399.44
448.99	33752.87
449.17	33680.31
449.36	33385.40
449.54	34513.54
449.73	35601.89
449.91	36086.38
450.10	36727.69
450.28	37048.34
450.46	36912.59
450.65	37177.07
450.83	36744.07
451.02	35824.24
451.20	35810.20
451.39	35894.46
451.57	35433.37
451.76	35388.90
451.94	35180.59
452.13	34967.60
452.31	33221.56
452.49	31505.95
452.68	31948.31
452.86	32465.57
453.05	32694.94
453.23	33422.85
453.42	34422.26
453.60	35470.82
453.78	35384.22
453.97	35402.94
454.15	34962.92
454.34	34174.16
454.52	34649.29
454.70	33472.00
454.89	33780.95
455.07	34768.66
455.26	34820.15
455.44	36336.82
455.62	36875.14
455.81	37273.03
455.99	36463.21
456.17	36201.07
456.36	36444.48
456.54	37755.18
456.73	37490.70
456.91	37996.26
457.09	37663.90
457.28	38646.93
457.46	37453.25
457.64	36659.81
457.83	36079.36
458.01	35072.93
458.19	35992.76
458.38	36357.88
458.56	37652.20
458.74	37413.46
458.93	36734.71
459.11	36589.59
459.29	36385.97
459.48	36664.49
459.66	36498.31
459.84	36699.60
460.03	37003.87
460.21	36943.02
460.39	38134.35
460.57	38323.93
460.76	38340.32
460.94	38541.60
461.12	37635.81
461.31	38052.43
461.49	38162.43
461.67	38242.01
461.85	39194.61
462.04	39079.92
462.22	39475.48
462.40	39206.31
462.59	38782.68
462.77	39021.41
462.95	39157.16
463.13	38153.07
463.32	38534.58
463.50	38160.09
463.68	38422.23
463.86	37876.89
464.05	37603.05
464.23	36531.08
464.41	36994.51
464.59	35882.75
464.78	37916.68
464.96	37834.76
465.14	37497.72
465.32	38394.15
465.50	39124.40
465.69	39594.84
465.87	38679.69
466.05	37558.58
466.23	36268.94
466.41	35379.54
466.60	36374.27
466.78	36315.75
466.96	36980.46
467.14	37610.07
467.32	38190.52
467.51	38295.85
467.69	36357.88
467.87	37308.14
468.05	37855.82
468.23	38089.88
468.41	38026.68
468.60	38033.71
468.78	38471.39
468.96	37525.81
469.14	38778.00
469.32	38281.80
469.50	37329.20
469.69	37525.81
469.87	37095.15
470.05	36271.28
470.23	36861.10
470.41	36421.08
470.59	37495.38
470.77	37223.88
470.95	38157.75
471.14	38499.47
471.32	38483.09
471.50	40617.66
471.68	41160.66
471.86	41258.96
472.04	41626.43
472.22	41677.92
472.40	39452.07
472.58	39288.23
472.77	38637.56
472.95	39686.12
473.13	40741.71
473.31	39566.76
473.49	39985.71
473.67	40409.35
473.85	40767.45
474.03	41933.04
474.21	41816.01
474.39	42363.70
474.57	42216.24
474.75	42824.78
474.93	41860.48
475.12	41045.97
475.30	41567.91
475.48	41488.34
475.66	41790.27
475.84	41556.21
476.02	41315.14
476.20	40535.74
476.38	41242.58
476.56	42909.04
476.74	43040.11
476.92	43540.99
477.10	43995.05
477.28	45055.31
477.46	44966.37
477.64	45464.91
477.82	45605.34
478.00	45420.44
478.18	44877.43
478.36	44753.38
478.54	45106.80
478.72	45434.48
478.90	46384.74
479.08	47388.83
479.26	47880.34
479.44	47442.66
479.62	47594.79
479.80	47290.52
479.98	47318.61
480.16	47807.78
480.34	47606.50
480.52	47569.05
480.70	47796.08
480.88	48058.22
481.06	48949.96
481.24	49301.04
481.41	50059.38
481.59	50508.76
481.77	50169.38
481.95	49572.55
482.13	49425.09
482.31	49595.95
482.49	50155.34
482.67	49965.76
482.85	50475.99
483.03	50834.10
483.21	51222.62
483.39	50918.35
483.57	50373.01
483.74	50061.72
483.92	50728.77
484.10	50473.65
484.28	51669.67
484.46	51868.61
484.64	52402.25
484.82	51255.39
485.00	51168.79
485.18	50216.19
485.35	49354.88
485.53	45982.16
485.71	42536.90
485.89	41790.27
486.07	43761.00
486.25	47351.38
486.43	49387.64
486.61	50038.31
486.78	50188.11
486.96	49989.16
487.14	51669.67
487.32	52540.35
487.50	53191.01
487.68	53911.90
487.85	54340.22
488.03	54450.22
488.21	53986.80
488.39	53347.83
488.57	52720.57
488.75	52236.08
488.92	53612.31
489.10	55372.39
489.28	56390.53
489.46	56912.47
489.64	56811.82
489.81	57181.63
489.99	56685.43
490.17	56853.95
490.35	57013.11
490.53	56336.69
490.70	56210.31
490.88	56308.61
491.06	57226.10
491.24	57240.14
491.41	56196.26
491.59	54915.99
491.77	54459.58
491.95	55138.34
492.13	56404.57
492.30	57165.24
492.48	57991.45
492.66	58300.40
492.84	58475.94
493.01	58150.61
493.19	57495.26
493.37	57673.14
493.54	57223.76
493.72	57755.06
493.90	58529.78
494.08	59192.15
494.25	59391.09
494.43	59702.38
494.61	60083.89
494.79	60219.64
494.96	59831.11
495.14	59405.14
495.32	58564.88
495.49	57991.45
495.67	58820.00
495.85	60016.02
496.02	60413.91
496.20	60360.08
496.38	59884.95
496.55	59571.32
496.73	59938.78
496.91	60266.45
497.09	60786.05
497.26	60996.70
497.44	60589.45
497.62	60013.68
497.79	59458.97
497.97	58244.23
498.14	58258.27
498.32	59346.62
498.50	60409.23
498.67	60975.64
498.85	60652.64
499.03	60685.41
499.20	60849.25
499.38	60886.70
499.56	60774.35
499.73	60334.33
499.91	60147.09
500.08	59695.36
500.26	58887.88
500.44	59358.33
500.61	59784.30
500.79	59859.20
500.97	59447.27
501.14	59292.79
501.32	59276.41
501.49	59281.09
501.67	59402.80
501.84	59803.03
502.02	60041.76
502.20	60434.97
502.37	60474.76
502.55	60809.46
502.72	61113.73
502.90	61474.17
503.07	61195.65
503.25	60938.19
503.43	59952.82
503.60	59489.40
503.78	59040.01
503.95	59482.37
504.13	60591.79
504.30	61410.98
504.48	61188.63
504.65	60678.39
504.83	60858.61
505.01	61478.85
505.18	61902.49
505.36	62267.61
505.53	62197.40
505.71	62576.56
505.88	62658.48
506.06	61951.64
506.23	61984.41
506.41	61167.56
506.58	61748.01
506.76	61410.98
506.93	61570.13
507.11	61300.97
507.28	61347.78
507.46	60879.67
507.63	60296.88
507.81	60348.37
507.98	60821.16
508.16	61200.33
508.33	61516.30
508.50	61963.34
508.68	62166.97
508.85	62738.06
509.03	62714.65
509.20	62684.23
509.38	61869.72
509.55	61188.63
509.73	61230.75
509.90	61738.65
510.08	62096.75
510.25	61935.26
510.42	61834.61
510.60	61661.41
510.77	62120.16
510.95	62541.45
511.12	62588.27
511.30	62852.75
511.47	63107.86
511.64	62960.41
511.82	62618.69
511.99	61897.81
512.17	61682.48
512.34	61230.75
512.51	61497.58
512.69	61661.41
512.86	61769.08
513.04	62176.33
513.21	62066.33
513.38	61726.95
513.56	61179.26
513.73	60477.10
513.90	60992.02
514.08	61090.32
514.25	61373.53
514.43	61307.99
514.60	61579.49
514.77	61635.67
514.95	61822.91
515.12	61588.86
515.29	61867.38
515.47	62361.23
515.64	62539.11
515.81	62162.29
515.99	61432.04
516.16	60383.48
516.33	58431.47
516.51	57221.42
516.68	56348.40
516.85	55711.77
517.03	56676.07
517.20	58841.07
517.37	60802.44
517.54	61799.50
517.72	61312.67
517.89	59114.91
518.06	56870.34
518.24	57282.27
518.41	59281.09
518.58	60566.04
518.75	60622.22
518.93	60879.67
519.10	60748.60
519.27	61109.05
519.45	61609.92
519.62	61897.81
519.79	62415.07
519.96	62157.61
520.14	61684.82
520.31	60842.23
520.48	61050.53
520.65	61338.42
520.83	62150.59
521.00	62333.15
521.17	62089.73
521.34	61855.68
521.52	62024.20
521.69	62562.52
521.86	62869.13
522.03	62665.50
522.20	61670.78
522.38	60809.46
522.55	60692.43
522.72	61251.82
522.89	61361.82
523.07	61378.21
523.24	61794.82
523.41	62424.43
523.58	62960.41
523.75	63283.40
523.92	63147.65
524.10	63016.58
524.27	63058.71
524.44	62731.04
524.61	62733.38
524.78	62529.75
524.96	62564.86
525.13	62522.73
525.30	62803.59
525.47	63199.15
525.64	63056.37
525.81	62410.38
525.98	61139.47
526.16	59847.50
526.33	59400.46
526.50	58834.05
526.67	58548.50
526.84	59241.30
527.01	60121.34
527.18	60867.97
527.36	61616.94
527.53	62248.89
527.70	62599.97
527.87	61998.45
528.04	61673.12
528.21	62127.18
528.38	62658.48
528.55	63257.66
528.72	63505.76
528.89	63627.46
529.07	63313.83
529.24	62890.19
529.41	62092.07
529.58	61633.33
529.75	61879.08
529.92	62276.97
530.09	62583.58
530.26	63039.99
530.43	63238.93
530.60	63274.04
530.77	63463.63
530.94	63599.38
531.11	63098.50
531.28	62810.62
531.46	62635.08
531.63	62852.75
531.80	62681.89
531.97	62291.02
532.14	61691.84
532.31	60713.50
532.48	60189.22
532.65	60100.28
532.82	61134.79
532.99	61825.25
533.16	62286.34
533.33	62808.28
533.50	62585.92
533.67	62080.37
533.84	61638.01
534.01	61808.87
534.18	61958.66
534.35	62276.97
534.52	62103.77
534.69	62295.70
534.86	62618.69
535.03	62674.87
535.20	63035.31
535.37	63529.16
535.54	63554.91
535.71	63138.29
535.88	63199.15
536.05	62466.56
536.22	62178.67
536.38	61921.21
536.55	61329.06
536.72	60987.34
536.89	60753.29
537.06	61623.96
537.23	62445.49
537.40	62560.18
537.57	62604.65
537.74	62447.83
537.91	62298.04
538.08	62225.48
538.25	62312.08
538.42	62405.70
538.59	62319.10
538.75	61659.07
538.92	61478.85
539.09	61396.93
539.26	61111.39
539.43	61155.86
539.60	61118.41
539.77	61394.59
539.94	61244.80
540.11	60453.70
540.28	60051.12
540.44	60137.72
540.61	60413.91
540.78	60406.89
540.95	60931.17
541.12	61212.03
541.29	61682.48
541.46	61787.80
541.62	61740.99
541.79	61740.99
541.96	61188.63
542.13	61013.08
542.30	61469.49
542.47	61694.18
542.63	61418.00
542.80	61307.99
542.97	61319.70
543.14	61165.22
543.31	61097.34
543.48	61598.22
543.64	62314.42
543.81	62714.65
543.98	62335.49
544.15	61488.21
544.32	61230.75
544.48	61563.11
544.65	61818.23
544.82	62021.86
544.99	61888.45
545.16	61432.04
545.32	61219.05
545.49	61984.41
545.66	62431.45
545.83	61909.51
546.00	61525.66
546.16	61233.10
546.33	61286.93
546.50	61338.42
546.67	61902.49
546.83	61331.40
547.00	61333.74
547.17	60893.72
547.34	60418.59
547.50	60378.80
547.67	60603.49
547.84	60783.71
548.00	61200.33
548.17	61457.79
548.34	61499.92
548.51	61359.48
548.67	61474.17
548.84	61593.54
549.01	61408.64
549.18	61453.11
549.34	61230.75
549.51	61354.80
549.68	61190.97
549.84	61071.60
550.01	61139.47
550.18	60898.40
550.34	60907.76
550.51	60928.83
550.68	61104.37
550.84	60596.47
551.01	60664.35
551.18	60830.52
551.34	60800.10
551.51	61249.48
551.68	61504.60
551.84	61418.00
552.01	61345.44
552.18	61233.10
552.34	60449.02
552.51	60154.11
552.68	60168.15
552.84	60559.02
553.01	60764.99
553.18	60542.64
553.34	60764.99
553.51	60788.39
553.67	61073.94
553.84	61219.05
554.01	61193.31
554.17	60931.17
554.34	61078.62
554.51	61282.25
554.67	61413.32
554.84	61240.12
555.00	60999.04
555.17	60769.67
555.33	60860.95
555.50	60748.60
555.67	60781.37
555.83	60636.26
556.00	60383.48
556.16	60285.18
556.33	59924.74
556.50	59821.75
556.66	59845.16
556.83	59566.63
556.99	59856.86
557.16	59800.69
557.32	60135.38
557.49	60519.23
557.65	60285.18
557.82	60130.70
557.98	60006.65
558.15	59554.93
558.32	58859.79
558.48	58286.36
558.65	58511.05
558.81	58667.87
558.98	58904.26
559.14	59260.02
559.31	59224.92
559.47	59182.79
559.64	58866.81
559.80	58646.80
559.97	58468.92
560.13	59114.91
560.30	60027.72
560.46	60470.08
560.63	60601.15
560.79	60449.02
560.96	60362.42
561.12	59391.09
561.29	58344.87
561.45	58401.05
561.61	59075.12
561.78	59529.19
561.94	59227.26
562.11	59194.49
562.27	58990.86
562.44	59344.28
562.60	59873.24
562.77	59781.96
562.93	59683.66
563.10	59505.78
563.26	59157.04
563.42	59018.95
563.59	58911.28
563.75	58953.41
563.92	58880.86
564.08	59164.06
564.24	59182.79
564.41	59178.10
564.57	59269.39
564.74	58955.75
564.90	58995.54
565.07	58770.85
565.23	58384.66
565.39	57813.57
565.56	57696.55
565.72	57366.53
565.88	57773.78
566.05	58087.42
566.21	58351.90
566.38	58522.76
566.54	58599.99
566.70	58791.92
566.87	59030.65
567.03	58791.92
567.19	59206.19
567.36	58810.64
567.52	58700.64
567.68	58597.65
567.85	57949.32
568.01	57492.92
568.17	57130.14
568.34	57240.14
568.50	57240.14
568.66	57308.02
568.83	57883.79
568.99	57846.34
569.15	58152.95
569.32	57956.35
569.48	57628.67
569.64	57427.38
569.81	57378.23
569.97	57125.46
570.13	56973.32
570.30	56655.01
570.46	56339.04
570.62	56011.36
570.78	55927.10
570.95	56135.41
571.11	56692.46
571.27	56800.12
571.43	56966.30
571.60	57478.88
571.76	57586.54
571.92	57794.85
572.09	57946.98
572.25	57961.03
572.41	57656.76
572.57	57647.39
572.74	57638.03
572.90	57361.85
573.06	57190.99
573.22	57195.67
573.38	57186.31
573.55	57216.74
573.71	57663.78
573.87	57329.08
574.03	57172.27
574.20	57212.06
574.36	56790.76
574.52	56741.61
574.68	56446.70
574.84	56315.63
575.01	55971.57
575.17	55838.16
575.33	55856.88
575.49	56301.59
575.65	56437.34
575.82	56308.61
575.98	56097.96
576.14	56385.85
576.30	56392.87
576.46	56629.26
576.62	56526.28
576.79	56545.00
576.95	56142.43
577.11	56266.48
577.27	56072.21
577.43	56502.87
577.59	55948.17
577.75	55671.98
577.92	55124.30
578.08	54946.42
578.24	55021.31
578.40	55192.17
578.56	55559.64
578.72	55466.02
578.88	55796.03
579.04	55662.62
579.21	56011.36
579.37	55987.95
579.53	56002.00
579.69	56149.45
579.85	56177.54
580.01	56147.11
580.17	55585.38
580.33	55522.19
580.49	55426.23
580.65	55798.37
580.82	55901.36
580.98	55889.65
581.14	55863.91
581.30	55920.08
581.46	55987.95
581.62	56023.06
581.78	55908.38
581.94	56266.48
582.10	56081.58
582.26	55976.25
582.42	56095.62
582.58	55856.88
582.74	56083.92
582.90	56030.08
583.06	56151.79
583.22	55765.60
583.38	55952.85
583.54	55824.12
583.70	55868.59
583.86	55852.20
584.02	55590.06
584.18	55758.58
584.34	55550.27
584.50	55480.06
584.66	55533.89
584.82	55011.95
584.98	55241.32
585.14	54621.08
