SpectraSuite Data File
++++++++++++++++++++++++++++++++++++
Date: Mon Oct 07 14:53:42 GMT-05:00 2013
User: price-jones
Dark Spectrum Present: No
Reference Spectrum Present: No
Number of Sampled Component Spectra: 1
Spectrometers: USB2+H05261
Integration Time (usec): 100000 (USB2+H05261)
Spectra Averaged: 1 (USB2+H05261)
Boxcar Smoothing: 0 (USB2+H05261)
Correct for Electrical Dark: No (USB2+H05261)
Strobe/Lamp Enabled: No (USB2+H05261)
Correct for Detector Non-linearity: No (USB2+H05261)
Correct for Stray Light: No (USB2+H05261)
Number of Pixels in Processed Spectrum: 2048
>>>>>Begin Processed Spectral Data<<<<<
365.73	0.00
365.92	0.00
366.12	0.00
366.32	0.00
366.52	0.00
366.72	0.00
366.91	0.00
367.11	0.00
367.31	0.00
367.51	0.00
367.70	0.00
367.90	0.00
368.10	0.00
368.30	0.00
368.49	0.00
368.69	0.00
368.89	0.00
369.09	0.00
369.28	0.00
369.48	0.00
369.68	0.00
369.87	0.00
370.07	0.00
370.27	0.00
370.47	720.88
370.66	3667.62
370.86	4348.72
371.06	4568.73
371.25	4564.04
371.45	4264.46
371.65	3817.41
371.84	3574.00
372.04	3885.29
372.24	4098.28
372.44	4404.89
372.63	4191.90
372.83	3950.82
373.03	3653.58
373.22	3258.03
373.42	3463.99
373.62	4091.26
373.81	4381.48
374.01	4273.82
374.21	3934.44
374.40	3691.02
374.60	3763.58
374.79	4297.22
374.99	4882.36
375.19	5284.93
375.38	5291.95
375.58	5055.56
375.78	5032.15
375.97	4961.94
376.17	5249.82
376.37	5163.22
376.56	5397.28
376.76	5516.64
376.95	5977.73
377.15	6258.59
377.35	6642.44
377.54	6736.06
377.74	7131.61
377.93	7276.73
378.13	6848.41
378.33	6675.21
378.52	5830.27
378.72	5830.27
378.91	5928.58
379.11	5598.56
379.31	5533.03
379.50	5343.44
379.70	5724.95
379.89	6368.60
380.09	6703.29
380.28	7143.32
380.48	6977.14
380.68	6815.64
380.87	6740.74
381.07	6235.19
381.26	5874.74
381.46	5362.17
381.65	5130.45
381.85	4954.91
382.04	4854.27
382.24	4493.83
382.43	4360.42
382.63	4140.41
382.83	4208.28
383.02	4353.40
383.22	4266.80
383.41	4299.56
383.61	4484.47
383.80	5193.65
384.00	5949.64
384.19	6693.93
384.39	7007.56
384.58	6953.73
384.78	6890.54
384.97	6829.68
385.17	6422.43
385.36	6040.92
385.56	5724.95
385.75	5994.11
385.95	6586.27
386.14	7117.57
386.34	7204.17
386.53	6897.56
386.72	6361.58
386.92	6384.98
387.11	6679.89
387.31	7171.40
387.50	7063.74
387.70	6881.18
387.89	6839.05
388.09	6892.88
388.28	6778.19
388.48	6963.09
388.67	7459.29
388.86	8102.93
389.06	8706.79
389.25	9149.15
389.45	9174.90
389.64	9177.24
389.84	9142.13
390.03	8950.21
390.22	9062.55
390.42	9282.56
390.61	10001.11
390.81	10576.88
391.00	10686.89
391.19	10555.82
391.39	10272.61
391.58	9797.48
391.78	8999.36
391.97	8762.97
392.16	8149.75
392.36	7714.41
392.55	6237.53
392.75	4896.40
392.94	3997.64
393.13	3854.86
393.33	4596.81
393.52	5834.96
393.71	7239.28
393.91	8133.36
394.10	8718.50
394.29	9610.24
394.49	10319.42
394.68	11393.73
394.88	11466.28
395.07	11613.74
395.26	11449.90
395.46	11545.86
395.65	10611.99
395.84	9186.60
396.04	7850.16
396.23	6553.50
396.42	5352.81
396.62	5132.79
396.81	5991.77
397.00	7555.25
397.19	9404.27
397.39	11377.34
397.58	12678.68
397.77	13659.37
397.97	14218.75
398.16	14387.27
398.35	14579.20
398.55	14958.36
398.74	15882.88
398.93	16126.29
399.12	15761.17
399.32	15363.28
399.51	15648.82
399.70	16828.45
399.90	16458.65
400.09	16678.66
400.28	16315.87
400.47	16280.77
400.67	17556.36
400.86	17827.86
401.05	17561.04
401.24	17907.44
401.44	18207.03
401.63	18134.47
401.82	18398.95
402.01	18249.16
402.21	18389.59
402.40	18700.88
402.59	18174.26
402.78	17121.02
402.97	16580.36
403.17	17525.93
403.36	18326.39
403.55	19119.84
403.74	19414.74
403.93	18389.59
404.13	17291.88
404.32	16634.19
404.51	17390.18
404.70	18757.05
404.89	18902.17
405.09	18647.05
405.28	18125.11
405.47	17914.46
405.66	18036.17
405.85	17418.27
406.05	17074.21
406.24	17348.05
406.43	17947.23
406.62	18675.13
406.81	18927.91
407.00	18148.51
407.20	17589.13
407.39	17972.97
407.58	18384.91
407.77	19318.78
407.96	20091.16
408.15	20402.45
408.34	20278.40
408.54	21158.44
408.73	21160.78
408.92	21116.31
409.11	20643.52
409.30	19665.18
409.49	18288.95
409.68	17034.42
409.87	16528.86
410.07	17551.68
410.26	19035.58
410.45	20257.34
410.64	20973.54
410.83	21371.43
411.02	22008.06
411.21	22780.43
411.40	22232.75
411.59	22546.38
411.78	22335.73
411.98	22464.46
412.17	22719.58
412.36	22199.98
412.55	21937.84
412.74	21713.15
412.93	21518.89
413.12	21439.31
413.31	23147.90
413.50	23201.73
413.69	24039.64
413.88	23002.78
414.07	22384.88
414.26	23014.49
414.45	23695.58
414.64	23414.72
414.83	23929.64
415.02	23136.20
415.22	23367.91
415.41	24030.28
415.60	24446.90
415.79	26024.42
415.98	26171.87
416.17	26403.58
416.36	25575.03
416.55	25132.67
416.74	24222.20
416.93	23400.68
417.12	23789.20
417.31	23627.71
417.50	24444.56
417.69	24751.17
417.88	24886.92
418.07	24685.63
418.26	24294.76
418.45	24376.68
418.64	25359.70
418.83	26314.64
419.02	25933.14
419.21	25827.81
419.39	24496.05
419.58	23552.81
419.77	23302.37
419.96	24500.73
420.15	25713.13
420.34	26525.29
420.53	27573.85
420.72	27892.16
420.91	27913.23
421.10	27304.69
421.29	27405.33
421.48	26368.48
421.67	27480.23
421.86	26876.37
422.05	25214.59
422.24	22422.33
422.43	22415.31
422.61	24538.18
422.80	26733.60
422.99	26815.52
423.18	25993.99
423.37	25191.19
423.56	25266.08
423.75	25797.38
423.94	26167.19
424.13	25060.12
424.32	25212.25
424.50	25008.62
424.69	24659.88
424.88	24858.83
425.07	24657.54
425.26	24910.32
425.45	24372.00
425.64	24060.71
425.83	23997.51
426.01	25827.81
426.20	26333.37
426.39	26029.10
426.58	24053.69
426.77	22293.60
426.96	21680.38
427.15	22448.08
427.33	24294.76
427.52	25041.39
427.71	25294.17
427.90	24816.70
428.09	24922.02
428.28	24194.12
428.46	23166.62
428.65	22803.84
428.84	23520.04
429.03	23896.87
429.22	22916.19
429.40	21207.59
429.59	19442.83
429.78	17238.05
429.97	17481.46
430.16	17446.35
430.34	17429.97
430.53	17692.11
430.72	17965.95
430.91	19749.44
431.10	23248.54
431.28	27742.37
431.47	29783.32
431.66	29970.56
431.85	27351.50
432.03	25249.70
432.22	24245.61
432.41	25228.63
432.60	27517.68
432.79	28776.89
432.97	29748.21
433.16	29081.16
433.35	26408.26
433.54	24053.69
433.72	22546.38
433.91	23005.13
434.10	25369.07
434.28	27400.65
434.47	29071.79
434.66	28868.17
434.85	27772.80
435.03	27658.11
435.22	28411.76
435.41	29680.33
435.59	29937.79
435.78	30808.47
435.97	30998.06
436.16	31384.24
436.34	30932.52
436.53	30281.85
436.72	30473.78
436.90	28795.61
437.09	28914.98
437.28	27974.08
437.46	29322.23
437.65	29261.38
437.84	27424.06
438.02	25123.31
438.21	24463.28
438.40	26047.82
438.58	28254.95
438.77	29333.93
438.96	29432.24
439.14	30551.01
439.33	31442.76
439.52	32196.41
439.70	31257.85
439.89	30384.83
440.08	29888.64
440.26	29757.57
440.45	30448.03
440.63	32540.47
440.82	34110.97
441.01	33694.35
441.19	33467.32
441.38	34047.77
441.57	35264.85
441.75	35807.86
441.94	35887.43
442.12	36140.21
442.31	36610.66
442.50	36421.08
442.68	35807.86
442.87	35384.22
443.05	34787.38
443.24	35243.79
443.43	36060.63
443.61	36947.70
443.80	37361.97
443.98	35098.67
444.17	34998.03
444.35	36985.15
444.54	37638.15
444.73	37031.96
444.91	35475.50
445.10	34684.40
445.28	33027.30
445.47	32411.74
445.65	32591.96
445.84	33979.90
446.02	34834.19
446.21	35452.09
446.39	35431.03
446.58	35646.36
446.77	36704.28
446.95	36835.35
447.14	37848.80
447.32	38022.00
447.51	37387.72
447.69	36123.83
447.88	35515.29
448.06	36353.20
448.25	36964.08
448.43	37123.24
448.62	36854.08
448.80	36224.47
448.99	36727.69
449.17	36921.95
449.36	36875.14
449.54	38328.61
449.73	38490.11
449.91	39643.99
450.10	40208.06
450.28	41067.04
450.46	40774.47
450.65	40512.33
450.83	40407.01
451.02	39318.66
451.20	39321.00
451.39	39164.18
451.57	38752.25
451.76	39026.09
451.94	38576.71
452.13	38480.75
452.31	36514.70
452.49	34787.38
452.68	34906.75
452.86	35285.92
453.05	35608.91
453.23	36837.69
453.42	37371.33
453.60	38609.48
453.78	38981.62
453.97	38316.91
454.15	38422.23
454.34	37750.50
454.52	37872.21
454.70	37043.66
454.89	37769.22
455.07	37607.73
455.26	37993.92
455.44	39360.79
455.62	39924.86
455.81	40388.28
455.99	40100.40
456.17	39627.61
456.36	39817.19
456.54	40727.66
456.73	40657.45
456.91	41525.78
457.09	41607.70
457.28	42333.27
457.46	40840.01
457.64	40538.08
457.83	39019.07
458.01	38515.86
458.19	39452.07
458.38	39454.41
458.56	41312.80
458.74	40701.92
458.93	40423.39
459.11	40046.57
459.29	39660.38
459.48	39962.31
459.66	39653.36
459.84	40135.51
460.03	40870.43
460.21	40769.79
460.39	41375.99
460.57	41556.21
460.76	42050.06
460.94	42466.68
461.12	41387.69
461.31	41839.42
461.49	41565.57
461.67	41572.60
461.85	43117.35
462.04	42794.36
462.22	42731.16
462.40	43014.37
462.59	42431.57
462.77	42581.37
462.95	42817.76
463.13	41956.44
463.32	42270.08
463.50	41542.17
463.68	41834.74
463.86	41834.74
464.05	41354.93
464.23	40495.95
464.41	39826.56
464.59	39622.93
464.78	41673.24
464.96	41251.94
465.14	41130.23
465.32	42377.74
465.50	43234.38
465.69	43175.86
465.87	42398.80
466.05	41436.84
466.23	39517.60
466.41	38995.67
466.60	39793.79
466.78	39796.13
466.96	40638.72
467.14	40765.11
467.32	41937.72
467.51	41682.60
467.69	40051.25
467.87	40769.79
468.05	41209.81
468.23	40905.54
468.41	41612.38
468.60	41481.31
468.78	41874.52
468.96	41015.55
469.14	42424.55
469.32	42525.19
469.50	40505.31
469.69	40774.47
469.87	40336.79
470.05	40142.53
470.23	40147.21
470.41	40680.85
470.59	41092.79
470.77	41104.49
470.95	41970.49
471.14	42429.23
471.32	42555.62
471.50	44439.75
471.68	44643.38
471.86	44996.80
472.04	45626.40
472.22	45490.65
472.40	43360.76
472.58	42696.05
472.77	42445.62
472.95	43473.11
473.13	44479.54
473.31	43140.75
473.49	43077.56
473.67	43952.92
473.85	43948.24
474.03	45469.59
474.21	45284.68
474.39	46178.77
474.57	46164.73
474.75	46316.86
474.93	45741.09
475.12	44734.66
475.30	44839.98
475.48	45399.37
475.66	45687.26
475.84	45284.68
476.02	44996.80
476.20	44250.17
476.38	45052.97
476.56	46017.27
476.74	47063.49
476.92	46864.55
477.10	47508.19
477.28	48657.40
477.46	48980.39
477.64	49359.56
477.82	49317.43
478.00	49380.62
478.18	48903.15
478.36	48704.21
478.54	48666.76
478.72	48987.41
478.90	49691.91
479.08	50567.27
479.26	50993.25
479.44	51037.72
479.62	50766.22
479.80	50642.17
479.98	51145.39
480.16	51398.16
480.34	50869.20
480.52	51182.84
480.70	51604.13
480.88	51267.09
481.06	52369.49
481.24	52299.27
481.41	53294.00
481.59	53661.46
481.77	53282.30
481.95	53109.10
482.13	52835.25
482.31	52713.55
482.49	53399.32
482.67	53062.29
482.85	53471.88
483.03	53799.55
483.21	54241.92
483.39	53928.28
483.57	53764.45
483.74	53125.48
483.92	53750.40
484.10	53717.64
484.28	54745.13
484.46	54562.57
484.64	55028.34
484.82	54284.04
485.00	53881.47
485.18	53537.41
485.35	52516.94
485.53	50171.72
485.71	46693.69
485.89	45483.63
486.07	47517.56
486.25	50742.81
486.43	52418.64
486.61	53382.94
486.78	53162.93
486.96	53272.93
487.14	54635.13
487.32	55213.24
487.50	56081.58
487.68	56488.83
487.85	57090.35
488.03	57097.37
488.21	56870.34
488.39	55924.76
488.57	55758.58
488.75	55388.78
488.92	56104.98
489.10	57860.38
489.28	58866.81
489.46	59554.93
489.64	59334.92
489.81	59482.37
489.99	59337.26
490.17	59147.68
490.35	59463.65
490.53	59288.11
490.70	58894.90
490.88	58805.96
491.06	59585.36
491.24	59517.48
491.41	58845.75
491.59	57387.60
491.77	56769.69
491.95	57539.73
492.13	58693.61
492.30	59538.55
492.48	60439.65
492.66	60673.71
492.84	60825.84
493.01	60587.11
493.19	60142.41
493.37	59957.50
493.54	59550.25
493.72	59901.33
493.90	60973.30
494.08	61778.44
494.25	61916.53
494.43	62017.17
494.61	62276.97
494.79	62443.15
494.96	62211.44
495.14	61563.11
495.32	60874.99
495.49	60406.89
495.67	61249.48
495.85	62099.09
496.02	62700.61
496.20	62501.67
496.38	62225.48
496.55	62108.46
496.73	62581.24
496.91	62553.16
497.09	63210.85
497.26	63203.83
497.44	62691.25
497.62	62361.23
497.79	61872.06
497.97	60640.94
498.14	60741.58
498.32	61719.93
498.50	62323.78
498.67	63271.70
498.85	63016.58
499.03	62948.71
499.20	63217.87
499.38	63278.72
499.56	63025.95
499.73	62735.72
499.91	62391.66
500.08	61886.10
500.26	61247.14
500.44	61776.10
500.61	62321.44
500.79	62211.44
500.97	61872.06
501.14	61762.06
501.32	61544.39
501.49	61584.18
501.67	61935.26
501.84	62232.50
502.02	62321.44
502.20	62852.75
502.37	62955.73
502.55	62869.13
502.72	63215.53
502.90	63774.92
503.07	63444.90
503.25	63222.55
503.43	62560.18
503.60	61827.59
503.78	61389.91
503.95	61705.88
504.13	62871.47
504.30	63587.67
504.48	63367.66
504.65	63032.97
504.83	63114.89
505.01	63702.36
505.18	63920.03
505.36	64439.63
505.53	64484.10
505.71	64830.50
505.88	64851.56
506.06	64250.05
506.23	64062.80
506.41	63590.01
506.58	63786.62
506.76	63781.94
506.93	63873.22
507.11	63559.59
507.28	63697.68
507.46	63297.45
507.63	62780.19
507.81	62649.12
507.98	62810.62
508.16	63456.60
508.33	63934.07
508.50	64231.32
508.68	64509.85
508.85	64935.82
509.03	64774.33
509.20	64884.33
509.38	64156.42
509.55	63482.35
509.73	63449.58
509.90	64018.33
510.08	64280.47
510.25	64210.26
510.42	64121.32
510.60	64013.65
510.77	64205.58
510.95	64650.28
511.12	64683.04
511.30	65123.07
511.47	65453.08
511.64	65338.40
511.82	64903.06
511.99	64315.58
512.17	63810.03
512.34	63578.31
512.51	63807.68
512.69	63889.60
512.86	63795.98
513.04	64271.11
513.21	64259.41
513.38	64065.14
513.56	63550.23
513.73	63107.86
513.90	63295.11
514.08	63325.53
514.25	63716.40
514.43	63653.21
514.60	63746.83
514.77	64135.36
514.95	64081.53
515.12	63969.18
515.29	64203.24
515.47	64479.42
515.64	64842.20
515.81	64451.33
515.99	64004.29
516.16	62768.49
516.33	60699.45
516.51	59580.68
516.68	59032.99
516.85	58733.40
517.03	58812.98
517.20	60905.42
517.37	63159.36
517.54	64023.01
517.72	63625.12
517.89	61876.74
518.06	59540.89
518.24	59653.23
518.41	61659.07
518.58	62651.46
518.75	63196.80
518.93	63096.16
519.10	63014.24
519.27	63519.80
519.45	63674.27
519.62	64240.68
519.79	64556.66
519.96	64374.09
520.14	64037.06
520.31	63316.17
520.48	63510.44
520.65	63498.73
520.83	64512.19
521.00	64757.94
521.17	64479.42
521.34	64030.04
521.52	64395.16
521.69	64769.64
521.86	65230.73
522.03	64935.82
522.20	63870.88
522.38	62955.73
522.55	63030.63
522.72	63449.58
522.89	63676.61
523.07	63795.98
523.24	64081.53
523.41	64886.67
523.58	65102.00
523.75	65535.00
523.92	65396.91
524.10	65293.92
524.27	65270.52
524.44	65146.47
524.61	65123.07
524.78	64910.08
524.96	64741.56
525.13	64755.60
525.30	64889.01
525.47	65464.78
525.64	65235.41
525.81	64673.68
525.98	63655.55
526.16	62192.72
526.33	61703.54
526.50	61478.85
526.67	61029.47
526.84	61567.79
527.01	62480.60
527.18	63091.48
527.36	63749.17
527.53	64577.72
527.70	64947.53
527.87	64334.31
528.04	63812.37
528.21	64402.18
528.38	64903.06
528.55	65535.00
528.72	65535.00
528.89	65535.00
529.07	65535.00
529.24	65174.56
529.41	64568.36
529.58	63987.91
529.75	64048.76
529.92	64420.90
530.09	64830.50
530.26	65284.56
530.43	65535.00
530.60	65525.64
530.77	65535.00
530.94	65535.00
531.11	65310.31
531.28	64942.84
531.46	65010.72
531.63	65087.96
531.80	64921.78
531.97	64451.33
532.14	63810.03
532.31	63086.80
532.48	62464.22
532.65	62518.05
532.82	63194.46
532.99	64292.18
533.16	64448.99
533.33	65097.32
533.50	64722.83
533.67	64441.97
533.84	63805.34
534.01	64219.62
534.18	64303.88
534.35	64406.86
534.52	64338.99
534.69	64463.03
534.86	64914.76
535.03	65052.85
535.20	65392.23
535.37	65535.00
535.54	65535.00
535.71	65535.00
535.88	65282.22
536.05	64701.77
536.22	64481.76
536.38	64083.87
536.55	63700.02
536.72	63173.40
536.89	63051.69
537.06	63896.62
537.23	64446.65
537.40	64729.86
537.57	64825.82
537.74	64573.04
537.91	64465.38
538.08	64355.37
538.25	64502.82
538.42	64767.30
538.59	64671.34
538.75	64001.95
538.92	63774.92
539.09	63636.83
539.26	63470.65
539.43	63332.56
539.60	63470.65
539.77	63655.55
539.94	63618.10
540.11	62782.53
540.28	62333.15
540.44	62466.56
540.61	62511.03
540.78	62773.17
540.95	63407.45
541.12	63437.88
541.29	63781.94
541.46	64203.24
541.62	64074.51
541.79	64006.63
541.96	63484.69
542.13	63372.34
542.30	63749.17
542.47	63990.25
542.63	63552.57
542.80	63442.56
542.97	63501.07
543.14	63353.62
543.31	63444.90
543.48	64025.35
543.64	64678.36
543.81	64856.24
543.98	64753.26
544.15	64023.01
544.32	63732.79
544.48	63505.76
544.65	64095.57
544.82	64481.76
544.99	63962.16
545.16	63693.00
545.32	63475.33
545.49	64268.77
545.66	64395.16
545.83	64133.02
546.00	63938.75
546.16	63552.57
546.33	63749.17
546.50	63730.45
546.67	64193.87
546.83	63845.13
547.00	63709.38
547.17	63103.18
547.34	62677.21
547.50	62578.90
547.67	63131.27
547.84	63138.29
548.00	63454.26
548.17	63824.07
548.34	63795.98
548.51	63859.18
548.67	63557.25
548.84	63807.68
549.01	63714.06
549.18	63681.30
549.34	63592.36
549.51	63676.61
549.68	63423.84
549.84	63278.72
550.01	63295.11
550.18	62986.16
550.34	63276.38
550.51	63217.87
550.68	63414.47
550.84	62801.25
551.01	62822.32
551.18	63032.97
551.34	63028.29
551.51	63582.99
551.68	63678.96
551.84	63786.62
552.01	63547.89
552.18	63552.57
552.34	62845.72
552.51	62216.12
552.68	62300.38
552.84	63091.48
553.01	62981.48
553.18	62817.64
553.34	63051.69
553.51	63114.89
553.67	63496.39
553.84	63428.52
554.01	63149.99
554.17	63206.17
554.34	63063.39
554.51	63281.06
554.67	63594.70
554.84	63545.54
555.00	63084.46
555.17	63061.05
555.33	62899.56
555.50	62981.48
555.67	62953.39
555.83	62805.94
556.00	62564.86
556.16	62480.60
556.33	62134.20
556.50	62124.84
556.66	62218.46
556.83	61904.83
556.99	62031.22
557.16	62213.78
557.32	62398.68
557.49	62630.40
557.65	62632.74
557.82	62534.43
557.98	62302.72
558.15	62040.58
558.32	61247.14
558.48	60381.14
558.65	60659.66
558.81	61134.79
558.98	61471.83
559.14	61656.73
559.31	61408.64
559.47	61595.88
559.64	61300.97
559.80	61162.88
559.97	60889.04
560.13	61546.73
560.30	62202.08
560.46	62606.99
560.63	62679.55
560.79	62864.45
560.96	62485.28
561.12	61478.85
561.29	60786.05
561.45	60853.93
561.61	61216.71
561.78	61764.40
561.94	61703.54
562.11	61565.45
562.27	61319.70
562.44	61535.02
562.60	61918.87
562.77	62197.40
562.93	61951.64
563.10	61893.13
563.26	61408.64
563.42	61497.58
563.59	61137.13
563.75	61212.03
563.92	61315.01
564.08	61190.97
564.24	61361.82
564.41	61490.55
564.57	61495.24
564.74	61275.22
564.90	61146.50
565.07	61006.06
565.23	60917.12
565.39	60411.57
565.56	60210.28
565.72	60032.40
565.88	60224.32
566.05	60439.65
566.21	60603.49
566.38	60533.28
566.54	60734.56
566.70	60919.46
566.87	61399.27
567.03	61169.90
567.19	61600.56
567.36	61237.78
567.52	60970.96
567.68	60910.10
567.85	60416.25
568.01	60140.07
568.17	59852.18
568.34	59683.66
568.50	59620.47
568.66	59840.48
568.83	60126.02
568.99	60079.21
569.15	60324.97
569.32	60605.83
569.48	60158.79
569.64	59997.29
569.81	59629.83
569.97	59660.26
570.13	59653.23
570.30	59072.78
570.46	59025.97
570.62	58541.48
570.78	58429.13
570.95	58656.17
571.11	59318.54
571.27	59178.10
571.43	59419.18
571.60	59606.42
571.76	60053.47
571.92	60067.51
572.09	60193.90
572.25	60292.20
572.41	60175.17
572.57	59994.95
572.74	60027.72
572.90	59735.15
573.06	59636.85
573.22	59908.35
573.38	59992.61
573.55	59767.92
573.71	59807.71
573.87	59678.98
574.03	59707.07
574.20	59606.42
574.36	59304.49
574.52	59274.07
574.68	59117.25
574.84	58831.71
575.01	58590.63
575.17	58379.98
575.33	58651.48
575.49	58808.30
575.65	58932.35
575.82	58752.13
575.98	58688.93
576.14	59023.63
576.30	58983.84
576.46	58972.14
576.62	58906.60
576.79	59018.95
576.95	58859.79
577.11	58735.74
577.27	58742.77
577.43	58866.81
577.59	58482.97
577.75	58059.33
577.92	57542.07
578.08	57308.02
578.24	57502.28
578.40	57897.83
578.56	58056.99
578.72	57862.72
578.88	58164.65
579.04	58389.34
579.21	58408.07
579.37	58571.91
579.53	58588.29
579.69	58450.20
579.85	58702.98
580.01	58644.46
580.17	57939.96
580.33	57916.56
580.49	58164.65
580.65	58342.53
580.82	58459.56
580.98	58487.65
581.14	58506.37
581.30	58501.69
581.46	58244.23
581.62	58513.39
581.78	58323.81
581.94	58445.52
582.10	58548.50
582.26	58595.31
582.42	58534.46
582.58	58651.48
582.74	58450.20
582.90	58485.31
583.06	58649.14
583.22	58438.50
583.38	58300.40
583.54	58216.14
583.70	58092.10
583.86	58436.16
584.02	58094.44
584.18	58314.45
584.34	58127.20
584.50	58049.97
584.66	58129.54
584.82	58035.92
584.98	57752.72
585.14	57429.72
