SpectraSuite Data File
++++++++++++++++++++++++++++++++++++
Date: Mon Oct 07 14:54:54 GMT-05:00 2013
User: price-jones
Dark Spectrum Present: No
Reference Spectrum Present: No
Number of Sampled Component Spectra: 1
Spectrometers: USB2+H05261
Integration Time (usec): 10000 (USB2+H05261)
Spectra Averaged: 1 (USB2+H05261)
Boxcar Smoothing: 0 (USB2+H05261)
Correct for Electrical Dark: No (USB2+H05261)
Strobe/Lamp Enabled: No (USB2+H05261)
Correct for Detector Non-linearity: No (USB2+H05261)
Correct for Stray Light: No (USB2+H05261)
Number of Pixels in Processed Spectrum: 2048
>>>>>Begin Processed Spectral Data<<<<<
365.73	0.00
365.92	0.00
366.12	0.00
366.32	0.00
366.52	0.00
366.72	0.00
366.91	0.00
367.11	0.00
367.31	0.00
367.51	0.00
367.70	0.00
367.90	0.00
368.10	0.00
368.30	0.00
368.49	0.00
368.69	0.00
368.89	0.00
369.09	0.00
369.28	0.00
369.48	0.00
369.68	0.00
369.87	0.00
370.07	0.00
370.27	0.00
370.47	0.00
370.66	0.00
370.86	0.00
371.06	0.00
371.25	42.13
371.45	35.11
371.65	0.00
371.84	0.00
372.04	0.00
372.24	0.00
372.44	0.00
372.63	9.36
372.83	0.00
373.03	0.00
373.22	0.00
373.42	0.00
373.62	18.72
373.81	18.72
374.01	39.79
374.21	32.77
374.40	0.00
374.60	86.60
374.79	102.98
374.99	110.01
375.19	7.02
375.38	126.39
375.58	117.03
375.78	9.36
375.97	119.37
376.17	117.03
376.37	142.77
376.56	126.39
376.76	203.63
376.95	180.22
377.15	215.33
377.35	227.03
377.54	276.18
377.74	205.97
377.93	257.46
378.13	149.79
378.33	196.60
378.52	126.39
378.72	142.77
378.91	133.41
379.11	93.62
379.31	105.32
379.50	107.66
379.70	112.35
379.89	159.16
380.09	208.31
380.28	163.84
380.48	220.01
380.68	124.05
380.87	184.90
381.07	159.16
381.26	173.20
381.46	107.66
381.65	67.88
381.85	25.75
382.04	91.28
382.24	21.06
382.43	21.06
382.63	0.00
382.83	60.85
383.02	4.68
383.22	0.00
383.41	0.00
383.61	25.75
383.80	46.81
384.00	93.62
384.19	110.01
384.39	184.90
384.58	105.32
384.78	140.43
384.97	205.97
385.17	161.50
385.36	98.30
385.56	119.37
385.75	135.75
385.95	187.24
386.14	180.22
386.34	163.84
386.53	194.26
386.72	154.48
386.92	184.90
387.11	166.18
387.31	217.67
387.50	145.11
387.70	191.92
387.89	131.07
388.09	187.24
388.28	180.22
388.48	245.76
388.67	201.29
388.86	238.73
389.06	271.50
389.25	332.36
389.45	320.65
389.64	294.91
389.84	280.86
390.03	355.76
390.22	339.38
390.42	220.01
390.61	433.00
390.81	383.85
391.00	351.08
391.19	461.09
391.39	381.51
391.58	301.93
391.78	297.25
391.97	283.20
392.16	301.93
392.36	245.76
392.55	131.07
392.75	32.77
392.94	0.00
393.13	16.38
393.33	0.00
393.52	86.60
393.71	196.60
393.91	301.93
394.10	250.44
394.29	362.78
394.49	430.66
394.68	416.62
394.88	440.02
395.07	456.40
395.26	383.85
395.46	367.46
395.65	332.36
395.84	273.84
396.04	241.08
396.23	161.50
396.42	23.41
396.62	110.01
396.81	117.03
397.00	208.31
397.19	322.99
397.39	358.10
397.58	500.87
397.77	641.31
397.97	613.22
398.16	510.24
398.35	657.69
398.55	706.84
398.74	653.01
398.93	760.67
399.12	725.57
399.32	695.14
399.51	791.10
399.70	713.86
399.90	678.76
400.09	638.97
400.28	734.93
400.47	772.38
400.67	760.67
400.86	821.53
401.05	844.93
401.24	741.95
401.44	795.78
401.63	875.36
401.82	795.78
402.01	800.46
402.21	821.53
402.40	912.81
402.59	863.66
402.78	751.31
402.97	688.12
403.17	753.65
403.36	800.46
403.55	882.38
403.74	924.51
403.93	875.36
404.13	725.57
404.32	755.99
404.51	816.85
404.70	849.61
404.89	877.70
405.09	912.81
405.28	819.19
405.47	826.21
405.66	819.19
405.85	800.46
406.05	861.32
406.24	844.93
406.43	870.68
406.62	767.70
406.81	842.59
407.00	802.80
407.20	765.36
407.39	814.51
407.58	903.45
407.77	917.49
407.96	985.37
408.15	938.55
408.34	997.07
408.54	971.32
408.73	1046.22
408.92	985.37
409.11	1008.77
409.30	880.04
409.49	889.40
409.68	849.61
409.87	751.31
410.07	723.23
410.26	903.45
410.45	856.64
410.64	992.39
410.83	1015.79
411.02	929.19
411.21	1081.33
411.40	1093.03
411.59	1041.54
411.78	1090.69
411.98	1062.60
412.17	1067.28
412.36	1043.88
412.55	964.30
412.74	952.60
412.93	919.83
413.12	1048.56
413.31	1060.26
413.50	1034.52
413.69	1153.88
413.88	1081.33
414.07	1027.50
414.26	1097.71
414.45	1149.20
414.64	1165.59
414.83	1191.33
415.02	1053.24
415.22	1125.80
415.41	1093.03
415.60	1109.41
415.79	1252.19
415.98	1270.91
416.17	1284.95
416.36	1160.91
416.55	1125.80
416.74	1179.63
416.93	1130.48
417.12	1142.18
417.31	1132.82
417.50	1111.75
417.69	1291.98
417.88	1301.34
418.07	1114.10
418.26	1163.25
418.45	1121.12
418.64	1174.95
418.83	1210.06
419.02	1364.53
419.21	1289.64
419.39	1217.08
419.58	1067.28
419.77	1086.01
419.96	1275.59
420.15	1221.76
420.34	1261.55
420.53	1324.74
420.72	1336.45
420.91	1320.06
421.10	1465.18
421.29	1310.70
421.48	1205.38
421.67	1261.55
421.86	1235.80
422.05	1212.40
422.24	1011.11
422.43	1055.58
422.61	1144.52
422.80	1338.79
422.99	1308.36
423.18	1268.57
423.37	1228.78
423.56	1184.31
423.75	1144.52
423.94	1301.34
424.13	1057.92
424.32	1135.16
424.50	1186.65
424.69	1196.01
424.88	1144.52
425.07	1128.14
425.26	1128.14
425.45	1135.16
425.64	1205.38
425.83	1086.01
426.01	1275.59
426.20	1196.01
426.39	1221.76
426.58	994.73
426.77	1029.84
426.96	952.60
427.15	1029.84
427.33	1027.50
427.52	1172.61
427.71	1167.93
427.90	1188.99
428.09	1149.20
428.28	1053.24
428.46	1097.71
428.65	1043.88
428.84	1144.52
429.03	1130.48
429.22	1064.94
429.40	1032.18
429.59	880.04
429.78	725.57
429.97	781.74
430.16	765.36
430.34	800.46
430.53	835.57
430.72	746.63
430.91	812.17
431.10	1151.54
431.28	1275.59
431.47	1411.34
431.66	1430.07
431.85	1322.40
432.03	1191.33
432.22	1076.65
432.41	1172.61
432.60	1268.57
432.79	1327.08
432.97	1469.86
433.16	1345.81
433.35	1273.25
433.54	1081.33
433.72	997.07
433.91	1029.84
434.10	1174.95
434.28	1289.64
434.47	1362.19
434.66	1497.94
434.85	1444.11
435.03	1277.93
435.22	1387.94
435.41	1317.72
435.59	1486.24
435.78	1495.60
435.97	1535.39
436.16	1465.18
436.34	1542.41
436.53	1460.49
436.72	1401.98
436.90	1284.95
437.09	1301.34
437.28	1324.74
437.46	1338.79
437.65	1324.74
437.84	1336.45
438.02	1137.50
438.21	1069.62
438.40	1294.32
438.58	1308.36
438.77	1338.79
438.96	1455.81
439.14	1336.45
439.33	1448.79
439.52	1521.35
439.70	1462.83
439.89	1458.15
440.08	1284.95
440.26	1345.81
440.45	1427.73
440.63	1561.14
440.82	1659.44
441.01	1617.31
441.19	1504.96
441.38	1607.95
441.57	1633.69
441.75	1666.46
441.94	1603.27
442.12	1640.72
442.31	1685.19
442.50	1689.87
442.68	1631.35
442.87	1598.59
443.05	1643.06
443.24	1657.10
443.43	1743.70
443.61	1732.00
443.80	1792.85
443.98	1652.42
444.17	1605.61
444.35	1767.10
444.54	1856.04
444.73	1764.76
444.91	1739.02
445.10	1696.89
445.28	1500.28
445.47	1483.90
445.65	1526.03
445.84	1481.56
446.02	1591.56
446.21	1720.29
446.39	1657.10
446.58	1668.80
446.77	1659.44
446.95	1694.55
447.14	1713.27
447.32	1856.04
447.51	1881.79
447.69	1710.93
447.88	1664.12
448.06	1631.35
448.25	1687.53
448.43	1729.66
448.62	1687.53
448.80	1767.10
448.99	1652.42
449.17	1757.74
449.36	1645.40
449.54	1776.47
449.73	1748.38
449.91	1839.66
450.10	1980.09
450.28	1940.30
450.46	1973.07
450.65	1877.11
450.83	1919.24
451.02	1776.47
451.20	1832.64
451.39	1874.77
451.57	1872.43
451.76	1930.94
451.94	1898.17
452.13	1769.44
452.31	1668.80
452.49	1612.63
452.68	1633.69
452.86	1600.93
453.05	1647.74
453.23	1724.97
453.42	1729.66
453.60	1722.63
453.78	1928.60
453.97	1748.38
454.15	1802.21
454.34	1825.62
454.52	1753.06
454.70	1741.36
454.89	1732.00
455.07	1727.32
455.26	1795.19
455.44	1963.71
455.62	1886.47
455.81	1942.64
455.99	1902.86
456.17	1832.64
456.36	1795.19
456.54	1940.30
456.73	1926.26
456.91	1954.35
457.09	1949.67
457.28	1970.73
457.46	1975.41
457.64	1888.81
457.83	1905.20
458.01	1806.89
458.19	1797.53
458.38	1884.13
458.56	1923.92
458.74	1898.17
458.93	1853.70
459.11	1827.96
459.29	1809.23
459.48	1856.04
459.66	1818.60
459.84	1909.88
460.03	1937.96
460.21	1827.96
460.39	1781.15
460.57	1952.01
460.76	1930.94
460.94	1989.46
461.12	1998.82
461.31	1961.37
461.49	1874.77
461.67	1968.39
461.85	2022.22
462.04	2047.97
462.22	2029.24
462.40	2031.58
462.59	1916.90
462.77	1947.33
462.95	1996.48
463.13	2005.84
463.32	1909.88
463.50	1923.92
463.68	1977.75
463.86	2043.29
464.05	1966.05
464.23	1870.09
464.41	1839.66
464.59	1710.93
464.78	1919.24
464.96	1895.83
465.14	1863.07
465.32	1884.13
465.50	1942.64
465.69	2054.99
465.87	1973.07
466.05	1858.39
466.23	1832.64
466.41	1755.40
466.60	1879.45
466.78	1860.73
466.96	1792.85
467.14	1893.49
467.32	1947.33
467.51	1872.43
467.69	1874.77
467.87	1849.02
468.05	1884.13
468.23	1853.70
468.41	2029.24
468.60	1877.11
468.78	1935.62
468.96	1842.00
469.14	1914.56
469.32	1956.69
469.50	1870.09
469.69	1860.73
469.87	1802.21
470.05	1750.72
470.23	1802.21
470.41	1776.47
470.59	1881.79
470.77	1809.23
470.95	1837.32
471.14	2012.86
471.32	1907.54
471.50	1954.35
471.68	1984.77
471.86	1989.46
472.04	2073.71
472.22	2050.31
472.40	1991.80
472.58	1947.33
472.77	1860.73
472.95	1891.15
473.13	1942.64
473.31	1984.77
473.49	1923.92
473.67	1909.88
473.85	1947.33
474.03	2012.86
474.21	2036.27
474.39	2193.08
474.57	2300.75
474.75	2141.59
474.93	2092.44
475.12	1998.82
475.30	2083.08
475.48	1989.46
475.66	2146.27
475.84	1970.73
476.02	2069.03
476.20	2040.95
476.38	2106.48
476.56	2040.95
476.74	2207.13
476.92	2228.19
477.10	2169.68
477.28	2230.53
477.46	2326.49
477.64	2289.04
477.82	2221.17
478.00	2183.72
478.18	2235.21
478.36	2340.54
478.54	2186.06
478.72	2319.47
478.90	2246.91
479.08	2403.73
479.26	2459.90
479.44	2429.48
479.62	2436.50
479.80	2340.54
479.98	2314.79
480.16	2520.76
480.34	2511.39
480.52	2497.35
480.70	2401.39
480.88	2469.27
481.06	2555.86
481.24	2572.25
481.41	2579.27
481.59	2663.53
481.77	2637.78
481.95	2562.89
482.13	2469.27
482.31	2616.72
482.49	2640.12
482.67	2621.40
482.85	2649.49
483.03	2616.72
483.21	2693.96
483.39	2736.09
483.57	2630.76
483.74	2612.04
483.92	2717.36
484.10	2682.25
484.28	2733.75
484.46	2747.79
484.64	2637.78
484.82	2708.00
485.00	2583.95
485.18	2651.83
485.35	2574.59
485.53	2289.04
485.71	2069.03
485.89	1984.77
486.07	2094.78
486.25	2305.43
486.43	2541.82
486.61	2597.99
486.78	2656.51
486.96	2621.40
487.14	2668.21
487.32	2832.05
487.50	2846.09
487.68	2981.84
487.85	2902.26
488.03	2972.48
488.21	2881.20
488.39	2864.82
488.57	2712.68
488.75	2679.91
488.92	2738.43
489.10	3084.83
489.28	3232.28
489.46	3281.43
489.64	3316.54
489.81	3309.52
489.99	3351.65
490.17	3272.07
490.35	3323.56
490.53	3272.07
490.70	3075.46
490.88	3164.40
491.06	3225.26
491.24	3342.28
491.41	3075.46
491.59	3000.57
491.77	2792.26
491.95	3054.40
492.13	3077.80
492.30	3211.22
492.48	3396.12
492.66	3475.70
492.84	3328.24
493.01	3496.76
493.19	3351.65
493.37	3344.63
493.54	3281.43
493.72	3304.84
493.90	3417.18
494.08	3552.93
494.25	3569.32
494.43	3620.81
494.61	3536.55
494.79	3632.51
494.96	3644.21
495.14	3361.01
495.32	3321.22
495.49	3361.01
495.67	3597.40
495.85	3613.79
496.02	3639.53
496.20	3625.49
496.38	3590.38
496.55	3499.10
496.73	3707.41
496.91	3723.79
497.09	3702.73
497.26	3747.20
497.44	3854.86
497.62	3585.70
497.79	3506.12
497.97	3515.48
498.14	3356.33
498.32	3475.70
498.50	3726.13
498.67	3796.35
498.85	3829.12
499.03	3817.41
499.20	3777.62
499.38	3714.43
499.56	3782.31
499.73	3791.67
499.91	3510.80
500.08	3637.19
500.26	3461.65
500.44	3471.01
500.61	3597.40
500.79	3520.17
500.97	3524.85
501.14	3503.78
501.32	3368.03
501.49	3761.24
501.67	3517.83
501.84	3721.45
502.02	3691.02
502.20	3613.79
502.37	3805.71
502.55	3707.41
502.72	3864.22
502.90	3962.53
503.07	3782.31
503.25	3693.37
503.43	3574.00
503.60	3468.67
503.78	3517.83
503.95	3555.27
504.13	3679.32
504.30	3768.26
504.48	3796.35
504.65	3779.97
504.83	3585.70
505.01	3789.33
505.18	3857.20
505.36	3985.93
505.53	3934.44
505.71	3985.93
505.88	3999.98
506.06	3803.37
506.23	3864.22
506.41	3723.79
506.58	3784.65
506.76	3857.20
506.93	3768.26
507.11	3892.31
507.28	3906.35
507.46	3761.24
507.63	3698.05
507.81	3585.70
507.98	3625.49
508.16	3709.75
508.33	3840.82
508.50	3885.29
508.68	3887.63
508.85	4021.04
509.03	4042.11
509.20	4182.54
509.38	3852.52
509.55	3742.52
509.73	3854.86
509.90	3782.31
510.08	3943.80
510.25	3894.65
510.42	3733.15
510.60	3932.10
510.77	3864.22
510.95	3854.86
511.12	4028.06
511.30	4037.42
511.47	3990.61
511.64	3957.85
511.82	4044.45
511.99	3953.16
512.17	3850.18
512.34	3782.31
512.51	3796.35
512.69	3709.75
512.86	3784.65
513.04	3833.80
513.21	3861.88
513.38	3803.37
513.56	3705.07
513.73	3552.93
513.90	3681.66
514.08	3667.62
514.25	3707.41
514.43	3794.01
514.60	3808.05
514.77	3803.37
514.95	3721.45
515.12	3763.58
515.29	3756.56
515.47	3911.04
515.64	4044.45
515.81	4042.11
515.99	3833.80
516.16	3578.68
516.33	3361.01
516.51	3103.55
516.68	3007.59
516.85	2928.01
517.03	3077.80
517.20	3361.01
517.37	3637.19
517.54	3824.44
517.72	3662.94
517.89	3440.59
518.06	3180.79
518.24	3162.06
518.41	3485.06
518.58	3590.38
518.75	3513.14
518.93	3658.26
519.10	3651.24
519.27	3709.75
519.45	3669.96
519.62	3803.37
519.79	3964.87
519.96	3822.09
520.14	3782.31
520.31	3775.28
520.48	3812.73
520.65	3742.52
520.83	3721.45
521.00	3988.27
521.17	3901.67
521.34	3707.41
521.52	3709.75
521.69	3927.42
521.86	3901.67
522.03	3836.14
522.20	3763.58
522.38	3433.57
522.55	3588.04
522.72	3634.85
522.89	3548.25
523.07	3660.60
523.24	3765.92
523.41	3887.63
523.58	3936.78
523.75	4032.74
523.92	4004.66
524.10	3997.64
524.27	3892.31
524.44	3960.19
524.61	3927.42
524.78	3819.75
524.96	3847.84
525.13	4004.66
525.30	3922.74
525.47	4002.32
525.64	4051.47
525.81	4016.36
525.98	3613.79
526.16	3307.18
526.33	3461.65
526.50	3159.72
526.67	3377.39
526.84	3396.12
527.01	3379.73
527.18	3562.30
527.36	3590.38
527.53	3859.54
527.70	3880.61
527.87	3932.10
528.04	3721.45
528.21	3772.94
528.38	3896.99
528.55	4081.89
528.72	3978.91
528.89	4079.55
529.07	4018.70
529.24	3894.65
529.41	3768.26
529.58	3700.39
529.75	3691.02
529.92	3854.86
530.09	3868.91
530.26	3882.95
530.43	4067.85
530.60	3896.99
530.77	3950.82
530.94	4102.96
531.11	4016.36
531.28	3892.31
531.46	4039.76
531.63	3861.88
531.80	3684.00
531.97	3861.88
532.14	3721.45
532.31	3503.78
532.48	3566.98
532.65	3538.89
532.82	3562.30
532.99	3679.32
533.16	3761.24
533.33	3845.50
533.50	3971.89
533.67	3747.20
533.84	3644.21
534.01	3775.28
534.18	3662.94
534.35	3620.81
534.52	3597.40
534.69	3695.71
534.86	3796.35
535.03	3854.86
535.20	3850.18
535.37	3936.78
535.54	4032.74
535.71	3990.61
535.88	3826.78
536.05	3866.56
536.22	3761.24
536.38	3637.19
536.55	3485.06
536.72	3630.17
536.89	3489.74
537.06	3688.68
537.23	3688.68
537.40	3941.46
537.57	3871.25
537.74	3747.20
537.91	3840.82
538.08	3714.43
538.25	3815.07
538.42	3798.69
538.59	3857.20
538.75	3730.81
538.92	3555.27
539.09	3618.47
539.26	3747.20
539.43	3569.32
539.60	3515.48
539.77	3634.85
539.94	3513.14
540.11	3487.40
540.28	3335.26
540.44	3393.78
540.61	3426.54
540.78	3442.93
540.95	3583.36
541.12	3674.64
541.29	3686.34
541.46	3719.11
541.62	3648.90
541.79	3595.06
541.96	3569.32
542.13	3548.25
542.30	3625.49
542.47	3599.74
542.63	3698.05
542.80	3552.93
542.97	3672.30
543.14	3571.66
543.31	3630.17
543.48	3592.72
543.64	3873.59
543.81	3824.44
543.98	3761.24
544.15	3674.64
544.32	3566.98
544.48	3616.13
544.65	3702.73
544.82	3648.90
544.99	3878.27
545.16	3534.21
545.32	3499.10
545.49	3627.83
545.66	3698.05
545.83	3742.52
546.00	3772.94
546.16	3522.51
546.33	3552.93
546.50	3545.91
546.67	3655.92
546.83	3674.64
547.00	3492.08
547.17	3468.67
547.34	3279.09
547.50	3375.05
547.67	3438.25
547.84	3520.17
548.00	3590.38
548.17	3627.83
548.34	3564.64
548.51	3510.80
548.67	3564.64
548.84	3524.85
549.01	3641.87
549.18	3583.36
549.34	3599.74
549.51	3578.68
549.68	3370.37
549.84	3576.34
550.01	3529.53
550.18	3569.32
550.34	3506.12
550.51	3330.58
550.68	3576.34
550.84	3487.40
551.01	3517.83
551.18	3508.46
551.34	3454.63
551.51	3499.10
551.68	3520.17
551.84	3459.31
552.01	3503.78
552.18	3531.87
552.34	3351.65
552.51	3356.33
552.68	3325.90
552.84	3527.19
553.01	3335.26
553.18	3368.03
553.34	3485.06
553.51	3442.93
553.67	3407.82
553.84	3585.70
554.01	3639.53
554.17	3485.06
554.34	3452.29
554.51	3445.27
554.67	3487.40
554.84	3496.76
555.00	3550.59
555.17	3323.56
555.33	3421.86
555.50	3297.81
555.67	3417.18
555.83	3384.41
556.00	3318.88
556.16	3382.07
556.33	3304.84
556.50	3152.70
556.66	3295.47
556.83	3227.60
556.99	3251.00
557.16	3300.16
557.32	3349.31
557.49	3461.65
557.65	3307.18
557.82	3286.11
557.98	3356.33
558.15	3267.39
558.32	3091.85
558.48	3059.08
558.65	3119.93
558.81	3173.77
558.98	3260.37
559.14	3183.13
559.31	3316.54
559.47	3211.22
559.64	3218.24
559.80	3028.65
559.97	3059.08
560.13	3110.57
560.30	3225.26
560.46	3410.16
560.63	3316.54
560.79	3384.41
560.96	3344.63
561.12	3122.27
561.29	2977.16
561.45	3131.64
561.61	3225.26
561.78	3349.31
561.94	3248.66
562.11	3119.93
562.27	3178.45
562.44	3255.69
562.60	3211.22
562.77	3276.75
562.93	3342.28
563.10	3248.66
563.26	3110.57
563.42	3229.94
563.59	3185.47
563.75	3080.14
563.92	3187.81
564.08	3040.36
564.24	3304.84
564.41	3286.11
564.57	3096.53
564.74	3089.51
564.90	3138.66
565.07	3222.92
565.23	3164.40
565.39	3077.80
565.56	3054.40
565.72	2911.63
565.88	3009.93
566.05	3016.95
566.21	3028.65
566.38	3033.33
566.54	3173.77
566.70	3110.57
566.87	3138.66
567.03	3133.98
567.19	3045.04
567.36	3082.49
567.52	3162.06
567.68	3002.91
567.85	3077.80
568.01	2888.22
568.17	2867.16
568.34	2846.09
568.50	2932.69
568.66	2899.92
568.83	3023.97
568.99	2928.01
569.15	3045.04
569.32	2925.67
569.48	2977.16
569.64	2986.52
569.81	2761.83
569.97	2857.79
570.13	2953.76
570.30	2864.82
570.46	2693.96
570.62	2789.92
570.78	2836.73
570.95	2832.05
571.11	2773.53
571.27	2944.39
571.43	2843.75
571.60	2848.43
571.76	2981.84
571.92	2787.58
572.09	2993.55
572.25	3033.33
572.41	2965.46
572.57	2988.86
572.74	2885.88
572.90	2864.82
573.06	2822.69
573.22	2904.60
573.38	2895.24
573.55	2825.03
573.71	2820.35
573.87	2878.86
574.03	2942.05
574.20	2834.39
574.36	2892.90
574.52	2949.08
574.68	2862.48
574.84	2850.77
575.01	2574.59
575.17	2736.09
575.33	2752.47
575.49	2729.06
575.65	2787.58
575.82	2813.32
575.98	2743.11
576.14	2827.37
576.30	2752.47
576.46	2771.19
576.62	2792.26
576.79	2841.41
576.95	2754.81
577.11	2745.45
577.27	2691.62
577.43	2640.12
577.59	2745.45
577.75	2651.83
577.92	2635.44
578.08	2815.66
578.24	2700.98
578.40	2623.74
578.56	2616.72
578.72	2654.17
578.88	2808.64
579.04	2867.16
579.21	2803.96
579.37	2644.81
579.53	2691.62
579.69	2698.64
579.85	2761.83
580.01	2780.56
580.17	2642.46
580.33	2658.85
580.49	2612.04
580.65	2712.68
580.82	2740.77
580.98	2759.49
581.14	2712.68
581.30	2654.17
581.46	2689.28
581.62	2792.26
581.78	2684.59
581.94	2724.38
582.10	2677.57
582.26	2778.22
582.42	2672.89
582.58	2567.57
582.74	2726.72
582.90	2778.22
583.06	2675.23
583.22	2738.43
583.38	2696.30
583.54	2616.72
583.70	2670.55
583.86	2703.32
584.02	2593.31
584.18	2644.81
584.34	2782.90
584.50	2661.19
584.66	2581.61
584.82	2651.83
584.98	2626.08
585.14	2452.88
585.30	2626.08
585.46	2392.03
585.62	2562.89
585.78	2586.29
585.94	2551.18
586.10	2579.27
586.26	2506.71
586.42	2656.51
586.58	2651.83
586.74	2684.59
586.90	2626.08
587.06	2583.95
587.22	2513.74
587.38	2466.92
587.54	2607.36
587.70	2551.18
587.86	2546.50
588.02	2380.32
588.18	2431.82
588.34	2310.11
588.49	2270.32
588.65	2033.93
588.81	2076.06
588.97	2057.33
589.13	2038.61
589.29	2090.10
589.45	2155.63
589.61	2260.96
589.77	2319.47
589.93	2312.45
590.08	2326.49
590.24	2356.92
590.40	2452.88
590.56	2499.69
590.72	2347.56
590.88	2326.49
591.04	2307.77
591.20	2375.64
591.35	2282.02
591.51	2455.22
591.67	2342.88
591.83	2246.91
591.99	2293.72
592.15	2296.07
592.31	2314.79
592.46	2340.54
592.62	2207.13
592.78	2286.70
592.94	2366.28
593.10	2354.58
593.26	2352.24
593.41	2335.85
593.57	2354.58
593.73	2209.47
593.89	2417.77
594.05	2310.11
594.20	2307.77
594.36	2190.74
594.52	2223.51
594.68	2125.21
594.84	2251.60
594.99	2190.74
595.15	2450.54
595.31	2265.64
595.47	2319.47
595.62	2263.30
595.78	2361.60
595.94	2401.39
596.10	2352.24
596.25	2319.47
596.41	2207.13
596.57	2251.60
596.73	2202.44
596.88	2462.24
597.04	2279.68
597.20	2270.32
597.36	2298.41
597.51	2319.47
597.67	2258.62
597.83	2361.60
597.99	2312.45
598.14	2263.30
598.30	2267.98
598.46	2228.19
598.61	2265.64
598.77	2270.32
598.93	2249.25
599.09	2303.09
599.24	2246.91
599.40	2197.76
599.56	2235.21
