SpectraSuite Data File
++++++++++++++++++++++++++++++++++++
Date: Mon Oct 07 14:52:53 GMT-05:00 2013
User: price-jones
Dark Spectrum Present: No
Reference Spectrum Present: No
Number of Sampled Component Spectra: 1
Spectrometers: USB2+H05261
Integration Time (usec): 100000 (USB2+H05261)
Spectra Averaged: 1 (USB2+H05261)
Boxcar Smoothing: 0 (USB2+H05261)
Correct for Electrical Dark: No (USB2+H05261)
Strobe/Lamp Enabled: No (USB2+H05261)
Correct for Detector Non-linearity: No (USB2+H05261)
Correct for Stray Light: No (USB2+H05261)
Number of Pixels in Processed Spectrum: 2048
>>>>>Begin Processed Spectral Data<<<<<
365.73	0.00
365.92	0.00
366.12	0.00
366.32	0.00
366.52	0.00
366.72	0.00
366.91	0.00
367.11	0.00
367.31	0.00
367.51	0.00
367.70	0.00
367.90	0.00
368.10	0.00
368.30	0.00
368.49	0.00
368.69	0.00
368.89	0.00
369.09	0.00
369.28	0.00
369.48	0.00
369.68	0.00
369.87	0.00
370.07	0.00
370.27	0.00
370.47	915.15
370.66	4255.09
370.86	5088.32
371.06	5439.40
371.25	5350.46
371.45	4863.63
371.65	4315.95
371.84	4154.45
372.04	4374.46
372.24	4961.94
372.44	5188.97
372.63	5036.83
372.83	4519.57
373.03	4049.13
373.22	3831.46
373.42	3992.95
373.62	4638.94
373.81	4966.62
374.01	4865.97
374.21	4425.95
374.40	4133.39
374.60	4388.50
374.79	5011.09
374.99	5696.86
375.19	6108.80
375.38	6038.58
375.58	5652.39
375.78	5722.61
375.97	5633.67
376.17	5879.43
376.37	5987.09
376.56	6036.24
376.76	6441.15
376.95	6773.51
377.15	7276.73
377.35	7503.76
377.54	7691.00
377.74	8086.55
377.93	7880.58
378.13	7665.25
378.33	7283.75
378.52	6759.47
378.72	6562.86
378.91	6424.77
379.11	6078.37
379.31	5935.60
379.50	6092.41
379.70	6799.26
379.89	7243.96
380.09	7534.18
380.28	7789.30
380.48	7840.79
380.68	7449.93
380.87	7396.09
381.07	6623.72
381.26	6335.83
381.46	5769.42
381.65	5767.08
381.85	5554.09
382.04	5252.16
382.24	4875.34
382.43	4823.84
382.63	4507.87
382.83	4648.30
383.02	4613.20
383.22	4580.43
383.41	4660.01
383.61	5116.41
383.80	5977.73
384.00	6551.16
384.19	7445.24
384.39	7585.68
384.58	7737.81
384.78	7431.20
384.97	7360.98
385.17	7049.69
385.36	6759.47
385.56	6375.62
385.75	6623.72
385.95	7155.02
386.14	7845.48
386.34	7819.73
386.53	7363.33
386.72	7016.93
386.92	7208.85
387.11	7648.87
387.31	7634.83
387.50	7494.40
387.70	7316.51
387.89	7272.04
388.09	7372.69
388.28	7157.36
388.48	7557.59
388.67	8124.00
388.86	8929.14
389.06	9467.47
389.25	9867.70
389.45	9994.09
389.64	9811.53
389.84	9706.20
390.03	9542.36
390.22	9671.09
390.42	10024.51
390.61	10846.04
390.81	11468.62
391.00	11576.29
391.19	11648.85
391.39	10923.28
391.58	10459.85
391.78	9827.91
391.97	9558.75
392.16	8816.80
392.36	8077.19
392.55	6410.73
392.75	5146.84
392.94	4201.26
393.13	4205.94
393.33	4994.70
393.52	6452.86
393.71	7815.05
393.91	8943.19
394.10	9483.85
394.29	10518.37
394.49	11166.70
394.68	12224.62
394.88	12006.95
395.07	12355.69
395.26	12540.59
395.46	11861.84
395.65	11101.16
395.84	9568.11
396.04	8208.26
396.23	6658.82
396.42	5724.95
396.62	5579.84
396.81	6532.44
397.00	8411.89
397.19	10469.22
397.39	12437.61
397.58	13870.01
397.77	14452.81
397.97	14949.00
398.16	15281.36
398.35	15571.58
398.55	16049.05
398.74	16690.36
398.93	17301.24
399.12	16566.31
399.32	16168.42
399.51	16631.85
399.70	17893.40
399.90	17619.55
400.09	17539.97
400.28	17319.96
400.47	17476.78
400.67	18272.56
400.86	18672.79
401.05	18686.84
401.24	19232.18
401.44	19475.60
401.63	19246.23
401.82	19253.25
402.01	19110.47
402.21	19592.62
402.40	19711.99
402.59	18485.55
402.78	18008.08
402.97	17591.47
403.17	18408.31
403.36	19506.02
403.55	20175.42
403.74	20252.66
403.93	19232.18
404.13	18003.40
404.32	17818.50
404.51	18462.15
404.70	19735.40
404.89	19510.71
405.09	19597.31
405.28	18948.98
405.47	18810.89
405.66	18967.70
405.85	18595.56
406.05	17996.38
406.24	18338.10
406.43	19054.30
406.62	19852.42
406.81	19740.08
407.00	18885.78
407.20	18665.77
407.39	18668.11
407.58	19632.41
407.77	20519.48
407.96	21102.27
408.15	21310.58
408.34	21738.90
408.54	22155.51
408.73	22232.75
408.92	22153.17
409.11	21387.82
409.30	20418.83
409.49	19110.47
409.68	17764.67
409.87	17345.71
410.07	18710.24
410.26	20144.99
410.45	21245.04
410.64	21806.77
410.83	22691.49
411.02	22998.10
411.21	23854.74
411.40	23096.41
411.59	23838.36
411.78	23529.41
411.98	23335.14
412.17	23686.22
412.36	22885.76
412.55	22977.04
412.74	22663.41
412.93	22324.03
413.12	22728.94
413.31	24496.05
413.50	24570.94
413.69	25102.25
413.88	24149.65
414.07	23552.81
414.26	24137.94
414.45	24779.25
414.64	24725.42
414.83	24723.08
415.02	24379.02
415.22	24617.75
415.41	24727.76
415.60	25441.62
415.79	26230.38
415.98	27168.94
416.17	27395.97
416.36	26668.06
416.55	25811.43
416.74	25319.92
416.93	24613.07
417.12	24114.54
417.31	25081.18
417.50	25184.16
417.69	26008.03
417.88	26129.74
418.07	25671.00
418.26	25153.74
418.45	25675.68
418.64	26384.86
418.83	27056.59
419.02	26684.45
419.21	26558.06
419.39	25605.46
419.58	24390.72
419.77	24463.28
419.96	25675.68
420.15	26904.46
420.34	28123.88
420.53	29125.63
420.72	28889.23
420.91	28802.63
421.10	28524.11
421.29	28514.75
421.48	27484.91
421.67	28554.54
421.86	28084.09
422.05	25699.08
422.24	23283.65
422.43	23592.60
422.61	25865.26
422.80	27580.87
422.99	27625.34
423.18	26764.03
423.37	25949.52
423.56	26672.74
423.75	27035.53
423.94	27466.19
424.13	25785.68
424.32	25993.99
424.50	26164.85
424.69	25837.17
424.88	26349.75
425.07	26008.03
425.26	25773.98
425.45	25558.65
425.64	25205.23
425.83	25191.19
426.01	27014.46
426.20	27208.73
426.39	27023.83
426.58	24835.42
426.77	23096.41
426.96	22417.65
427.15	23323.44
427.33	25298.85
427.52	26309.96
427.71	26321.66
427.90	25900.37
428.09	25928.45
428.28	25338.64
428.46	24751.17
428.65	24194.12
428.84	25069.48
429.03	24929.05
429.22	23300.03
429.40	22047.85
429.59	20360.32
429.78	18015.10
429.97	18211.71
430.16	18209.37
430.34	18567.47
430.53	18630.66
430.72	19002.81
430.91	21254.40
431.10	24720.74
431.28	28559.22
431.47	30775.70
431.66	30883.37
431.85	28379.00
432.03	26342.73
432.22	25013.31
432.41	26490.18
432.60	29193.50
432.79	29909.71
432.97	30976.99
433.16	29795.02
433.35	27356.18
433.54	24809.68
433.72	23175.98
433.91	24194.12
434.10	27454.48
434.28	28566.24
434.47	30146.10
434.66	29497.77
434.85	29116.26
435.03	29153.71
435.22	29656.93
435.41	31515.31
435.59	31180.62
435.78	31765.75
435.97	32486.64
436.16	32634.09
436.34	32226.84
436.53	31770.43
436.72	31683.83
436.90	30419.94
437.09	29989.28
437.28	29362.02
437.46	30314.62
437.65	30272.49
437.84	27850.03
438.02	26478.48
438.21	26001.01
438.40	27550.45
438.58	29703.74
438.77	30593.14
438.96	30775.70
439.14	32081.72
439.33	32900.91
439.52	33317.53
439.70	32732.39
439.89	31590.21
440.08	31087.00
440.26	31173.60
440.45	32439.82
440.63	34232.68
440.82	35316.34
441.01	35117.40
441.19	35356.13
441.38	35945.95
441.57	36943.02
441.75	36959.40
441.94	36968.76
442.12	37184.09
442.31	37872.21
442.50	37816.04
442.68	37394.74
442.87	36795.56
443.05	36041.91
443.24	36959.40
443.43	37235.58
443.61	38258.40
443.80	38696.08
443.98	37083.45
444.17	36959.40
444.35	38768.63
444.54	39505.90
444.73	38848.21
444.91	36959.40
445.10	35573.80
445.28	34705.46
445.47	33827.76
445.65	34499.50
445.84	35049.52
446.02	36495.97
446.21	36779.18
446.39	36650.45
446.58	37528.15
446.77	38377.76
446.95	38756.93
447.14	39423.98
447.32	39899.11
447.51	38724.16
447.69	37666.24
447.88	37549.21
448.06	37860.51
448.25	38799.06
448.43	39009.71
448.62	37865.19
448.80	37846.46
448.99	37975.19
449.17	38443.30
449.36	38614.16
449.54	40093.38
449.73	40905.54
449.91	40978.10
450.10	42052.41
450.28	42674.99
450.46	42108.58
450.65	42040.70
450.83	41511.74
451.02	41001.50
451.20	40767.45
451.39	41001.50
451.57	40931.29
451.76	41078.74
451.94	40187.00
452.13	39285.89
452.31	37897.95
452.49	36212.77
452.68	37034.30
452.86	36776.84
453.05	37446.23
453.23	38794.38
453.42	39377.17
453.60	40027.84
453.78	40243.17
453.97	40119.12
454.15	39948.26
454.34	39201.63
454.52	39613.57
454.70	39012.05
454.89	39342.06
455.07	39150.14
455.26	40163.59
455.44	41436.84
455.62	42256.03
455.81	42382.42
455.99	41827.71
456.17	41406.42
456.36	41221.52
456.54	42852.87
456.73	42930.11
456.91	43428.64
457.09	43082.24
457.28	44479.54
457.46	42204.54
457.64	42354.33
457.83	41305.77
458.01	40261.90
458.19	41591.32
458.38	42330.93
458.56	43253.10
458.74	42927.77
458.93	41900.27
459.11	41895.59
459.29	41539.83
459.48	42148.37
459.66	41560.89
459.84	42522.85
460.03	42410.51
460.21	42642.22
460.39	43859.30
460.57	43253.10
460.76	44048.88
460.94	44275.91
461.12	43377.15
461.31	44048.88
461.49	43690.78
461.67	43665.03
461.85	45024.89
462.04	44212.72
462.22	45404.05
462.40	44542.74
462.59	44624.65
462.77	44856.37
462.95	44701.89
463.13	44524.01
463.32	43922.49
463.50	43653.33
463.68	43683.76
463.86	44332.09
464.05	43243.74
464.23	42117.94
464.41	42120.28
464.59	41771.54
464.78	43845.26
464.96	43119.69
465.14	43161.82
465.32	43941.22
465.50	45034.25
465.69	45530.44
465.87	44301.66
466.05	43290.55
466.23	41170.02
466.41	40610.64
466.60	42267.73
466.78	42396.46
466.96	42464.34
467.14	43246.08
467.32	43936.54
467.51	43629.93
467.69	42183.48
467.87	42895.00
468.05	43779.72
468.23	43643.97
468.41	43328.00
468.60	43833.55
468.78	43660.35
468.96	43882.70
469.14	44268.89
469.32	44463.16
469.50	42808.40
469.69	42660.94
469.87	42419.87
470.05	41862.82
470.23	41890.91
470.41	42366.04
470.59	42913.72
470.77	43103.31
470.95	44313.36
471.14	44514.65
471.32	43896.75
471.50	46782.63
471.68	46789.65
471.86	46742.84
472.04	47538.62
472.22	47342.02
472.40	44678.49
472.58	45078.72
472.77	44903.18
472.95	45680.24
473.13	46305.16
473.31	45591.30
473.49	45645.13
473.67	46157.70
473.85	46831.78
474.03	47847.57
474.21	47395.85
474.39	47952.90
474.57	48137.80
474.75	48193.97
474.93	47812.46
475.12	46967.53
475.30	47248.39
475.48	47440.32
475.66	47772.67
475.84	47332.65
476.02	46960.51
476.20	46429.21
476.38	47122.01
476.56	48657.40
476.74	48999.12
476.92	49310.41
477.10	49521.05
477.28	50298.11
477.46	50649.19
477.64	50820.05
477.82	51103.26
478.00	51283.48
478.18	50773.24
478.36	50356.63
478.54	50459.61
478.72	50784.94
478.90	52107.35
479.08	52685.46
479.26	52605.88
479.44	52886.74
479.62	52882.06
479.80	52619.92
479.98	52652.69
480.16	53034.20
480.34	52570.77
480.52	52940.58
480.70	53457.84
480.88	53242.51
481.06	54035.95
481.24	53977.43
481.41	54698.32
481.59	55173.45
481.77	54880.88
481.95	54450.22
482.13	54288.73
482.31	54429.16
482.49	54885.56
482.67	54848.11
482.85	55143.02
483.03	55526.87
483.21	55753.90
483.39	55566.66
483.57	54923.01
483.74	54848.11
483.92	55082.17
484.10	55171.11
484.28	56074.55
484.46	56198.60
484.64	56339.04
484.82	55889.65
485.00	55466.02
485.18	54958.12
485.35	53705.93
485.53	51199.22
485.71	48177.59
485.89	48069.92
486.07	50277.05
486.25	52556.73
486.43	54550.87
486.61	54803.64
486.78	54590.66
486.96	54983.86
487.14	56126.05
487.32	56870.34
487.50	57605.26
487.68	57818.25
487.85	58457.22
488.03	58560.20
488.21	58092.10
488.39	57509.30
488.57	57132.48
488.75	56945.23
488.92	57827.62
489.10	59421.52
489.28	60495.83
489.46	60788.39
489.64	60552.00
489.81	60601.15
489.99	60559.02
490.17	60727.54
490.35	61013.08
490.53	60418.59
490.70	60301.56
490.88	60116.66
491.06	60842.23
491.24	60725.20
491.41	59917.71
491.59	58794.26
491.77	58321.47
491.95	59283.43
492.13	60219.64
492.30	61223.73
492.48	61745.67
492.66	62209.10
492.84	61998.45
493.01	61986.75
493.19	61371.19
493.37	61036.49
493.54	61057.56
493.72	61818.23
493.90	62255.91
494.08	63086.80
494.25	63444.90
494.43	63573.63
494.61	63709.38
494.79	63903.65
494.96	63477.67
495.14	62787.21
495.32	62403.36
495.49	61661.41
495.67	62850.41
495.85	63805.34
496.02	63915.35
496.20	64095.57
496.38	63618.10
496.55	63590.01
496.73	64090.89
496.91	64025.35
497.09	64463.03
497.26	64661.98
497.44	64198.55
497.62	63653.21
497.79	62883.17
497.97	62024.20
498.14	62485.28
498.32	63264.68
498.50	63973.86
498.67	64294.52
498.85	64296.86
499.03	64264.09
499.20	64743.90
499.38	64715.81
499.56	64409.20
499.73	63903.65
499.91	63505.76
500.08	63398.09
500.26	62934.66
500.44	63229.57
500.61	63716.40
500.79	63487.03
500.97	63241.28
501.14	63039.99
501.32	63110.20
501.49	63084.46
501.67	63304.47
501.84	63585.33
502.02	63671.93
502.20	64086.21
502.37	64268.77
502.55	64343.67
502.72	64753.26
502.90	65256.48
503.07	64910.08
503.25	64697.09
503.43	63791.30
503.60	63234.25
503.78	62829.34
503.95	63391.07
504.13	64526.23
504.30	64989.66
504.48	64849.22
504.65	64577.72
504.83	64669.00
505.01	65378.18
505.18	65361.80
505.36	65535.00
505.53	65535.00
505.71	65535.00
505.88	65535.00
506.06	65535.00
506.23	65392.23
506.41	65076.26
506.58	65387.55
506.76	65265.84
506.93	65179.24
507.11	65034.13
507.28	65153.49
507.46	64711.13
507.63	64278.13
507.81	64210.26
507.98	64444.31
508.16	65013.06
508.33	65314.99
508.50	65535.00
508.68	65535.00
508.85	65535.00
509.03	65535.00
509.20	65535.00
509.38	65410.95
509.55	64842.20
509.73	65080.94
509.90	65326.69
510.08	65535.00
510.25	65535.00
510.42	65394.57
510.60	65424.99
510.77	65535.00
510.95	65535.00
511.12	65535.00
511.30	65535.00
511.47	65535.00
511.64	65535.00
511.82	65535.00
511.99	65535.00
512.17	65535.00
512.34	65036.47
512.51	65242.43
512.69	65228.39
512.86	65457.76
513.04	65535.00
513.21	65535.00
513.38	65300.95
513.56	64851.56
513.73	64573.04
513.90	64821.14
514.08	64905.40
514.25	64970.93
514.43	65375.84
514.60	65338.40
514.77	65254.14
514.95	65457.76
515.12	65333.71
515.29	65535.00
515.47	65535.00
515.64	65535.00
515.81	65535.00
515.99	65474.15
516.16	63999.61
516.33	62227.82
516.51	61087.98
516.68	60315.61
516.85	60121.34
517.03	60734.56
517.20	62906.58
517.37	64970.93
517.54	65535.00
517.72	64734.54
517.89	62773.17
518.06	61155.86
518.24	61776.10
518.41	63433.20
518.58	64350.69
518.75	64619.85
518.93	64629.21
519.10	64559.00
519.27	65066.89
519.45	65214.35
519.62	65535.00
519.79	65535.00
519.96	65535.00
520.14	65432.02
520.31	64570.70
520.48	64891.35
520.65	65240.09
520.83	65535.00
521.00	65535.00
521.17	65535.00
521.34	65535.00
521.52	65535.00
521.69	65535.00
521.86	65535.00
522.03	65535.00
522.20	65420.31
522.38	64573.04
522.55	64708.79
522.72	65186.26
522.89	65116.04
523.07	65200.30
523.24	65535.00
523.41	65535.00
523.58	65535.00
523.75	65535.00
523.92	65535.00
524.10	65535.00
524.27	65535.00
524.44	65535.00
524.61	65535.00
524.78	65535.00
524.96	65535.00
525.13	65535.00
525.30	65535.00
525.47	65535.00
525.64	65535.00
525.81	65535.00
525.98	65001.36
526.16	63707.04
526.33	63140.63
526.50	62887.85
526.67	62754.44
526.84	63257.66
527.01	63978.54
527.18	64638.57
527.36	65535.00
527.53	65535.00
527.70	65535.00
527.87	65535.00
528.04	65305.63
528.21	65535.00
528.38	65535.00
528.55	65535.00
528.72	65535.00
528.89	65535.00
529.07	65535.00
529.24	65535.00
529.41	65535.00
529.58	65535.00
529.75	65535.00
529.92	65535.00
530.09	65535.00
530.26	65535.00
530.43	65535.00
530.60	65535.00
530.77	65535.00
530.94	65535.00
531.11	65535.00
531.28	65535.00
531.46	65535.00
531.63	65535.00
531.80	65535.00
531.97	65535.00
532.14	65432.02
532.31	64427.93
532.48	64158.76
532.65	64175.15
532.82	64954.55
532.99	65535.00
533.16	65535.00
533.33	65535.00
533.50	65535.00
533.67	65535.00
533.84	65497.55
534.01	65535.00
534.18	65535.00
534.35	65535.00
534.52	65535.00
534.69	65535.00
534.86	65535.00
535.03	65535.00
535.20	65535.00
535.37	65535.00
535.54	65535.00
535.71	65535.00
535.88	65535.00
536.05	65535.00
536.22	65535.00
536.38	65535.00
536.55	65118.38
536.72	64708.79
536.89	64708.79
537.06	65448.40
537.23	65535.00
537.40	65535.00
537.57	65535.00
537.74	65535.00
537.91	65535.00
538.08	65535.00
538.25	65535.00
538.42	65535.00
538.59	65535.00
538.75	65457.76
538.92	65293.92
539.09	65202.64
539.26	65200.30
539.43	64992.00
539.60	65153.49
539.77	65013.06
539.94	64877.31
540.11	64505.16
540.28	64097.91
540.44	64130.68
540.61	64617.51
540.78	64743.90
540.95	65015.40
541.12	65354.78
541.29	65401.59
541.46	65535.00
541.62	65535.00
541.79	65471.81
541.96	65083.28
542.13	65151.15
542.30	65279.88
542.47	65530.32
542.63	65235.41
542.80	65176.90
542.97	65169.88
543.14	65097.32
543.31	65226.05
543.48	65483.51
543.64	65535.00
543.81	65535.00
543.98	65535.00
544.15	65535.00
544.32	65310.31
544.48	65513.94
544.65	65535.00
544.82	65535.00
544.99	65535.00
545.16	65476.49
545.32	65272.86
545.49	65535.00
545.66	65535.00
545.83	65535.00
546.00	65535.00
546.16	65359.46
546.33	65275.20
546.50	65382.87
546.67	65535.00
546.83	65247.11
547.00	65443.72
547.17	64881.99
547.34	64280.47
547.50	64418.56
547.67	64771.99
547.84	64931.14
548.00	65322.01
548.17	65403.93
548.34	65474.15
548.51	65481.17
548.67	65535.00
548.84	65535.00
549.01	65492.87
549.18	65174.56
549.34	65197.96
549.51	65417.97
549.68	65127.75
549.84	65036.47
550.01	64961.57
550.18	64879.65
550.34	65050.51
550.51	65134.77
550.68	65200.30
550.84	64605.81
551.01	64809.43
551.18	64856.24
551.34	64828.16
551.51	65087.96
551.68	65422.65
551.84	65261.16
552.01	65141.79
552.18	65020.08
552.34	64395.16
552.51	64385.80
552.68	64250.05
552.84	64484.10
553.01	64914.76
553.18	64762.62
553.34	64807.09
553.51	64872.63
553.67	65385.21
553.84	65312.65
554.01	65094.98
554.17	65099.66
554.34	65109.02
554.51	65307.97
554.67	65347.76
554.84	65256.48
555.00	64825.82
555.17	64790.71
555.33	64818.80
555.50	64832.84
555.67	64779.01
555.83	64537.93
556.00	64566.02
556.16	64392.82
556.33	64121.32
556.50	63994.93
556.66	63847.47
556.83	63772.58
556.99	63955.14
557.16	63889.60
557.32	64144.72
557.49	64566.02
557.65	64294.52
557.82	64207.92
557.98	64118.98
558.15	63812.37
558.32	63028.29
558.48	62410.38
558.65	62698.27
558.81	62850.41
558.98	63269.36
559.14	63456.60
559.31	63377.03
559.47	63398.09
559.64	63194.46
559.80	62712.31
559.97	62976.79
560.13	63468.31
560.30	63945.78
560.46	64493.46
560.63	64673.68
560.79	64559.00
560.96	64327.28
561.12	63398.09
561.29	62611.67
561.45	62635.08
561.61	63391.07
561.78	63597.04
561.94	63442.56
562.11	63475.33
562.27	63313.83
562.44	63526.82
562.60	63920.03
562.77	64037.06
562.93	64048.76
563.10	63791.30
563.26	63440.22
563.42	63201.49
563.59	63030.63
563.75	62911.26
563.92	63213.19
564.08	63126.59
564.24	63388.73
564.41	63430.86
564.57	63292.77
564.74	63250.64
564.90	63135.95
565.07	63037.65
565.23	62539.11
565.39	62197.40
565.56	62033.56
565.72	61876.74
565.88	62358.89
566.05	62265.27
566.21	62602.31
566.38	62670.18
566.54	62679.55
566.70	62981.48
566.87	63213.19
567.03	63241.28
567.19	63384.05
567.36	63131.27
567.52	63135.95
567.68	62588.27
567.85	62248.89
568.01	61984.41
568.17	61577.15
568.34	61645.03
568.50	61595.88
568.66	61787.80
568.83	61858.02
568.99	62071.01
569.15	62424.43
569.32	62358.89
569.48	61890.79
569.64	61972.70
569.81	61771.42
569.97	61666.09
570.13	61471.83
570.30	60961.59
570.46	60736.90
570.62	60383.48
570.78	60484.12
570.95	60697.11
571.11	61228.41
571.27	61396.93
571.43	61441.40
571.60	62024.20
571.76	62113.14
571.92	62314.42
572.09	62330.81
572.25	62422.09
572.41	62244.21
572.57	62033.56
572.74	62223.14
572.90	61797.16
573.06	61836.95
573.22	61843.98
573.38	61736.31
573.55	61619.28
573.71	61982.07
573.87	61661.41
574.03	61638.01
574.20	61553.75
574.36	61202.67
574.52	61219.05
574.68	61017.77
574.84	60556.68
575.01	60449.02
575.17	60385.82
575.33	60870.31
575.49	60910.10
575.65	61097.34
575.82	60921.80
575.98	60697.11
576.14	60935.85
576.30	61015.43
576.46	60985.00
576.62	60860.95
576.79	60947.55
576.95	60874.99
577.11	60889.04
577.27	60933.51
577.43	60767.33
577.59	60322.63
577.75	60219.64
577.92	59948.14
578.08	59700.04
578.24	59845.16
578.40	60048.78
578.56	60083.89
578.72	60196.24
578.88	60357.74
579.04	60458.38
579.21	60764.99
579.37	60449.02
579.53	60816.48
579.69	60500.51
579.85	60678.39
580.01	60573.06
580.17	60229.01
580.33	60037.08
580.49	60229.01
580.65	60364.76
580.82	60631.58
580.98	60437.31
581.14	60498.17
581.30	60793.07
581.46	60367.10
581.62	60596.47
581.78	60453.70
581.94	60580.09
582.10	60811.80
582.26	60846.91
582.42	60626.90
582.58	60741.58
582.74	60605.83
582.90	60933.51
583.06	60750.94
583.22	60577.75
583.38	60505.19
583.54	60390.50
583.70	60376.46
583.86	60397.52
584.02	60285.18
584.18	60397.52
584.34	60374.12
584.50	60179.85
584.66	60023.04
584.82	59751.54
584.98	59941.12
