SpectraSuite Data File
++++++++++++++++++++++++++++++++++++
Date: Mon Oct 07 14:53:41 GMT-05:00 2013
User: price-jones
Dark Spectrum Present: No
Reference Spectrum Present: No
Number of Sampled Component Spectra: 1
Spectrometers: USB2+H05261
Integration Time (usec): 100000 (USB2+H05261)
Spectra Averaged: 1 (USB2+H05261)
Boxcar Smoothing: 0 (USB2+H05261)
Correct for Electrical Dark: No (USB2+H05261)
Strobe/Lamp Enabled: No (USB2+H05261)
Correct for Detector Non-linearity: No (USB2+H05261)
Correct for Stray Light: No (USB2+H05261)
Number of Pixels in Processed Spectrum: 2048
>>>>>Begin Processed Spectral Data<<<<<
365.73	0.00
365.92	0.00
366.12	0.00
366.32	0.00
366.52	0.00
366.72	0.00
366.91	0.00
367.11	0.00
367.31	0.00
367.51	0.00
367.70	0.00
367.90	0.00
368.10	0.00
368.30	0.00
368.49	0.00
368.69	0.00
368.89	0.00
369.09	0.00
369.28	0.00
369.48	0.00
369.68	0.00
369.87	0.00
370.07	0.00
370.27	0.00
370.47	369.80
370.66	2216.49
370.86	2619.06
371.06	2822.69
371.25	2988.86
371.45	2607.36
371.65	2413.09
371.84	2174.36
372.04	2361.60
372.24	2661.19
372.44	2693.96
372.63	2654.17
372.83	2527.78
373.03	2263.30
373.22	2085.42
373.42	2099.46
373.62	2502.03
373.81	2700.98
374.01	2651.83
374.21	2347.56
374.40	2216.49
374.60	2359.26
374.79	2600.34
374.99	3070.78
375.19	3349.31
375.38	3302.50
375.58	3063.76
375.78	3052.06
375.97	3016.95
376.17	3108.23
376.37	3246.32
376.56	3288.45
376.76	3506.12
376.95	3808.05
377.15	3920.40
377.35	4170.83
377.54	4341.69
377.74	4432.97
377.93	4447.02
378.13	4355.74
378.33	3995.29
378.52	3794.01
378.72	3669.96
378.91	3653.58
379.11	3538.89
379.31	3356.33
379.50	3368.03
379.70	3616.13
379.89	4051.47
380.09	4124.02
380.28	4257.43
380.48	4304.25
380.68	4285.52
380.87	4149.77
381.07	3920.40
381.26	3557.61
381.46	3389.10
381.65	3218.24
381.85	3138.66
382.04	2932.69
382.24	2766.51
382.43	2710.34
382.63	2558.21
382.83	2616.72
383.02	2539.48
383.22	2574.59
383.41	2661.19
383.61	2822.69
383.80	3314.20
384.00	3562.30
384.19	4070.19
384.39	4334.67
384.58	4290.20
384.78	4189.56
384.97	4290.20
385.17	3955.51
385.36	3756.56
385.56	3571.66
385.75	3845.50
385.95	4156.79
386.14	4610.86
386.34	4294.88
386.53	4227.01
386.72	4095.94
386.92	4060.83
387.11	4243.39
387.31	4451.70
387.50	4369.78
387.70	4283.18
387.89	4140.41
388.09	4353.40
388.28	4231.69
388.48	4227.01
388.67	4669.37
388.86	5268.55
389.06	5252.16
389.25	5818.57
389.45	5881.77
389.64	5713.25
389.84	5802.19
390.03	5631.33
390.22	5668.78
390.42	5926.24
390.61	6221.14
390.81	6590.95
391.00	6942.03
391.19	6832.02
391.39	6282.00
391.58	6061.99
391.78	5652.39
391.97	5598.56
392.16	5071.94
392.36	4706.82
392.55	3805.71
392.75	3098.87
392.94	2424.80
393.13	2452.88
393.33	2888.22
393.52	3662.94
393.71	4526.60
393.91	5095.35
394.10	5650.05
394.29	5951.98
394.49	6525.41
394.68	6916.28
394.88	7171.40
395.07	7470.99
395.26	7262.68
395.46	7110.55
395.65	6621.38
395.84	5886.45
396.04	5029.81
396.23	3927.42
396.42	3297.81
396.62	3157.38
396.81	3810.39
397.00	4713.84
397.19	5930.92
397.39	7002.88
397.58	8067.83
397.77	8526.57
397.97	8894.04
398.16	8868.29
398.35	9430.02
398.55	9607.90
398.74	10071.33
398.93	9909.83
399.12	9933.23
399.32	9572.79
399.51	9970.68
399.70	10548.79
399.90	10391.98
400.09	10485.60
400.28	10190.69
400.47	10396.66
400.67	10640.08
400.86	11077.76
401.05	11323.51
401.24	11143.29
401.44	11384.37
401.63	11590.33
401.82	11508.41
402.01	11592.67
402.21	11599.70
402.40	11651.19
402.59	11330.53
402.78	11152.65
402.97	10583.90
403.17	10836.68
403.36	11889.92
403.55	12138.02
403.74	12184.83
403.93	11634.80
404.13	10867.11
404.32	10504.32
404.51	11054.35
404.70	11896.94
404.89	11861.84
405.09	11775.24
405.28	11295.43
405.47	11470.97
405.66	11435.86
405.85	11026.26
406.05	11152.65
406.24	10916.26
406.43	11681.61
406.62	11768.21
406.81	11688.64
407.00	11286.06
407.20	11206.48
407.39	11307.13
407.58	11754.17
407.77	12266.75
407.96	12521.87
408.15	12720.81
408.34	13011.04
408.54	13509.57
408.73	13731.92
408.92	13397.23
409.11	13029.76
409.30	12292.49
409.49	11756.51
409.68	10899.87
409.87	10504.32
410.07	11213.51
410.26	12105.25
410.45	13036.78
410.64	13341.05
410.83	13556.38
411.02	13926.19
411.21	14377.91
411.40	14211.73
411.59	14258.54
411.78	14558.13
411.98	13968.32
412.17	14422.38
412.36	13907.46
412.55	14059.60
412.74	13820.86
412.93	13666.39
413.12	13554.04
413.31	15047.30
413.50	15044.96
413.69	15262.63
413.88	14574.52
414.07	14188.33
414.26	14420.04
414.45	15286.04
414.64	15124.54
414.83	15035.60
415.02	14799.21
415.22	14970.07
415.41	15346.89
415.60	15459.24
415.79	16067.78
415.98	16882.28
416.17	16470.35
416.36	16280.77
416.55	16145.02
416.74	15297.74
416.93	14843.68
417.12	14944.32
417.31	15122.20
417.50	15587.97
417.69	15653.50
417.88	15805.64
418.07	15576.27
418.26	15578.61
418.45	15344.55
418.64	16372.05
418.83	16776.96
419.02	16533.54
419.21	16449.28
419.39	15995.22
419.58	15147.95
419.77	15040.28
419.96	15480.30
420.15	16503.12
420.34	16917.39
420.53	17689.77
420.72	18097.02
420.91	17977.65
421.10	17158.47
421.29	17722.54
421.48	16823.77
421.67	17547.00
421.86	17200.60
422.05	16042.03
422.24	14195.35
422.43	14174.28
422.61	15728.40
422.80	16964.20
422.99	17032.08
423.18	16414.18
423.37	16049.05
423.56	16142.67
423.75	16386.09
423.94	16666.95
424.13	15829.04
424.32	16231.62
424.50	16198.85
424.69	15943.73
424.88	16037.35
425.07	15782.23
425.26	16046.71
425.45	15791.59
425.64	15314.13
425.83	15412.43
426.01	16367.37
426.20	16875.26
426.39	16507.80
426.58	15463.92
426.77	14223.44
426.96	13729.58
427.15	14010.45
427.33	15302.42
427.52	16362.69
427.71	16121.61
427.90	16044.37
428.09	15744.78
428.28	15260.29
428.46	14986.45
428.65	14808.57
428.84	15075.39
429.03	15297.74
429.22	14651.75
429.40	14017.47
429.59	12699.75
429.78	10864.77
429.97	10885.83
430.16	11211.17
430.34	11492.03
430.53	11178.40
430.72	11363.30
430.91	12706.77
431.10	15021.56
431.28	17458.06
431.47	18761.73
431.66	19211.12
431.85	17238.05
432.03	16262.04
432.22	15417.11
432.41	16086.50
432.60	17832.54
432.79	18548.75
432.97	18977.06
433.16	18424.70
433.35	17202.94
433.54	15236.89
433.72	14331.10
433.91	14611.96
434.10	16493.76
434.28	17535.29
434.47	18623.64
434.66	18232.77
434.85	17872.33
435.03	17525.93
435.22	18118.09
435.41	19321.12
435.59	19616.03
435.78	19470.92
435.97	20411.81
436.16	20442.24
436.34	20030.30
436.53	19592.62
436.72	19578.58
436.90	18499.59
437.09	18424.70
437.28	17987.02
437.46	18689.18
437.65	18794.50
437.84	17514.23
438.02	16105.23
438.21	16027.99
438.40	16781.64
438.58	18118.09
438.77	18998.13
438.96	19122.18
439.14	19580.92
439.33	20276.06
439.52	20872.90
439.70	20058.39
439.89	19665.18
440.08	19073.03
440.26	19119.84
440.45	20006.90
440.63	21116.31
440.82	22253.81
441.01	21986.99
441.19	21855.92
441.38	21715.49
441.57	22576.81
441.75	22815.54
441.94	23187.69
442.12	23002.78
442.31	23311.74
442.50	23332.80
442.68	23290.67
442.87	22581.49
443.05	22508.93
443.24	22628.30
443.43	23178.33
443.61	23894.53
443.80	24304.12
443.98	22565.10
444.17	22546.38
444.35	23786.86
444.54	24414.13
444.73	24046.66
444.91	23183.01
445.10	22291.26
445.28	21455.69
445.47	21003.97
445.65	21193.55
445.84	21579.74
446.02	22511.27
446.21	22806.18
446.39	22860.01
446.58	22785.12
446.77	23428.76
446.95	23889.85
447.14	24353.27
447.32	25025.01
447.51	24210.50
447.69	23248.54
447.88	22958.31
448.06	23166.62
448.25	23826.65
448.43	24201.14
448.62	23328.12
448.80	23592.60
448.99	23709.63
449.17	23995.17
449.36	23812.61
449.54	24762.87
449.73	24957.13
449.91	25326.94
450.10	26319.32
450.28	26338.05
450.46	26651.68
450.65	26518.27
450.83	26206.98
451.02	25617.16
451.20	25724.83
451.39	25558.65
451.57	25535.24
451.76	24917.34
451.94	25088.20
452.13	24922.02
452.31	23768.14
452.49	22541.70
452.68	22654.05
452.86	22647.02
453.05	22984.06
453.23	23623.03
453.42	24353.27
453.60	24805.00
453.78	25172.46
453.97	24720.74
454.15	24723.08
454.34	24364.98
454.52	24451.58
454.70	23807.93
454.89	24336.89
455.07	24559.24
455.26	24907.98
455.44	25818.45
455.62	26415.29
455.81	26462.10
455.99	26033.78
456.17	25528.22
456.36	25858.24
456.54	26684.45
456.73	26597.85
456.91	26892.76
457.09	27208.73
457.28	27814.93
457.46	26368.48
457.64	26562.74
457.83	25628.87
458.01	24931.39
458.19	25731.85
458.38	25986.97
458.56	26806.16
458.74	26787.43
458.93	26096.97
459.11	26132.08
459.29	26174.21
459.48	26092.29
459.66	25537.59
459.84	26312.30
460.03	26764.03
460.21	26478.48
460.39	27454.48
460.57	27190.00
460.76	27604.28
460.94	27665.13
461.12	27309.37
461.31	27187.66
461.49	27178.30
461.67	27110.43
461.85	28044.30
462.04	27730.67
462.22	27604.28
462.40	28133.24
462.59	27821.95
462.77	28044.30
462.95	27976.42
463.13	27775.14
463.32	27220.43
463.50	27058.93
463.68	27381.93
463.86	27264.90
464.05	27054.25
464.23	26309.96
464.41	26026.76
464.59	25891.01
464.78	27185.32
464.96	27040.21
465.14	26625.93
465.32	27028.51
465.50	28180.05
465.69	28339.21
465.87	27641.73
466.05	26831.90
466.23	25921.43
466.41	25324.60
466.60	25888.67
466.78	25921.43
466.96	26307.62
467.14	26398.90
467.32	27527.04
467.51	27658.11
467.69	26132.08
467.87	26670.40
468.05	26581.46
468.23	26911.48
468.41	27374.91
468.60	27094.04
468.78	27498.95
468.96	27262.56
469.14	27620.66
469.32	27513.00
469.50	26831.90
469.69	26597.85
469.87	26024.42
470.05	26380.18
470.23	26443.37
470.41	26178.89
470.59	26600.19
470.77	26717.22
470.95	27098.72
471.14	27580.87
471.32	27763.43
471.50	29216.91
471.68	29305.85
471.86	29427.56
472.04	29799.70
472.22	29905.02
472.40	28414.10
472.58	28133.24
472.77	27496.61
472.95	27981.10
473.13	29275.42
473.31	28290.06
473.49	28634.11
473.67	28835.40
473.85	29160.73
474.03	30181.21
474.21	29993.97
474.39	30553.35
474.57	30600.16
474.75	30464.41
474.93	30787.41
475.12	29565.65
475.30	29460.32
475.48	29668.63
475.66	30272.49
475.84	29832.47
476.02	29652.25
476.20	28863.49
476.38	29514.16
476.56	30583.78
476.74	31234.45
476.92	31285.94
477.10	31936.61
477.28	32486.64
477.46	32716.01
477.64	32905.59
477.82	32914.95
478.00	32760.48
478.18	32683.24
478.36	32381.31
478.54	32758.14
478.72	32613.02
478.90	33633.50
479.08	34738.23
479.26	35119.74
479.44	35110.38
479.62	34759.30
479.80	34595.46
479.98	34625.89
480.16	35508.27
480.34	34604.82
480.52	34883.34
480.70	34988.67
480.88	35136.12
481.06	36023.19
481.24	36119.15
481.41	36933.65
481.59	37373.67
481.77	36912.59
481.95	36996.85
482.13	36402.35
482.31	36950.04
482.49	37310.48
482.67	36928.97
482.85	37312.82
483.03	38057.11
483.21	38394.15
483.39	38183.50
483.57	37675.60
483.74	37301.12
483.92	37647.52
484.10	37521.13
484.28	38880.98
484.46	38990.98
484.64	39391.22
484.82	38403.51
485.00	37888.59
485.18	37457.93
485.35	36278.30
485.53	33572.64
485.71	30841.24
485.89	30122.69
486.07	31468.50
486.25	34485.45
486.43	36116.81
486.61	37179.41
486.78	37153.66
486.96	37078.77
487.14	39210.99
487.32	39356.11
487.50	40598.93
487.68	41507.06
487.85	42794.36
488.03	41942.40
488.21	41881.55
488.39	40830.65
488.57	40725.32
488.75	39901.45
488.92	41270.67
489.10	43122.03
489.28	45310.43
489.46	46389.42
489.64	45993.87
489.81	46178.77
489.99	45560.87
490.17	45741.09
490.35	46265.37
490.53	45453.20
490.70	45020.20
490.88	44795.51
491.06	46368.35
491.24	46162.39
491.41	45076.38
491.59	42728.82
491.77	41926.02
491.95	43042.45
492.13	45015.52
492.30	46588.36
492.48	47824.17
492.66	48200.99
492.84	48102.69
493.01	47540.96
493.19	46925.40
493.37	46667.94
493.54	46384.74
493.72	47234.35
493.90	48369.51
494.08	49544.46
494.25	49785.54
494.43	50124.91
494.61	50286.41
494.79	50684.30
494.96	50293.43
495.14	49457.86
495.32	48245.46
495.49	47250.74
495.67	49066.99
495.85	50272.37
496.02	51028.36
496.20	50710.05
496.38	50548.55
496.55	49902.56
496.73	50649.19
496.91	51248.37
497.09	51899.04
497.26	51863.93
497.44	51306.88
497.62	50595.36
497.79	49914.26
497.97	48261.85
498.14	48154.18
498.32	49820.64
498.50	51068.15
498.67	51227.31
498.85	51601.79
499.03	51480.08
499.20	51931.81
499.38	52011.38
499.56	51444.98
499.73	50960.48
499.91	50520.46
500.08	50291.09
500.26	49127.84
500.44	49932.99
500.61	50630.47
500.79	50365.99
500.97	49837.03
501.14	49593.61
501.32	49485.95
501.49	49560.84
501.67	49638.08
501.84	50567.27
502.02	50522.80
502.20	51129.00
502.37	51283.48
502.55	51583.07
502.72	51821.80
502.90	52664.39
503.07	52392.89
503.25	51737.54
503.43	50501.74
503.60	49991.50
503.78	49385.30
503.95	49804.26
504.13	51512.85
504.30	52516.94
504.48	52147.14
504.65	51936.49
504.83	51723.50
505.01	52388.21
505.18	53151.23
505.36	53792.53
505.53	53815.94
505.71	54277.02
505.88	54220.85
506.06	53385.28
506.23	53095.05
506.41	52612.90
506.58	52956.96
506.76	52835.25
506.93	52825.89
507.11	52676.10
507.28	52481.83
507.46	51997.34
507.63	51295.18
507.81	51276.46
507.98	51239.01
508.16	52009.04
508.33	52786.10
508.50	53289.32
508.68	53614.65
508.85	54248.94
509.03	54101.48
509.20	54136.59
509.38	53357.19
509.55	52322.68
509.73	52114.37
509.90	52966.32
510.08	53263.57
510.25	53059.94
510.42	52961.64
510.60	52884.40
510.77	53284.64
510.95	53675.51
511.12	53949.35
511.30	54398.73
511.47	54422.14
511.64	54628.10
511.82	54192.76
511.99	53183.99
512.17	52781.42
512.34	52652.69
512.51	52640.99
512.69	52830.57
512.86	53109.10
513.04	53249.53
513.21	53460.18
513.38	52863.34
513.56	52261.82
513.73	51980.96
513.90	52189.27
514.08	52264.16
514.25	52640.99
514.43	52533.32
514.60	52435.02
514.77	52952.28
514.95	53069.31
515.12	53179.31
515.29	53083.35
515.47	53918.92
515.64	54061.69
515.81	53558.48
515.99	52917.17
516.16	50939.42
516.33	48570.80
516.51	46131.96
516.68	45272.98
516.85	44732.32
517.03	45055.31
517.20	48809.53
517.37	51868.61
517.54	53181.65
517.72	52580.13
517.89	49277.64
518.06	46703.05
518.24	46368.35
518.41	50035.97
518.58	51526.89
518.75	51693.07
518.93	52093.30
519.10	51622.86
519.27	52327.36
519.45	52690.14
519.62	53514.01
519.79	53616.99
519.96	53331.45
520.14	53148.88
520.31	51997.34
520.48	52090.96
520.65	52325.02
520.83	53483.58
521.00	54028.93
521.17	53719.98
521.34	53078.67
521.52	53443.79
521.69	54019.56
521.86	54548.53
522.03	54232.55
522.20	52963.98
522.38	51920.10
522.55	51309.22
522.72	52554.39
522.89	52743.97
523.07	52872.70
523.24	53015.47
523.41	54106.16
523.58	54377.67
523.75	55098.55
523.92	54646.83
524.10	54459.58
524.27	54796.62
524.44	54562.57
524.61	54253.62
524.78	54178.72
524.96	54007.86
525.13	54028.93
525.30	54595.34
525.47	55047.06
525.64	54656.19
525.81	53918.92
525.98	52313.31
526.16	50639.83
526.33	49827.66
526.50	49083.37
526.67	48610.59
526.84	49317.43
527.01	51075.17
527.18	51573.70
527.36	52853.98
527.53	53975.09
527.70	54218.51
527.87	53429.75
528.04	52940.58
528.21	53600.61
528.38	54075.74
528.55	54953.44
528.72	55274.09
528.89	55578.36
529.07	55089.19
529.24	54539.16
529.41	53631.04
529.58	52982.71
529.75	53125.48
529.92	53563.16
530.09	54115.53
530.26	54773.22
530.43	54953.44
530.60	55042.38
530.77	55491.76
530.94	55484.74
531.11	54831.73
531.28	54499.37
531.46	54351.92
531.63	54298.09
531.80	54134.25
531.97	53888.49
532.14	53073.99
532.31	51562.00
532.48	51061.13
532.65	51136.02
532.82	52432.68
532.99	53333.79
533.16	53722.32
533.33	54260.64
533.50	54195.10
533.67	53408.68
533.84	52788.44
534.01	53450.81
534.18	53455.50
534.35	54010.20
534.52	53556.14
534.69	54061.69
534.86	54284.04
535.03	54635.13
535.20	54937.05
535.37	55274.09
535.54	55267.07
535.71	55133.66
535.88	54616.40
536.05	53890.83
536.22	53469.54
536.38	52982.71
536.55	52765.04
536.72	51784.35
536.89	51828.82
537.06	52750.99
537.23	53975.09
537.40	54047.65
537.57	54298.09
537.74	53696.57
537.91	53914.24
538.08	53755.08
538.25	53993.82
538.42	54209.15
538.59	53813.60
538.75	53146.54
538.92	52774.40
539.09	52673.76
539.26	52512.26
539.43	52383.53
539.60	52310.97
539.77	52652.69
539.94	52245.44
540.11	51409.87
540.28	50557.91
540.44	51323.27
540.61	51344.33
540.78	51480.08
540.95	52442.04
541.12	52612.90
541.29	52931.22
541.46	53490.60
541.62	53116.12
541.79	53153.57
541.96	52325.02
542.13	52336.72
542.30	52683.12
542.47	52818.87
542.63	53043.56
542.80	52460.77
542.97	52683.12
543.14	52631.63
543.31	52788.44
543.48	53137.18
543.64	53979.78
543.81	54265.32
543.98	54487.67
544.15	53368.90
544.32	52692.48
544.48	52725.25
544.65	53315.06
544.82	53738.70
544.99	53186.33
545.16	53099.73
545.32	52472.47
545.49	53528.05
545.66	53975.09
545.83	53476.56
546.00	53127.82
546.16	52814.19
546.33	52830.57
546.50	52891.43
546.67	53347.83
546.83	52767.38
547.00	52973.34
547.17	52231.40
547.34	51505.83
547.50	51269.43
547.67	51782.01
547.84	51910.74
548.00	52404.59
548.17	53027.18
548.34	52790.78
548.51	52580.13
548.67	52699.50
548.84	52933.56
549.01	52858.66
549.18	52535.66
549.34	52533.32
549.51	52722.91
549.68	52526.30
549.84	52526.30
550.01	52135.43
550.18	52341.40
550.34	52310.97
550.51	52264.16
550.68	52519.28
550.84	51679.03
551.01	51892.02
551.18	51805.42
551.34	52341.40
551.51	52521.62
551.68	52884.40
551.84	52690.14
552.01	52498.22
552.18	52381.19
552.34	51779.67
552.51	51002.61
552.68	50621.11
552.84	51601.79
553.01	51859.25
553.18	51896.70
553.34	51824.14
553.51	52154.16
553.67	52252.46
553.84	52486.51
554.01	52451.41
554.17	52165.86
554.34	52292.25
554.51	52495.88
554.67	52671.42
554.84	52685.46
555.00	52051.17
555.17	51700.09
555.33	51952.87
555.50	51737.54
555.67	51915.42
555.83	51760.95
556.00	51171.13
556.16	51028.36
556.33	50658.56
556.50	50628.13
556.66	50981.55
556.83	50267.69
556.99	50656.21
557.16	50658.56
557.32	51033.04
557.49	51019.00
557.65	50953.46
557.82	51257.73
557.98	50897.29
558.15	50665.58
558.32	49467.22
558.48	48051.20
558.65	48875.07
558.81	49048.27
558.98	49769.15
559.14	50134.28
559.31	49602.97
559.47	49705.96
559.64	49144.23
559.80	48947.62
559.97	49275.30
560.13	49703.62
560.30	50735.79
560.46	51405.19
560.63	51765.63
560.79	51751.59
560.96	51358.38
561.12	49944.69
561.29	48809.53
561.45	48612.93
561.61	49593.61
561.78	49984.48
561.94	49614.68
562.11	49647.44
562.27	49380.62
562.44	49708.30
562.60	50176.40
562.77	50546.21
562.93	50527.48
563.10	50328.54
563.26	49666.17
563.42	49511.69
563.59	49382.96
563.75	49666.17
563.92	49610.00
564.08	49397.01
564.24	49701.28
564.41	50035.97
564.57	49570.21
564.74	49549.14
564.90	49598.29
565.07	48973.37
565.23	48657.40
565.39	47913.11
565.56	47351.38
565.72	47161.79
565.88	47920.13
566.05	47931.83
566.21	48460.79
566.38	48383.55
566.54	48870.39
566.70	48814.21
566.87	49532.76
567.03	49277.64
567.19	49453.18
567.36	49387.64
567.52	48868.05
567.68	48683.14
567.85	48062.90
568.01	47412.23
568.17	46848.16
568.34	47042.43
568.50	46637.51
568.66	47124.35
568.83	47798.42
568.99	48020.77
569.15	47934.17
569.32	47878.00
569.48	47267.12
569.64	47107.96
569.81	47002.64
569.97	47173.50
570.13	46983.91
570.30	46213.88
570.46	45528.10
570.62	45076.38
570.78	44704.23
570.95	45256.60
571.11	46197.49
571.27	46726.46
571.43	46848.16
571.60	47105.62
571.76	47313.93
571.92	47723.52
572.09	47367.76
572.25	47845.23
572.41	47833.53
572.57	47796.08
572.74	47922.47
572.90	47107.96
573.06	46967.53
573.22	46927.74
573.38	47217.97
573.55	47100.94
573.71	47264.78
573.87	46960.51
574.03	47096.26
574.20	46677.30
574.36	46024.29
574.52	46232.60
574.68	45944.72
574.84	45736.41
575.01	45684.92
575.17	44711.25
575.33	45371.28
575.49	45752.79
575.65	45993.87
575.82	45607.68
575.98	45162.98
576.14	45352.56
576.30	45713.00
576.46	45883.86
576.62	45965.78
576.79	46066.42
576.95	45366.60
577.11	45411.07
577.27	45661.51
577.43	45911.95
577.59	45076.38
577.75	44739.34
577.92	43323.32
578.08	43725.89
578.24	43260.12
578.40	43896.75
578.56	44116.76
578.72	44535.71
578.88	44648.06
579.04	45078.72
579.21	45132.55
579.37	45284.68
579.53	45214.47
579.69	45411.07
579.85	45258.94
580.01	45195.74
580.17	44779.13
580.33	44828.28
580.49	44512.31
580.65	44919.56
580.82	45188.72
580.98	45305.75
581.14	45020.20
581.30	45265.96
581.46	44914.88
581.62	45303.41
581.78	45111.49
581.94	45265.96
582.10	45331.50
582.26	45492.99
582.42	45390.01
582.58	45586.61
582.74	45441.50
582.90	45057.65
583.06	44755.72
583.22	45118.51
583.38	44533.37
583.54	45193.40
583.70	44741.68
583.86	44985.10
584.02	44451.45
584.18	44575.50
584.34	44755.72
584.50	44566.14
584.66	44364.85
584.82	43768.02
584.98	43838.23
585.14	43283.53
585.30	42548.60
