SpectraSuite Data File
++++++++++++++++++++++++++++++++++++
Date: Mon Oct 07 14:54:58 GMT-05:00 2013
User: price-jones
Dark Spectrum Present: No
Reference Spectrum Present: No
Number of Sampled Component Spectra: 1
Spectrometers: USB2+H05261
Integration Time (usec): 10000 (USB2+H05261)
Spectra Averaged: 1 (USB2+H05261)
Boxcar Smoothing: 0 (USB2+H05261)
Correct for Electrical Dark: No (USB2+H05261)
Strobe/Lamp Enabled: No (USB2+H05261)
Correct for Detector Non-linearity: No (USB2+H05261)
Correct for Stray Light: No (USB2+H05261)
Number of Pixels in Processed Spectrum: 2048
>>>>>Begin Processed Spectral Data<<<<<
365.73	0.00
365.92	0.00
366.12	0.00
366.32	0.00
366.52	0.00
366.72	0.00
366.91	0.00
367.11	0.00
367.31	0.00
367.51	0.00
367.70	0.00
367.90	0.00
368.10	0.00
368.30	0.00
368.49	0.00
368.69	0.00
368.89	0.00
369.09	0.00
369.28	0.00
369.48	0.00
369.68	0.00
369.87	0.00
370.07	0.00
370.27	0.00
370.47	0.00
370.66	102.98
370.86	189.58
371.06	252.78
371.25	222.35
371.45	220.01
371.65	173.20
371.84	184.90
372.04	189.58
372.24	217.67
372.44	205.97
372.63	194.26
372.83	147.45
373.03	196.60
373.22	44.47
373.42	100.64
373.62	238.73
373.81	198.95
374.01	224.69
374.21	191.92
374.40	131.07
374.60	131.07
374.79	168.52
374.99	306.61
375.19	381.51
375.38	341.72
375.58	285.55
375.78	245.76
375.97	280.86
376.17	224.69
376.37	285.55
376.56	327.68
376.76	332.36
376.95	397.89
377.15	402.57
377.35	381.51
377.54	535.98
377.74	454.06
377.93	517.26
378.13	519.60
378.33	447.04
378.52	318.31
378.72	294.91
378.91	341.72
379.11	285.55
379.31	330.02
379.50	327.68
379.70	383.85
379.89	437.68
380.09	393.21
380.28	416.62
380.48	395.55
380.68	510.24
380.87	498.53
381.07	407.25
381.26	304.27
381.46	294.91
381.65	259.80
381.85	285.55
382.04	245.76
382.24	201.29
382.43	159.16
382.63	208.31
382.83	173.20
383.02	161.50
383.22	128.73
383.41	231.71
383.61	224.69
383.80	330.02
384.00	393.21
384.19	318.31
384.39	477.47
384.58	372.15
384.78	402.57
384.97	409.59
385.17	411.93
385.36	332.36
385.56	273.84
385.75	351.08
385.95	367.46
386.14	437.68
386.34	503.22
386.53	517.26
386.72	472.79
386.92	379.17
387.11	425.98
387.31	407.25
387.50	489.17
387.70	514.92
387.89	475.13
388.09	379.17
388.28	407.25
388.48	383.85
388.67	559.39
388.86	547.69
389.06	627.26
389.25	627.26
389.45	748.97
389.64	638.97
389.84	692.80
390.03	669.39
390.22	709.18
390.42	784.08
390.61	755.99
390.81	791.10
391.00	800.46
391.19	788.76
391.39	802.80
391.58	713.86
391.78	753.65
391.97	585.13
392.16	498.53
392.36	433.00
392.55	271.50
392.75	212.99
392.94	126.39
393.13	156.82
393.33	191.92
393.52	397.89
393.71	444.70
393.91	592.16
394.10	683.44
394.29	685.78
394.49	812.17
394.68	866.00
394.88	844.93
395.07	880.04
395.26	847.27
395.46	781.74
395.65	805.14
395.84	613.22
396.04	491.51
396.23	367.46
396.42	224.69
396.62	241.08
396.81	425.98
397.00	496.19
397.19	748.97
397.39	863.66
397.58	896.43
397.77	1008.77
397.97	1100.05
398.16	1188.99
398.35	1111.75
398.55	1200.69
398.74	1320.06
398.93	1205.38
399.12	1336.45
399.32	1100.05
399.51	1277.93
399.70	1322.40
399.90	1266.23
400.09	1306.02
400.28	1224.10
400.47	1355.17
400.67	1350.49
400.86	1411.34
401.05	1397.30
401.24	1373.89
401.44	1378.58
401.63	1425.39
401.82	1444.11
402.01	1439.43
402.21	1500.28
402.40	1413.68
402.59	1439.43
402.78	1334.11
402.97	1284.95
403.17	1355.17
403.36	1437.09
403.55	1526.03
403.74	1528.37
403.93	1455.81
404.13	1310.70
404.32	1181.97
404.51	1345.81
404.70	1504.96
404.89	1542.41
405.09	1500.28
405.28	1371.55
405.47	1373.89
405.66	1343.47
405.85	1357.51
406.05	1362.19
406.24	1364.53
406.43	1418.36
406.62	1474.54
406.81	1324.74
407.00	1352.83
407.20	1376.24
407.39	1308.36
407.58	1451.13
407.77	1467.52
407.96	1556.46
408.15	1575.18
408.34	1600.93
408.54	1659.44
408.73	1666.46
408.92	1717.95
409.11	1643.06
409.30	1423.05
409.49	1448.79
409.68	1338.79
409.87	1256.87
410.07	1348.15
410.26	1530.71
410.45	1556.46
410.64	1650.08
410.83	1612.63
411.02	1732.00
411.21	1804.55
411.40	1767.10
411.59	1767.10
411.78	1877.11
411.98	1689.87
412.17	1832.64
412.36	1696.89
412.55	1755.40
412.74	1607.95
412.93	1746.04
413.12	1713.27
413.31	1858.39
413.50	1804.55
413.69	1830.30
413.88	1795.19
414.07	1724.97
414.26	1736.68
414.45	1902.86
414.64	1846.68
414.83	1867.75
415.02	1846.68
415.22	1839.66
415.41	1837.32
415.60	1947.33
415.79	2054.99
415.98	1947.33
416.17	2040.95
416.36	2083.08
416.55	1898.17
416.74	1970.73
416.93	1867.75
417.12	1860.73
417.31	1689.87
417.50	1858.39
417.69	1898.17
417.88	1851.36
418.07	1872.43
418.26	2012.86
418.45	1937.96
418.64	1874.77
418.83	1975.41
419.02	2038.61
419.21	1881.79
419.39	1865.41
419.58	1881.79
419.77	1764.76
419.96	1888.81
420.15	1959.03
420.34	2008.18
420.53	2141.59
420.72	2209.47
420.91	2183.72
421.10	2134.57
421.29	2125.21
421.48	2036.27
421.67	2162.66
421.86	2125.21
422.05	1888.81
422.24	1757.74
422.43	1678.16
422.61	1975.41
422.80	2087.76
422.99	2026.90
423.18	2033.93
423.37	1984.77
423.56	1856.04
423.75	1940.30
423.94	2115.84
424.13	1877.11
424.32	1994.14
424.50	1947.33
424.69	1898.17
424.88	1942.64
425.07	1865.41
425.26	1898.17
425.45	1884.13
425.64	1870.09
425.83	1884.13
426.01	1912.22
426.20	1942.64
426.39	1881.79
426.58	1930.94
426.77	1643.06
426.96	1647.74
427.15	1827.96
427.33	1767.10
427.52	1825.62
427.71	1834.98
427.90	1961.37
428.09	1860.73
428.28	1837.32
428.46	1806.89
428.65	1743.70
428.84	1767.10
429.03	1818.60
429.22	1762.42
429.40	1621.99
429.59	1373.89
429.78	1268.57
429.97	1256.87
430.16	1238.14
430.34	1217.08
430.53	1306.02
430.72	1259.21
430.91	1530.71
431.10	1720.29
431.28	2111.16
431.47	2284.36
431.66	2228.19
431.85	2050.31
432.03	1961.37
432.22	1799.87
432.41	1956.69
432.60	2087.76
432.79	2202.44
432.97	2239.89
433.16	2202.44
433.35	2080.74
433.54	1813.92
433.72	1699.23
433.91	1710.93
434.10	1902.86
434.28	2092.44
434.47	2209.47
434.66	2160.31
434.85	2146.27
435.03	2064.35
435.22	2064.35
435.41	2260.96
435.59	2279.68
435.78	2312.45
435.97	2375.64
436.16	2321.81
436.34	2377.98
436.53	2197.76
436.72	2359.26
436.90	2076.06
437.09	2150.95
437.28	2040.95
437.46	2172.02
437.65	2108.82
437.84	2015.20
438.02	1923.92
438.21	1853.70
438.40	1973.07
438.58	2129.89
438.77	2169.68
438.96	2204.78
439.14	2258.62
439.33	2225.85
439.52	2382.67
439.70	2335.85
439.89	2298.41
440.08	2284.36
440.26	2225.85
440.45	2399.05
440.63	2518.42
440.82	2476.29
441.01	2583.95
441.19	2518.42
441.38	2717.36
441.57	2710.34
441.75	2761.83
441.94	2630.76
442.12	2642.46
442.31	2703.32
442.50	2738.43
442.68	2693.96
442.87	2712.68
443.05	2644.81
443.24	2579.27
443.43	2717.36
443.61	2796.94
443.80	2881.20
443.98	2553.52
444.17	2520.76
444.35	2780.56
444.54	2909.29
444.73	2703.32
444.91	2682.25
445.10	2616.72
445.28	2464.58
445.47	2455.22
445.65	2422.45
445.84	2417.77
446.02	2574.59
446.21	2651.83
446.39	2595.65
446.58	2778.22
446.77	2722.04
446.95	2759.49
447.14	2771.19
447.32	2780.56
447.51	2792.26
447.69	2703.32
447.88	2672.89
448.06	2796.94
448.25	2738.43
448.43	2803.96
448.62	2665.87
448.80	2642.46
448.99	2682.25
449.17	2654.17
449.36	2628.42
449.54	2775.88
449.73	2853.11
449.91	2780.56
450.10	2991.20
450.28	2902.26
450.46	3007.59
450.65	3014.61
450.83	3073.12
451.02	2869.50
451.20	2883.54
451.39	2799.28
451.57	2876.52
451.76	2925.67
451.94	2775.88
452.13	2764.17
452.31	2579.27
452.49	2588.63
452.68	2637.78
452.86	2626.08
453.05	2546.50
453.23	2708.00
453.42	2902.26
453.60	2939.71
453.78	2897.58
453.97	2860.13
454.15	2799.28
454.34	2733.75
454.52	2759.49
454.70	2792.26
454.89	2834.39
455.07	2794.60
455.26	2785.24
455.44	2869.50
455.62	2949.08
455.81	3084.83
455.99	2942.05
456.17	2928.01
456.36	3033.33
456.54	3028.65
456.73	2998.23
456.91	3042.70
457.09	3014.61
457.28	3049.72
457.46	2970.14
457.64	3136.32
457.83	2902.26
458.01	2773.53
458.19	2862.48
458.38	2843.75
458.56	3098.87
458.74	3042.70
458.93	2972.48
459.11	2860.13
459.29	2874.18
459.48	2768.85
459.66	2782.90
459.84	2986.52
460.03	3063.76
460.21	2972.48
460.39	3009.93
460.57	2939.71
460.76	3098.87
460.94	3094.19
461.12	3014.61
461.31	3077.80
461.49	3084.83
461.67	3096.53
461.85	3096.53
462.04	3091.85
462.22	3108.23
462.40	3066.10
462.59	3056.74
462.77	3141.00
462.95	3194.83
463.13	3023.97
463.32	3054.40
463.50	3021.63
463.68	3019.29
463.86	2991.20
464.05	2935.03
464.23	2801.62
464.41	2897.58
464.59	2862.48
464.78	2967.80
464.96	3126.96
465.14	2988.86
465.32	3033.33
465.50	3141.00
465.69	3176.11
465.87	3038.02
466.05	2939.71
466.23	2719.70
466.41	2810.98
466.60	2906.95
466.78	2848.43
466.96	2818.00
467.14	3035.67
467.32	2967.80
467.51	3089.51
467.69	2876.52
467.87	2785.24
468.05	3000.57
468.23	3131.64
468.41	2930.35
468.60	3042.70
468.78	3155.04
468.96	2956.10
469.14	3052.06
469.32	2956.10
469.50	2841.41
469.69	2974.82
469.87	2846.09
470.05	2888.22
470.23	3054.40
470.41	2885.88
470.59	3056.74
470.77	3007.59
470.95	2932.69
471.14	3023.97
471.32	3026.31
471.50	3148.02
471.68	3204.19
471.86	3239.30
472.04	3283.77
472.22	3253.34
472.40	2984.18
472.58	3035.67
472.77	3063.76
472.95	3054.40
473.13	3159.72
473.31	3000.57
473.49	2988.86
473.67	3166.74
473.85	3133.98
474.03	3419.52
474.21	3272.07
474.39	3365.69
474.57	3417.18
474.75	3328.24
474.93	3339.94
475.12	3248.66
475.30	3124.62
475.48	3150.36
475.66	3246.32
475.84	3138.66
476.02	3155.04
476.20	3063.76
476.38	3117.59
476.56	3370.37
476.74	3431.23
476.92	3269.73
477.10	3482.72
477.28	3494.42
477.46	3545.91
477.64	3644.21
477.82	3728.47
478.00	3562.30
478.18	3578.68
478.36	3440.59
478.54	3557.61
478.72	3524.85
478.90	3660.60
479.08	3765.92
479.26	3758.90
479.44	3754.22
479.62	3784.65
479.80	3662.94
479.98	3716.77
480.16	3868.91
480.34	3730.81
480.52	3829.12
480.70	3861.88
480.88	3861.88
481.06	3901.67
481.24	3941.46
481.41	3896.99
481.59	4037.42
481.77	4051.47
481.95	3957.85
482.13	3983.59
482.31	3974.23
482.49	3964.87
482.67	4067.85
482.85	3971.89
483.03	3971.89
483.21	4208.28
483.39	4147.43
483.57	4042.11
483.74	3978.91
483.92	4159.13
484.10	4245.73
484.28	4180.20
484.46	4241.05
484.64	4285.52
484.82	4063.17
485.00	4187.22
485.18	4023.38
485.35	3775.28
485.53	3508.46
485.71	3279.09
485.89	3157.38
486.07	3386.76
486.25	3749.54
486.43	3894.65
486.61	4011.68
486.78	3939.12
486.96	4126.36
487.14	4191.90
487.32	4234.03
487.50	4489.15
487.68	4503.19
487.85	4552.34
488.03	4514.89
488.21	4627.24
488.39	4437.66
488.57	4355.74
488.75	4407.23
488.92	4402.55
489.10	4725.54
489.28	4894.06
489.46	4957.25
489.64	5039.17
489.81	5088.32
489.99	4936.19
490.17	4819.16
490.35	5022.79
490.53	4966.62
490.70	4758.31
490.88	4926.83
491.06	5043.85
491.24	5060.24
491.41	4898.74
491.59	4638.94
491.77	4566.39
491.95	4692.77
492.13	4894.06
492.30	5006.41
492.48	5205.35
492.66	5231.10
492.84	5334.08
493.01	5247.48
493.19	5144.50
493.37	4887.04
493.54	4959.60
493.72	5104.71
493.90	5303.65
494.08	5331.74
494.25	5359.83
494.43	5568.13
494.61	5523.66
494.79	5673.46
494.96	5738.99
495.14	5544.73
495.32	5345.78
495.49	5238.12
495.67	5451.11
495.85	5668.78
496.02	5643.03
496.20	5799.85
496.38	5572.82
496.55	5521.32
496.73	5671.12
496.91	5764.74
497.09	5802.19
497.26	5816.23
497.44	5741.33
497.62	5479.19
497.79	5490.90
497.97	5291.95
498.14	5210.03
498.32	5416.00
498.50	5825.59
498.67	5921.56
498.85	5664.10
499.03	5746.02
499.20	5996.45
499.38	5724.95
499.56	5729.63
499.73	5783.46
499.91	5469.83
500.08	5373.87
500.26	5313.02
500.44	5413.66
500.61	5598.56
500.79	5509.62
500.97	5406.64
501.14	5364.51
501.32	5392.59
501.49	5392.59
501.67	5448.77
501.84	5561.11
502.02	5652.39
502.20	5591.54
502.37	5717.93
502.55	5678.14
502.72	5951.98
502.90	5804.53
503.07	5827.93
503.25	5495.58
503.43	5570.48
503.60	5509.62
503.78	5282.59
503.95	5387.91
504.13	5713.25
504.30	5654.73
504.48	5806.87
504.65	5661.76
504.83	5668.78
505.01	5834.96
505.18	5769.42
505.36	6050.28
505.53	6141.57
505.71	6274.98
505.88	6157.95
506.06	5940.28
506.23	6047.94
506.41	5970.71
506.58	5841.98
506.76	5830.27
506.93	5877.09
507.11	5790.49
507.28	5778.78
507.46	5823.25
507.63	5582.18
507.81	5556.43
507.98	5593.88
508.16	5692.18
508.33	5867.72
508.50	6097.10
508.68	5996.45
508.85	6127.52
509.03	6141.57
509.20	6106.46
509.38	5886.45
509.55	5675.80
509.73	5776.44
509.90	6022.20
510.08	6026.88
510.25	5881.77
510.42	5947.30
510.60	5909.85
510.77	5914.53
510.95	6157.95
511.12	6293.70
511.30	6118.16
511.47	6230.51
511.64	6150.93
511.82	6214.12
511.99	5959.00
512.17	5860.70
512.34	5898.15
512.51	5731.97
512.69	5753.04
512.86	5846.66
513.04	5956.66
513.21	5959.00
513.38	5668.78
513.56	5706.23
513.73	5497.92
513.90	5650.05
514.08	5650.05
514.25	5799.85
514.43	5746.02
514.60	5818.57
514.77	5823.25
514.95	5928.58
515.12	5701.54
515.29	6047.94
515.47	6146.25
515.64	6127.52
515.81	5823.25
515.99	5818.57
516.16	5633.67
516.33	5032.15
516.51	4922.15
516.68	4645.96
516.85	4610.86
517.03	4718.52
517.20	5116.41
517.37	5401.96
517.54	5743.67
517.72	5671.12
517.89	5214.71
518.06	4681.07
518.24	4807.46
518.41	5371.53
518.58	5518.98
518.75	5526.00
518.93	5493.24
519.10	5467.49
519.27	5561.11
519.45	5778.78
519.62	5849.00
519.79	6104.12
519.96	5987.09
520.14	5699.20
520.31	5671.12
520.48	5540.05
520.65	5666.44
520.83	5837.30
521.00	5968.37
521.17	5832.62
521.34	5687.50
521.52	5987.09
521.69	5996.45
521.86	6176.67
522.03	6043.26
522.20	5849.00
522.38	5575.16
522.55	5448.77
522.72	5692.18
522.89	5645.37
523.07	5802.19
523.24	5853.68
523.41	6118.16
523.58	6036.24
523.75	6057.31
523.92	6274.98
524.10	6061.99
524.27	6136.88
524.44	6176.67
524.61	6045.60
524.78	5947.30
524.96	5977.73
525.13	5956.66
525.30	5959.00
525.47	6169.65
525.64	6059.65
525.81	6036.24
525.98	5572.82
526.16	5322.38
526.33	5181.95
526.50	5109.39
526.67	5050.88
526.84	5132.79
527.01	5284.93
527.18	5441.75
527.36	5671.12
527.53	5858.36
527.70	5923.90
527.87	5760.06
528.04	5717.93
528.21	5724.95
528.38	6064.33
528.55	5961.34
528.72	6251.57
528.89	6272.64
529.07	6169.65
529.24	5951.98
529.41	5724.95
529.58	5818.57
529.75	5650.05
529.92	5963.68
530.09	5907.51
530.26	6174.33
530.43	6179.01
530.60	5966.03
530.77	6122.84
530.94	6296.04
531.11	6015.18
531.28	5949.64
531.46	6040.92
531.63	6043.26
531.80	5874.74
531.97	5954.32
532.14	5687.50
532.31	5371.53
532.48	5348.12
532.65	5423.02
532.82	5420.68
532.99	5678.14
533.16	5872.40
533.33	5874.74
533.50	5886.45
533.67	5858.36
533.84	5699.20
534.01	5570.48
534.18	5804.53
534.35	5799.85
534.52	5905.17
534.69	5790.49
534.86	5804.53
535.03	5797.51
535.20	6036.24
535.37	6167.31
535.54	6127.52
535.71	6022.20
535.88	5966.03
536.05	5888.79
536.22	5675.80
536.38	5607.92
536.55	5551.75
536.72	5441.75
536.89	5441.75
537.06	5565.79
537.23	5617.29
537.40	5823.25
537.57	5851.34
537.74	5699.20
537.91	5764.74
538.08	5823.25
538.25	5750.70
538.42	5867.72
538.59	5713.25
538.75	5598.56
538.92	5544.73
539.09	5750.70
539.26	5526.00
539.43	5387.91
539.60	5444.09
539.77	5542.39
539.94	5406.64
540.11	5458.13
540.28	5238.12
540.44	5296.63
540.61	5458.13
540.78	5284.93
540.95	5708.57
541.12	5540.05
541.29	5614.95
541.46	5460.47
541.62	5703.89
541.79	5628.99
541.96	5427.70
542.13	5488.56
542.30	5743.67
542.47	5736.65
542.63	5397.28
542.80	5434.72
542.97	5486.22
543.14	5535.37
543.31	5401.96
543.48	5657.07
543.64	5816.23
543.81	5692.18
543.98	5781.12
544.15	5671.12
544.32	5413.66
544.48	5537.71
544.65	5575.16
544.82	5561.11
544.99	5661.76
545.16	5589.20
545.32	5563.45
545.49	5441.75
545.66	5687.50
545.83	5593.88
546.00	5736.65
546.16	5476.85
546.33	5383.23
546.50	5497.92
546.67	5621.97
546.83	5657.07
547.00	5633.67
547.17	5359.83
547.34	5324.72
547.50	5249.82
547.67	5451.11
547.84	5338.76
548.00	5509.62
548.17	5430.04
548.34	5383.23
548.51	5434.72
548.67	5366.85
548.84	5511.96
549.01	5647.71
549.18	5568.13
549.34	5458.13
549.51	5497.92
549.68	5418.34
549.84	5322.38
550.01	5439.40
550.18	5483.88
550.34	5320.04
550.51	5121.09
550.68	5434.72
550.84	5338.76
551.01	5284.93
551.18	5364.51
551.34	5334.08
551.51	5362.17
551.68	5394.93
551.84	5493.24
552.01	5411.32
552.18	5411.32
552.34	5298.97
552.51	5259.18
552.68	5186.63
552.84	5214.71
553.01	5303.65
553.18	5135.14
553.34	5305.99
553.51	5263.86
553.67	5287.27
553.84	5371.53
554.01	5376.21
554.17	5404.30
554.34	5385.57
554.51	5397.28
554.67	5523.66
554.84	5397.28
555.00	5308.34
555.17	5149.18
555.33	5392.59
555.50	5200.67
555.67	5371.53
555.83	5273.23
556.00	5114.07
556.16	5163.22
556.33	5102.37
556.50	5053.22
556.66	5111.73
556.83	4959.60
556.99	5060.24
557.16	4931.51
557.32	5224.08
557.49	5221.74
557.65	5083.64
557.82	5294.29
557.98	5109.39
558.15	5151.52
558.32	4807.46
558.48	4809.80
558.65	4681.07
558.81	4751.29
558.98	4786.40
559.14	4929.17
559.31	4992.36
559.47	4753.63
559.64	4830.87
559.80	4854.27
559.97	4798.10
560.13	4912.78
560.30	5224.08
560.46	5153.86
560.63	5341.10
560.79	5060.24
560.96	5006.41
561.12	4915.12
561.29	4734.90
561.45	4723.20
561.61	4819.16
561.78	4961.94
561.94	4765.33
562.11	4971.30
562.27	5060.24
562.44	4910.44
562.60	4880.02
562.77	4947.89
562.93	4896.40
563.10	5102.37
563.26	4842.57
563.42	4842.57
563.59	4889.38
563.75	4954.91
563.92	4798.10
564.08	4943.21
564.24	4812.14
564.41	5015.77
564.57	4809.80
564.74	4896.40
564.90	4959.60
565.07	4985.34
565.23	4704.48
565.39	4718.52
565.56	4744.27
565.72	4514.89
565.88	4552.34
566.05	4655.33
566.21	4671.71
566.38	4777.03
566.54	4652.98
566.70	4791.08
566.87	4718.52
567.03	4814.48
567.19	4938.53
567.36	4863.63
567.52	4887.04
567.68	4746.61
567.85	4720.86
568.01	4620.22
568.17	4454.04
568.34	4503.19
568.50	4299.56
568.66	4627.24
568.83	4641.28
568.99	4648.30
569.15	4533.62
569.32	4524.26
569.48	4744.27
569.64	4521.92
569.81	4432.97
569.97	4470.42
570.13	4624.90
570.30	4341.69
570.46	4318.29
570.62	4304.25
570.78	4229.35
570.95	4198.92
571.11	4454.04
571.27	4498.51
571.43	4465.74
571.60	4575.75
571.76	4559.36
571.92	4603.83
572.09	4622.56
572.25	4610.86
572.41	4617.88
572.57	4475.10
572.74	4444.68
572.90	4475.10
573.06	4587.45
573.22	4456.38
573.38	4631.92
573.55	4512.55
573.71	4397.87
573.87	4470.42
574.03	4447.02
574.20	4360.42
574.36	4484.47
574.52	4276.16
574.68	4397.87
574.84	4248.07
575.01	4149.77
575.17	4227.01
575.33	4243.39
575.49	4358.08
575.65	4325.31
575.82	4337.01
575.98	4194.24
576.14	4388.50
576.30	4353.40
576.46	4313.61
576.62	4301.90
576.79	4346.37
576.95	4411.91
577.11	4250.41
577.27	4217.65
577.43	4287.86
577.59	4306.59
577.75	4121.68
577.92	4067.85
578.08	4004.66
578.24	4021.04
578.40	4074.87
578.56	4257.43
578.72	4140.41
578.88	4138.07
579.04	4269.14
579.21	4212.96
579.37	4290.20
579.53	4252.75
579.69	4250.41
579.85	4196.58
580.01	4217.65
580.17	4098.28
580.33	4219.99
580.49	4063.17
580.65	4142.75
580.82	4292.54
580.98	4292.54
581.14	4236.37
581.30	4131.05
581.46	4128.70
581.62	4238.71
581.78	4156.79
581.94	4166.15
582.10	4297.22
582.26	4095.94
582.42	4271.48
582.58	4159.13
582.74	4147.43
582.90	4294.88
583.06	4301.90
583.22	4215.30
583.38	4278.50
583.54	4271.48
583.70	4095.94
583.86	4109.98
584.02	4119.34
584.18	4128.70
584.34	4212.96
584.50	4187.22
584.66	4117.00
584.82	4112.32
584.98	3997.64
585.14	3990.61
585.30	3866.56
585.46	3803.37
585.62	4060.83
585.78	3978.91
585.94	3817.41
586.10	3904.01
586.26	3969.55
586.42	4067.85
586.58	3960.19
586.74	3892.31
586.90	3955.51
587.06	3955.51
587.22	4070.19
587.38	3999.98
587.54	4002.32
587.70	4011.68
587.86	3833.80
588.02	3889.97
588.18	3866.56
588.34	3698.05
588.49	3428.88
588.65	3351.65
588.81	3311.86
588.97	3337.60
589.13	3218.24
589.29	3239.30
589.45	3356.33
589.61	3407.82
589.77	3585.70
589.93	3623.15
590.08	3794.01
590.24	3730.81
590.40	3754.22
590.56	3679.32
590.72	3801.03
590.88	3770.60
591.04	3639.53
591.20	3672.30
591.35	3637.19
591.51	3599.74
591.67	3534.21
591.83	3581.02
591.99	3588.04
592.15	3707.41
592.31	3627.83
592.46	3777.62
592.62	3719.11
592.78	3576.34
592.94	3543.57
593.10	3641.87
593.26	3639.53
593.41	3810.39
593.57	3733.15
593.73	3618.47
593.89	3562.30
594.05	3555.27
594.20	3648.90
594.36	3648.90
594.52	3494.42
594.68	3499.10
594.84	3529.53
594.99	3571.66
595.15	3396.12
595.31	3658.26
595.47	3632.51
595.62	3541.23
595.78	3660.60
595.94	3684.00
596.10	3616.13
596.25	3471.01
596.41	3480.38
596.57	3520.17
596.73	3552.93
596.88	3508.46
597.04	3506.12
597.20	3597.40
597.36	3475.70
597.51	3571.66
597.67	3569.32
597.83	3466.33
597.99	3452.29
