SpectraSuite Data File
++++++++++++++++++++++++++++++++++++
Date: Mon Oct 07 14:53:30 GMT-05:00 2013
User: price-jones
Dark Spectrum Present: No
Reference Spectrum Present: No
Number of Sampled Component Spectra: 1
Spectrometers: USB2+H05261
Integration Time (usec): 100000 (USB2+H05261)
Spectra Averaged: 1 (USB2+H05261)
Boxcar Smoothing: 0 (USB2+H05261)
Correct for Electrical Dark: No (USB2+H05261)
Strobe/Lamp Enabled: No (USB2+H05261)
Correct for Detector Non-linearity: No (USB2+H05261)
Correct for Stray Light: No (USB2+H05261)
Number of Pixels in Processed Spectrum: 2048
>>>>>Begin Processed Spectral Data<<<<<
365.73	0.00
365.92	0.00
366.12	0.00
366.32	0.00
366.52	0.00
366.72	0.00
366.91	0.00
367.11	0.00
367.31	0.00
367.51	0.00
367.70	0.00
367.90	0.00
368.10	0.00
368.30	0.00
368.49	0.00
368.69	0.00
368.89	0.00
369.09	0.00
369.28	0.00
369.48	0.00
369.68	0.00
369.87	0.00
370.07	0.00
370.27	0.00
370.47	631.94
370.66	3300.16
370.86	3728.47
371.06	4128.70
371.25	4105.30
371.45	3667.62
371.65	3456.97
371.84	3225.26
372.04	3253.34
372.24	3740.18
372.44	3786.99
372.63	3880.61
372.83	3686.34
373.03	3241.64
373.22	2897.58
373.42	3148.02
373.62	3637.19
373.81	3726.13
374.01	3896.99
374.21	3445.27
374.40	3133.98
374.60	3314.20
374.79	3777.62
374.99	4259.78
375.19	4697.46
375.38	4746.61
375.58	4470.42
375.78	4547.66
375.97	4248.07
376.17	4681.07
376.37	4538.30
376.56	4751.29
376.76	5034.49
376.95	5212.37
377.15	5603.24
377.35	5940.28
377.54	6237.53
377.74	6429.45
377.93	6342.85
378.13	6118.16
378.33	5774.10
378.52	5273.23
378.72	5081.30
378.91	5036.83
379.11	4868.31
379.31	4830.87
379.50	4571.07
379.70	5071.94
379.89	5467.49
380.09	5877.09
380.28	6108.80
380.48	6043.26
380.68	6003.47
380.87	6085.39
381.07	5455.79
381.26	5217.05
381.46	4770.01
381.65	4475.10
381.85	4580.43
382.04	4341.69
382.24	4163.81
382.43	3693.37
382.63	3857.20
382.83	3784.65
383.02	3599.74
383.22	3707.41
383.41	3770.60
383.61	4135.73
383.80	4578.09
384.00	5317.70
384.19	5818.57
384.39	6094.76
384.58	6104.12
384.78	6066.67
384.97	5942.62
385.17	5710.91
385.36	5390.25
385.56	5071.94
385.75	5245.14
385.95	5809.21
386.14	6370.94
386.34	6228.17
386.53	6029.22
386.72	5563.45
386.92	5678.14
387.11	6106.46
387.31	6347.53
387.50	6207.10
387.70	6066.67
387.89	5919.21
388.09	6022.20
388.28	6003.47
388.48	5942.62
388.67	6392.00
388.86	7382.05
389.06	7590.36
389.25	8037.40
389.45	8198.90
389.64	8194.22
389.84	7999.95
390.03	7934.42
390.22	7857.18
390.42	8250.39
390.61	8685.73
390.81	9212.35
391.00	9561.09
391.19	9465.13
391.39	9198.31
391.58	8535.93
391.78	8079.53
391.97	7861.86
392.16	7545.89
392.36	6551.16
392.55	5404.30
392.75	4353.40
392.94	3452.29
393.13	3295.47
393.33	4140.41
393.52	5114.07
393.71	6382.64
393.91	7267.36
394.10	7873.56
394.29	8449.33
394.49	9284.91
394.68	9966.00
394.88	10029.20
395.07	10258.57
395.26	10216.44
395.46	9745.99
395.65	9458.10
395.84	8074.85
396.04	6909.26
396.23	5753.04
396.42	4650.64
396.62	4545.32
396.81	5214.71
397.00	6672.87
397.19	8388.48
397.39	10043.24
397.58	11367.98
397.77	11976.52
397.97	12489.10
398.16	12861.24
398.35	13053.17
398.55	13479.15
398.74	13853.63
398.93	14157.90
399.12	14305.35
399.32	13507.23
399.51	13654.69
399.70	14846.02
399.90	14745.38
400.09	14857.72
400.28	14242.16
400.47	14593.24
400.67	15211.14
400.86	15709.68
401.05	15653.50
401.24	15515.41
401.44	16482.05
401.63	16311.19
401.82	16196.51
402.01	16145.02
402.21	16360.34
402.40	16332.26
402.59	15569.24
402.78	15396.04
402.97	14878.79
403.17	15208.80
403.36	16280.77
403.55	16578.01
403.74	17062.51
403.93	16196.51
404.13	15171.35
404.32	14492.60
404.51	15211.14
404.70	16849.52
404.89	16468.01
405.09	16594.40
405.28	15704.99
405.47	15850.11
405.66	15740.10
405.85	15468.60
406.05	14974.75
406.24	15138.58
406.43	16077.14
406.62	16542.91
406.81	16615.46
407.00	15917.98
407.20	15557.54
407.39	15969.48
407.58	16652.91
407.77	16893.99
407.96	17743.60
408.15	18302.99
408.34	17820.84
408.54	18974.72
408.73	18738.33
408.92	18579.17
409.11	17841.90
409.30	17156.13
409.49	16119.27
409.68	15220.50
409.87	14633.03
410.07	15885.22
410.26	16772.28
410.45	17905.10
410.64	18167.24
410.83	19054.30
411.02	19229.84
411.21	20142.65
411.40	19843.06
411.59	19885.19
411.78	19756.46
411.98	19461.55
412.17	19988.18
412.36	19487.30
412.55	19480.28
412.74	19161.97
412.93	18827.27
413.12	18644.71
413.31	20592.03
413.50	20702.04
413.69	20933.75
413.88	20432.88
414.07	19901.58
414.26	20098.18
414.45	20964.18
414.64	20767.57
414.83	20940.77
415.02	20517.14
415.22	20421.17
415.41	20947.79
415.60	21816.13
415.79	22436.38
415.98	23082.36
416.17	22864.69
416.36	22345.09
416.55	21986.99
416.74	21205.25
416.93	20814.38
417.12	20641.18
417.31	21046.10
417.50	21191.21
417.69	21891.03
417.88	21757.62
418.07	21518.89
418.26	21731.87
418.45	21713.15
418.64	22450.42
418.83	22951.29
419.02	22920.87
419.21	22590.85
419.39	21813.79
419.58	20383.73
419.77	20800.34
419.96	21586.76
420.15	22869.37
420.34	23674.52
420.53	24278.38
420.72	24800.32
420.91	24723.08
421.10	24201.14
421.29	24137.94
421.48	22998.10
421.67	24507.75
421.86	23793.89
422.05	22183.60
422.24	19868.81
422.43	19040.26
422.61	21809.11
422.80	23309.40
422.99	23662.82
423.18	22499.57
423.37	21951.88
423.56	22160.19
423.75	22448.08
423.94	22981.72
424.13	21593.78
424.32	21977.63
424.50	22059.55
424.69	21748.26
424.88	21886.35
425.07	21832.52
425.26	21832.52
425.45	21551.65
425.64	21425.26
425.83	20751.19
426.01	22487.87
426.20	22899.80
426.39	23103.43
426.58	21191.21
426.77	19735.40
426.96	18925.57
427.15	19655.82
427.33	21394.84
427.52	22246.79
427.71	22050.19
427.90	21673.36
428.09	21776.34
428.28	21404.20
428.46	20577.99
428.65	19709.65
428.84	20713.74
429.03	20989.92
429.22	19747.10
429.40	19073.03
429.59	17071.87
429.78	15009.86
429.97	15178.37
430.16	15389.02
430.34	15592.65
430.53	15421.79
430.72	15719.04
430.91	17291.88
431.10	20535.86
431.28	24353.27
431.47	26260.81
431.66	26546.36
431.85	24257.31
432.03	22260.84
432.22	21312.92
432.41	21909.75
432.60	24386.04
432.79	25233.32
432.97	26092.29
433.16	25425.24
433.35	23164.28
433.54	21303.56
433.72	19646.46
433.91	20175.42
434.10	22691.49
434.28	23957.72
434.47	25362.04
434.66	25230.98
434.85	24479.66
435.03	24435.19
435.22	25207.57
435.41	26265.49
435.59	26490.18
435.78	26925.52
435.97	27824.29
436.16	27936.63
436.34	27386.61
436.53	26822.54
436.72	27075.32
436.90	25378.43
437.09	25434.60
437.28	25127.99
437.46	25429.92
437.65	25575.03
437.84	23990.49
438.02	21928.48
438.21	21750.60
438.40	22862.35
438.58	24992.24
438.77	25692.06
438.96	26043.14
439.14	27182.98
439.33	27468.53
439.52	28100.47
439.70	27552.79
439.89	26902.12
440.08	25680.36
440.26	25713.13
440.45	27075.32
440.63	28865.83
440.82	30466.75
441.01	29434.58
441.19	29317.55
441.38	29956.52
441.57	30710.17
441.75	31653.40
441.94	31611.28
442.12	31152.53
442.31	31763.41
442.50	31793.84
442.68	31761.07
442.87	31260.20
443.05	30635.27
443.24	31058.91
443.43	31494.25
443.61	32584.94
443.80	32781.54
443.98	30981.67
444.17	30993.37
444.35	32957.08
444.54	33249.65
444.73	32931.34
444.91	31253.17
445.10	30331.00
445.28	29008.60
445.47	28470.28
445.65	28697.31
445.84	29577.35
446.02	30492.50
446.21	30705.49
446.39	30988.69
446.58	31447.44
446.77	31901.50
446.95	31999.80
447.14	33287.10
447.32	33823.08
447.51	33003.89
447.69	32208.11
447.88	31372.54
448.06	31941.29
448.25	32364.93
448.43	32573.24
448.62	31908.52
448.80	31988.10
448.99	32343.86
449.17	32362.59
449.36	32212.79
449.54	33926.07
449.73	33858.19
449.91	34707.80
450.10	35330.39
450.28	35842.96
450.46	35758.70
450.65	35653.38
450.83	35599.55
451.02	34660.99
451.20	34773.34
451.39	34368.43
451.57	34249.06
451.76	34452.69
451.94	34171.82
452.13	33380.72
452.31	31875.76
452.49	30752.30
452.68	31182.96
452.86	31189.98
453.05	31566.81
453.23	32732.39
453.42	33340.93
453.60	34071.18
453.78	33982.24
453.97	33603.07
454.15	33902.66
454.34	33378.38
454.52	33083.47
454.70	32404.72
454.89	32966.45
455.07	33188.80
455.26	33673.29
455.44	35255.49
455.62	35335.07
455.81	35665.08
455.99	35566.78
456.17	34763.98
456.36	35033.14
456.54	35777.43
456.73	36245.54
456.91	36402.35
457.09	36671.51
457.28	37165.37
457.46	35866.37
457.64	35852.33
457.83	35072.93
458.01	34047.77
458.19	35101.01
458.38	34873.98
458.56	36524.06
458.74	36425.76
458.93	35164.21
459.11	35196.98
459.29	34962.92
459.48	35555.08
459.66	34703.12
459.84	35747.00
460.03	36006.80
460.21	35454.44
460.39	36673.85
460.57	36973.44
460.76	37626.45
460.94	37652.20
461.12	36765.14
461.31	36741.73
461.49	37261.33
461.67	36692.58
461.85	38047.75
462.04	37600.71
462.22	38361.38
462.40	38019.66
462.59	37654.54
462.77	38066.47
462.95	38099.24
463.13	37141.96
463.32	36938.33
463.50	37095.15
463.68	36896.20
463.86	36921.95
464.05	36383.63
464.23	35534.01
464.41	35842.96
464.59	34630.57
464.78	36701.94
464.96	36329.80
465.14	36397.67
465.32	37006.21
465.50	38115.62
465.69	37904.98
465.87	37401.76
466.05	36271.28
466.23	35302.30
466.41	33933.09
466.60	34981.65
466.78	35356.13
466.96	35800.83
467.14	36252.56
467.32	36999.19
467.51	37141.96
467.69	35143.14
467.87	36067.66
468.05	36517.04
468.23	36238.51
468.41	36648.11
468.60	36776.84
468.78	37350.27
468.96	36594.28
469.14	37216.86
469.32	37298.78
469.50	35592.53
469.69	36282.98
469.87	35194.64
470.05	35117.40
470.23	35728.28
470.41	35999.78
470.59	35988.08
470.77	36055.95
470.95	36800.24
471.14	37649.86
471.32	37216.86
471.50	39552.71
471.68	39945.92
471.86	39636.97
472.04	39889.75
472.22	40657.45
472.40	38483.09
472.58	37851.14
472.77	37441.55
472.95	38024.34
473.13	39133.76
473.31	37998.60
473.49	38480.75
473.67	39622.93
473.85	39482.50
474.03	40212.74
474.21	40556.80
474.39	40751.07
474.57	41228.54
474.75	41347.90
474.93	40524.04
475.12	39763.36
475.30	40128.48
475.48	40388.28
475.66	40847.03
475.84	39796.13
476.02	39711.87
476.20	39349.09
476.38	40135.51
476.56	41216.83
476.74	41694.30
476.92	42354.33
477.10	42714.78
477.28	43503.54
477.46	43351.40
477.64	43803.13
477.82	44233.78
478.00	44439.75
478.18	43643.97
478.36	43491.83
478.54	43608.86
478.72	43452.05
478.90	44442.09
479.08	45940.04
479.26	46106.21
479.44	46050.04
479.62	46003.23
479.80	45933.01
479.98	45858.12
480.16	46349.63
480.34	46096.85
480.52	46422.19
480.70	46511.13
480.88	46672.62
481.06	47571.39
481.24	47819.49
481.41	48364.83
481.59	49113.80
481.77	48987.41
481.95	48495.90
482.13	48107.37
482.31	48067.58
482.49	48617.61
482.67	48641.01
482.85	48701.87
483.03	49443.82
483.21	50047.68
483.39	49932.99
483.57	49010.82
483.74	48570.80
483.92	49275.30
484.10	49600.63
484.28	50190.45
484.46	50628.13
484.64	50960.48
484.82	50300.45
485.00	49577.23
485.18	48652.72
485.35	47505.85
485.53	44734.66
485.71	40985.12
485.89	40573.19
486.07	42122.62
486.25	45600.66
486.43	48041.84
486.61	48720.59
486.78	48692.50
486.96	49013.16
487.14	50506.42
487.32	51133.68
487.50	52009.04
487.68	52640.99
487.85	53291.66
488.03	53155.91
488.21	52971.00
488.39	52179.90
488.57	51578.39
488.75	51391.14
488.92	52617.58
489.10	54337.88
489.28	55531.55
489.46	56367.12
489.64	56196.26
489.81	56004.34
489.99	55807.73
490.17	55845.18
490.35	56133.07
490.53	55608.79
490.70	55482.40
490.88	55313.88
491.06	56196.26
491.24	56058.17
491.41	55309.20
491.59	53614.65
491.77	53052.92
491.95	53939.99
492.13	55047.06
492.30	56009.02
492.48	56949.92
492.66	57354.83
492.84	57387.60
493.01	57181.63
493.19	56804.80
493.37	56523.94
493.54	56224.35
493.72	56685.43
493.90	57736.34
494.08	58410.41
494.25	58618.72
494.43	58728.72
494.61	59143.00
494.79	59112.57
494.96	58812.98
495.14	58623.40
495.32	57607.61
495.49	56933.53
495.67	57780.81
495.85	59051.72
496.02	59400.46
496.20	59409.82
496.38	58820.00
496.55	58808.30
496.73	59313.86
496.91	59264.70
497.09	59852.18
497.26	60065.17
497.44	59793.67
497.62	59316.20
497.79	58447.86
497.97	57354.83
498.14	57453.13
498.32	58473.60
498.50	59299.81
498.67	59842.82
498.85	59618.13
499.03	59765.58
499.20	60177.51
499.38	60009.00
499.56	59957.50
499.73	59384.07
499.91	58955.75
500.08	58742.77
500.26	57942.30
500.44	58405.73
500.61	59070.44
500.79	59040.01
500.97	58632.76
501.14	58520.41
501.32	58185.72
501.49	58255.93
501.67	58347.21
501.84	58908.94
502.02	59234.28
502.20	59732.81
502.37	59711.75
502.55	59618.13
502.72	60217.30
502.90	60701.79
503.07	60404.55
503.25	59875.58
503.43	59222.58
503.60	58625.74
503.78	57893.15
503.95	58148.27
504.13	59632.17
504.30	60683.07
504.48	60392.84
504.65	59934.10
504.83	59810.05
505.01	60556.68
505.18	60743.92
505.36	61305.65
505.53	61441.40
505.71	61731.63
505.88	61705.88
506.06	61169.90
506.23	60928.83
506.41	60573.06
506.58	60680.73
506.76	60694.77
506.93	60619.88
507.11	60507.53
507.28	60622.22
507.46	60074.53
507.63	59702.38
507.81	59517.48
507.98	59711.75
508.16	60271.14
508.33	60933.51
508.50	61010.74
508.68	61347.78
508.85	61717.59
509.03	61743.33
509.20	61684.82
509.38	61195.65
509.55	60273.48
509.73	60416.25
509.90	60877.33
510.08	61006.06
510.25	61123.09
510.42	60968.61
510.60	60652.64
510.77	61148.84
510.95	61490.55
511.12	61546.73
511.30	61853.34
511.47	62117.82
511.64	62071.01
511.82	62047.60
511.99	61045.85
512.17	60697.11
512.34	60257.09
512.51	60619.88
512.69	60516.89
512.86	60863.29
513.04	61132.45
513.21	61434.38
513.38	60919.46
513.56	60453.70
513.73	59845.16
513.90	60065.17
514.08	59882.61
514.25	60388.16
514.43	60643.28
514.60	60601.15
514.77	60814.14
514.95	60802.44
515.12	60694.77
515.29	60800.10
515.47	61315.01
515.64	61516.30
515.81	61272.88
515.99	60762.65
516.16	59559.61
516.33	57565.48
516.51	56051.15
516.68	55433.25
516.85	55257.71
517.03	55283.45
517.20	57778.46
517.37	60011.34
517.54	61052.87
517.72	60425.61
517.89	58267.64
518.06	56119.02
518.24	56491.17
518.41	58361.26
518.58	59522.16
518.75	59875.58
518.93	60116.66
519.10	59831.11
519.27	60369.44
519.45	60271.14
519.62	61085.64
519.79	61446.08
519.96	61240.12
520.14	60886.70
520.31	60116.66
520.48	59917.71
520.65	60310.92
520.83	61151.18
521.00	61633.33
521.17	61352.46
521.34	60779.03
521.52	61118.41
521.69	61647.37
521.86	62157.61
522.03	61797.16
522.20	60767.33
522.38	59760.90
522.55	59643.87
522.72	60392.84
522.89	60750.94
523.07	60774.35
523.24	60942.87
523.41	61904.83
523.58	61909.51
523.75	62403.36
523.92	62394.00
524.10	62284.00
524.27	62398.68
524.44	62129.52
524.61	61778.44
524.78	61738.65
524.96	61656.73
525.13	61619.28
525.30	61832.27
525.47	62326.13
525.64	61968.02
525.81	61432.04
525.98	60460.72
526.16	59018.95
526.33	58326.15
526.50	57935.28
526.67	57551.43
526.84	58220.83
527.01	59161.72
527.18	59821.75
527.36	60722.86
527.53	61605.24
527.70	61696.52
527.87	61183.94
528.04	60786.05
528.21	61214.37
528.38	61991.43
528.55	62466.56
528.72	62616.35
528.89	62660.82
529.07	62457.20
529.24	61977.39
529.41	61319.70
529.58	60874.99
529.75	60938.19
529.92	61359.48
530.09	61560.77
530.26	62234.84
530.43	62370.60
530.60	62284.00
530.77	62646.78
530.94	62740.40
531.11	62248.89
531.28	62049.94
531.46	61743.33
531.63	61858.02
531.80	61815.89
531.97	61556.09
532.14	60685.41
532.31	59840.48
532.48	59283.43
532.65	59194.49
532.82	59957.50
532.99	61085.64
533.16	61291.61
533.33	61843.98
533.50	61523.32
533.67	61258.84
533.84	60530.93
534.01	61059.90
534.18	61052.87
534.35	61298.63
534.52	61160.54
534.69	61331.40
534.86	61687.16
535.03	61930.58
535.20	62181.01
535.37	62410.38
535.54	62698.27
535.71	62473.58
535.88	62078.03
536.05	61439.06
536.22	61195.65
536.38	60809.46
536.55	60245.39
536.72	60016.02
536.89	59781.96
537.06	60610.51
537.23	61542.05
537.40	61595.88
537.57	61703.54
537.74	61305.65
537.91	61345.44
538.08	61408.64
538.25	61340.76
538.42	61675.46
538.59	61371.19
538.75	60757.97
538.92	60624.56
539.09	60236.03
539.26	60376.46
539.43	60207.94
539.60	60198.58
539.77	60353.05
539.94	60271.14
540.11	59583.02
540.28	59004.91
540.44	59327.90
540.61	59405.14
540.78	59681.32
540.95	60041.76
541.12	60369.44
541.29	60711.16
541.46	60800.10
541.62	60924.14
541.79	60825.84
541.96	60175.17
542.13	60130.70
542.30	60528.59
542.47	60549.66
542.63	60439.65
542.80	60303.90
542.97	60189.22
543.14	60491.15
543.31	59985.59
543.48	60715.84
543.64	61413.32
543.81	61687.16
543.98	61495.24
544.15	60858.61
544.32	60374.12
544.48	60498.17
544.65	60975.64
544.82	61455.45
544.99	60966.27
545.16	60552.00
545.32	60381.14
545.49	60956.91
545.66	61525.66
545.83	61027.13
546.00	60734.56
546.16	60383.48
546.33	60378.80
546.50	60514.55
546.67	60793.07
546.83	60420.93
547.00	60477.10
547.17	59781.96
547.34	59442.59
547.50	59281.09
547.67	59629.83
547.84	59985.59
548.00	60261.77
548.17	60603.49
548.34	60715.84
548.51	60430.29
548.67	60378.80
548.84	60650.30
549.01	60427.95
549.18	60535.62
549.34	60331.99
549.51	60444.33
549.68	60278.16
549.84	60039.42
550.01	60062.83
550.18	60006.65
550.34	59880.27
550.51	60114.32
550.68	60247.73
550.84	59744.51
551.01	59781.96
551.18	59674.30
551.34	59985.59
551.51	60226.66
551.68	60432.63
551.84	60566.04
552.01	60346.03
552.18	60392.84
552.34	59554.93
552.51	59133.63
552.68	59135.98
552.84	59622.81
553.01	59800.69
553.18	59533.87
553.34	59791.33
553.51	60058.15
553.67	60044.10
553.84	60179.85
554.01	60233.69
554.17	60079.21
554.34	60001.97
554.51	60081.55
554.67	60374.12
554.84	60416.25
555.00	60027.72
555.17	59803.03
555.33	59770.26
555.50	59634.51
555.67	59730.47
555.83	59770.26
556.00	59309.18
556.16	59236.62
556.33	58925.33
556.50	59002.56
556.66	58789.58
556.83	58707.66
556.99	58897.24
557.16	58836.39
557.32	59145.34
557.49	59245.98
557.65	59325.56
557.82	59241.30
557.98	58944.05
558.15	58618.72
558.32	57897.83
558.48	57181.63
558.65	57249.50
558.81	57764.42
558.98	58000.82
559.14	58312.11
559.31	58309.77
559.47	58396.37
559.64	58000.82
559.80	57778.46
559.97	57684.84
560.13	58000.82
560.30	58892.56
560.46	59538.55
560.63	59714.09
560.79	59608.76
560.96	59161.72
561.12	58351.90
561.29	57495.26
561.45	57284.61
561.61	57902.51
561.78	58298.06
561.94	58096.78
562.11	58417.43
562.27	58183.38
562.44	58143.59
562.60	58478.28
562.77	58794.26
562.93	58590.63
563.10	58688.93
563.26	57989.11
563.42	58068.69
563.59	58202.10
563.75	57982.09
563.92	58071.03
564.08	57829.96
564.24	58131.89
564.41	58365.94
564.57	57991.45
564.74	57982.09
564.90	57822.93
565.07	57865.06
565.23	57357.17
565.39	56954.60
565.56	56725.22
565.72	56449.04
565.88	56992.04
566.05	57158.22
566.21	57420.36
566.38	57464.83
566.54	57329.08
566.70	57872.09
566.87	57874.43
567.03	57872.09
567.19	58281.68
567.36	57949.32
567.52	57785.49
567.68	57563.14
567.85	56793.10
568.01	56643.30
568.17	56353.08
568.34	56184.56
568.50	56046.47
568.66	56416.27
568.83	56786.08
568.99	56694.80
569.15	56931.19
569.32	56868.00
569.48	56559.05
569.64	56442.02
569.81	56289.88
569.97	55915.40
570.13	56027.74
570.30	55709.43
570.46	55561.98
570.62	54801.30
570.78	54721.72
570.95	54871.52
571.11	55695.39
571.27	55845.18
571.43	55889.65
571.60	55978.59
571.76	56395.21
571.92	56664.37
572.09	56846.93
572.25	56797.78
572.41	56458.40
572.57	56547.34
572.74	56647.99
572.90	56222.01
573.06	56252.44
573.22	56465.42
573.38	56233.71
573.55	56067.53
573.71	56346.06
573.87	56463.08
574.03	56240.73
574.20	56313.29
574.36	55622.83
574.52	55704.75
574.68	55718.79
574.84	55007.27
575.01	54834.07
575.17	54672.57
575.33	55070.46
575.49	55189.83
575.65	55236.64
575.82	55103.23
575.98	55040.04
576.14	55152.38
576.30	55590.06
576.46	55711.77
576.62	55334.95
576.79	55515.17
576.95	55281.11
577.11	55093.87
577.27	55157.06
577.43	55210.90
577.59	54944.08
577.75	54604.70
577.92	53759.76
578.08	53851.05
578.24	53893.18
578.40	54145.95
578.56	54349.58
578.72	54323.83
578.88	54440.86
579.04	54787.26
579.21	54674.91
579.37	54585.97
579.53	55037.70
579.69	54913.65
579.85	55374.73
580.01	54857.48
580.17	54314.47
580.33	54253.62
580.49	54326.17
580.65	54436.18
580.82	54738.11
580.98	54644.49
581.14	54712.36
581.30	54965.14
581.46	54543.84
581.62	54857.48
581.78	54986.21
581.94	55121.96
582.10	55070.46
582.26	55037.70
582.42	55021.31
582.58	54920.67
582.74	55164.09
582.90	55016.63
583.06	55042.38
583.22	54719.38
583.38	54965.14
583.54	54340.22
583.70	54356.60
583.86	54560.23
584.02	54644.49
584.18	54571.93
584.34	54869.18
584.50	54433.84
584.66	54279.36
584.82	54260.64
584.98	53827.64
585.14	53326.77
