SpectraSuite Data File
++++++++++++++++++++++++++++++++++++
Date: Mon Oct 07 14:53:34 GMT-05:00 2013
User: price-jones
Dark Spectrum Present: No
Reference Spectrum Present: No
Number of Sampled Component Spectra: 1
Spectrometers: USB2+H05261
Integration Time (usec): 100000 (USB2+H05261)
Spectra Averaged: 1 (USB2+H05261)
Boxcar Smoothing: 0 (USB2+H05261)
Correct for Electrical Dark: No (USB2+H05261)
Strobe/Lamp Enabled: No (USB2+H05261)
Correct for Detector Non-linearity: No (USB2+H05261)
Correct for Stray Light: No (USB2+H05261)
Number of Pixels in Processed Spectrum: 2048
>>>>>Begin Processed Spectral Data<<<<<
365.73	0.00
365.92	0.00
366.12	0.00
366.32	0.00
366.52	0.00
366.72	0.00
366.91	0.00
367.11	0.00
367.31	0.00
367.51	0.00
367.70	0.00
367.90	0.00
368.10	0.00
368.30	0.00
368.49	0.00
368.69	0.00
368.89	0.00
369.09	0.00
369.28	0.00
369.48	0.00
369.68	0.00
369.87	0.00
370.07	0.00
370.27	0.00
370.47	606.20
370.66	3002.91
370.86	3510.80
371.06	3882.95
371.25	3976.57
371.45	3513.14
371.65	3171.43
371.84	2953.76
372.04	3059.08
372.24	3417.18
372.44	3681.66
372.63	3597.40
372.83	3478.04
373.03	3136.32
373.22	2743.11
373.42	2928.01
373.62	3370.37
373.81	3468.67
374.01	3534.21
374.21	3243.98
374.40	3077.80
374.60	3201.85
374.79	3548.25
374.99	4262.12
375.19	4425.95
375.38	4437.66
375.58	4177.86
375.78	4145.09
375.97	4086.58
376.17	4292.54
376.37	4355.74
376.56	4477.44
376.76	4734.90
376.95	4961.94
377.15	5327.06
377.35	5607.92
377.54	5774.10
377.74	5790.49
377.93	5944.96
378.13	5731.97
378.33	5420.68
378.52	5184.29
378.72	4770.01
378.91	4774.69
379.11	4657.67
379.31	4697.46
379.50	4425.95
379.70	4739.58
379.89	5350.46
380.09	5577.50
380.28	5827.93
380.48	5860.70
380.68	5738.99
380.87	5495.58
381.07	5107.05
381.26	4767.67
381.46	4416.59
381.65	4252.75
381.85	4299.56
382.04	4004.66
382.24	3850.18
382.43	3592.72
382.63	3396.12
382.83	3618.47
383.02	3487.40
383.22	3473.36
383.41	3527.19
383.61	3880.61
383.80	4322.97
384.00	4938.53
384.19	5423.02
384.39	5907.51
384.58	5724.95
384.78	5654.73
384.97	5673.46
385.17	5336.42
385.36	5039.17
385.56	4908.10
385.75	5032.15
385.95	5561.11
386.14	5963.68
386.34	5982.41
386.53	5631.33
386.72	5387.91
386.92	5441.75
387.11	5762.40
387.31	6043.26
387.50	5942.62
387.70	5640.69
387.89	5703.89
388.09	5753.04
388.28	5689.84
388.48	5769.42
388.67	6078.37
388.86	6684.57
389.06	7396.09
389.25	7583.34
389.45	7887.61
389.64	7803.35
389.84	7669.94
390.03	7279.07
390.22	7506.10
390.42	7700.36
390.61	8205.92
390.81	8879.99
391.00	9095.32
391.19	9100.00
391.39	8659.98
391.58	8168.47
391.78	7843.14
391.97	7412.48
392.16	6892.88
392.36	6546.48
392.55	5156.20
392.75	4007.00
392.94	3258.03
393.13	3180.79
393.33	3695.71
393.52	4936.19
393.71	6003.47
393.91	6820.32
394.10	7454.61
394.29	7934.42
394.49	8727.86
394.68	9467.47
394.88	9334.06
395.07	9806.84
395.26	9671.09
395.46	9467.47
395.65	9055.53
395.84	7822.07
396.04	6537.12
396.23	5217.05
396.42	4531.28
396.62	4182.54
396.81	4919.81
397.00	6265.61
397.19	7885.26
397.39	9701.52
397.58	10916.26
397.77	11337.56
397.97	11988.22
398.16	11918.01
398.35	12196.53
398.55	12683.36
398.74	13170.19
398.93	13472.12
399.12	13298.92
399.32	13092.96
399.51	13069.55
399.70	13977.68
399.90	13778.73
400.09	14169.60
400.28	13673.41
400.47	13708.52
400.67	14396.64
400.86	14707.93
401.05	14775.80
401.24	14843.68
401.44	15382.00
401.63	15431.15
401.82	14853.04
402.01	15374.98
402.21	15613.71
402.40	15632.44
402.59	14850.70
402.78	14497.28
402.97	13752.99
403.17	14824.95
403.36	15332.85
403.55	15922.66
403.74	16332.26
403.93	15463.92
404.13	14501.96
404.32	13930.87
404.51	14523.02
404.70	15637.12
404.89	15789.25
405.09	15449.88
405.28	15204.12
405.47	15246.25
405.66	14862.40
405.85	14895.17
406.05	14534.73
406.24	14593.24
406.43	14946.66
406.62	15955.43
406.81	15793.94
407.00	15192.42
407.20	14951.34
407.39	15098.80
407.58	15644.14
407.77	16208.21
407.96	16673.98
408.15	16905.69
408.34	17055.48
408.54	18061.91
408.73	17788.07
408.92	17795.09
409.11	17228.68
409.30	16053.73
409.49	15248.59
409.68	14347.48
409.87	13783.41
410.07	14820.27
410.26	16109.91
410.45	17057.82
410.64	17221.66
410.83	18024.47
411.02	18469.17
411.21	19044.94
411.40	19084.73
411.59	18916.21
411.78	18792.16
411.98	18583.85
412.17	19253.25
412.36	18497.25
412.55	18979.40
412.74	18445.76
412.93	17895.74
413.12	18085.32
413.31	19337.51
413.50	19803.27
413.69	20060.73
413.88	19393.68
414.07	18995.79
414.26	19091.75
414.45	19721.35
414.64	19676.88
414.83	20208.19
415.02	19454.53
415.22	19688.59
415.41	20039.67
415.60	20617.78
415.79	21418.24
415.98	21881.67
416.17	21996.35
416.36	21254.40
416.55	20968.86
416.74	20713.74
416.93	19976.47
417.12	19864.13
417.31	20114.56
417.50	20067.75
417.69	20812.04
417.88	20737.15
418.07	20655.23
418.26	20376.70
418.45	20713.74
418.64	21509.52
418.83	21748.26
419.02	21837.20
419.21	21659.32
419.39	20664.59
419.58	19578.58
419.77	19805.61
419.96	20563.95
420.15	21778.68
420.34	22874.06
420.53	23098.75
420.72	23765.80
420.91	23377.27
421.10	22899.80
421.29	22834.27
421.48	22010.40
421.67	23115.13
421.86	22735.96
422.05	21411.22
422.24	19246.23
422.43	18618.96
422.61	20367.34
422.80	22527.66
422.99	22679.79
423.18	21549.31
423.37	21156.10
423.56	21544.63
423.75	21502.50
423.94	21888.69
424.13	20746.51
424.32	21174.83
424.50	21366.75
424.69	20692.68
424.88	20898.64
425.07	21055.46
425.26	20790.98
425.45	20552.24
425.64	20053.71
425.83	20439.90
426.01	21128.02
426.20	21738.90
426.39	21642.93
426.58	20255.00
426.77	18932.59
426.96	17895.74
427.15	18869.40
427.33	20173.08
427.52	21181.85
427.71	21111.63
427.90	21099.93
428.09	20713.74
428.28	20435.22
428.46	19960.09
428.65	19641.78
428.84	19805.61
429.03	20173.08
429.22	18822.59
429.40	18270.22
429.59	16615.46
429.78	14700.90
429.97	14312.38
430.16	14635.37
430.34	14911.55
430.53	14829.63
430.72	15328.17
430.91	16697.38
431.10	19503.68
431.28	23126.83
431.47	24922.02
431.66	25116.29
431.85	22972.36
432.03	21687.40
432.22	20599.05
432.41	21069.50
432.60	23431.10
432.79	24276.04
432.97	24889.26
433.16	24137.94
433.35	22302.96
433.54	20102.86
433.72	18377.89
433.91	19218.14
434.10	21748.26
434.28	23438.12
434.47	24526.47
434.66	24133.26
434.85	23398.34
435.03	23087.04
435.22	23426.42
435.41	25486.09
435.59	25427.58
435.78	25589.08
435.97	26345.07
436.16	26787.43
436.34	25937.82
436.53	25427.58
436.72	25699.08
436.90	24458.60
437.09	24299.44
437.28	23939.00
437.46	24594.35
437.65	24877.55
437.84	23295.35
438.02	21188.87
438.21	20912.69
438.40	22120.40
438.58	23768.14
438.77	24474.98
438.96	25097.56
439.14	25986.97
439.33	26513.59
439.52	26897.44
439.70	26375.50
439.89	25766.96
440.08	25003.94
440.26	24877.55
440.45	25874.62
440.63	27714.28
440.82	29277.76
441.01	28496.02
441.19	28158.99
441.38	28283.03
441.57	30033.75
441.75	30174.19
441.94	30433.99
442.12	29806.72
442.31	30494.84
442.50	30597.82
442.68	30064.18
442.87	29455.64
443.05	29174.78
443.24	29607.78
443.43	30752.30
443.61	30857.62
443.80	31218.07
443.98	29600.76
444.17	29364.36
444.35	31119.76
444.54	31878.10
444.73	31503.61
444.91	30288.87
445.10	28811.99
445.28	28039.62
445.47	27623.00
445.65	27878.12
445.84	28507.72
446.02	29362.02
446.21	30078.22
446.39	30000.99
446.58	30195.25
446.77	30611.87
446.95	31283.60
447.14	31826.60
447.32	32367.27
447.51	31929.59
447.69	30733.57
447.88	30244.40
448.06	30326.32
448.25	31344.45
448.43	31826.60
448.62	31000.40
448.80	30675.06
448.99	31065.93
449.17	31292.96
449.36	31084.65
449.54	32231.52
449.73	32851.76
449.91	33099.86
450.10	34110.97
450.28	34679.72
450.46	34670.36
450.65	34279.49
450.83	34125.01
451.02	33675.63
451.20	33500.09
451.39	33226.24
451.57	32858.78
451.76	33223.90
451.94	32968.79
452.13	32105.13
452.31	30955.93
452.49	29626.50
452.68	29914.39
452.86	29923.75
453.05	30022.05
453.23	31241.47
453.42	31817.24
453.60	32294.71
453.78	32821.33
453.97	32833.04
454.15	32594.30
454.34	31840.65
454.52	31964.70
454.70	31103.38
454.89	31791.50
455.07	32177.68
455.26	32687.92
455.44	33354.97
455.62	33937.77
455.81	34370.77
455.99	34054.79
456.17	33624.14
456.36	33706.05
456.54	34630.57
456.73	34567.37
456.91	35072.93
457.09	35456.78
457.28	36100.42
457.46	34742.91
457.64	34401.19
457.83	33567.96
458.01	32835.38
458.19	33701.37
458.38	33490.73
458.56	34588.44
458.74	34471.41
458.93	34244.38
459.11	33766.91
459.29	33696.69
459.48	34316.93
459.66	33787.97
459.84	34263.10
460.03	34941.86
460.21	34445.66
460.39	35356.13
460.57	35459.12
460.76	36187.02
460.94	35934.24
461.12	35351.45
461.31	35690.83
461.49	35243.79
461.67	35541.03
461.85	36655.13
462.04	36222.13
462.22	36514.70
462.40	36666.83
462.59	36430.44
462.77	36531.08
462.95	36243.20
463.13	35945.95
463.32	35599.55
463.50	35655.72
463.68	34939.52
463.86	35744.66
464.05	35189.95
464.23	34370.77
464.41	34003.30
464.59	33750.52
464.78	35218.04
464.96	35199.32
465.14	34333.32
465.32	35583.16
465.50	36322.77
465.69	36666.83
465.87	35824.24
466.05	35232.08
466.23	33638.18
466.41	33172.41
466.60	33415.83
466.78	33598.39
466.96	34403.53
467.14	35058.88
467.32	35690.83
467.51	35948.29
467.69	33778.61
467.87	34637.59
468.05	35512.95
468.23	35040.16
468.41	35255.49
468.60	35325.71
468.78	35545.72
468.96	34988.67
469.14	35498.91
469.32	35749.34
469.50	34728.87
469.69	34761.64
469.87	34267.78
470.05	34031.39
470.23	34029.05
470.41	34122.67
470.59	34738.23
470.77	35091.65
470.95	35512.95
471.14	36287.67
471.32	36009.14
471.50	38089.88
471.68	38408.19
471.86	38298.19
472.04	38597.77
472.22	38689.06
472.40	36905.57
472.58	36009.14
472.77	36041.91
472.95	37193.45
473.13	37919.02
473.31	37434.53
473.49	37076.43
473.67	37720.07
473.85	37886.25
474.03	39049.50
474.21	38965.24
474.39	39636.97
474.57	39562.08
474.75	39466.11
474.93	39185.25
475.12	38473.73
475.30	38981.62
475.48	38522.88
475.66	39323.34
475.84	38981.62
476.02	38682.03
476.20	37762.20
476.38	38562.67
476.56	39707.19
476.74	40376.58
476.92	40694.89
477.10	40903.20
477.28	42263.05
477.46	42277.10
477.64	42920.74
477.82	42382.42
478.00	42674.99
478.18	41855.80
478.36	41780.90
478.54	42312.20
478.72	42422.21
478.90	43234.38
479.08	44289.96
479.26	44910.20
479.44	44669.12
479.62	44938.29
479.80	44638.70
479.98	44629.34
480.16	45235.53
480.34	44566.14
480.52	44629.34
480.70	45287.03
480.88	45488.31
481.06	46057.06
481.24	46499.42
481.41	46836.46
481.59	47456.70
481.77	47688.42
481.95	47044.77
482.13	47028.38
482.31	46728.80
482.49	47728.20
482.67	47498.83
482.85	47543.30
483.03	48109.71
483.21	48851.66
483.39	48626.97
483.57	47903.74
483.74	47569.05
483.92	47753.95
484.10	48156.52
484.28	49034.22
484.46	49240.19
484.64	49624.04
484.82	48531.01
485.00	48685.48
485.18	47653.31
485.35	46314.52
485.53	43501.20
485.71	39150.14
485.89	39063.54
486.07	40797.88
486.25	44329.75
486.43	46436.23
486.61	47711.82
486.78	47323.29
486.96	47482.45
487.14	49488.29
487.32	49600.63
487.50	51019.00
487.68	51728.18
487.85	52069.90
488.03	52009.04
488.21	51606.47
488.39	51124.32
488.57	50197.47
488.75	50255.98
488.92	51131.34
489.10	53249.53
489.28	54415.11
489.46	55121.96
489.64	55004.93
489.81	54967.48
489.99	54773.22
490.17	54911.31
490.35	55159.41
490.53	54958.12
490.70	54274.68
490.88	53909.56
491.06	55086.85
491.24	54988.55
491.41	54361.28
491.59	52638.65
491.77	51505.83
491.95	52795.46
492.13	54195.10
492.30	55145.36
492.48	55997.32
492.66	56324.99
492.84	56399.89
493.01	56360.10
493.19	55653.26
493.37	55419.20
493.54	55114.94
493.72	55852.20
493.90	56629.26
494.08	57350.15
494.25	57525.69
494.43	58042.95
494.61	58120.18
494.79	58379.98
494.96	57977.41
495.14	57453.13
495.32	56706.50
495.49	56006.68
495.67	57078.64
495.85	58281.68
496.02	58604.67
496.20	58618.72
496.38	58047.63
496.55	57958.69
496.73	58557.86
496.91	58281.68
497.09	59288.11
497.26	59166.40
497.44	58822.34
497.62	58391.68
497.79	57811.23
497.97	56390.53
498.14	56566.07
498.32	57478.88
498.50	58454.88
498.67	59047.04
498.85	58871.49
499.03	58927.67
499.20	59208.53
499.38	58976.82
499.56	59215.55
499.73	58590.63
499.91	58309.77
500.08	57745.70
500.26	57162.90
500.44	57558.45
500.61	58047.63
500.79	57996.13
500.97	57616.97
501.14	57476.54
501.32	57284.61
501.49	57373.55
501.67	57680.16
501.84	58094.44
502.02	58457.22
502.20	58756.81
502.37	58932.35
502.55	58749.79
502.72	59311.52
502.90	59772.60
503.07	59576.00
503.25	59124.27
503.43	58274.66
503.60	57733.99
503.78	57286.95
503.95	57577.18
504.13	58843.41
504.30	59587.70
504.48	59566.63
504.65	59159.38
504.83	59133.63
505.01	59826.43
505.18	60001.97
505.36	60498.17
505.53	60636.26
505.71	60954.57
505.88	60912.44
506.06	60308.58
506.23	59999.63
506.41	59746.86
506.58	59765.58
506.76	59798.35
506.93	59777.28
507.11	59737.49
507.28	59908.35
507.46	59217.89
507.63	58688.93
507.81	58588.29
507.98	58747.45
508.16	59487.06
508.33	59845.16
508.50	60205.60
508.68	60439.65
508.85	60790.73
509.03	60860.95
509.20	60757.97
509.38	60233.69
509.55	59517.48
509.73	59702.38
509.90	60013.68
510.08	60390.50
510.25	60221.98
510.42	60214.96
510.60	60111.98
510.77	60123.68
510.95	60741.58
511.12	60992.02
511.30	61106.71
511.47	61333.74
511.64	61413.32
511.82	60898.40
511.99	60217.30
512.17	59784.30
512.34	59573.66
512.51	59840.48
512.69	59777.28
512.86	60020.70
513.04	60472.42
513.21	60320.29
513.38	60081.55
513.56	59606.42
513.73	59002.56
513.90	59262.36
514.08	59210.87
514.25	59587.70
514.43	59756.22
514.60	59917.71
514.77	60051.12
514.95	60004.31
515.12	59945.80
515.29	60224.32
515.47	60589.45
515.64	60818.82
515.81	60484.12
515.99	59955.16
516.16	58684.25
516.33	56566.07
516.51	54967.48
516.68	54494.69
516.85	53989.14
517.03	54122.55
517.20	56884.38
517.37	59075.12
517.54	60158.79
517.72	59648.55
517.89	57420.36
518.06	55241.32
518.24	55590.06
518.41	57326.74
518.58	58742.77
518.75	58864.47
518.93	59121.93
519.10	58965.12
519.27	59278.75
519.45	59760.90
519.62	60285.18
519.79	60734.56
519.96	60519.23
520.14	59985.59
520.31	59292.79
520.48	59215.55
520.65	59552.59
520.83	60477.10
521.00	60779.03
521.17	60364.76
521.34	60088.57
521.52	60289.86
521.69	60942.87
521.86	61408.64
522.03	61113.73
522.20	59753.88
522.38	58939.37
522.55	58864.47
522.72	59629.83
522.89	59578.34
523.07	59924.74
523.24	60142.41
523.41	61066.92
523.58	61254.16
523.75	61703.54
523.92	61448.42
524.10	61338.42
524.27	61181.60
524.44	61186.28
524.61	61064.58
524.78	60870.31
524.96	60959.25
525.13	60788.39
525.30	61003.72
525.47	61570.13
525.64	61396.93
525.81	60610.51
525.98	59447.27
526.16	58082.73
526.33	57588.88
526.50	57261.21
526.67	56626.92
526.84	57401.64
527.01	58197.42
527.18	58941.71
527.36	59770.26
527.53	60652.64
527.70	61001.38
527.87	60544.98
528.04	59847.50
528.21	60299.22
528.38	61038.83
528.55	61626.31
528.72	61811.21
528.89	61984.41
529.07	61799.50
529.24	61132.45
529.41	60619.88
529.58	60294.54
529.75	59990.27
529.92	60472.42
530.09	60961.59
530.26	61410.98
530.43	61740.99
530.60	61605.24
530.77	61769.08
530.94	62031.22
531.11	61535.02
531.28	61071.60
531.46	60900.74
531.63	61172.24
531.80	61104.37
531.97	60542.64
532.14	59927.08
532.31	58948.73
532.48	58382.32
532.65	58244.23
532.82	59199.17
532.99	60294.54
533.16	60495.83
533.33	61123.09
533.50	61036.49
533.67	60224.32
533.84	59950.48
534.01	60280.50
534.18	60453.70
534.35	60514.55
534.52	60310.92
534.69	60624.56
534.86	60907.76
535.03	61109.05
535.20	61401.61
535.37	61900.15
535.54	61853.34
535.71	61654.39
535.88	61317.35
536.05	60762.65
536.22	60514.55
536.38	60081.55
536.55	59639.19
536.72	59377.05
536.89	58946.39
537.06	59873.24
537.23	60498.17
537.40	60757.97
537.57	60608.17
537.74	60720.52
537.91	60596.47
538.08	60493.49
538.25	60444.33
538.42	60610.51
538.59	60647.96
538.75	60191.56
538.92	59803.03
539.09	59767.92
539.26	59419.18
539.43	59194.49
539.60	59339.60
539.77	59669.62
539.94	59414.50
540.11	58894.90
540.28	58277.00
540.44	58307.43
540.61	58384.66
540.78	58679.57
540.95	59391.09
541.12	59547.91
541.29	59835.80
541.46	60203.26
541.62	60182.19
541.79	59980.91
541.96	59341.94
542.13	59220.23
542.30	59702.38
542.47	59976.23
542.63	59742.17
542.80	59545.57
542.97	59697.70
543.14	59419.18
543.31	59299.81
543.48	59971.55
543.64	60540.30
543.81	60896.06
543.98	60788.39
544.15	60189.22
544.32	59568.97
544.48	59613.44
544.65	60016.02
544.82	60533.28
544.99	60095.60
545.16	59690.68
545.32	59421.52
545.49	60142.41
545.66	60673.71
545.83	60273.48
546.00	59891.97
546.16	59477.69
546.33	59608.76
546.50	59784.30
546.67	60114.32
546.83	59683.66
547.00	59552.59
547.17	59133.63
547.34	58604.67
547.50	58651.48
547.67	59100.87
547.84	59215.55
548.00	59721.11
548.17	59983.25
548.34	59723.45
548.51	59777.28
548.67	59767.92
548.84	59952.82
549.01	59686.00
549.18	59777.28
549.34	59568.97
549.51	59856.86
549.68	59496.42
549.84	59185.13
550.01	59217.89
550.18	59119.59
550.34	59192.15
550.51	59393.43
550.68	59327.90
550.84	58845.75
551.01	59107.89
551.18	58962.78
551.34	59187.47
551.51	59540.89
551.68	59777.28
551.84	59695.36
552.01	59473.01
552.18	59625.15
552.34	58894.90
552.51	58417.43
552.68	58328.49
552.84	58831.71
553.01	59164.06
553.18	59030.65
553.34	59241.30
553.51	59199.17
553.67	59545.57
553.84	59463.65
554.01	59437.90
554.17	59131.29
554.34	59297.47
554.51	59393.43
554.67	59678.98
554.84	59505.78
555.00	59253.00
555.17	58871.49
555.33	58922.99
555.50	58955.75
555.67	58918.31
555.83	58873.84
556.00	58759.15
556.16	58429.13
556.33	58162.31
556.50	57979.75
556.66	58195.08
556.83	57853.36
556.99	58099.12
557.16	58042.95
557.32	58328.49
557.49	58702.98
557.65	58431.47
557.82	58452.54
557.98	58396.37
558.15	57961.03
558.32	57186.31
558.48	56320.31
558.65	56615.22
558.81	56966.30
558.98	57186.31
559.14	57467.17
559.31	57354.83
559.47	57645.05
559.64	57127.80
559.80	56713.52
559.97	56559.05
560.13	57167.58
560.30	57998.48
560.46	58609.35
560.63	58876.18
560.79	58768.51
560.96	58506.37
561.12	57478.88
561.29	56633.94
561.45	56582.45
561.61	57202.69
561.78	57483.56
561.94	57663.78
562.11	57418.02
562.27	57261.21
562.44	57387.60
562.60	57696.55
562.77	58085.07
562.93	58068.69
563.10	57741.02
563.26	57167.58
563.42	57277.59
563.59	57214.40
563.75	57052.90
563.92	57212.06
564.08	57043.54
564.24	57439.09
564.41	57476.54
564.57	57394.62
564.74	57190.99
564.90	57174.61
565.07	56844.59
565.23	56484.15
565.39	56039.45
565.56	56013.70
565.72	55503.46
565.88	56048.81
566.05	55805.39
566.21	56184.56
566.38	56334.35
566.54	56540.32
566.70	56928.85
566.87	57059.92
567.03	57029.49
567.19	57324.40
567.36	57160.56
567.52	56975.66
567.68	56577.77
567.85	56282.86
568.01	55812.41
568.17	55468.36
568.34	55552.62
568.50	55292.82
568.66	55533.89
568.83	55803.05
568.99	55707.09
569.15	56119.02
569.32	56158.81
569.48	55749.22
569.64	55538.57
569.81	55454.31
569.97	55196.85
570.13	55262.39
570.30	54803.64
570.46	54239.57
570.62	54143.61
570.78	53846.36
570.95	53979.78
571.11	54707.68
571.27	54897.27
571.43	55325.58
571.60	55510.49
571.76	55496.44
571.92	55704.75
572.09	55934.12
572.25	55896.67
572.41	56006.68
572.57	55751.56
572.74	55779.65
572.90	55393.46
573.06	55238.98
573.22	55405.16
573.38	55517.51
573.55	55458.99
573.71	55569.00
573.87	55393.46
574.03	55231.96
574.20	55348.99
574.36	54927.69
574.52	54817.69
574.68	54805.98
574.84	54321.49
575.01	54014.88
575.17	53757.42
575.33	54033.61
575.49	54490.01
575.65	54480.65
575.82	54277.02
575.98	53832.32
576.14	54405.75
576.30	54419.80
576.46	54749.81
576.62	54445.54
576.79	54628.10
576.95	54195.10
577.11	54380.01
577.27	54251.28
577.43	54443.20
577.59	54085.10
577.75	53806.58
577.92	52823.55
578.08	52884.40
578.24	52711.20
578.40	52954.62
578.56	53549.12
578.72	53460.18
578.88	53427.41
579.04	53890.83
579.21	54000.84
579.37	53860.41
579.53	53820.62
579.69	53893.18
579.85	54115.53
580.01	53984.46
580.17	53710.61
580.33	53595.93
580.49	53392.30
580.65	53553.80
580.82	54047.65
580.98	53865.09
581.14	53886.15
581.30	53820.62
581.46	53670.82
581.62	54035.95
581.78	53951.69
581.94	54110.85
582.10	54143.61
582.26	54092.12
582.42	53904.88
582.58	54122.55
582.74	54216.17
582.90	54113.19
583.06	53961.05
583.22	53963.39
583.38	53762.11
583.54	53464.86
583.70	53647.42
583.86	53787.85
584.02	53549.12
584.18	53532.73
584.34	53645.08
584.50	53413.37
584.66	53406.34
584.82	52905.47
584.98	53216.76
585.14	52474.81
585.30	52090.96
