SpectraSuite Data File
++++++++++++++++++++++++++++++++++++
Date: Mon Oct 07 14:53:24 GMT-05:00 2013
User: price-jones
Dark Spectrum Present: No
Reference Spectrum Present: No
Number of Sampled Component Spectra: 1
Spectrometers: USB2+H05261
Integration Time (usec): 100000 (USB2+H05261)
Spectra Averaged: 1 (USB2+H05261)
Boxcar Smoothing: 0 (USB2+H05261)
Correct for Electrical Dark: No (USB2+H05261)
Strobe/Lamp Enabled: No (USB2+H05261)
Correct for Detector Non-linearity: No (USB2+H05261)
Correct for Stray Light: No (USB2+H05261)
Number of Pixels in Processed Spectrum: 2048
>>>>>Begin Processed Spectral Data<<<<<
365.73	0.00
365.92	0.00
366.12	0.00
366.32	0.00
366.52	0.00
366.72	0.00
366.91	0.00
367.11	0.00
367.31	0.00
367.51	0.00
367.70	0.00
367.90	0.00
368.10	0.00
368.30	0.00
368.49	0.00
368.69	0.00
368.89	0.00
369.09	0.00
369.28	0.00
369.48	0.00
369.68	0.00
369.87	0.00
370.07	0.00
370.27	0.00
370.47	524.28
370.66	2920.99
370.86	3506.12
371.06	3887.63
371.25	3817.41
371.45	3419.52
371.65	3063.76
371.84	2904.60
372.04	2956.10
372.24	3396.12
372.44	3616.13
372.63	3534.21
372.83	3358.67
373.03	2857.79
373.22	2576.93
373.42	2787.58
373.62	3152.70
373.81	3361.01
374.01	3566.98
374.21	3262.71
374.40	2932.69
374.60	3066.10
374.79	3281.43
374.99	3983.59
375.19	4248.07
375.38	4180.20
375.58	4084.23
375.78	4032.74
375.97	3974.23
376.17	4306.59
376.37	4198.92
376.56	4353.40
376.76	4568.73
376.95	4837.89
377.15	5191.31
377.35	5472.17
377.54	5514.30
377.74	5472.17
377.93	5699.20
378.13	5731.97
378.33	5324.72
378.52	4908.10
378.72	4662.35
378.91	4690.43
379.11	4486.81
379.31	4346.37
379.50	4255.09
379.70	4660.01
379.89	5198.33
380.09	5523.66
380.28	5689.84
380.48	5727.29
380.68	5507.28
380.87	5423.02
381.07	4915.12
381.26	4491.49
381.46	4219.99
381.65	4084.23
381.85	4009.34
382.04	3918.06
382.24	3655.92
382.43	3417.18
382.63	3363.35
382.83	3466.33
383.02	3442.93
383.22	3384.41
383.41	3339.94
383.61	3681.66
383.80	4168.49
384.00	4873.00
384.19	5266.21
384.39	5535.37
384.58	5502.60
384.78	5420.68
384.97	5373.87
385.17	5041.51
385.36	5057.90
385.56	4585.11
385.75	4784.06
385.95	5277.91
386.14	5865.38
386.34	5689.84
386.53	5549.41
386.72	5331.74
386.92	5102.37
387.11	5528.35
387.31	5774.10
387.50	5591.54
387.70	5420.68
387.89	5460.47
388.09	5673.46
388.28	5411.32
388.48	5392.59
388.67	5895.81
388.86	6600.31
389.06	7005.22
389.25	7279.07
389.45	7358.64
389.64	7398.43
389.84	7456.95
390.03	7136.29
390.22	7143.32
390.42	7262.68
390.61	7946.12
390.81	8479.76
391.00	8779.35
391.19	8374.44
391.39	8344.01
391.58	7772.92
391.78	7375.03
391.97	7070.76
392.16	6593.29
392.36	6073.69
392.55	4802.78
392.75	3768.26
392.94	3110.57
393.13	3255.69
393.33	3733.15
393.52	4777.03
393.71	5813.89
393.91	6722.02
394.10	7063.74
394.29	7805.69
394.49	8313.58
394.68	9109.36
394.88	8966.59
395.07	9582.15
395.26	9298.95
395.46	8938.51
395.65	8507.85
395.84	7468.65
396.04	6303.06
396.23	5032.15
396.42	4217.65
396.62	4119.34
396.81	4798.10
397.00	6054.97
397.19	7648.87
397.39	9172.56
397.58	10239.84
397.77	10904.56
397.97	11178.40
398.16	11463.94
398.35	11698.00
398.55	12231.64
398.74	12718.47
398.93	12912.74
399.12	12603.78
399.32	12358.03
399.51	12533.57
399.70	13336.37
399.90	13509.57
400.09	13163.17
400.28	12952.52
400.47	13029.76
400.67	14050.24
400.86	14448.13
401.05	14029.17
401.24	14190.67
401.44	14604.94
401.63	14661.12
401.82	14867.08
402.01	14668.14
402.21	14719.63
402.40	14726.65
402.59	14335.78
402.78	13877.04
402.97	13502.55
403.17	13689.79
403.36	14541.75
403.55	15412.43
403.74	15562.22
403.93	14897.51
404.13	13862.99
404.32	13369.14
404.51	13851.29
404.70	15197.10
404.89	14979.43
405.09	14820.27
405.28	14630.69
405.47	14160.24
405.66	14417.70
405.85	13968.32
406.05	13621.92
406.24	13902.78
406.43	14326.42
406.62	15101.14
406.81	15201.78
407.00	14298.33
407.20	14218.75
407.39	14164.92
407.58	14855.38
407.77	15496.69
407.96	16056.08
408.15	16056.08
408.34	16559.29
408.54	17111.66
408.73	17095.27
408.92	16879.94
409.11	16500.78
409.30	15723.72
409.49	14738.35
409.68	13657.03
409.87	13114.02
410.07	13823.20
410.26	15323.49
410.45	16123.95
410.64	16587.38
410.83	16954.84
411.02	17881.69
411.21	18321.71
411.40	17713.17
411.59	18097.02
411.78	17989.36
411.98	17429.97
412.17	18026.81
412.36	17752.96
412.55	17750.62
412.74	17259.11
412.93	16727.81
413.12	17076.55
413.31	18581.51
413.50	19037.92
413.69	19250.91
413.88	18485.55
414.07	17949.57
414.26	18293.63
414.45	19035.58
414.64	19012.17
414.83	18869.40
415.02	19143.24
415.22	18630.66
415.41	18864.72
415.60	19793.91
415.79	20350.96
415.98	20603.74
416.17	20819.07
416.36	20159.03
416.55	19978.81
416.74	19468.58
416.93	18801.52
417.12	18693.86
417.31	19091.75
417.50	19751.78
417.69	19960.09
417.88	20030.30
418.07	19857.10
418.26	19349.21
418.45	19461.55
418.64	20051.37
418.83	20936.09
419.02	20643.52
419.21	20606.08
419.39	19573.90
419.58	18834.29
419.77	18483.21
419.96	19487.30
420.15	20521.82
420.34	21509.52
420.53	21853.58
420.72	22752.35
420.91	22595.53
421.10	21837.20
421.29	21961.25
421.48	20959.50
421.67	22148.49
421.86	21301.22
422.05	20290.10
422.24	18207.03
422.43	17778.71
422.61	19489.64
422.80	21076.52
422.99	21654.64
423.18	20767.57
423.37	19924.98
423.56	20102.86
423.75	20467.98
423.94	21109.29
424.13	19988.18
424.32	20161.37
424.50	20020.94
424.69	19854.76
424.88	19782.21
425.07	19733.06
425.26	19585.60
425.45	19693.27
425.64	19311.76
425.83	19091.75
426.01	20535.86
426.20	21088.23
426.39	20868.22
426.58	19220.48
426.77	17846.58
426.96	17240.39
427.15	17881.69
427.33	19386.66
427.52	20084.14
427.71	20123.93
427.90	19894.55
428.09	19623.05
428.28	19414.74
428.46	18768.76
428.65	18214.05
428.84	18817.91
429.03	19084.73
429.22	18235.11
429.40	17209.96
429.59	15618.39
429.78	13422.97
429.97	13682.77
430.16	13891.08
430.34	14064.28
430.53	14052.58
430.72	14455.15
430.91	15917.98
431.10	18455.12
431.28	21986.99
431.47	23651.11
431.66	23784.52
431.85	21797.41
432.03	19915.62
432.22	18960.68
432.41	19988.18
432.60	22178.92
432.79	22977.04
432.97	23707.29
433.16	23026.19
433.35	21102.27
433.54	19033.24
433.72	17745.94
433.91	18520.66
434.10	20388.41
434.28	22024.44
434.47	23147.90
434.66	22696.17
434.85	22174.24
435.03	21998.70
435.22	22560.42
435.41	24222.20
435.59	23857.08
435.78	24486.68
435.97	24982.88
436.16	24772.23
436.34	24830.74
436.53	24163.69
436.72	24168.37
436.90	22878.74
437.09	23218.11
437.28	22483.19
437.46	23349.18
437.65	23241.52
437.84	21804.43
438.02	19953.07
438.21	19737.74
438.40	21139.72
438.58	22782.77
438.77	23145.56
438.96	23410.04
439.14	24592.01
439.33	24973.52
439.52	25600.78
439.70	25046.07
439.89	24273.70
440.08	23290.67
440.26	23733.03
440.45	24283.06
440.63	25811.43
440.82	27583.21
441.01	27213.41
441.19	27239.15
441.38	27253.20
441.57	28063.02
441.75	28528.79
441.94	28716.03
442.12	28690.29
442.31	28910.30
442.50	29195.84
442.68	28563.90
442.87	28048.98
443.05	27880.46
443.24	28369.63
443.43	28994.56
443.61	29493.09
443.80	29462.66
443.98	28280.69
444.17	28266.65
444.35	29221.59
444.54	30235.04
444.73	29832.47
444.91	28662.20
445.10	27543.42
445.28	26462.10
445.47	25848.88
445.65	26335.71
445.84	26738.28
446.02	27704.92
446.21	27938.97
446.39	28306.44
446.58	28383.68
446.77	29397.13
446.95	29156.05
447.14	30073.54
447.32	30700.81
447.51	29954.18
447.69	28828.38
447.88	28540.49
448.06	28479.64
448.25	29724.80
448.43	29872.26
448.62	29113.92
448.80	28566.24
448.99	29369.04
449.17	29420.53
449.36	29383.09
449.54	30499.52
449.73	30864.64
449.91	31119.76
450.10	32315.78
450.28	32854.10
450.46	32388.33
450.65	32437.48
450.83	32341.52
451.02	31601.91
451.20	31620.64
451.39	31714.26
451.57	31112.74
451.76	30789.75
451.94	30822.51
452.13	30328.66
452.31	29144.35
452.49	27857.06
452.68	28121.54
452.86	28306.44
453.05	28563.90
453.23	29413.51
453.42	29890.98
453.60	30684.42
453.78	31105.72
453.97	30724.21
454.15	30747.62
454.34	30146.10
454.52	30113.33
454.70	29816.08
454.89	30347.39
455.07	30162.48
455.26	30623.57
455.44	32023.21
455.62	31899.16
455.81	32175.34
455.99	31997.46
456.17	31791.50
456.36	31842.99
456.54	32603.66
456.73	32863.46
456.91	33127.94
457.09	33301.14
457.28	33933.09
457.46	32622.39
457.64	33034.32
457.83	31929.59
458.01	30714.85
458.19	31213.38
458.38	31850.01
458.56	32872.82
458.74	32821.33
458.93	32280.67
459.11	32037.25
459.29	31833.63
459.48	32198.75
459.66	31749.37
459.84	32603.66
460.03	32821.33
460.21	32348.54
460.39	33610.09
460.57	33708.40
460.76	33895.64
460.94	33928.41
461.12	33453.28
461.31	34211.61
461.49	33614.77
461.67	33603.07
461.85	34387.15
462.04	34277.15
462.22	35061.22
462.40	34775.68
462.59	34490.13
462.77	34141.39
462.95	34352.04
463.13	33851.17
463.32	33479.02
463.50	32701.96
463.68	33614.77
463.86	33149.01
464.05	32971.13
464.23	32123.85
464.41	32177.68
464.59	31751.71
464.78	33406.47
464.96	33055.39
465.14	32383.65
465.32	33621.80
465.50	34052.45
465.69	34792.06
465.87	33778.61
466.05	33113.90
466.23	31651.06
466.41	31049.55
466.60	31765.75
466.78	31730.64
466.96	32318.12
467.14	33099.86
467.32	33259.01
467.51	33673.29
467.69	31840.65
467.87	32521.74
468.05	32797.93
468.23	32926.66
468.41	33315.19
468.60	33177.09
468.78	33310.50
468.96	32996.87
469.14	33811.38
469.32	33694.35
469.50	32430.46
469.69	32285.35
469.87	32416.42
470.05	32285.35
470.23	32311.10
470.41	32140.24
470.59	32687.92
470.77	32914.95
470.95	33427.53
471.14	34022.03
471.32	34220.97
471.50	35723.60
471.68	36172.98
471.86	36556.83
472.04	36795.56
472.22	36629.38
472.40	34710.14
472.58	34398.85
472.77	34153.10
472.95	34609.50
473.13	35775.09
473.31	34424.60
473.49	34632.91
473.67	35690.83
473.85	35981.06
474.03	36512.36
474.21	36622.36
474.39	36779.18
474.57	37497.72
474.75	37563.26
474.93	37331.54
475.12	36151.91
475.30	36219.79
475.48	36400.01
475.66	36671.51
475.84	36608.32
476.02	35997.44
476.20	35559.76
476.38	36435.12
476.56	37535.17
476.74	38050.09
476.92	38225.63
477.10	38852.89
477.28	39672.08
477.46	39473.13
477.64	40432.75
477.82	40172.96
478.00	40322.75
478.18	40119.12
478.36	39742.30
478.54	39945.92
478.72	39875.71
478.90	41137.26
479.08	41982.19
479.26	42665.63
479.44	42562.64
479.62	42227.95
479.80	42298.16
479.98	42309.86
480.16	42543.92
480.34	42045.38
480.52	42419.87
480.70	42810.74
480.88	42700.73
481.06	43559.71
481.24	43817.17
481.41	44601.25
481.59	45352.56
481.77	44755.72
481.95	44367.20
482.13	44053.56
482.31	44442.09
482.49	45027.23
482.67	44631.68
482.85	45230.85
483.03	46050.04
483.21	46354.31
483.39	46024.29
483.57	45209.79
483.74	45139.57
483.92	45324.47
484.10	45298.73
484.28	46220.90
484.46	46906.68
484.64	47367.76
484.82	46471.34
485.00	46014.93
485.18	45181.70
485.35	43716.53
485.53	40905.54
485.71	37488.36
485.89	36517.04
486.07	38649.27
486.25	41567.91
486.43	43913.13
486.61	45324.47
486.78	44659.76
486.96	45015.52
487.14	46763.90
487.32	47306.91
487.50	48935.92
487.68	49308.07
487.85	50061.72
488.03	50003.20
488.21	49780.85
488.39	49015.50
488.57	48158.86
488.75	47873.32
488.92	48931.24
489.10	51267.09
489.28	52554.39
489.46	53209.74
489.64	52846.96
489.81	53296.34
489.99	52931.22
490.17	52999.09
490.35	53324.43
490.53	52978.03
490.70	52350.76
490.88	52439.70
491.06	53315.06
491.24	53183.99
491.41	52252.46
491.59	50387.05
491.77	49546.80
491.95	50974.53
492.13	51906.06
492.30	53387.62
492.48	54293.41
492.66	54571.93
492.84	54382.35
493.01	54410.43
493.19	53848.71
493.37	53584.22
493.54	53399.32
493.72	54101.48
493.90	54897.27
494.08	55618.15
494.25	56102.64
494.43	56114.34
494.61	56498.19
494.79	56584.79
494.96	56559.05
495.14	55845.18
495.32	54880.88
495.49	54199.79
495.67	55421.55
495.85	56514.58
496.02	57052.90
496.20	56842.25
496.38	56479.47
496.55	56088.60
496.73	56669.05
496.91	56516.92
497.09	57403.98
497.26	57649.74
497.44	57092.69
497.62	56882.04
497.79	55620.49
497.97	54665.55
498.14	54852.80
498.32	55964.55
498.50	56676.07
498.67	57247.16
498.85	57137.16
499.03	57457.81
499.20	57469.51
499.38	57645.05
499.56	57242.48
499.73	56704.16
499.91	56552.02
500.08	56079.24
500.26	55253.03
500.44	55969.23
500.61	56678.41
500.79	56357.76
500.97	55973.91
501.14	55800.71
501.32	55789.01
501.49	55770.28
501.67	55828.80
501.84	56537.98
502.02	56626.92
502.20	57048.22
502.37	57296.31
502.55	57310.36
502.72	57888.47
502.90	58087.42
503.07	57621.65
503.25	57420.36
503.43	56446.70
503.60	56161.15
503.78	55351.33
503.95	55948.17
504.13	57282.27
504.30	57982.09
504.48	57848.68
504.65	57504.62
504.83	57443.77
505.01	58124.86
505.18	58410.41
505.36	59016.61
505.53	59037.67
505.71	59192.15
505.88	59143.00
506.06	58812.98
506.23	58330.83
506.41	58049.97
506.58	58279.34
506.76	57900.17
506.93	58080.39
507.11	57783.15
507.28	58108.48
507.46	57743.36
507.63	57022.47
507.81	56844.59
507.98	57186.31
508.16	57862.72
508.33	58309.77
508.50	58621.06
508.68	58834.05
508.85	59402.80
509.03	59323.22
509.20	59372.37
509.38	58412.75
509.55	57694.21
509.73	57923.58
509.90	58454.88
510.08	58623.40
510.25	58405.73
510.42	58585.95
510.60	58305.09
510.77	58562.54
510.95	59171.08
511.12	59304.49
511.30	59414.50
511.47	59803.03
511.64	59529.19
511.82	59461.31
511.99	58335.51
512.17	58356.58
512.34	57935.28
512.51	58068.69
512.69	58145.93
512.86	58248.91
513.04	58576.59
513.21	58688.93
513.38	58504.03
513.56	57851.02
513.73	57406.32
513.90	57705.91
514.08	57677.82
514.25	57851.02
514.43	58000.82
514.60	58190.40
514.77	58569.57
514.95	58578.93
515.12	58258.27
515.29	58691.27
515.47	58962.78
515.64	59370.03
515.81	58887.88
515.99	58363.60
516.16	56963.96
516.33	54557.89
516.51	53233.14
516.68	52322.68
516.85	52086.28
517.03	52313.31
517.20	55112.59
517.37	57478.88
517.54	58340.19
517.72	57939.96
517.89	55585.38
518.06	53153.57
518.24	53638.06
518.41	55875.61
518.58	56924.17
518.75	57230.78
518.93	57378.23
519.10	57345.47
519.27	57595.90
519.45	58026.56
519.62	58684.25
519.79	58815.32
519.96	58745.11
520.14	58471.26
520.31	57347.81
520.48	57535.05
520.65	57890.81
520.83	58768.51
521.00	58983.84
521.17	58815.32
521.34	58351.90
521.52	58724.04
521.69	59068.10
521.86	59641.53
522.03	59316.20
522.20	58213.80
522.38	57113.75
522.55	57265.89
522.72	57867.40
522.89	57909.53
523.07	58150.61
523.24	58452.54
523.41	59564.29
523.58	59578.34
523.75	59952.82
523.92	59730.47
524.10	59908.35
524.27	59854.52
524.44	59728.13
524.61	59327.90
524.78	59178.10
524.96	59199.17
525.13	58944.05
525.30	59531.53
525.47	59774.94
525.64	59725.79
525.81	59016.61
525.98	57591.22
526.16	56308.61
526.33	55664.96
526.50	55178.13
526.67	54817.69
526.84	55660.28
527.01	56652.67
527.18	57329.08
527.36	58211.46
527.53	59220.23
527.70	59290.45
527.87	58700.64
528.04	58279.34
528.21	58700.64
528.38	59498.76
528.55	59999.63
528.72	60456.04
528.89	60175.17
529.07	60055.81
529.24	59526.84
529.41	58670.21
529.58	58246.57
529.75	58724.04
529.92	59089.16
530.09	59070.44
530.26	59718.77
530.43	60074.53
530.60	60044.10
530.77	60126.02
530.94	60315.61
531.11	59772.60
531.28	59578.34
531.46	59295.13
531.63	59405.14
531.80	59285.77
531.97	58958.09
532.14	58131.89
532.31	57324.40
532.48	56498.19
532.65	56439.68
532.82	57680.16
532.99	58436.16
533.16	58822.34
533.33	59419.18
533.50	59302.15
533.67	58646.80
533.84	58328.49
534.01	58637.44
534.18	58618.72
534.35	58904.26
534.52	58658.51
534.69	59007.25
534.86	59147.68
535.03	59395.77
535.20	59756.22
535.37	60207.94
535.54	60449.02
535.71	59943.46
535.88	59545.57
536.05	59150.02
536.22	58583.61
536.38	58473.60
536.55	57687.18
536.72	57455.47
536.89	57481.22
537.06	58110.82
537.23	58974.48
537.40	59199.17
537.57	59187.47
537.74	59091.51
537.91	58981.50
538.08	58899.58
538.25	58834.05
538.42	58997.88
538.59	59023.63
538.75	58096.78
538.92	58171.67
539.09	57862.72
539.26	57879.11
539.43	57434.41
539.60	57673.14
539.77	57808.89
539.94	57509.30
540.11	56893.74
540.28	56612.88
540.44	56519.26
540.61	56788.42
540.78	57153.54
540.95	57436.75
541.12	57862.72
541.29	57874.43
541.46	58169.33
541.62	58628.08
541.79	58384.66
541.96	57708.25
542.13	57673.14
542.30	57916.56
542.47	58342.53
542.63	58031.24
542.80	57757.40
542.97	57907.19
543.14	57783.15
543.31	57668.46
543.48	58206.78
543.64	59047.04
543.81	59267.05
543.98	59152.36
544.15	58401.05
544.32	57900.17
544.48	57766.76
544.65	58365.94
544.82	58443.18
544.99	58445.52
545.16	58150.61
545.32	57783.15
545.49	58527.44
545.66	59231.94
545.83	58473.60
546.00	58155.29
546.16	57836.98
546.33	58014.86
546.50	57956.35
546.67	58471.26
546.83	58164.65
547.00	58192.74
547.17	57418.02
547.34	56978.00
547.50	56713.52
547.67	57425.04
547.84	57186.31
548.00	57506.96
548.17	58244.23
548.34	57991.45
548.51	57958.69
548.67	58150.61
548.84	58103.80
549.01	58078.05
549.18	57872.09
549.34	57855.70
549.51	57820.59
549.68	57755.06
549.84	57530.37
550.01	57490.58
550.18	57195.67
550.34	57338.44
550.51	57504.62
550.68	57420.36
550.84	57146.52
551.01	57080.98
551.18	57076.30
551.34	57279.93
551.51	57836.98
551.68	57841.66
551.84	57862.72
552.01	57719.95
552.18	57813.57
552.34	57006.09
552.51	56456.06
552.68	56294.56
552.84	56736.93
553.01	57057.58
553.18	56970.98
553.34	57319.72
553.51	57279.93
553.67	57836.98
553.84	57780.81
554.01	57572.50
554.17	57530.37
554.34	57471.85
554.51	57441.43
554.67	57773.78
554.84	57645.05
555.00	57560.79
555.17	57141.84
555.33	57263.55
555.50	57319.72
555.67	57045.88
555.83	56917.15
556.00	56729.90
556.16	56804.80
556.33	56420.95
556.50	56002.00
556.66	56282.86
556.83	55814.76
556.99	56009.02
557.16	56100.30
557.32	56416.27
557.49	56694.80
557.65	56624.58
557.82	56774.37
557.98	56481.81
558.15	56081.58
558.32	55119.62
558.48	54543.84
558.65	54688.96
558.81	54752.15
558.98	55442.61
559.14	55325.58
559.31	55655.60
559.47	55444.95
559.64	55332.60
559.80	54808.32
559.97	55023.65
560.13	55489.42
560.30	56310.95
560.46	56837.57
560.63	57022.47
560.79	56992.04
560.96	56561.39
561.12	55442.61
561.29	54707.68
561.45	54616.40
561.61	55337.29
561.78	55421.55
561.94	55599.43
562.11	55416.86
562.27	55100.89
562.44	55533.89
562.60	55590.06
562.77	56224.35
562.93	56116.68
563.10	55814.76
563.26	55168.77
563.42	55463.67
563.59	55210.90
563.75	55292.82
563.92	55236.64
564.08	54876.20
564.24	55667.30
564.41	55484.74
564.57	55444.95
564.74	55152.38
564.90	55028.34
565.07	54890.24
565.23	54726.41
565.39	54209.15
565.56	53846.36
565.72	53591.25
565.88	53939.99
566.05	54120.21
566.21	54316.81
566.38	54848.11
566.54	54370.64
566.70	54930.03
566.87	55037.70
567.03	55255.37
567.19	55386.44
567.36	55351.33
567.52	55037.70
567.68	54740.45
567.85	53998.50
568.01	53869.77
568.17	53263.57
568.34	53289.32
568.50	53394.64
568.66	53488.26
568.83	53722.32
568.99	53764.45
569.15	54127.23
569.32	53759.76
569.48	53694.23
569.64	53748.06
569.81	53396.98
569.97	53382.94
570.13	52875.04
570.30	52624.60
570.46	52292.25
570.62	51742.22
570.78	51461.36
570.95	51793.71
571.11	52671.42
571.27	52765.04
571.43	53001.43
571.60	53116.12
571.76	53581.88
571.92	53696.57
572.09	54052.33
572.25	53834.66
572.41	53925.94
572.57	53579.54
572.74	53745.72
572.90	53338.47
573.06	53528.05
573.22	53212.08
573.38	53167.61
573.55	53394.64
573.71	53331.45
573.87	53525.71
574.03	53102.07
574.20	53024.84
574.36	52811.85
574.52	52435.02
574.68	52339.06
574.84	52154.16
575.01	51437.95
575.17	51456.68
575.33	51461.36
575.49	51856.91
575.65	52186.92
575.82	52179.90
575.98	51828.82
576.14	51835.84
576.30	52404.59
576.46	52889.09
576.62	52538.01
576.79	52191.61
576.95	51821.80
577.11	51910.74
577.27	51826.48
577.43	52013.73
577.59	51882.66
577.75	51208.58
577.92	50665.58
578.08	50237.26
578.24	50555.57
578.40	50775.58
578.56	50850.48
578.72	51194.54
578.88	51620.52
579.04	51318.59
579.21	51732.86
579.37	51786.69
579.53	51945.85
579.69	51819.46
579.85	51866.27
580.01	51704.77
580.17	51248.37
580.33	51175.81
580.49	51117.30
580.65	51585.41
580.82	51721.16
580.98	51931.81
581.14	51386.46
581.30	51604.13
581.46	51545.62
581.62	51632.22
581.78	51845.21
581.94	51924.78
582.10	51863.93
582.26	51547.96
582.42	51714.14
582.58	52018.41
582.74	51732.86
582.90	51803.08
583.06	51578.39
583.22	51590.09
583.38	51452.00
583.54	51318.59
583.70	51199.22
583.86	51360.72
584.02	51255.39
584.18	51463.70
584.34	51349.01
584.50	51178.15
584.66	51051.76
584.82	50499.40
584.98	50649.19
585.14	49890.86
585.30	49563.18
