SpectraSuite Data File
++++++++++++++++++++++++++++++++++++
Date: Mon Oct 07 14:53:53 GMT-05:00 2013
User: price-jones
Dark Spectrum Present: No
Reference Spectrum Present: No
Number of Sampled Component Spectra: 1
Spectrometers: USB2+H05261
Integration Time (usec): 100000 (USB2+H05261)
Spectra Averaged: 1 (USB2+H05261)
Boxcar Smoothing: 0 (USB2+H05261)
Correct for Electrical Dark: No (USB2+H05261)
Strobe/Lamp Enabled: No (USB2+H05261)
Correct for Detector Non-linearity: No (USB2+H05261)
Correct for Stray Light: No (USB2+H05261)
Number of Pixels in Processed Spectrum: 2048
>>>>>Begin Processed Spectral Data<<<<<
365.73	0.00
365.92	0.00
366.12	0.00
366.32	0.00
366.52	0.00
366.72	0.00
366.91	0.00
367.11	0.00
367.31	0.00
367.51	0.00
367.70	0.00
367.90	0.00
368.10	0.00
368.30	0.00
368.49	0.00
368.69	0.00
368.89	0.00
369.09	0.00
369.28	0.00
369.48	0.00
369.68	0.00
369.87	0.00
370.07	0.00
370.27	0.00
370.47	596.84
370.66	2944.39
370.86	3648.90
371.06	3859.54
371.25	3875.93
371.45	3611.45
371.65	3227.60
371.84	2897.58
372.04	3091.85
372.24	3541.23
372.44	3791.67
372.63	3557.61
372.83	3288.45
373.03	2930.35
373.22	2745.45
373.42	2899.92
373.62	3239.30
373.81	3590.38
374.01	3566.98
374.21	3351.65
374.40	3119.93
374.60	3040.36
374.79	3328.24
374.99	4112.32
375.19	4374.46
375.38	4540.64
375.58	4241.05
375.78	4208.28
375.97	4105.30
376.17	4315.95
376.37	4212.96
376.56	4425.95
376.76	4676.39
376.95	4968.96
377.15	5401.96
377.35	5537.71
377.54	5895.81
377.74	5785.80
377.93	5994.11
378.13	5762.40
378.33	5516.64
378.52	5057.90
378.72	4830.87
378.91	4723.20
379.11	4645.96
379.31	4475.10
379.50	4411.91
379.70	4910.44
379.89	5369.19
380.09	5493.24
380.28	5760.06
380.48	5652.39
380.68	5572.82
380.87	5556.43
381.07	5238.12
381.26	4720.86
381.46	4620.22
381.65	4297.22
381.85	4081.89
382.04	4084.23
382.24	3735.50
382.43	3522.51
382.63	3609.11
382.83	3445.27
383.02	3571.66
383.22	3555.27
383.41	3499.10
383.61	3740.18
383.80	4243.39
384.00	4865.97
384.19	5357.49
384.39	5607.92
384.58	5680.48
384.78	5549.41
384.97	5554.09
385.17	5240.46
385.36	5018.11
385.56	4774.69
385.75	4957.25
385.95	5357.49
386.14	5877.09
386.34	5841.98
386.53	5612.60
386.72	5240.46
386.92	5273.23
387.11	5549.41
387.31	5930.92
387.50	5671.12
387.70	5533.03
387.89	5528.35
388.09	5572.82
388.28	5675.80
388.48	5731.97
388.67	6036.24
388.86	6656.48
389.06	7260.34
389.25	7562.27
389.45	7599.72
389.64	7386.73
389.84	7459.29
390.03	7339.92
390.22	7590.36
390.42	7599.72
390.61	8093.57
390.81	8758.28
391.00	8912.76
391.19	8699.77
391.39	8430.61
391.58	8138.04
391.78	7473.33
391.97	7379.71
392.16	6841.39
392.36	6169.65
392.55	5050.88
392.75	3929.76
392.94	3246.32
393.13	3117.59
393.33	3754.22
393.52	4952.57
393.71	5839.64
393.91	6658.82
394.10	7255.66
394.29	8004.63
394.49	8566.36
394.68	9210.01
394.88	9128.09
395.07	9437.04
395.26	9357.46
395.46	9217.03
395.65	8856.59
395.84	7597.38
396.04	6403.71
396.23	5200.67
396.42	4379.14
396.62	4175.52
396.81	4992.36
397.00	6204.76
397.19	7887.61
397.39	9207.67
397.58	10399.00
397.77	10960.73
397.97	11482.67
398.16	11641.82
398.35	11910.99
398.55	12470.37
398.74	12952.52
398.93	13647.66
399.12	13036.78
399.32	12521.87
399.51	12919.76
399.70	13617.24
399.90	13486.17
400.09	13783.41
400.28	13341.05
400.47	13383.18
400.67	14146.20
400.86	14546.43
401.05	14633.03
401.24	14635.37
401.44	14705.59
401.63	14647.07
401.82	14911.55
402.01	14941.98
402.21	15358.60
402.40	15026.24
402.59	14965.39
402.78	14155.56
402.97	13760.01
403.17	14281.95
403.36	15169.01
403.55	15775.21
403.74	15833.72
403.93	15054.33
404.13	13947.25
404.32	13549.36
404.51	14347.48
404.70	15606.69
404.89	15470.94
405.09	15206.46
405.28	14490.26
405.47	14698.56
405.66	14555.79
405.85	14237.48
406.05	14029.17
406.24	14221.10
406.43	15040.28
406.62	15431.15
406.81	15234.55
407.00	14712.61
407.20	14398.98
407.39	14551.11
407.58	15683.93
407.77	16018.63
407.96	16463.33
408.15	16734.83
408.34	16634.19
408.54	17317.62
408.73	17638.28
408.92	17195.92
409.11	16826.11
409.30	16229.27
409.49	14956.02
409.68	13902.78
409.87	13301.26
410.07	14445.79
410.26	15382.00
410.45	16318.22
410.64	16812.07
410.83	17282.52
411.02	17921.48
411.21	18642.37
411.40	18483.21
411.59	18242.14
411.78	18284.26
411.98	18211.71
412.17	18391.93
412.36	18038.51
412.55	18167.24
412.74	17380.82
412.93	17357.41
413.12	17198.26
413.31	19133.88
413.50	19325.80
413.69	19611.35
413.88	18808.54
414.07	18143.83
414.26	18464.49
414.45	19353.89
414.64	19342.19
414.83	19309.42
415.02	18801.52
415.22	18768.76
415.41	19365.59
415.60	20091.16
415.79	20732.47
415.98	21366.75
416.17	20961.84
416.36	20540.54
416.55	20332.23
416.74	19688.59
416.93	18948.98
417.12	18841.31
417.31	19379.64
417.50	19653.48
417.69	20226.91
417.88	20215.21
418.07	19777.53
418.26	19669.86
418.45	19618.37
418.64	20278.40
418.83	21174.83
419.02	20900.98
419.21	20952.48
419.39	19892.21
419.58	19103.45
419.77	19019.19
419.96	19765.82
420.15	20760.55
420.34	21752.94
420.53	22295.94
420.72	22244.45
420.91	22373.18
421.10	22396.59
421.29	21888.69
421.48	20980.56
421.67	22469.14
421.86	21970.61
422.05	20348.62
422.24	18391.93
422.43	17792.75
422.61	19782.21
422.80	21619.53
422.99	21661.66
423.18	20872.90
423.37	20449.26
423.56	20507.77
423.75	20713.74
423.94	21025.03
424.13	20215.21
424.32	20222.23
424.50	20194.14
424.69	20149.67
424.88	20210.53
425.07	20112.22
425.26	20166.06
425.45	19810.29
425.64	19531.77
425.83	19428.79
426.01	20613.10
426.20	21074.18
426.39	20985.24
426.58	19461.55
426.77	18164.90
426.96	17537.63
427.15	17972.97
427.33	19508.37
427.52	20063.07
427.71	20439.90
427.90	20004.56
428.09	20156.69
428.28	19559.86
428.46	18932.59
428.65	18366.18
428.84	18972.38
429.03	19367.93
429.22	18197.67
429.40	17240.39
429.59	15969.48
429.78	14038.53
429.97	13860.65
430.16	13996.40
430.34	14277.27
430.53	14061.94
430.72	14239.82
430.91	16070.12
431.10	18750.03
431.28	22253.81
431.47	24072.41
431.66	24673.93
431.85	22075.93
432.03	20435.22
432.22	19105.79
432.41	20360.32
432.60	22469.14
432.79	23410.04
432.97	23976.45
433.16	23096.41
433.35	21373.77
433.54	19159.63
433.72	17832.54
433.91	18214.05
434.10	20786.30
434.28	22085.30
434.47	23040.23
434.66	23089.38
434.85	22602.55
435.03	22328.71
435.22	22885.76
435.41	24327.53
435.59	24133.26
435.78	24510.09
435.97	25242.68
436.16	25469.71
436.34	25076.50
436.53	24222.20
436.72	24386.04
436.90	23173.64
437.09	22520.63
437.28	22487.87
437.46	23297.69
437.65	23529.41
437.84	21848.90
438.02	20257.34
438.21	19983.49
438.40	21324.62
438.58	23110.45
438.77	23538.77
438.96	23756.44
439.14	24353.27
439.33	25060.12
439.52	25764.62
439.70	25046.07
439.89	24306.46
440.08	23623.03
440.26	23648.77
440.45	24489.03
440.63	26279.54
440.82	27374.91
441.01	27555.13
441.19	26623.59
441.38	26934.88
441.57	28400.06
441.75	28954.77
441.94	28734.76
442.12	28606.03
442.31	29188.82
442.50	29064.77
442.68	28788.59
442.87	28264.31
443.05	28215.16
443.24	28400.06
443.43	28814.34
443.61	29890.98
443.80	30127.38
443.98	27988.13
444.17	28346.23
444.35	29879.28
444.54	30183.55
444.73	29890.98
444.91	28828.38
445.10	27496.61
445.28	26438.69
445.47	25874.62
445.65	26120.38
445.84	26696.15
446.02	27754.07
446.21	28266.65
446.39	28301.76
446.58	28554.54
446.77	29340.96
446.95	29406.49
447.14	30249.08
447.32	30792.09
447.51	30038.44
447.69	28840.08
447.88	28091.11
448.06	29137.33
448.25	29542.24
448.43	29839.49
448.62	28994.56
448.80	28842.42
448.99	29961.20
449.17	29465.00
449.36	29446.28
449.54	30459.73
449.73	31236.79
449.91	31606.59
450.10	32369.61
450.28	32535.79
450.46	32306.41
450.65	32341.52
450.83	32432.80
451.02	31732.98
451.20	31292.96
451.39	31529.36
451.57	31381.90
451.76	31445.10
451.94	30937.20
452.13	30450.37
452.31	29097.54
452.49	27601.94
452.68	28208.14
452.86	27892.16
453.05	28601.35
453.23	29289.46
453.42	29965.88
453.60	30586.12
453.78	30948.90
453.97	30504.20
454.15	30902.09
454.34	29827.79
454.52	29872.26
454.70	29535.22
454.89	30017.37
455.07	30298.23
455.26	30693.79
455.44	31510.63
455.62	31901.50
455.81	32465.57
455.99	32315.78
456.17	31892.14
456.36	31922.57
456.54	32823.67
456.73	32767.50
456.91	33034.32
457.09	33556.26
457.28	33532.86
457.46	32683.24
457.64	32357.91
457.83	31592.55
458.01	30850.60
458.19	31945.97
458.38	31796.18
458.56	32818.99
458.74	32776.86
458.93	31948.31
459.11	32189.39
459.29	31510.63
459.48	32173.00
459.66	31971.72
459.84	32034.91
460.03	32802.61
460.21	32404.72
460.39	33130.28
460.57	33109.22
460.76	33790.31
460.94	33518.81
461.12	33333.91
461.31	33523.49
461.49	33668.61
461.67	33130.28
461.85	34122.67
462.04	34129.69
462.22	35086.97
462.40	34309.91
462.59	34239.70
462.77	34120.33
462.95	34405.88
463.13	33710.74
463.32	33039.00
463.50	33305.82
463.68	32926.66
463.86	33317.53
464.05	32795.59
464.23	32009.17
464.41	31812.56
464.59	31353.82
464.78	33539.88
464.96	33020.28
465.14	32023.21
465.32	33261.35
465.50	34246.72
465.69	34267.78
465.87	33710.74
466.05	33106.88
466.23	31723.62
466.41	30775.70
466.60	31562.12
466.78	31667.45
466.96	32055.98
467.14	32512.38
467.32	33165.39
467.51	33336.25
467.69	31627.66
467.87	32723.03
468.05	32943.04
468.23	32985.17
468.41	33043.68
468.60	33460.30
468.78	33434.55
468.96	33015.60
469.14	33577.33
469.32	33769.25
469.50	32119.17
469.69	32458.55
469.87	32233.86
470.05	31641.70
470.23	31936.61
470.41	32046.62
470.59	32655.15
470.77	32704.31
470.95	33170.07
471.14	33539.88
471.32	33848.83
471.50	35613.59
471.68	35608.91
471.86	35910.84
472.04	36112.13
472.22	36591.94
472.40	34422.26
472.58	34129.69
472.77	33397.10
472.95	34295.87
473.13	35063.57
473.31	34054.79
473.49	34586.10
473.67	35000.37
473.85	35711.89
474.03	36273.62
474.21	36589.59
474.39	36917.27
474.57	37031.96
474.75	36552.15
474.93	36664.49
475.12	35433.37
475.30	35796.15
475.48	35849.99
475.66	36524.06
475.84	35641.68
476.02	35754.02
476.20	35615.93
476.38	35871.05
476.56	36971.10
476.74	37771.57
476.92	37858.17
477.10	38476.07
477.28	39108.01
477.46	38925.45
477.64	39629.95
477.82	39550.37
478.00	39838.26
478.18	39129.08
478.36	39225.04
478.54	39084.61
478.72	39721.23
478.90	40598.93
479.08	41544.51
479.26	41895.59
479.44	41617.07
479.62	41420.46
479.80	41118.53
479.98	41610.04
480.16	41902.61
480.34	41865.16
480.52	41855.80
480.70	42117.94
480.88	42277.10
481.06	43012.02
481.24	43468.43
481.41	44184.63
481.59	44729.98
481.77	44383.58
481.95	44172.93
482.13	43374.81
482.31	43732.91
482.49	44566.14
482.67	44729.98
482.85	44516.99
483.03	45345.54
483.21	45581.93
483.39	45624.06
483.57	44788.49
483.74	44549.76
483.92	44692.53
484.10	45123.19
484.28	45565.55
484.46	46227.92
484.64	46593.04
484.82	45954.08
485.00	45303.41
485.18	44837.64
485.35	43234.38
485.53	40348.50
485.71	36760.45
485.89	36290.01
486.07	37743.48
486.25	41514.08
486.43	43557.37
486.61	44023.14
486.78	44154.21
486.96	44423.37
487.14	46225.58
487.32	47470.75
487.50	47831.19
487.68	48896.13
487.85	49858.09
488.03	49354.88
488.21	49052.95
488.39	48086.31
488.57	47449.68
488.75	47004.98
488.92	48165.88
489.10	50712.39
489.28	52264.16
489.46	52680.78
489.64	52289.91
489.81	52477.15
489.99	52325.02
490.17	52320.34
490.35	53057.60
490.53	51987.98
490.70	51796.06
490.88	51358.38
491.06	52966.32
491.24	52622.26
491.41	51285.82
491.59	49785.54
491.77	49270.62
491.95	50316.84
492.13	51365.40
492.30	52793.12
492.48	53609.97
492.66	54340.22
492.84	54288.73
493.01	53687.21
493.19	53127.82
493.37	53081.01
493.54	52587.16
493.72	53233.14
493.90	54314.47
494.08	55386.44
494.25	55629.85
494.43	55608.79
494.61	56041.79
494.79	55992.64
494.96	55681.34
495.14	55178.13
495.32	54508.74
495.49	53588.91
495.67	54866.84
495.85	56168.18
496.02	56516.92
496.20	56413.93
496.38	55920.08
496.55	55704.75
496.73	56355.42
496.91	56119.02
497.09	57029.49
497.26	57216.74
497.44	56521.60
497.62	56081.58
497.79	55257.71
497.97	53968.07
498.14	54127.23
498.32	55082.17
498.50	56161.15
498.67	56797.78
498.85	56495.85
499.03	56748.63
499.20	57008.43
499.38	56849.27
499.56	56809.48
499.73	56182.22
499.91	56018.38
500.08	55412.18
500.26	54951.10
500.44	55365.37
500.61	55924.76
500.79	55697.73
500.97	55119.62
501.14	55236.64
501.32	55093.87
501.49	54901.95
501.67	54934.71
501.84	55690.71
502.02	56154.13
502.20	56633.94
502.37	56505.21
502.55	56629.26
502.72	56987.36
502.90	57485.90
503.07	57343.12
503.25	56851.61
503.43	56034.77
503.60	55517.51
503.78	54595.34
503.95	55290.48
504.13	56636.28
504.30	57172.27
504.48	57308.02
504.65	56985.02
504.83	56910.13
505.01	57420.36
505.18	57771.44
505.36	58305.09
505.53	58295.72
505.71	58618.72
505.88	58520.41
506.06	58183.38
506.23	57890.81
506.41	57478.88
506.58	57546.75
506.76	57680.16
506.93	57666.12
507.11	57422.70
507.28	57565.48
507.46	56889.06
507.63	56500.53
507.81	56100.30
507.98	56324.99
508.16	57106.73
508.33	57614.63
508.50	57921.24
508.68	58230.19
508.85	58752.13
509.03	58623.40
509.20	58457.22
509.38	57860.38
509.55	57158.22
509.73	57104.39
509.90	57638.03
510.08	58068.69
510.25	57998.48
510.42	57914.22
510.60	57680.16
510.77	57895.49
510.95	58293.38
511.12	58534.46
511.30	58747.45
511.47	59171.08
511.64	59138.32
511.82	58763.83
511.99	58033.58
512.17	57563.14
512.34	56973.32
512.51	57476.54
512.69	57359.51
512.86	57738.68
513.04	58136.57
513.21	57982.09
513.38	57684.84
513.56	57190.99
513.73	56477.13
513.90	56711.18
514.08	56781.40
514.25	57188.65
514.43	57329.08
514.60	57366.53
514.77	57705.91
514.95	57570.16
515.12	57684.84
515.29	57846.34
515.47	58298.06
515.64	58436.16
515.81	58134.23
515.99	57722.29
516.16	56357.76
516.33	53724.66
516.51	52528.64
516.68	51622.86
516.85	50784.94
517.03	51526.89
517.20	54052.33
517.37	56828.21
517.54	57705.91
517.72	57230.78
517.89	54700.66
518.06	52130.75
518.24	52594.18
518.41	54672.57
518.58	56346.06
518.75	56523.94
518.93	56633.94
519.10	56512.23
519.27	57006.09
519.45	57202.69
519.62	57822.93
519.79	58171.67
519.96	57984.43
520.14	57539.73
520.31	56732.25
520.48	56851.61
520.65	57088.01
520.83	57954.00
521.00	58459.56
521.17	58190.40
521.34	57680.16
521.52	58241.89
521.69	58679.57
521.86	58775.53
522.03	58644.46
522.20	57406.32
522.38	56142.43
522.55	56296.91
522.72	57066.94
522.89	57064.60
523.07	57385.25
523.24	57839.32
523.41	58440.84
523.58	58848.09
523.75	59255.34
523.92	59157.04
524.10	58995.54
524.27	58983.84
524.44	58740.42
524.61	58515.73
524.78	58499.35
524.96	58382.32
525.13	58251.25
525.30	58548.50
525.47	58997.88
525.64	58967.46
525.81	58131.89
525.98	56842.25
526.16	55377.08
526.33	54815.35
526.50	54288.73
526.67	53944.67
526.84	54796.62
527.01	55749.22
527.18	56512.23
527.36	57378.23
527.53	58134.23
527.70	58482.97
527.87	57745.70
528.04	57549.09
528.21	57888.47
528.38	58955.75
528.55	59248.32
528.72	59334.92
528.89	59608.76
529.07	59302.15
529.24	58719.36
529.41	58099.12
529.58	57469.51
529.75	57464.83
529.92	58220.83
530.09	58557.86
530.26	58988.52
530.43	59154.70
530.60	59178.10
530.77	59320.88
530.94	59536.21
531.11	59107.89
531.28	58642.12
531.46	58389.34
531.63	58721.70
531.80	58365.94
531.97	58000.82
532.14	57268.23
532.31	56339.04
532.48	55622.83
532.65	55571.34
532.82	56640.96
532.99	57661.44
533.16	58117.84
533.33	58585.95
533.50	58548.50
533.67	57635.69
533.84	57429.72
534.01	57425.04
534.18	57724.63
534.35	58012.52
534.52	57762.08
534.69	58101.46
534.86	58351.90
535.03	58592.97
535.20	59063.42
535.37	59309.18
535.54	59447.27
535.71	59093.85
535.88	58784.90
536.05	58225.51
536.22	57762.08
536.38	57565.48
536.55	57010.77
536.72	56154.13
536.89	56114.34
537.06	57165.24
537.23	58174.02
537.40	58326.15
537.57	58295.72
537.74	58206.78
537.91	58019.54
538.08	57937.62
538.25	58042.95
538.42	58127.20
538.59	58129.54
538.75	57408.66
538.92	57080.98
539.09	57106.73
539.26	56610.54
539.43	56657.35
539.60	56598.83
539.77	56767.35
539.94	56715.86
540.11	55929.44
540.28	55217.92
540.44	55456.65
540.61	55760.92
540.78	56072.21
540.95	56493.51
541.12	56919.49
541.29	57102.05
541.46	57453.13
541.62	57394.62
541.79	57268.23
541.96	56676.07
542.13	56533.30
542.30	56786.08
542.47	57132.48
542.63	56889.06
542.80	56563.73
542.97	56858.63
543.14	56699.48
543.31	56603.52
543.48	57329.08
543.64	57951.66
543.81	58141.25
543.98	58066.35
544.15	57476.54
544.32	56865.66
544.48	56811.82
544.65	57230.78
544.82	57743.36
544.99	57165.24
545.16	57059.92
545.32	56680.75
545.49	57359.51
545.66	57836.98
545.83	57425.04
546.00	57151.20
546.16	56954.60
546.33	56942.89
546.50	57013.11
546.67	57336.10
546.83	57062.26
547.00	56807.14
547.17	56371.80
547.34	55784.33
547.50	55716.45
547.67	56100.30
547.84	56233.71
548.00	56498.19
548.17	57190.99
548.34	56846.93
548.51	56910.13
548.67	57031.83
548.84	56926.51
549.01	56800.12
549.18	56877.36
549.34	56662.03
549.51	56727.56
549.68	56671.39
549.84	56495.85
550.01	56404.57
550.18	56184.56
550.34	56491.17
550.51	56507.55
550.68	56484.15
550.84	56065.19
551.01	56172.86
551.18	56041.79
551.34	56023.06
551.51	56439.68
551.68	56736.93
551.84	57013.11
552.01	56694.80
552.18	56435.00
552.34	55826.46
552.51	55421.55
552.68	55276.43
552.84	55758.58
553.01	55714.11
553.18	55807.73
553.34	56025.40
553.51	56133.07
553.67	56423.29
553.84	56584.79
554.01	56439.68
554.17	56175.20
554.34	56395.21
554.51	56203.28
554.67	56882.04
554.84	56533.30
555.00	56238.39
555.17	55779.65
555.33	56072.21
555.50	56006.68
555.67	56137.75
555.83	55735.18
556.00	55409.84
556.16	55669.64
556.33	55145.36
556.50	54915.99
556.66	54794.28
556.83	54541.50
556.99	54794.28
557.16	54829.39
557.32	55374.73
557.49	55519.85
557.65	55526.87
557.82	55246.00
557.98	55257.71
558.15	54714.70
558.32	53923.60
558.48	52968.66
558.65	53317.40
558.81	53406.34
558.98	53982.12
559.14	54075.74
559.31	54115.53
559.47	54204.47
559.64	54066.38
559.80	53565.50
559.97	53598.27
560.13	53883.81
560.30	54827.05
560.46	55409.84
560.63	55686.03
560.79	55707.09
560.96	55344.31
561.12	54171.70
561.29	53102.07
561.45	53450.81
561.61	53942.33
561.78	54326.17
561.94	54321.49
562.11	53970.41
562.27	53820.62
562.44	54152.97
562.60	54532.14
562.77	54906.63
562.93	54756.83
563.10	54365.96
563.26	53848.71
563.42	54253.62
563.59	53633.38
563.75	53792.53
563.92	53797.21
564.08	53717.64
564.24	54110.85
564.41	54150.63
564.57	54026.59
564.74	53738.70
564.90	53794.87
565.07	53701.25
565.23	52978.03
565.39	52811.85
565.56	52154.16
565.72	51859.25
565.88	52278.21
566.05	52619.92
566.21	52807.17
566.38	52982.71
566.54	52849.30
566.70	53408.68
566.87	53855.73
567.03	53881.47
567.19	53867.43
567.36	53680.19
567.52	53432.09
567.68	53006.11
567.85	52477.15
568.01	52055.85
568.17	52053.51
568.34	51959.89
568.50	51636.90
568.66	51765.63
568.83	52336.72
568.99	52388.21
569.15	52486.51
569.32	52500.56
569.48	52128.41
569.64	51847.55
569.81	51676.69
569.97	51697.75
570.13	51519.87
570.30	50937.08
570.46	50527.48
570.62	50075.76
570.78	49904.90
570.95	50232.58
571.11	50960.48
571.27	51285.82
571.43	51625.20
571.60	51765.63
571.76	51765.63
571.92	52252.46
572.09	52360.12
572.25	52196.29
572.41	52348.42
572.57	52030.11
572.74	52053.51
572.90	51341.99
573.06	51753.93
573.22	51543.28
573.38	51725.84
573.55	51779.67
573.71	51604.13
573.87	51807.76
574.03	51442.63
574.20	51442.63
574.36	51295.18
574.52	51136.02
574.68	50611.74
574.84	50480.67
575.01	49762.13
575.17	49799.58
575.33	50225.56
575.49	50129.59
575.65	50660.90
575.82	50089.80
575.98	50300.45
576.14	49989.16
576.30	50934.74
576.46	50768.56
576.62	50597.70
576.79	50883.25
576.95	49968.10
577.11	50600.04
577.27	50225.56
577.43	50607.06
577.59	49710.64
577.75	49734.04
577.92	49074.01
578.08	48273.55
578.24	48498.24
578.40	48683.14
578.56	49366.58
578.72	49469.56
578.88	49649.78
579.04	49874.48
579.21	49787.88
579.37	50195.13
579.53	49874.48
579.69	49448.50
579.85	50136.62
580.01	49755.11
580.17	49305.73
580.33	48975.71
580.49	49406.37
580.65	49460.20
580.82	50078.10
580.98	49839.37
581.14	49848.73
581.30	49794.90
581.46	49401.69
581.62	50038.31
581.78	49422.75
581.94	49897.88
582.10	49932.99
582.26	50145.98
582.42	49888.52
582.58	50021.93
582.74	49881.50
582.90	49717.66
583.06	49799.58
583.22	49682.55
583.38	49633.40
583.54	49350.20
583.70	49329.13
583.86	49734.04
584.02	49514.03
584.18	49113.80
584.34	49471.90
584.50	48858.68
584.66	49397.01
584.82	48608.25
584.98	48718.25
585.14	48121.41
585.30	47573.73
