SpectraSuite Data File
++++++++++++++++++++++++++++++++++++
Date: Mon Oct 07 14:53:02 GMT-05:00 2013
User: price-jones
Dark Spectrum Present: No
Reference Spectrum Present: No
Number of Sampled Component Spectra: 1
Spectrometers: USB2+H05261
Integration Time (usec): 100000 (USB2+H05261)
Spectra Averaged: 1 (USB2+H05261)
Boxcar Smoothing: 0 (USB2+H05261)
Correct for Electrical Dark: No (USB2+H05261)
Strobe/Lamp Enabled: No (USB2+H05261)
Correct for Detector Non-linearity: No (USB2+H05261)
Correct for Stray Light: No (USB2+H05261)
Number of Pixels in Processed Spectrum: 2048
>>>>>Begin Processed Spectral Data<<<<<
365.73	0.00
365.92	0.00
366.12	0.00
366.32	0.00
366.52	0.00
366.72	0.00
366.91	0.00
367.11	0.00
367.31	0.00
367.51	0.00
367.70	0.00
367.90	0.00
368.10	0.00
368.30	0.00
368.49	0.00
368.69	0.00
368.89	0.00
369.09	0.00
369.28	0.00
369.48	0.00
369.68	0.00
369.87	0.00
370.07	0.00
370.27	0.00
370.47	482.15
370.66	2672.89
370.86	3183.13
371.06	3723.79
371.25	3599.74
371.45	3159.72
371.65	2892.90
371.84	2672.89
372.04	2787.58
372.24	3157.38
372.44	3344.63
372.63	3300.16
372.83	3145.68
373.03	2633.10
373.22	2473.95
373.42	2729.06
373.62	3035.67
373.81	3075.46
374.01	3145.68
374.21	2965.46
374.40	2740.77
374.60	2930.35
374.79	3162.06
374.99	3669.96
375.19	3908.69
375.38	4056.15
375.58	3768.26
375.78	3758.90
375.97	3758.90
376.17	3946.14
376.37	3885.29
376.56	3880.61
376.76	4229.35
376.95	4610.86
377.15	4840.23
377.35	5151.52
377.54	5446.43
377.74	5416.00
377.93	5411.32
378.13	5179.61
378.33	4973.64
378.52	4461.06
378.72	4435.32
378.91	4301.90
379.11	4184.88
379.31	4088.92
379.50	4067.85
379.70	4470.42
379.89	4788.74
380.09	5212.37
380.28	5259.18
380.48	5210.03
380.68	5284.93
380.87	5104.71
381.07	4690.43
381.26	4353.40
381.46	3981.25
381.65	3927.42
381.85	3747.20
382.04	3557.61
382.24	3421.86
382.43	3173.77
382.63	3063.76
382.83	3185.47
383.02	3026.31
383.22	3103.55
383.41	3183.13
383.61	3435.91
383.80	3995.29
384.00	4383.82
384.19	4908.10
384.39	5324.72
384.58	5188.97
384.78	5025.13
384.97	5156.20
385.17	4657.67
385.36	4477.44
385.56	4482.13
385.75	4622.56
385.95	4851.93
386.14	5479.19
386.34	5387.91
386.53	5210.03
386.72	4842.57
386.92	4821.50
387.11	5322.38
387.31	5455.79
387.50	5231.10
387.70	5214.71
387.89	4973.64
388.09	5083.64
388.28	5139.82
388.48	5240.46
388.67	5465.15
388.86	6087.73
389.06	6588.61
389.25	6892.88
389.45	6825.00
389.64	6932.67
389.84	6883.52
390.03	6853.09
390.22	6707.98
390.42	6803.94
390.61	7447.58
390.81	8079.53
391.00	8236.35
391.19	7967.18
391.39	7847.82
391.58	7208.85
391.78	6806.28
391.97	6780.53
392.16	6415.41
392.36	5596.22
392.55	4627.24
392.75	3538.89
392.94	2904.60
393.13	2899.92
393.33	3496.76
393.52	4564.04
393.71	5434.72
393.91	6033.90
394.10	6640.10
394.29	7316.51
394.49	7829.09
394.68	8299.54
394.88	8348.69
395.07	8760.63
395.26	8688.07
395.46	8437.63
395.65	7925.05
395.84	6771.17
396.04	5951.98
396.23	4767.67
396.42	3971.89
396.62	3721.45
396.81	4477.44
397.00	5661.76
397.19	7258.00
397.39	8531.25
397.58	9715.56
397.77	10256.23
397.97	10539.43
398.16	10707.95
398.35	10967.75
398.55	11192.44
398.74	11981.20
398.93	12243.34
399.12	11950.78
399.32	11398.41
399.51	11651.19
399.70	12416.54
399.90	12395.48
400.09	12327.60
400.28	12517.18
400.47	12100.57
400.67	13144.45
400.86	13462.76
401.05	13504.89
401.24	13596.17
401.44	13757.67
401.63	13680.43
401.82	13598.51
402.01	13673.41
402.21	13703.84
402.40	14036.19
402.59	13406.59
402.78	13046.15
402.97	12468.03
403.17	13158.49
403.36	13453.40
403.55	14136.84
403.74	14452.81
403.93	13750.65
404.13	12737.20
404.32	12659.96
404.51	13039.12
404.70	14235.14
404.89	14354.51
405.09	13951.93
405.28	13626.60
405.47	13397.23
405.66	13603.19
405.85	13132.75
406.05	12685.70
406.24	12936.14
406.43	13572.77
406.62	13930.87
406.81	14438.76
407.00	13731.92
407.20	13401.91
407.39	13418.29
407.58	14162.58
407.77	14466.85
407.96	15297.74
408.15	15042.62
408.34	15185.40
408.54	16042.03
408.73	16198.85
408.92	16170.76
409.11	15793.94
409.30	14827.29
409.49	13736.60
409.68	13078.91
409.87	12505.48
410.07	13324.67
410.26	14338.12
410.45	15435.83
410.64	15440.51
410.83	16161.40
411.02	16531.20
411.21	17336.35
411.40	16929.09
411.59	16521.84
411.78	16814.41
411.98	16549.93
412.17	17076.55
412.36	16606.10
412.55	16690.36
412.74	16332.26
412.93	15716.70
413.12	16320.56
413.31	17458.06
413.50	17439.33
413.69	18153.20
413.88	17275.49
414.07	16610.78
414.26	17125.70
414.45	17869.99
414.64	17666.36
414.83	17977.65
415.02	17589.13
415.22	17212.30
415.41	17893.40
415.60	18532.36
415.79	19332.82
415.98	19435.81
416.17	19826.68
416.36	19393.68
416.55	18881.10
416.74	18366.18
416.93	17680.41
417.12	17444.01
417.31	17860.63
417.50	18317.03
417.69	18616.62
417.88	18904.51
418.07	18478.53
418.26	18544.06
418.45	18532.36
418.64	19117.50
418.83	19604.33
419.02	19513.05
419.21	19335.17
419.39	18520.66
419.58	17668.70
419.77	18164.90
419.96	18579.17
420.15	19763.48
420.34	20350.96
420.53	20755.87
420.72	21095.25
420.91	20872.90
421.10	20898.64
421.29	20655.23
421.48	19946.05
421.67	20879.92
421.86	20182.44
422.05	18960.68
422.24	16741.85
422.43	16884.62
422.61	18986.43
422.80	20135.63
422.99	20357.98
423.18	19136.22
423.37	18874.08
423.56	19236.86
423.75	19367.93
423.94	19838.38
424.13	18712.58
424.32	18721.95
424.50	18764.07
424.69	18883.44
424.88	18820.25
425.07	18831.95
425.26	18712.58
425.45	18455.12
425.64	18059.57
425.83	18068.94
426.01	19370.27
426.20	19861.79
426.39	19683.91
426.58	18005.74
426.77	16971.22
426.96	16559.29
427.15	16531.20
427.33	18185.96
427.52	18960.68
427.71	18998.13
427.90	18831.95
428.09	18665.77
428.28	18572.15
428.46	17539.97
428.65	17399.54
428.84	18029.15
429.03	18029.15
429.22	17074.21
429.40	15932.03
429.59	14651.75
429.78	13004.02
429.97	13074.23
430.16	13076.57
430.34	13224.03
430.53	13261.48
430.72	13708.52
430.91	15084.75
431.10	17902.76
431.28	20950.14
431.47	22710.22
431.66	22834.27
431.85	20477.35
432.03	18991.11
432.22	18190.64
432.41	19220.48
432.60	21020.35
432.79	22003.38
432.97	22284.24
433.16	21509.52
433.35	19948.39
433.54	17687.43
433.72	16819.09
433.91	17694.45
434.10	19339.85
434.28	20702.04
434.47	21834.86
434.66	21741.24
434.85	20999.29
435.03	21048.44
435.22	21577.40
435.41	22883.42
435.59	22895.12
435.78	23204.07
435.97	23800.91
436.16	23644.09
436.34	22888.10
436.53	22946.61
436.72	23098.75
436.90	21535.27
437.09	21874.65
437.28	21495.48
437.46	22520.63
437.65	22300.62
437.84	20285.42
438.02	18349.80
438.21	18649.39
438.40	19894.55
438.58	21451.01
438.77	22485.53
438.96	22214.02
439.14	23346.84
439.33	23765.80
439.52	24266.67
439.70	23941.34
439.89	22714.90
440.08	22588.51
440.26	22370.84
440.45	23138.54
440.63	24755.85
440.82	26017.40
441.01	25551.63
441.19	25429.92
441.38	25748.23
441.57	26817.86
441.75	26937.23
441.94	27356.18
442.12	26806.16
442.31	27679.18
442.50	27613.64
442.68	27192.34
442.87	26693.81
443.05	26639.98
443.24	27339.80
443.43	27763.43
443.61	28142.60
443.80	28421.13
443.98	26717.22
444.17	26604.87
444.35	28166.01
444.54	29134.99
444.73	28481.98
444.91	26892.76
445.10	25720.15
445.28	25153.74
445.47	24414.13
445.65	25081.18
445.84	25453.33
446.02	26546.36
446.21	26871.69
446.39	26719.56
446.58	27433.42
446.77	27922.59
446.95	28051.32
447.14	28692.63
447.32	29509.47
447.51	28367.29
447.69	27337.46
447.88	27197.02
448.06	27817.27
448.25	28032.60
448.43	28655.18
448.62	28013.87
448.80	28020.89
448.99	27962.38
449.17	28070.04
449.36	28212.82
449.54	29453.30
449.73	29621.82
449.91	30057.16
450.10	30703.15
450.28	31307.01
450.46	30845.92
450.65	31215.72
450.83	30967.63
451.02	30209.29
451.20	30150.78
451.39	30022.05
451.57	29635.86
451.76	29832.47
451.94	29617.14
452.13	29064.77
452.31	27576.19
452.49	26661.04
452.68	26864.67
452.86	27037.87
453.05	26867.01
453.23	27791.52
453.42	28774.55
453.60	29567.99
453.78	29504.79
453.97	29156.05
454.15	29233.29
454.34	28685.61
454.52	29111.58
454.70	28315.80
454.89	28716.03
455.07	28732.42
455.26	29453.30
455.44	30562.72
455.62	30808.47
455.81	31096.36
455.99	30579.10
456.17	30586.12
456.36	30237.38
456.54	31349.14
456.73	31358.50
456.91	31807.88
457.09	31828.95
457.28	32535.79
457.46	31187.64
457.64	30705.49
457.83	30122.69
458.01	29294.14
458.19	30326.32
458.38	30661.02
458.56	31391.26
458.74	31377.22
458.93	30366.11
459.11	30850.60
459.29	30408.24
459.48	30424.62
459.66	30602.50
459.84	30981.67
460.03	31426.37
460.21	31330.41
460.39	31964.70
460.57	31995.12
460.76	32411.74
460.94	32575.58
461.12	32093.43
461.31	32247.90
461.49	32409.40
461.67	31791.50
461.85	33207.52
462.04	32910.27
462.22	33502.43
462.40	33022.62
462.59	32919.63
462.77	32776.86
462.95	32718.35
463.13	32723.03
463.32	32367.27
463.50	32278.33
463.68	32018.53
463.86	32247.90
464.05	31723.62
464.23	30431.65
464.41	30838.90
464.59	29872.26
464.78	31667.45
464.96	31725.96
465.14	31379.56
465.32	32311.10
465.50	32671.54
465.69	33528.17
465.87	32467.91
466.05	31704.90
466.23	30375.47
466.41	29570.33
466.60	30749.96
466.78	30691.44
466.96	31096.36
467.14	31826.60
467.32	32079.38
467.51	31866.39
467.69	30529.95
467.87	31587.87
468.05	31651.06
468.23	31999.80
468.41	31952.99
468.60	31934.27
468.78	32240.88
468.96	31573.83
469.14	32505.36
469.32	32343.86
469.50	31229.77
469.69	31672.13
469.87	31063.59
470.05	31115.08
470.23	30862.30
470.41	31021.46
470.59	31960.02
470.77	31938.95
470.95	31981.08
471.14	32952.40
471.32	32528.77
471.50	34167.14
471.68	34335.66
471.86	34904.41
472.04	34490.13
472.22	34946.54
472.40	33003.89
472.58	33064.75
472.77	32701.96
472.95	33427.53
473.13	34284.17
473.31	33586.69
473.49	33738.82
473.67	34246.72
473.85	34192.89
474.03	35660.40
474.21	35288.26
474.39	35920.20
474.57	35976.37
474.75	35906.16
474.93	35398.26
475.12	34831.85
475.30	34920.79
475.48	34911.43
475.66	35461.46
475.84	34866.96
476.02	34660.99
476.20	34445.66
476.38	34562.69
476.56	36114.47
476.74	36364.90
476.92	36823.65
477.10	37240.26
477.28	38361.38
477.46	37951.79
477.64	38642.24
477.82	39047.16
478.00	39311.64
478.18	38178.82
478.36	38120.31
478.54	38506.49
478.72	38918.43
478.90	39632.29
479.08	40734.68
479.26	41090.44
479.44	40783.83
479.62	40360.20
479.80	40435.10
479.98	40655.11
480.16	41078.74
480.34	40341.47
480.52	41160.66
480.70	41120.87
480.88	41720.05
481.06	42447.96
481.24	42569.66
481.41	43477.79
481.59	44098.03
481.77	43674.40
481.95	42913.72
482.13	42948.83
482.31	43232.04
482.49	44002.07
482.67	43335.02
482.85	43943.56
483.03	44446.77
483.21	44783.81
483.39	44348.47
483.57	43955.26
483.74	43583.12
483.92	43957.60
484.10	44451.45
484.28	45170.00
484.46	45603.00
484.64	45986.85
484.82	44964.03
485.00	44629.34
485.18	43533.96
485.35	42653.92
485.53	39159.50
485.71	35807.86
485.89	35655.72
486.07	37343.25
486.25	40797.88
486.43	42962.87
486.61	43700.14
486.78	43416.94
486.96	43737.59
487.14	45333.84
487.32	46036.00
487.50	47545.64
487.68	48053.54
487.85	48601.22
488.03	48720.59
488.21	47966.94
488.39	47332.65
488.57	46876.25
488.75	46562.62
488.92	47838.21
489.10	50319.18
489.28	51358.38
489.46	52238.42
489.64	51774.99
489.81	52271.18
489.99	52037.13
490.17	51606.47
490.35	52179.90
490.53	51812.44
490.70	51437.95
490.88	51236.67
491.06	52397.57
491.24	52259.48
491.41	50981.55
491.59	49270.62
491.77	48528.67
491.95	50061.72
492.13	51260.07
492.30	52252.46
492.48	53303.36
492.66	53916.58
492.84	53523.37
493.01	53593.59
493.19	52987.39
493.37	52474.81
493.54	52306.29
493.72	53153.57
493.90	54265.32
494.08	54962.80
494.25	55175.79
494.43	55229.62
494.61	55697.73
494.79	55838.16
494.96	55423.89
495.14	54913.65
495.32	54014.88
495.49	53427.41
495.67	54747.47
495.85	55849.86
496.02	56142.43
496.20	55931.78
496.38	55522.19
496.55	55498.78
496.73	55835.82
496.91	56123.71
497.09	56367.12
497.26	56772.03
497.44	56184.56
497.62	55604.11
497.79	54953.44
497.97	53694.23
498.14	54143.61
498.32	55023.65
498.50	56048.81
498.67	56507.55
498.85	56336.69
499.03	56584.79
499.20	56807.14
499.38	56935.87
499.56	56521.60
499.73	56114.34
499.91	55838.16
500.08	55566.66
500.26	54742.79
500.44	55021.31
500.61	55842.84
500.79	55533.89
500.97	55213.24
501.14	55257.71
501.32	54969.82
501.49	55002.59
501.67	55224.94
501.84	55660.28
502.02	55828.80
502.20	56392.87
502.37	56535.64
502.55	56313.29
502.72	56947.57
502.90	57336.10
503.07	57010.77
503.25	56655.01
503.43	55781.99
503.60	55215.58
503.78	54482.99
503.95	55068.12
504.13	56629.26
504.30	57251.84
504.48	57013.11
504.65	56612.88
504.83	56961.62
505.01	57464.83
505.18	57710.59
505.36	58230.19
505.53	58401.05
505.71	58504.03
505.88	58735.74
506.06	57916.56
506.23	57574.84
506.41	57329.08
506.58	57605.26
506.76	57429.72
506.93	57551.43
507.11	57240.14
507.28	57570.16
507.46	56807.14
507.63	56385.85
507.81	56210.31
507.98	56427.98
508.16	57268.23
508.33	57574.84
508.50	57982.09
508.68	58202.10
508.85	58583.61
509.03	58548.50
509.20	58562.54
509.38	57888.47
509.55	57162.90
509.73	57183.97
509.90	57691.86
510.08	58096.78
510.25	57954.00
510.42	57778.46
510.60	57724.63
510.77	58213.80
510.95	58632.76
511.12	58452.54
511.30	58953.41
511.47	59091.51
511.64	59128.95
511.82	58632.76
511.99	57942.30
512.17	57481.22
512.34	57319.72
512.51	57312.70
512.69	57677.82
512.86	57741.02
513.04	58134.23
513.21	58017.20
513.38	57616.97
513.56	57139.50
513.73	56502.87
513.90	56858.63
514.08	56942.89
514.25	57235.46
514.43	57401.64
514.60	57645.05
514.77	57605.26
514.95	57846.34
515.12	57652.08
515.29	57797.19
515.47	58417.43
515.64	58644.46
515.81	58211.46
515.99	57551.43
516.16	56385.85
516.33	53577.20
516.51	52722.91
516.68	51428.59
516.85	51124.32
517.03	51906.06
517.20	54403.41
517.37	57085.67
517.54	57958.69
517.72	57109.07
517.89	54827.05
518.06	52404.59
518.24	52956.96
518.41	55093.87
518.58	56425.64
518.75	56528.62
518.93	56835.23
519.10	56601.18
519.27	57120.77
519.45	57359.51
519.62	58199.76
519.79	58419.77
519.96	58216.14
520.14	57776.12
520.31	56718.20
520.48	57041.20
520.65	57556.11
520.83	58178.70
521.00	58679.57
521.17	58108.48
521.34	57944.64
521.52	58375.30
521.69	58951.07
521.86	59236.62
522.03	58911.28
522.20	57366.53
522.38	56715.86
522.55	56793.10
522.72	57303.34
522.89	57317.38
523.07	57694.21
523.24	58052.31
523.41	58822.34
523.58	59152.36
523.75	59550.25
523.92	59192.15
524.10	59360.67
524.27	59161.72
524.44	58927.67
524.61	58899.58
524.78	58763.83
524.96	58614.04
525.13	58646.80
525.30	58845.75
525.47	59508.12
525.64	59250.66
525.81	58398.71
525.98	57015.45
526.16	55735.18
526.33	55182.81
526.50	54674.91
526.67	54447.88
526.84	55098.55
527.01	55938.80
527.18	57113.75
527.36	57724.63
527.53	58578.93
527.70	58614.04
527.87	58244.23
528.04	57862.72
528.21	58394.03
528.38	58915.96
528.55	59529.19
528.72	59725.79
528.89	60060.49
529.07	59421.52
529.24	59056.40
529.41	58286.36
529.58	57733.99
529.75	57872.09
529.92	58567.23
530.09	58960.44
530.26	59334.92
530.43	59550.25
530.60	59643.87
530.77	59564.29
530.94	59728.13
531.11	59337.26
531.28	59164.06
531.46	58946.39
531.63	58913.62
531.80	58920.65
531.97	58478.28
532.14	57771.44
532.31	56582.45
532.48	55945.83
532.65	56317.97
532.82	57092.69
532.99	58288.70
533.16	58429.13
533.33	59047.04
533.50	58843.41
533.67	58209.12
533.84	57829.96
534.01	58220.83
534.18	58089.76
534.35	58394.03
534.52	58145.93
534.69	58473.60
534.86	58852.77
535.03	59189.81
535.20	59515.14
535.37	59920.05
535.54	60013.68
535.71	59557.27
535.88	59236.62
536.05	58642.12
536.22	58216.14
536.38	57799.53
536.55	57364.19
536.72	56917.15
536.89	56853.95
537.06	57808.89
537.23	58607.01
537.40	58976.82
537.57	58796.60
537.74	58728.72
537.91	58543.82
538.08	58433.81
538.25	58557.86
538.42	58555.52
538.59	58370.62
538.75	57654.42
538.92	58007.84
539.09	57619.31
539.26	57350.15
539.43	57289.29
539.60	57345.47
539.77	57542.07
539.94	57539.73
540.11	56341.38
540.28	56172.86
540.44	56310.95
540.61	56306.27
540.78	56825.87
540.95	57104.39
541.12	57574.84
541.29	57717.61
541.46	58038.26
541.62	57928.26
541.79	57928.26
541.96	57380.57
542.13	57270.57
542.30	57724.63
542.47	57963.37
542.63	57574.84
542.80	57343.12
542.97	57312.70
543.14	57308.02
543.31	57354.83
543.48	58010.18
543.64	58773.19
543.81	58908.94
543.98	58782.55
544.15	57989.11
544.32	57565.48
544.48	57738.68
544.65	58042.95
544.82	58335.51
544.99	58075.71
545.16	57546.75
545.32	57654.42
545.49	58447.86
545.66	58478.28
545.83	58056.99
546.00	57888.47
546.16	57633.35
546.33	57621.65
546.50	57731.65
546.67	58321.47
546.83	57764.42
547.00	57808.89
547.17	57041.20
547.34	56664.37
547.50	56336.69
547.67	56978.00
547.84	57078.64
548.00	57329.08
548.17	58073.37
548.34	57303.34
548.51	57705.91
548.67	57619.31
548.84	57923.58
549.01	57689.52
549.18	57633.35
549.34	57614.63
549.51	57738.68
549.68	57492.92
549.84	57073.96
550.01	57146.52
550.18	56966.30
550.34	57200.35
550.51	57162.90
550.68	57441.43
550.84	56821.19
551.01	56975.66
551.18	57066.94
551.34	57097.37
551.51	57413.34
551.68	57605.26
551.84	57968.05
552.01	57490.58
552.18	57382.91
552.34	56514.58
552.51	56268.82
552.68	55971.57
552.84	56676.07
553.01	56947.57
553.18	56697.14
553.34	56975.66
553.51	57261.21
553.67	57293.97
553.84	57392.28
554.01	57249.50
554.17	57013.11
554.34	57272.91
554.51	57439.09
554.67	57879.11
554.84	57502.28
555.00	57167.58
555.17	56903.10
555.33	56973.32
555.50	56999.07
555.67	56973.32
555.83	56589.47
556.00	56502.87
556.16	56502.87
556.33	56020.72
556.50	56072.21
556.66	56060.51
556.83	55573.68
556.99	56051.15
557.16	56308.61
557.32	56390.53
557.49	56481.81
557.65	56460.74
557.82	56442.02
557.98	56196.26
558.15	55849.86
558.32	55054.08
558.48	54087.44
558.65	54588.31
558.81	54878.54
558.98	55117.28
559.14	55246.00
559.31	55241.32
559.47	55393.46
559.64	55136.00
559.80	54761.51
559.97	54782.58
560.13	55143.02
560.30	56039.45
560.46	56381.16
560.63	56846.93
560.79	56928.85
560.96	56402.23
561.12	55405.16
561.29	54295.75
561.45	54674.91
561.61	55253.03
561.78	55657.94
561.94	55351.33
562.11	55208.56
562.27	55257.71
562.44	55718.79
562.60	55711.77
562.77	55899.01
562.93	55604.11
563.10	55721.13
563.26	54908.97
563.42	55454.31
563.59	54986.21
563.75	55091.53
563.92	55070.46
564.08	55117.28
564.24	55325.58
564.41	55533.89
564.57	55157.06
564.74	54941.74
564.90	55159.41
565.07	54754.49
565.23	54356.60
565.39	54000.84
565.56	53647.42
565.72	53499.97
565.88	53759.76
566.05	54017.22
566.21	54202.13
566.38	54293.41
566.54	54511.08
566.70	54801.30
566.87	55047.06
567.03	55210.90
567.19	55260.05
567.36	54944.08
567.52	54862.16
567.68	54618.74
567.85	53731.68
568.01	53680.19
568.17	53333.79
568.34	53308.04
568.50	53172.29
568.66	53411.02
568.83	53778.49
568.99	53682.53
569.15	53928.28
569.32	54190.42
569.48	53670.82
569.64	53567.84
569.81	52949.94
569.97	53249.53
570.13	52978.03
570.30	52584.82
570.46	51952.87
570.62	51569.02
570.78	51246.03
570.95	51793.71
571.11	52748.65
571.27	52535.66
571.43	52917.17
571.60	53319.74
571.76	53481.24
571.92	53862.75
572.09	53886.15
572.25	53897.86
572.41	53858.07
572.57	53724.66
572.74	53588.91
572.90	53226.12
573.06	52982.71
573.22	53523.37
573.38	53509.33
573.55	53188.67
573.71	53624.01
573.87	53340.81
574.03	53324.43
574.20	53249.53
574.36	52839.93
574.52	52741.63
574.68	52498.22
574.84	51765.63
575.01	51934.15
575.17	51622.86
575.33	51924.78
575.49	52294.59
575.65	52254.80
575.82	52060.54
575.98	51751.59
576.14	52116.71
576.30	52257.14
576.46	52491.19
576.62	52491.19
576.79	52467.79
576.95	51922.44
577.11	52189.27
577.27	52130.75
577.43	52062.88
577.59	51920.10
577.75	51014.32
577.92	50508.76
578.08	50485.36
578.24	50403.44
578.40	50845.80
578.56	51021.34
578.72	51210.92
578.88	51292.84
579.04	51613.49
579.21	51496.47
579.37	51372.42
579.53	51695.41
579.69	51604.13
579.85	51913.08
580.01	51618.17
580.17	51147.73
580.33	51058.79
580.49	51243.69
580.65	51557.32
580.82	51737.54
580.98	51615.83
581.14	51540.94
581.30	51779.67
581.46	51569.02
581.62	51770.31
581.78	51531.57
581.94	51728.18
582.10	52144.80
582.26	51807.76
582.42	51922.44
582.58	52215.01
582.74	51683.71
582.90	52023.09
583.06	51999.68
583.22	51695.41
583.38	51421.57
583.54	51522.21
583.70	51461.36
583.86	51854.57
584.02	51236.67
584.18	51440.29
584.34	51405.19
584.50	51377.10
584.66	51276.46
584.82	50983.89
584.98	50918.35
585.14	50199.81
585.30	49666.17
