SpectraSuite Data File
++++++++++++++++++++++++++++++++++++
Date: Mon Oct 07 14:54:56 GMT-05:00 2013
User: price-jones
Dark Spectrum Present: No
Reference Spectrum Present: No
Number of Sampled Component Spectra: 1
Spectrometers: USB2+H05261
Integration Time (usec): 10000 (USB2+H05261)
Spectra Averaged: 1 (USB2+H05261)
Boxcar Smoothing: 0 (USB2+H05261)
Correct for Electrical Dark: No (USB2+H05261)
Strobe/Lamp Enabled: No (USB2+H05261)
Correct for Detector Non-linearity: No (USB2+H05261)
Correct for Stray Light: No (USB2+H05261)
Number of Pixels in Processed Spectrum: 2048
>>>>>Begin Processed Spectral Data<<<<<
365.73	0.00
365.92	0.00
366.12	0.00
366.32	0.00
366.52	0.00
366.72	0.00
366.91	0.00
367.11	0.00
367.31	0.00
367.51	0.00
367.70	0.00
367.90	0.00
368.10	0.00
368.30	0.00
368.49	0.00
368.69	0.00
368.89	0.00
369.09	0.00
369.28	0.00
369.48	0.00
369.68	0.00
369.87	0.00
370.07	0.00
370.27	0.00
370.47	79.58
370.66	1090.69
370.86	1233.46
371.06	1383.26
371.25	1263.89
371.45	1132.82
371.65	1036.86
371.84	1114.10
372.04	1043.88
372.24	1282.61
372.44	1273.25
372.63	1252.19
372.83	1076.65
373.03	915.15
373.22	931.53
373.42	1029.84
373.62	1174.95
373.81	1299.00
374.01	1078.99
374.21	1076.65
374.40	1060.26
374.60	1095.37
374.79	1317.72
374.99	1652.42
375.19	1621.99
375.38	1582.20
375.58	1359.85
375.78	1509.65
375.97	1509.65
376.17	1596.25
376.37	1504.96
376.56	1558.80
376.76	1757.74
376.95	1797.53
377.15	1935.62
377.35	1926.26
377.54	2136.91
377.74	2139.25
377.93	2120.53
378.13	2015.20
378.33	1954.35
378.52	1842.00
378.72	1657.10
378.91	1603.27
379.11	1640.72
379.31	1530.71
379.50	1495.60
379.70	1629.01
379.89	1923.92
380.09	2033.93
380.28	2073.71
380.48	2136.91
380.68	2012.86
380.87	1940.30
381.07	1750.72
381.26	1636.03
381.46	1547.09
381.65	1526.03
381.85	1334.11
382.04	1343.47
382.24	1284.95
382.43	1308.36
382.63	1123.46
382.83	1142.18
383.02	1163.25
383.22	1121.12
383.41	1144.52
383.61	1203.04
383.80	1584.54
384.00	1785.83
384.19	1902.86
384.39	2052.65
384.58	2008.18
384.78	1970.73
384.97	1952.01
385.17	1771.79
385.36	1699.23
385.56	1640.72
385.75	1809.23
385.95	1987.11
386.14	2024.56
386.34	2005.84
386.53	1942.64
386.72	1877.11
386.92	1818.60
387.11	2029.24
387.31	2045.63
387.50	2022.22
387.70	1912.22
387.89	1909.88
388.09	1886.47
388.28	1851.36
388.48	1973.07
388.67	2193.08
388.86	2429.48
389.06	2602.68
389.25	2778.22
389.45	2822.69
389.64	2764.17
389.84	2590.97
390.03	2616.72
390.22	2663.53
390.42	2843.75
390.61	3009.93
390.81	3183.13
391.00	3138.66
391.19	3056.74
391.39	2867.16
391.58	2682.25
391.78	2565.23
391.97	2504.37
392.16	2232.87
392.36	1802.21
392.55	1490.92
392.75	1181.97
392.94	1039.20
393.13	1062.60
393.33	1301.34
393.52	1760.08
393.71	2019.88
393.91	2392.03
394.10	2605.02
394.29	2874.18
394.49	2974.82
394.68	3288.45
394.88	3304.84
395.07	3342.28
395.26	3283.77
395.46	3222.92
395.65	2972.48
395.84	2438.84
396.04	2136.91
396.23	1664.12
396.42	1352.83
396.62	1364.53
396.81	1816.26
397.00	2368.62
397.19	2892.90
397.39	3382.07
397.58	3742.52
397.77	4018.70
397.97	3997.64
398.16	4009.34
398.35	4290.20
398.55	4329.99
398.74	4585.11
398.93	4524.26
399.12	4461.06
399.32	4278.50
399.51	4624.90
399.70	4826.18
399.90	4500.85
400.09	4650.64
400.28	4697.46
400.47	4704.48
400.67	4812.14
400.86	4901.08
401.05	5036.83
401.24	5018.11
401.44	5177.26
401.63	5100.03
401.82	5055.56
402.01	5177.26
402.21	5203.01
402.40	5235.78
402.59	4912.78
402.78	4660.01
402.97	4606.17
403.17	5034.49
403.36	5217.05
403.55	5343.44
403.74	5350.46
403.93	4999.38
404.13	4861.29
404.32	4765.33
404.51	4912.78
404.70	5088.32
404.89	5109.39
405.09	4929.17
405.28	4961.94
405.47	5055.56
405.66	4873.00
405.85	4844.91
406.05	4800.44
406.24	4812.14
406.43	4905.76
406.62	5142.16
406.81	5226.42
407.00	5048.54
407.20	4870.65
407.39	5076.62
407.58	5181.95
407.77	5334.08
407.96	5511.96
408.15	5785.80
408.34	5570.48
408.54	5893.47
408.73	5790.49
408.92	5537.71
409.11	5638.35
409.30	5397.28
409.49	5128.11
409.68	4521.92
409.87	4435.32
410.07	4772.35
410.26	5331.74
410.45	5533.03
410.64	5736.65
410.83	5769.42
411.02	6061.99
411.21	6118.16
411.40	5940.28
411.59	5942.62
411.78	5912.19
411.98	6092.41
412.17	6148.59
412.36	6097.10
412.55	6141.57
412.74	5970.71
412.93	5799.85
413.12	5701.54
413.31	6284.34
413.50	6485.62
413.69	6494.99
413.88	5949.64
414.07	5984.75
414.26	6342.85
414.45	6431.79
414.64	6267.95
414.83	6267.95
415.02	6078.37
415.22	6223.48
415.41	6679.89
415.60	6619.04
415.79	6860.11
415.98	6895.22
416.17	6860.11
416.36	6815.64
416.55	6647.12
416.74	6216.46
416.93	6286.68
417.12	6359.24
417.31	6298.38
417.50	6527.75
417.69	6546.48
417.88	6434.13
418.07	6382.64
418.26	6202.42
418.45	6485.62
418.64	6780.53
418.83	6958.41
419.02	6810.96
419.21	6691.59
419.39	6427.11
419.58	6188.38
419.77	6422.43
419.96	6775.85
420.15	6832.02
420.34	6991.18
420.53	7094.16
420.72	7279.07
420.91	7262.68
421.10	6960.75
421.29	6988.84
421.48	6729.04
421.67	6977.14
421.86	6773.51
422.05	6263.27
422.24	5947.30
422.43	5970.71
422.61	6607.33
422.80	6586.27
422.99	6609.67
423.18	6595.63
423.37	6487.96
423.56	6527.75
423.75	6745.42
423.94	6820.32
424.13	6244.55
424.32	6298.38
424.50	6420.09
424.69	6417.75
424.88	6366.26
425.07	6464.56
425.26	6459.88
425.45	6078.37
425.64	6136.88
425.83	6197.74
426.01	6459.88
426.20	6569.88
426.39	6562.86
426.58	6129.86
426.77	5561.11
426.96	5621.97
427.15	5930.92
427.33	6083.05
427.52	6232.85
427.71	6445.84
427.90	6064.33
428.09	6017.52
428.28	5942.62
428.46	5774.10
428.65	5589.20
428.84	5853.68
429.03	5930.92
429.22	5542.39
429.40	5123.43
429.59	4657.67
429.78	4353.40
429.97	4227.01
430.16	4163.81
430.34	4102.96
430.53	4367.44
430.72	4512.55
430.91	5254.50
431.10	6176.67
431.28	6848.41
431.47	7288.43
431.66	7211.19
431.85	6483.28
432.03	6099.44
432.22	5980.07
432.41	6356.90
432.60	6977.14
432.79	7009.90
432.97	7382.05
433.16	6850.75
433.35	6293.70
433.54	5724.95
433.72	5364.51
433.91	5734.31
434.10	6342.85
434.28	6750.10
434.47	7152.68
434.66	6832.02
434.85	6902.24
435.03	7002.88
435.22	6932.67
435.41	7152.68
435.59	7419.50
435.78	7159.70
435.97	7639.51
436.16	7688.66
436.34	7604.40
436.53	7227.57
436.72	7201.83
436.90	6787.55
437.09	6614.35
437.28	7054.37
437.46	6988.84
437.65	6897.56
437.84	6169.65
438.02	5944.96
438.21	5982.41
438.40	6401.37
438.58	6920.96
438.77	7002.88
438.96	7241.62
439.14	7468.65
439.33	7581.00
439.52	7517.80
439.70	7325.88
439.89	6995.86
440.08	7040.33
440.26	7112.89
440.45	7286.09
440.63	7611.42
440.82	8133.36
441.01	7655.89
441.19	7988.25
441.38	7960.16
441.57	8159.11
441.75	8252.73
441.94	8049.10
442.12	8306.56
442.31	8353.37
442.50	8402.52
442.68	8091.23
442.87	7955.48
443.05	8060.80
443.24	8084.21
443.43	8168.47
443.61	8390.82
443.80	8451.67
443.98	8210.60
444.17	8271.45
444.35	8498.49
444.54	8624.87
444.73	8437.63
444.91	8025.70
445.10	7866.54
445.28	7838.45
445.47	7506.10
445.65	7297.79
445.84	7777.60
446.02	7859.52
446.21	8147.40
446.39	8203.58
446.58	8313.58
446.77	8425.93
446.95	8355.71
447.14	8542.96
447.32	8688.07
447.51	8423.59
447.69	7868.88
447.88	8021.02
448.06	8119.32
448.25	8102.93
448.43	8353.37
448.62	8063.15
448.80	8037.40
448.99	7974.21
449.17	8203.58
449.36	8290.18
449.54	8454.02
449.73	8564.02
449.91	8975.95
450.10	8856.59
450.28	9184.26
450.46	9165.54
450.65	8912.76
450.83	8919.78
451.02	8580.40
451.20	8334.65
451.39	8788.71
451.57	8669.34
451.76	8559.34
451.94	8451.67
452.13	8215.28
452.31	7843.14
452.49	7581.00
452.68	7730.79
452.86	7634.83
453.05	7857.18
453.23	8035.06
453.42	8280.82
453.60	8276.13
453.78	8423.59
453.97	8243.37
454.15	8458.70
454.34	8252.73
454.52	8194.22
454.70	7988.25
454.89	8023.36
455.07	8128.68
455.26	8138.04
455.44	8353.37
455.62	8559.34
455.81	8887.01
455.99	8613.17
456.17	8435.29
456.36	8688.07
456.54	8608.49
456.73	8704.45
456.91	9011.06
457.09	8971.27
457.28	8802.75
457.46	8465.72
457.64	8386.14
457.83	8095.91
458.01	7967.18
458.19	8332.31
458.38	8432.95
458.56	8416.57
458.74	8311.24
458.93	8145.06
459.11	8219.96
459.29	8131.02
459.48	8222.30
459.66	8161.45
459.84	8493.80
460.03	8526.57
460.21	8465.72
460.39	8657.64
460.57	8507.85
460.76	8798.07
460.94	8594.45
461.12	8566.36
461.31	8671.68
461.49	8695.09
461.67	8486.78
461.85	8936.17
462.04	8781.69
462.22	8798.07
462.40	8704.45
462.59	8634.24
462.77	8559.34
462.95	8652.96
463.13	8557.00
463.32	8278.47
463.50	8437.63
463.68	8542.96
463.86	8606.15
464.05	8311.24
464.23	8032.72
464.41	8332.31
464.59	8114.64
464.78	8388.48
464.96	8297.20
465.14	8238.69
465.32	8514.87
465.50	8617.85
465.69	8872.97
465.87	8449.33
466.05	7974.21
466.23	8058.46
466.41	7730.79
466.60	8145.06
466.78	8016.33
466.96	8332.31
467.14	8336.99
467.32	8755.94
467.51	8388.48
467.69	8006.97
467.87	8004.63
468.05	7978.89
468.23	7997.61
468.41	8093.57
468.60	8098.25
468.78	8046.76
468.96	8259.75
469.14	8369.76
469.32	8180.17
469.50	7815.05
469.69	7840.79
469.87	7880.58
470.05	7812.71
470.23	7737.81
470.41	7779.94
470.59	8035.06
470.77	8138.04
470.95	8175.49
471.14	8283.16
471.32	8313.58
471.50	8535.93
471.68	8500.83
471.86	8762.97
472.04	8879.99
472.22	8627.21
472.40	8107.62
472.58	8243.37
472.77	8306.56
472.95	8091.23
473.13	8528.91
473.31	8248.05
473.49	8210.60
473.67	8318.26
473.85	8500.83
474.03	8648.28
474.21	8910.42
474.39	8891.70
474.57	8924.46
474.75	8723.18
474.93	8861.27
475.12	8718.50
475.30	8449.33
475.48	8486.78
475.66	8706.79
475.84	8554.66
476.02	8542.96
476.20	8299.54
476.38	8643.60
476.56	8940.85
476.74	8779.35
476.92	8987.66
477.10	8982.98
477.28	9100.00
477.46	9193.62
477.64	9207.67
477.82	9334.06
478.00	9518.96
478.18	9107.02
478.36	9111.71
478.54	9151.49
478.72	9184.26
478.90	9671.09
479.08	9839.61
479.26	10005.79
479.44	9685.14
479.62	9640.67
479.80	9710.88
479.98	9729.61
480.16	9715.56
480.34	9614.92
480.52	9860.68
480.70	10038.56
480.88	9961.32
481.06	10003.45
481.24	10207.08
481.41	10188.35
481.59	10567.52
481.77	10022.17
481.95	9940.26
482.13	10099.41
482.31	9963.66
482.49	9919.19
482.67	10279.63
482.85	10284.31
483.03	10326.44
483.21	10654.12
483.39	10462.19
483.57	10171.97
483.74	10153.24
483.92	10106.43
484.10	10321.76
484.28	10455.17
484.46	10839.02
484.64	10527.73
484.82	10347.51
485.00	10022.17
485.18	9926.21
485.35	9462.79
485.53	8868.29
485.71	7850.16
485.89	7943.78
486.07	8645.94
486.25	9310.65
486.43	9624.28
486.61	9462.79
486.78	9659.39
486.96	9757.69
487.14	10494.96
487.32	10693.91
487.50	10867.11
487.68	11002.86
487.85	11061.37
488.03	11070.73
488.21	10979.45
488.39	10773.49
488.57	10429.43
488.75	10537.09
488.92	11150.31
489.10	11461.60
489.28	12018.65
489.46	12383.77
489.64	12248.02
489.81	12170.79
489.99	12470.37
490.17	12184.83
490.35	12201.21
490.53	11864.18
490.70	11789.28
490.88	11681.61
491.06	12191.85
491.24	12372.07
491.41	11524.80
491.59	11218.19
491.77	10934.98
491.95	11555.22
492.13	12159.08
492.30	12116.95
492.48	12699.75
492.66	12638.89
492.84	12498.46
493.01	12453.99
493.19	12098.23
493.37	11918.01
493.54	12152.06
493.72	12587.40
493.90	12989.97
494.08	13231.05
494.25	13135.09
494.43	12978.27
494.61	13472.12
494.79	13425.31
494.96	13221.69
495.14	12772.30
495.32	12379.09
495.49	12322.92
495.67	12849.54
495.85	13219.35
496.02	13516.59
496.20	13315.31
496.38	13256.79
496.55	12924.44
496.73	13329.35
496.91	13261.48
497.09	13518.93
497.26	13589.15
497.44	13383.18
497.62	13111.68
497.79	12985.29
497.97	12301.86
498.14	12702.09
498.32	12980.61
498.50	13090.62
498.67	13266.16
498.85	12973.59
499.03	13380.84
499.20	13497.87
499.38	13373.82
499.56	13123.38
499.73	13121.04
499.91	12842.52
500.08	12538.25
500.26	12325.26
500.44	12741.88
500.61	12999.34
500.79	12638.89
500.97	12552.29
501.14	12542.93
501.32	12444.63
501.49	12709.11
501.67	12250.36
501.84	12739.54
502.02	13039.12
502.20	13209.98
502.37	13118.70
502.55	13397.23
502.72	13760.01
502.90	13853.63
503.07	13207.64
503.25	13177.22
503.43	12772.30
503.60	12446.97
503.78	12304.20
503.95	12556.97
504.13	13261.48
504.30	13193.60
504.48	13481.49
504.65	13099.98
504.83	13004.02
505.01	13429.99
505.18	13628.94
505.36	14010.45
505.53	13884.06
505.71	13862.99
505.88	13973.00
506.06	13570.43
506.23	13408.93
506.41	13090.62
506.58	13111.68
506.76	12982.95
506.93	13139.77
507.11	13107.00
507.28	13432.33
507.46	12915.08
507.63	12573.36
507.81	12421.22
507.98	12437.61
508.16	13177.22
508.33	13207.64
508.50	13563.40
508.68	13701.50
508.85	13748.31
509.03	13731.92
509.20	12989.97
509.38	12978.27
509.55	12526.55
509.73	12966.57
509.90	13315.31
510.08	13312.97
510.25	13252.11
510.42	12816.77
510.60	13327.01
510.77	13301.26
510.95	13334.03
511.12	13446.38
511.30	13408.93
511.47	13790.44
511.64	13673.41
511.82	13413.61
511.99	12758.26
512.17	12734.85
512.34	12650.60
512.51	12821.45
512.69	12985.29
512.86	12830.82
513.04	13200.62
513.21	12879.97
513.38	12688.04
513.56	12498.46
513.73	12411.86
513.90	12301.86
514.08	12468.03
514.25	12753.58
514.43	12957.21
514.60	12688.04
514.77	12901.03
514.95	12755.92
515.12	12395.48
515.29	12774.64
515.47	13060.19
515.64	13029.76
515.81	12723.15
515.99	12524.21
516.16	11716.72
516.33	11068.39
516.51	10572.20
516.68	10352.19
516.85	9905.15
517.03	10391.98
517.20	11370.32
517.37	12060.78
517.54	12795.71
517.72	12404.84
517.89	11173.72
518.06	10399.00
518.24	10593.26
518.41	11463.94
518.58	12060.78
518.75	12081.85
518.93	12336.96
519.10	12182.49
519.27	12273.77
519.45	12491.44
519.62	12655.28
519.79	12758.26
519.96	12657.62
520.14	12306.54
520.31	11995.25
520.48	12245.68
520.65	12346.33
520.83	12755.92
521.00	12477.40
521.17	12343.99
521.34	12776.98
521.52	12657.62
521.69	12905.71
521.86	13352.76
522.03	12758.26
522.20	12114.61
522.38	11557.57
522.55	11681.61
522.72	11990.56
522.89	12058.44
523.07	12116.95
523.24	12156.74
523.41	12592.08
523.58	12931.46
523.75	13083.59
523.92	13041.46
524.10	13254.45
524.27	12872.95
524.44	12580.38
524.61	12704.43
524.78	12510.16
524.96	12636.55
525.13	12505.48
525.30	12575.70
525.47	12739.54
525.64	12643.57
525.81	12458.67
525.98	11913.33
526.16	11295.43
526.33	10892.85
526.50	10752.42
526.67	10684.55
526.84	11049.67
527.01	11602.04
527.18	11896.94
527.36	12201.21
527.53	12652.94
527.70	12610.81
527.87	12159.08
528.04	12131.00
528.21	12461.01
528.38	12472.71
528.55	12980.61
528.72	13245.09
528.89	12802.73
529.07	12685.70
529.24	12297.17
529.41	12002.27
529.58	11929.71
529.75	12006.95
529.92	12276.11
530.09	12133.34
530.26	12638.89
530.43	12692.73
530.60	12910.40
530.77	12807.41
530.94	12767.62
531.11	12421.22
531.28	12456.33
531.46	12475.06
531.63	12435.27
531.80	12353.35
531.97	11981.20
532.14	11763.53
532.31	11063.71
532.48	10813.28
532.65	10974.77
532.82	11316.49
532.99	11913.33
533.16	12025.67
533.33	12168.45
533.50	11943.75
533.67	11894.60
533.84	11623.10
534.01	11733.11
534.18	11866.52
534.35	11805.66
534.52	11770.55
534.69	12053.76
534.86	12250.36
535.03	12065.46
535.20	12189.51
535.37	12610.81
535.54	12634.21
535.71	12264.41
535.88	11688.64
536.05	11864.18
536.22	11791.62
536.38	11646.51
536.55	11180.74
536.72	11342.24
536.89	11456.92
537.06	11489.69
537.23	12107.59
537.40	11953.12
537.57	12058.44
537.74	11625.44
537.91	11538.84
538.08	11679.27
538.25	11686.29
538.42	11852.47
538.59	11962.48
538.75	11363.30
538.92	11166.70
539.09	11159.67
539.26	10927.96
539.43	11061.37
539.60	11014.56
539.77	11054.35
539.94	10951.37
540.11	10705.61
540.28	10487.94
540.44	10600.29
540.61	10850.72
540.78	10930.30
540.95	10913.92
541.12	10888.17
541.29	10981.79
541.46	11056.69
541.62	11447.56
541.79	11222.87
541.96	10686.89
542.13	10829.66
542.30	11073.07
542.47	11054.35
542.63	10920.94
542.80	10724.33
542.97	10906.90
543.14	10817.96
543.31	11044.99
543.48	11393.73
543.64	11604.38
543.81	11833.75
543.98	11506.07
544.15	11227.55
544.32	10930.30
544.48	11073.07
544.65	11229.89
544.82	11222.87
544.99	11169.04
545.16	11105.84
545.32	10965.41
545.49	11080.10
545.66	11173.72
545.83	11262.66
546.00	10958.39
546.16	10867.11
546.33	10808.59
546.50	10911.58
546.67	10904.56
546.83	10953.71
547.00	11054.35
547.17	10899.87
547.34	10560.50
547.50	10312.40
547.67	10527.73
547.84	10656.46
548.00	10689.23
548.17	10867.11
548.34	10995.84
548.51	10850.72
548.67	10944.34
548.84	10745.40
549.01	10703.27
549.18	10867.11
549.34	10869.45
549.51	10525.39
549.68	10745.40
549.84	10565.18
550.01	10464.54
550.18	10654.12
550.34	10614.33
550.51	10609.65
550.68	10361.55
550.84	10530.07
551.01	10586.24
551.18	10333.47
551.34	10487.94
551.51	10504.32
551.68	10647.10
551.84	10590.92
552.01	10490.28
552.18	10546.45
552.34	10078.35
552.51	9951.96
552.68	10155.58
552.84	10314.74
553.01	10384.96
553.18	10141.54
553.34	10345.17
553.51	10265.59
553.67	10368.57
553.84	10356.87
554.01	10279.63
554.17	10202.40
554.34	10497.30
554.51	10375.59
554.67	10487.94
554.84	10363.89
555.00	10375.59
555.17	10258.57
555.33	10260.91
555.50	10108.77
555.67	10473.90
555.83	10347.51
556.00	10076.01
556.16	10057.28
556.33	10052.60
556.50	9888.76
556.66	9832.59
556.83	9727.27
556.99	9771.74
557.16	9757.69
557.32	10015.15
557.49	10068.98
557.65	10207.08
557.82	10085.37
557.98	9865.36
558.15	9619.60
558.32	9184.26
558.48	9238.09
558.65	9167.88
558.81	9266.18
558.98	9577.47
559.14	9671.09
559.31	9654.71
559.47	9469.81
559.64	9549.39
559.80	9242.78
559.97	9430.02
560.13	9528.32
560.30	9741.31
560.46	9940.26
560.63	10076.01
560.79	9886.42
560.96	9909.83
561.12	9497.89
561.29	9100.00
561.45	9242.78
561.61	9495.55
561.78	9603.22
561.94	9502.58
562.11	9366.82
562.27	9418.32
562.44	9748.33
562.60	9537.68
562.77	9870.04
562.93	9277.88
563.10	9341.08
563.26	9174.90
563.42	9350.44
563.59	9137.45
563.75	9163.20
563.92	9270.86
564.08	9036.81
564.24	9202.99
564.41	9528.32
564.57	9228.73
564.74	9504.92
564.90	9284.91
565.07	9207.67
565.23	8762.97
565.39	8730.20
565.56	8894.04
565.72	8711.47
565.88	8833.18
566.05	8990.00
566.21	9135.11
566.38	9064.89
566.54	8938.51
566.70	9123.41
566.87	8973.61
567.03	9153.84
567.19	9128.09
567.36	9135.11
567.52	9214.69
567.68	9011.06
567.85	8788.71
568.01	8465.72
568.17	8400.18
568.34	8592.11
568.50	8786.37
568.66	8547.64
568.83	8872.97
568.99	8592.11
569.15	8901.06
569.32	8842.54
569.48	8659.98
569.64	8344.01
569.81	8786.37
569.97	8514.87
570.13	8498.49
570.30	8234.00
570.46	8077.19
570.62	8215.28
570.78	8006.97
570.95	8226.98
571.11	8231.66
571.27	8564.02
571.43	8360.39
571.60	8711.47
571.76	8664.66
571.92	8683.39
572.09	8793.39
572.25	8702.11
572.41	8723.18
572.57	8512.53
572.74	8582.74
572.90	8648.28
573.06	8542.96
573.22	8690.41
573.38	8428.27
573.55	8456.36
573.71	8500.83
573.87	8617.85
574.03	8545.30
574.20	8454.02
574.36	8334.65
574.52	8098.25
574.68	8257.41
574.84	8273.79
575.01	7934.42
575.17	8121.66
575.33	8102.93
575.49	8079.53
575.65	8196.56
575.82	7920.37
575.98	7995.27
576.14	8044.42
576.30	8135.70
576.46	8095.91
576.62	8210.60
576.79	8035.06
576.95	7953.14
577.11	8135.70
577.27	8203.58
577.43	8285.50
577.59	8088.89
577.75	7990.59
577.92	7620.78
578.08	7698.02
578.24	7815.05
578.40	7688.66
578.56	7808.03
578.72	7735.47
578.88	7829.09
579.04	7585.68
579.21	7950.80
579.37	7873.56
579.53	7934.42
579.69	7964.84
579.85	7854.84
580.01	7784.62
580.17	7824.41
580.33	7918.03
580.49	8037.40
580.65	7749.51
580.82	7964.84
580.98	7864.20
581.14	7681.64
581.30	7805.69
581.46	7632.49
581.62	8025.70
581.78	7442.90
581.94	7693.34
582.10	7726.11
582.26	7784.62
582.42	7880.58
582.58	8030.38
582.74	7882.92
582.90	7948.46
583.06	7646.53
583.22	7733.13
583.38	7726.11
583.54	7686.32
583.70	7672.28
583.86	7864.20
584.02	7777.60
584.18	7583.34
584.34	7812.71
584.50	7737.81
584.66	7695.68
584.82	7368.01
584.98	7290.77
585.14	7262.68
585.30	7258.00
585.46	7204.17
585.62	7140.97
585.78	7295.45
585.94	7208.85
586.10	7545.89
586.26	7468.65
586.42	7527.16
586.58	7351.62
586.74	7400.77
586.90	7426.52
587.06	7447.58
587.22	7576.31
587.38	7349.28
587.54	7311.83
587.70	7433.54
587.86	7250.98
588.02	7143.32
588.18	7096.50
588.34	6942.03
588.49	6509.03
588.65	6141.57
588.81	6052.63
588.97	6274.98
589.13	6066.67
589.29	6113.48
589.45	6296.04
589.61	6366.26
589.77	6544.14
589.93	6923.30
590.08	6846.07
590.24	6967.77
590.40	6881.18
590.56	7019.27
590.72	6841.39
590.88	6789.89
591.04	6839.05
591.20	6923.30
591.35	6909.26
591.51	6885.86
591.67	6881.18
591.83	6963.09
591.99	6848.41
