SpectraSuite Data File
++++++++++++++++++++++++++++++++++++
Date: Mon Oct 07 14:53:28 GMT-05:00 2013
User: price-jones
Dark Spectrum Present: No
Reference Spectrum Present: No
Number of Sampled Component Spectra: 1
Spectrometers: USB2+H05261
Integration Time (usec): 100000 (USB2+H05261)
Spectra Averaged: 1 (USB2+H05261)
Boxcar Smoothing: 0 (USB2+H05261)
Correct for Electrical Dark: No (USB2+H05261)
Strobe/Lamp Enabled: No (USB2+H05261)
Correct for Detector Non-linearity: No (USB2+H05261)
Correct for Stray Light: No (USB2+H05261)
Number of Pixels in Processed Spectrum: 2048
>>>>>Begin Processed Spectral Data<<<<<
365.73	0.00
365.92	0.00
366.12	0.00
366.32	0.00
366.52	0.00
366.72	0.00
366.91	0.00
367.11	0.00
367.31	0.00
367.51	0.00
367.70	0.00
367.90	0.00
368.10	0.00
368.30	0.00
368.49	0.00
368.69	0.00
368.89	0.00
369.09	0.00
369.28	0.00
369.48	0.00
369.68	0.00
369.87	0.00
370.07	0.00
370.27	0.00
370.47	660.03
370.66	3471.01
370.86	4084.23
371.06	4594.47
371.25	4414.25
371.45	4065.51
371.65	3744.86
371.84	3370.37
372.04	3534.21
372.24	3946.14
372.44	4154.45
372.63	4016.36
372.83	3866.56
373.03	3569.32
373.22	3150.36
373.42	3206.53
373.62	3843.16
373.81	4124.02
374.01	4077.21
374.21	3719.11
374.40	3391.44
374.60	3494.42
374.79	3967.21
374.99	4725.54
375.19	5041.51
375.38	5006.41
375.58	4671.71
375.78	4667.03
375.97	4800.44
376.17	5027.47
376.37	4898.74
376.56	5093.01
376.76	5486.22
376.95	5591.54
377.15	6003.47
377.35	6438.81
377.54	6525.41
377.74	6672.87
377.93	6663.51
378.13	6740.74
378.33	6333.49
378.52	5825.59
378.72	5715.59
378.91	5284.93
379.11	5308.34
379.31	5083.64
379.50	4997.04
379.70	5589.20
379.89	6099.44
380.09	6387.32
380.28	6658.82
380.48	6504.35
380.68	6340.51
380.87	6267.95
381.07	5902.83
381.26	5451.11
381.46	5160.88
381.65	4978.32
381.85	4793.42
382.04	4512.55
382.24	4283.18
382.43	4049.13
382.63	3983.59
382.83	4042.11
383.02	3899.33
383.22	3983.59
383.41	4051.47
383.61	4304.25
383.80	4802.78
384.00	5444.09
384.19	6328.81
384.39	6356.90
384.58	6483.28
384.78	6520.73
384.97	6387.32
385.17	6057.31
385.36	5846.66
385.56	5682.82
385.75	5717.93
385.95	6085.39
386.14	6848.41
386.34	6649.46
386.53	6452.86
386.72	5973.05
386.92	6033.90
387.11	6380.30
387.31	6782.87
387.50	6607.33
387.70	6232.85
387.89	6502.01
388.09	6368.60
388.28	6469.24
388.48	6513.71
388.67	6937.35
388.86	7878.24
389.06	8273.79
389.25	8882.33
389.45	8716.16
389.64	8760.63
389.84	8659.98
390.03	8418.91
390.22	8425.93
390.42	8779.35
390.61	9252.14
390.81	10087.71
391.00	10270.27
391.19	9975.36
391.39	9628.96
391.58	9259.16
391.78	8603.81
391.97	8280.82
392.16	7836.11
392.36	7047.35
392.55	5713.25
392.75	4657.67
392.94	3801.03
393.13	3714.43
393.33	4287.86
393.52	5671.12
393.71	6780.53
393.91	7726.11
394.10	8297.20
394.29	9085.96
394.49	9987.07
394.68	10473.90
394.88	10576.88
395.07	10958.39
395.26	10635.39
395.46	10609.65
395.65	9980.04
395.84	8732.54
396.04	7403.11
396.23	5956.66
396.42	4999.38
396.62	4875.34
396.81	5528.35
397.00	7047.35
397.19	9195.96
397.39	10803.91
397.58	11946.09
397.77	12894.01
397.97	13362.12
398.16	13437.02
398.35	14097.05
398.55	14221.10
398.74	14698.56
398.93	15257.95
399.12	14998.15
399.32	14443.45
399.51	14724.31
399.70	15831.38
399.90	15426.47
400.09	15688.61
400.28	15255.61
400.47	15623.08
400.67	16236.30
400.86	16755.90
401.05	16676.32
401.24	16879.94
401.44	16992.29
401.63	17467.42
401.82	17106.98
402.01	17216.98
402.21	17191.23
402.40	17397.20
402.59	16868.24
402.78	16002.24
402.97	15424.13
403.17	16470.35
403.36	17334.01
403.55	18036.17
403.74	18211.71
403.93	17345.71
404.13	16212.89
404.32	15515.41
404.51	16339.28
404.70	17605.51
404.89	17703.81
405.09	17355.07
405.28	16922.07
405.47	16828.45
405.66	16608.44
405.85	16561.63
406.05	15917.98
406.24	16102.89
406.43	17083.57
406.62	17429.97
406.81	17579.76
407.00	17090.59
407.20	16821.43
407.39	16767.60
407.58	17429.97
407.77	18270.22
407.96	18714.92
408.15	18829.61
408.34	18909.19
408.54	19882.85
408.73	20365.00
408.92	19779.87
409.11	19281.33
409.30	18082.98
409.49	17193.58
409.68	16231.62
409.87	15700.31
410.07	16446.94
410.26	17860.63
410.45	19009.83
410.64	19470.92
410.83	20002.22
411.02	20673.95
411.21	21851.24
411.40	21076.52
411.59	21315.26
411.78	21139.72
411.98	20940.77
412.17	21275.47
412.36	20603.74
412.55	21008.65
412.74	20320.53
412.93	20135.63
413.12	19889.87
413.31	22022.10
413.50	21998.70
413.69	22700.86
413.88	21584.42
414.07	21020.35
414.26	21256.75
414.45	22312.33
414.64	22239.77
414.83	22162.53
415.02	21895.71
415.22	21982.31
415.41	22190.62
415.60	22841.29
415.79	24011.56
415.98	24290.08
416.17	24332.21
416.36	23988.15
416.55	23449.83
416.74	22682.13
416.93	21860.60
417.12	21790.39
417.31	22534.68
417.50	22647.02
417.69	23229.82
417.88	23367.91
418.07	22944.27
418.26	22785.12
418.45	22841.29
418.64	23859.42
418.83	24652.86
419.02	24297.10
419.21	24388.38
419.39	22979.38
419.58	21848.90
419.77	21802.09
419.96	23180.67
420.15	24407.11
420.34	24783.93
420.53	25839.51
420.72	26288.90
420.91	26132.08
421.10	25827.81
421.29	25352.68
421.48	24812.02
421.67	25954.20
421.86	25383.11
422.05	23393.65
422.24	21324.62
422.43	20987.58
422.61	23161.94
422.80	24910.32
422.99	25170.12
423.18	24259.65
423.37	23419.40
423.56	23960.06
423.75	24105.18
423.94	24407.11
424.13	23194.71
424.32	23328.12
424.50	23440.47
424.69	23381.95
424.88	23283.65
425.07	22995.76
425.26	23229.82
425.45	23037.89
425.64	22490.21
425.83	22565.10
426.01	24006.87
426.20	24678.61
426.39	24084.11
426.58	22511.27
426.77	20861.19
426.96	20060.73
427.15	20863.54
427.33	22616.60
427.52	23487.28
427.71	23566.85
427.90	23674.52
428.09	23346.84
428.28	22836.61
428.46	22059.55
428.65	21900.39
428.84	22181.26
429.03	22881.08
429.22	21326.96
429.40	20297.13
429.59	18295.97
429.78	16079.48
429.97	16126.29
430.16	16570.99
430.34	16418.86
430.53	16645.89
430.72	16671.64
430.91	18487.89
431.10	21708.47
431.28	25504.82
431.47	27768.12
431.66	28009.19
431.85	25785.68
432.03	23765.80
432.22	22412.97
432.41	23288.33
432.60	25862.92
432.79	26913.82
432.97	27653.43
433.16	27072.98
433.35	24744.14
433.54	22375.52
433.72	20828.43
433.91	21563.36
434.10	24060.71
434.28	25743.55
434.47	27112.77
434.66	26717.22
434.85	25912.07
435.03	25720.15
435.22	26707.85
435.41	28400.06
435.59	28238.56
435.78	28339.21
435.97	29612.46
436.16	29539.90
436.34	28676.24
436.53	28603.69
436.72	28449.21
436.90	27016.80
437.09	27051.91
437.28	26307.62
437.46	27222.77
437.65	27292.99
437.84	24973.52
438.02	23470.89
438.21	23037.89
438.40	24587.33
438.58	26649.34
438.77	27349.16
438.96	27461.51
439.14	28746.46
439.33	29563.31
439.52	29958.86
439.70	29252.02
439.89	28517.09
440.08	27835.99
440.26	27618.32
440.45	28788.59
440.63	30604.84
440.82	32158.96
441.01	31515.31
441.19	31353.82
441.38	31655.75
441.57	32940.70
441.75	33652.22
441.94	33928.41
442.12	33303.48
442.31	33720.10
442.50	34125.01
442.68	33303.48
442.87	33158.37
443.05	32989.85
443.24	33179.43
443.43	33439.23
443.61	34485.45
443.80	34827.17
443.98	32828.35
444.17	32971.13
444.35	34845.90
444.54	35716.58
444.73	34735.89
444.91	33310.50
445.10	32046.62
445.28	31096.36
445.47	30314.62
445.65	30307.60
445.84	31716.60
446.02	32306.41
446.21	33008.58
446.39	33352.63
446.58	33371.36
446.77	33963.51
446.95	34162.46
447.14	35086.97
447.32	35931.90
447.51	34951.22
447.69	33692.01
447.88	33546.90
448.06	34047.77
448.25	34785.04
448.43	34909.09
448.62	34017.35
448.80	33998.62
448.99	33921.38
449.17	34550.99
449.36	34515.88
449.54	35704.87
449.73	36091.06
449.91	36655.13
450.10	37563.26
450.28	37956.47
450.46	38068.81
450.65	37886.25
450.83	37488.36
451.02	36912.59
451.20	36739.39
451.39	36257.24
451.57	36470.23
451.76	36563.85
451.94	36250.22
452.13	35737.64
452.31	33900.32
452.49	32636.43
452.68	32898.57
452.86	32809.63
453.05	33163.05
453.23	34609.50
453.42	35236.77
453.60	35976.37
453.78	36100.42
453.97	35784.45
454.15	36065.31
454.34	34614.18
454.52	35732.96
454.70	34799.08
454.89	35098.67
455.07	35096.33
455.26	35714.23
455.44	36818.97
455.62	37436.87
455.81	37912.00
455.99	37722.41
456.17	36933.65
456.36	37111.53
456.54	38218.61
456.73	38316.91
456.91	39049.50
457.09	39086.95
457.28	40076.99
457.46	38110.94
457.64	37970.51
457.83	36680.88
458.01	35917.86
458.19	36779.18
458.38	37230.90
458.56	38600.12
458.74	38665.65
458.93	37874.55
459.11	37111.53
459.29	37280.05
459.48	37497.72
459.66	37404.10
459.84	37766.88
460.03	38146.05
460.21	37691.99
460.39	39093.97
460.57	38672.67
460.76	39388.88
460.94	39566.76
461.12	39154.82
461.31	38667.99
461.49	38979.28
461.67	38857.57
461.85	40690.21
462.04	40013.80
462.22	40666.81
462.40	40271.26
462.59	39651.02
462.77	40268.92
462.95	39889.75
463.13	39435.69
463.32	39412.28
463.50	38925.45
463.68	38817.78
463.86	39009.71
464.05	38623.52
464.23	37680.28
464.41	37944.76
464.59	37118.56
464.78	39000.35
464.96	38649.27
465.14	38342.66
465.32	39550.37
465.50	40044.23
465.69	40390.62
465.87	39449.73
466.05	38623.52
466.23	37703.69
466.41	35845.30
466.60	37132.60
466.78	37244.94
466.96	37996.26
467.14	38160.09
467.32	38932.47
467.51	39159.50
467.69	37251.97
467.87	37764.54
468.05	38927.79
468.23	38888.00
468.41	38876.30
468.60	38974.60
468.78	39454.41
468.96	38431.60
469.14	39601.86
469.32	39995.07
469.50	38045.41
469.69	38462.02
469.87	37841.78
470.05	37436.87
470.23	37504.74
470.41	37940.08
470.59	38462.02
470.77	38127.33
470.95	39218.02
471.14	39646.33
471.32	39573.78
471.50	41696.64
471.68	41649.83
471.86	42270.08
472.04	42239.65
472.22	42337.95
472.40	40882.14
472.58	40046.57
472.77	39824.22
472.95	40196.36
473.13	41460.25
473.31	40367.22
473.49	40521.69
473.67	41652.17
473.85	41855.80
474.03	42632.86
474.21	42857.55
474.39	42920.74
474.57	43330.34
474.75	43442.68
474.93	42948.83
475.12	41951.76
475.30	41986.87
475.48	42445.62
475.66	42817.76
475.84	42389.44
476.02	41647.49
476.20	41806.65
476.38	42246.67
476.56	43428.64
476.74	44140.16
476.92	44381.24
477.10	44678.49
477.28	45804.28
477.46	45607.68
477.64	46586.02
477.82	46550.91
478.00	46616.45
478.18	45949.40
478.36	45815.99
478.54	45993.87
478.72	46487.72
478.90	46815.40
479.08	47992.68
479.26	48814.21
479.44	48486.54
479.62	48268.87
479.80	48212.70
479.98	48348.45
480.16	48800.17
480.34	48076.94
480.52	48650.38
480.70	49008.48
480.88	48844.64
481.06	49778.51
481.24	49645.10
481.41	50714.73
481.59	51292.84
481.77	51042.40
481.95	50389.39
482.13	50197.47
482.31	49993.84
482.49	50700.68
482.67	50602.38
482.85	51107.94
483.03	51475.40
483.21	51707.12
483.39	51835.84
483.57	51437.95
483.74	50822.39
483.92	51503.49
484.10	51746.90
484.28	52376.51
484.46	52851.64
484.64	52971.00
484.82	52046.49
485.00	51632.22
485.18	50880.91
485.35	49841.71
485.53	47182.86
485.71	42988.62
485.89	42450.30
486.07	44793.17
486.25	48217.38
486.43	50410.46
486.61	50862.18
486.78	50656.21
486.96	50918.35
487.14	52385.87
487.32	53027.18
487.50	53832.32
487.68	54635.13
487.85	54967.48
488.03	55147.70
488.21	54817.69
488.39	54000.84
488.57	53467.20
488.75	53240.17
488.92	54288.73
489.10	55901.36
489.28	57111.41
489.46	57654.42
489.64	57626.33
489.81	57605.26
489.99	57387.60
490.17	57364.19
490.35	57724.63
490.53	57368.87
490.70	56947.57
490.88	56849.27
491.06	57696.55
491.24	57865.06
491.41	56589.47
491.59	55157.06
491.77	54735.77
491.95	55840.50
492.13	56474.79
492.30	57673.14
492.48	58581.27
492.66	59002.56
492.84	59023.63
493.01	58546.16
493.19	58028.90
493.37	58038.26
493.54	57652.08
493.72	58209.12
493.90	59320.88
494.08	59728.13
494.25	59887.29
494.43	60095.60
494.61	60495.83
494.79	60470.08
494.96	60378.80
495.14	59901.33
495.32	59105.55
495.49	58511.05
495.67	59377.05
495.85	60575.40
496.02	61006.06
496.20	60643.28
496.38	60339.01
496.55	60247.73
496.73	60729.88
496.91	60769.67
497.09	61478.85
497.26	61673.12
497.44	60949.89
497.62	60516.89
497.79	60027.72
497.97	58782.55
498.14	58855.11
498.32	59826.43
498.50	60764.99
498.67	61277.57
498.85	61235.44
499.03	61195.65
499.20	61471.83
499.38	61563.11
499.56	61410.98
499.73	60874.99
499.91	60502.85
500.08	60214.96
500.26	59529.19
500.44	60037.08
500.61	60786.05
500.79	60413.91
500.97	59931.76
501.14	59854.52
501.32	59847.50
501.49	59711.75
501.67	59929.42
501.84	60470.08
502.02	60617.53
502.20	61104.37
502.37	61043.51
502.55	60970.96
502.72	61614.60
502.90	62054.62
503.07	61630.99
503.25	61324.38
503.43	60760.31
503.60	60067.51
503.78	59519.82
503.95	60065.17
504.13	60961.59
504.30	61822.91
504.48	61647.37
504.65	61270.54
504.83	61382.89
505.01	61914.19
505.18	62253.57
505.36	62815.30
505.53	62869.13
505.71	63009.56
505.88	63021.26
506.06	62422.09
506.23	62305.06
506.41	61984.41
506.58	62209.10
506.76	62108.46
506.93	62026.54
507.11	61740.99
507.28	61968.02
507.46	61464.81
507.63	60968.61
507.81	60640.94
507.98	61057.56
508.16	61743.33
508.33	62241.87
508.50	62468.90
508.68	62574.22
508.85	63039.99
509.03	63267.02
509.20	62981.48
509.38	62539.11
509.55	61794.82
509.73	61684.82
509.90	62386.98
510.08	62508.69
510.25	62330.81
510.42	62276.97
510.60	62274.63
510.77	62422.09
510.95	62974.45
511.12	63229.57
511.30	63353.62
511.47	63632.14
511.64	63440.22
511.82	63147.65
511.99	62354.21
512.17	62178.67
512.34	61703.54
512.51	61916.53
512.69	62192.72
512.86	62054.62
513.04	62709.97
513.21	62445.49
513.38	62295.70
513.56	61883.76
513.73	61331.40
513.90	61396.93
514.08	61406.30
514.25	61771.42
514.43	61848.66
514.60	62120.16
514.77	62190.37
514.95	62106.12
515.12	62101.43
515.29	62351.87
515.47	62850.41
515.64	62901.90
515.81	62855.09
515.99	62328.47
516.16	61006.06
516.33	58962.78
516.51	57670.80
516.68	56935.87
516.85	56612.88
517.03	57041.20
517.20	59222.58
517.37	61368.85
517.54	62302.72
517.72	61944.62
517.89	59552.59
518.06	57757.40
518.24	58014.86
518.41	59753.88
518.58	61050.53
518.75	61307.99
518.93	61492.89
519.10	61265.86
519.27	61642.69
519.45	61710.56
519.62	62438.47
519.79	62745.08
519.96	62742.74
520.14	62141.22
520.31	61329.06
520.48	61303.31
520.65	61818.23
520.83	62492.30
521.00	62920.62
521.17	62606.99
521.34	62188.03
521.52	62597.63
521.69	62822.32
521.86	63564.27
522.03	63056.37
522.20	62117.82
522.38	61240.12
522.55	61158.20
522.72	61682.48
522.89	61879.08
523.07	62021.86
523.24	62293.36
523.41	63025.95
523.58	63400.43
523.75	63791.30
523.92	63592.36
524.10	63454.26
524.27	63709.38
524.44	63318.51
524.61	63224.89
524.78	63142.97
524.96	62803.59
525.13	63054.03
525.30	63149.99
525.47	63655.55
525.64	63582.99
525.81	62958.07
525.98	61513.96
526.16	60334.33
526.33	59627.49
526.50	59456.63
526.67	59065.76
526.84	59772.60
527.01	60542.64
527.18	61425.02
527.36	61972.70
527.53	62831.68
527.70	63196.80
527.87	62611.67
528.04	62092.07
528.21	62536.77
528.38	63126.59
528.55	63643.85
528.72	63901.31
528.89	64156.42
529.07	63793.64
529.24	63423.84
529.41	62642.10
529.58	62269.95
529.75	62307.40
529.92	62733.38
530.09	62864.45
530.26	63491.71
530.43	63798.32
530.60	63711.72
530.77	64058.12
530.94	64221.96
531.11	63646.19
531.28	63217.87
531.46	63142.97
531.63	63318.51
531.80	63100.84
531.97	62770.83
532.14	62045.26
532.31	61399.27
532.48	60575.40
532.65	60739.24
532.82	61350.12
532.99	62386.98
533.16	62808.28
533.33	63503.42
533.50	63215.53
533.67	62438.47
533.84	62145.90
534.01	62330.81
534.18	62553.16
534.35	62560.18
534.52	62614.01
534.69	62869.13
534.86	63100.84
535.03	63377.03
535.20	63578.31
535.37	64025.35
535.54	63997.27
535.71	63795.98
535.88	63449.58
536.05	63051.69
536.22	62616.35
536.38	62152.93
536.55	62005.47
536.72	61361.82
536.89	61389.91
537.06	62035.90
537.23	62770.83
537.40	63086.80
537.57	62986.16
537.74	62848.06
537.91	62733.38
538.08	62712.31
538.25	62738.06
538.42	62822.32
538.59	62677.21
538.75	62291.02
538.92	61937.60
539.09	62012.49
539.26	61668.44
539.43	61577.15
539.60	61481.19
539.77	61785.46
539.94	61661.41
540.11	61106.71
540.28	60481.78
540.44	60683.07
540.61	60800.10
540.78	60999.04
540.95	61537.36
541.12	61832.27
541.29	61867.38
541.46	62422.09
541.62	62358.89
541.79	61998.45
541.96	61530.34
542.13	61684.82
542.30	61748.01
542.47	61970.36
542.63	61942.28
542.80	61694.18
542.97	61663.75
543.14	61654.39
543.31	61560.77
543.48	62239.53
543.64	62766.15
543.81	63072.76
543.98	62941.69
544.15	62398.68
544.32	61759.72
544.48	61893.13
544.65	62185.69
544.82	62625.71
544.99	62284.00
545.16	61956.32
545.32	61652.05
545.49	62426.77
545.66	62859.77
545.83	62417.41
546.00	62202.08
546.16	61563.11
546.33	61930.58
546.50	62024.20
546.67	62337.83
546.83	61829.93
547.00	61848.66
547.17	61439.06
547.34	60853.93
547.50	60821.16
547.67	61139.47
547.84	61244.80
548.00	61670.78
548.17	62110.80
548.34	61729.29
548.51	61858.02
548.67	61923.55
548.84	61968.02
549.01	61872.06
549.18	61827.59
549.34	61726.95
549.51	61787.80
549.68	61822.91
549.84	61467.15
550.01	61549.07
550.18	61289.27
550.34	61375.87
550.51	61549.07
550.68	61729.29
550.84	61055.21
551.01	61087.98
551.18	61216.71
551.34	61382.89
551.51	61769.08
551.68	61822.91
551.84	61853.34
552.01	61719.93
552.18	61535.02
552.34	60877.33
552.51	60790.73
552.68	60542.64
552.84	60938.19
553.01	61366.51
553.18	61160.54
553.34	61134.79
553.51	61511.62
553.67	61520.98
553.84	61876.74
554.01	61513.96
554.17	61354.80
554.34	61530.34
554.51	61359.48
554.67	61886.10
554.84	61762.06
555.00	61446.08
555.17	61237.78
555.33	61212.03
555.50	61104.37
555.67	61228.41
555.83	61221.39
556.00	60790.73
556.16	60818.82
556.33	60390.50
556.50	60282.84
556.66	60399.86
556.83	59999.63
556.99	60266.45
557.16	60339.01
557.32	60535.62
557.49	60743.92
557.65	60767.33
557.82	60657.32
557.98	60390.50
558.15	60104.96
558.32	59423.86
558.48	58717.02
558.65	58798.94
558.81	59037.67
558.98	59580.68
559.14	59580.68
559.31	59447.27
559.47	59700.04
559.64	59477.69
559.80	59056.40
559.97	59199.17
560.13	59608.76
560.30	60245.39
560.46	60781.37
560.63	60900.74
560.79	60912.44
560.96	60570.72
561.12	59678.98
561.29	59124.27
561.45	59058.74
561.61	59250.66
561.78	59931.76
561.94	59791.33
562.11	59882.61
562.27	59257.68
562.44	59852.18
562.60	60095.60
562.77	60088.57
562.93	60079.21
563.10	59948.14
563.26	59540.89
563.42	59608.76
563.59	59363.01
563.75	59337.26
563.92	59370.03
564.08	59135.98
564.24	59774.94
564.41	59676.64
564.57	59515.14
564.74	59430.88
564.90	59449.61
565.07	59138.32
565.23	58864.47
565.39	58426.79
565.56	58246.57
565.72	58148.27
565.88	58639.78
566.05	58394.03
566.21	58876.18
566.38	58876.18
566.54	58768.51
566.70	59278.75
566.87	59234.28
567.03	59381.73
567.19	59568.97
567.36	59416.84
567.52	59182.79
567.68	58960.44
567.85	58506.37
568.01	58124.86
568.17	57846.34
568.34	57921.24
568.50	57668.46
568.66	57954.00
568.83	58164.65
568.99	58253.59
569.15	58291.04
569.32	58333.17
569.48	58241.89
569.64	58115.50
569.81	57738.68
569.97	57609.95
570.13	57729.31
570.30	57242.48
570.46	56821.19
570.62	56519.26
570.78	56240.73
570.95	56540.32
571.11	57244.82
571.27	57492.92
571.43	57776.12
571.60	57839.32
571.76	58052.31
571.92	58234.87
572.09	58482.97
572.25	58351.90
572.41	58237.21
572.57	58166.99
572.74	58347.21
572.90	57537.39
573.06	57895.49
573.22	57755.06
573.38	57792.51
573.55	57785.49
573.71	57914.22
573.87	57972.73
574.03	57509.30
574.20	57687.18
574.36	57366.53
574.52	57396.96
574.68	56928.85
574.84	56788.42
575.01	56498.19
575.17	56353.08
575.33	56442.02
575.49	56851.61
575.65	57174.61
575.82	56631.60
575.98	56516.92
576.14	56652.67
576.30	57207.37
576.46	57289.29
576.62	57275.25
576.79	57130.14
576.95	56460.74
577.11	56835.23
577.27	56818.84
577.43	56947.57
577.59	56685.43
577.75	56261.80
577.92	55847.52
578.08	55416.86
578.24	55400.48
578.40	55606.45
578.56	56048.81
578.72	55887.31
578.88	56177.54
579.04	56332.01
579.21	56364.78
579.37	56533.30
579.53	56552.02
579.69	56474.79
579.85	56760.33
580.01	56446.70
580.17	56238.39
580.33	56104.98
580.49	56107.32
580.65	56198.60
580.82	56566.07
580.98	56362.44
581.14	56334.35
581.30	56296.91
581.46	56336.69
581.62	56399.89
581.78	56381.16
581.94	56718.20
582.10	56664.37
582.26	56589.47
582.42	56341.38
582.58	56807.14
582.74	56341.38
582.90	56603.52
583.06	56601.18
583.22	56446.70
583.38	56392.87
583.54	56259.46
583.70	56219.67
583.86	56207.97
584.02	56224.35
584.18	56547.34
584.34	56423.29
584.50	56119.02
584.66	55805.39
584.82	55639.22
584.98	55604.11
585.14	55353.67
