SpectraSuite Data File
++++++++++++++++++++++++++++++++++++
Date: Mon Oct 07 14:53:20 GMT-05:00 2013
User: price-jones
Dark Spectrum Present: No
Reference Spectrum Present: No
Number of Sampled Component Spectra: 1
Spectrometers: USB2+H05261
Integration Time (usec): 100000 (USB2+H05261)
Spectra Averaged: 1 (USB2+H05261)
Boxcar Smoothing: 0 (USB2+H05261)
Correct for Electrical Dark: No (USB2+H05261)
Strobe/Lamp Enabled: No (USB2+H05261)
Correct for Detector Non-linearity: No (USB2+H05261)
Correct for Stray Light: No (USB2+H05261)
Number of Pixels in Processed Spectrum: 2048
>>>>>Begin Processed Spectral Data<<<<<
365.73	0.00
365.92	0.00
366.12	0.00
366.32	0.00
366.52	0.00
366.72	0.00
366.91	0.00
367.11	0.00
367.31	0.00
367.51	0.00
367.70	0.00
367.90	0.00
368.10	0.00
368.30	0.00
368.49	0.00
368.69	0.00
368.89	0.00
369.09	0.00
369.28	0.00
369.48	0.00
369.68	0.00
369.87	0.00
370.07	0.00
370.27	0.00
370.47	1380.92
370.66	6300.72
370.86	7054.37
371.06	7620.78
371.25	7653.55
371.45	7019.27
371.65	6321.79
371.84	6076.03
372.04	6204.76
372.24	6885.86
372.44	7213.53
372.63	7030.97
372.83	6516.05
373.03	5844.32
373.22	5411.32
373.42	5844.32
373.62	6572.22
373.81	6977.14
374.01	6846.07
374.21	6179.01
374.40	5849.00
374.60	6104.12
374.79	7054.37
374.99	7969.52
375.19	8568.70
375.38	8435.29
375.58	8046.76
375.78	8002.29
375.97	7922.71
376.17	8128.68
376.37	8430.61
376.56	8554.66
376.76	9095.32
376.95	9448.74
377.15	10024.51
377.35	10555.82
377.54	10918.60
377.74	11265.00
377.93	11407.77
378.13	10815.62
378.33	10153.24
378.52	9495.55
378.72	9177.24
378.91	8992.34
379.11	8685.73
379.31	8219.96
379.50	8489.12
379.70	9055.53
379.89	10050.26
380.09	10602.63
380.28	10897.53
380.48	10766.46
380.68	10167.29
380.87	10101.75
381.07	9408.95
381.26	8814.46
381.46	8325.29
381.65	7950.80
381.85	7662.91
382.04	7293.11
382.24	6932.67
382.43	6546.48
382.63	6497.33
382.83	6574.56
383.02	6569.88
383.22	6450.52
383.41	6710.32
383.61	7040.33
383.80	8049.10
384.00	9130.43
384.19	9973.02
384.39	10635.39
384.58	10466.88
384.78	10410.70
384.97	10101.75
385.17	9533.00
385.36	9163.20
385.56	8882.33
385.75	9252.14
385.95	10225.80
386.14	10677.52
386.34	10724.33
386.53	10197.71
386.72	9591.52
386.92	9596.20
387.11	10303.04
387.31	10707.95
387.50	10583.90
387.70	10382.62
387.89	10057.28
388.09	10176.65
388.28	10359.21
388.48	10513.69
388.67	11194.78
388.86	12339.30
389.06	13149.13
389.25	13830.23
389.45	13848.95
389.64	13640.64
389.84	13600.85
390.03	13336.37
390.22	13565.74
390.42	14153.22
390.61	14810.91
390.81	15695.63
391.00	16262.04
391.19	15613.71
391.39	15372.64
391.58	14427.06
391.78	13806.82
391.97	12950.18
392.16	11843.11
392.36	10836.68
392.55	8596.79
392.75	7066.08
392.94	5860.70
393.13	5895.81
393.33	7047.35
393.52	9109.36
393.71	11000.52
393.91	12168.45
394.10	13312.97
394.29	14647.07
394.49	15482.64
394.68	16704.40
394.88	17025.06
395.07	16968.88
395.26	17198.26
395.46	16388.43
395.65	15365.62
395.84	13376.16
396.04	11063.71
396.23	9172.56
396.42	7688.66
396.62	7604.40
396.81	9191.28
397.00	11576.29
397.19	14026.83
397.39	16695.04
397.58	19016.85
397.77	19723.69
397.97	21060.14
398.16	21144.40
398.35	21563.36
398.55	22307.65
398.74	23124.49
398.93	23295.35
399.12	22991.08
399.32	21994.01
399.51	22937.25
399.70	24322.85
399.90	23899.21
400.09	23866.44
400.28	23700.26
400.47	23894.53
400.67	24893.94
400.86	25514.18
401.05	25701.42
401.24	25420.56
401.44	26225.70
401.63	25982.29
401.82	26471.46
402.01	26544.02
402.21	26518.27
402.40	26740.62
402.59	25706.10
402.78	24465.62
402.97	24102.84
403.17	25392.47
403.36	26216.34
403.55	27194.68
403.74	27730.67
403.93	26721.90
404.13	24428.17
404.32	24278.38
404.51	25469.71
404.70	27180.64
404.89	27087.02
405.09	26682.11
405.28	25855.90
405.47	25940.16
405.66	25680.36
405.85	24987.56
406.05	24453.92
406.24	24683.29
406.43	26003.35
406.62	26501.89
406.81	27269.58
407.00	25855.90
407.20	25542.27
407.39	25467.37
407.58	26628.27
407.77	27805.56
407.96	28807.31
408.15	28533.47
408.34	28980.51
408.54	29935.45
408.73	29996.31
408.92	29706.08
409.11	28783.91
409.30	27906.21
409.49	25944.84
409.68	24306.46
409.87	23751.76
410.07	25380.77
410.26	27040.21
410.45	28884.55
410.64	29626.50
410.83	30239.72
411.02	30965.29
411.21	32154.28
411.40	31271.90
411.59	31728.30
411.78	31655.75
411.98	31545.74
412.17	32006.83
412.36	31049.55
412.55	31253.17
412.74	30991.03
412.93	29907.37
413.12	30352.07
413.31	33195.82
413.50	33118.58
413.69	33689.67
413.88	32163.64
414.07	31763.41
414.26	32168.32
414.45	33525.83
414.64	33149.01
414.83	33677.97
415.02	32992.19
415.22	32414.08
415.41	33441.57
415.60	34466.73
415.79	35885.09
415.98	36353.20
416.17	36304.05
416.36	35353.79
416.55	34731.21
416.74	34054.79
416.93	32914.95
417.12	32762.82
417.31	33729.46
417.50	33816.06
417.69	34768.66
417.88	34771.00
418.07	34209.27
418.26	33860.53
418.45	34583.76
418.64	35627.63
418.83	36538.10
419.02	36367.24
419.21	35676.79
419.39	34204.59
419.58	33015.60
419.77	32837.72
419.96	34459.71
420.15	36070.00
420.34	37221.54
420.53	37722.41
420.72	39065.88
420.91	38567.35
421.10	37794.97
421.29	37638.15
421.48	36591.94
421.67	38040.73
421.86	37158.34
422.05	34419.92
422.24	31700.22
422.43	31253.17
422.61	34340.34
422.80	36863.44
422.99	37120.90
423.18	35859.35
423.37	34890.37
423.56	35215.70
423.75	35969.35
423.94	36669.17
424.13	34607.16
424.32	34937.18
424.50	34759.30
424.69	34115.65
424.88	34803.77
425.07	34799.08
425.26	34136.71
425.45	34178.84
425.64	33780.95
425.83	33481.36
426.01	35562.10
426.20	36165.96
426.39	35810.20
426.58	33312.84
426.77	30906.77
426.96	30026.73
427.15	31129.12
427.33	33530.51
427.52	34579.07
427.71	34501.84
427.90	34518.22
428.09	34225.65
428.28	33844.15
428.46	32453.87
428.65	31545.74
428.84	32556.85
429.03	32968.79
429.22	31129.12
429.40	29394.79
429.59	26822.54
429.78	23674.52
429.97	24271.36
430.16	24290.08
430.34	24372.00
430.53	24533.50
430.72	25181.82
430.91	28119.20
431.10	32542.81
431.28	38071.15
431.47	40701.92
431.66	41308.11
431.85	37858.17
432.03	34527.58
432.22	33422.85
432.41	34895.05
432.60	38197.54
432.79	39494.20
432.97	40622.34
433.16	39445.05
433.35	36170.64
433.54	32690.26
433.72	31115.08
433.91	32308.76
434.10	36004.46
434.28	38422.23
434.47	40095.72
434.66	39414.62
434.85	38157.75
435.03	37883.91
435.22	38871.62
435.41	41207.47
435.59	41078.74
435.78	41645.15
435.97	42689.03
436.16	42602.43
436.34	41940.06
436.53	41586.64
436.72	41439.18
436.90	39335.04
437.09	39515.26
437.28	38796.72
437.46	40102.74
437.65	39384.19
437.84	37163.03
438.02	34387.15
438.21	34670.36
438.40	36456.18
438.58	39168.87
438.77	40093.38
438.96	40165.93
439.14	41918.99
439.33	42960.53
439.52	43470.77
439.70	42780.31
439.89	41418.12
440.08	40463.18
440.26	40306.37
440.45	42167.09
440.63	44524.01
440.82	46047.70
441.01	45881.52
441.19	45612.36
441.38	46340.27
441.57	47262.44
441.75	47772.67
441.94	47746.93
442.12	47716.50
442.31	48383.55
442.50	48261.85
442.68	47870.98
442.87	47377.12
443.05	46581.34
443.24	47643.94
443.43	48051.20
443.61	48837.62
443.80	49317.43
443.98	46883.27
444.17	47159.45
444.35	49298.70
444.54	49766.81
444.73	49022.52
444.91	47578.41
445.10	46244.30
445.28	44872.75
445.47	44032.50
445.65	44788.49
445.84	45588.95
446.02	47136.05
446.21	46927.74
446.39	47339.68
446.58	48072.26
446.77	47943.53
446.95	48837.62
447.14	50042.99
447.32	50014.91
447.51	49095.08
447.69	47735.23
447.88	47243.71
448.06	48149.50
448.25	48924.22
448.43	49251.89
448.62	48315.68
448.80	48313.34
448.99	48643.35
449.17	48842.30
449.36	49099.76
449.54	50483.01
449.73	50983.89
449.91	51674.35
450.10	51999.68
450.28	52329.70
450.46	52165.86
450.65	52509.92
450.83	52032.45
451.02	51028.36
451.20	51143.05
451.39	50845.80
451.57	50644.51
451.76	51239.01
451.94	50581.32
452.13	49715.32
452.31	48151.84
452.49	46438.57
452.68	46843.48
452.86	47374.78
453.05	47929.49
453.23	48846.98
453.42	49759.79
453.60	49947.03
453.78	50761.54
453.97	50361.31
454.15	50124.91
454.34	49696.59
454.52	50019.59
454.70	48999.12
454.89	49301.04
455.07	49254.23
455.26	50220.87
455.44	51332.63
455.62	51737.54
455.81	52303.95
455.99	51657.96
456.17	51344.33
456.36	51554.98
456.54	52643.33
456.73	52388.21
456.91	52624.60
457.09	53010.79
457.28	53542.10
457.46	52233.74
457.64	52275.87
457.83	50967.51
458.01	50412.80
458.19	51021.34
458.38	51704.77
458.56	52596.52
458.74	51906.06
458.93	51592.43
459.11	51751.59
459.29	51421.57
459.48	51826.48
459.66	51395.82
459.84	52088.62
460.03	52329.70
460.21	52233.74
460.39	52856.32
460.57	53132.50
460.76	53380.60
460.94	53600.61
461.12	52914.83
461.31	52959.30
461.49	53036.54
461.67	53006.11
461.85	53930.62
462.04	53551.46
462.22	54113.19
462.40	53731.68
462.59	53689.55
462.77	53785.51
462.95	53865.09
463.13	53137.18
463.32	53322.08
463.50	52727.59
463.68	52774.40
463.86	52982.71
464.05	52435.02
464.23	51824.14
464.41	51655.62
464.59	51353.69
464.78	52896.11
464.96	52767.38
465.14	52257.14
465.32	53291.66
465.50	54064.03
465.69	54152.97
465.87	53373.58
466.05	52882.06
466.23	51107.94
466.41	50560.25
466.60	51604.13
466.78	51278.80
466.96	51990.32
467.14	52619.92
467.32	53052.92
467.51	52769.72
467.69	51444.98
467.87	52226.71
468.05	52748.65
468.23	52643.33
468.41	52638.65
468.60	52463.11
468.78	53291.66
468.96	52587.16
469.14	53455.50
469.32	53296.34
469.50	51922.44
469.69	52624.60
469.87	51737.54
470.05	51508.17
470.23	51810.10
470.41	51779.67
470.59	52041.81
470.77	52315.65
470.95	53270.59
471.14	53485.92
471.32	53279.96
471.50	54974.50
471.68	55023.65
471.86	55297.50
472.04	55070.46
472.22	55309.20
472.40	53563.16
472.58	53914.24
472.77	53408.68
472.95	53928.28
473.13	54864.50
473.31	54160.00
473.49	54054.67
473.67	54930.03
473.85	54969.82
474.03	55636.87
474.21	55653.26
474.39	55966.89
474.57	55779.65
474.75	55835.82
474.93	55798.37
475.12	55201.53
475.30	55334.95
475.48	55519.85
475.66	55922.42
475.84	55461.33
476.02	55100.89
476.20	54597.68
476.38	55533.89
476.56	56222.01
476.74	56498.19
476.92	56882.04
477.10	57146.52
477.28	57776.12
477.46	57680.16
477.64	57918.90
477.82	58082.73
478.00	58169.33
478.18	57736.34
478.36	57670.80
478.54	57684.84
478.72	58174.02
478.90	58691.27
479.08	59353.65
479.26	59545.57
479.44	59351.30
479.62	59100.87
479.80	59196.83
479.98	59409.82
480.16	59461.31
480.34	59281.09
480.52	59484.72
480.70	59648.55
480.88	59669.62
481.06	60144.75
481.24	60460.72
481.41	61024.79
481.59	61347.78
481.77	60970.96
481.95	60692.43
482.13	60587.11
482.31	60636.26
482.49	61244.80
482.67	61015.43
482.85	61209.69
483.03	61478.85
483.21	61722.27
483.39	61937.60
483.57	61275.22
483.74	61036.49
483.92	61619.28
484.10	61499.92
484.28	62012.49
484.46	62063.99
484.64	62391.66
484.82	61848.66
485.00	61715.25
485.18	61120.75
485.35	60214.96
485.53	58293.38
485.71	55688.37
485.89	55498.78
486.07	57066.94
486.25	59091.51
486.43	60434.97
486.61	60699.45
486.78	60793.07
486.96	61062.24
487.14	61970.36
487.32	62546.14
487.50	63093.82
487.68	63618.10
487.85	63994.93
488.03	63833.43
488.21	63669.59
488.39	63276.38
488.57	62827.00
488.75	62639.76
488.92	63470.65
489.10	64783.69
489.28	65535.00
489.46	65535.00
489.64	65535.00
489.81	65535.00
489.99	65535.00
490.17	65535.00
490.35	65535.00
490.53	65535.00
490.70	65535.00
490.88	65535.00
491.06	65535.00
491.24	65535.00
491.41	65535.00
491.59	64434.95
491.77	63845.13
491.95	64935.82
492.13	65535.00
492.30	65535.00
492.48	65535.00
492.66	65535.00
492.84	65535.00
493.01	65535.00
493.19	65535.00
493.37	65535.00
493.54	65535.00
493.72	65535.00
493.90	65535.00
494.08	65535.00
494.25	65535.00
494.43	65535.00
494.61	65535.00
494.79	65535.00
494.96	65535.00
495.14	65535.00
495.32	65535.00
495.49	65535.00
495.67	65535.00
495.85	65535.00
496.02	65535.00
496.20	65535.00
496.38	65535.00
496.55	65535.00
496.73	65535.00
496.91	65535.00
497.09	65535.00
497.26	65535.00
497.44	65535.00
497.62	65535.00
497.79	65535.00
497.97	65535.00
498.14	65535.00
498.32	65535.00
498.50	65535.00
498.67	65535.00
498.85	65535.00
499.03	65535.00
499.20	65535.00
499.38	65535.00
499.56	65535.00
499.73	65535.00
499.91	65535.00
500.08	65535.00
500.26	65535.00
500.44	65535.00
500.61	65535.00
500.79	65535.00
500.97	65535.00
501.14	65535.00
501.32	65535.00
501.49	65535.00
501.67	65535.00
501.84	65535.00
502.02	65535.00
502.20	65535.00
502.37	65535.00
502.55	65535.00
502.72	65535.00
502.90	65535.00
503.07	65535.00
503.25	65535.00
503.43	65535.00
503.60	65535.00
503.78	65535.00
503.95	65535.00
504.13	65535.00
504.30	65535.00
504.48	65535.00
504.65	65535.00
504.83	65535.00
505.01	65535.00
505.18	65535.00
505.36	65535.00
505.53	65535.00
505.71	65535.00
505.88	65535.00
506.06	65535.00
506.23	65535.00
506.41	65535.00
506.58	65535.00
506.76	65535.00
506.93	65535.00
507.11	65535.00
507.28	65535.00
507.46	65535.00
507.63	65535.00
507.81	65535.00
507.98	65535.00
508.16	65535.00
508.33	65535.00
508.50	65535.00
508.68	65535.00
508.85	65535.00
509.03	65535.00
509.20	65535.00
509.38	65535.00
509.55	65535.00
509.73	65535.00
509.90	65535.00
510.08	65535.00
510.25	65535.00
510.42	65535.00
510.60	65535.00
510.77	65535.00
510.95	65535.00
511.12	65535.00
511.30	65535.00
511.47	65535.00
511.64	65535.00
511.82	65535.00
511.99	65535.00
512.17	65535.00
512.34	65535.00
512.51	65535.00
512.69	65535.00
512.86	65535.00
513.04	65535.00
513.21	65535.00
513.38	65535.00
513.56	65535.00
513.73	65535.00
513.90	65535.00
514.08	65535.00
514.25	65535.00
514.43	65535.00
514.60	65535.00
514.77	65535.00
514.95	65535.00
515.12	65535.00
515.29	65535.00
515.47	65535.00
515.64	65535.00
515.81	65535.00
515.99	65535.00
516.16	65535.00
516.33	65535.00
516.51	65535.00
516.68	65535.00
516.85	65535.00
517.03	65535.00
517.20	65535.00
517.37	65535.00
517.54	65535.00
517.72	65535.00
517.89	65535.00
518.06	65535.00
518.24	65535.00
518.41	65535.00
518.58	65535.00
518.75	65535.00
518.93	65535.00
519.10	65535.00
519.27	65535.00
519.45	65535.00
519.62	65535.00
519.79	65535.00
519.96	65535.00
520.14	65535.00
520.31	65535.00
520.48	65535.00
520.65	65535.00
520.83	65535.00
521.00	65535.00
521.17	65535.00
521.34	65535.00
521.52	65535.00
521.69	65535.00
521.86	65535.00
522.03	65535.00
522.20	65535.00
522.38	65535.00
522.55	65535.00
522.72	65535.00
522.89	65535.00
523.07	65535.00
523.24	65535.00
523.41	65535.00
523.58	65535.00
523.75	65535.00
523.92	65535.00
524.10	65535.00
524.27	65535.00
524.44	65535.00
524.61	65535.00
524.78	65535.00
524.96	65535.00
525.13	65535.00
525.30	65535.00
525.47	65535.00
525.64	65535.00
525.81	65535.00
525.98	65535.00
526.16	65535.00
526.33	65535.00
526.50	65535.00
526.67	65535.00
526.84	65535.00
527.01	65535.00
527.18	65535.00
527.36	65535.00
527.53	65535.00
527.70	65535.00
527.87	65535.00
528.04	65535.00
528.21	65535.00
528.38	65535.00
528.55	65535.00
528.72	65535.00
528.89	65535.00
529.07	65535.00
529.24	65535.00
529.41	65535.00
529.58	65535.00
529.75	65535.00
529.92	65535.00
530.09	65535.00
530.26	65535.00
530.43	65535.00
530.60	65535.00
530.77	65535.00
530.94	65535.00
531.11	65535.00
531.28	65535.00
531.46	65535.00
531.63	65535.00
531.80	65535.00
531.97	65535.00
532.14	65535.00
532.31	65535.00
532.48	65535.00
532.65	65535.00
532.82	65535.00
532.99	65535.00
533.16	65535.00
533.33	65535.00
533.50	65535.00
533.67	65535.00
533.84	65535.00
534.01	65535.00
534.18	65535.00
534.35	65535.00
534.52	65535.00
534.69	65535.00
534.86	65535.00
535.03	65535.00
535.20	65535.00
535.37	65535.00
535.54	65535.00
535.71	65535.00
535.88	65535.00
536.05	65535.00
536.22	65535.00
536.38	65535.00
536.55	65535.00
536.72	65535.00
536.89	65535.00
537.06	65535.00
537.23	65535.00
537.40	65535.00
537.57	65535.00
537.74	65535.00
537.91	65535.00
538.08	65535.00
538.25	65535.00
538.42	65535.00
538.59	65535.00
538.75	65535.00
538.92	65535.00
539.09	65535.00
539.26	65535.00
539.43	65535.00
539.60	65535.00
539.77	65535.00
539.94	65535.00
540.11	65535.00
540.28	65535.00
540.44	65535.00
540.61	65535.00
540.78	65535.00
540.95	65535.00
541.12	65535.00
541.29	65535.00
541.46	65535.00
541.62	65535.00
541.79	65535.00
541.96	65535.00
542.13	65535.00
542.30	65535.00
542.47	65535.00
542.63	65535.00
542.80	65535.00
542.97	65535.00
543.14	65535.00
543.31	65535.00
543.48	65535.00
543.64	65535.00
543.81	65535.00
543.98	65535.00
544.15	65535.00
544.32	65535.00
544.48	65535.00
544.65	65535.00
544.82	65535.00
544.99	65535.00
545.16	65535.00
545.32	65535.00
545.49	65535.00
545.66	65535.00
545.83	65535.00
546.00	65535.00
546.16	65535.00
546.33	65535.00
546.50	65535.00
546.67	65535.00
546.83	65535.00
547.00	65535.00
547.17	65535.00
547.34	65535.00
547.50	65535.00
547.67	65535.00
547.84	65535.00
548.00	65535.00
548.17	65535.00
548.34	65535.00
548.51	65535.00
548.67	65535.00
548.84	65535.00
549.01	65535.00
549.18	65535.00
549.34	65535.00
549.51	65535.00
549.68	65535.00
549.84	65535.00
550.01	65535.00
550.18	65535.00
550.34	65535.00
550.51	65535.00
550.68	65535.00
550.84	65535.00
551.01	65535.00
551.18	65535.00
551.34	65535.00
551.51	65535.00
551.68	65535.00
551.84	65535.00
552.01	65535.00
552.18	65535.00
552.34	65535.00
552.51	65535.00
552.68	65535.00
552.84	65535.00
553.01	65535.00
553.18	65535.00
553.34	65535.00
553.51	65535.00
553.67	65535.00
553.84	65535.00
554.01	65535.00
554.17	65535.00
554.34	65535.00
554.51	65535.00
554.67	65535.00
554.84	65535.00
555.00	65535.00
555.17	65535.00
555.33	65535.00
555.50	65535.00
555.67	65535.00
555.83	65535.00
556.00	65535.00
556.16	65535.00
556.33	65535.00
556.50	65535.00
556.66	65535.00
556.83	65535.00
556.99	65535.00
557.16	65535.00
557.32	65535.00
557.49	65535.00
557.65	65535.00
557.82	65535.00
557.98	65535.00
558.15	65535.00
558.32	65535.00
558.48	65535.00
558.65	65535.00
558.81	65535.00
558.98	65535.00
559.14	65535.00
559.31	65535.00
559.47	65535.00
559.64	65535.00
559.80	65535.00
559.97	65535.00
560.13	65535.00
560.30	65535.00
560.46	65535.00
560.63	65535.00
560.79	65535.00
560.96	65535.00
561.12	65535.00
561.29	65535.00
561.45	65535.00
561.61	65535.00
561.78	65535.00
561.94	65535.00
562.11	65535.00
562.27	65535.00
562.44	65535.00
562.60	65535.00
562.77	65535.00
562.93	65535.00
563.10	65535.00
563.26	65535.00
563.42	65535.00
563.59	65535.00
563.75	65535.00
563.92	65535.00
564.08	65535.00
564.24	65535.00
564.41	65535.00
564.57	65535.00
564.74	65535.00
564.90	65535.00
565.07	65535.00
565.23	65535.00
565.39	65535.00
565.56	65535.00
565.72	65535.00
565.88	65535.00
566.05	65535.00
566.21	65535.00
566.38	65535.00
566.54	65535.00
566.70	65535.00
566.87	65535.00
567.03	65535.00
567.19	65535.00
567.36	65535.00
567.52	65535.00
567.68	65535.00
567.85	65535.00
568.01	65535.00
568.17	65535.00
568.34	65535.00
568.50	65535.00
568.66	65535.00
568.83	65535.00
568.99	65535.00
569.15	65535.00
569.32	65535.00
569.48	65535.00
569.64	65535.00
569.81	65535.00
569.97	65535.00
570.13	65535.00
570.30	65535.00
570.46	65535.00
570.62	65209.67
570.78	65233.07
570.95	65495.21
571.11	65535.00
571.27	65535.00
571.43	65535.00
571.60	65535.00
571.76	65535.00
571.92	65535.00
572.09	65535.00
572.25	65535.00
572.41	65535.00
572.57	65535.00
572.74	65535.00
572.90	65535.00
573.06	65535.00
573.22	65535.00
573.38	65535.00
573.55	65535.00
573.71	65535.00
573.87	65535.00
574.03	65535.00
574.20	65535.00
574.36	65535.00
574.52	65535.00
574.68	65535.00
574.84	65535.00
575.01	65258.82
575.17	65403.93
575.33	65535.00
575.49	65535.00
575.65	65535.00
575.82	65535.00
575.98	65359.46
576.14	65403.93
576.30	65535.00
576.46	65535.00
576.62	65535.00
576.79	65535.00
576.95	65483.51
577.11	65535.00
577.27	65535.00
577.43	65535.00
577.59	65272.86
577.75	65031.78
577.92	64495.80
578.08	64409.20
578.24	64535.59
578.40	64671.34
578.56	64762.62
578.72	64928.80
578.88	65169.88
579.04	65354.78
579.21	65462.44
579.37	65464.78
579.53	65535.00
579.69	65343.08
579.85	65394.57
580.01	65080.94
580.17	64823.48
580.33	64793.05
580.49	64966.25
580.65	65183.92
580.82	65424.99
580.98	65127.75
581.14	65073.91
581.30	65289.24
581.46	65380.52
581.62	65385.21
581.78	65286.90
581.94	65535.00
582.10	65535.00
582.26	65516.28
582.42	65485.85
582.58	65464.78
582.74	65469.46
582.90	65481.17
583.06	65329.03
583.22	65340.74
583.38	65268.18
583.54	65162.85
583.70	65158.17
583.86	65190.94
584.02	65116.04
584.18	65307.97
584.34	65195.62
584.50	64956.89
