SpectraSuite Data File
++++++++++++++++++++++++++++++++++++
Date: Mon Oct 07 14:54:58 GMT-05:00 2013
User: price-jones
Dark Spectrum Present: No
Reference Spectrum Present: No
Number of Sampled Component Spectra: 1
Spectrometers: USB2+H05261
Integration Time (usec): 10000 (USB2+H05261)
Spectra Averaged: 1 (USB2+H05261)
Boxcar Smoothing: 0 (USB2+H05261)
Correct for Electrical Dark: No (USB2+H05261)
Strobe/Lamp Enabled: No (USB2+H05261)
Correct for Detector Non-linearity: No (USB2+H05261)
Correct for Stray Light: No (USB2+H05261)
Number of Pixels in Processed Spectrum: 2048
>>>>>Begin Processed Spectral Data<<<<<
365.73	0.00
365.92	0.00
366.12	0.00
366.32	0.00
366.52	0.00
366.72	0.00
366.91	0.00
367.11	0.00
367.31	0.00
367.51	0.00
367.70	0.00
367.90	0.00
368.10	0.00
368.30	0.00
368.49	0.00
368.69	0.00
368.89	0.00
369.09	0.00
369.28	0.00
369.48	0.00
369.68	0.00
369.87	0.00
370.07	0.00
370.27	0.00
370.47	0.00
370.66	231.71
370.86	306.61
371.06	313.63
371.25	318.31
371.45	351.08
371.65	234.05
371.84	217.67
372.04	208.31
372.24	372.15
372.44	411.93
372.63	374.49
372.83	393.21
373.03	152.13
373.22	248.10
373.42	241.08
373.62	332.36
373.81	353.42
374.01	404.91
374.21	362.78
374.40	283.20
374.60	322.99
374.79	332.36
374.99	400.23
375.19	543.00
375.38	507.90
375.58	425.98
375.78	440.02
375.97	465.77
376.17	498.53
376.37	524.28
376.56	547.69
376.76	571.09
376.95	557.05
377.15	601.52
377.35	648.33
377.54	678.76
377.74	725.57
377.93	716.20
378.13	734.93
378.33	599.18
378.52	517.26
378.72	561.73
378.91	540.66
379.11	533.64
379.31	498.53
379.50	479.81
379.70	533.64
379.89	587.47
380.09	641.31
380.28	638.97
380.48	606.20
380.68	653.01
380.87	697.48
381.07	461.09
381.26	465.77
381.46	472.79
381.65	400.23
381.85	395.55
382.04	353.42
382.24	330.02
382.43	294.91
382.63	318.31
382.83	264.48
383.02	269.16
383.22	297.25
383.41	276.18
383.61	283.20
383.80	456.40
384.00	526.62
384.19	645.99
384.39	669.39
384.58	557.05
384.78	683.44
384.97	543.00
385.17	423.64
385.36	507.90
385.56	479.81
385.75	465.77
385.95	519.60
386.14	695.14
386.34	678.76
386.53	571.09
386.72	512.58
386.92	449.38
387.11	557.05
387.31	645.99
387.50	636.63
387.70	631.94
387.89	631.94
388.09	568.75
388.28	561.73
388.48	606.20
388.67	638.97
388.86	751.31
389.06	849.61
389.25	889.40
389.45	842.59
389.64	875.36
389.84	868.34
390.03	732.59
390.22	835.57
390.42	807.48
390.61	976.00
390.81	1018.13
391.00	1081.33
391.19	1029.84
391.39	959.62
391.58	896.43
391.78	814.51
391.97	800.46
392.16	767.70
392.36	638.97
392.55	482.15
392.75	290.23
392.94	196.60
393.13	229.37
393.33	327.68
393.52	472.79
393.71	599.18
393.91	704.50
394.10	837.91
394.29	854.30
394.49	924.51
394.68	980.68
394.88	1074.31
395.07	1069.62
395.26	1121.12
395.46	1011.11
395.65	983.02
395.84	763.01
396.04	739.61
396.23	461.09
396.42	355.76
396.62	351.08
396.81	479.81
397.00	627.26
397.19	898.77
397.39	1097.71
397.58	1221.76
397.77	1299.00
397.97	1380.92
398.16	1362.19
398.35	1313.04
398.55	1413.68
398.74	1448.79
398.93	1638.38
399.12	1488.58
399.32	1465.18
399.51	1504.96
399.70	1612.63
399.90	1577.52
400.09	1610.29
400.28	1448.79
400.47	1476.88
400.67	1596.25
400.86	1769.44
401.05	1694.55
401.24	1652.42
401.44	1710.93
401.63	1715.61
401.82	1647.74
402.01	1708.59
402.21	1727.32
402.40	1694.55
402.59	1647.74
402.78	1504.96
402.97	1657.10
403.17	1610.29
403.36	1734.34
403.55	1799.87
403.74	1902.86
403.93	1685.19
404.13	1685.19
404.32	1638.38
404.51	1694.55
404.70	1816.26
404.89	1755.40
405.09	1750.72
405.28	1598.59
405.47	1696.89
405.66	1636.03
405.85	1624.33
406.05	1603.27
406.24	1540.07
406.43	1610.29
406.62	1638.38
406.81	1687.53
407.00	1523.69
407.20	1589.22
407.39	1565.82
407.58	1680.50
407.77	1776.47
407.96	1741.36
408.15	1842.00
408.34	1811.57
408.54	1926.26
408.73	1928.60
408.92	1853.70
409.11	1755.40
409.30	1827.96
409.49	1654.76
409.68	1511.99
409.87	1575.18
410.07	1556.46
410.26	1696.89
410.45	1701.57
410.64	1844.34
410.83	1895.83
411.02	1937.96
411.21	2050.31
411.40	2085.42
411.59	1970.73
411.78	2019.88
411.98	2165.00
412.17	2099.46
412.36	1984.77
412.55	2054.99
412.74	1961.37
412.93	1926.26
413.12	1949.67
413.31	2113.50
413.50	2125.21
413.69	2087.76
413.88	2059.67
414.07	2012.86
414.26	2026.90
414.45	2162.66
414.64	2132.23
414.83	2090.10
415.02	2010.52
415.22	2059.67
415.41	2094.78
415.60	2207.13
415.79	2342.88
415.98	2237.55
416.17	2406.07
416.36	2305.43
416.55	2143.93
416.74	2099.46
416.93	2033.93
417.12	2069.03
417.31	2038.61
417.50	2195.42
417.69	2165.00
417.88	2160.31
418.07	2146.27
418.26	2024.56
418.45	2139.25
418.64	2277.34
418.83	2319.47
419.02	2258.62
419.21	2179.04
419.39	2017.54
419.58	1961.37
419.77	2054.99
419.96	2155.63
420.15	2251.60
420.34	2310.11
420.53	2466.92
420.72	2422.45
420.91	2452.88
421.10	2354.58
421.29	2417.77
421.48	2223.51
421.67	2338.20
421.86	2300.75
422.05	2073.71
422.24	2036.27
422.43	1860.73
422.61	2094.78
422.80	2286.70
422.99	2305.43
423.18	2176.70
423.37	2113.50
423.56	2111.16
423.75	2263.30
423.94	2160.31
424.13	2090.10
424.32	2071.37
424.50	2153.29
424.69	2127.55
424.88	2157.97
425.07	2284.36
425.26	2092.44
425.45	2017.54
425.64	1947.33
425.83	2010.52
426.01	2272.66
426.20	2202.44
426.39	2148.61
426.58	2017.54
426.77	1891.15
426.96	1811.57
427.15	1863.07
427.33	1991.80
427.52	2155.63
427.71	2169.68
427.90	2073.71
428.09	2085.42
428.28	2087.76
428.46	1907.54
428.65	1790.51
428.84	1907.54
429.03	2076.06
429.22	1872.43
429.40	1802.21
429.59	1561.14
429.78	1413.68
429.97	1416.02
430.16	1350.49
430.34	1291.98
430.53	1432.41
430.72	1488.58
430.91	1675.82
431.10	1919.24
431.28	2293.72
431.47	2361.60
431.66	2415.43
431.85	2207.13
432.03	2101.80
432.22	1984.77
432.41	2001.16
432.60	2370.96
432.79	2509.05
432.97	2403.73
433.16	2377.98
433.35	2129.89
433.54	1834.98
433.72	1849.02
433.91	1956.69
434.10	2071.37
434.28	2260.96
434.47	2361.60
434.66	2321.81
434.85	2270.32
435.03	2317.13
435.22	2267.98
435.41	2434.16
435.59	2553.52
435.78	2448.20
435.97	2518.42
436.16	2544.16
436.34	2544.16
436.53	2487.99
436.72	2466.92
436.90	2347.56
437.09	2394.37
437.28	2277.34
437.46	2389.69
437.65	2441.18
437.84	2232.87
438.02	1928.60
438.21	2073.71
438.40	2179.04
438.58	2197.76
438.77	2321.81
438.96	2406.07
439.14	2532.46
439.33	2593.31
439.52	2581.61
439.70	2527.78
439.89	2480.97
440.08	2340.54
440.26	2342.88
440.45	2487.99
440.63	2614.38
440.82	2808.64
441.01	2794.60
441.19	2787.58
441.38	2750.13
441.57	2864.82
441.75	2885.88
441.94	2892.90
442.12	3002.91
442.31	2946.73
442.50	2864.82
442.68	2909.29
442.87	2843.75
443.05	2712.68
443.24	2885.88
443.43	2939.71
443.61	3040.36
443.80	2981.84
443.98	2787.58
444.17	2850.77
444.35	3021.63
444.54	3005.25
444.73	3054.40
444.91	2808.64
445.10	2640.12
445.28	2672.89
445.47	2553.52
445.65	2640.12
445.84	2722.04
446.02	2885.88
446.21	2768.85
446.39	2883.54
446.58	2729.06
446.77	2848.43
446.95	2937.37
447.14	2909.29
447.32	3047.38
447.51	2977.16
447.69	2855.45
447.88	2822.69
448.06	2885.88
448.25	2911.63
448.43	2958.44
448.62	2820.35
448.80	2897.58
448.99	2979.50
449.17	3063.76
449.36	2867.16
449.54	3028.65
449.73	3133.98
449.91	3297.81
450.10	3227.60
450.28	3379.73
450.46	3171.43
450.65	3206.53
450.83	3243.98
451.02	3110.57
451.20	3155.04
451.39	3176.11
451.57	3096.53
451.76	3054.40
451.94	3063.76
452.13	3087.17
452.31	2785.24
452.49	2822.69
452.68	2736.09
452.86	2661.19
453.05	2782.90
453.23	2815.66
453.42	2986.52
453.60	2972.48
453.78	3045.04
453.97	2960.78
454.15	2993.55
454.34	2913.97
454.52	2825.03
454.70	2953.76
454.89	3047.38
455.07	2892.90
455.26	2951.42
455.44	3089.51
455.62	3073.12
455.81	3091.85
455.99	3166.74
456.17	3112.91
456.36	3155.04
456.54	3206.53
456.73	3141.00
456.91	3356.33
457.09	3243.98
457.28	3328.24
457.46	3314.20
457.64	3131.64
457.83	3073.12
458.01	2881.20
458.19	3021.63
458.38	3066.10
458.56	3169.09
458.74	3143.34
458.93	3089.51
459.11	3169.09
459.29	3150.36
459.48	3045.04
459.66	2946.73
459.84	3105.89
460.03	3180.79
460.21	3169.09
460.39	3321.22
460.57	3087.17
460.76	3124.62
460.94	3311.86
461.12	3215.90
461.31	3187.81
461.49	3166.74
461.67	3260.37
461.85	3190.15
462.04	3089.51
462.22	3274.41
462.40	3351.65
462.59	3204.19
462.77	3222.92
462.95	3339.94
463.13	3169.09
463.32	3194.83
463.50	3267.39
463.68	3087.17
463.86	3173.77
464.05	3248.66
464.23	2977.16
464.41	3199.51
464.59	3089.51
464.78	3159.72
464.96	3211.22
465.14	3094.19
465.32	3148.02
465.50	3321.22
465.69	3407.82
465.87	3328.24
466.05	3026.31
466.23	3045.04
466.41	2892.90
466.60	2967.80
466.78	3115.25
466.96	3143.34
467.14	3201.85
467.32	3002.91
467.51	3159.72
467.69	2883.54
467.87	3087.17
468.05	3194.83
468.23	3094.19
468.41	3173.77
468.60	3068.44
468.78	3047.38
468.96	3101.21
469.14	3197.17
469.32	3199.51
469.50	3089.51
469.69	3108.23
469.87	3028.65
470.05	2890.56
470.23	2958.44
470.41	3038.02
470.59	3038.02
470.77	3009.93
470.95	3098.87
471.14	3260.37
471.32	3138.66
471.50	3243.98
471.68	3311.86
471.86	3356.33
472.04	3361.01
472.22	3410.16
472.40	3094.19
472.58	3253.34
472.77	3166.74
472.95	3288.45
473.13	3316.54
473.31	3115.25
473.49	3243.98
473.67	3356.33
473.85	3265.05
474.03	3363.35
474.21	3428.88
474.39	3606.77
474.57	3480.38
474.75	3508.46
474.93	3510.80
475.12	3258.03
475.30	3304.84
475.48	3414.84
475.66	3386.76
475.84	3356.33
476.02	3335.26
476.20	3375.05
476.38	3405.48
476.56	3398.46
476.74	3590.38
476.92	3606.77
477.10	3634.85
477.28	3672.30
477.46	3611.45
477.64	3667.62
477.82	3716.77
478.00	3789.33
478.18	3770.60
478.36	3613.79
478.54	3744.86
478.72	3705.07
478.90	3840.82
479.08	3908.69
479.26	3967.21
479.44	3866.56
479.62	3967.21
479.80	3936.78
479.98	3857.20
480.16	3988.27
480.34	3896.99
480.52	3943.80
480.70	3920.40
480.88	3974.23
481.06	4058.49
481.24	4004.66
481.41	4184.88
481.59	4311.27
481.77	4182.54
481.95	4067.85
482.13	4135.73
482.31	4058.49
482.49	4198.92
482.67	4060.83
482.85	4257.43
483.03	4327.65
483.21	4339.35
483.39	4308.93
483.57	4070.19
483.74	4175.52
483.92	4367.44
484.10	4119.34
484.28	4395.53
484.46	4372.12
484.64	4393.19
484.82	4301.90
485.00	4252.75
485.18	4219.99
485.35	4166.15
485.53	3861.88
485.71	3375.05
485.89	3337.60
486.07	3557.61
486.25	3901.67
486.43	4046.79
486.61	4081.89
486.78	4163.81
486.96	4091.26
487.14	4271.48
487.32	4367.44
487.50	4561.70
487.68	4580.43
487.85	4741.93
488.03	4739.58
488.21	4751.29
488.39	4535.96
488.57	4442.34
488.75	4327.65
488.92	4678.73
489.10	4947.89
489.28	5041.51
489.46	5497.92
489.64	5095.35
489.81	5210.03
489.99	5153.86
490.17	5163.22
490.35	5259.18
490.53	5085.98
490.70	4943.21
490.88	5069.60
491.06	5170.24
491.24	5282.59
491.41	4999.38
491.59	4660.01
491.77	4681.07
491.95	4910.44
492.13	5069.60
492.30	5261.52
492.48	5214.71
492.66	5523.66
492.84	5418.34
493.01	5366.85
493.19	5195.99
493.37	5184.29
493.54	5238.12
493.72	5359.83
493.90	5645.37
494.08	5680.48
494.25	5617.29
494.43	5738.99
494.61	5753.04
494.79	5853.68
494.96	5776.44
495.14	5518.98
495.32	5462.81
495.49	5380.89
495.67	5547.07
495.85	5743.67
496.02	5870.06
496.20	5874.74
496.38	5774.10
496.55	5769.42
496.73	5722.61
496.91	5956.66
497.09	5921.56
497.26	5858.36
497.44	6029.22
497.62	5898.15
497.79	5753.04
497.97	5341.10
498.14	5376.21
498.32	5621.97
498.50	5930.92
498.67	5898.15
498.85	5926.24
499.03	5900.49
499.20	5951.98
499.38	6113.48
499.56	5998.79
499.73	5935.60
499.91	5837.30
500.08	5614.95
500.26	5680.48
500.44	5521.32
500.61	5727.29
500.79	5832.62
500.97	5607.92
501.14	5661.76
501.32	5521.32
501.49	5582.18
501.67	5486.22
501.84	5724.95
502.02	5671.12
502.20	5823.25
502.37	5834.96
502.55	5771.76
502.72	6094.76
502.90	5998.79
503.07	6195.40
503.25	5916.87
503.43	5867.72
503.60	5607.92
503.78	5387.91
503.95	5572.82
504.13	5813.89
504.30	6174.33
504.48	6001.13
504.65	5844.32
504.83	6045.60
505.01	6024.54
505.18	6019.86
505.36	6406.05
505.53	6267.95
505.71	6406.05
505.88	6469.24
506.06	6406.05
506.23	6071.35
506.41	6094.76
506.58	6061.99
506.76	6059.65
506.93	6113.48
507.11	5921.56
507.28	5865.38
507.46	6059.65
507.63	5790.49
507.81	5666.44
507.98	5844.32
508.16	5870.06
508.33	6214.12
508.50	6207.10
508.68	6291.36
508.85	6190.72
509.03	6289.02
509.20	6324.13
509.38	6066.67
509.55	5980.07
509.73	5930.92
509.90	6108.80
510.08	6052.63
510.25	6321.79
510.42	5980.07
510.60	5959.00
510.77	6108.80
510.95	6307.74
511.12	6207.10
511.30	6300.72
511.47	6567.54
511.64	6480.94
511.82	6186.04
511.99	5923.90
512.17	6090.07
512.34	5891.13
512.51	5916.87
512.69	5825.59
512.86	6022.20
513.04	6003.47
513.21	6214.12
513.38	6031.56
513.56	5919.21
513.73	5813.89
513.90	5837.30
514.08	5867.72
514.25	6118.16
514.43	5994.11
514.60	5949.64
514.77	5783.46
514.95	6148.59
515.12	5982.41
515.29	6239.87
515.47	6258.59
515.64	6143.91
515.81	6033.90
515.99	5888.79
516.16	5675.80
516.33	5093.01
516.51	5046.20
516.68	4697.46
516.85	4786.40
517.03	4795.76
517.20	5210.03
517.37	5731.97
517.54	6078.37
517.72	5771.76
517.89	5458.13
518.06	4961.94
518.24	4929.17
518.41	5289.61
518.58	5579.84
518.75	5741.33
518.93	5844.32
519.10	5902.83
519.27	5827.93
519.45	5905.17
519.62	6003.47
519.79	6115.82
519.96	6066.67
520.14	5959.00
520.31	5767.08
520.48	5694.52
520.65	5834.96
520.83	6022.20
521.00	6150.93
521.17	6052.63
521.34	5963.68
521.52	6045.60
521.69	6202.42
521.86	6228.17
522.03	6211.78
522.20	5886.45
522.38	5678.14
522.55	5645.37
522.72	5757.72
522.89	5837.30
523.07	5968.37
523.24	6010.50
523.41	6298.38
523.58	6148.59
523.75	6115.82
523.92	6370.94
524.10	6298.38
524.27	6204.76
524.44	6274.98
524.61	6113.48
524.78	6188.38
524.96	6223.48
525.13	6221.14
525.30	6282.00
525.47	6303.06
525.64	6239.87
525.81	5980.07
525.98	5738.99
526.16	5387.91
526.33	5336.42
526.50	5341.10
526.67	5078.96
526.84	5327.06
527.01	5720.27
527.18	5582.18
527.36	5991.77
527.53	5998.79
527.70	6085.39
527.87	5884.11
528.04	5802.19
528.21	6031.56
528.38	6366.26
528.55	6476.26
528.72	6338.17
528.89	6211.78
529.07	6359.24
529.24	6052.63
529.41	6115.82
529.58	5795.17
529.75	5849.00
529.92	5977.73
530.09	6127.52
530.26	6246.89
530.43	6258.59
530.60	6164.97
530.77	6256.25
530.94	6338.17
531.11	6387.32
531.28	6200.08
531.46	6291.36
531.63	6150.93
531.80	6111.14
531.97	5933.26
532.14	5888.79
532.31	5551.75
532.48	5362.17
532.65	5430.04
532.82	5518.98
532.99	5937.94
533.16	5811.55
533.33	6104.12
533.50	5994.11
533.67	5973.05
533.84	5743.67
534.01	5734.31
534.18	5947.30
534.35	5987.09
534.52	5973.05
534.69	5865.38
534.86	6017.52
535.03	6047.94
535.20	6251.57
535.37	6370.94
535.54	6221.14
535.71	6108.80
535.88	6169.65
536.05	5701.54
536.22	5797.51
536.38	5846.66
536.55	5647.71
536.72	5603.24
536.89	5511.96
537.06	5858.36
537.23	6080.71
537.40	6061.99
537.57	5984.75
537.74	5881.77
537.91	5944.96
538.08	5900.49
538.25	5820.91
538.42	6064.33
538.59	5937.94
538.75	5654.73
538.92	5706.23
539.09	5689.84
539.26	5535.37
539.43	5657.07
539.60	5591.54
539.77	5760.06
539.94	5493.24
540.11	5385.57
540.28	5369.19
540.44	5357.49
540.61	5408.98
540.78	5310.68
540.95	5509.62
541.12	5729.63
541.29	5680.48
541.46	5757.72
541.62	5736.65
541.79	5687.50
541.96	5603.24
542.13	5598.56
542.30	5563.45
542.47	5865.38
542.63	5385.57
542.80	5605.58
542.97	5671.12
543.14	5797.51
543.31	5621.97
543.48	5591.54
543.64	5989.43
543.81	5879.43
543.98	5776.44
544.15	5682.82
544.32	5628.99
544.48	5685.16
544.65	5610.26
544.82	5809.21
544.99	5820.91
545.16	5575.16
545.32	5664.10
545.49	5715.59
545.66	5764.74
545.83	5851.34
546.00	5830.27
546.16	5666.44
546.33	5591.54
546.50	5605.58
546.67	5610.26
546.83	5455.79
547.00	5717.93
547.17	5689.84
547.34	5282.59
547.50	5533.03
547.67	5413.66
547.84	5462.81
548.00	5472.17
548.17	5701.54
548.34	5753.04
548.51	5572.82
548.67	5778.78
548.84	5668.78
549.01	5654.73
549.18	5556.43
549.34	5523.66
549.51	5535.37
549.68	5420.68
549.84	5460.47
550.01	5418.34
550.18	5488.56
550.34	5528.35
550.51	5490.90
550.68	5563.45
550.84	5263.86
551.01	5509.62
551.18	5336.42
551.34	5270.89
551.51	5486.22
551.68	5598.56
551.84	5418.34
552.01	5610.26
552.18	5563.45
552.34	5282.59
552.51	5420.68
552.68	5224.08
552.84	5404.30
553.01	5401.96
553.18	5341.10
553.34	5287.27
553.51	5394.93
553.67	5589.20
553.84	5589.20
554.01	5467.49
554.17	5451.11
554.34	5390.25
554.51	5404.30
554.67	5631.33
554.84	5584.52
555.00	5511.96
555.17	5397.28
555.33	5350.46
555.50	5362.17
555.67	5203.01
555.83	5329.40
556.00	5479.19
556.16	5280.25
556.33	5235.78
556.50	5067.26
556.66	5132.79
556.83	5076.62
556.99	5125.77
557.16	5198.33
557.32	5345.78
557.49	5446.43
557.65	5317.70
557.82	5343.44
557.98	5210.03
558.15	5032.15
558.32	5048.54
558.48	4856.61
558.65	4926.83
558.81	4922.15
558.98	5041.51
559.14	5111.73
559.31	5015.77
559.47	4987.68
559.64	4915.12
559.80	4774.69
559.97	4858.95
560.13	4987.68
560.30	5210.03
560.46	5313.02
560.63	5315.36
560.79	5343.44
560.96	5238.12
561.12	4854.27
561.29	4940.87
561.45	4823.84
561.61	5027.47
561.78	5008.75
561.94	5088.32
562.11	5060.24
562.27	4992.36
562.44	4987.68
562.60	5067.26
562.77	5114.07
562.93	5284.93
563.10	5036.83
563.26	4877.68
563.42	5055.56
563.59	4908.10
563.75	4915.12
563.92	4912.78
564.08	4912.78
564.24	4950.23
564.41	5032.15
564.57	4990.02
564.74	4882.36
564.90	4985.34
565.07	4847.25
565.23	4894.06
565.39	4606.17
565.56	4709.16
565.72	4631.92
565.88	4655.33
566.05	4758.31
566.21	4793.42
566.38	4884.70
566.54	4807.46
566.70	4858.95
566.87	5132.79
567.03	4737.24
567.19	4873.00
567.36	4896.40
567.52	4973.64
567.68	4833.21
567.85	4739.58
568.01	4716.18
568.17	4636.60
568.34	4601.49
568.50	4634.26
568.66	4561.70
568.83	4587.45
568.99	4610.86
569.15	4636.60
569.32	4767.67
569.48	4683.41
569.64	4669.37
569.81	4493.83
569.97	4596.81
570.13	4638.94
570.30	4507.87
570.46	4404.89
570.62	4386.16
570.78	4365.10
570.95	4315.95
571.11	4329.99
571.27	4447.02
571.43	4489.15
571.60	4624.90
571.76	4566.39
571.92	4627.24
572.09	4781.71
572.25	4606.17
572.41	4580.43
572.57	4652.98
572.74	4596.81
572.90	4524.26
573.06	4660.01
573.22	4610.86
573.38	4641.28
573.55	4561.70
573.71	4552.34
573.87	4587.45
574.03	4542.98
574.20	4519.57
574.36	4449.36
574.52	4479.79
574.68	4374.46
574.84	4348.72
575.01	4327.65
575.17	4369.78
575.33	4210.62
575.49	4285.52
575.65	4313.61
575.82	4332.33
575.98	4262.12
576.14	4362.76
576.30	4372.12
576.46	4416.59
576.62	4386.16
576.79	4198.92
576.95	4465.74
577.11	4407.23
577.27	4409.57
577.43	4306.59
577.59	4208.28
577.75	4273.82
577.92	4163.81
578.08	4290.20
578.24	4126.36
578.40	4187.22
578.56	4189.56
578.72	4299.56
578.88	4337.01
579.04	4346.37
579.21	4351.06
579.37	4393.19
579.53	4238.71
579.69	4334.67
579.85	4308.93
580.01	4285.52
580.17	4299.56
580.33	4311.27
580.49	4219.99
580.65	4269.14
580.82	4222.33
580.98	4294.88
581.14	4423.61
581.30	4411.91
581.46	4372.12
581.62	4367.44
581.78	4259.78
581.94	4334.67
582.10	4479.79
582.26	4325.31
582.42	4334.67
582.58	4421.27
582.74	4280.84
582.90	4383.82
583.06	4332.33
583.22	4353.40
583.38	4194.24
583.54	4329.99
583.70	4306.59
583.86	4320.63
584.02	4262.12
584.18	4292.54
584.34	4194.24
584.50	4217.65
584.66	4086.58
584.82	4234.03
584.98	4049.13
585.14	4077.21
585.30	3999.98
585.46	3957.85
585.62	3866.56
585.78	4051.47
585.94	4011.68
586.10	4039.76
586.26	3969.55
586.42	4025.72
586.58	4173.18
586.74	4147.43
586.90	4100.62
587.06	4119.34
587.22	4159.13
587.38	4056.15
587.54	3990.61
587.70	4037.42
587.86	3971.89
588.02	3936.78
588.18	3892.31
588.34	3712.09
588.49	3609.11
588.65	3236.96
588.81	3398.46
588.97	3344.63
589.13	3428.88
589.29	3321.22
589.45	3412.50
589.61	3466.33
589.77	3665.28
589.93	3826.78
590.08	3857.20
590.24	3829.12
590.40	3868.91
590.56	3843.16
590.72	3794.01
590.88	3779.97
591.04	3669.96
591.20	3763.58
591.35	3672.30
591.51	3742.52
591.67	3784.65
591.83	3744.86
591.99	3681.66
592.15	3742.52
592.31	3922.74
592.46	3763.58
592.62	3691.02
592.78	3639.53
592.94	3861.88
593.10	3597.40
593.26	3866.56
593.41	3723.79
593.57	3880.61
593.73	3693.37
593.89	3658.26
594.05	3618.47
594.20	3536.55
594.36	3576.34
594.52	3684.00
594.68	3499.10
594.84	3646.55
594.99	3606.77
595.15	3574.00
595.31	3665.28
595.47	3613.79
595.62	3852.52
595.78	3719.11
595.94	3719.11
596.10	3655.92
596.25	3698.05
596.41	3707.41
596.57	3616.13
596.73	3735.50
596.88	3639.53
597.04	3583.36
597.20	3520.17
597.36	3742.52
597.51	3641.87
597.67	3705.07
597.83	3695.71
