SpectraSuite Data File
++++++++++++++++++++++++++++++++++++
Date: Mon Oct 07 14:54:57 GMT-05:00 2013
User: price-jones
Dark Spectrum Present: No
Reference Spectrum Present: No
Number of Sampled Component Spectra: 1
Spectrometers: USB2+H05261
Integration Time (usec): 10000 (USB2+H05261)
Spectra Averaged: 1 (USB2+H05261)
Boxcar Smoothing: 0 (USB2+H05261)
Correct for Electrical Dark: No (USB2+H05261)
Strobe/Lamp Enabled: No (USB2+H05261)
Correct for Detector Non-linearity: No (USB2+H05261)
Correct for Stray Light: No (USB2+H05261)
Number of Pixels in Processed Spectrum: 2048
>>>>>Begin Processed Spectral Data<<<<<
365.73	0.00
365.92	0.00
366.12	0.00
366.32	0.00
366.52	0.00
366.72	0.00
366.91	0.00
367.11	0.00
367.31	0.00
367.51	0.00
367.70	0.00
367.90	0.00
368.10	0.00
368.30	0.00
368.49	0.00
368.69	0.00
368.89	0.00
369.09	0.00
369.28	0.00
369.48	0.00
369.68	0.00
369.87	0.00
370.07	0.00
370.27	0.00
370.47	1093.03
370.66	4664.69
370.86	5469.83
371.06	5706.23
371.25	5771.76
371.45	5195.99
371.65	4533.62
371.84	4489.15
372.04	4758.31
372.24	5385.57
372.44	5474.51
372.63	5383.23
372.83	4786.40
373.03	4322.97
373.22	4191.90
373.42	4475.10
373.62	5123.43
373.81	5369.19
374.01	5203.01
374.21	4835.55
374.40	4540.64
374.60	4641.28
374.79	5497.92
374.99	6359.24
375.19	6619.04
375.38	6651.80
375.58	6260.93
375.78	6125.18
375.97	6314.77
376.17	6462.22
376.37	6707.98
376.56	6752.45
376.76	7136.29
376.95	7667.60
377.15	8222.30
377.35	8297.20
377.54	8840.20
377.74	9029.79
377.93	8861.27
378.13	8601.47
378.33	8128.68
378.52	7648.87
378.72	7192.47
378.91	7396.09
379.11	7087.14
379.31	6768.83
379.50	6867.13
379.70	7321.20
379.89	8159.11
380.09	8767.65
380.28	9013.40
380.48	8901.06
380.68	8528.91
380.87	8564.02
381.07	7644.19
381.26	7155.02
381.46	6878.83
381.65	6752.45
381.85	6392.00
382.04	6015.18
382.24	5689.84
382.43	5401.96
382.63	5277.91
382.83	5313.02
383.02	5479.19
383.22	5533.03
383.41	5516.64
383.61	5944.96
383.80	6899.90
384.00	7665.25
384.19	8669.34
384.39	9046.17
384.58	8943.19
384.78	8685.73
384.97	8774.67
385.17	8416.57
385.36	7983.57
385.56	7552.91
385.75	7873.56
385.95	8898.72
386.14	9537.68
386.34	9219.37
386.53	8711.47
386.72	8273.79
386.92	8547.64
387.11	9034.47
387.31	9270.86
387.50	9137.45
387.70	8887.01
387.89	8863.61
388.09	8905.74
388.28	8868.29
388.48	9067.24
388.67	10047.92
388.86	10860.09
389.06	11538.84
389.25	11992.90
389.45	12056.10
389.64	12423.56
389.84	11889.92
390.03	11772.89
390.22	11875.88
390.42	12545.27
390.61	13240.41
390.81	13855.97
391.00	14270.25
391.19	13958.96
391.39	13476.80
391.58	12697.41
391.78	12116.95
391.97	11660.55
392.16	10794.55
392.36	9523.64
392.55	7576.31
392.75	6155.61
392.94	5013.43
393.13	5249.82
393.33	6298.38
393.52	8236.35
393.71	10010.47
393.91	11119.89
394.10	11988.22
394.29	13195.94
394.49	14033.85
394.68	15260.29
394.88	15255.61
395.07	15653.50
395.26	15449.88
395.46	14843.68
395.65	14017.47
395.84	12182.49
396.04	9998.77
396.23	8339.33
396.42	7009.90
396.62	7056.72
396.81	8383.80
397.00	10768.80
397.19	13521.27
397.39	15733.08
397.58	17425.29
397.77	18434.06
397.97	18902.17
398.16	19520.07
398.35	20252.66
398.55	20879.92
398.74	21621.87
398.93	21736.56
399.12	21385.47
399.32	21046.10
399.51	21818.47
399.70	22817.88
399.90	23157.26
400.09	22525.32
400.28	22401.27
400.47	22808.52
400.67	23896.87
400.86	24397.74
401.05	24304.12
401.24	24519.45
401.44	25160.76
401.63	24931.39
401.82	25144.38
402.01	25076.50
402.21	25432.26
402.40	25308.21
402.59	24662.22
402.78	23372.59
402.97	22829.59
403.17	24217.52
403.36	26026.76
403.55	26654.02
403.74	27138.51
403.93	25226.29
404.13	23491.96
404.32	23590.26
404.51	24472.64
404.70	26375.50
404.89	26096.97
405.09	25577.37
405.28	24919.68
405.47	25214.59
405.66	24737.12
405.85	24217.52
406.05	23552.81
406.24	24212.84
406.43	25708.44
406.62	26033.78
406.81	26087.61
407.00	25371.41
407.20	25097.56
407.39	25034.37
407.58	26103.99
407.77	27381.93
407.96	27927.27
408.15	28318.14
408.34	28561.56
408.54	29902.68
408.73	30096.95
408.92	29357.34
409.11	28299.42
409.30	26878.71
409.49	25315.23
409.68	23646.43
409.87	23213.43
410.07	25223.95
410.26	27702.58
410.45	28694.97
410.64	29359.68
410.83	29851.19
411.02	31599.57
411.21	32402.38
411.40	31775.11
411.59	31894.48
411.78	31585.53
411.98	31433.39
412.17	32158.96
412.36	31723.62
412.55	31201.68
412.74	30298.23
412.93	29928.43
413.12	30782.73
413.31	33369.02
413.50	33549.24
413.69	34143.74
413.88	32315.78
414.07	31573.83
414.26	32921.98
414.45	33556.26
414.64	33666.27
414.83	33778.61
415.02	33354.97
415.22	33357.32
415.41	34244.38
415.60	35585.50
415.79	36989.83
415.98	37364.31
416.17	37027.28
416.36	36329.80
416.55	35704.87
416.74	34314.59
416.93	33549.24
417.12	33488.38
417.31	34192.89
417.50	34511.20
417.69	35496.56
417.88	35461.46
418.07	35431.03
418.26	34745.25
418.45	35826.58
418.64	36163.62
418.83	37839.44
419.02	37258.99
419.21	36769.82
419.39	34834.19
419.58	33394.76
419.77	34211.61
419.96	36573.21
420.15	37991.58
420.34	38911.41
420.53	39564.42
420.72	40737.02
420.91	40072.31
421.10	39920.18
421.29	39229.72
421.48	37881.57
421.67	40137.85
421.86	39133.76
422.05	35971.69
422.24	32037.25
422.43	32966.45
422.61	36884.50
422.80	39269.51
422.99	38328.61
423.18	37043.66
423.37	36615.34
423.56	37383.04
423.75	37755.18
423.94	38534.58
424.13	36624.70
424.32	36701.94
424.50	36432.78
424.69	36257.24
424.88	36538.10
425.07	36058.29
425.26	36039.57
425.45	35931.90
425.64	35093.99
425.83	36364.90
426.01	38220.95
426.20	39311.64
426.39	38368.40
426.58	34911.43
426.77	32484.30
426.96	31999.80
427.15	33523.49
427.33	36140.21
427.52	37436.87
427.71	37640.50
427.90	36858.76
428.09	36631.72
428.28	35983.40
428.46	34602.48
428.65	34211.61
428.84	35398.26
429.03	35606.57
429.22	33930.75
429.40	32144.92
429.59	28386.02
429.78	25511.84
429.97	26075.91
430.16	26377.84
430.34	26274.85
430.53	26759.34
430.72	27555.13
430.91	31227.43
431.10	36400.01
431.28	42064.11
431.47	44091.01
431.66	44456.14
431.85	40521.69
432.03	37205.16
432.22	36521.72
432.41	39077.58
432.60	42183.48
432.79	43709.50
432.97	44161.23
433.16	42859.89
433.35	38607.14
433.54	35215.70
433.72	33647.54
433.91	35622.95
434.10	39707.19
434.28	42096.88
434.47	43681.42
434.66	42541.58
434.85	41907.29
435.03	41273.01
435.22	43246.08
435.41	44821.26
435.59	44706.57
435.78	46012.59
435.97	47100.94
436.16	47239.03
436.34	46167.07
436.53	45258.94
436.72	45223.83
436.90	43548.01
437.09	43260.12
437.28	42955.85
437.46	44556.78
437.65	43580.78
437.84	40603.61
438.02	37537.51
438.21	39019.07
438.40	40474.88
438.58	43503.54
438.77	44531.03
438.96	44851.69
439.14	46447.93
439.33	47356.06
439.52	47643.94
439.70	47145.41
439.89	46358.99
440.08	44828.28
440.26	45294.05
440.45	46700.71
440.63	49397.01
440.82	50529.83
441.01	50075.76
441.19	50061.72
441.38	50901.97
441.57	52472.47
441.75	52053.51
441.94	51950.53
442.12	51498.81
442.31	52905.47
442.50	52598.86
442.68	52388.21
442.87	52023.09
443.05	50827.07
443.24	52332.04
443.43	52865.68
443.61	53294.00
443.80	53172.29
443.98	51842.87
444.17	51608.81
444.35	53607.63
444.54	54124.89
444.73	54164.68
444.91	52659.71
445.10	50513.44
445.28	49832.35
445.47	49038.90
445.65	49738.72
445.84	50504.08
446.02	51714.14
446.21	52025.43
446.39	52610.56
446.58	53326.77
446.77	53759.76
446.95	53808.92
447.14	54344.90
447.32	54485.33
447.51	53741.04
447.69	52767.38
447.88	53024.84
448.06	53205.06
448.25	53670.82
448.43	53675.51
448.62	53694.23
448.80	53354.85
448.99	53626.35
449.17	53900.20
449.36	53626.35
449.54	54562.57
449.73	55276.43
449.91	55517.51
450.10	56837.57
450.28	57085.67
450.46	57162.90
450.65	56676.07
450.83	56189.24
451.02	55667.30
451.20	55636.87
451.39	55561.98
451.57	55484.74
451.76	55611.13
451.94	55421.55
452.13	54471.29
452.31	53195.70
452.49	51859.25
452.68	52732.27
452.86	52919.51
453.05	53298.68
453.23	54075.74
453.42	54986.21
453.60	55192.17
453.78	55519.85
453.97	55178.13
454.15	55161.75
454.34	53769.13
454.52	54546.18
454.70	53553.80
454.89	54344.90
455.07	54639.81
455.26	55260.05
455.44	56112.00
455.62	56877.36
455.81	57059.92
455.99	57144.18
456.17	56189.24
456.36	56341.38
456.54	57106.73
456.73	56982.68
456.91	57762.08
457.09	57776.12
457.28	58424.45
457.46	57045.88
457.64	56355.42
457.83	55716.45
458.01	55524.53
458.19	56952.26
458.38	56853.95
458.56	57680.16
458.74	57139.50
458.93	56612.88
459.11	56741.61
459.29	56570.75
459.48	56903.10
459.66	56395.21
459.84	57001.41
460.03	57106.73
460.21	57434.41
460.39	58220.83
460.57	57928.26
460.76	58302.74
460.94	58578.93
461.12	57914.22
461.31	58134.23
461.49	57455.47
461.67	58131.89
461.85	59110.23
462.04	58258.27
462.22	58188.06
462.40	58815.32
462.59	58852.77
462.77	58784.90
462.95	58592.97
463.13	58621.06
463.32	58117.84
463.50	58548.50
463.68	58398.71
463.86	58504.03
464.05	57726.97
464.23	57282.27
464.41	57095.03
464.59	56853.95
464.78	58323.81
464.96	58164.65
465.14	57602.92
465.32	58803.62
465.50	59341.94
465.69	59245.98
465.87	58557.86
466.05	57717.61
466.23	56247.75
466.41	56229.03
466.60	57446.11
466.78	57511.64
466.96	57682.50
467.14	58124.86
467.32	58356.58
467.51	58279.34
467.69	57315.04
467.87	57544.41
468.05	57928.26
468.23	58136.57
468.41	58230.19
468.60	58248.91
468.78	58871.49
468.96	58223.17
469.14	58731.06
469.32	58801.28
469.50	57563.14
469.69	57705.91
469.87	57291.63
470.05	57521.01
470.23	57425.04
470.41	57476.54
470.59	58480.63
470.77	58497.01
470.95	58583.61
471.14	59016.61
471.32	59414.50
471.50	60217.30
471.68	60355.39
471.86	60722.86
472.04	60821.16
472.22	60762.65
472.40	59503.44
472.58	59440.24
472.77	59643.87
472.95	60121.34
473.13	60523.91
473.31	59522.16
473.49	60231.35
473.67	60231.35
473.85	60470.08
474.03	61319.70
474.21	61200.33
474.39	61546.73
474.57	61717.59
474.75	61642.69
474.93	61645.03
475.12	60617.53
475.30	60767.33
475.48	60905.42
475.66	61556.09
475.84	61076.28
476.02	60853.93
476.20	60289.86
476.38	60952.23
476.56	61542.05
476.74	62482.94
476.92	62349.53
477.10	62684.23
477.28	63571.29
477.46	62869.13
477.64	63622.78
477.82	63849.81
478.00	63978.54
478.18	63545.54
478.36	63112.55
478.54	63014.24
478.72	63192.12
478.90	63962.16
479.08	64762.62
479.26	64984.97
479.44	64839.86
479.62	64486.44
479.80	64650.28
479.98	65043.49
480.16	65207.32
480.34	64844.54
480.52	65090.30
480.70	65326.69
480.88	65254.14
481.06	65535.00
481.24	65535.00
481.41	65535.00
481.59	65535.00
481.77	65535.00
481.95	65535.00
482.13	65535.00
482.31	65535.00
482.49	65535.00
482.67	65535.00
482.85	65535.00
483.03	65535.00
483.21	65535.00
483.39	65535.00
483.57	65535.00
483.74	65535.00
483.92	65535.00
484.10	65535.00
484.28	65535.00
484.46	65535.00
484.64	65535.00
484.82	65535.00
485.00	65535.00
485.18	65535.00
485.35	65535.00
485.53	63751.51
485.71	61436.72
485.89	61729.29
486.07	63325.53
486.25	65436.70
486.43	65535.00
486.61	65535.00
486.78	65535.00
486.96	65535.00
487.14	65535.00
487.32	65535.00
487.50	65535.00
487.68	65535.00
487.85	65535.00
488.03	65535.00
488.21	65535.00
488.39	65535.00
488.57	65535.00
488.75	65535.00
488.92	65535.00
489.10	65535.00
489.28	65535.00
489.46	65535.00
489.64	65535.00
489.81	65535.00
489.99	65535.00
490.17	65535.00
490.35	65535.00
490.53	65535.00
490.70	65535.00
490.88	65535.00
491.06	65535.00
491.24	65535.00
491.41	65535.00
491.59	65535.00
491.77	65535.00
491.95	65535.00
492.13	65535.00
492.30	65535.00
492.48	65535.00
492.66	65535.00
492.84	65535.00
493.01	65535.00
493.19	65535.00
493.37	65535.00
493.54	65535.00
493.72	65535.00
493.90	65535.00
494.08	65535.00
494.25	65535.00
494.43	65535.00
494.61	65535.00
494.79	65535.00
494.96	65535.00
495.14	65535.00
495.32	65535.00
495.49	65535.00
495.67	65535.00
495.85	65535.00
496.02	65535.00
496.20	65535.00
496.38	65535.00
496.55	65535.00
496.73	65535.00
496.91	65535.00
497.09	65535.00
497.26	65535.00
497.44	65535.00
497.62	65535.00
497.79	65535.00
497.97	65535.00
498.14	65535.00
498.32	65535.00
498.50	65535.00
498.67	65535.00
498.85	65535.00
499.03	65535.00
499.20	65535.00
499.38	65535.00
499.56	65535.00
499.73	65535.00
499.91	65535.00
500.08	65535.00
500.26	65535.00
500.44	65535.00
500.61	65535.00
500.79	65535.00
500.97	65535.00
501.14	65535.00
501.32	65535.00
501.49	65535.00
501.67	65535.00
501.84	65535.00
502.02	65535.00
502.20	65535.00
502.37	65535.00
502.55	65535.00
502.72	65535.00
502.90	65535.00
503.07	65535.00
503.25	65535.00
503.43	65535.00
503.60	65535.00
503.78	65535.00
503.95	65535.00
504.13	65535.00
504.30	65535.00
504.48	65535.00
504.65	65535.00
504.83	65535.00
505.01	65535.00
505.18	65535.00
505.36	65535.00
505.53	65535.00
505.71	65535.00
505.88	65535.00
506.06	65535.00
506.23	65535.00
506.41	65535.00
506.58	65535.00
506.76	65535.00
506.93	65535.00
507.11	65535.00
507.28	65535.00
507.46	65535.00
507.63	65535.00
507.81	65535.00
507.98	65535.00
508.16	65535.00
508.33	65535.00
508.50	65535.00
508.68	65535.00
508.85	65535.00
509.03	65535.00
509.20	65535.00
509.38	65535.00
509.55	65535.00
509.73	65535.00
509.90	65535.00
510.08	65535.00
510.25	65535.00
510.42	65535.00
510.60	65535.00
510.77	65535.00
510.95	65535.00
511.12	65535.00
511.30	65535.00
511.47	65535.00
511.64	65535.00
511.82	65535.00
511.99	65535.00
512.17	65535.00
512.34	65535.00
512.51	65535.00
512.69	65535.00
512.86	65535.00
513.04	65535.00
513.21	65535.00
513.38	65535.00
513.56	65535.00
513.73	65535.00
513.90	65535.00
514.08	65535.00
514.25	65535.00
514.43	65535.00
514.60	65535.00
514.77	65535.00
514.95	65535.00
515.12	65535.00
515.29	65535.00
515.47	65535.00
515.64	65535.00
515.81	65535.00
515.99	65535.00
516.16	65535.00
516.33	65535.00
516.51	65535.00
516.68	65535.00
516.85	65535.00
517.03	65535.00
517.20	65535.00
517.37	65535.00
517.54	65535.00
517.72	65535.00
517.89	65535.00
518.06	65535.00
518.24	65535.00
518.41	65535.00
518.58	65535.00
518.75	65535.00
518.93	65535.00
519.10	65535.00
519.27	65535.00
519.45	65535.00
519.62	65535.00
519.79	65535.00
519.96	65535.00
520.14	65535.00
520.31	65535.00
520.48	65535.00
520.65	65535.00
520.83	65535.00
521.00	65535.00
521.17	65535.00
521.34	65535.00
521.52	65535.00
521.69	65535.00
521.86	65535.00
522.03	65535.00
522.20	65535.00
522.38	65535.00
522.55	65535.00
522.72	65535.00
522.89	65535.00
523.07	65535.00
523.24	65535.00
523.41	65535.00
523.58	65535.00
523.75	65535.00
523.92	65535.00
524.10	65535.00
524.27	65535.00
524.44	65535.00
524.61	65535.00
524.78	65535.00
524.96	65535.00
525.13	65535.00
525.30	65535.00
525.47	65535.00
525.64	65535.00
525.81	65535.00
525.98	65535.00
526.16	65535.00
526.33	65535.00
526.50	65535.00
526.67	65535.00
526.84	65535.00
527.01	65535.00
527.18	65535.00
527.36	65535.00
527.53	65535.00
527.70	65535.00
527.87	65535.00
528.04	65535.00
528.21	65535.00
528.38	65535.00
528.55	65535.00
528.72	65535.00
528.89	65535.00
529.07	65535.00
529.24	65535.00
529.41	65535.00
529.58	65535.00
529.75	65535.00
529.92	65535.00
530.09	65535.00
530.26	65535.00
530.43	65535.00
530.60	65535.00
530.77	65535.00
530.94	65535.00
531.11	65535.00
531.28	65535.00
531.46	65535.00
531.63	65535.00
531.80	65535.00
531.97	65535.00
532.14	65535.00
532.31	65535.00
532.48	65535.00
532.65	65535.00
532.82	65535.00
532.99	65535.00
533.16	65535.00
533.33	65535.00
533.50	65535.00
533.67	65535.00
533.84	65535.00
534.01	65535.00
534.18	65535.00
534.35	65535.00
534.52	65535.00
534.69	65535.00
534.86	65535.00
535.03	65535.00
535.20	65535.00
535.37	65535.00
535.54	65535.00
535.71	65535.00
535.88	65535.00
536.05	65535.00
536.22	65535.00
536.38	65535.00
536.55	65535.00
536.72	65535.00
536.89	65535.00
537.06	65535.00
537.23	65535.00
537.40	65535.00
537.57	65535.00
537.74	65535.00
537.91	65535.00
538.08	65535.00
538.25	65535.00
538.42	65535.00
538.59	65535.00
538.75	65535.00
538.92	65535.00
539.09	65535.00
539.26	65535.00
539.43	65535.00
539.60	65535.00
539.77	65535.00
539.94	65535.00
540.11	65535.00
540.28	65535.00
540.44	65535.00
540.61	65535.00
540.78	65535.00
540.95	65535.00
541.12	65535.00
541.29	65535.00
541.46	65535.00
541.62	65535.00
541.79	65535.00
541.96	65535.00
542.13	65535.00
542.30	65535.00
542.47	65535.00
542.63	65535.00
542.80	65535.00
542.97	65535.00
543.14	65535.00
543.31	65535.00
543.48	65535.00
543.64	65535.00
543.81	65535.00
543.98	65535.00
544.15	65535.00
544.32	65535.00
544.48	65535.00
544.65	65535.00
544.82	65535.00
544.99	65535.00
545.16	65535.00
545.32	65535.00
545.49	65535.00
545.66	65535.00
545.83	65535.00
546.00	65535.00
546.16	65535.00
546.33	65535.00
546.50	65535.00
546.67	65535.00
546.83	65535.00
547.00	65535.00
547.17	65535.00
547.34	65535.00
547.50	65535.00
547.67	65535.00
547.84	65535.00
548.00	65535.00
548.17	65535.00
548.34	65535.00
548.51	65535.00
548.67	65535.00
548.84	65535.00
549.01	65535.00
549.18	65535.00
549.34	65535.00
549.51	65535.00
549.68	65535.00
549.84	65535.00
550.01	65535.00
550.18	65535.00
550.34	65535.00
550.51	65535.00
550.68	65535.00
550.84	65535.00
551.01	65535.00
551.18	65535.00
551.34	65535.00
551.51	65535.00
551.68	65535.00
551.84	65535.00
552.01	65535.00
552.18	65535.00
552.34	65535.00
552.51	65535.00
552.68	65535.00
552.84	65535.00
553.01	65535.00
553.18	65535.00
553.34	65535.00
553.51	65535.00
553.67	65535.00
553.84	65535.00
554.01	65535.00
554.17	65535.00
554.34	65535.00
554.51	65535.00
554.67	65535.00
554.84	65535.00
555.00	65535.00
555.17	65535.00
555.33	65535.00
555.50	65535.00
555.67	65535.00
555.83	65535.00
556.00	65535.00
556.16	65535.00
556.33	65535.00
556.50	65535.00
556.66	65535.00
556.83	65535.00
556.99	65535.00
557.16	65535.00
557.32	65535.00
557.49	65535.00
557.65	65535.00
557.82	65535.00
557.98	65535.00
558.15	65535.00
558.32	65535.00
558.48	65535.00
558.65	65535.00
558.81	65535.00
558.98	65535.00
559.14	65535.00
559.31	65535.00
559.47	65535.00
559.64	65535.00
559.80	65535.00
559.97	65535.00
560.13	65535.00
560.30	65535.00
560.46	65535.00
560.63	65535.00
560.79	65535.00
560.96	65535.00
561.12	65535.00
561.29	65535.00
561.45	65535.00
561.61	65535.00
561.78	65535.00
561.94	65535.00
562.11	65535.00
562.27	65535.00
562.44	65535.00
562.60	65535.00
562.77	65535.00
562.93	65535.00
563.10	65535.00
563.26	65535.00
563.42	65535.00
563.59	65535.00
563.75	65535.00
563.92	65535.00
564.08	65535.00
564.24	65535.00
564.41	65535.00
564.57	65535.00
564.74	65535.00
564.90	65535.00
565.07	65535.00
565.23	65535.00
565.39	65535.00
565.56	65535.00
565.72	65535.00
565.88	65535.00
566.05	65535.00
566.21	65535.00
566.38	65535.00
566.54	65535.00
566.70	65535.00
566.87	65535.00
567.03	65535.00
567.19	65535.00
567.36	65535.00
567.52	65535.00
567.68	65535.00
567.85	65535.00
568.01	65535.00
568.17	65535.00
568.34	65535.00
568.50	65535.00
568.66	65535.00
568.83	65535.00
568.99	65535.00
569.15	65535.00
569.32	65535.00
569.48	65535.00
569.64	65535.00
569.81	65535.00
569.97	65535.00
570.13	65535.00
570.30	65535.00
570.46	65535.00
570.62	65535.00
570.78	65535.00
570.95	65535.00
571.11	65535.00
571.27	65535.00
571.43	65535.00
571.60	65535.00
571.76	65535.00
571.92	65535.00
572.09	65535.00
572.25	65535.00
572.41	65535.00
572.57	65535.00
572.74	65535.00
572.90	65535.00
573.06	65535.00
573.22	65535.00
573.38	65535.00
573.55	65535.00
573.71	65535.00
573.87	65535.00
574.03	65535.00
574.20	65535.00
574.36	65535.00
574.52	65535.00
574.68	65535.00
574.84	65535.00
575.01	65535.00
575.17	65535.00
575.33	65535.00
575.49	65535.00
575.65	65535.00
575.82	65535.00
575.98	65535.00
576.14	65535.00
576.30	65535.00
576.46	65535.00
576.62	65535.00
576.79	65535.00
576.95	65535.00
577.11	65535.00
577.27	65535.00
577.43	65535.00
577.59	65535.00
577.75	65535.00
577.92	65535.00
578.08	65535.00
578.24	65535.00
578.40	65535.00
578.56	65535.00
578.72	65535.00
578.88	65535.00
579.04	65535.00
579.21	65535.00
579.37	65535.00
579.53	65535.00
579.69	65535.00
579.85	65535.00
580.01	65535.00
580.17	65535.00
580.33	65535.00
580.49	65535.00
580.65	65535.00
580.82	65535.00
580.98	65535.00
581.14	65535.00
581.30	65535.00
581.46	65535.00
581.62	65535.00
581.78	65535.00
581.94	65535.00
582.10	65535.00
582.26	65535.00
582.42	65535.00
582.58	65535.00
582.74	65535.00
582.90	65535.00
583.06	65535.00
583.22	65535.00
583.38	65535.00
583.54	65535.00
583.70	65535.00
583.86	65535.00
584.02	65535.00
584.18	65535.00
584.34	65535.00
584.50	65535.00
584.66	65535.00
584.82	65535.00
