SpectraSuite Data File
++++++++++++++++++++++++++++++++++++
Date: Mon Oct 07 14:53:43 GMT-05:00 2013
User: price-jones
Dark Spectrum Present: No
Reference Spectrum Present: No
Number of Sampled Component Spectra: 1
Spectrometers: USB2+H05261
Integration Time (usec): 100000 (USB2+H05261)
Spectra Averaged: 1 (USB2+H05261)
Boxcar Smoothing: 0 (USB2+H05261)
Correct for Electrical Dark: No (USB2+H05261)
Strobe/Lamp Enabled: No (USB2+H05261)
Correct for Detector Non-linearity: No (USB2+H05261)
Correct for Stray Light: No (USB2+H05261)
Number of Pixels in Processed Spectrum: 2048
>>>>>Begin Processed Spectral Data<<<<<
365.73	0.00
365.92	0.00
366.12	0.00
366.32	0.00
366.52	0.00
366.72	0.00
366.91	0.00
367.11	0.00
367.31	0.00
367.51	0.00
367.70	0.00
367.90	0.00
368.10	0.00
368.30	0.00
368.49	0.00
368.69	0.00
368.89	0.00
369.09	0.00
369.28	0.00
369.48	0.00
369.68	0.00
369.87	0.00
370.07	0.00
370.27	0.00
370.47	772.38
370.66	3351.65
370.86	4002.32
371.06	4592.13
371.25	4730.22
371.45	4091.26
371.65	3681.66
371.84	3332.92
372.04	3609.11
372.24	4028.06
372.44	4166.15
372.63	4231.69
372.83	3950.82
373.03	3492.08
373.22	3133.98
373.42	3424.20
373.62	3864.22
373.81	4231.69
374.01	4215.30
374.21	3798.69
374.40	3475.70
374.60	3604.42
374.79	4117.00
374.99	4821.50
375.19	5270.89
375.38	5097.69
375.58	4802.78
375.78	4851.93
375.97	4903.42
376.17	4964.28
376.37	4858.95
376.56	5254.50
376.76	5427.70
376.95	5746.02
377.15	6193.06
377.35	6356.90
377.54	6712.66
377.74	6808.62
377.93	6878.83
378.13	6752.45
378.33	6363.92
378.52	5839.64
378.72	5593.88
378.91	5526.00
379.11	5266.21
379.31	5039.17
379.50	5029.81
379.70	5591.54
379.89	6092.41
380.09	6413.07
380.28	6726.70
380.48	6689.25
380.68	6410.73
380.87	6504.35
381.07	6108.80
381.26	5523.66
381.46	5123.43
381.65	5144.50
381.85	5071.94
382.04	4760.65
382.24	4421.27
382.43	4194.24
382.63	4093.60
382.83	4049.13
383.02	3983.59
383.22	3971.89
383.41	4021.04
383.61	4465.74
383.80	4968.96
384.00	5621.97
384.19	6284.34
384.39	6759.47
384.58	6621.38
384.78	6548.82
384.97	6431.79
385.17	6078.37
385.36	5984.75
385.56	5680.48
385.75	5893.47
385.95	6244.55
386.14	7082.46
386.34	6937.35
386.53	6490.31
386.72	6251.57
386.92	6314.77
387.11	6516.05
387.31	6801.60
387.50	6794.58
387.70	6647.12
387.89	6534.78
388.09	6450.52
388.28	6478.60
388.48	6832.02
388.67	7304.81
388.86	7847.82
389.06	8514.87
389.25	9114.05
389.45	8844.88
389.64	9064.89
389.84	8922.12
390.03	8863.61
390.22	8760.63
390.42	8875.31
390.61	9626.62
390.81	10146.22
391.00	10431.77
391.19	10342.83
391.39	10083.03
391.58	9179.58
391.78	9022.77
391.97	8535.93
392.16	8168.47
392.36	7393.75
392.55	5954.32
392.75	4727.88
392.94	3779.97
393.13	3772.94
393.33	4489.15
393.52	5813.89
393.71	6960.75
393.91	7946.12
394.10	8554.66
394.29	9322.35
394.49	10026.86
394.68	10677.52
394.88	10998.18
395.07	11269.68
395.26	11164.36
395.46	10799.23
395.65	10267.93
395.84	8982.98
396.04	7726.11
396.23	6176.67
396.42	5064.92
396.62	5055.56
396.81	5809.21
397.00	7321.20
397.19	9188.94
397.39	11183.08
397.58	12484.42
397.77	13137.43
397.97	13647.66
398.16	13879.38
398.35	14361.53
398.55	14413.02
398.74	15356.25
398.93	15534.14
399.12	15562.22
399.32	14810.91
399.51	15176.03
399.70	15948.41
399.90	15939.05
400.09	16123.95
400.28	15824.36
400.47	15833.72
400.67	16868.24
400.86	17305.92
401.05	17240.39
401.24	17083.57
401.44	17645.30
401.63	17680.41
401.82	17584.44
402.01	17720.20
402.21	17724.88
402.40	18239.79
402.59	17334.01
402.78	16676.32
402.97	16149.70
403.17	17060.16
403.36	17767.01
403.55	18300.65
403.74	18794.50
403.93	17809.14
404.13	16662.27
404.32	16353.32
404.51	16882.28
404.70	18232.77
404.89	18377.89
405.09	18010.42
405.28	17544.66
405.47	17619.55
405.66	17591.47
405.85	17069.53
406.05	16566.31
406.24	16585.04
406.43	17488.48
406.62	18506.62
406.81	18263.20
407.00	17675.73
407.20	17586.79
407.39	17102.29
407.58	18064.25
407.77	18944.30
407.96	19491.98
408.15	19744.76
408.34	19960.09
408.54	20540.54
408.73	21095.25
408.92	20428.20
409.11	20063.07
409.30	18902.17
409.49	18040.85
409.68	16826.11
409.87	16039.69
410.07	16982.93
410.26	18396.61
410.45	19606.67
410.64	19859.45
410.83	20575.65
411.02	21254.40
411.21	22272.54
411.40	21708.47
411.59	21802.09
411.78	22038.48
411.98	21568.04
412.17	21867.63
412.36	21497.82
412.55	21664.00
412.74	21294.19
412.93	20786.30
413.12	20641.18
413.31	22750.01
413.50	22993.42
413.69	23541.11
413.88	22623.62
414.07	21415.90
414.26	22398.93
414.45	22497.23
414.64	23194.71
414.83	23047.26
415.02	22572.13
415.22	22265.52
415.41	23246.20
415.60	23641.75
415.79	24800.32
415.98	25099.90
416.17	25586.74
416.36	24849.47
416.55	24617.75
416.74	23370.25
416.93	22705.54
417.12	22794.48
417.31	23080.02
417.50	23676.86
417.69	24201.14
417.88	23971.77
418.07	24044.32
418.26	23599.62
418.45	23967.09
418.64	24465.62
418.83	25757.60
419.02	25385.45
419.21	24926.71
419.39	23749.42
419.58	22663.41
419.77	22787.46
419.96	23536.43
420.15	24812.02
420.34	25694.40
420.53	26618.91
420.72	27503.64
420.91	26881.05
421.10	26529.97
421.29	26438.69
421.48	25406.52
421.67	26780.41
421.86	26178.89
422.05	24287.74
422.24	21862.94
422.43	21336.32
422.61	23761.12
422.80	26061.87
422.99	26143.78
423.18	25200.55
423.37	24418.81
423.56	24362.64
423.75	24805.00
423.94	25245.02
424.13	23920.28
424.32	23875.80
424.50	24388.38
424.69	23910.91
424.88	24308.80
425.07	24034.96
425.26	24159.01
425.45	23765.80
425.64	23438.12
425.83	23187.69
426.01	24706.70
426.20	25556.31
426.39	25570.35
426.58	23442.81
426.77	21481.44
426.96	20847.15
427.15	21762.30
427.33	23271.95
427.52	24238.59
427.71	24430.51
427.90	24187.10
428.09	23821.97
428.28	23400.68
428.46	22647.02
428.65	22602.55
428.84	22817.88
429.03	23424.08
429.22	21745.92
429.40	21235.68
429.59	19023.87
429.78	16755.90
429.97	16858.88
430.16	16854.20
430.34	17240.39
430.53	17270.81
430.72	17245.07
430.91	19070.68
431.10	22492.55
431.28	26429.33
431.47	28999.24
431.66	29359.68
431.85	26859.99
432.03	24489.03
432.22	23295.35
432.41	23997.51
432.60	26883.39
432.79	28018.55
432.97	28741.78
433.16	28037.28
433.35	25570.35
433.54	23063.64
433.72	21755.28
433.91	22223.39
434.10	24645.84
434.28	27077.66
434.47	28044.30
434.66	27505.98
434.85	27115.11
435.03	26586.15
435.22	27653.43
435.41	29158.39
435.59	29319.89
435.78	29413.51
435.97	30663.36
436.16	30555.69
436.34	30059.50
436.53	29577.35
436.72	29427.56
436.90	28198.77
437.09	27953.02
437.28	27527.04
437.46	28507.72
437.65	28631.77
437.84	26609.55
438.02	24355.61
438.21	23988.15
438.40	25200.55
438.58	27641.73
438.77	28381.34
438.96	28505.38
439.14	29982.26
439.33	30555.69
439.52	31316.37
439.70	30373.13
439.89	29652.25
440.08	28531.13
440.26	28767.52
440.45	29436.92
440.63	31519.99
440.82	33198.16
441.01	32936.02
441.19	32678.56
441.38	33036.66
441.57	33902.66
441.75	34813.13
441.94	34902.07
442.12	34476.09
442.31	35325.71
442.50	35189.95
442.68	34974.63
442.87	34623.54
443.05	33638.18
443.24	34518.22
443.43	34890.37
443.61	35723.60
443.80	36065.31
443.98	33809.04
444.17	34204.59
444.35	36528.74
444.54	36484.27
444.73	35976.37
444.91	34653.97
445.10	33574.98
445.28	31833.63
445.47	31622.98
445.65	31658.09
445.84	32814.31
446.02	33706.05
446.21	34604.82
446.39	34703.12
446.58	34726.53
446.77	35534.01
446.95	35566.78
447.14	36563.85
447.32	37329.20
447.51	36416.40
447.69	35143.14
447.88	34909.09
448.06	34714.83
448.25	35887.43
448.43	36484.27
448.62	35629.98
448.80	35248.47
448.99	35934.24
449.17	35878.07
449.36	35725.94
449.54	37060.04
449.73	37558.58
449.91	37790.29
450.10	39026.09
450.28	39498.88
450.46	39208.65
450.65	39552.71
450.83	39370.15
451.02	37944.76
451.20	38447.98
451.39	38256.06
451.57	37879.23
451.76	37736.46
451.94	37715.39
452.13	37249.63
452.31	35374.86
452.49	33862.87
452.68	34333.32
452.86	34312.25
453.05	34368.43
453.23	35498.91
453.42	36341.50
453.60	37273.03
453.78	38153.07
453.97	37216.86
454.15	37509.43
454.34	36617.68
454.52	36793.22
454.70	35718.92
454.89	36652.79
455.07	36748.75
455.26	36837.69
455.44	38326.27
455.62	39454.41
455.81	38859.91
455.99	39143.12
456.17	38583.73
456.36	38553.30
456.54	39477.82
456.73	39426.32
456.91	40463.18
457.09	40563.82
457.28	41661.54
457.46	39442.71
457.64	39438.03
457.83	38213.93
458.01	37343.25
458.19	38490.11
458.38	38981.62
458.56	39971.67
458.74	40191.68
458.93	38927.79
459.11	38473.73
459.29	38525.22
459.48	38906.73
459.66	38850.55
459.84	39681.44
460.03	39548.03
460.21	39592.50
460.39	40561.48
460.57	40692.55
460.76	40924.27
460.94	41247.26
461.12	40350.84
461.31	40535.74
461.49	40622.34
461.67	40669.15
461.85	41722.39
462.04	41879.21
462.22	41523.44
462.40	41488.34
462.59	41708.35
462.77	41486.00
462.95	41368.97
463.13	41167.68
463.32	40594.25
463.50	40612.98
463.68	40252.53
463.86	40465.52
464.05	40327.43
464.23	39646.33
464.41	39398.24
464.59	38099.24
464.78	40233.81
464.96	40217.43
465.14	39555.05
465.32	40748.73
465.50	41610.04
465.69	42293.48
465.87	41490.68
466.05	40076.99
466.23	38504.15
466.41	37628.79
466.60	38721.82
466.78	38923.11
466.96	39491.86
467.14	40037.20
467.32	40903.20
467.51	40858.73
467.69	38972.26
467.87	39777.40
468.05	40112.10
468.23	40053.59
468.41	40320.41
468.60	40584.89
468.78	40828.30
468.96	40142.53
469.14	41235.56
469.32	41415.78
469.50	39283.55
469.69	39917.84
469.87	39737.62
470.05	38979.28
470.23	39124.40
470.41	39262.49
470.59	39641.65
470.77	40327.43
470.95	40835.33
471.14	41345.56
471.32	41188.75
471.50	43337.36
471.68	43426.30
471.86	43632.27
472.04	44292.30
472.22	44465.50
472.40	42412.85
472.58	41588.98
472.77	41413.44
472.95	42160.07
473.13	43096.28
473.31	42122.62
473.49	42476.04
473.67	42997.98
473.85	43548.01
474.03	44556.78
474.21	43995.05
474.39	44865.73
474.57	44992.12
474.75	45074.04
474.93	44823.60
475.12	43449.70
475.30	44353.15
475.48	44128.46
475.66	44713.59
475.84	44296.98
476.02	43557.37
476.20	43267.14
476.38	43845.26
476.56	45146.59
476.74	45755.13
476.92	46211.54
477.10	46525.17
477.28	47545.64
477.46	47555.00
477.64	47789.06
477.82	47938.85
478.00	48250.14
478.18	48018.43
478.36	47356.06
478.54	47629.90
478.72	47760.97
478.90	49017.84
479.08	49762.13
479.26	50473.65
479.44	50143.64
479.62	49752.77
479.80	49504.67
479.98	49937.67
480.16	50328.54
480.34	50204.49
480.52	50075.76
480.70	50291.09
480.88	50670.26
481.06	51250.71
481.24	51454.34
481.41	52079.26
481.59	52715.89
481.77	52509.92
481.95	51964.57
482.13	51686.05
482.31	51964.57
482.49	52498.22
482.67	52313.31
482.85	52575.45
483.03	52842.27
483.21	53198.04
483.39	53059.94
483.57	52708.86
483.74	52474.81
483.92	52453.75
484.10	52788.44
484.28	53619.33
484.46	53670.82
484.64	54134.25
484.82	53382.94
485.00	53298.68
485.18	52423.32
485.35	51536.26
485.53	48811.87
485.71	45331.50
485.89	44114.42
486.07	46370.69
486.25	49769.15
486.43	51849.89
486.61	52617.58
486.78	52182.24
486.96	52402.25
487.14	53717.64
487.32	54511.08
487.50	55402.82
487.68	55781.99
487.85	56186.90
488.03	56273.50
488.21	55807.73
488.39	55594.74
488.57	54906.63
488.75	54557.89
488.92	55224.94
489.10	57048.22
489.28	58143.59
489.46	58595.31
489.64	58515.73
489.81	58721.70
489.99	58408.07
490.17	58646.80
490.35	58749.79
490.53	58396.37
490.70	57982.09
490.88	58071.03
491.06	58710.00
491.24	58773.19
491.41	58159.97
491.59	56547.34
491.77	55835.82
491.95	56917.15
492.13	58038.26
492.30	58944.05
492.48	59646.21
492.66	60151.77
492.84	59994.95
493.01	59674.30
493.19	59386.41
493.37	59011.93
493.54	58674.89
493.72	59355.99
493.90	60505.19
494.08	60783.71
494.25	61085.64
494.43	61223.73
494.61	61488.21
494.79	61553.75
494.96	61516.30
495.14	60893.72
495.32	60182.19
495.49	59601.74
495.67	60427.95
495.85	61684.82
496.02	62005.47
496.20	61996.11
496.38	61553.75
496.55	61371.19
496.73	61804.19
496.91	61724.61
497.09	62506.35
497.26	62504.01
497.44	62082.71
497.62	61865.04
497.79	61013.08
497.97	59882.61
498.14	59938.78
498.32	60928.83
498.50	61677.80
498.67	62372.94
498.85	62267.61
499.03	62342.51
499.20	62583.58
499.38	62576.56
499.56	62405.70
499.73	62127.18
499.91	61750.35
500.08	61336.08
500.26	60460.72
500.44	60924.14
500.61	61469.49
500.79	61387.57
500.97	61015.43
501.14	61137.13
501.32	60870.31
501.49	60867.97
501.67	61111.39
501.84	61581.84
502.02	61684.82
502.20	62010.15
502.37	62183.35
502.55	61965.68
502.72	62667.84
502.90	63051.69
503.07	62899.56
503.25	62532.09
503.43	61748.01
503.60	61200.33
503.78	60563.70
503.95	61134.79
504.13	62305.06
504.30	63157.02
504.48	62937.01
504.65	62429.11
504.83	62391.66
505.01	62988.50
505.18	63332.56
505.36	63934.07
505.53	63929.39
505.71	64051.10
505.88	64037.06
506.06	63627.46
506.23	63260.00
506.41	63107.86
506.58	63213.19
506.76	63072.76
506.93	63278.72
507.11	62925.30
507.28	62988.50
507.46	62571.88
507.63	62012.49
507.81	62035.90
507.98	62049.94
508.16	62695.93
508.33	63346.60
508.50	63655.55
508.68	63711.72
508.85	64193.87
509.03	64128.34
509.20	64015.99
509.38	63451.92
509.55	62787.21
509.73	62883.17
509.90	63421.50
510.08	63472.99
510.25	63519.80
510.42	63407.45
510.60	63370.00
510.77	63540.86
510.95	64044.08
511.12	64051.10
511.30	64310.90
511.47	64526.23
511.64	64570.70
511.82	64336.65
511.99	63552.57
512.17	63192.12
512.34	62857.43
512.51	63061.05
512.69	63098.50
512.86	63330.22
513.04	63599.38
513.21	63688.32
513.38	63281.06
513.56	62721.68
513.73	62314.42
513.90	62592.95
514.08	62546.14
514.25	62864.45
514.43	63178.08
514.60	63049.35
514.77	63224.89
514.95	63243.62
515.12	63334.90
515.29	63508.10
515.47	63889.60
515.64	64186.85
515.81	63725.77
515.99	63201.49
516.16	62045.26
516.33	60062.83
516.51	58852.77
516.68	58159.97
516.85	57914.22
517.03	58178.70
517.20	60292.20
517.37	62532.09
517.54	63421.50
517.72	62944.03
517.89	60891.38
518.06	58810.64
518.24	58775.53
518.41	60914.78
518.58	62103.77
518.75	62298.04
518.93	62553.16
519.10	62260.59
519.27	62745.08
519.45	62934.66
519.62	63531.50
519.79	63898.97
519.96	63803.00
520.14	63487.03
520.31	62529.75
520.48	62464.22
520.65	62871.47
520.83	63751.51
521.00	64090.89
521.17	63650.87
521.34	63423.84
521.52	63613.42
521.69	64175.15
521.86	64640.92
522.03	64217.28
522.20	63105.52
522.38	62309.74
522.55	62291.02
522.72	62714.65
522.89	62953.39
523.07	63147.65
523.24	63428.52
523.41	64184.51
523.58	64292.18
523.75	64823.48
523.92	64769.64
524.10	64474.74
524.27	64577.72
524.44	64369.41
524.61	64275.79
524.78	64123.66
524.96	63950.46
525.13	64109.61
525.30	64126.00
525.47	64638.57
525.64	64570.70
525.81	64018.33
525.98	62639.76
526.16	61544.39
526.33	60823.50
526.50	60554.34
526.67	60313.26
526.84	60774.35
527.01	61614.60
527.18	62232.50
527.36	63018.92
527.53	63929.39
527.70	64189.19
527.87	63636.83
528.04	63175.74
528.21	63810.03
528.38	64142.38
528.55	64708.79
528.72	65123.07
528.89	65078.60
529.07	64963.91
529.24	64505.16
529.41	63917.69
529.58	63229.57
529.75	63472.99
529.92	63725.77
530.09	64257.07
530.26	64704.11
530.43	64743.90
530.60	64872.63
530.77	65125.41
530.94	65120.73
531.11	64771.99
531.28	64360.05
531.46	64404.52
531.63	64402.18
531.80	64362.39
531.97	63922.37
532.14	63180.42
532.31	62314.42
532.48	61642.69
532.65	61745.67
532.82	62564.86
532.99	63463.63
533.16	63889.60
533.33	64287.49
533.50	64149.40
533.67	63522.14
533.84	63011.90
534.01	63374.69
534.18	63629.80
534.35	63835.77
534.52	63695.34
534.69	63784.28
534.86	64065.14
535.03	64376.43
535.20	64748.58
535.37	64952.21
535.54	65111.36
535.71	64793.05
535.88	64666.66
536.05	63898.97
536.22	63650.87
536.38	63374.69
536.55	63002.54
536.72	62394.00
536.89	62475.92
537.06	63166.38
537.23	64032.38
537.40	64048.76
537.57	64095.57
537.74	63985.57
537.91	63838.11
538.08	63714.06
538.25	63898.97
538.42	64095.57
538.59	63779.60
538.75	63252.98
538.92	62897.22
539.09	63000.20
539.26	62686.57
539.43	62674.87
539.60	62855.09
539.77	62880.83
539.94	62869.13
540.11	62106.12
540.28	61656.73
540.44	61750.35
540.61	61989.09
540.78	62302.72
540.95	62592.95
541.12	62883.17
541.29	63084.46
541.46	63203.83
541.62	63505.76
541.79	63341.92
541.96	62649.12
542.13	62709.97
542.30	63068.08
542.47	63121.91
542.63	62932.32
542.80	62714.65
542.97	62997.86
543.14	62724.02
543.31	62803.59
543.48	63299.79
543.64	63884.92
543.81	64130.68
543.98	64086.21
544.15	63330.22
544.32	62908.92
544.48	62911.26
544.65	63311.49
544.82	63613.42
544.99	63524.48
545.16	63065.73
545.32	62719.34
545.49	63419.16
545.66	63765.56
545.83	63444.90
546.00	63257.66
546.16	62906.58
546.33	63018.92
546.50	62990.84
546.67	63374.69
546.83	63002.54
547.00	63161.70
547.17	62525.07
547.34	61918.87
547.50	61925.89
547.67	62445.49
547.84	62461.88
548.00	62588.27
548.17	63103.18
548.34	62925.30
548.51	63011.90
548.67	62906.58
548.84	63210.85
549.01	62997.86
549.18	62939.35
549.34	62934.66
549.51	62993.18
549.68	62773.17
549.84	62494.64
550.01	62740.40
550.18	62433.79
550.34	62663.16
550.51	62618.69
550.68	62791.89
550.84	62157.61
551.01	62305.06
551.18	62342.51
551.34	62457.20
551.51	62817.64
551.68	63004.88
551.84	63086.80
552.01	63065.73
552.18	62749.76
552.34	62209.10
552.51	61897.81
552.68	61478.85
552.84	62164.63
553.01	62443.15
553.18	62363.57
553.34	62391.66
553.51	62511.03
553.67	62590.61
553.84	62866.79
554.01	62623.37
554.17	62487.62
554.34	62618.69
554.51	62595.29
554.67	62981.48
554.84	62784.87
555.00	62241.87
555.17	62351.87
555.33	62230.16
555.50	62211.44
555.67	62356.55
555.83	62080.37
556.00	62087.39
556.16	61982.07
556.33	61469.49
556.50	61499.92
556.66	61382.89
556.83	61230.75
556.99	61219.05
557.16	61425.02
557.32	61638.01
557.49	62024.20
557.65	62021.86
557.82	61719.93
557.98	61696.52
558.15	61279.91
558.32	60589.45
558.48	59725.79
558.65	59987.93
558.81	60488.80
558.98	60654.98
559.14	60933.51
559.31	60736.90
559.47	60996.70
559.64	60537.96
559.80	60133.04
559.97	60069.85
560.13	60652.64
560.30	61373.53
560.46	61944.62
560.63	62059.30
560.79	62255.91
560.96	61635.67
561.12	60921.80
561.29	59945.80
561.45	60168.15
561.61	60477.10
561.78	61003.72
561.94	61076.28
562.11	60947.55
562.27	60601.15
562.44	61057.56
562.60	61052.87
562.77	61516.30
562.93	61427.36
563.10	61216.71
563.26	60603.49
563.42	60659.66
563.59	60615.19
563.75	60516.89
563.92	60764.99
564.08	60617.53
564.24	60853.93
564.41	60884.36
564.57	60699.45
564.74	60507.53
564.90	60760.31
565.07	60367.10
565.23	60161.13
565.39	59632.17
565.56	59428.54
565.72	59231.94
565.88	59634.51
566.05	59777.28
566.21	59819.41
566.38	60156.45
566.54	60032.40
566.70	60247.73
566.87	60537.96
567.03	60404.55
567.19	60727.54
567.36	60453.70
567.52	60369.44
567.68	60322.63
567.85	59812.39
568.01	59400.46
568.17	58838.73
568.34	58986.18
568.50	58974.48
568.66	59100.87
568.83	59360.67
568.99	59545.57
569.15	59746.86
569.32	59475.35
569.48	59388.75
569.64	59346.62
569.81	58986.18
569.97	59105.55
570.13	58822.34
570.30	58515.73
570.46	58157.63
570.62	57645.05
570.78	57481.22
570.95	57649.74
571.11	58417.43
571.27	58578.93
571.43	58843.41
571.60	59044.69
571.76	59206.19
571.92	59386.41
572.09	59592.38
572.25	59473.01
572.41	59496.42
572.57	59318.54
572.74	59238.96
572.90	58735.74
573.06	58995.54
573.22	59058.74
573.38	59150.02
573.55	59004.91
573.71	59332.58
573.87	59114.91
574.03	58752.13
574.20	58855.11
574.36	58548.50
574.52	58712.34
574.68	58389.34
574.84	58220.83
575.01	57668.46
575.17	57698.89
575.33	57628.67
575.49	58108.48
575.65	58227.85
575.82	58120.18
575.98	57949.32
576.14	58164.65
576.30	58314.45
576.46	58522.76
576.62	58218.49
576.79	58204.44
576.95	57827.62
577.11	57827.62
577.27	58150.61
577.43	58148.27
577.59	57745.70
577.75	57563.14
577.92	57109.07
578.08	56734.59
578.24	56629.26
578.40	56877.36
578.56	57413.34
578.72	57165.24
578.88	57811.23
579.04	57525.69
579.21	57640.37
579.37	57640.37
579.53	57790.17
579.69	57733.99
579.85	57961.03
580.01	57652.08
580.17	57319.72
580.33	57403.98
580.49	57392.28
580.65	57724.63
580.82	57677.82
580.98	57668.46
581.14	57394.62
581.30	57748.04
581.46	57439.09
581.62	57698.89
581.78	57865.06
581.94	57757.40
582.10	57951.66
582.26	57968.05
582.42	57895.49
582.58	57844.00
582.74	57818.25
582.90	57909.53
583.06	57965.71
583.22	57525.69
583.38	57836.98
583.54	57450.79
583.70	57530.37
583.86	57427.38
584.02	57434.41
584.18	57513.98
584.34	57385.25
584.50	57186.31
584.66	57279.93
584.82	56718.20
584.98	56793.10
585.14	56589.47
