SpectraSuite Data File
++++++++++++++++++++++++++++++++++++
Date: Mon Oct 07 14:55:41 GMT-05:00 2013
User: price-jones
Dark Spectrum Present: No
Reference Spectrum Present: No
Number of Sampled Component Spectra: 1
Spectrometers: USB2+H05261
Integration Time (usec): 1000000 (USB2+H05261)
Spectra Averaged: 1 (USB2+H05261)
Boxcar Smoothing: 0 (USB2+H05261)
Correct for Electrical Dark: No (USB2+H05261)
Strobe/Lamp Enabled: No (USB2+H05261)
Correct for Detector Non-linearity: No (USB2+H05261)
Correct for Stray Light: No (USB2+H05261)
Number of Pixels in Processed Spectrum: 2048
>>>>>Begin Processed Spectral Data<<<<<
365.73	0.00
365.92	0.00
366.12	0.00
366.32	0.00
366.52	0.00
366.72	241.08
366.91	0.00
367.11	128.73
367.31	117.03
367.51	131.07
367.70	227.03
367.90	535.98
368.10	250.44
368.30	262.14
368.49	0.00
368.69	376.83
368.89	257.46
369.09	0.00
369.28	168.52
369.48	0.00
369.68	149.79
369.87	248.10
370.07	0.00
370.27	582.79
370.47	2923.33
370.66	9926.21
370.86	11382.03
371.06	12751.24
371.25	13399.57
371.45	11410.11
371.65	10523.05
371.84	9554.07
372.04	9928.55
372.24	11243.93
372.44	11524.80
372.63	11576.29
372.83	11136.27
373.03	9722.59
373.22	8807.44
373.42	9336.40
373.62	10534.75
373.81	11569.27
374.01	11630.12
374.21	10745.40
374.40	9764.72
374.60	10136.86
374.79	11028.60
374.99	13006.36
375.19	14368.55
375.38	13855.97
375.58	13179.56
375.78	12912.74
375.97	13514.25
376.17	14047.90
376.37	13458.08
376.56	13965.98
376.76	14551.11
376.95	15421.79
377.15	16788.66
377.35	17207.62
377.54	17912.12
377.74	18143.83
377.93	18412.99
378.13	17954.25
378.33	17259.11
378.52	15826.70
378.72	15304.76
378.91	15173.69
379.11	14375.57
379.31	13769.37
379.50	13418.29
379.70	15101.14
379.89	16791.00
380.09	17116.34
380.28	17767.01
380.48	17792.75
380.68	17432.31
380.87	17032.08
381.07	16276.09
381.26	14923.26
381.46	14150.88
381.65	13832.57
381.85	13036.78
382.04	12692.73
382.24	11882.90
382.43	11183.08
382.63	10824.98
382.83	10916.26
383.02	11239.25
383.22	11440.54
383.41	10981.79
383.61	11632.46
383.80	13645.32
384.00	14991.13
384.19	16762.92
384.39	17699.13
384.58	17296.56
384.78	17493.16
384.97	17343.37
385.17	16121.61
385.36	15524.77
385.56	15129.22
385.75	15096.46
385.95	16524.18
386.14	18314.69
386.34	17701.47
386.53	17125.70
386.72	15882.88
386.92	16645.89
387.11	17092.93
387.31	18092.34
387.50	17706.15
387.70	16807.39
387.89	16463.33
388.09	16578.01
388.28	16973.56
388.48	17006.33
388.67	18202.35
388.86	20238.61
389.06	21233.34
389.25	22625.96
389.45	22752.35
389.64	22801.50
389.84	22616.60
390.03	22434.03
390.22	21788.05
390.42	22541.70
390.61	23754.10
390.81	25598.44
391.00	26139.10
391.19	26043.14
391.39	24994.58
391.58	23765.80
391.78	21986.99
391.97	21722.51
392.16	20168.40
392.36	19192.39
392.55	15169.01
392.75	12156.74
392.94	9891.10
393.13	9935.57
393.33	11559.91
393.52	14317.06
393.71	18068.94
393.91	19836.04
394.10	21273.13
394.29	23133.86
394.49	25036.71
394.68	27122.13
394.88	27098.72
395.07	28100.47
395.26	27271.92
395.46	26895.10
395.65	25385.45
395.84	22513.61
396.04	19798.59
396.23	15421.79
396.42	12994.65
396.62	12720.81
396.81	14719.63
397.00	18523.00
397.19	22782.77
397.39	26759.34
397.58	30595.48
397.77	31639.36
397.97	33137.30
398.16	32947.72
398.35	34918.45
398.55	35037.82
398.74	36807.26
398.93	37778.59
399.12	36547.47
399.32	35679.13
399.51	36547.47
399.70	38625.86
399.90	38230.31
400.09	38440.96
400.28	38057.11
400.47	38319.25
400.67	40304.02
400.86	41071.72
401.05	40744.05
401.24	41301.09
401.44	41237.90
401.63	41317.48
401.82	41588.98
402.01	41364.29
402.21	41818.35
402.40	42637.54
402.59	41397.06
402.78	39501.22
402.97	38284.14
403.17	39749.32
403.36	41869.84
403.55	43466.09
403.74	44116.76
403.93	42141.35
404.13	39894.43
404.32	38279.46
404.51	40479.57
404.70	43217.99
404.89	42897.34
405.09	42930.11
405.28	40933.63
405.47	40615.32
405.66	41258.96
405.85	40076.99
406.05	39098.65
406.24	39267.17
406.43	41099.81
406.62	42597.75
406.81	43009.68
407.00	41371.31
407.20	40671.49
407.39	41170.02
407.58	42155.39
407.77	43426.30
407.96	45270.64
408.15	45361.92
408.34	45525.76
408.54	47014.34
408.73	47271.80
408.92	46820.08
409.11	46040.68
409.30	43913.13
409.49	41076.40
409.68	39330.36
409.87	37584.32
410.07	39517.60
410.26	42969.90
410.45	45228.51
410.64	46354.31
410.83	47147.75
411.02	47730.54
411.21	48919.54
411.40	49184.02
411.59	48533.35
411.78	48800.17
411.98	48493.56
412.17	49219.13
412.36	48322.70
412.55	48657.40
412.74	47292.86
412.93	46859.87
413.12	46780.29
413.31	50244.28
413.50	50696.00
413.69	51285.82
413.88	49654.47
414.07	48383.55
414.26	48729.95
414.45	50532.17
414.64	50644.51
414.83	50653.87
415.02	50115.55
415.22	49996.18
415.41	51131.34
415.60	51690.73
415.79	52626.95
415.98	53970.41
416.17	53577.20
416.36	53013.13
416.55	52231.40
416.74	51278.80
416.93	50237.26
417.12	50167.04
417.31	50834.10
417.50	51353.69
417.69	51941.17
417.88	51831.16
418.07	51196.88
418.26	51023.68
418.45	51136.02
418.64	52629.29
418.83	53771.47
419.02	53183.99
419.21	53188.67
419.39	51136.02
419.58	49804.26
419.77	49965.76
419.96	51576.04
420.15	53120.80
420.34	53663.80
420.53	54836.41
420.72	55002.59
420.91	55002.59
421.10	54747.47
421.29	53965.73
421.48	53312.72
421.67	54897.27
421.86	53935.30
422.05	52018.41
422.24	48156.52
422.43	47674.37
422.61	50986.23
422.80	53886.15
422.99	53645.08
423.18	52584.82
423.37	51873.29
423.56	52350.76
423.75	52788.44
423.94	52830.57
424.13	51292.84
424.32	51316.25
424.50	51819.46
424.69	50667.92
424.88	51746.90
425.07	51267.09
425.26	51391.14
425.45	51332.63
425.64	50120.23
425.83	50471.31
426.01	52168.20
426.20	53247.19
426.39	52954.62
426.58	50637.49
426.77	47763.31
426.96	46557.94
427.15	47885.02
427.33	50457.27
427.52	51938.83
427.71	51753.93
427.90	51098.58
428.09	51086.87
428.28	50319.18
428.46	49598.29
428.65	48732.29
428.84	49078.69
429.03	50202.15
429.22	48472.49
429.40	46366.01
429.59	42663.28
429.78	38068.81
429.97	38000.94
430.16	38333.29
430.34	39051.84
430.53	38684.37
430.72	39159.50
430.91	43569.07
431.10	49017.84
431.28	54124.89
431.47	56072.21
431.66	56430.32
431.85	54061.69
432.03	51683.71
432.22	50160.02
432.41	51229.65
432.60	54457.24
432.79	55278.77
432.97	56097.96
433.16	55681.34
433.35	53174.63
433.54	49935.33
433.72	47435.64
433.91	48680.80
434.10	52367.15
434.28	54286.39
434.47	55468.36
434.66	55779.65
434.85	54569.59
435.03	54700.66
435.22	55971.57
435.41	57584.20
435.59	57509.30
435.78	57420.36
435.97	57860.38
436.16	57502.28
436.34	57403.98
436.53	56982.68
436.72	56875.02
436.90	55049.40
437.09	55437.93
437.28	54684.28
437.46	55917.74
437.65	55767.94
437.84	54131.91
438.02	50913.67
438.21	50766.22
438.40	52666.73
438.58	55201.53
438.77	55379.42
438.96	55833.48
439.14	56975.66
439.33	57565.48
439.52	58223.17
439.70	57326.74
439.89	56793.10
440.08	55891.99
440.26	56011.36
440.45	57024.81
440.63	58197.42
440.82	58859.79
441.01	59360.67
441.19	58897.24
441.38	59257.68
441.57	59920.05
441.75	60484.12
441.94	60556.68
442.12	60254.75
442.31	61073.94
442.50	60423.27
442.68	60037.08
442.87	60353.05
443.05	59985.59
443.24	60137.72
443.43	60959.25
443.61	61425.02
443.80	61298.63
443.98	60018.36
444.17	59957.50
444.35	61233.10
444.54	61542.05
444.73	61586.52
444.91	60739.24
445.10	59580.68
445.28	58450.20
445.47	58216.14
445.65	58330.83
445.84	58812.98
446.02	59978.57
446.21	60037.08
446.39	60126.02
446.58	59840.48
446.77	60825.84
446.95	60949.89
447.14	61169.90
447.32	62272.29
447.51	61212.03
447.69	60715.84
447.88	60144.75
448.06	60746.26
448.25	61116.07
448.43	61350.12
448.62	60889.04
448.80	60842.23
448.99	60704.13
449.17	60977.98
449.36	60889.04
449.54	62124.84
449.73	61614.60
449.91	62213.78
450.10	63103.18
450.28	63206.17
450.46	63058.71
450.65	63213.19
450.83	62967.43
451.02	62562.52
451.20	62166.97
451.39	62599.97
451.57	62181.01
451.76	62120.16
451.94	61740.99
452.13	60701.79
452.31	60851.59
452.49	59463.65
452.68	59285.77
452.86	59803.03
453.05	59704.73
453.23	60425.61
453.42	60659.66
453.60	61914.19
453.78	62316.76
453.97	61755.03
454.15	61921.21
454.34	60860.95
454.52	61279.91
454.70	60701.79
454.89	61130.11
455.07	61256.50
455.26	61293.95
455.44	62372.94
455.62	62780.19
455.81	62745.08
455.99	62709.97
456.17	62581.24
456.36	62309.74
456.54	63384.05
456.73	63264.68
456.91	63606.40
457.09	63753.85
457.28	64065.14
457.46	62894.88
457.64	62852.75
457.83	62014.83
458.01	61722.27
458.19	61904.83
458.38	62195.06
458.56	63213.19
458.74	62677.21
458.93	62761.47
459.11	62691.25
459.29	62356.55
459.48	62763.81
459.66	62288.68
459.84	62885.51
460.03	63491.71
460.21	62284.00
460.39	63730.45
460.57	63407.45
460.76	63863.86
460.94	63664.91
461.12	63182.76
461.31	63391.07
461.49	63325.53
461.67	63215.53
461.85	63938.75
462.04	63800.66
462.22	65525.64
462.40	63554.91
462.59	63973.86
462.77	63772.58
462.95	64037.06
463.13	63601.72
463.32	63475.33
463.50	63100.84
463.68	63370.00
463.86	63568.95
464.05	62967.43
464.23	62337.83
464.41	62504.01
464.59	61834.61
464.78	63257.66
464.96	62878.49
465.14	63208.51
465.32	63472.99
465.50	63903.65
465.69	63625.12
465.87	63870.88
466.05	63199.15
466.23	62192.72
466.41	61467.15
466.60	62295.70
466.78	62080.37
466.96	62553.16
467.14	62721.68
467.32	63203.83
467.51	63304.47
467.69	61965.68
467.87	62986.16
468.05	62974.45
468.23	63243.62
468.41	63276.38
468.60	63056.37
468.78	63339.58
468.96	63238.93
469.14	63449.58
469.32	63501.07
469.50	62426.77
469.69	62789.55
469.87	62405.70
470.05	61862.70
470.23	62232.50
470.41	62354.21
470.59	62651.46
470.77	62485.28
470.95	63147.65
471.14	63578.31
471.32	63234.25
471.50	65013.06
471.68	65188.60
471.86	63945.78
472.04	64774.33
472.22	64692.41
472.40	63941.10
472.58	63662.57
472.77	63461.29
472.95	64072.17
473.13	64533.25
473.31	63952.80
473.49	63700.02
473.67	64090.89
473.85	64631.55
474.03	65303.29
474.21	64587.08
474.39	65535.00
474.57	65364.14
474.75	65535.00
474.93	65010.72
475.12	64493.46
475.30	64224.30
475.48	64697.09
475.66	65366.48
475.84	64631.55
476.02	64495.80
476.20	64165.79
476.38	64846.88
476.56	64561.34
476.74	65127.75
476.92	65535.00
477.10	65535.00
477.28	65535.00
477.46	65535.00
477.64	65535.00
477.82	65535.00
478.00	65535.00
478.18	65535.00
478.36	65535.00
478.54	65535.00
478.72	65535.00
478.90	65535.00
479.08	65535.00
479.26	65535.00
479.44	65535.00
479.62	65535.00
479.80	65535.00
479.98	65535.00
480.16	65535.00
480.34	65535.00
480.52	65535.00
480.70	65535.00
480.88	65535.00
481.06	65535.00
481.24	65535.00
481.41	65535.00
481.59	65535.00
481.77	65535.00
481.95	65535.00
482.13	65535.00
482.31	65535.00
482.49	65535.00
482.67	65535.00
482.85	65535.00
483.03	65535.00
483.21	65535.00
483.39	65535.00
483.57	65535.00
483.74	65535.00
483.92	65535.00
484.10	65535.00
484.28	65535.00
484.46	65535.00
484.64	65535.00
484.82	65535.00
485.00	65535.00
485.18	65535.00
485.35	65535.00
485.53	65535.00
485.71	65535.00
485.89	65535.00
486.07	65535.00
486.25	65535.00
486.43	65535.00
486.61	65535.00
486.78	65535.00
486.96	65535.00
487.14	65535.00
487.32	65535.00
487.50	65535.00
487.68	65535.00
487.85	65535.00
488.03	65535.00
488.21	65535.00
488.39	65535.00
488.57	65535.00
488.75	65535.00
488.92	65535.00
489.10	65535.00
489.28	65535.00
489.46	65535.00
489.64	65535.00
489.81	65535.00
489.99	65535.00
490.17	65535.00
490.35	65535.00
490.53	65535.00
490.70	65535.00
490.88	65535.00
491.06	65535.00
491.24	65535.00
491.41	65535.00
491.59	65535.00
491.77	65535.00
491.95	65535.00
492.13	65535.00
492.30	65535.00
492.48	65535.00
492.66	65535.00
492.84	65535.00
493.01	65535.00
493.19	65535.00
493.37	65535.00
493.54	65535.00
493.72	65535.00
493.90	65535.00
494.08	65535.00
494.25	65535.00
494.43	65535.00
494.61	65535.00
494.79	65535.00
494.96	65535.00
495.14	65535.00
495.32	65535.00
495.49	65535.00
495.67	65535.00
495.85	65535.00
496.02	65535.00
496.20	65535.00
496.38	65535.00
496.55	65535.00
496.73	65535.00
496.91	65535.00
497.09	65535.00
497.26	65535.00
497.44	65535.00
497.62	65535.00
497.79	65535.00
497.97	65535.00
498.14	65535.00
498.32	65535.00
498.50	65535.00
498.67	65535.00
498.85	65535.00
499.03	65535.00
499.20	65535.00
499.38	65535.00
499.56	65535.00
499.73	65535.00
499.91	65535.00
500.08	65535.00
500.26	65535.00
500.44	65535.00
500.61	65535.00
500.79	65535.00
500.97	65535.00
501.14	65535.00
501.32	65535.00
501.49	65535.00
501.67	65535.00
501.84	65535.00
502.02	65535.00
502.20	65535.00
502.37	65535.00
502.55	65535.00
502.72	65535.00
502.90	65535.00
503.07	65535.00
503.25	65535.00
503.43	65535.00
503.60	65535.00
503.78	65535.00
503.95	65535.00
504.13	65535.00
504.30	65535.00
504.48	65535.00
504.65	65535.00
504.83	65535.00
505.01	65535.00
505.18	65535.00
505.36	65535.00
505.53	65535.00
505.71	65535.00
505.88	65535.00
506.06	65535.00
506.23	65535.00
506.41	65535.00
506.58	65535.00
506.76	65535.00
506.93	65535.00
507.11	65535.00
507.28	65535.00
507.46	65535.00
507.63	65535.00
507.81	65535.00
507.98	65535.00
508.16	65535.00
508.33	65535.00
508.50	65535.00
508.68	65535.00
508.85	65535.00
509.03	65535.00
509.20	65535.00
509.38	65535.00
509.55	65535.00
509.73	65535.00
509.90	65535.00
510.08	65535.00
510.25	65535.00
510.42	65535.00
510.60	65535.00
510.77	65535.00
510.95	65535.00
511.12	65535.00
511.30	65535.00
511.47	65535.00
511.64	65535.00
511.82	65535.00
511.99	65535.00
512.17	65535.00
512.34	65535.00
512.51	65535.00
512.69	65535.00
512.86	65535.00
513.04	65535.00
513.21	65535.00
513.38	65535.00
513.56	65535.00
513.73	65535.00
513.90	65535.00
514.08	65535.00
514.25	65535.00
514.43	65535.00
514.60	65535.00
514.77	65535.00
514.95	65535.00
515.12	65535.00
515.29	65535.00
515.47	65535.00
515.64	65535.00
515.81	65535.00
515.99	65535.00
516.16	65535.00
516.33	65535.00
516.51	65535.00
516.68	65535.00
516.85	65535.00
517.03	65535.00
517.20	65535.00
517.37	65535.00
517.54	65535.00
517.72	65535.00
517.89	65535.00
518.06	65535.00
518.24	65535.00
518.41	65535.00
518.58	65535.00
518.75	65535.00
518.93	65535.00
519.10	65535.00
519.27	65535.00
519.45	65535.00
519.62	65535.00
519.79	65535.00
519.96	65535.00
520.14	65535.00
520.31	65535.00
520.48	65535.00
520.65	65535.00
520.83	65535.00
521.00	65535.00
521.17	65535.00
521.34	65535.00
521.52	65535.00
521.69	65535.00
521.86	65535.00
522.03	65535.00
522.20	65535.00
522.38	65535.00
522.55	65535.00
522.72	65535.00
522.89	65535.00
523.07	65535.00
523.24	65535.00
523.41	65535.00
523.58	65535.00
523.75	65535.00
523.92	65535.00
524.10	65535.00
524.27	65535.00
524.44	65535.00
524.61	65535.00
524.78	65535.00
524.96	65535.00
525.13	65535.00
525.30	65535.00
525.47	65535.00
525.64	65535.00
525.81	65535.00
525.98	65535.00
526.16	65535.00
526.33	65535.00
526.50	65535.00
526.67	65535.00
526.84	65535.00
527.01	65535.00
527.18	65535.00
527.36	65535.00
527.53	65535.00
527.70	65535.00
527.87	65535.00
528.04	65535.00
528.21	65535.00
528.38	65535.00
528.55	65535.00
528.72	65535.00
528.89	65535.00
529.07	65535.00
529.24	65535.00
529.41	65535.00
529.58	65535.00
529.75	65535.00
529.92	65535.00
530.09	65535.00
530.26	65535.00
530.43	65535.00
530.60	65535.00
530.77	65535.00
530.94	65535.00
531.11	65535.00
531.28	65535.00
531.46	65535.00
531.63	65535.00
531.80	65535.00
531.97	65535.00
532.14	65535.00
532.31	65535.00
532.48	65535.00
532.65	65535.00
532.82	65535.00
532.99	65535.00
533.16	65535.00
533.33	65535.00
533.50	65535.00
533.67	65535.00
533.84	65535.00
534.01	65535.00
534.18	65535.00
534.35	65535.00
534.52	65535.00
534.69	65535.00
534.86	65535.00
535.03	65535.00
535.20	65535.00
535.37	65535.00
535.54	65535.00
535.71	65535.00
535.88	65535.00
536.05	65535.00
536.22	65535.00
536.38	65535.00
536.55	65535.00
536.72	65535.00
536.89	65535.00
537.06	65535.00
537.23	65535.00
537.40	65535.00
537.57	65535.00
537.74	65535.00
537.91	65535.00
538.08	65535.00
538.25	65535.00
538.42	65535.00
538.59	65535.00
538.75	65535.00
538.92	65535.00
539.09	65535.00
539.26	65535.00
539.43	65535.00
539.60	65535.00
539.77	65535.00
539.94	65535.00
540.11	65535.00
540.28	65535.00
540.44	65535.00
540.61	65535.00
540.78	65535.00
540.95	65535.00
541.12	65535.00
541.29	65535.00
541.46	65535.00
541.62	65535.00
541.79	65535.00
541.96	65535.00
542.13	65535.00
542.30	65535.00
542.47	65535.00
542.63	65535.00
542.80	65535.00
542.97	65535.00
543.14	65535.00
543.31	65535.00
543.48	65535.00
543.64	65535.00
543.81	65535.00
543.98	65535.00
544.15	65535.00
544.32	65535.00
544.48	65535.00
544.65	65535.00
544.82	65535.00
544.99	65535.00
545.16	65535.00
545.32	65535.00
545.49	65535.00
545.66	65535.00
545.83	65535.00
546.00	65535.00
546.16	65535.00
546.33	65535.00
546.50	65535.00
546.67	65535.00
546.83	65535.00
547.00	65535.00
547.17	65535.00
547.34	65535.00
547.50	65535.00
547.67	65535.00
547.84	65535.00
548.00	65535.00
548.17	65535.00
548.34	65535.00
548.51	65535.00
548.67	65535.00
548.84	65535.00
549.01	65535.00
549.18	65535.00
549.34	65535.00
549.51	65535.00
549.68	65535.00
549.84	65535.00
550.01	65535.00
550.18	65535.00
550.34	65535.00
550.51	65535.00
550.68	65535.00
550.84	65535.00
551.01	65535.00
551.18	65535.00
551.34	65535.00
551.51	65535.00
551.68	65535.00
551.84	65535.00
552.01	65535.00
552.18	65535.00
552.34	65535.00
552.51	65535.00
552.68	65535.00
552.84	65535.00
553.01	65535.00
553.18	65535.00
553.34	65535.00
553.51	65535.00
553.67	65535.00
553.84	65535.00
554.01	65535.00
554.17	65535.00
554.34	65535.00
554.51	65535.00
554.67	65535.00
554.84	65535.00
555.00	65535.00
555.17	65535.00
555.33	65535.00
555.50	65535.00
555.67	65535.00
555.83	65535.00
556.00	65535.00
556.16	65535.00
556.33	65535.00
556.50	65535.00
556.66	65535.00
556.83	65535.00
556.99	65535.00
557.16	65535.00
557.32	65535.00
557.49	65535.00
557.65	65535.00
557.82	65535.00
557.98	65535.00
558.15	65535.00
558.32	65535.00
558.48	65535.00
558.65	65535.00
558.81	65535.00
558.98	65535.00
559.14	65535.00
559.31	65535.00
559.47	65535.00
559.64	65535.00
559.80	65535.00
559.97	65535.00
560.13	65535.00
560.30	65535.00
560.46	65535.00
560.63	65535.00
560.79	65535.00
560.96	65535.00
561.12	65535.00
561.29	65535.00
561.45	65535.00
561.61	65535.00
561.78	65535.00
561.94	65535.00
562.11	65535.00
562.27	65535.00
562.44	65535.00
562.60	65535.00
562.77	65535.00
562.93	65535.00
563.10	65535.00
563.26	65535.00
563.42	65535.00
563.59	65535.00
563.75	65535.00
563.92	65535.00
564.08	65535.00
564.24	65535.00
564.41	65535.00
564.57	65535.00
564.74	65535.00
564.90	65535.00
565.07	65535.00
565.23	65535.00
565.39	65535.00
565.56	65535.00
565.72	65535.00
565.88	65535.00
566.05	65535.00
566.21	65535.00
566.38	65535.00
566.54	65535.00
566.70	65535.00
566.87	65535.00
567.03	65535.00
567.19	65535.00
567.36	65535.00
567.52	65535.00
567.68	65535.00
567.85	65535.00
568.01	65535.00
568.17	65535.00
568.34	65535.00
568.50	65535.00
568.66	65535.00
568.83	65535.00
568.99	65535.00
569.15	65535.00
569.32	65535.00
569.48	65535.00
569.64	65535.00
569.81	65535.00
569.97	65535.00
570.13	65535.00
570.30	65535.00
570.46	65535.00
570.62	65535.00
570.78	65535.00
570.95	65535.00
571.11	65535.00
571.27	65535.00
571.43	65535.00
571.60	65535.00
571.76	65535.00
571.92	65535.00
572.09	65535.00
572.25	65535.00
572.41	65535.00
572.57	65535.00
572.74	65535.00
572.90	65535.00
573.06	65535.00
573.22	65535.00
573.38	65535.00
573.55	65535.00
573.71	65535.00
573.87	65535.00
574.03	65535.00
574.20	65535.00
574.36	65535.00
574.52	65535.00
574.68	65535.00
574.84	65535.00
575.01	65535.00
575.17	65535.00
575.33	65535.00
575.49	65535.00
575.65	65535.00
575.82	65535.00
575.98	65535.00
576.14	65535.00
576.30	65535.00
576.46	65535.00
576.62	65535.00
576.79	65535.00
576.95	65535.00
577.11	65535.00
577.27	65535.00
577.43	65535.00
577.59	65535.00
577.75	65535.00
577.92	65535.00
578.08	65535.00
578.24	65535.00
578.40	65535.00
578.56	65535.00
578.72	65535.00
578.88	65535.00
579.04	65535.00
579.21	65535.00
579.37	65535.00
579.53	65535.00
579.69	65535.00
579.85	65535.00
580.01	65535.00
580.17	65535.00
580.33	65535.00
580.49	65535.00
580.65	65535.00
580.82	65535.00
580.98	65535.00
581.14	65535.00
581.30	65535.00
581.46	65535.00
581.62	65535.00
581.78	65535.00
581.94	65535.00
582.10	65535.00
582.26	65535.00
582.42	65535.00
582.58	65535.00
582.74	65535.00
582.90	65535.00
583.06	65535.00
583.22	65535.00
583.38	65535.00
583.54	65535.00
583.70	65535.00
