SpectraSuite Data File
++++++++++++++++++++++++++++++++++++
Date: Mon Oct 07 14:55:00 GMT-05:00 2013
User: price-jones
Dark Spectrum Present: No
Reference Spectrum Present: No
Number of Sampled Component Spectra: 1
Spectrometers: USB2+H05261
Integration Time (usec): 10000 (USB2+H05261)
Spectra Averaged: 1 (USB2+H05261)
Boxcar Smoothing: 0 (USB2+H05261)
Correct for Electrical Dark: No (USB2+H05261)
Strobe/Lamp Enabled: No (USB2+H05261)
Correct for Detector Non-linearity: No (USB2+H05261)
Correct for Stray Light: No (USB2+H05261)
Number of Pixels in Processed Spectrum: 2048
>>>>>Begin Processed Spectral Data<<<<<
365.73	0.00
365.92	0.00
366.12	0.00
366.32	0.00
366.52	0.00
366.72	0.00
366.91	0.00
367.11	0.00
367.31	0.00
367.51	0.00
367.70	0.00
367.90	0.00
368.10	0.00
368.30	0.00
368.49	0.00
368.69	0.00
368.89	0.00
369.09	0.00
369.28	0.00
369.48	0.00
369.68	0.00
369.87	0.00
370.07	0.00
370.27	0.00
370.47	177.88
370.66	1692.21
370.86	2090.10
371.06	2263.30
371.25	2146.27
371.45	1811.57
371.65	1668.80
371.84	1530.71
372.04	1710.93
372.24	1921.58
372.44	1956.69
372.63	1949.67
372.83	1689.87
373.03	1694.55
373.22	1502.62
373.42	1603.27
373.62	1902.86
373.81	2097.12
374.01	1942.64
374.21	1720.29
374.40	1692.21
374.60	1746.04
374.79	1940.30
374.99	2434.16
375.19	2532.46
375.38	2469.27
375.58	2303.09
375.78	2242.23
375.97	2275.00
376.17	2265.64
376.37	2431.82
376.56	2586.29
376.76	2689.28
376.95	2857.79
377.15	3007.59
377.35	3229.94
377.54	3211.22
377.74	3410.16
377.93	3400.80
378.13	3239.30
378.33	3035.67
378.52	2827.37
378.72	2703.32
378.91	2661.19
379.11	2637.78
379.31	2544.16
379.50	2562.89
379.70	2752.47
379.89	3098.87
380.09	3169.09
380.28	3260.37
380.48	3393.78
380.68	3220.58
380.87	3199.51
381.07	2806.30
381.26	2623.74
381.46	2469.27
381.65	2319.47
381.85	2417.77
382.04	2284.36
382.24	2038.61
382.43	1912.22
382.63	1982.43
382.83	1937.96
383.02	1923.92
383.22	1940.30
383.41	1944.99
383.61	2157.97
383.80	2588.63
384.00	2792.26
384.19	3281.43
384.39	3239.30
384.58	3382.07
384.78	3169.09
384.97	3152.70
385.17	2944.39
385.36	2822.69
385.56	2656.51
385.75	2895.24
385.95	3187.81
386.14	3494.42
386.34	3358.67
386.53	3159.72
386.72	2979.50
386.92	3038.02
387.11	3318.88
387.31	3522.51
387.50	3456.97
387.70	3279.09
387.89	3194.83
388.09	3335.26
388.28	3239.30
388.48	3482.72
388.67	3564.64
388.86	3929.76
389.06	4229.35
389.25	4573.41
389.45	4447.02
389.64	4381.48
389.84	4430.63
390.03	4409.57
390.22	4533.62
390.42	4645.96
390.61	4903.42
390.81	5125.77
391.00	5100.03
391.19	5191.31
391.39	4861.29
391.58	4622.56
391.78	4245.73
391.97	4318.29
392.16	4060.83
392.36	3349.31
392.55	2705.66
392.75	2127.55
392.94	1877.11
393.13	1853.70
393.33	2232.87
393.52	3056.74
393.71	3613.79
393.91	4161.47
394.10	4351.06
394.29	4919.81
394.49	5270.89
394.68	5558.77
394.88	5633.67
395.07	5778.78
395.26	5633.67
395.46	5320.04
395.65	4929.17
395.84	4245.73
396.04	3597.40
396.23	2981.84
396.42	2436.50
396.62	2555.86
396.81	3133.98
397.00	4007.00
397.19	4844.91
397.39	5701.54
397.58	6342.85
397.77	6719.68
397.97	7042.67
398.16	7091.82
398.35	7117.57
398.55	7463.97
398.74	7911.01
398.93	7793.98
399.12	7639.51
399.32	7609.08
399.51	7822.07
399.70	8276.13
399.90	8124.00
400.09	8210.60
400.28	8093.57
400.47	8126.34
400.67	8699.77
400.86	8816.80
401.05	8842.54
401.24	8919.78
401.44	9060.21
401.63	9092.98
401.82	9282.56
402.01	8987.66
402.21	8709.13
402.40	9397.25
402.59	8835.52
402.78	8603.81
402.97	8315.92
403.17	8678.71
403.36	9188.94
403.55	9277.88
403.74	9542.36
403.93	8922.12
404.13	8388.48
404.32	8624.87
404.51	8788.71
404.70	9245.12
404.89	9144.47
405.09	9088.30
405.28	9097.66
405.47	9102.34
405.66	9043.83
405.85	8631.90
406.05	8622.53
406.24	8659.98
406.43	8973.61
406.62	9320.01
406.81	9301.29
407.00	8968.93
407.20	8826.16
407.39	8814.46
407.58	9507.26
407.77	9776.42
407.96	9973.02
408.15	10242.18
408.34	10373.25
408.54	10679.86
408.73	10661.14
408.92	10438.79
409.11	10066.64
409.30	9638.33
409.49	8975.95
409.68	8329.97
409.87	8486.78
410.07	9315.33
410.26	9657.05
410.45	10104.09
410.64	10607.31
410.83	11042.65
411.02	11412.45
411.21	11456.92
411.40	11358.62
411.59	11454.58
411.78	11513.10
411.98	11147.97
412.17	11321.17
412.36	11262.66
412.55	11030.94
412.74	10951.37
412.93	10785.19
413.12	11056.69
413.31	11967.16
413.50	11796.30
413.69	12123.98
413.88	11372.66
414.07	11492.03
414.26	11602.04
414.45	11988.22
414.64	11850.13
414.83	12058.44
415.02	11852.47
415.22	11695.66
415.41	12231.64
415.60	12533.57
415.79	13156.15
415.98	13509.57
416.17	13020.40
416.36	12692.73
416.55	12622.51
416.74	12248.02
416.93	11927.37
417.12	11857.15
417.31	12081.85
417.50	12676.34
417.69	12578.04
417.88	12709.11
418.07	12629.53
418.26	12191.85
418.45	12580.38
418.64	13095.30
418.83	13650.00
419.02	13156.15
419.21	13053.17
419.39	12372.07
419.58	12032.69
419.77	12170.79
419.96	12791.03
420.15	13195.94
420.34	13738.94
420.53	13916.83
420.72	14057.26
420.91	13886.40
421.10	13760.01
421.29	14054.92
421.48	13448.72
421.67	14382.59
421.86	13268.50
422.05	12411.86
422.24	11279.04
422.43	11604.38
422.61	13231.05
422.80	13886.40
422.99	13558.72
423.18	12734.85
423.37	12875.29
423.56	13088.28
423.75	13116.36
423.94	13254.45
424.13	12493.78
424.32	12655.28
424.50	12894.01
424.69	12875.29
424.88	12802.73
425.07	12802.73
425.26	12620.17
425.45	12269.09
425.64	12348.67
425.83	12774.64
426.01	12987.63
426.20	13329.35
426.39	13181.90
426.58	12030.35
426.77	11435.86
426.96	11510.75
427.15	12049.08
427.33	12571.02
427.52	13022.74
427.71	13165.51
427.90	12795.71
428.09	12484.42
428.28	12290.15
428.46	11775.24
428.65	11969.50
428.84	12517.18
429.03	12444.63
429.22	11784.60
429.40	10853.06
429.59	9947.28
429.78	8994.68
429.97	9156.18
430.16	8805.10
430.34	8870.63
430.53	9083.62
430.72	9628.96
430.91	10597.95
431.10	12678.68
431.28	14497.28
431.47	15351.57
431.66	15307.10
431.85	13958.96
432.03	12772.30
432.22	12580.38
432.41	13172.54
432.60	14579.20
432.79	15110.50
432.97	15187.74
433.16	14508.98
433.35	13387.86
433.54	12175.47
433.72	11777.58
433.91	12561.66
434.10	13703.84
434.28	14530.05
434.47	15075.39
434.66	14771.12
434.85	14368.55
435.03	14644.73
435.22	14707.93
435.41	15421.79
435.59	15899.26
435.78	15782.23
435.97	16393.11
436.16	16304.17
436.34	16137.99
436.53	16077.14
436.72	15737.76
436.90	15000.49
437.09	15112.84
437.28	15241.57
437.46	15616.05
437.65	15302.42
437.84	13926.19
438.02	13308.29
438.21	13404.25
438.40	13462.76
438.58	15033.26
438.77	15253.27
438.96	15536.48
439.14	16079.48
439.33	16613.12
439.52	16505.46
439.70	16285.45
439.89	15468.60
440.08	15171.35
440.26	15613.71
440.45	16739.51
440.63	17586.79
440.82	18052.55
441.01	17359.75
441.19	17523.59
441.38	18396.61
441.57	18719.60
441.75	18700.88
441.94	18981.74
442.12	18703.22
442.31	19215.80
442.50	19494.32
442.68	18913.87
442.87	18787.48
443.05	18476.19
443.24	18906.85
443.43	19325.80
443.61	19384.32
443.80	19524.75
443.98	18588.53
444.17	18508.96
444.35	19255.59
444.54	19840.72
444.73	19728.38
444.91	18719.60
445.10	18087.66
445.28	17509.55
445.47	17193.58
445.65	16912.71
445.84	17968.29
446.02	18157.88
446.21	19063.66
446.39	18726.63
446.58	19119.84
446.77	19440.49
446.95	19168.99
447.14	19941.36
447.32	20493.73
447.51	19660.50
447.69	18771.10
447.88	19122.18
448.06	19391.34
448.25	19770.51
448.43	20072.43
448.62	19482.62
448.80	19730.72
448.99	19335.17
449.17	19889.87
449.36	19861.79
449.54	20435.22
449.73	21010.99
449.91	21223.98
450.10	21696.77
450.28	21876.99
450.46	21888.69
450.65	21570.38
450.83	21441.65
451.02	21226.32
451.20	20636.50
451.39	21025.03
451.57	20762.89
451.76	20589.69
451.94	20273.72
452.13	20030.30
452.31	18700.88
452.49	18277.24
452.68	18719.60
452.86	18586.19
453.05	19009.83
453.23	19527.09
453.42	20128.61
453.60	20386.07
453.78	20582.67
453.97	20278.40
454.15	20116.90
454.34	19807.95
454.52	20004.56
454.70	19672.20
454.89	20135.63
455.07	20346.28
455.26	20636.50
455.44	20975.88
455.62	21551.65
455.81	21179.51
455.99	21455.69
456.17	21099.93
456.36	21277.81
456.54	21752.94
456.73	21549.31
456.91	21832.52
457.09	22122.74
457.28	22778.09
457.46	21933.16
457.64	21411.22
457.83	20994.61
458.01	20788.64
458.19	21579.74
458.38	21884.01
458.56	22019.76
458.74	21771.66
458.93	21172.49
459.11	21163.12
459.29	21142.06
459.48	21467.39
459.66	21373.77
459.84	21696.77
460.03	21916.78
460.21	21919.12
460.39	22258.49
460.57	22209.34
460.76	22665.75
460.94	22740.64
461.12	22190.62
461.31	22258.49
461.49	22553.40
461.67	22724.26
461.85	22970.02
462.04	23400.68
462.22	22822.56
462.40	23073.00
462.59	23028.53
462.77	23321.10
462.95	22824.90
463.13	22604.89
463.32	22235.09
463.50	22658.73
463.68	22771.07
463.86	22546.38
464.05	22190.62
464.23	21135.04
464.41	21291.85
464.59	21247.38
464.78	22525.32
464.96	22141.47
465.14	22452.76
465.32	22590.85
465.50	23517.70
465.69	23618.35
465.87	22707.88
466.05	22082.95
466.23	21315.26
466.41	20594.37
466.60	22078.27
466.78	21820.81
466.96	21472.07
467.14	22766.39
467.32	22527.66
467.51	22448.08
467.69	21104.61
467.87	21923.80
468.05	22555.74
468.23	22190.62
468.41	22260.84
468.60	22412.97
468.78	22654.05
468.96	22115.72
469.14	22780.43
469.32	23119.81
469.50	21476.76
469.69	21797.41
469.87	21853.58
470.05	21989.33
470.23	21717.83
470.41	21825.50
470.59	21996.35
470.77	22331.05
470.95	22869.37
471.14	23278.97
471.32	22815.54
471.50	23728.35
471.68	24222.20
471.86	23941.34
472.04	24290.08
472.22	24306.46
472.40	23264.92
472.58	23463.87
472.77	23218.11
472.95	23817.29
473.13	24453.92
473.31	23744.73
473.49	23775.16
473.67	24205.82
473.85	24540.52
474.03	25027.35
474.21	25191.19
474.39	25399.49
474.57	25120.97
474.75	25312.89
474.93	24727.76
475.12	24400.08
475.30	24570.94
475.48	24643.50
475.66	24830.74
475.84	24746.48
476.02	24458.60
476.20	24285.40
476.38	25422.90
476.56	25860.58
476.74	26291.24
476.92	25876.96
477.10	26064.21
477.28	27545.76
477.46	26944.25
477.64	26831.90
477.82	27119.79
478.00	27503.64
478.18	26988.72
478.36	26485.50
478.54	27082.34
478.72	27417.04
478.90	28580.28
479.08	29301.17
479.26	29076.48
479.44	29610.12
479.62	28554.54
479.80	28868.17
479.98	29024.98
480.16	28999.24
480.34	28790.93
480.52	29621.82
480.70	30169.51
480.88	29537.56
481.06	30073.54
481.24	30377.81
481.41	31197.00
481.59	31559.78
481.77	31161.89
481.95	30934.86
482.13	30719.53
482.31	30902.09
482.49	31662.77
482.67	31185.30
482.85	31707.24
483.03	32086.40
483.21	32180.03
483.39	32051.30
483.57	30864.64
483.74	30422.28
483.92	31414.67
484.10	32058.32
484.28	32484.30
484.46	32624.73
484.64	32512.38
484.82	31838.31
485.00	31592.55
485.18	31260.20
485.35	29563.31
485.53	26794.45
485.71	24959.47
485.89	25017.99
486.07	27075.32
486.25	29216.91
486.43	31122.10
486.61	31246.15
486.78	30808.47
486.96	31725.96
487.14	32711.33
487.32	32994.53
487.50	34384.81
487.68	34831.85
487.85	35555.08
488.03	35866.37
488.21	35461.46
488.39	34546.31
488.57	34038.41
488.75	34113.31
488.92	35391.24
489.10	36877.48
489.28	37839.44
489.46	39103.33
489.64	38511.17
489.81	38728.84
489.99	39061.20
490.17	39079.92
490.35	39194.61
490.53	38349.68
490.70	37298.78
490.88	37984.55
491.06	38459.68
491.24	38553.30
491.41	36807.26
491.59	35482.52
491.77	34773.34
491.95	36627.04
492.13	38218.61
492.30	39079.92
492.48	40662.13
492.66	40687.87
492.84	40397.65
493.01	40577.87
493.19	39875.71
493.37	39838.26
493.54	39978.69
493.72	41647.49
493.90	42258.37
494.08	42085.17
494.25	42993.30
494.43	43416.94
494.61	43674.40
494.79	43260.12
494.96	43470.77
495.14	42705.41
495.32	41235.56
495.49	40772.13
495.67	41804.31
495.85	43931.86
496.02	44381.24
496.20	43510.56
496.38	43196.93
496.55	43274.16
496.73	44222.08
496.91	43742.27
497.09	45535.12
497.26	45031.91
497.44	44091.01
497.62	43463.75
497.79	42349.65
497.97	40552.12
498.14	41993.89
498.32	44079.31
498.50	44509.97
498.67	43969.30
498.85	44811.90
499.03	44765.09
499.20	45551.51
499.38	45366.60
499.56	44942.97
499.73	43433.32
499.91	42658.60
500.08	42059.43
500.26	41881.55
500.44	42309.86
500.61	43419.28
500.79	43342.04
500.97	42328.59
501.14	42033.68
501.32	41881.55
501.49	42646.90
501.67	43208.63
501.84	43650.99
502.02	44671.46
502.20	44191.65
502.37	44858.71
502.55	44795.51
502.72	45343.20
502.90	46541.55
503.07	45003.82
503.25	44502.95
503.43	43049.47
503.60	42637.54
503.78	41301.09
503.95	42707.76
504.13	45064.67
504.30	46031.32
504.48	45275.32
504.65	44652.74
504.83	44381.24
505.01	45558.53
505.18	45703.64
505.36	47063.49
505.53	47491.81
505.71	47447.34
505.88	48240.78
506.06	46990.94
506.23	47028.38
506.41	45703.64
506.58	46546.23
506.76	45839.39
506.93	45502.35
507.11	45001.48
507.28	45361.92
507.46	45469.59
507.63	45069.36
507.81	44376.56
507.98	44940.63
508.16	45984.51
508.33	46169.41
508.50	45705.98
508.68	47203.92
508.85	47831.19
509.03	48341.42
509.20	48233.76
509.38	46480.70
509.55	46319.20
509.73	46667.94
509.90	47021.36
510.08	46059.40
510.25	46134.30
510.42	45317.45
510.60	46199.83
510.77	47449.68
510.95	48460.79
511.12	48200.99
511.30	49333.81
511.47	48193.97
511.64	47533.94
511.82	47501.17
511.99	45940.04
512.17	45923.65
512.34	45518.74
512.51	45727.05
512.69	45354.90
512.86	45860.46
513.04	47650.97
513.21	46703.05
513.38	46330.90
513.56	45230.85
513.73	44467.84
513.90	45001.48
514.08	44608.27
514.25	45837.05
514.43	46064.08
514.60	45776.20
514.77	45350.22
514.95	47580.75
515.12	47248.39
515.29	46897.31
515.47	47220.31
515.64	47910.77
515.81	47288.18
515.99	45134.89
516.16	42501.79
516.33	40067.63
516.51	39379.51
516.68	37713.05
516.85	36753.43
517.03	39007.37
517.20	42803.72
517.37	45263.62
517.54	46370.69
517.72	44212.72
517.89	41579.62
518.06	40388.28
518.24	40807.24
518.41	43660.35
518.58	46279.41
518.75	45748.11
518.93	45626.40
519.10	45340.86
519.27	45502.35
519.45	46277.07
519.62	47260.10
519.79	47482.45
519.96	47023.70
520.14	45696.62
520.31	44971.05
520.48	45254.26
520.65	46813.05
520.83	47828.85
521.00	47803.10
521.17	46920.72
521.34	47421.59
521.52	47665.01
521.69	47501.17
521.86	48069.92
522.03	48067.58
522.20	45553.85
522.38	45312.77
522.55	45418.10
522.72	45600.66
522.89	45975.14
523.07	45954.08
523.24	45874.50
523.41	47873.32
523.58	48451.43
523.75	48439.73
523.92	48327.38
524.10	48350.79
524.27	48388.24
524.44	47702.46
524.61	47580.75
524.78	47494.15
524.96	48009.07
525.13	47463.72
525.30	48018.43
525.47	48966.35
525.64	49125.50
525.81	46176.43
525.98	44858.71
526.16	43051.81
526.33	41507.06
526.50	41214.49
526.67	40732.34
526.84	42869.25
527.01	44280.60
527.18	45081.06
527.36	47587.77
527.53	46880.93
527.70	47571.39
527.87	46817.74
528.04	46337.93
528.21	47091.58
528.38	48472.49
528.55	49158.27
528.72	50057.04
528.89	50382.37
529.07	48882.09
529.24	46150.68
529.41	45830.03
529.58	45930.67
529.75	46450.27
529.92	47290.52
530.09	48147.16
530.26	49162.95
530.43	50096.83
530.60	48844.64
530.77	48725.27
530.94	48734.63
531.11	48477.18
531.28	48243.12
531.46	48327.38
531.63	47955.24
531.80	47402.87
531.97	46466.66
532.14	45413.41
532.31	44217.40
532.48	44397.62
532.65	44949.99
532.82	45235.53
532.99	47562.03
533.16	46899.65
533.33	46248.99
533.50	45455.54
533.67	46698.37
533.84	46873.91
534.01	47002.64
534.18	47332.65
534.35	48009.07
534.52	46913.70
534.69	47606.50
534.86	48158.86
535.03	47290.52
535.20	48657.40
535.37	48861.02
535.54	49279.98
535.71	48563.78
535.88	47428.62
536.05	47037.75
536.22	46253.67
536.38	46754.54
536.55	45085.74
536.72	44788.49
536.89	44395.28
537.06	45127.87
537.23	47189.88
537.40	47667.35
537.57	47777.36
537.74	47246.05
537.91	48011.41
538.08	47189.88
538.25	46642.20
538.42	47035.41
538.59	47437.98
538.75	45485.97
538.92	45439.16
539.09	44563.80
539.26	44917.22
539.43	44863.39
539.60	45682.58
539.77	46834.12
539.94	45581.93
540.11	44474.86
540.28	43377.15
540.44	43583.12
540.61	45050.63
540.78	45748.11
540.95	45701.30
541.12	45485.97
541.29	45553.85
541.46	46660.92
541.62	46766.24
541.79	46368.35
541.96	45191.06
542.13	44861.05
542.30	45291.71
542.47	45038.93
542.63	45125.53
542.80	45771.52
542.97	45291.71
543.14	44025.48
543.31	45544.48
543.48	46850.50
543.64	46443.25
543.81	47208.61
543.98	46990.94
544.15	45249.58
544.32	45801.94
544.48	46513.47
544.65	46752.20
544.82	46803.69
544.99	46206.86
545.16	45956.42
545.32	45174.68
545.49	46953.49
545.66	46192.81
545.83	45294.05
546.00	46061.74
546.16	45181.70
546.33	46047.70
546.50	46754.54
546.67	47222.65
546.83	46628.15
547.00	46368.35
547.17	44856.37
547.34	43629.93
547.50	44830.62
547.67	45125.53
547.84	44109.74
548.00	45212.13
548.17	44933.60
548.34	44971.05
548.51	44629.34
548.67	46801.35
548.84	46873.91
549.01	47407.55
549.18	46122.60
549.34	45581.93
549.51	45935.35
549.68	46461.97
549.84	46344.95
550.01	44982.76
550.18	43871.00
550.34	44254.85
550.51	44376.56
550.68	45635.77
550.84	45034.25
551.01	44676.15
551.18	45102.12
551.34	45057.65
551.51	45464.91
551.68	45563.21
551.84	45544.48
552.01	45301.07
552.18	44776.79
552.34	44622.31
552.51	44512.31
552.68	44741.68
552.84	44992.12
553.01	44463.16
553.18	44442.09
553.34	44938.29
553.51	45394.69
553.67	45375.97
553.84	44114.42
554.01	45205.11
554.17	45116.17
554.34	45144.25
554.51	44505.29
554.67	44437.41
554.84	45373.63
555.00	45319.79
555.17	44514.65
555.33	43281.19
555.50	44044.20
555.67	44526.35
555.83	43096.28
556.00	42827.12
556.16	43505.88
556.33	42387.10
556.50	43524.60
556.66	44470.18
556.83	44552.10
556.99	43192.25
557.16	42988.62
557.32	43489.49
557.49	43215.65
557.65	43852.28
557.82	43894.41
557.98	43714.19
558.15	44016.11
558.32	42705.41
558.48	40596.59
558.65	40699.58
558.81	40631.70
558.98	41338.54
559.14	41900.27
559.31	42384.76
559.47	41514.08
559.64	41273.01
559.80	40765.11
559.97	41558.55
560.13	43796.10
560.30	43672.06
560.46	43555.03
560.63	44636.36
560.79	45315.11
560.96	43702.48
561.12	41053.00
561.29	40509.99
561.45	39894.43
561.61	40980.44
561.78	41045.97
561.94	41794.95
562.11	42227.95
562.27	43154.80
562.44	42997.98
562.60	43604.18
562.77	43721.21
562.93	42726.48
563.10	41926.02
563.26	41092.79
563.42	41209.81
563.59	40758.09
563.75	41008.53
563.92	40575.53
564.08	40825.96
564.24	41476.63
564.41	41256.62
564.57	42944.15
564.74	41343.22
564.90	41301.09
565.07	41385.35
565.23	40559.14
565.39	39751.66
565.56	39049.50
565.72	38698.42
565.88	38536.92
566.05	40435.10
566.21	42160.07
566.38	39997.41
566.54	40945.33
566.70	41427.48
566.87	41972.83
567.03	41146.62
567.19	40783.83
567.36	41617.07
567.52	41539.83
567.68	41319.82
567.85	40229.13
568.01	39056.52
568.17	39426.32
568.34	40299.34
568.50	39718.89
568.66	40224.45
568.83	40425.73
568.99	39552.71
569.15	40278.28
569.32	40081.67
569.48	39669.74
569.64	38611.82
569.81	39463.77
569.97	38656.29
570.13	40404.67
570.30	39580.80
570.46	38422.23
570.62	36921.95
570.78	37813.70
570.95	38433.94
571.11	38745.23
571.27	39030.77
571.43	39129.08
571.60	38298.19
571.76	39948.26
571.92	40079.33
572.09	40147.21
572.25	40753.41
572.41	41504.72
572.57	40947.67
572.74	40638.72
572.90	40350.84
573.06	40266.58
573.22	39260.15
573.38	39964.65
573.55	40327.43
573.71	39416.96
573.87	38532.24
574.03	39543.35
574.20	39686.12
574.36	38768.63
574.52	39182.91
574.68	37778.59
574.84	37097.49
575.01	37556.24
575.17	38712.46
575.33	38630.54
575.49	37942.42
575.65	37469.64
575.82	38824.81
575.98	37589.00
576.14	38232.65
576.30	38672.67
576.46	38143.71
576.62	38990.98
576.79	37717.73
576.95	37457.93
577.11	36882.16
577.27	38031.36
577.43	37823.06
577.59	37900.29
577.75	37474.32
577.92	35756.36
578.08	35637.00
578.24	36907.91
578.40	36456.18
578.56	36603.64
578.72	36292.35
578.88	35639.34
579.04	36952.38
579.21	36971.10
579.37	37427.51
579.53	37455.59
579.69	38653.95
579.85	37195.79
580.01	38075.84
580.17	37434.53
580.33	38234.99
580.49	37773.91
580.65	36474.91
580.82	37574.96
580.98	37668.58
581.14	38223.29
581.30	37589.00
581.46	37617.09
581.62	37053.02
581.78	38022.00
581.94	38476.07
582.10	38878.64
582.26	38113.28
582.42	38625.86
582.58	37975.19
582.74	37460.27
582.90	38307.55
583.06	37757.52
583.22	37673.26
583.38	37766.88
583.54	37539.85
583.70	37212.18
583.86	38075.84
584.02	37581.98
584.18	37074.09
584.34	36526.40
584.50	36678.54
584.66	36018.50
584.82	36081.70
584.98	36914.93
585.14	35817.22
585.30	35849.99
585.46	35838.28
585.62	35697.85
585.78	35803.17
585.94	35381.88
