SpectraSuite Data File
++++++++++++++++++++++++++++++++++++
Date: Mon Oct 07 14:53:05 GMT-05:00 2013
User: price-jones
Dark Spectrum Present: No
Reference Spectrum Present: No
Number of Sampled Component Spectra: 1
Spectrometers: USB2+H05261
Integration Time (usec): 100000 (USB2+H05261)
Spectra Averaged: 1 (USB2+H05261)
Boxcar Smoothing: 0 (USB2+H05261)
Correct for Electrical Dark: No (USB2+H05261)
Strobe/Lamp Enabled: No (USB2+H05261)
Correct for Detector Non-linearity: No (USB2+H05261)
Correct for Stray Light: No (USB2+H05261)
Number of Pixels in Processed Spectrum: 2048
>>>>>Begin Processed Spectral Data<<<<<
365.73	0.00
365.92	0.00
366.12	0.00
366.32	0.00
366.52	0.00
366.72	0.00
366.91	0.00
367.11	0.00
367.31	0.00
367.51	0.00
367.70	0.00
367.90	0.00
368.10	0.00
368.30	0.00
368.49	0.00
368.69	0.00
368.89	0.00
369.09	0.00
369.28	0.00
369.48	0.00
369.68	0.00
369.87	0.00
370.07	0.00
370.27	0.00
370.47	521.94
370.66	2836.73
370.86	3398.46
371.06	3714.43
371.25	3688.68
371.45	3309.52
371.65	2967.80
371.84	2841.41
372.04	2916.31
372.24	3396.12
372.44	3606.77
372.63	3314.20
372.83	3187.81
373.03	2775.88
373.22	2516.08
373.42	2757.15
373.62	3110.57
373.81	3201.85
374.01	3307.18
374.21	2928.01
374.40	2740.77
374.60	2888.22
374.79	3353.99
374.99	3918.06
375.19	4313.61
375.38	4105.30
375.58	3859.54
375.78	3922.74
375.97	3805.71
376.17	4114.66
376.37	4159.13
376.56	4205.94
376.76	4472.76
376.95	4706.82
377.15	5011.09
377.35	5144.50
377.54	5324.72
377.74	5544.73
377.93	5533.03
378.13	5614.95
378.33	5100.03
378.52	4828.53
378.72	4510.21
378.91	4528.94
379.11	4292.54
379.31	4269.14
379.50	4205.94
379.70	4650.64
379.89	5018.11
380.09	5270.89
380.28	5373.87
380.48	5394.93
380.68	5383.23
380.87	5057.90
381.07	4858.95
381.26	4479.79
381.46	4212.96
381.65	3978.91
381.85	3948.48
382.04	3641.87
382.24	3492.08
382.43	3407.82
382.63	3279.09
382.83	3290.79
383.02	3295.47
383.22	3281.43
383.41	3227.60
383.61	3506.12
383.80	4032.74
384.00	4592.13
384.19	5254.50
384.39	5451.11
384.58	5509.62
384.78	5392.59
384.97	5331.74
385.17	4917.47
385.36	4786.40
385.56	4507.87
385.75	4617.88
385.95	5125.77
386.14	5495.58
386.34	5530.69
386.53	5277.91
386.72	4957.25
386.92	5008.75
387.11	5088.32
387.31	5593.88
387.50	5441.75
387.70	5214.71
387.89	5205.35
388.09	5188.97
388.28	5404.30
388.48	5486.22
388.67	5881.77
388.86	6410.73
389.06	6862.45
389.25	7215.87
389.45	7201.83
389.64	7140.97
389.84	7021.61
390.03	7075.44
390.22	7126.93
390.42	7248.64
390.61	7581.00
390.81	8322.94
391.00	8365.07
391.19	8269.11
391.39	8011.65
391.58	7639.51
391.78	7166.72
391.97	6895.22
392.16	6392.00
392.36	5870.06
392.55	4594.47
392.75	3815.07
392.94	2981.84
393.13	3070.78
393.33	3527.19
393.52	4505.53
393.71	5680.48
393.91	6413.07
394.10	7028.63
394.29	7578.65
394.49	8248.05
394.68	8863.61
394.88	8872.97
395.07	9104.68
395.26	8992.34
395.46	8765.31
395.65	8311.24
395.84	7094.16
396.04	6057.31
396.23	4894.06
396.42	3976.57
396.62	3939.12
396.81	4795.76
397.00	6022.20
397.19	7513.12
397.39	8879.99
397.58	9879.40
397.77	10520.71
397.97	11190.10
398.16	11250.96
398.35	11779.92
398.55	11786.94
398.74	12049.08
398.93	12351.01
399.12	12201.21
399.32	11929.71
399.51	12329.94
399.70	13020.40
399.90	12681.02
400.09	12779.32
400.28	12795.71
400.47	12964.23
400.67	13668.73
400.86	14031.51
401.05	14066.62
401.24	13895.76
401.44	14363.87
401.63	14181.31
401.82	14141.52
402.01	14228.12
402.21	14307.69
402.40	14562.81
402.59	13928.53
402.78	13462.76
402.97	13130.41
403.17	13425.31
403.36	14230.46
403.55	15009.86
403.74	15344.55
403.93	14420.04
404.13	13305.95
404.32	13270.84
404.51	13706.18
404.70	14721.97
404.89	14972.41
405.09	14698.56
405.28	13963.64
405.47	14078.32
405.66	14104.07
405.85	13591.49
406.05	13242.75
406.24	13532.98
406.43	14305.35
406.62	14609.62
406.81	14679.84
407.00	14104.07
407.20	13940.23
407.39	14122.79
407.58	14738.35
407.77	15101.14
407.96	15730.74
408.15	15728.40
408.34	15990.54
408.54	16599.08
408.73	16685.68
408.92	16720.79
409.11	16027.99
409.30	15171.35
409.49	14443.45
409.68	13324.67
409.87	13048.49
410.07	14087.68
410.26	14761.76
410.45	15882.88
410.64	16329.92
410.83	16896.33
411.02	17109.32
411.21	18010.42
411.40	17528.27
411.59	17954.25
411.78	17380.82
411.98	17144.42
412.17	17678.07
412.36	17202.94
412.55	17554.02
412.74	17125.70
412.93	16706.74
413.12	16865.90
413.31	18270.22
413.50	18586.19
413.69	18778.12
413.88	17886.37
414.07	17820.84
414.26	18136.81
414.45	18368.52
414.64	18239.79
414.83	18614.28
415.02	18249.16
415.22	18003.40
415.41	18848.33
415.60	19168.99
415.79	19924.98
415.98	20215.21
416.17	20339.26
416.36	19489.64
416.55	19676.88
416.74	19171.33
416.93	18340.44
417.12	18422.36
417.31	18644.71
417.50	19033.24
417.69	19601.99
417.88	19438.15
418.07	19414.74
418.26	19068.34
418.45	19225.16
418.64	19955.41
418.83	20547.56
419.02	20203.50
419.21	19939.02
419.39	19248.57
419.58	18452.78
419.77	18483.21
419.96	19161.97
420.15	20156.69
420.34	20980.56
420.53	21605.49
420.72	21708.47
420.91	21921.46
421.10	21645.27
421.29	21387.82
421.48	20751.19
421.67	21357.39
421.86	21329.30
422.05	19499.00
422.24	17612.53
422.43	17439.33
422.61	19756.46
422.80	20795.66
422.99	20823.75
423.18	20119.24
423.37	19491.98
423.56	19927.32
423.75	20283.08
423.94	20638.84
424.13	19576.24
424.32	19653.48
424.50	20105.20
424.69	19447.51
424.88	19583.26
425.07	19534.11
425.26	19459.21
425.45	19398.36
425.64	18621.30
425.83	18937.27
426.01	20060.73
426.20	20421.17
426.39	20201.16
426.58	18633.00
426.77	17418.27
426.96	17008.67
427.15	17523.59
427.33	19030.90
427.52	19583.26
427.71	19604.33
427.90	19653.48
428.09	19311.76
428.28	18869.40
428.46	18361.50
428.65	17900.42
428.84	18249.16
429.03	19058.98
429.22	17893.40
429.40	16978.25
429.59	15538.82
429.78	13605.53
429.97	13561.06
430.16	13919.17
430.34	13809.16
430.53	13975.34
430.72	14277.27
430.91	15697.97
431.10	18637.69
431.28	21687.40
431.47	23318.76
431.66	23215.77
431.85	21539.95
432.03	19983.49
432.22	18789.82
432.41	19871.15
432.60	22008.06
432.79	22567.45
432.97	23435.78
433.16	22560.42
433.35	20856.51
433.54	18562.79
433.72	17710.83
433.91	18033.83
434.10	20170.74
434.28	21649.96
434.47	22974.70
434.66	22546.38
434.85	21855.92
435.03	22092.32
435.22	22401.27
435.41	23756.44
435.59	23910.91
435.78	24018.58
435.97	24727.76
436.16	24889.26
436.34	24730.10
436.53	23800.91
436.72	23971.77
436.90	22815.54
437.09	22600.21
437.28	22258.49
437.46	23309.40
437.65	22948.95
437.84	21521.23
438.02	19639.44
438.21	19726.04
438.40	20589.69
438.58	22328.71
438.77	22677.45
438.96	23012.15
439.14	24285.40
439.33	25102.25
439.52	25200.55
439.70	24837.76
439.89	23950.70
440.08	23510.68
440.26	23562.17
440.45	24341.57
440.63	25785.68
440.82	27292.99
441.01	26710.19
441.19	26405.92
441.38	26721.90
441.57	28084.09
441.75	28154.30
441.94	28416.44
442.12	27969.40
442.31	28732.42
442.50	28854.12
442.68	28414.10
442.87	28091.11
443.05	27487.25
443.24	28086.43
443.43	29008.60
443.61	29083.50
443.80	29235.63
443.98	27878.12
444.17	27658.11
444.35	29336.27
444.54	30176.53
444.73	29675.65
444.91	28676.24
445.10	27096.38
445.28	25996.33
445.47	25858.24
445.65	26059.52
445.84	26735.94
446.02	27653.43
446.21	27847.69
446.39	27990.47
446.58	28381.34
446.77	28683.27
446.95	28903.28
447.14	29867.58
447.32	30670.38
447.51	29230.95
447.69	28547.51
447.88	28496.02
448.06	28538.15
448.25	29530.54
448.43	29488.41
448.62	28842.42
448.80	28751.14
448.99	28807.31
449.17	29202.86
449.36	29322.23
449.54	30462.07
449.73	30904.43
449.91	31332.75
450.10	32229.18
450.28	32463.23
450.46	32247.90
450.65	32266.63
450.83	32151.94
451.02	31325.73
451.20	31260.20
451.39	31367.86
451.57	31166.57
451.76	30888.05
451.94	30412.92
452.13	30403.56
452.31	28704.33
452.49	27707.26
452.68	27819.61
452.86	27995.15
453.05	28215.16
453.23	29462.66
453.42	29776.30
453.60	30391.86
453.78	30733.57
453.97	30705.49
454.15	30801.45
454.34	29816.08
454.52	30110.99
454.70	29497.77
454.89	29677.99
455.07	29692.04
455.26	29982.26
455.44	31763.41
455.62	31557.44
455.81	32451.53
455.99	31693.19
456.17	31288.28
456.36	31496.59
456.54	32378.97
456.73	32687.92
456.91	33132.62
457.09	33397.10
457.28	33841.81
457.46	32526.42
457.64	32287.69
457.83	31208.70
458.01	30281.85
458.19	31288.28
458.38	32212.79
458.56	32659.84
458.74	32811.97
458.93	31927.25
459.11	31992.78
459.29	31466.16
459.48	31611.28
459.66	31826.60
459.84	32196.41
460.03	32484.30
460.21	32222.16
460.39	33514.13
460.57	33362.00
460.76	33621.80
460.94	33457.96
461.12	33350.29
461.31	33511.79
461.49	33127.94
461.67	33516.47
461.85	34525.24
462.04	33970.54
462.22	34742.91
462.40	34410.56
462.59	33909.68
462.77	34288.85
462.95	34218.63
463.13	33647.54
463.32	33268.37
463.50	33385.40
463.68	33418.17
463.86	33670.95
464.05	32931.34
464.23	32163.64
464.41	32411.74
464.59	31456.80
464.78	32929.00
464.96	32900.91
465.14	32283.01
465.32	33418.17
465.50	34653.97
465.69	34515.88
465.87	33818.40
466.05	33219.22
466.23	31372.54
466.41	30555.69
466.60	31789.16
466.78	31913.20
466.96	32477.27
467.14	32741.75
467.32	33479.02
467.51	33488.38
467.69	32053.64
467.87	32526.42
468.05	33242.63
468.23	33083.47
468.41	33013.26
468.60	33039.00
468.78	33546.90
468.96	32919.63
469.14	33677.97
469.32	33591.37
469.50	32437.48
469.69	32634.09
469.87	32376.63
470.05	31955.33
470.23	32266.63
470.41	32126.19
470.59	33015.60
470.77	33137.30
470.95	33462.64
471.14	33888.62
471.32	33790.31
471.50	35943.61
471.68	35866.37
471.86	36077.02
472.04	36545.12
472.22	36498.31
472.40	34787.38
472.58	34958.24
472.77	33802.02
472.95	35124.42
473.13	35637.00
473.31	34614.18
473.49	35505.93
473.67	35744.66
473.85	35990.42
474.03	36711.30
474.21	36470.23
474.39	37095.15
474.57	37198.13
474.75	37488.36
474.93	36968.76
475.12	36144.89
475.30	36603.64
475.48	36816.63
475.66	37216.86
475.84	36135.53
476.02	36498.31
476.20	35613.59
476.38	36086.38
476.56	37462.61
476.74	37993.92
476.92	38422.23
477.10	38616.50
477.28	39835.92
477.46	40055.93
477.64	40325.09
477.82	40322.75
478.00	40301.68
478.18	39777.40
478.36	39606.55
478.54	40053.59
478.72	39728.25
478.90	40905.54
479.08	42225.60
479.26	42682.01
479.44	42459.66
479.62	42443.27
479.80	42029.00
479.98	42316.89
480.16	42855.21
480.34	41670.90
480.52	42316.89
480.70	42784.99
480.88	43093.94
481.06	43658.01
481.24	43955.26
481.41	44865.73
481.59	45268.30
481.77	44861.05
481.95	44690.19
482.13	44535.71
482.31	44722.96
482.49	45633.42
482.67	45043.61
482.85	45935.35
483.03	45944.72
483.21	46611.77
483.39	46361.33
483.57	45780.88
483.74	45373.63
483.92	45684.92
484.10	46047.70
484.28	46731.14
484.46	46873.91
484.64	47697.78
484.82	46763.90
485.00	46436.23
485.18	45558.53
485.35	44201.02
485.53	41125.55
485.71	36950.04
485.89	37340.91
486.07	39222.70
486.25	42375.40
486.43	44458.48
486.61	45331.50
486.78	45502.35
486.96	45509.38
487.14	47229.67
487.32	47812.46
487.50	48980.39
487.68	49738.72
487.85	50394.07
488.03	50443.23
488.21	49813.62
488.39	48985.07
488.57	48465.47
488.75	47870.98
488.92	49670.85
489.10	51686.05
489.28	52917.17
489.46	53600.61
489.64	53420.39
489.81	53350.17
489.99	53090.37
490.17	53052.92
490.35	53586.57
490.53	53029.52
490.70	52713.55
490.88	52631.63
491.06	53736.36
491.24	53631.04
491.41	52397.57
491.59	50688.98
491.77	49975.12
491.95	51239.01
492.13	52697.16
492.30	53509.33
492.48	54630.44
492.66	54784.92
492.84	54733.43
493.01	54770.88
493.19	54192.76
493.37	53628.69
493.54	53591.25
493.72	54337.88
493.90	55234.30
494.08	55653.26
494.25	56205.62
494.43	56603.52
494.61	56963.96
494.79	57050.56
494.96	56542.66
495.14	55831.14
495.32	55002.59
495.49	54466.61
495.67	55798.37
495.85	56882.04
496.02	57242.48
496.20	56982.68
496.38	56561.39
496.55	56523.94
496.73	57024.81
496.91	57195.67
497.09	57598.24
497.26	58038.26
497.44	57492.92
497.62	56851.61
497.79	56222.01
497.97	54838.75
498.14	55306.86
498.32	56250.09
498.50	57003.75
498.67	57532.71
498.85	57415.68
499.03	57645.05
499.20	58106.14
499.38	57808.89
499.56	57717.61
499.73	57176.95
499.91	56779.06
500.08	56521.60
500.26	55634.53
500.44	56289.88
500.61	56846.93
500.79	56807.14
500.97	56332.01
501.14	56193.92
501.32	56079.24
501.49	55948.17
501.67	56329.67
501.84	56912.47
502.02	56975.66
502.20	57345.47
502.37	57537.39
502.55	57675.48
502.72	58127.20
502.90	58618.72
503.07	57916.56
503.25	57851.02
503.43	57083.33
503.60	56360.10
503.78	55744.54
503.95	56376.48
504.13	57670.80
504.30	58368.28
504.48	58099.12
504.65	57925.92
504.83	57839.32
505.01	58515.73
505.18	58803.62
505.36	59423.86
505.53	59337.26
505.71	59599.40
505.88	59477.69
506.06	58831.71
506.23	58768.51
506.41	58497.01
506.58	58649.14
506.76	58536.80
506.93	58607.01
507.11	58218.49
507.28	58539.14
507.46	58143.59
507.63	57439.09
507.81	57338.44
507.98	57645.05
508.16	58230.19
508.33	58766.17
508.50	58995.54
508.68	59515.14
508.85	59627.49
509.03	59613.44
509.20	59695.36
509.38	58878.52
509.55	58211.46
509.73	58583.61
509.90	58995.54
510.08	59135.98
510.25	58892.56
510.42	58763.83
510.60	58927.67
510.77	59119.59
510.95	59700.04
511.12	59606.42
511.30	60083.89
511.47	60261.77
511.64	60119.00
511.82	59732.81
511.99	59056.40
512.17	58717.02
512.34	58436.16
512.51	58480.63
512.69	58808.30
512.86	58609.35
513.04	59072.78
513.21	59203.85
513.38	58672.55
513.56	58550.84
513.73	57876.77
513.90	58244.23
514.08	58358.92
514.25	58337.85
514.43	58466.58
514.60	58705.32
514.77	58925.33
514.95	58983.84
515.12	58705.32
515.29	59000.22
515.47	59477.69
515.64	59767.92
515.81	59339.60
515.99	58857.45
516.16	57340.78
516.33	55077.49
516.51	53785.51
516.68	53015.47
516.85	52514.60
517.03	53167.61
517.20	55980.93
517.37	58241.89
517.54	58866.81
517.72	58199.76
517.89	55955.19
518.06	54042.97
518.24	54513.42
518.41	56369.46
518.58	57389.94
518.75	57773.78
518.93	57853.36
519.10	57815.91
519.27	58216.14
519.45	58314.45
519.62	59276.41
519.79	59437.90
519.96	59224.92
520.14	58747.45
520.31	58185.72
520.48	58136.57
520.65	58429.13
520.83	59559.61
521.00	59739.83
521.17	59346.62
521.34	59004.91
521.52	59140.66
521.69	59936.44
521.86	60182.19
522.03	59760.90
522.20	58698.30
522.38	57708.25
522.55	57818.25
522.72	58382.32
522.89	58564.88
523.07	58859.79
523.24	59103.21
523.41	59898.99
523.58	60114.32
523.75	60563.70
523.92	60444.33
524.10	60418.59
524.27	60456.04
524.44	60210.28
524.61	59980.91
524.78	59863.88
524.96	59917.71
525.13	59756.22
525.30	60130.70
525.47	60512.21
525.64	60355.39
525.81	59419.18
525.98	58461.90
526.16	57048.22
526.33	56474.79
526.50	56018.38
526.67	55632.19
526.84	56439.68
527.01	57333.76
527.18	57829.96
527.36	58883.20
527.53	59732.81
527.70	59831.11
527.87	59377.05
528.04	58773.19
528.21	59435.56
528.38	59987.93
528.55	60537.96
528.72	60732.22
528.89	60992.02
529.07	60722.86
529.24	60058.15
529.41	59405.14
529.58	58993.20
529.75	59274.07
529.92	59568.97
530.09	59887.29
530.26	60205.60
530.43	60568.38
530.60	60582.43
530.77	60748.60
530.94	60853.93
531.11	60446.68
531.28	60266.45
531.46	60025.38
531.63	60280.50
531.80	59959.84
531.97	59529.19
532.14	58894.90
532.31	57694.21
532.48	57525.69
532.65	57497.60
532.82	58382.32
532.99	59416.84
533.16	59695.36
533.33	60219.64
533.50	59739.83
533.67	59412.16
533.84	58990.86
534.01	59173.42
534.18	59253.00
534.35	59526.84
534.52	59669.62
534.69	59774.94
534.86	59873.24
535.03	60287.52
535.20	60402.21
535.37	60921.80
535.54	61010.74
535.71	60697.11
535.88	60221.98
536.05	59674.30
536.22	59196.83
536.38	58922.99
536.55	58763.83
536.72	58237.21
536.89	58120.18
537.06	58990.86
537.23	59695.36
537.40	59985.59
537.57	59959.84
537.74	59716.43
537.91	59662.60
538.08	59592.38
538.25	59501.10
538.42	59779.62
538.59	59594.72
538.75	59054.06
538.92	59112.57
539.09	58607.01
539.26	58564.88
539.43	58274.66
539.60	58546.16
539.77	58599.99
539.94	58389.34
540.11	57968.05
540.28	57254.18
540.44	57549.09
540.61	57701.23
540.78	58082.73
540.95	58232.53
541.12	58571.91
541.29	58894.90
541.46	59138.32
541.62	59096.19
541.79	59021.29
541.96	58375.30
542.13	58513.39
542.30	58869.15
542.47	58876.18
542.63	58475.94
542.80	58646.80
542.97	58553.18
543.14	58478.28
543.31	58567.23
543.48	58906.60
543.64	59590.04
543.81	60111.98
543.98	59856.86
544.15	58976.82
544.32	58497.01
544.48	58656.17
544.65	59430.88
544.82	59550.25
544.99	59213.21
545.16	58766.17
545.32	58789.58
545.49	59409.82
545.66	59655.57
545.83	59262.36
546.00	58976.82
546.16	58670.21
546.33	58710.00
546.50	58946.39
546.67	59257.68
546.83	58925.33
547.00	58791.92
547.17	58265.30
547.34	57762.08
547.50	57565.48
547.67	58024.22
547.84	58085.07
548.00	58571.91
548.17	59065.76
548.34	58848.09
548.51	58862.13
548.67	58775.53
548.84	59000.22
549.01	58834.05
549.18	58672.55
549.34	58808.30
549.51	58672.55
549.68	58754.47
549.84	58506.37
550.01	58305.09
550.18	58440.84
550.34	58415.09
550.51	58489.99
550.68	58429.13
550.84	57939.96
551.01	58202.10
551.18	58152.95
551.34	58377.64
551.51	58653.82
551.68	58974.48
551.84	58869.15
552.01	58684.25
552.18	58665.53
552.34	57916.56
552.51	57497.60
552.68	57303.34
552.84	57769.10
553.01	58122.52
553.18	58227.85
553.34	58279.34
553.51	58328.49
553.67	58581.27
553.84	58805.96
554.01	58553.18
554.17	58211.46
554.34	58347.21
554.51	58637.44
554.67	59016.61
554.84	58791.92
555.00	58323.81
555.17	58223.17
555.33	58117.84
555.50	58314.45
555.67	58164.65
555.83	58099.12
556.00	57546.75
556.16	57670.80
556.33	57338.44
556.50	57134.82
556.66	57394.62
556.83	56968.64
556.99	57284.61
557.16	57394.62
557.32	57542.07
557.49	57712.93
557.65	57675.48
557.82	57471.85
557.98	57350.15
558.15	56982.68
558.32	56282.86
558.48	55578.36
558.65	55643.90
558.81	56147.11
558.98	56219.67
559.14	56802.46
559.31	56671.39
559.47	56591.81
559.64	56158.81
559.80	56226.69
559.97	56264.14
560.13	56650.33
560.30	57162.90
560.46	57806.55
560.63	58262.96
560.79	58031.24
560.96	57574.84
561.12	56577.77
561.29	55636.87
561.45	55906.04
561.61	56418.61
561.78	56809.48
561.94	56779.06
562.11	56596.49
562.27	56451.38
562.44	56788.42
562.60	56975.66
562.77	57298.65
562.93	57010.77
563.10	57013.11
563.26	56395.21
563.42	56615.22
563.59	56491.17
563.75	56114.34
563.92	56257.12
564.08	56332.01
564.24	56584.79
564.41	56734.59
564.57	56491.17
564.74	56465.42
564.90	56264.14
565.07	56074.55
565.23	55627.51
565.39	55220.26
565.56	54965.14
565.72	54768.54
565.88	55269.41
566.05	55430.91
566.21	55559.64
566.38	55526.87
566.54	55739.86
566.70	56322.65
566.87	56334.35
567.03	56315.63
567.19	56767.35
567.36	56362.44
567.52	56170.52
567.68	55941.14
567.85	55140.68
568.01	55044.72
568.17	54574.27
568.34	54789.60
568.50	54447.88
568.66	54546.18
568.83	55140.68
568.99	55093.87
569.15	55332.60
569.32	55103.23
569.48	54703.00
569.64	54976.84
569.81	54527.46
569.97	54384.69
570.13	54361.28
570.30	54042.97
570.46	53375.92
570.62	53095.05
570.78	52849.30
570.95	53216.76
571.11	54040.63
571.27	54155.32
571.43	54340.22
571.60	54719.38
571.76	54948.76
571.92	55093.87
572.09	54918.33
572.25	54941.74
572.41	55037.70
572.57	55100.89
572.74	55033.02
572.90	54628.10
573.06	54658.53
573.22	54733.43
573.38	54546.18
573.55	54611.72
573.71	54845.77
573.87	54813.01
574.03	54450.22
574.20	54419.80
574.36	54220.85
574.52	54108.50
574.68	53914.24
574.84	53354.85
575.01	53202.72
575.17	52987.39
575.33	53387.62
575.49	53628.69
575.65	53612.31
575.82	53471.88
575.98	53387.62
576.14	53813.60
576.30	53680.19
576.46	53921.26
576.62	53956.37
576.79	53736.36
576.95	53588.91
577.11	53195.70
577.27	53595.93
577.43	53867.43
577.59	53179.31
577.75	52776.74
577.92	52133.09
578.08	52062.88
578.24	52046.49
578.40	52498.22
578.56	52512.26
578.72	52772.06
578.88	52690.14
579.04	52891.43
579.21	52968.66
579.37	53078.67
579.53	53361.87
579.69	53317.40
579.85	53628.69
580.01	53188.67
580.17	52615.24
580.33	52547.37
580.49	52706.52
580.65	53186.33
580.82	53258.89
580.98	53038.88
581.14	53045.90
581.30	53176.97
581.46	52917.17
581.62	53172.29
581.78	53319.74
581.94	53392.30
582.10	53460.18
582.26	53504.65
582.42	53123.14
582.58	53570.18
582.74	53319.74
582.90	53294.00
583.06	53514.01
583.22	53352.51
583.38	53216.76
583.54	53052.92
583.70	52889.09
583.86	53057.60
584.02	52863.34
584.18	53132.50
584.34	52659.71
584.50	52783.76
584.66	52664.39
584.82	52303.95
584.98	52095.64
585.14	51861.59
585.30	51171.13
