SpectraSuite Data File
++++++++++++++++++++++++++++++++++++
Date: Mon Oct 07 14:54:57 GMT-05:00 2013
User: price-jones
Dark Spectrum Present: No
Reference Spectrum Present: No
Number of Sampled Component Spectra: 1
Spectrometers: USB2+H05261
Integration Time (usec): 10000 (USB2+H05261)
Spectra Averaged: 1 (USB2+H05261)
Boxcar Smoothing: 0 (USB2+H05261)
Correct for Electrical Dark: No (USB2+H05261)
Strobe/Lamp Enabled: No (USB2+H05261)
Correct for Detector Non-linearity: No (USB2+H05261)
Correct for Stray Light: No (USB2+H05261)
Number of Pixels in Processed Spectrum: 2048
>>>>>Begin Processed Spectral Data<<<<<
365.73	0.00
365.92	0.00
366.12	0.00
366.32	0.00
366.52	0.00
366.72	0.00
366.91	0.00
367.11	0.00
367.31	0.00
367.51	0.00
367.70	0.00
367.90	0.00
368.10	0.00
368.30	0.00
368.49	0.00
368.69	0.00
368.89	0.00
369.09	0.00
369.28	0.00
369.48	0.00
369.68	0.00
369.87	0.00
370.07	0.00
370.27	0.00
370.47	107.66
370.66	1493.26
370.86	1687.53
371.06	2003.50
371.25	1820.94
371.45	1629.01
371.65	1355.17
371.84	1430.07
372.04	1603.27
372.24	1806.89
372.44	1888.81
372.63	1743.70
372.83	1556.46
373.03	1413.68
373.22	1394.96
373.42	1439.43
373.62	1657.10
373.81	1771.79
374.01	1746.04
374.21	1511.99
374.40	1425.39
374.60	1582.20
374.79	1811.57
374.99	2108.82
375.19	2225.85
375.38	2085.42
375.58	2047.97
375.78	2033.93
375.97	1966.05
376.17	2036.27
376.37	2165.00
376.56	2291.38
376.76	2382.67
376.95	2534.80
377.15	2679.91
377.35	2736.09
377.54	3073.12
377.74	2979.50
377.93	2937.37
378.13	2801.62
378.33	2532.46
378.52	2363.94
378.72	2396.71
378.91	2368.62
379.11	2253.94
379.31	2228.19
379.50	2157.97
379.70	2443.52
379.89	2679.91
380.09	2832.05
380.28	2827.37
380.48	2857.79
380.68	2806.30
380.87	2722.04
381.07	2389.69
381.26	2132.23
381.46	2101.80
381.65	2012.86
381.85	2012.86
382.04	1872.43
382.24	1732.00
382.43	1682.85
382.63	1603.27
382.83	1584.54
383.02	1678.16
383.22	1654.76
383.41	1689.87
383.61	1792.85
383.80	2193.08
384.00	2574.59
384.19	2679.91
384.39	2806.30
384.58	2700.98
384.78	2743.11
384.97	2555.86
385.17	2497.35
385.36	2399.05
385.56	2284.36
385.75	2399.05
385.95	2478.63
386.14	2743.11
386.34	2899.92
386.53	2679.91
386.72	2607.36
386.92	2612.04
387.11	2860.13
387.31	2878.86
387.50	2764.17
387.70	2813.32
387.89	2628.42
388.09	2722.04
388.28	2764.17
388.48	2918.65
388.67	3094.19
388.86	3403.14
389.06	3520.17
389.25	3894.65
389.45	3758.90
389.64	3789.33
389.84	3705.07
390.03	3698.05
390.22	3826.78
390.42	3815.07
390.61	4234.03
390.81	4367.44
391.00	4409.57
391.19	4344.03
391.39	4119.34
391.58	3801.03
391.78	3454.63
391.97	3590.38
392.16	3157.38
392.36	2876.52
392.55	2176.70
392.75	1715.61
392.94	1544.75
393.13	1570.50
393.33	2040.95
393.52	2464.58
393.71	3016.95
393.91	3405.48
394.10	3691.02
394.29	4070.19
394.49	4327.65
394.68	4650.64
394.88	4475.10
395.07	4786.40
395.26	4662.35
395.46	4528.94
395.65	4170.83
395.84	3468.67
396.04	2892.90
396.23	2275.00
396.42	1975.41
396.62	2195.42
396.81	2605.02
397.00	3412.50
397.19	4107.64
397.39	4896.40
397.58	5390.25
397.77	5511.96
397.97	5806.87
398.16	5905.17
398.35	6106.46
398.55	6235.19
398.74	6408.39
398.93	6485.62
399.12	6429.45
399.32	6310.08
399.51	6506.69
399.70	6750.10
399.90	6520.73
400.09	6747.76
400.28	6766.49
400.47	6881.18
400.67	7258.00
400.86	7281.41
401.05	7265.02
401.24	7248.64
401.44	7253.32
401.63	7459.29
401.82	7297.79
402.01	7588.02
402.21	7634.83
402.40	7613.76
402.59	7297.79
402.78	6813.30
402.97	6775.85
403.17	7117.57
403.36	7503.76
403.55	7765.90
403.74	7683.98
403.93	7417.16
404.13	6691.59
404.32	6981.82
404.51	7440.56
404.70	7838.45
404.89	7716.75
405.09	7613.76
405.28	7286.09
405.47	7325.88
405.66	7098.84
405.85	7199.49
406.05	6902.24
406.24	7232.26
406.43	7316.51
406.62	7349.28
406.81	7620.78
407.00	7524.82
407.20	7164.38
407.39	7243.96
407.58	7911.01
407.77	8086.55
407.96	7880.58
408.15	8070.17
408.34	8439.97
408.54	8762.97
408.73	8765.31
408.92	8365.07
409.11	8098.25
409.30	7803.35
409.49	7204.17
409.68	6888.20
409.87	6970.12
410.07	7522.48
410.26	7735.47
410.45	8180.17
410.64	8601.47
410.83	8669.34
411.02	9085.96
411.21	9186.60
411.40	9107.02
411.59	9221.71
411.78	9167.88
411.98	9114.05
412.17	9062.55
412.36	8938.51
412.55	8858.93
412.74	8697.43
412.93	8805.10
413.12	8718.50
413.31	9502.58
413.50	9671.09
413.69	9455.76
413.88	9289.59
414.07	9130.43
414.26	9408.95
414.45	9582.15
414.64	9448.74
414.83	9631.30
415.02	9404.27
415.22	9523.64
415.41	9430.02
415.60	9788.12
415.79	10377.94
415.98	10427.09
416.17	10190.69
416.36	10064.30
416.55	10092.39
416.74	9624.28
416.93	9411.29
417.12	9437.04
417.31	9462.79
417.50	9472.15
417.69	9973.02
417.88	10010.47
418.07	9900.47
418.26	9701.52
418.45	10164.95
418.64	10321.76
418.83	10757.10
419.02	10312.40
419.21	10122.82
419.39	9900.47
419.58	9345.76
419.77	9565.77
419.96	10040.90
420.15	10527.73
420.34	10717.31
420.53	11295.43
420.72	11330.53
420.91	11199.46
421.10	11115.20
421.29	10925.62
421.48	10693.91
421.67	10979.45
421.86	10733.70
422.05	9514.28
422.24	8950.21
422.43	9128.09
422.61	10122.82
422.80	10518.37
422.99	10408.36
423.18	10078.35
423.37	10118.14
423.56	10164.95
423.75	10457.51
423.94	10530.07
424.13	10080.69
424.32	9954.30
424.50	9755.35
424.69	10010.47
424.88	9987.07
425.07	9977.70
425.26	9898.13
425.45	9762.37
425.64	9806.84
425.83	9954.30
426.01	10363.89
426.20	10202.40
426.39	10321.76
426.58	9577.47
426.77	8748.92
426.96	8681.05
427.15	9172.56
427.33	9891.10
427.52	9909.83
427.71	10080.69
427.90	9680.46
428.09	9565.77
428.28	9404.27
428.46	9366.82
428.65	9062.55
428.84	9441.72
429.03	9458.10
429.22	8795.73
429.40	8287.84
429.59	7452.27
429.78	6839.05
429.97	6883.52
430.16	6892.88
430.34	6927.99
430.53	6853.09
430.72	7304.81
430.91	8332.31
431.10	9767.06
431.28	11028.60
431.47	11541.18
431.66	11747.15
431.85	10490.28
432.03	9696.84
432.22	9575.13
432.41	10242.18
432.60	11154.99
432.79	11515.44
432.97	11634.80
433.16	11187.76
433.35	10050.26
433.54	9270.86
433.72	9240.44
433.91	9516.62
434.10	10523.05
434.28	10920.94
434.47	11463.94
434.66	10846.04
434.85	11129.25
435.03	11620.76
435.22	11473.31
435.41	11967.16
435.59	11882.90
435.78	12016.31
435.97	12098.23
436.16	12173.13
436.34	12126.32
436.53	11985.88
436.72	12065.46
436.90	11302.45
437.09	11541.18
437.28	11152.65
437.46	11730.76
437.65	11417.13
437.84	10394.32
438.02	10122.82
438.21	10228.14
438.40	10682.20
438.58	11164.36
438.77	11576.29
438.96	11573.95
439.14	12231.64
439.33	12308.88
439.52	12753.58
439.70	12205.89
439.89	11496.71
440.08	11496.71
440.26	11641.82
440.45	12236.32
440.63	12924.44
440.82	13558.72
441.01	12954.87
441.19	13465.10
441.38	13673.41
441.57	13645.32
441.75	13884.06
441.94	14003.43
442.12	13638.30
442.31	14614.30
442.50	14134.50
442.68	14331.10
442.87	14031.51
443.05	13886.40
443.24	14410.68
443.43	14178.97
443.61	14160.24
443.80	14602.60
443.98	13907.46
444.17	14073.64
444.35	14869.42
444.54	15016.88
444.73	14937.30
444.91	13598.51
445.10	13359.78
445.28	12901.03
445.47	12835.50
445.65	12669.32
445.84	13474.46
446.02	13575.11
446.21	13982.36
446.39	13919.17
446.58	14178.97
446.77	14597.92
446.95	14677.50
447.14	14785.16
447.32	15229.87
447.51	14647.07
447.69	14143.86
447.88	13853.63
448.06	13996.40
448.25	14562.81
448.43	14562.81
448.62	14118.11
448.80	14059.60
448.99	14335.78
449.17	14249.18
449.36	14583.88
449.54	14960.70
449.73	15164.33
449.91	15183.06
450.10	15796.28
450.28	15751.81
450.46	15527.11
450.65	15419.45
450.83	15335.19
451.02	15442.85
451.20	15030.92
451.39	14920.92
451.57	15068.37
451.76	15094.11
451.94	14899.85
452.13	14642.39
452.31	13893.42
452.49	13444.04
452.68	13605.53
452.86	13657.03
453.05	14012.79
453.23	14965.39
453.42	14958.36
453.60	14918.57
453.78	15047.30
453.97	14684.52
454.15	14511.32
454.34	14476.21
454.52	14813.25
454.70	14558.13
454.89	14635.37
455.07	14485.58
455.26	14930.28
455.44	15199.44
455.62	15403.07
455.81	15538.82
455.99	15012.20
456.17	15330.51
456.36	15489.67
456.54	16039.69
456.73	15410.09
456.91	16240.98
457.09	16191.83
457.28	16116.93
457.46	15754.15
457.64	15719.04
457.83	14703.25
458.01	14829.63
458.19	15438.17
458.38	15154.97
458.56	15838.41
458.74	15721.38
458.93	15517.75
459.11	15225.18
459.29	15110.50
459.48	15396.04
459.66	14988.79
459.84	15220.50
460.03	15297.74
460.21	15417.11
460.39	15953.09
460.57	15861.81
460.76	15782.23
460.94	16269.06
461.12	16177.78
461.31	16383.75
461.49	15925.00
461.67	16348.64
461.85	16566.31
462.04	16372.05
462.22	16573.33
462.40	16388.43
462.59	15770.53
462.77	16095.86
462.95	16123.95
463.13	16243.32
463.32	16100.55
463.50	15417.11
463.68	15913.30
463.86	15950.75
464.05	15997.56
464.23	15356.25
464.41	15243.91
464.59	14895.17
464.78	15517.75
464.96	15260.29
465.14	15494.35
465.32	15946.07
465.50	16175.44
465.69	16299.49
465.87	15712.02
466.05	15033.26
466.23	14941.98
466.41	15143.27
466.60	15805.64
466.78	15489.67
466.96	15297.74
467.14	15435.83
467.32	15606.69
467.51	15578.61
467.69	15180.71
467.87	15309.44
468.05	15447.54
468.23	15611.37
468.41	15365.62
468.60	15508.39
468.78	15480.30
468.96	15634.78
469.14	16025.65
469.32	16252.68
469.50	15145.61
469.69	14974.75
469.87	14630.69
470.05	15281.36
470.23	15068.37
470.41	15662.86
470.59	15480.30
470.77	15267.31
470.95	15545.84
471.14	15953.09
471.32	16304.17
471.50	16893.99
471.68	17048.46
471.86	17207.62
472.04	16929.09
472.22	16652.91
472.40	15969.48
472.58	16201.19
472.77	16121.61
472.95	16599.08
473.13	16435.24
473.31	16379.07
473.49	16358.00
473.67	16460.99
473.85	16430.56
474.03	16957.18
474.21	16659.93
474.39	16994.63
474.57	16826.11
474.75	17284.86
474.93	17137.40
475.12	16533.54
475.30	16748.87
475.48	16727.81
475.66	17116.34
475.84	16837.81
476.02	17018.04
476.20	16435.24
476.38	16931.44
476.56	17542.32
476.74	17551.68
476.92	17610.19
477.10	17668.70
477.28	18455.12
477.46	18611.94
477.64	18604.92
477.82	18356.82
478.00	18237.45
478.18	18090.00
478.36	18129.79
478.54	17841.90
478.72	18714.92
478.90	19145.58
479.08	19208.78
479.26	19646.46
479.44	19066.00
479.62	19288.35
479.80	19419.42
479.98	19440.49
480.16	19737.74
480.34	19950.73
480.52	19836.04
480.70	19442.83
480.88	19627.73
481.06	20023.28
481.24	20533.52
481.41	20959.50
481.59	21546.97
481.77	20765.23
481.95	20320.53
482.13	21125.68
482.31	20493.73
482.49	21326.96
482.67	20458.62
482.85	20545.22
483.03	20744.17
483.21	21144.40
483.39	21212.28
483.57	21090.57
483.74	20870.56
483.92	20851.83
484.10	21207.59
484.28	21666.34
484.46	21785.71
484.64	21523.57
484.82	21556.33
485.00	21266.11
485.18	20465.64
485.35	19594.96
485.53	17458.06
485.71	15997.56
485.89	17001.65
486.07	17954.25
486.25	19742.42
486.43	20173.08
486.61	19545.81
486.78	20058.39
486.96	20655.23
487.14	21710.81
487.32	21986.99
487.50	22122.74
487.68	21944.86
487.85	23440.47
488.03	22916.19
488.21	22417.65
488.39	21916.78
488.57	22178.92
488.75	21865.28
488.92	22948.95
489.10	24659.88
489.28	25207.57
489.46	25998.67
489.64	26106.34
489.81	25923.77
489.99	25219.27
490.17	25549.29
490.35	25610.14
490.53	25275.45
490.70	24996.92
490.88	25165.44
491.06	26050.16
491.24	25549.29
491.41	24016.24
491.59	23241.52
491.77	22483.19
491.95	23929.64
492.13	24779.25
492.30	24966.49
492.48	26581.46
492.66	27358.52
492.84	26553.38
493.01	26398.90
493.19	25446.30
493.37	24657.54
493.54	25120.97
493.72	26106.34
493.90	27133.83
494.08	27201.71
494.25	28383.68
494.43	27936.63
494.61	28961.79
494.79	28933.70
494.96	28582.62
495.14	27009.78
495.32	26377.84
495.49	26497.20
495.67	27007.44
495.85	29408.83
496.02	28549.85
496.20	29291.80
496.38	28489.00
496.55	28098.13
496.73	28395.38
496.91	28254.95
497.09	28379.00
497.26	28992.22
497.44	29041.37
497.62	28325.16
497.79	27857.06
497.97	26977.01
498.14	26485.50
498.32	27709.60
498.50	28205.80
498.67	29027.32
498.85	28280.69
499.03	27927.27
499.20	28552.20
499.38	28781.57
499.56	27730.67
499.73	27754.07
499.91	27344.48
500.08	26462.10
500.26	26120.38
500.44	27098.72
500.61	27850.03
500.79	27199.37
500.97	27033.19
501.14	27218.09
501.32	27014.46
501.49	26171.87
501.67	26778.07
501.84	28283.03
502.02	27831.31
502.20	27871.10
502.37	28313.46
502.55	28790.93
502.72	29369.04
502.90	29465.00
503.07	28877.53
503.25	28505.38
503.43	27868.76
503.60	26426.99
503.78	26499.55
503.95	27082.34
504.13	27922.59
504.30	29235.63
504.48	29371.38
504.65	28627.09
504.83	29139.67
505.01	29106.90
505.18	29371.38
505.36	29738.85
505.53	29750.55
505.71	30478.46
505.88	30125.04
506.06	29909.71
506.23	29172.44
506.41	28861.15
506.58	28830.72
506.76	28306.44
506.93	28943.06
507.11	27798.54
507.28	28627.09
507.46	28095.79
507.63	27725.99
507.81	27054.25
507.98	27615.98
508.16	28547.51
508.33	28500.70
508.50	28257.29
508.68	29567.99
508.85	30263.13
509.03	29635.86
509.20	28833.06
509.38	28589.64
509.55	28226.86
509.73	29097.54
509.90	29605.44
510.08	28538.15
510.25	28596.67
510.42	28568.58
510.60	28687.95
510.77	29593.73
510.95	30691.44
511.12	29556.28
511.30	30403.56
511.47	30862.30
511.64	29993.97
511.82	29855.87
511.99	28950.09
512.17	29355.00
512.34	28563.90
512.51	28287.71
512.69	28418.78
512.86	29205.20
513.04	29371.38
513.21	29235.63
513.38	29120.95
513.56	28264.31
513.73	27515.34
513.90	27885.14
514.08	27655.77
514.25	27948.34
514.43	28481.98
514.60	28896.25
514.77	29142.01
514.95	28725.39
515.12	28879.87
515.29	28659.86
515.47	29378.40
515.64	29380.74
515.81	29163.08
515.99	28388.36
516.16	25963.56
516.33	24493.71
516.51	23339.82
516.68	22548.72
516.85	22101.68
517.03	22920.87
517.20	25130.33
517.37	27527.04
517.54	27529.38
517.72	26309.96
517.89	24793.29
518.06	23800.91
518.24	24215.18
518.41	25656.95
518.58	26939.57
518.75	26920.84
518.93	27267.24
519.10	27239.15
519.27	27344.48
519.45	27789.18
519.62	28386.02
519.79	28800.29
519.96	28636.45
520.14	27494.27
520.31	27384.27
520.48	27213.41
520.65	27917.91
520.83	28100.47
521.00	28446.87
521.17	28189.41
521.34	27723.65
521.52	27948.34
521.69	28673.90
521.86	29284.78
522.03	28371.97
522.20	27260.22
522.38	25991.65
522.55	26319.32
522.72	27208.73
522.89	26773.39
523.07	27253.20
523.24	28208.14
523.41	28336.87
523.58	28381.34
523.75	27899.19
523.92	29113.92
524.10	28933.70
524.27	29003.92
524.44	28868.17
524.61	29357.34
524.78	29083.50
524.96	28343.89
525.13	28802.63
525.30	29799.70
525.47	29708.42
525.64	29184.14
525.81	27555.13
525.98	26019.74
526.16	24325.19
526.33	24350.93
526.50	24840.11
526.67	24601.37
526.84	24718.40
527.01	25633.55
527.18	26764.03
527.36	27452.14
527.53	28669.22
527.70	27953.02
527.87	26759.34
528.04	26757.00
528.21	27672.15
528.38	28210.48
528.55	29490.75
528.72	28699.65
528.89	29092.86
529.07	29116.26
529.24	27543.42
529.41	27594.92
529.58	27276.60
529.75	27136.17
529.92	27840.67
530.09	27421.72
530.26	28219.84
530.43	26986.38
530.60	28063.02
530.77	28388.36
530.94	29649.91
531.11	28685.61
531.28	28517.09
531.46	27789.18
531.63	28570.92
531.80	28276.01
531.97	27339.80
532.14	26345.07
532.31	25329.28
532.48	24479.66
532.65	24505.41
532.82	25495.46
532.99	26600.19
533.16	28095.79
533.33	28610.71
533.50	27402.99
533.67	26881.05
533.84	27204.05
534.01	26960.63
534.18	27241.50
534.35	26455.08
534.52	26927.86
534.69	27295.33
534.86	27168.94
535.03	27545.76
535.20	27953.02
535.37	28271.33
535.54	28240.90
535.71	27866.42
535.88	27309.37
536.05	26398.90
536.22	26359.11
536.38	25584.40
536.55	26122.72
536.72	25853.56
536.89	25968.24
537.06	27248.52
537.23	27164.26
537.40	27147.87
537.57	27262.56
537.74	26265.49
537.91	26394.22
538.08	27398.31
538.25	27047.23
538.42	26441.03
538.59	27119.79
538.75	27108.08
538.92	26946.59
539.09	26111.02
539.26	24989.90
539.43	24809.68
539.60	24692.65
539.77	25039.05
539.94	24395.40
540.11	23873.46
540.28	23477.91
540.44	24554.56
540.61	24346.25
540.78	24858.83
540.95	26054.84
541.12	24835.42
541.29	25940.16
541.46	25738.87
541.62	25598.44
541.79	25223.95
541.96	24907.98
542.13	25881.64
542.30	25790.36
542.47	25713.13
542.63	25479.07
542.80	24507.75
542.97	24730.10
543.14	24573.28
543.31	24573.28
543.48	26338.05
543.64	26396.56
543.81	26967.65
543.98	25614.82
544.15	25830.15
544.32	25025.01
544.48	25652.27
544.65	24573.28
544.82	24978.20
544.99	25296.51
545.16	25638.23
545.32	25781.00
545.49	25898.03
545.66	25708.44
545.83	25532.90
546.00	25378.43
546.16	25127.99
546.33	25064.80
546.50	25668.66
546.67	25415.88
546.83	25165.44
547.00	24900.96
547.17	24924.36
547.34	24854.15
547.50	24100.50
547.67	24496.05
547.84	24697.33
548.00	24903.30
548.17	24285.40
548.34	24299.44
548.51	24332.21
548.67	25731.85
548.84	25263.74
549.01	25626.53
549.18	25579.71
549.34	25610.14
549.51	25036.71
549.68	25240.34
549.84	24875.21
550.01	24699.67
550.18	23782.18
550.34	24126.24
550.51	24088.79
550.68	23730.69
550.84	22820.22
551.01	23197.05
551.18	22541.70
551.34	22977.04
551.51	23763.46
551.68	24915.00
551.84	24130.92
552.01	24622.44
552.18	24240.93
552.34	23754.10
552.51	23672.18
552.68	24765.21
552.84	23667.50
553.01	23548.13
553.18	24554.56
553.34	24135.60
553.51	24114.54
553.67	23477.91
553.84	24505.41
554.01	24884.58
554.17	23552.81
554.34	23934.32
554.51	24526.47
554.67	24519.45
554.84	23634.73
555.00	23623.03
555.17	23679.20
555.33	23379.61
555.50	24025.60
555.67	24166.03
555.83	24128.58
556.00	24261.99
556.16	23810.27
556.33	23274.29
556.50	23433.44
556.66	22384.88
556.83	22298.28
556.99	22487.87
557.16	23491.96
557.32	22965.34
557.49	23005.13
557.65	23447.49
557.82	22270.20
557.98	22216.36
558.15	22946.61
558.32	22324.03
558.48	21535.27
558.65	21483.78
558.81	21434.63
558.98	22192.96
559.14	22424.67
559.31	22780.43
559.47	21944.86
559.64	21355.05
559.80	22293.60
559.97	22075.93
560.13	22579.15
560.30	22761.71
560.46	23225.14
560.63	23009.81
560.79	23515.36
560.96	22654.05
561.12	21895.71
561.29	21488.46
561.45	21415.90
561.61	21603.14
561.78	21703.79
561.94	21694.43
562.11	21528.25
562.27	21942.52
562.44	22309.99
562.60	22272.54
562.77	23000.44
562.93	21928.48
563.10	21914.44
563.26	21661.66
563.42	21364.41
563.59	21439.31
563.75	21312.92
563.92	21675.70
564.08	21462.71
564.24	21408.88
564.41	20858.85
564.57	21511.86
564.74	20781.62
564.90	20315.85
565.07	20563.95
565.23	20173.08
565.39	20180.10
565.56	21018.01
565.72	20943.11
565.88	21130.36
566.05	20563.95
566.21	20601.40
566.38	20350.96
566.54	19941.36
566.70	20217.55
566.87	20568.63
567.03	22097.00
567.19	22188.28
567.36	20430.54
567.52	21214.62
567.68	20767.57
567.85	20765.23
568.01	21137.38
568.17	20142.65
568.34	19283.67
568.50	19475.60
568.66	19997.54
568.83	20102.86
568.99	20390.75
569.15	20966.52
569.32	20826.09
569.48	20379.04
569.64	20025.62
569.81	19405.38
569.97	19468.58
570.13	19719.01
570.30	19115.16
570.46	19164.31
570.62	18459.81
570.78	17937.87
570.95	18457.46
571.11	19054.30
571.27	18824.93
571.43	19110.47
571.60	19522.41
571.76	19475.60
571.92	19955.41
572.09	20334.57
572.25	19934.34
572.41	20285.42
572.57	20273.72
572.74	19604.33
572.90	19428.79
573.06	19410.06
573.22	19087.07
573.38	19335.17
573.55	18841.31
573.71	18970.04
573.87	19445.17
574.03	19229.84
574.20	19360.91
574.36	19171.33
574.52	19218.14
574.68	18717.26
574.84	18766.42
575.01	19154.94
575.17	19239.20
575.33	18993.45
575.49	18443.42
575.65	18700.88
575.82	18808.54
575.98	18689.18
576.14	18691.52
576.30	18558.11
576.46	18214.05
576.62	18691.52
576.79	18841.31
576.95	17972.97
577.11	17776.37
577.27	18075.96
577.43	18188.30
577.59	17977.65
577.75	18604.92
577.92	17635.94
578.08	17551.68
578.24	17427.63
578.40	17987.02
578.56	17713.17
578.72	17659.34
578.88	18106.38
579.04	18015.10
579.21	17764.67
579.37	18274.90
579.53	18097.02
579.69	17537.63
579.85	17518.91
580.01	17600.83
580.17	17649.98
580.33	17902.76
580.49	17610.19
580.65	17989.36
580.82	17685.09
580.98	17944.89
581.14	18141.49
581.30	18530.02
581.46	17839.56
581.62	17982.34
581.78	18263.20
581.94	18387.25
582.10	18099.36
582.26	17928.50
582.42	18176.60
582.58	18487.89
582.74	18298.31
582.90	17994.04
583.06	18368.52
583.22	17722.54
583.38	18090.00
583.54	18398.95
583.70	17996.38
583.86	17853.61
584.02	17919.14
584.18	18001.06
584.34	18129.79
584.50	18478.53
584.66	18368.52
584.82	17591.47
584.98	17596.15
585.14	17411.25
585.30	16702.06
585.46	16638.87
585.62	16570.99
585.78	17006.33
585.94	16772.28
586.10	17121.02
586.26	17125.70
586.42	17191.23
586.58	17474.44
586.74	16805.05
