SpectraSuite Data File
++++++++++++++++++++++++++++++++++++
Date: Mon Oct 07 14:54:56 GMT-05:00 2013
User: price-jones
Dark Spectrum Present: No
Reference Spectrum Present: No
Number of Sampled Component Spectra: 1
Spectrometers: USB2+H05261
Integration Time (usec): 10000 (USB2+H05261)
Spectra Averaged: 1 (USB2+H05261)
Boxcar Smoothing: 0 (USB2+H05261)
Correct for Electrical Dark: No (USB2+H05261)
Strobe/Lamp Enabled: No (USB2+H05261)
Correct for Detector Non-linearity: No (USB2+H05261)
Correct for Stray Light: No (USB2+H05261)
Number of Pixels in Processed Spectrum: 2048
>>>>>Begin Processed Spectral Data<<<<<
365.73	0.00
365.92	0.00
366.12	0.00
366.32	0.00
366.52	0.00
366.72	0.00
366.91	0.00
367.11	0.00
367.31	0.00
367.51	0.00
367.70	0.00
367.90	0.00
368.10	0.00
368.30	0.00
368.49	0.00
368.69	0.00
368.89	0.00
369.09	0.00
369.28	0.00
369.48	0.00
369.68	0.00
369.87	0.00
370.07	0.00
370.27	0.00
370.47	180.22
370.66	1481.56
370.86	1741.36
371.06	2024.56
371.25	1846.68
371.45	1540.07
371.65	1575.18
371.84	1481.56
372.04	1565.82
372.24	1762.42
372.44	1781.15
372.63	1713.27
372.83	1577.52
373.03	1411.34
373.22	1308.36
373.42	1430.07
373.62	1607.95
373.81	1846.68
374.01	1678.16
374.21	1600.93
374.40	1540.07
374.60	1624.33
374.79	1811.57
374.99	2183.72
375.19	2296.07
375.38	2125.21
375.58	1973.07
375.78	1902.86
375.97	2066.69
376.17	2232.87
376.37	2153.29
376.56	2387.35
376.76	2312.45
376.95	2614.38
377.15	2609.70
377.35	2848.43
377.54	2916.31
377.74	3155.04
377.93	2841.41
378.13	2745.45
378.33	2590.97
378.52	2558.21
378.72	2478.63
378.91	2146.27
379.11	2298.41
379.31	2113.50
379.50	2239.89
379.70	2317.13
379.89	2745.45
380.09	2960.78
380.28	2995.89
380.48	2862.48
380.68	2822.69
380.87	2726.72
381.07	2429.48
381.26	2441.18
381.46	2359.26
381.65	2069.03
381.85	2017.54
382.04	1881.79
382.24	1612.63
382.43	1732.00
382.63	1743.70
382.83	1633.69
383.02	1692.21
383.22	1654.76
383.41	1732.00
383.61	1959.03
383.80	2232.87
384.00	2490.33
384.19	2832.05
384.39	2876.52
384.58	2780.56
384.78	2803.96
384.97	2689.28
385.17	2562.89
385.36	2403.73
385.56	2387.35
385.75	2572.25
385.95	2722.04
386.14	2951.42
386.34	2916.31
386.53	2724.38
386.72	2682.25
386.92	2663.53
387.11	2757.15
387.31	2937.37
387.50	2829.71
387.70	2672.89
387.89	2768.85
388.09	2815.66
388.28	2757.15
388.48	2930.35
388.67	3164.40
388.86	3368.03
389.06	3737.84
389.25	3822.09
389.45	3925.08
389.64	3899.33
389.84	3754.22
390.03	3688.68
390.22	3824.44
390.42	4049.13
390.61	4248.07
390.81	4463.40
391.00	4552.34
391.19	4353.40
391.39	4156.79
391.58	3904.01
391.78	3838.48
391.97	3520.17
392.16	3403.14
392.36	2946.73
392.55	2181.38
392.75	1827.96
392.94	1451.13
393.13	1668.80
393.33	1956.69
393.52	2555.86
393.71	3225.26
393.91	3468.67
394.10	3801.03
394.29	4255.09
394.49	4393.19
394.68	4770.01
394.88	4788.74
395.07	4901.08
395.26	4795.76
395.46	4535.96
395.65	4098.28
395.84	3613.79
396.04	2979.50
396.23	2305.43
396.42	2106.48
396.62	2141.59
396.81	2768.85
397.00	3449.95
397.19	4077.21
397.39	4922.15
397.58	5483.88
397.77	5774.10
397.97	5916.87
398.16	5886.45
398.35	6246.89
398.55	6392.00
398.74	6707.98
398.93	6789.89
399.12	6532.44
399.32	6319.45
399.51	6740.74
399.70	7082.46
399.90	6558.18
400.09	6902.24
400.28	6813.30
400.47	6972.46
400.67	7201.83
400.86	7368.01
401.05	7190.13
401.24	7339.92
401.44	7454.61
401.63	7571.63
401.82	7705.04
402.01	7447.58
402.21	7576.31
402.40	7676.96
402.59	7447.58
402.78	6942.03
402.97	7049.69
403.17	7215.87
403.36	7793.98
403.55	7903.99
403.74	7913.35
403.93	7494.40
404.13	6689.25
404.32	6979.48
404.51	7499.08
404.70	7927.39
404.89	7712.07
405.09	7419.50
405.28	7300.13
405.47	7463.97
405.66	7276.73
405.85	7014.59
406.05	6974.80
406.24	7213.53
406.43	7517.80
406.62	7571.63
406.81	7754.19
407.00	7470.99
407.20	7229.91
407.39	7379.71
407.58	7714.41
407.77	8196.56
407.96	8112.30
408.15	8542.96
408.34	8545.30
408.54	8985.32
408.73	8709.13
408.92	8615.51
409.11	8287.84
409.30	7936.76
409.49	7227.57
409.68	6789.89
409.87	6857.77
410.07	7337.58
410.26	7742.49
410.45	8245.71
410.64	8683.39
410.83	9088.30
411.02	9095.32
411.21	9149.15
411.40	9109.36
411.59	9020.42
411.78	9275.54
411.98	9158.52
412.17	9287.25
412.36	8786.37
412.55	8982.98
412.74	8821.48
412.93	8758.28
413.12	8961.91
413.31	9575.13
413.50	9563.43
413.69	9540.02
413.88	9102.34
414.07	9221.71
414.26	9404.27
414.45	9628.96
414.64	9565.77
414.83	9598.54
415.02	9481.51
415.22	9446.40
415.41	9748.33
415.60	10157.92
415.79	10406.02
415.98	10874.13
416.17	10682.20
416.36	10127.50
416.55	10209.42
416.74	9415.98
416.93	9446.40
417.12	9291.93
417.31	9650.03
417.50	9893.44
417.69	9933.23
417.88	9907.49
418.07	9827.91
418.26	9661.73
418.45	10029.20
418.64	10169.63
418.83	10619.01
419.02	10581.56
419.21	10167.29
419.39	9607.90
419.58	9610.24
419.77	9848.97
419.96	10335.81
420.15	10539.43
420.34	11023.92
420.53	11379.68
420.72	11515.44
420.91	11173.72
421.10	11019.24
421.29	10862.43
421.48	10647.10
421.67	11028.60
421.86	10616.67
422.05	9668.75
422.24	9027.45
422.43	9090.64
422.61	10228.14
422.80	10775.83
422.99	10651.78
423.18	10078.35
423.37	10033.88
423.56	10146.22
423.75	10272.61
423.94	10527.73
424.13	10181.33
424.32	10242.18
424.50	10012.81
424.69	9998.77
424.88	10188.35
425.07	10076.01
425.26	10101.75
425.45	9701.52
425.64	9710.88
425.83	9989.41
426.01	10242.18
426.20	10363.89
426.39	10289.00
426.58	9558.75
426.77	9013.40
426.96	8826.16
427.15	9343.42
427.33	9825.57
427.52	9970.68
427.71	10003.45
427.90	9741.31
428.09	9507.26
428.28	9556.41
428.46	9043.83
428.65	8933.82
428.84	9458.10
429.03	9109.36
429.22	8636.58
429.40	8154.43
429.59	7529.50
429.78	6768.83
429.97	6935.01
430.16	6911.60
430.34	6661.16
430.53	7007.56
430.72	7236.94
430.91	8454.02
431.10	9764.72
431.28	11234.57
431.47	11613.74
431.66	11272.02
431.85	10270.27
432.03	9692.16
432.22	9832.59
432.41	10342.83
432.60	11096.48
432.79	11447.56
432.97	11599.70
433.16	11037.97
433.35	9963.66
433.54	8940.85
433.72	8774.67
433.91	9324.69
434.10	10289.00
434.28	11047.33
434.47	11599.70
434.66	10850.72
434.85	11019.24
435.03	11257.98
435.22	11248.61
435.41	11578.63
435.59	11857.15
435.78	11819.71
435.97	12732.51
436.16	12561.66
436.34	12243.34
436.53	11571.61
436.72	11847.79
436.90	11234.57
437.09	11576.29
437.28	11424.15
437.46	11426.50
437.65	11096.48
437.84	10157.92
438.02	9923.87
438.21	9942.60
438.40	10506.66
438.58	11389.05
438.77	11960.14
438.96	11843.11
439.14	12163.76
439.33	12255.04
439.52	12107.59
439.70	11999.93
439.89	11702.68
440.08	11522.46
440.26	11632.46
440.45	12224.62
440.63	13041.46
440.82	13336.37
441.01	13057.85
441.19	13116.36
441.38	13432.33
441.57	13853.63
441.75	13535.32
441.94	13844.27
442.12	13832.57
442.31	13973.00
442.50	13834.91
442.68	13444.04
442.87	13226.37
443.05	13495.53
443.24	14008.11
443.43	14010.45
443.61	14031.51
443.80	14242.16
443.98	13715.54
444.17	13521.27
444.35	14672.82
444.54	14534.73
444.73	14799.21
444.91	13741.29
445.10	13493.19
445.28	12957.21
445.47	12547.61
445.65	12470.37
445.84	13022.74
446.02	13577.45
446.21	13729.58
446.39	14052.58
446.58	13944.91
446.77	13940.23
446.95	14204.71
447.14	14654.09
447.32	14635.37
447.51	14127.47
447.69	13806.82
447.88	13994.06
448.06	14122.79
448.25	14005.77
448.43	13760.01
448.62	14033.85
448.80	13886.40
448.99	14071.30
449.17	14260.88
449.36	14293.65
449.54	14497.28
449.73	14867.08
449.91	14951.34
450.10	15351.57
450.28	15784.57
450.46	15637.12
450.65	15463.92
450.83	15190.08
451.02	14764.10
451.20	14621.33
451.39	15346.89
451.57	14703.25
451.76	15000.49
451.94	14602.60
452.13	14005.77
452.31	13521.27
452.49	13191.26
452.68	13551.70
452.86	13575.11
453.05	13671.07
453.23	14293.65
453.42	15063.69
453.60	14750.06
453.78	14995.81
453.97	14829.63
454.15	14228.12
454.34	14080.66
454.52	14349.82
454.70	13813.84
454.89	14068.96
455.07	14141.52
455.26	14279.61
455.44	15033.26
455.62	15234.55
455.81	15234.55
455.99	15033.26
456.17	15157.31
456.36	15239.23
456.54	15286.04
456.73	15800.96
456.91	15950.75
457.09	15779.89
457.28	16060.76
457.46	15342.21
457.64	15089.43
457.83	14913.89
458.01	14672.82
458.19	14714.95
458.38	15103.48
458.56	15351.57
458.74	14850.70
458.93	15035.60
459.11	14824.95
459.29	14696.22
459.48	14904.53
459.66	14656.43
459.84	14714.95
460.03	15297.74
460.21	15456.90
460.39	15627.76
460.57	15016.88
460.76	15627.76
460.94	15506.05
461.12	15826.70
461.31	15845.43
461.49	15695.63
461.67	15510.73
461.85	15604.35
462.04	15892.24
462.22	15892.24
462.40	16255.02
462.59	16025.65
462.77	15791.59
462.95	15950.75
463.13	15784.57
463.32	15674.57
463.50	15358.60
463.68	15342.21
463.86	15272.00
464.05	14895.17
464.23	14937.30
464.41	14726.65
464.59	14473.87
464.78	15548.18
464.96	15129.22
465.14	15370.30
465.32	15714.36
465.50	16088.84
465.69	16388.43
465.87	15859.47
466.05	15279.02
466.23	14361.53
466.41	14738.35
466.60	14956.02
466.78	15056.67
466.96	15037.94
467.14	15288.38
467.32	15564.56
467.51	15171.35
467.69	14583.88
467.87	14757.08
468.05	14977.09
468.23	15454.56
468.41	15250.93
468.60	14981.77
468.78	15073.05
468.96	15035.60
469.14	15676.91
469.32	15597.33
469.50	14831.97
469.69	14595.58
469.87	14483.24
470.05	14916.23
470.23	14579.20
470.41	14778.14
470.59	15068.37
470.77	15073.05
470.95	15604.35
471.14	15623.08
471.32	15520.09
471.50	16556.95
471.68	16669.30
471.86	16599.08
472.04	16276.09
472.22	16233.96
472.40	15566.90
472.58	15602.01
472.77	15243.91
472.95	15489.67
473.13	15665.21
473.31	15374.98
473.49	15573.92
473.67	15845.43
473.85	16086.50
474.03	16566.31
474.21	16634.19
474.39	16884.62
474.57	16704.40
474.75	16751.21
474.93	17104.64
475.12	16456.31
475.30	16489.07
475.48	15644.14
475.66	16035.01
475.84	15985.86
476.02	16240.98
476.20	15765.85
476.38	16458.65
476.56	17020.38
476.74	16961.86
476.92	17371.46
477.10	17486.14
477.28	17404.22
477.46	17652.32
477.64	17579.76
477.82	17724.88
478.00	18005.74
478.18	17406.56
478.36	17516.57
478.54	17944.89
478.72	17795.09
478.90	18719.60
479.08	19325.80
479.26	19154.94
479.44	19023.87
479.62	18838.97
479.80	18375.55
479.98	18544.06
480.16	18981.74
480.34	18888.12
480.52	19412.40
480.70	19089.41
480.88	19225.16
481.06	19765.82
481.24	20105.20
481.41	20355.64
481.59	20130.95
481.77	19545.81
481.95	19276.65
482.13	19480.28
482.31	19384.32
482.49	19648.80
482.67	20084.14
482.85	20109.88
483.03	20795.66
483.21	20697.36
483.39	20755.87
483.57	19941.36
483.74	19814.98
483.92	20376.70
484.10	20327.55
484.28	20910.35
484.46	20748.85
484.64	20900.98
484.82	20379.04
485.00	19683.91
485.18	18995.79
485.35	18398.95
485.53	17050.80
485.71	15501.37
485.89	15793.94
486.07	17167.83
486.25	18560.45
486.43	19618.37
486.61	19365.59
486.78	19454.53
486.96	19271.97
487.14	20994.61
487.32	21207.59
487.50	21804.43
487.68	21678.04
487.85	22120.40
488.03	22129.77
488.21	21481.44
488.39	21137.38
488.57	20854.17
488.75	20926.73
488.92	22008.06
489.10	23381.95
489.28	23662.82
489.46	24671.59
489.64	23807.93
489.81	24297.10
489.99	25074.16
490.17	24587.33
490.35	24643.50
490.53	24444.56
490.70	23557.49
490.88	23917.93
491.06	25172.46
491.24	24350.93
491.41	23295.35
491.59	22352.12
491.77	22253.81
491.95	22876.40
492.13	24369.66
492.30	25025.01
492.48	25025.01
492.66	25223.95
492.84	25076.50
493.01	25483.75
493.19	24584.99
493.37	24610.73
493.54	24196.46
493.72	25790.36
493.90	26218.68
494.08	26677.43
494.25	26206.98
494.43	26068.89
494.61	26766.37
494.79	26333.37
494.96	26593.17
495.14	25319.92
495.32	24814.36
495.49	24961.81
495.67	26473.80
495.85	26621.25
496.02	27042.55
496.20	27360.86
496.38	26801.47
496.55	26759.34
496.73	26682.11
496.91	27058.93
497.09	27798.54
497.26	27337.46
497.44	27082.34
497.62	26677.43
497.79	26019.74
497.97	24751.17
498.14	25603.12
498.32	26113.36
498.50	26536.99
498.67	26382.52
498.85	26642.32
499.03	27105.74
499.20	27501.29
499.38	27126.81
499.56	26576.78
499.73	26190.59
499.91	26403.58
500.08	25752.91
500.26	25621.84
500.44	26508.91
500.61	26773.39
500.79	26185.91
500.97	26103.99
501.14	25214.59
501.32	25137.35
501.49	25090.54
501.67	25301.19
501.84	25727.17
502.02	26637.64
502.20	26883.39
502.37	27122.13
502.55	27835.99
502.72	28056.00
502.90	27908.55
503.07	27147.87
503.25	26752.32
503.43	26331.03
503.60	25652.27
503.78	25586.74
503.95	26078.25
504.13	27494.27
504.30	27402.99
504.48	26707.85
504.65	26904.46
504.83	26885.73
505.01	26841.26
505.18	27300.01
505.36	28423.47
505.53	28362.61
505.71	28161.33
505.88	28823.70
506.06	28268.99
506.23	27573.85
506.41	27566.83
506.58	26813.18
506.76	26609.55
506.93	26843.60
507.11	27290.65
507.28	27407.67
507.46	26717.22
507.63	25591.42
507.81	25785.68
507.98	26548.70
508.16	27096.38
508.33	27072.98
508.50	27096.38
508.68	28294.74
508.85	28320.48
509.03	27896.85
509.20	26888.07
509.38	26384.86
509.55	25846.54
509.73	26689.13
509.90	28112.17
510.08	27903.87
510.25	27833.65
510.42	27171.28
510.60	27931.95
510.77	27442.78
510.95	27630.02
511.12	27236.81
511.30	27859.40
511.47	28123.88
511.64	27995.15
511.82	27150.21
511.99	26129.74
512.17	26354.43
512.34	25771.64
512.51	26246.77
512.69	27590.24
512.86	27187.66
513.04	27442.78
513.21	27321.07
513.38	25972.92
513.56	26361.45
513.73	25373.75
513.90	25036.71
514.08	25270.76
514.25	26300.60
514.43	26181.23
514.60	25830.15
514.77	26333.37
514.95	26464.44
515.12	26167.19
515.29	26108.68
515.47	27140.85
515.64	27075.32
515.81	26647.00
515.99	25392.47
516.16	23758.78
516.33	22565.10
516.51	21846.56
516.68	20819.07
516.85	21135.04
517.03	21944.86
517.20	23641.75
517.37	25458.01
517.54	26078.25
517.72	24842.45
517.89	22785.12
518.06	21839.54
518.24	22504.25
518.41	24261.99
518.58	25029.69
518.75	25226.29
518.93	25453.33
519.10	25654.61
519.27	25483.75
519.45	25762.28
519.62	26785.09
519.79	26127.40
519.96	26471.46
520.14	26003.35
520.31	25275.45
520.48	25366.73
520.65	26101.65
520.83	27000.42
521.00	26153.15
521.17	25886.32
521.34	25380.77
521.52	25656.95
521.69	26885.73
521.86	27892.16
522.03	26089.95
522.20	25502.48
522.38	24582.65
522.55	24774.57
522.72	25362.04
522.89	25095.22
523.07	24741.80
523.24	25165.44
523.41	26338.05
523.58	26450.39
523.75	27335.12
523.92	27199.37
524.10	26665.72
524.27	26885.73
524.44	26387.20
524.61	26380.18
524.78	26225.70
524.96	26047.82
525.13	26040.80
525.30	25975.27
525.47	26225.70
525.64	26003.35
525.81	25544.61
525.98	24287.74
526.16	23070.66
526.33	22998.10
526.50	22534.68
526.67	22558.08
526.84	23520.04
527.01	24372.00
527.18	25607.80
527.36	26171.87
527.53	26417.63
527.70	26150.81
527.87	25390.13
528.04	25666.31
528.21	25956.54
528.38	25766.96
528.55	27070.64
528.72	27398.31
528.89	26965.31
529.07	26202.30
529.24	25745.89
529.41	25514.18
529.58	24931.39
529.75	24851.81
529.92	25305.87
530.09	26003.35
530.26	25930.80
530.43	26515.93
530.60	27234.47
530.77	27028.51
530.94	26969.99
531.11	25830.15
531.28	26031.44
531.46	25633.55
531.63	26141.44
531.80	26328.69
531.97	25202.89
532.14	24676.27
532.31	23346.84
532.48	22794.48
532.65	23281.31
532.82	24142.63
532.99	25135.01
533.16	25385.45
533.33	24973.52
533.50	24369.66
533.67	25006.28
533.84	24599.03
534.01	25345.66
534.18	24538.18
534.35	24512.43
534.52	24907.98
534.69	25263.74
534.86	25078.84
535.03	24629.46
535.20	25488.43
535.37	26239.75
535.54	26504.23
535.71	25902.71
535.88	24830.74
536.05	24109.86
536.22	24294.76
536.38	24278.38
536.55	23702.61
536.72	24091.13
536.89	23969.43
537.06	24407.11
537.23	24940.75
537.40	25301.19
537.57	25247.36
537.74	24716.06
537.91	24617.75
538.08	24161.35
538.25	24723.08
538.42	25275.45
538.59	24519.45
538.75	24187.10
538.92	23730.69
539.09	24105.18
539.26	23711.97
539.43	22726.60
539.60	22759.37
539.77	23363.23
539.94	22920.87
540.11	21790.39
540.28	21951.88
540.44	22089.98
540.61	22710.22
540.78	23637.07
540.95	24044.32
541.12	22707.88
541.29	23520.04
541.46	23370.25
541.62	23995.17
541.79	23454.51
541.96	23580.90
542.13	23396.00
542.30	23618.35
542.47	23033.21
542.63	22981.72
542.80	22302.96
542.97	22918.53
543.14	23335.14
543.31	23295.35
543.48	24629.46
543.64	25111.61
543.81	24872.87
543.98	24819.04
544.15	23917.93
544.32	23297.69
544.48	23515.36
544.65	23838.36
544.82	23325.78
544.99	22909.16
545.16	23068.32
545.32	22717.24
545.49	23508.34
545.66	23850.06
545.83	23372.59
546.00	22918.53
546.16	23260.24
546.33	22745.33
546.50	22396.59
546.67	22597.87
546.83	22586.17
547.00	22623.62
547.17	22244.45
547.34	22136.79
547.50	21055.46
547.67	22019.76
547.84	22319.35
548.00	22604.89
548.17	22848.31
548.34	22719.58
548.51	22852.99
548.67	22513.61
548.84	22562.76
549.01	22775.75
549.18	22684.47
549.34	22349.78
549.51	22401.27
549.68	22635.32
549.84	22340.41
550.01	22778.09
550.18	22515.95
550.34	22434.03
550.51	22277.22
550.68	21158.44
550.84	21104.61
551.01	21582.08
551.18	21425.26
551.34	21811.45
551.51	22043.17
551.68	22061.89
551.84	21921.46
552.01	21872.31
552.18	21589.10
552.34	21034.39
552.51	21039.08
552.68	20484.37
552.84	21448.67
553.01	22192.96
553.18	21930.82
553.34	21551.65
553.51	22075.93
553.67	21659.32
553.84	21245.04
554.01	21366.75
554.17	21053.12
554.34	21420.58
554.51	21703.79
554.67	21811.45
554.84	21317.60
555.00	20783.96
555.17	21109.29
555.33	21612.51
555.50	21399.52
555.67	21806.77
555.83	21687.40
556.00	20931.41
556.16	20673.95
556.33	20271.38
556.50	19971.79
556.66	20533.52
556.83	20222.23
556.99	20189.46
557.16	20173.08
557.32	20753.53
557.49	20999.29
557.65	21294.19
557.82	20601.40
557.98	20493.73
558.15	19868.81
558.32	19068.34
558.48	19702.63
558.65	19817.32
558.81	19854.76
558.98	20863.54
559.14	20397.77
559.31	20203.50
559.47	19960.09
559.64	19297.72
559.80	19639.44
559.97	19264.95
560.13	19538.79
560.30	20175.42
560.46	21149.08
560.63	20528.84
560.79	20622.46
560.96	20018.60
561.12	19410.06
561.29	18487.89
561.45	18867.06
561.61	19761.14
561.78	19637.09
561.94	19297.72
562.11	19445.17
562.27	19484.96
562.44	19819.66
562.60	19946.05
562.77	20554.58
562.93	20285.42
563.10	19325.80
563.26	19073.03
563.42	18515.98
563.59	19009.83
563.75	19358.57
563.92	19208.78
564.08	18523.00
564.24	19206.44
564.41	20053.71
564.57	19719.01
564.74	19962.43
564.90	19342.19
565.07	18724.29
565.23	18260.86
565.39	18122.77
565.56	17860.63
565.72	18122.77
565.88	19300.06
566.05	18724.29
566.21	19243.88
566.38	19070.68
566.54	18541.72
566.70	18630.66
566.87	18441.08
567.03	18183.62
567.19	18438.74
567.36	18941.96
567.52	18855.36
567.68	18391.93
567.85	18073.62
568.01	18345.12
568.17	17432.31
568.34	18026.81
568.50	17561.04
568.66	17502.53
568.83	18656.41
568.99	17811.48
569.15	18008.08
569.32	18080.64
569.48	17451.03
569.64	17715.51
569.81	18211.71
569.97	17727.22
570.13	18263.20
570.30	17444.01
570.46	16800.37
570.62	16826.11
570.78	16657.59
570.95	16905.69
571.11	17390.18
571.27	17521.25
571.43	17544.66
571.60	17539.97
571.76	18001.06
571.92	17689.77
572.09	18200.01
572.25	18228.09
572.41	18532.36
572.57	17516.57
572.74	17355.07
572.90	17767.01
573.06	18111.07
573.22	18448.10
573.38	18256.18
573.55	17724.88
573.71	17762.33
573.87	17830.20
574.03	17469.76
574.20	17092.93
574.36	17095.27
574.52	17121.02
574.68	17132.72
574.84	17228.68
575.01	16751.21
575.17	16828.45
575.33	16475.03
575.49	16271.40
575.65	16283.11
575.82	16524.18
575.98	16704.40
576.14	15950.75
576.30	16861.22
576.46	16767.60
576.62	16720.79
576.79	16416.52
576.95	16512.48
577.11	16603.76
577.27	17003.99
577.43	16666.95
577.59	16585.04
577.75	16353.32
577.92	16002.24
578.08	15843.09
578.24	16046.71
578.40	16299.49
578.56	16128.63
578.72	15506.05
578.88	16301.83
579.04	16149.70
579.21	16641.21
579.37	16631.85
579.53	16554.61
579.69	16217.57
579.85	16107.57
580.01	15840.75
580.17	16042.03
580.33	16493.76
580.49	16648.23
580.65	16374.39
580.82	16388.43
580.98	15817.34
581.14	15702.65
581.30	16004.58
581.46	15899.26
581.62	16233.96
581.78	15690.95
581.94	15515.41
582.10	15887.56
582.26	16257.36
582.42	16535.88
582.58	16559.29
582.74	16301.83
582.90	16084.16
583.06	15800.96
583.22	16154.38
583.38	15981.18
583.54	16418.86
583.70	16044.37
583.86	16339.28
584.02	15740.10
584.18	15660.52
584.34	15985.86
584.50	15974.16
584.66	15744.78
584.82	15332.85
584.98	15225.18
585.14	15300.08
585.30	14745.38
585.46	14527.71
585.62	14876.44
585.78	15080.07
585.94	15063.69
586.10	15286.04
586.26	15681.59
586.42	15159.65
586.58	15021.56
586.74	15061.35
