SpectraSuite Data File
++++++++++++++++++++++++++++++++++++
Date: Mon Oct 07 14:54:57 GMT-05:00 2013
User: price-jones
Dark Spectrum Present: No
Reference Spectrum Present: No
Number of Sampled Component Spectra: 1
Spectrometers: USB2+H05261
Integration Time (usec): 10000 (USB2+H05261)
Spectra Averaged: 1 (USB2+H05261)
Boxcar Smoothing: 0 (USB2+H05261)
Correct for Electrical Dark: No (USB2+H05261)
Strobe/Lamp Enabled: No (USB2+H05261)
Correct for Detector Non-linearity: No (USB2+H05261)
Correct for Stray Light: No (USB2+H05261)
Number of Pixels in Processed Spectrum: 2048
>>>>>Begin Processed Spectral Data<<<<<
365.73	0.00
365.92	0.00
366.12	0.00
366.32	0.00
366.52	0.00
366.72	0.00
366.91	0.00
367.11	0.00
367.31	0.00
367.51	0.00
367.70	0.00
367.90	0.00
368.10	0.00
368.30	0.00
368.49	0.00
368.69	0.00
368.89	0.00
369.09	0.00
369.28	0.00
369.48	0.00
369.68	0.00
369.87	0.00
370.07	0.00
370.27	0.00
370.47	837.91
370.66	4367.44
370.86	4891.72
371.06	5238.12
371.25	5345.78
371.45	4798.10
371.65	4332.33
371.84	4051.47
372.04	4388.50
372.24	4910.44
372.44	5125.77
372.63	4844.91
372.83	4493.83
373.03	4060.83
373.22	3686.34
373.42	3985.93
373.62	4709.16
373.81	4830.87
374.01	4926.83
374.21	4386.16
374.40	4058.49
374.60	4308.93
374.79	5015.77
374.99	5865.38
375.19	6061.99
375.38	5884.11
375.58	5771.76
375.78	5757.72
375.97	5856.02
376.17	5898.15
376.37	6022.20
376.56	6033.90
376.76	6597.97
376.95	6942.03
377.15	7501.42
377.35	7925.05
377.54	8056.12
377.74	8294.86
377.93	8269.11
378.13	7927.39
378.33	7417.16
378.52	6825.00
378.72	6626.06
378.91	6689.25
379.11	6513.71
379.31	6169.65
379.50	6230.51
379.70	6794.58
379.89	7501.42
380.09	8004.63
380.28	8126.34
380.48	8084.21
380.68	7915.69
380.87	7499.08
381.07	7145.66
381.26	6516.05
381.46	6071.35
381.65	5968.37
381.85	5713.25
382.04	5401.96
382.24	5179.61
382.43	5097.69
382.63	4856.61
382.83	4957.25
383.02	4945.55
383.22	4947.89
383.41	5018.11
383.61	5668.78
383.80	6389.66
384.00	7056.72
384.19	7866.54
384.39	8234.00
384.58	8102.93
384.78	8152.09
384.97	7784.62
385.17	7545.89
385.36	6885.86
385.56	6820.32
385.75	7410.14
385.95	7838.45
386.14	8374.44
386.34	8257.41
386.53	7953.14
386.72	7667.60
386.92	7655.89
387.11	8222.30
387.31	8411.89
387.50	8283.16
387.70	8105.28
387.89	8063.15
388.09	8133.36
388.28	8168.47
388.48	8217.62
388.67	9123.41
388.86	10068.98
389.06	10719.65
389.25	11206.48
389.45	10949.03
389.64	10843.70
389.84	10974.77
390.03	10668.16
390.22	10801.57
390.42	11506.07
390.61	12262.07
390.81	12451.65
391.00	13001.68
391.19	12908.05
391.39	12393.14
391.58	11698.00
391.78	11176.06
391.97	10794.55
392.16	9928.55
392.36	8617.85
392.55	6813.30
392.75	5643.03
392.94	4603.83
393.13	4713.84
393.33	5865.38
393.52	7646.53
393.71	8940.85
393.91	10101.75
394.10	10981.79
394.29	12016.31
394.49	12945.50
394.68	13755.33
394.88	13844.27
395.07	14052.58
395.26	14080.66
395.46	13703.84
395.65	12573.36
395.84	10747.74
396.04	8971.27
396.23	7419.50
396.42	6272.64
396.62	6272.64
396.81	7754.19
397.00	9872.38
397.19	11969.50
397.39	14462.17
397.58	16252.68
397.77	16898.67
397.97	17397.20
398.16	17696.79
398.35	18581.51
398.55	19150.26
398.74	19831.36
398.93	19822.00
399.12	19611.35
399.32	19009.83
399.51	19571.56
399.70	20395.43
399.90	20594.37
400.09	20194.14
400.28	20383.73
400.47	21062.48
400.67	21912.10
400.86	22342.75
401.05	22047.85
401.24	22466.80
401.44	22682.13
401.63	23166.62
401.82	22815.54
402.01	22885.76
402.21	22759.37
402.40	23051.94
402.59	22551.06
402.78	21085.89
402.97	21221.64
403.17	22265.52
403.36	22986.40
403.55	24325.19
403.74	24250.29
403.93	23000.44
404.13	21216.96
404.32	21270.79
404.51	22644.68
404.70	23941.34
404.89	23618.35
405.09	23234.50
405.28	22572.13
405.47	22661.07
405.66	22733.62
405.85	22115.72
406.05	21390.16
406.24	22092.32
406.43	23063.64
406.62	23950.70
406.81	23992.83
407.00	22951.29
407.20	22405.95
407.39	22909.16
407.58	24444.56
407.77	25216.93
407.96	25429.92
408.15	26066.55
408.34	26237.41
408.54	27218.09
408.73	27229.79
408.92	26609.55
409.11	26052.50
409.30	24519.45
409.49	22820.22
409.68	21514.20
409.87	21425.26
410.07	22953.63
410.26	25006.28
410.45	26054.84
410.64	26562.74
410.83	27461.51
411.02	28198.77
411.21	29457.98
411.40	28650.50
411.59	29268.40
411.78	29287.12
411.98	29036.69
412.17	29032.00
412.36	28297.08
412.55	28121.54
412.74	28123.88
412.93	27218.09
413.12	27985.79
413.31	30696.13
413.50	30654.00
413.69	31227.43
413.88	29713.10
414.07	29319.89
414.26	30110.99
414.45	30824.86
414.64	30569.74
414.83	30529.95
415.02	29916.73
415.22	30356.75
415.41	31178.28
415.60	32084.06
415.79	33809.04
415.98	33947.13
416.17	34054.79
416.36	32643.45
416.55	32692.60
416.74	31260.20
416.93	30623.57
417.12	31096.36
417.31	31044.87
417.50	32004.49
417.69	32769.84
417.88	32449.19
418.07	32411.74
418.26	31658.09
418.45	32423.44
418.64	33659.24
418.83	34424.60
419.02	34117.99
419.21	33497.75
419.39	31775.11
419.58	30408.24
419.77	30899.75
419.96	32650.47
420.15	34157.78
420.34	35175.91
420.53	36250.22
420.72	36617.68
420.91	36524.06
421.10	36025.53
421.29	35604.23
421.48	34621.20
421.67	36203.41
421.86	34951.22
422.05	33104.54
422.24	29879.28
422.43	30284.19
422.61	33095.18
422.80	35009.73
422.99	35110.38
423.18	33783.29
423.37	33366.68
423.56	33750.52
423.75	34541.63
423.94	35091.65
424.13	33413.49
424.32	33022.62
424.50	33041.34
424.69	32924.32
424.88	33172.41
425.07	32931.34
425.26	33027.30
425.45	32086.40
425.64	32147.26
425.83	32587.28
426.01	35316.34
426.20	35505.93
426.39	35005.05
426.58	32044.27
426.77	29528.20
426.96	28723.05
427.15	30452.71
427.33	33015.60
427.52	34007.98
427.71	34307.57
427.90	33464.98
428.09	33237.95
428.28	32727.71
428.46	30920.82
428.65	30583.78
428.84	32493.66
429.03	32346.20
429.22	30380.15
429.40	28856.46
429.59	25785.68
429.78	23510.68
429.97	23772.82
430.16	23676.86
430.34	23632.39
430.53	24025.60
430.72	24938.41
430.91	28245.58
431.10	33071.77
431.28	38195.20
431.47	40652.76
431.66	39931.88
431.85	36023.19
432.03	33649.88
432.22	33455.62
432.41	35770.41
432.60	37806.67
432.79	39569.10
432.97	40278.28
433.16	38557.99
433.35	35035.48
433.54	31426.37
433.72	30623.57
433.91	31807.88
434.10	36383.63
434.28	38527.56
434.47	39321.00
434.66	37558.58
434.85	38279.46
435.03	37851.14
435.22	38955.88
435.41	40421.05
435.59	41380.67
435.78	42129.64
435.97	42904.36
436.16	43299.91
436.34	42686.69
436.53	41752.82
436.72	41521.10
436.90	40051.25
437.09	39981.03
437.28	39206.31
437.46	40722.98
437.65	40470.20
437.84	36809.61
438.02	34246.72
438.21	34890.37
438.40	37198.13
438.58	40156.57
438.77	41333.86
438.96	41427.48
439.14	43613.54
439.33	43686.10
439.52	43875.68
439.70	42862.23
439.89	42270.08
440.08	41425.14
440.26	41392.37
440.45	42913.72
440.63	45684.92
440.82	46869.23
441.01	45925.99
441.19	45425.12
441.38	46976.89
441.57	48533.35
441.75	48334.40
441.94	48542.71
442.12	48245.46
442.31	49722.34
442.50	49064.65
442.68	48224.40
442.87	47576.07
443.05	47683.73
443.24	48870.39
443.43	49392.33
443.61	49563.18
443.80	49729.36
443.98	47906.08
444.17	47917.79
444.35	50497.06
444.54	50740.47
444.73	50415.14
444.91	48186.95
445.10	46852.84
445.28	46354.31
445.47	45146.59
445.65	45448.52
445.84	46405.80
446.02	47936.51
446.21	48935.92
446.39	48996.77
446.58	49177.00
446.77	49691.91
446.95	50148.32
447.14	50752.18
447.32	51035.38
447.51	50611.74
447.69	49420.41
447.88	49095.08
448.06	49944.69
448.25	50483.01
448.43	50607.06
448.62	49537.44
448.80	49429.77
448.99	49940.01
449.17	50277.05
449.36	50447.91
449.54	51728.18
449.73	52004.36
449.91	52727.59
450.10	53734.02
450.28	53485.92
450.46	53404.00
450.65	53642.74
450.83	52938.24
451.02	52439.70
451.20	52547.37
451.39	52591.84
451.57	52287.57
451.76	52121.39
451.94	51901.38
452.13	51526.89
452.31	49490.63
452.49	47892.04
452.68	49214.44
452.86	49034.22
453.05	49607.65
453.23	50756.86
453.42	51995.00
453.60	51601.79
453.78	52348.42
453.97	52100.32
454.15	52317.99
454.34	51433.27
454.52	51746.90
454.70	50906.65
454.89	51407.53
455.07	52212.67
455.26	52589.50
455.44	53443.79
455.62	53881.47
455.81	53958.71
455.99	53366.55
456.17	53221.44
456.36	53469.54
456.54	54124.89
456.73	53808.92
456.91	54770.88
457.09	55327.92
457.28	55753.90
457.46	54270.00
457.64	53790.19
457.83	53120.80
458.01	52720.57
458.19	53579.54
458.38	54014.88
458.56	54607.04
458.74	54169.36
458.93	53586.57
459.11	54108.50
459.29	53881.47
459.48	53347.83
459.66	53450.81
459.84	54040.63
460.03	54160.00
460.21	54335.54
460.39	55491.76
460.57	55332.60
460.76	55915.40
460.94	55561.98
461.12	55037.70
461.31	55238.98
461.49	55206.22
461.67	54887.90
461.85	55985.61
462.04	55716.45
462.22	56006.68
462.40	55964.55
462.59	56170.52
462.77	55943.48
462.95	55922.42
463.13	55973.91
463.32	55550.27
463.50	55470.70
463.68	55524.53
463.86	55433.25
464.05	54642.15
464.23	54389.37
464.41	54602.36
464.59	54319.15
464.78	55533.89
464.96	55501.12
465.14	54623.42
465.32	55987.95
465.50	56306.27
465.69	56107.32
465.87	55700.07
466.05	54564.91
466.23	53319.74
466.41	53371.24
466.60	54670.23
466.78	54454.90
466.96	54677.25
467.14	55288.13
467.32	55704.75
467.51	56376.48
467.69	55000.25
467.87	54775.56
468.05	54906.63
468.23	55580.70
468.41	55585.38
468.60	55697.73
468.78	55597.09
468.96	55458.99
469.14	56369.46
469.32	56442.02
469.50	54569.59
469.69	54855.14
469.87	54445.54
470.05	54679.60
470.23	54878.54
470.41	55173.45
470.59	55405.16
470.77	55124.30
470.95	55669.64
471.14	56488.83
471.32	56264.14
471.50	57956.35
471.68	57359.51
471.86	58354.24
472.04	58319.13
472.22	57946.98
472.40	56610.54
472.58	56350.74
472.77	56442.02
472.95	57076.30
473.13	57162.90
473.31	56748.63
473.49	57195.67
473.67	57600.58
473.85	57975.07
474.03	58379.98
474.21	58307.43
474.39	58707.66
474.57	59157.04
474.75	59458.97
474.93	58738.08
475.12	57654.42
475.30	57769.10
475.48	58361.26
475.66	58766.17
475.84	58251.25
476.02	58197.42
476.20	57872.09
476.38	58335.51
476.56	59278.75
476.74	59545.57
476.92	59468.33
477.10	59817.07
477.28	60514.55
477.46	60264.11
477.64	60867.97
477.82	61183.94
478.00	61055.21
478.18	60371.78
478.36	60137.72
478.54	60374.12
478.72	60570.72
478.90	61705.88
479.08	62045.26
479.26	62035.90
479.44	62571.88
479.62	62546.14
479.80	61745.67
479.98	62550.82
480.16	62583.58
480.34	62585.92
480.52	62836.36
480.70	62550.82
480.88	62845.72
481.06	63182.76
481.24	63243.62
481.41	64006.63
481.59	64423.25
481.77	63702.36
481.95	63159.36
482.13	63458.94
482.31	63840.45
482.49	63891.94
482.67	64409.20
482.85	64547.29
483.03	64823.48
483.21	64404.52
483.39	64423.25
483.57	64343.67
483.74	63751.51
483.92	64107.27
484.10	64301.54
484.28	64795.39
484.46	65312.65
484.64	65535.00
484.82	64624.53
485.00	64149.40
485.18	63678.96
485.35	62906.58
485.53	60828.18
485.71	58562.54
485.89	59437.90
486.07	61104.37
486.25	62951.05
486.43	63657.89
486.61	64006.63
486.78	64395.16
486.96	65090.30
487.14	65481.17
487.32	65535.00
487.50	65535.00
487.68	65535.00
487.85	65535.00
488.03	65535.00
488.21	65535.00
488.39	65535.00
488.57	65535.00
488.75	65535.00
488.92	65535.00
489.10	65535.00
489.28	65535.00
489.46	65535.00
489.64	65535.00
489.81	65535.00
489.99	65535.00
490.17	65535.00
490.35	65535.00
490.53	65535.00
490.70	65535.00
490.88	65535.00
491.06	65535.00
491.24	65535.00
491.41	65535.00
491.59	65535.00
491.77	65535.00
491.95	65535.00
492.13	65535.00
492.30	65535.00
492.48	65535.00
492.66	65535.00
492.84	65535.00
493.01	65535.00
493.19	65535.00
493.37	65535.00
493.54	65535.00
493.72	65535.00
493.90	65535.00
494.08	65535.00
494.25	65535.00
494.43	65535.00
494.61	65535.00
494.79	65535.00
494.96	65535.00
495.14	65535.00
495.32	65535.00
495.49	65535.00
495.67	65535.00
495.85	65535.00
496.02	65535.00
496.20	65535.00
496.38	65535.00
496.55	65535.00
496.73	65535.00
496.91	65535.00
497.09	65535.00
497.26	65535.00
497.44	65535.00
497.62	65535.00
497.79	65535.00
497.97	65535.00
498.14	65535.00
498.32	65535.00
498.50	65535.00
498.67	65535.00
498.85	65535.00
499.03	65535.00
499.20	65535.00
499.38	65535.00
499.56	65535.00
499.73	65535.00
499.91	65535.00
500.08	65535.00
500.26	65535.00
500.44	65535.00
500.61	65535.00
500.79	65535.00
500.97	65535.00
501.14	65535.00
501.32	65535.00
501.49	65535.00
501.67	65535.00
501.84	65535.00
502.02	65535.00
502.20	65535.00
502.37	65535.00
502.55	65535.00
502.72	65535.00
502.90	65535.00
503.07	65535.00
503.25	65535.00
503.43	65535.00
503.60	65535.00
503.78	65535.00
503.95	65535.00
504.13	65535.00
504.30	65535.00
504.48	65535.00
504.65	65535.00
504.83	65535.00
505.01	65535.00
505.18	65535.00
505.36	65535.00
505.53	65535.00
505.71	65535.00
505.88	65535.00
506.06	65535.00
506.23	65535.00
506.41	65535.00
506.58	65535.00
506.76	65535.00
506.93	65535.00
507.11	65535.00
507.28	65535.00
507.46	65535.00
507.63	65535.00
507.81	65535.00
507.98	65535.00
508.16	65535.00
508.33	65535.00
508.50	65535.00
508.68	65535.00
508.85	65535.00
509.03	65535.00
509.20	65535.00
509.38	65535.00
509.55	65535.00
509.73	65535.00
509.90	65535.00
510.08	65535.00
510.25	65535.00
510.42	65535.00
510.60	65535.00
510.77	65535.00
510.95	65535.00
511.12	65535.00
511.30	65535.00
511.47	65535.00
511.64	65535.00
511.82	65535.00
511.99	65535.00
512.17	65535.00
512.34	65535.00
512.51	65535.00
512.69	65535.00
512.86	65535.00
513.04	65535.00
513.21	65535.00
513.38	65535.00
513.56	65535.00
513.73	65535.00
513.90	65535.00
514.08	65535.00
514.25	65535.00
514.43	65535.00
514.60	65535.00
514.77	65535.00
514.95	65535.00
515.12	65535.00
515.29	65535.00
515.47	65535.00
515.64	65535.00
515.81	65535.00
515.99	65535.00
516.16	65535.00
516.33	65535.00
516.51	65535.00
516.68	65535.00
516.85	65535.00
517.03	65535.00
517.20	65535.00
517.37	65535.00
517.54	65535.00
517.72	65535.00
517.89	65535.00
518.06	65535.00
518.24	65535.00
518.41	65535.00
518.58	65535.00
518.75	65535.00
518.93	65535.00
519.10	65535.00
519.27	65535.00
519.45	65535.00
519.62	65535.00
519.79	65535.00
519.96	65535.00
520.14	65535.00
520.31	65535.00
520.48	65535.00
520.65	65535.00
520.83	65535.00
521.00	65535.00
521.17	65535.00
521.34	65535.00
521.52	65535.00
521.69	65535.00
521.86	65535.00
522.03	65535.00
522.20	65535.00
522.38	65535.00
522.55	65535.00
522.72	65535.00
522.89	65535.00
523.07	65535.00
523.24	65535.00
523.41	65535.00
523.58	65535.00
523.75	65535.00
523.92	65535.00
524.10	65535.00
524.27	65535.00
524.44	65535.00
524.61	65535.00
524.78	65535.00
524.96	65535.00
525.13	65535.00
525.30	65535.00
525.47	65535.00
525.64	65535.00
525.81	65535.00
525.98	65535.00
526.16	65535.00
526.33	65535.00
526.50	65535.00
526.67	65535.00
526.84	65535.00
527.01	65535.00
527.18	65535.00
527.36	65535.00
527.53	65535.00
527.70	65535.00
527.87	65535.00
528.04	65535.00
528.21	65535.00
528.38	65535.00
528.55	65535.00
528.72	65535.00
528.89	65535.00
529.07	65535.00
529.24	65535.00
529.41	65535.00
529.58	65535.00
529.75	65535.00
529.92	65535.00
530.09	65535.00
530.26	65535.00
530.43	65535.00
530.60	65535.00
530.77	65535.00
530.94	65535.00
531.11	65535.00
531.28	65535.00
531.46	65535.00
531.63	65535.00
531.80	65535.00
531.97	65535.00
532.14	65535.00
532.31	65535.00
532.48	65535.00
532.65	65535.00
532.82	65535.00
532.99	65535.00
533.16	65535.00
533.33	65535.00
533.50	65535.00
533.67	65535.00
533.84	65535.00
534.01	65535.00
534.18	65535.00
534.35	65535.00
534.52	65535.00
534.69	65535.00
534.86	65535.00
535.03	65535.00
535.20	65535.00
535.37	65535.00
535.54	65535.00
535.71	65535.00
535.88	65535.00
536.05	65535.00
536.22	65535.00
536.38	65535.00
536.55	65535.00
536.72	65535.00
536.89	65535.00
537.06	65535.00
537.23	65535.00
537.40	65535.00
537.57	65535.00
537.74	65535.00
537.91	65535.00
538.08	65535.00
538.25	65535.00
538.42	65535.00
538.59	65535.00
538.75	65535.00
538.92	65535.00
539.09	65535.00
539.26	65535.00
539.43	65535.00
539.60	65535.00
539.77	65535.00
539.94	65535.00
540.11	65535.00
540.28	65535.00
540.44	65535.00
540.61	65535.00
540.78	65535.00
540.95	65535.00
541.12	65535.00
541.29	65535.00
541.46	65535.00
541.62	65535.00
541.79	65535.00
541.96	65535.00
542.13	65535.00
542.30	65535.00
542.47	65535.00
542.63	65535.00
542.80	65535.00
542.97	65535.00
543.14	65535.00
543.31	65535.00
543.48	65535.00
543.64	65535.00
543.81	65535.00
543.98	65535.00
544.15	65535.00
544.32	65535.00
544.48	65535.00
544.65	65535.00
544.82	65535.00
544.99	65535.00
545.16	65535.00
545.32	65535.00
545.49	65535.00
545.66	65535.00
545.83	65535.00
546.00	65535.00
546.16	65535.00
546.33	65535.00
546.50	65535.00
546.67	65535.00
546.83	65535.00
547.00	65535.00
547.17	65535.00
547.34	65535.00
547.50	65535.00
547.67	65535.00
547.84	65535.00
548.00	65535.00
548.17	65535.00
548.34	65535.00
548.51	65535.00
548.67	65535.00
548.84	65535.00
549.01	65535.00
549.18	65535.00
549.34	65535.00
549.51	65535.00
549.68	65535.00
549.84	65535.00
550.01	65535.00
550.18	65535.00
550.34	65535.00
550.51	65535.00
550.68	65535.00
550.84	65535.00
551.01	65535.00
551.18	65535.00
551.34	65535.00
551.51	65535.00
551.68	65535.00
551.84	65535.00
552.01	65535.00
552.18	65535.00
552.34	65535.00
552.51	65535.00
552.68	65535.00
552.84	65535.00
553.01	65535.00
553.18	65535.00
553.34	65535.00
553.51	65535.00
553.67	65535.00
553.84	65535.00
554.01	65535.00
554.17	65535.00
554.34	65535.00
554.51	65535.00
554.67	65535.00
554.84	65535.00
555.00	65535.00
555.17	65535.00
555.33	65535.00
555.50	65535.00
555.67	65535.00
555.83	65535.00
556.00	65535.00
556.16	65535.00
556.33	65535.00
556.50	65535.00
556.66	65535.00
556.83	65535.00
556.99	65535.00
557.16	65535.00
557.32	65535.00
557.49	65535.00
557.65	65535.00
557.82	65535.00
557.98	65535.00
558.15	65535.00
558.32	65535.00
558.48	65535.00
558.65	65535.00
558.81	65535.00
558.98	65535.00
559.14	65535.00
559.31	65535.00
559.47	65535.00
559.64	65535.00
559.80	65535.00
559.97	65535.00
560.13	65535.00
560.30	65535.00
560.46	65535.00
560.63	65535.00
560.79	65535.00
560.96	65535.00
561.12	65535.00
561.29	65535.00
561.45	65535.00
561.61	65535.00
561.78	65535.00
561.94	65535.00
562.11	65535.00
562.27	65535.00
562.44	65535.00
562.60	65535.00
562.77	65535.00
562.93	65535.00
563.10	65535.00
563.26	65535.00
563.42	65535.00
563.59	65535.00
563.75	65535.00
563.92	65535.00
564.08	65535.00
564.24	65535.00
564.41	65535.00
564.57	65535.00
564.74	65535.00
564.90	65535.00
565.07	65535.00
565.23	65535.00
565.39	65535.00
565.56	65535.00
565.72	65535.00
565.88	65535.00
566.05	65535.00
566.21	65535.00
566.38	65535.00
566.54	65535.00
566.70	65535.00
566.87	65535.00
567.03	65535.00
567.19	65535.00
567.36	65535.00
567.52	65535.00
567.68	65535.00
567.85	65535.00
568.01	65535.00
568.17	65535.00
568.34	65535.00
568.50	65535.00
568.66	65535.00
568.83	65535.00
568.99	65535.00
569.15	65535.00
569.32	65535.00
569.48	65535.00
569.64	65535.00
569.81	65535.00
569.97	65535.00
570.13	65535.00
570.30	65535.00
570.46	65535.00
570.62	65535.00
570.78	65535.00
570.95	65535.00
571.11	65535.00
571.27	65535.00
571.43	65535.00
571.60	65535.00
571.76	65535.00
571.92	65535.00
572.09	65535.00
572.25	65535.00
572.41	65535.00
572.57	65535.00
572.74	65535.00
572.90	65535.00
573.06	65535.00
573.22	65535.00
573.38	65535.00
573.55	65535.00
573.71	65535.00
573.87	65535.00
574.03	65535.00
574.20	65535.00
574.36	65535.00
574.52	65535.00
574.68	65535.00
574.84	65535.00
575.01	65535.00
575.17	65535.00
575.33	65535.00
575.49	65535.00
575.65	65535.00
575.82	65535.00
575.98	65535.00
576.14	65535.00
576.30	65535.00
576.46	65535.00
576.62	65535.00
576.79	65535.00
576.95	65535.00
577.11	65535.00
577.27	65535.00
577.43	65535.00
577.59	65535.00
577.75	65535.00
577.92	65535.00
578.08	65535.00
578.24	65535.00
578.40	65535.00
578.56	65535.00
578.72	65535.00
578.88	65535.00
579.04	65535.00
579.21	65535.00
579.37	65535.00
579.53	65535.00
579.69	65535.00
579.85	65535.00
580.01	65535.00
580.17	65535.00
580.33	65535.00
580.49	65535.00
580.65	65535.00
580.82	65535.00
580.98	65535.00
581.14	65535.00
581.30	65535.00
581.46	65535.00
581.62	65535.00
581.78	65535.00
581.94	65535.00
582.10	65535.00
582.26	65535.00
582.42	65535.00
582.58	65535.00
582.74	65535.00
582.90	65535.00
583.06	65535.00
583.22	65535.00
583.38	65535.00
583.54	65535.00
583.70	65535.00
583.86	65535.00
584.02	65535.00
584.18	65535.00
584.34	65535.00
584.50	65535.00
584.66	65535.00
584.82	65535.00
584.98	65535.00
