SpectraSuite Data File
++++++++++++++++++++++++++++++++++++
Date: Mon Oct 07 14:54:58 GMT-05:00 2013
User: price-jones
Dark Spectrum Present: No
Reference Spectrum Present: No
Number of Sampled Component Spectra: 1
Spectrometers: USB2+H05261
Integration Time (usec): 10000 (USB2+H05261)
Spectra Averaged: 1 (USB2+H05261)
Boxcar Smoothing: 0 (USB2+H05261)
Correct for Electrical Dark: No (USB2+H05261)
Strobe/Lamp Enabled: No (USB2+H05261)
Correct for Detector Non-linearity: No (USB2+H05261)
Correct for Stray Light: No (USB2+H05261)
Number of Pixels in Processed Spectrum: 2048
>>>>>Begin Processed Spectral Data<<<<<
365.73	0.00
365.92	0.00
366.12	0.00
366.32	0.00
366.52	0.00
366.72	0.00
366.91	0.00
367.11	0.00
367.31	0.00
367.51	0.00
367.70	0.00
367.90	0.00
368.10	0.00
368.30	0.00
368.49	0.00
368.69	0.00
368.89	0.00
369.09	0.00
369.28	0.00
369.48	0.00
369.68	0.00
369.87	0.00
370.07	0.00
370.27	0.00
370.47	0.00
370.66	177.88
370.86	180.22
371.06	255.12
371.25	358.10
371.45	234.05
371.65	70.22
371.84	121.71
372.04	210.65
372.24	245.76
372.44	292.57
372.63	332.36
372.83	271.50
373.03	173.20
373.22	222.35
373.42	166.18
373.62	297.25
373.81	234.05
374.01	259.80
374.21	255.12
374.40	234.05
374.60	259.80
374.79	311.29
374.99	381.51
375.19	341.72
375.38	395.55
375.58	351.08
375.78	397.89
375.97	308.95
376.17	411.93
376.37	346.40
376.56	386.19
376.76	409.59
376.95	557.05
377.15	550.03
377.35	580.45
377.54	566.41
377.74	573.43
377.93	627.26
378.13	510.24
378.33	526.62
378.52	489.17
378.72	458.74
378.91	449.38
379.11	428.32
379.31	393.21
379.50	339.38
379.70	421.30
379.89	423.64
380.09	573.43
380.28	615.56
380.48	552.37
380.68	543.00
380.87	552.37
381.07	535.98
381.26	367.46
381.46	386.19
381.65	325.33
381.85	287.89
382.04	283.20
382.24	320.65
382.43	287.89
382.63	257.46
382.83	273.84
383.02	222.35
383.22	264.48
383.41	201.29
383.61	259.80
383.80	337.04
384.00	351.08
384.19	498.53
384.39	608.54
384.58	550.03
384.78	475.13
384.97	458.74
385.17	402.57
385.36	465.77
385.56	341.72
385.75	430.66
385.95	447.04
386.14	550.03
386.34	496.19
386.53	571.09
386.72	477.47
386.92	454.06
387.11	540.66
387.31	477.47
387.50	535.98
387.70	526.62
387.89	582.79
388.09	524.28
388.28	402.57
388.48	519.60
388.67	589.82
388.86	629.60
389.06	819.19
389.25	760.67
389.45	772.38
389.64	734.93
389.84	791.10
390.03	720.88
390.22	777.06
390.42	744.29
390.61	798.12
390.81	954.94
391.00	856.64
391.19	861.32
391.39	847.27
391.58	732.59
391.78	741.95
391.97	653.01
392.16	608.54
392.36	514.92
392.55	360.44
392.75	273.84
392.94	180.22
393.13	147.45
393.33	220.01
393.52	475.13
393.71	486.83
393.91	655.35
394.10	676.41
394.29	758.33
394.49	898.77
394.68	858.98
394.88	840.25
395.07	1015.79
395.26	952.60
395.46	884.72
395.65	777.06
395.84	770.04
396.04	538.32
396.23	498.53
396.42	301.93
396.62	292.57
396.81	365.12
397.00	535.98
397.19	784.08
397.39	936.21
397.58	1036.86
397.77	1294.32
397.97	1207.72
398.16	1245.16
398.35	1245.16
398.55	1266.23
398.74	1343.47
398.93	1376.24
399.12	1341.13
399.32	1289.64
399.51	1224.10
399.70	1376.24
399.90	1320.06
400.09	1437.09
400.28	1418.36
400.47	1495.60
400.67	1507.30
400.86	1600.93
401.05	1519.01
401.24	1650.08
401.44	1551.78
401.63	1629.01
401.82	1523.69
402.01	1497.94
402.21	1542.41
402.40	1537.73
402.59	1537.73
402.78	1467.52
402.97	1376.24
403.17	1523.69
403.36	1472.20
403.55	1657.10
403.74	1715.61
403.93	1596.25
404.13	1385.60
404.32	1432.41
404.51	1584.54
404.70	1603.27
404.89	1509.65
405.09	1462.83
405.28	1533.05
405.47	1516.67
405.66	1568.16
405.85	1462.83
406.05	1451.13
406.24	1509.65
406.43	1465.18
406.62	1593.90
406.81	1418.36
407.00	1497.94
407.20	1481.56
407.39	1481.56
407.58	1619.65
407.77	1561.14
407.96	1645.40
408.15	1671.14
408.34	1708.59
408.54	1834.98
408.73	1762.42
408.92	1928.60
409.11	1703.91
409.30	1673.48
409.49	1479.22
409.68	1406.66
409.87	1306.02
410.07	1488.58
410.26	1612.63
410.45	1701.57
410.64	1816.26
410.83	1790.51
411.02	1701.57
411.21	1905.20
411.40	1907.54
411.59	1877.11
411.78	1846.68
411.98	1811.57
412.17	1827.96
412.36	1867.75
412.55	1816.26
412.74	1837.32
412.93	1748.38
413.12	1741.36
413.31	1928.60
413.50	1907.54
413.69	2078.40
413.88	1952.01
414.07	1893.49
414.26	1874.77
414.45	1907.54
414.64	1961.37
414.83	2036.27
415.02	1797.53
415.22	1940.30
415.41	1963.71
415.60	1980.09
415.79	2174.36
415.98	2047.97
416.17	2230.53
416.36	2069.03
416.55	2092.44
416.74	1891.15
416.93	2003.50
417.12	1937.96
417.31	2001.16
417.50	1982.43
417.69	1944.99
417.88	2043.29
418.07	1977.75
418.26	1881.79
418.45	2001.16
418.64	2101.80
418.83	2136.91
419.02	2090.10
419.21	2064.35
419.39	2129.89
419.58	1909.88
419.77	1966.05
419.96	2045.63
420.15	2104.14
420.34	2167.34
420.53	2256.28
420.72	2349.90
420.91	2373.30
421.10	2293.72
421.29	2270.32
421.48	2143.93
421.67	2298.41
421.86	2153.29
422.05	2080.74
422.24	1844.34
422.43	1837.32
422.61	1970.73
422.80	2143.93
422.99	2279.68
423.18	2033.93
423.37	2047.97
423.56	2087.76
423.75	2092.44
423.94	2165.00
424.13	1994.14
424.32	1963.71
424.50	2050.31
424.69	1921.58
424.88	2012.86
425.07	1970.73
425.26	1982.43
425.45	1968.39
425.64	1947.33
425.83	1888.81
426.01	2019.88
426.20	2083.08
426.39	2024.56
426.58	1851.36
426.77	1703.91
426.96	1682.85
427.15	1734.34
427.33	1998.82
427.52	2040.95
427.71	2040.95
427.90	2017.54
428.09	1970.73
428.28	1895.83
428.46	1870.09
428.65	1844.34
428.84	1799.87
429.03	1799.87
429.22	1748.38
429.40	1666.46
429.59	1528.37
429.78	1289.64
429.97	1294.32
430.16	1313.04
430.34	1308.36
430.53	1261.55
430.72	1235.80
430.91	1528.37
431.10	1879.45
431.28	2092.44
431.47	2300.75
431.66	2352.24
431.85	2094.78
432.03	1937.96
432.22	1909.88
432.41	1980.09
432.60	2111.16
432.79	2246.91
432.97	2375.64
433.16	2244.57
433.35	2029.24
433.54	1785.83
433.72	1732.00
433.91	1776.47
434.10	2043.29
434.28	2162.66
434.47	2284.36
434.66	2265.64
434.85	2026.90
435.03	2211.81
435.22	2200.10
435.41	2389.69
435.59	2277.34
435.78	2448.20
435.97	2424.80
436.16	2469.27
436.34	2462.24
436.53	2289.04
436.72	2340.54
436.90	2174.36
437.09	2132.23
437.28	2230.53
437.46	2347.56
437.65	2455.22
437.84	2015.20
438.02	1783.49
438.21	1844.34
438.40	1994.14
438.58	2087.76
438.77	2396.71
438.96	2340.54
439.14	2359.26
439.33	2324.15
439.52	2438.84
439.70	2352.24
439.89	2289.04
440.08	2188.40
440.26	2249.25
440.45	2363.94
440.63	2532.46
440.82	2665.87
441.01	2602.68
441.19	2616.72
441.38	2518.42
441.57	2586.29
441.75	2787.58
441.94	2705.66
442.12	2841.41
442.31	2808.64
442.50	2860.13
442.68	2862.48
442.87	2717.36
443.05	2651.83
443.24	2799.28
443.43	2829.71
443.61	2759.49
443.80	2930.35
443.98	2675.23
444.17	2759.49
444.35	2928.01
444.54	2846.09
444.73	2794.60
444.91	2785.24
445.10	2686.94
445.28	2576.93
445.47	2478.63
445.65	2595.65
445.84	2581.61
446.02	2658.85
446.21	2651.83
446.39	2726.72
446.58	2626.08
446.77	2693.96
446.95	2789.92
447.14	2864.82
447.32	2897.58
447.51	2785.24
447.69	2656.51
447.88	2752.47
448.06	2726.72
448.25	2761.83
448.43	2850.77
448.62	2794.60
448.80	2764.17
448.99	2778.22
449.17	2705.66
449.36	2892.90
449.54	2808.64
449.73	3045.04
449.91	2899.92
450.10	2946.73
450.28	3070.78
450.46	3075.46
450.65	3056.74
450.83	3068.44
451.02	2885.88
451.20	2951.42
451.39	3028.65
451.57	2963.12
451.76	3042.70
451.94	2972.48
452.13	2923.33
452.31	2724.38
452.49	2572.25
452.68	2569.91
452.86	2705.66
453.05	2682.25
453.23	2778.22
453.42	2787.58
453.60	2956.10
453.78	2974.82
453.97	2899.92
454.15	2902.26
454.34	2829.71
454.52	2810.98
454.70	2782.90
454.89	2832.05
455.07	2705.66
455.26	2761.83
455.44	3033.33
455.62	3012.27
455.81	3059.08
455.99	2988.86
456.17	2972.48
456.36	2930.35
456.54	3119.93
456.73	3110.57
456.91	3112.91
457.09	3080.14
457.28	3229.94
457.46	3061.42
457.64	3052.06
457.83	3040.36
458.01	2789.92
458.19	2977.16
458.38	2937.37
458.56	3021.63
458.74	3026.31
458.93	2928.01
459.11	3061.42
459.29	2899.92
459.48	3030.99
459.66	3002.91
459.84	2920.99
460.03	2946.73
460.21	3084.83
460.39	3101.21
460.57	3084.83
460.76	2979.50
460.94	3133.98
461.12	3180.79
461.31	3049.72
461.49	3070.78
461.67	3101.21
461.85	3211.22
462.04	3133.98
462.22	3192.49
462.40	3173.77
462.59	3110.57
462.77	3162.06
462.95	3243.98
463.13	3112.91
463.32	3101.21
463.50	3162.06
463.68	3141.00
463.86	3066.10
464.05	3178.45
464.23	3014.61
464.41	2867.16
464.59	2890.56
464.78	3110.57
464.96	3059.08
465.14	2911.63
465.32	3091.85
465.50	3115.25
465.69	3171.43
465.87	3269.73
466.05	3082.49
466.23	2920.99
466.41	2672.89
466.60	2953.76
466.78	2918.65
466.96	3009.93
467.14	2869.50
467.32	3028.65
467.51	3061.42
467.69	2827.37
467.87	2991.20
468.05	2946.73
468.23	3143.34
468.41	3021.63
468.60	3007.59
468.78	3087.17
468.96	3002.91
469.14	3012.27
469.32	3052.06
469.50	2951.42
469.69	3054.40
469.87	2874.18
470.05	2972.48
470.23	2867.16
470.41	2970.14
470.59	2972.48
470.77	2916.31
470.95	3016.95
471.14	3105.89
471.32	3002.91
471.50	3178.45
471.68	3386.76
471.86	3386.76
472.04	3358.67
472.22	3286.11
472.40	3124.62
472.58	3171.43
472.77	3194.83
472.95	3068.44
473.13	3143.34
473.31	3131.64
473.49	3206.53
473.67	3155.04
473.85	3222.92
474.03	3318.88
474.21	3293.13
474.39	3407.82
474.57	3412.50
474.75	3431.23
474.93	3375.05
475.12	3269.73
475.30	3183.13
475.48	3330.58
475.66	3368.03
475.84	3206.53
476.02	3229.94
476.20	3213.56
476.38	3218.24
476.56	3337.60
476.74	3344.63
476.92	3527.19
477.10	3548.25
477.28	3609.11
477.46	3660.60
477.64	3543.57
477.82	3655.92
478.00	3604.42
478.18	3658.26
478.36	3566.98
478.54	3456.97
478.72	3634.85
478.90	3726.13
479.08	3808.05
479.26	3868.91
479.44	3941.46
479.62	3854.86
479.80	3775.28
479.98	3857.20
480.16	3978.91
480.34	3719.11
480.52	3744.86
480.70	3894.65
480.88	3927.42
481.06	3976.57
481.24	3988.27
481.41	4039.76
481.59	4126.36
481.77	4093.60
481.95	3985.93
482.13	3997.64
482.31	3929.76
482.49	4133.39
482.67	4018.70
482.85	4037.42
483.03	4149.77
483.21	4079.55
483.39	4301.90
483.57	4007.00
483.74	4114.66
483.92	4114.66
484.10	4154.45
484.28	4189.56
484.46	4346.37
484.64	4280.84
484.82	4093.60
485.00	4257.43
485.18	4025.72
485.35	3957.85
485.53	3597.40
485.71	3389.10
485.89	3288.45
486.07	3393.78
486.25	3786.99
486.43	3920.40
486.61	4065.51
486.78	4016.36
486.96	4032.74
487.14	4280.84
487.32	4222.33
487.50	4589.79
487.68	4447.02
487.85	4706.82
488.03	4713.84
488.21	4608.51
488.39	4566.39
488.57	4390.84
488.75	4325.31
488.92	4432.97
489.10	4788.74
489.28	4854.27
489.46	5076.62
489.64	4947.89
489.81	5097.69
489.99	4987.68
490.17	5093.01
490.35	5184.29
490.53	4987.68
490.70	5004.07
490.88	4891.72
491.06	5039.17
491.24	5146.84
491.41	4870.65
491.59	4615.54
491.77	4559.36
491.95	4793.42
492.13	4931.51
492.30	5055.56
492.48	5263.86
492.66	5315.36
492.84	5462.81
493.01	5231.10
493.19	5158.54
493.37	5184.29
493.54	5125.77
493.72	5081.30
493.90	5526.00
494.08	5633.67
494.25	5605.58
494.43	5659.42
494.61	5776.44
494.79	5694.52
494.96	5643.03
495.14	5481.53
495.32	5324.72
495.49	5228.76
495.67	5284.93
495.85	5706.23
496.02	5699.20
496.20	5671.12
496.38	5547.07
496.55	5694.52
496.73	5659.42
496.91	5928.58
497.09	5846.66
497.26	5923.90
497.44	5767.08
497.62	5547.07
497.79	5579.84
497.97	5123.43
498.14	5149.18
498.32	5341.10
498.50	5738.99
498.67	5851.34
498.85	5916.87
499.03	6099.44
499.20	5832.62
499.38	6012.84
499.56	5961.34
499.73	5757.72
499.91	5797.51
500.08	5469.83
500.26	5490.90
500.44	5563.45
500.61	5598.56
500.79	5465.15
500.97	5610.26
501.14	5448.77
501.32	5476.85
501.49	5408.98
501.67	5308.34
501.84	5715.59
502.02	5708.57
502.20	5661.76
502.37	5715.59
502.55	5678.14
502.72	5884.11
502.90	6015.18
503.07	5907.51
503.25	5750.70
503.43	5661.76
503.60	5385.57
503.78	5163.22
503.95	5411.32
504.13	5722.61
504.30	5949.64
504.48	5788.14
504.65	5830.27
504.83	5678.14
505.01	5942.62
505.18	5935.60
505.36	5947.30
505.53	6047.94
505.71	6216.46
505.88	6125.18
506.06	5884.11
506.23	5905.17
506.41	6019.86
506.58	5886.45
506.76	6022.20
506.93	5898.15
507.11	6026.88
507.28	5778.78
507.46	5809.21
507.63	5703.89
507.81	5593.88
507.98	5612.60
508.16	5914.53
508.33	5893.47
508.50	6127.52
508.68	6162.63
508.85	6303.06
509.03	6195.40
509.20	6106.46
509.38	6129.86
509.55	5722.61
509.73	5628.99
509.90	6047.94
510.08	6083.05
510.25	5909.85
510.42	5830.27
510.60	5825.59
510.77	5954.32
510.95	6211.78
511.12	6289.02
511.30	6167.31
511.47	6162.63
511.64	6153.27
511.82	6282.00
511.99	6001.13
512.17	5860.70
512.34	5907.51
512.51	5757.72
512.69	6050.28
512.86	5891.13
513.04	6038.58
513.21	5968.37
513.38	5954.32
513.56	5645.37
513.73	5675.80
513.90	5575.16
514.08	5682.82
514.25	5743.67
514.43	5769.42
514.60	5746.02
514.77	5909.85
514.95	6001.13
515.12	5713.25
515.29	5942.62
515.47	5926.24
515.64	6022.20
515.81	5963.68
515.99	5809.21
516.16	5481.53
516.33	5184.29
516.51	4814.48
516.68	4716.18
516.85	4606.17
517.03	4744.27
517.20	5252.16
517.37	5547.07
517.54	5900.49
517.72	5865.38
517.89	5219.39
518.06	4917.47
518.24	4968.96
518.41	5441.75
518.58	5666.44
518.75	5785.80
518.93	5591.54
519.10	5584.52
519.27	5661.76
519.45	5764.74
519.62	6174.33
519.79	5959.00
519.96	5827.93
520.14	5907.51
520.31	5626.65
520.48	5694.52
520.65	5760.06
520.83	5982.41
521.00	6045.60
521.17	5959.00
521.34	5799.85
521.52	5893.47
521.69	6099.44
521.86	6202.42
522.03	6019.86
522.20	5696.86
522.38	5621.97
522.55	5551.75
522.72	5626.65
522.89	5734.31
523.07	5701.54
523.24	5792.83
523.41	6038.58
523.58	5970.71
523.75	6239.87
523.92	6195.40
524.10	5975.39
524.27	6179.01
524.44	6083.05
524.61	6244.55
524.78	6284.34
524.96	5806.87
525.13	6022.20
525.30	6054.97
525.47	6071.35
525.64	6033.90
525.81	5937.94
525.98	5638.35
526.16	5568.13
526.33	5252.16
526.50	5060.24
526.67	4947.89
526.84	5233.44
527.01	5313.02
527.18	5474.51
527.36	5846.66
527.53	5881.77
527.70	5944.96
527.87	5797.51
528.04	5465.15
528.21	5996.45
528.38	6001.13
528.55	6078.37
528.72	6195.40
528.89	6209.44
529.07	6277.32
529.24	6043.26
529.41	5881.77
529.58	5603.24
529.75	5764.74
529.92	5762.40
530.09	5996.45
530.26	6106.46
530.43	6162.63
530.60	6019.86
530.77	6148.59
530.94	6139.23
531.11	6003.47
531.28	5743.67
531.46	5898.15
531.63	6019.86
531.80	5942.62
531.97	5853.68
532.14	5638.35
532.31	5479.19
532.48	5420.68
532.65	5273.23
532.82	5556.43
532.99	5748.36
533.16	5706.23
533.33	5973.05
533.50	6024.54
533.67	5750.70
533.84	5820.91
534.01	5612.60
534.18	5685.16
534.35	5928.58
534.52	5795.17
534.69	5804.53
534.86	5762.40
535.03	5954.32
535.20	5926.24
535.37	6202.42
535.54	6284.34
535.71	6204.76
535.88	5973.05
536.05	5736.65
536.22	5722.61
536.38	5736.65
536.55	5621.97
536.72	5444.09
536.89	5399.62
537.06	5582.18
537.23	5776.44
537.40	5863.04
537.57	6134.54
537.74	5811.55
537.91	5841.98
538.08	5874.74
538.25	5750.70
538.42	5844.32
538.59	5710.91
538.75	5565.79
538.92	5518.98
539.09	5516.64
539.26	5596.22
539.43	5514.30
539.60	5486.22
539.77	5516.64
539.94	5528.35
540.11	5423.02
540.28	5226.42
540.44	5273.23
540.61	5469.83
540.78	5317.70
540.95	5556.43
541.12	5530.69
541.29	5713.25
541.46	5643.03
541.62	5746.02
541.79	5710.91
541.96	5343.44
542.13	5596.22
542.30	5561.11
542.47	5537.71
542.63	5392.59
542.80	5603.24
542.97	5504.94
543.14	5535.37
543.31	5479.19
543.48	5579.84
543.64	5741.33
543.81	5898.15
543.98	5860.70
544.15	5518.98
544.32	5455.79
544.48	5509.62
544.65	5558.77
544.82	5776.44
544.99	5540.05
545.16	5612.60
545.32	5411.32
545.49	5849.00
545.66	5837.30
545.83	5628.99
546.00	5533.03
546.16	5614.95
546.33	5500.26
546.50	5561.11
546.67	5467.49
546.83	5427.70
547.00	5437.06
547.17	5298.97
547.34	5233.44
547.50	5191.31
547.67	5341.10
547.84	5434.72
548.00	5444.09
548.17	5483.88
548.34	5483.88
548.51	5530.69
548.67	5526.00
548.84	5568.13
549.01	5392.59
549.18	5481.53
549.34	5392.59
549.51	5469.83
549.68	5448.77
549.84	5462.81
550.01	5376.21
550.18	5460.47
550.34	5387.91
550.51	5327.06
550.68	5411.32
550.84	5327.06
551.01	5233.44
551.18	5404.30
551.34	5376.21
551.51	5371.53
551.68	5444.09
551.84	5469.83
552.01	5362.17
552.18	5385.57
552.34	5212.37
552.51	5137.48
552.68	5308.34
552.84	5383.23
553.01	5334.08
553.18	5341.10
553.34	5481.53
553.51	5191.31
553.67	5380.89
553.84	5437.06
554.01	5439.40
554.17	5313.02
554.34	5460.47
554.51	5423.02
554.67	5441.75
554.84	5331.74
555.00	5392.59
555.17	5289.61
555.33	5371.53
555.50	5282.59
555.67	5324.72
555.83	5294.29
556.00	5203.01
556.16	5100.03
556.33	5093.01
556.50	5043.85
556.66	5043.85
556.83	5085.98
556.99	5273.23
557.16	5085.98
557.32	5146.84
557.49	5144.50
557.65	5172.58
557.82	5095.35
557.98	5048.54
558.15	5015.77
558.32	4990.02
558.48	4755.97
558.65	4800.44
558.81	4938.53
558.98	4901.08
559.14	4807.46
559.31	4985.34
559.47	4905.76
559.64	4863.63
559.80	4844.91
559.97	4880.02
560.13	4884.70
560.30	4992.36
560.46	5327.06
560.63	5233.44
560.79	5277.91
560.96	5097.69
561.12	4917.47
561.29	4751.29
561.45	4795.76
561.61	4844.91
561.78	5034.49
561.94	4924.49
562.11	4753.63
562.27	4837.89
562.44	4983.00
562.60	5111.73
562.77	4945.55
562.93	5032.15
563.10	4891.72
563.26	4910.44
563.42	5013.43
563.59	4793.42
563.75	4931.51
563.92	4744.27
564.08	4856.61
564.24	4795.76
564.41	4903.42
564.57	4863.63
564.74	4966.62
564.90	4753.63
565.07	4716.18
565.23	4777.03
565.39	4667.03
565.56	4685.75
565.72	4610.86
565.88	4641.28
566.05	4793.42
566.21	4718.52
566.38	4676.39
566.54	4779.37
566.70	4865.97
566.87	4880.02
567.03	4793.42
567.19	4833.21
567.36	4912.78
567.52	4875.34
567.68	4802.78
567.85	4645.96
568.01	4465.74
568.17	4498.51
568.34	4432.97
568.50	4447.02
568.66	4638.94
568.83	4739.58
568.99	4699.80
569.15	4461.06
569.32	4683.41
569.48	4486.81
569.64	4470.42
569.81	4297.22
569.97	4411.91
570.13	4430.63
570.30	4425.95
570.46	4484.47
570.62	4187.22
570.78	4241.05
570.95	4341.69
571.11	4400.21
571.27	4528.94
571.43	4465.74
571.60	4631.92
571.76	4505.53
571.92	4664.69
572.09	4669.37
572.25	4599.15
572.41	4533.62
572.57	4620.22
572.74	4498.51
572.90	4517.23
573.06	4594.47
573.22	4533.62
573.38	4589.79
573.55	4491.49
573.71	4538.30
573.87	4482.13
574.03	4571.07
574.20	4449.36
574.36	4533.62
574.52	4351.06
574.68	4386.16
574.84	4449.36
575.01	4290.20
575.17	4341.69
575.33	4229.35
575.49	4259.78
575.65	4358.08
575.82	4187.22
575.98	4210.62
576.14	4086.58
576.30	4327.65
576.46	4376.80
576.62	4238.71
576.79	4383.82
576.95	4400.21
577.11	4269.14
577.27	4329.99
577.43	4105.30
577.59	4325.31
577.75	4142.75
577.92	4063.17
578.08	4056.15
578.24	4102.96
578.40	4079.55
578.56	4170.83
578.72	4173.18
578.88	4208.28
579.04	4145.09
579.21	4210.62
579.37	4215.30
579.53	4278.50
579.69	4322.97
579.85	4231.69
580.01	4311.27
580.17	4159.13
580.33	4297.22
580.49	4180.20
580.65	4227.01
580.82	4212.96
580.98	4219.99
581.14	4053.81
581.30	4121.68
581.46	4245.73
581.62	4156.79
581.78	4168.49
581.94	4395.53
582.10	4205.94
582.26	4205.94
582.42	4196.58
582.58	4065.51
582.74	4217.65
582.90	4252.75
583.06	4248.07
583.22	4315.95
583.38	4229.35
583.54	4271.48
583.70	4269.14
583.86	4182.54
584.02	4147.43
584.18	4231.69
584.34	3978.91
584.50	4142.75
584.66	4276.16
584.82	4234.03
584.98	4058.49
585.14	3946.14
585.30	3932.10
585.46	4042.11
585.62	3875.93
585.78	3997.64
585.94	3796.35
586.10	4004.66
586.26	4011.68
586.42	4039.76
586.58	3920.40
586.74	4135.73
586.90	4051.47
587.06	3950.82
587.22	3983.59
587.38	3950.82
587.54	3922.74
587.70	3971.89
587.86	3810.39
588.02	3768.26
588.18	3737.84
588.34	3588.04
588.49	3513.14
588.65	3229.94
588.81	3241.64
588.97	3241.64
589.13	3220.58
589.29	3283.77
589.45	3241.64
589.61	3459.31
589.77	3599.74
589.93	3684.00
590.08	3735.50
590.24	3763.58
590.40	3761.24
590.56	3531.87
590.72	3688.68
590.88	3698.05
591.04	3613.79
591.20	3679.32
591.35	3786.99
591.51	3590.38
591.67	3639.53
591.83	3744.86
591.99	3758.90
592.15	3639.53
592.31	3770.60
592.46	3726.13
592.62	3740.18
592.78	3616.13
592.94	3714.43
593.10	3700.39
593.26	3679.32
593.41	3698.05
593.57	3592.72
593.73	3627.83
593.89	3637.19
594.05	3583.36
594.20	3461.65
594.36	3454.63
594.52	3529.53
594.68	3574.00
594.84	3501.44
594.99	3599.74
595.15	3548.25
595.31	3613.79
595.47	3597.40
595.62	3665.28
595.78	3679.32
595.94	3723.79
596.10	3574.00
596.25	3562.30
596.41	3599.74
596.57	3618.47
596.73	3576.34
596.88	3588.04
597.04	3548.25
597.20	3620.81
597.36	3466.33
597.51	3473.36
597.67	3599.74
597.83	3578.68
597.99	3613.79
