SpectraSuite Data File
++++++++++++++++++++++++++++++++++++
Date: Mon Oct 07 14:55:02 GMT-05:00 2013
User: price-jones
Dark Spectrum Present: No
Reference Spectrum Present: No
Number of Sampled Component Spectra: 1
Spectrometers: USB2+H05261
Integration Time (usec): 10000 (USB2+H05261)
Spectra Averaged: 1 (USB2+H05261)
Boxcar Smoothing: 0 (USB2+H05261)
Correct for Electrical Dark: No (USB2+H05261)
Strobe/Lamp Enabled: No (USB2+H05261)
Correct for Detector Non-linearity: No (USB2+H05261)
Correct for Stray Light: No (USB2+H05261)
Number of Pixels in Processed Spectrum: 2048
>>>>>Begin Processed Spectral Data<<<<<
365.73	0.00
365.92	0.00
366.12	0.00
366.32	0.00
366.52	0.00
366.72	0.00
366.91	0.00
367.11	0.00
367.31	0.00
367.51	0.00
367.70	0.00
367.90	0.00
368.10	0.00
368.30	0.00
368.49	0.00
368.69	0.00
368.89	0.00
369.09	0.00
369.28	0.00
369.48	0.00
369.68	0.00
369.87	0.00
370.07	0.00
370.27	0.00
370.47	400.23
370.66	2705.66
370.86	3197.17
371.06	3363.35
371.25	3426.54
371.45	3185.47
371.65	2693.96
371.84	2478.63
372.04	2977.16
372.24	3159.72
372.44	3232.28
372.63	3171.43
372.83	2857.79
373.03	2605.02
373.22	2471.61
373.42	2752.47
373.62	3108.23
373.81	3281.43
374.01	3143.34
374.21	2801.62
374.40	2719.70
374.60	2750.13
374.79	3311.86
374.99	3819.75
375.19	4088.92
375.38	3913.38
375.58	3765.92
375.78	3817.41
375.97	3798.69
376.17	3747.20
376.37	3852.52
376.56	4025.72
376.76	4294.88
376.95	4610.86
377.15	4741.93
377.35	4940.87
377.54	5305.99
377.74	5315.36
377.93	5394.93
378.13	5057.90
378.33	4709.16
378.52	4521.92
378.72	4196.58
378.91	4329.99
379.11	4105.30
379.31	3967.21
379.50	4126.36
379.70	4367.44
379.89	4983.00
380.09	5039.17
380.28	5287.27
380.48	5153.86
380.68	5118.75
380.87	4910.44
381.07	4500.85
381.26	4210.62
381.46	3957.85
381.65	3913.38
381.85	3651.24
382.04	3531.87
382.24	3272.07
382.43	3218.24
382.63	3096.53
382.83	3014.61
383.02	3023.97
383.22	3061.42
383.41	3295.47
383.61	3494.42
383.80	3871.25
384.00	4552.34
384.19	5011.09
384.39	5233.44
384.58	5191.31
384.78	5142.16
384.97	4940.87
385.17	4652.98
385.36	4608.51
385.56	4327.65
385.75	4535.96
385.95	5277.91
386.14	5385.57
386.34	5364.51
386.53	5153.86
386.72	4681.07
386.92	4985.34
387.11	5135.14
387.31	5362.17
387.50	5277.91
387.70	5181.95
387.89	5093.01
388.09	5146.84
388.28	5142.16
388.48	5343.44
388.67	5746.02
388.86	6263.27
389.06	6672.87
389.25	7166.72
389.45	7000.54
389.64	7082.46
389.84	6707.98
390.03	6855.43
390.22	6897.56
390.42	7185.44
390.61	7524.82
390.81	8241.03
391.00	8311.24
391.19	8219.96
391.39	8074.85
391.58	7396.09
391.78	7096.50
391.97	6759.47
392.16	6125.18
392.36	5668.78
392.55	4320.63
392.75	3386.76
392.94	2967.80
393.13	3103.55
393.33	3770.60
393.52	4898.74
393.71	5661.76
393.91	6459.88
394.10	6913.94
394.29	7899.31
394.49	8091.23
394.68	8669.34
394.88	8599.13
395.07	8854.25
395.26	8702.11
395.46	8688.07
395.65	7999.95
395.84	6693.93
396.04	5575.16
396.23	4484.47
396.42	3836.14
396.62	3985.93
396.81	5039.17
397.00	6319.45
397.19	7990.59
397.39	9397.25
397.58	10183.67
397.77	10925.62
397.97	10988.82
398.16	11129.25
398.35	11686.29
398.55	11913.33
398.74	12156.74
398.93	12444.63
399.12	12496.12
399.32	11859.49
399.51	12458.67
399.70	13301.26
399.90	13050.83
400.09	12964.23
400.28	12507.82
400.47	13088.28
400.67	13736.60
400.86	13771.71
401.05	14045.55
401.24	13909.80
401.44	14167.26
401.63	14487.92
401.82	13980.02
402.01	14237.48
402.21	14333.44
402.40	14567.49
402.59	13909.80
402.78	13324.67
402.97	13104.66
403.17	14232.80
403.36	14888.15
403.55	14939.64
403.74	15068.37
403.93	14363.87
404.13	13315.31
404.32	13270.84
404.51	13926.19
404.70	14588.56
404.89	14834.32
405.09	14459.83
405.28	13954.27
405.47	14359.19
405.66	14415.36
405.85	13708.52
406.05	13720.22
406.24	13855.97
406.43	14389.61
406.62	14764.10
406.81	14747.72
407.00	14415.36
407.20	14071.30
407.39	14244.50
407.58	15124.54
407.77	15953.09
407.96	16123.95
408.15	16350.98
408.34	16582.70
408.54	16971.22
408.73	16851.86
408.92	16514.82
409.11	15990.54
409.30	15098.80
409.49	14108.75
409.68	13324.67
409.87	13352.76
410.07	14658.78
410.26	14972.41
410.45	16362.69
410.64	16451.63
410.83	17558.70
411.02	17561.04
411.21	18164.90
411.40	18092.34
411.59	18113.41
411.78	18174.26
411.98	17722.54
412.17	17888.71
412.36	17764.67
412.55	17921.48
412.74	17401.88
412.93	17076.55
413.12	17813.82
413.31	19241.54
413.50	19360.91
413.69	19286.01
413.88	18485.55
414.07	18363.84
414.26	18743.01
414.45	19119.84
414.64	18899.83
414.83	18579.17
415.02	18855.36
415.22	18995.79
415.41	19709.65
415.60	20065.41
415.79	20416.49
415.98	20746.51
416.17	20725.44
416.36	20271.38
416.55	20093.50
416.74	19159.63
416.93	18890.46
417.12	19119.84
417.31	19243.88
417.50	19751.78
417.69	20446.92
417.88	20065.41
418.07	20109.88
418.26	19768.16
418.45	19969.45
418.64	20996.95
418.83	21991.67
419.02	20931.41
419.21	20645.87
419.39	19590.28
419.58	19124.52
419.77	19585.60
419.96	20863.54
420.15	21443.99
420.34	21968.27
420.53	22434.03
420.72	23133.86
420.91	22740.64
421.10	22380.20
421.29	21956.57
421.48	21668.68
421.67	22665.75
421.86	21537.61
422.05	19513.05
422.24	18136.81
422.43	18902.17
422.61	21235.68
422.80	21846.56
422.99	21553.99
423.18	20704.38
423.37	20585.01
423.56	20952.48
423.75	21757.62
423.94	21893.37
424.13	20465.64
424.32	20425.86
424.50	20453.94
424.69	20800.34
424.88	20753.53
425.07	21238.02
425.26	20908.01
425.45	20020.94
425.64	19974.13
425.83	19875.83
426.01	21209.93
426.20	21577.40
426.39	20966.52
426.58	19674.54
426.77	18319.37
426.96	18317.03
427.15	19180.69
427.33	20528.84
427.52	20957.16
427.71	21317.60
427.90	20950.14
428.09	20552.24
428.28	19913.28
428.46	19033.24
428.65	19126.86
428.84	20100.52
429.03	19695.61
429.22	18644.71
429.40	17640.62
429.59	15847.77
429.78	14036.19
429.97	14455.15
430.16	14310.04
430.34	14490.26
430.53	15208.80
430.72	15541.16
430.91	17685.09
431.10	20388.41
431.28	23601.96
431.47	25111.61
431.66	24680.95
431.85	21891.03
432.03	20407.13
432.22	20577.99
432.41	21879.33
432.60	23765.80
432.79	24180.07
432.97	24812.02
433.16	23611.32
433.35	21202.91
433.54	19150.26
433.72	18731.31
433.91	20070.09
434.10	22637.66
434.28	23878.15
434.47	24589.67
434.66	23608.98
434.85	22845.97
435.03	23651.11
435.22	23927.30
435.41	25186.50
435.59	25570.35
435.78	25905.05
435.97	26590.83
436.16	26251.45
436.34	25603.12
436.53	25373.75
436.72	25408.86
436.90	24458.60
437.09	24299.44
437.28	23983.47
437.46	24753.51
437.65	23997.51
437.84	21900.39
438.02	21095.25
438.21	21699.11
438.40	22199.98
438.58	23955.38
438.77	24694.99
438.96	25305.87
439.14	26059.52
439.33	26647.00
439.52	26614.23
439.70	25748.23
439.89	25113.95
440.08	25060.12
440.26	25181.82
440.45	26710.19
440.63	28437.51
440.82	28833.06
441.01	28032.60
441.19	28123.88
441.38	29244.99
441.57	29963.54
441.75	30071.20
441.94	30441.01
442.12	30483.14
442.31	30927.84
442.50	30733.57
442.68	30038.44
442.87	30726.55
443.05	29308.19
443.24	30265.47
443.43	30787.41
443.61	31192.32
443.80	31812.56
443.98	30656.34
444.17	30057.16
444.35	31180.62
444.54	32219.81
444.73	31037.84
444.91	29790.34
445.10	28603.69
445.28	27861.74
445.47	27576.19
445.65	27950.68
445.84	29116.26
446.02	29645.23
446.21	30314.62
446.39	30361.43
446.58	30698.47
446.77	31648.72
446.95	31756.39
447.14	32278.33
447.32	32952.40
447.51	32596.64
447.69	30967.63
447.88	30623.57
448.06	30988.69
448.25	31625.32
448.43	30948.90
448.62	31211.04
448.80	31037.84
448.99	31063.59
449.17	31878.10
449.36	32079.38
449.54	32837.72
449.73	33280.08
449.91	33387.74
450.10	34831.85
450.28	35005.05
450.46	35079.95
450.65	34820.15
450.83	34522.90
451.02	34019.69
451.20	33631.16
451.39	34061.82
451.57	33937.77
451.76	33837.12
451.94	32739.41
452.13	32149.60
452.31	30532.29
452.49	29266.06
452.68	30497.18
452.86	30824.86
453.05	31042.53
453.23	32336.84
453.42	32517.06
453.60	33560.94
453.78	33371.36
453.97	33055.39
454.15	32952.40
454.34	31386.58
454.52	31906.18
454.70	31761.07
454.89	32446.85
455.07	32341.52
455.26	33240.29
455.44	33951.81
455.62	34277.15
455.81	34115.65
455.99	34604.82
456.17	34181.18
456.36	35349.11
456.54	35339.75
456.73	35077.61
456.91	35899.14
457.09	35716.58
457.28	37048.34
457.46	34822.49
457.64	34672.70
457.83	33556.26
458.01	33979.90
458.19	35288.26
458.38	35625.29
458.56	35775.09
458.74	35117.40
458.93	34618.86
459.11	34127.35
459.29	34338.00
459.48	35136.12
459.66	33986.92
459.84	34728.87
460.03	34651.63
460.21	35763.39
460.39	36767.48
460.57	35543.38
460.76	36245.54
460.94	36657.47
461.12	36507.68
461.31	36563.85
461.49	36875.14
461.67	36664.49
461.85	37457.93
462.04	37111.53
462.22	37212.18
462.40	36921.95
462.59	36685.56
462.77	37001.53
462.95	37109.19
463.13	36374.27
463.32	35498.91
463.50	35751.68
463.68	35578.48
463.86	36479.59
464.05	35461.46
464.23	34794.40
464.41	35398.26
464.59	34436.30
464.78	36004.46
464.96	35065.91
465.14	34969.94
465.32	36954.72
465.50	37888.59
465.69	38096.90
465.87	37067.06
466.05	35880.41
466.23	34045.43
466.41	33209.86
466.60	35311.66
466.78	34490.13
466.96	34951.22
467.14	36421.08
467.32	35718.92
467.51	36510.02
467.69	34235.02
467.87	36051.27
468.05	35894.46
468.23	36208.09
468.41	36435.12
468.60	36498.31
468.78	36535.76
468.96	36364.90
469.14	36545.12
469.32	37170.05
469.50	35061.22
469.69	35505.93
469.87	35229.74
470.05	34455.03
470.23	35019.10
470.41	35440.39
470.59	35606.57
470.77	35599.55
470.95	35952.97
471.14	37291.76
471.32	37289.42
471.50	39201.63
471.68	39461.43
471.86	40184.66
472.04	39051.84
472.22	39501.22
472.40	37738.80
472.58	37869.87
472.77	37570.28
472.95	38288.82
473.13	39192.27
473.31	37511.77
473.49	37820.72
473.67	38967.58
473.85	39005.03
474.03	40226.79
474.21	41273.01
474.39	41116.19
474.57	41074.06
474.75	41361.95
474.93	40685.53
475.12	39391.22
475.30	39751.66
475.48	38920.77
475.66	39796.13
475.84	39412.28
476.02	39789.11
476.20	39175.89
476.38	39903.79
476.56	41366.63
476.74	41638.13
476.92	41558.55
477.10	41649.83
477.28	43096.28
477.46	43718.87
477.64	43959.94
477.82	44306.34
478.00	44161.23
478.18	43250.76
478.36	42965.21
478.54	43601.84
478.72	44311.02
478.90	45443.84
479.08	46747.52
479.26	46363.67
479.44	47157.11
479.62	46096.85
479.80	46953.49
479.98	46698.37
480.16	46916.04
480.34	46391.76
480.52	47302.23
480.70	46731.14
480.88	46674.96
481.06	47416.91
481.24	47934.17
481.41	49158.27
481.59	49682.55
481.77	48376.53
481.95	47756.29
482.13	48266.53
482.31	48549.73
482.49	49310.41
482.67	49329.13
482.85	48919.54
483.03	49495.31
483.21	49975.12
483.39	49893.20
483.57	49392.33
483.74	49389.98
483.92	49621.70
484.10	49462.54
484.28	49668.51
484.46	49993.84
484.64	51346.67
484.82	50155.34
485.00	49806.60
485.18	49326.79
485.35	47435.64
485.53	41773.88
485.71	39103.33
485.89	40311.05
486.07	43667.37
486.25	45689.60
486.43	48425.68
486.61	48875.07
486.78	47669.69
486.96	49359.56
487.14	50403.44
487.32	51145.39
487.50	51798.40
487.68	53347.83
487.85	53904.88
488.03	53116.12
488.21	52498.22
488.39	52514.60
488.57	51084.53
488.75	51072.83
488.92	52683.12
489.10	54134.25
489.28	54738.11
489.46	56189.24
489.64	56100.30
489.81	56425.64
489.99	55444.95
490.17	55838.16
490.35	55929.44
490.53	55648.58
490.70	55358.35
490.88	54901.95
491.06	56250.09
491.24	56423.29
491.41	55576.02
491.59	54141.27
491.77	53893.18
491.95	55028.34
492.13	56376.48
492.30	56435.00
492.48	57324.40
492.66	57844.00
492.84	57008.43
493.01	57010.77
493.19	56835.23
493.37	56526.28
493.54	56612.88
493.72	57804.21
493.90	57916.56
494.08	58560.20
494.25	58625.74
494.43	58974.48
494.61	59524.50
494.79	59185.13
494.96	59559.61
495.14	59075.12
495.32	57682.50
495.49	58096.78
495.67	58965.12
495.85	59728.13
496.02	60163.47
496.20	59489.40
496.38	59276.41
496.55	59367.69
496.73	59894.31
496.91	60243.05
497.09	60243.05
497.26	60580.09
497.44	59985.59
497.62	59126.61
497.79	58520.41
497.97	57918.90
498.14	58379.98
498.32	59587.70
498.50	59693.02
498.67	59618.13
498.85	59842.82
499.03	60193.90
499.20	60537.96
499.38	59950.48
499.56	59363.01
499.73	59250.66
499.91	59306.83
500.08	58583.61
500.26	58396.37
500.44	59030.65
500.61	59494.08
500.79	58972.14
500.97	59325.56
501.14	58555.52
501.32	57869.75
501.49	58312.11
501.67	58805.96
501.84	59093.85
502.02	59681.32
502.20	60025.38
502.37	60004.31
502.55	60285.18
502.72	61001.38
502.90	61403.95
503.07	60973.30
503.25	59798.35
503.43	59093.85
503.60	58824.68
503.78	58946.39
503.95	58979.16
504.13	60261.77
504.30	60942.87
504.48	60116.66
504.65	60331.99
504.83	60374.12
505.01	61073.94
505.18	61291.61
505.36	61806.53
505.53	61811.21
505.71	61595.88
505.88	62145.90
506.06	61490.55
506.23	61385.23
506.41	61008.40
506.58	61130.11
506.76	61188.63
506.93	60512.21
507.11	60566.04
507.28	60858.61
507.46	59969.21
507.63	60126.02
507.81	59812.39
507.98	60261.77
508.16	61609.92
508.33	61172.24
508.50	61516.30
508.68	61731.63
508.85	62185.69
509.03	62344.85
509.20	61635.67
509.38	61099.68
509.55	61195.65
509.73	61221.39
509.90	61265.86
510.08	61230.75
510.25	60896.06
510.42	60727.54
510.60	61141.81
510.77	61628.65
510.95	61656.73
511.12	61998.45
511.30	62681.89
511.47	63016.58
511.64	62831.68
511.82	62745.08
511.99	61663.75
512.17	61495.24
512.34	61013.08
512.51	61303.31
512.69	61705.88
512.86	61134.79
513.04	61467.15
513.21	61038.83
513.38	60392.84
513.56	59997.29
513.73	59898.99
513.90	60781.37
514.08	60505.19
514.25	60685.41
514.43	60973.30
514.60	61130.11
514.77	61265.86
514.95	61406.30
515.12	61387.57
515.29	61710.56
515.47	62274.63
515.64	62157.61
515.81	61785.46
515.99	60699.45
516.16	59213.21
516.33	56973.32
516.51	57045.88
516.68	55702.41
516.85	55290.48
517.03	56395.21
517.20	59086.82
517.37	60755.63
517.54	61525.66
517.72	60121.34
517.89	57326.74
518.06	56186.90
518.24	57027.15
518.41	59175.76
518.58	60341.35
518.75	60566.04
518.93	60317.95
519.10	59849.84
519.27	60755.63
519.45	61366.51
519.62	61722.27
519.79	61858.02
519.96	61272.88
520.14	61127.77
520.31	60083.89
520.48	59980.91
520.65	60928.83
520.83	62056.96
521.00	61740.99
521.17	61380.55
521.34	61483.53
521.52	61937.60
521.69	62068.67
521.86	62396.34
522.03	62068.67
522.20	60584.77
522.38	60165.81
522.55	60601.15
522.72	60917.12
522.89	60463.06
523.07	61382.89
523.24	61851.00
523.41	62546.14
523.58	62714.65
523.75	62761.47
523.92	62941.69
524.10	62426.77
524.27	62010.15
524.44	61900.15
524.61	61441.40
524.78	62099.09
524.96	61904.83
525.13	62138.88
525.30	62726.36
525.47	62834.02
525.64	62714.65
525.81	61874.40
525.98	60294.54
526.16	59121.93
526.33	59201.51
526.50	58576.59
526.67	58632.76
526.84	59203.85
527.01	60301.56
527.18	60498.17
527.36	61270.54
527.53	62262.93
527.70	61724.61
527.87	60542.64
528.04	61354.80
528.21	61860.36
528.38	62471.24
528.55	63227.23
528.72	63044.67
528.89	62546.14
529.07	62513.37
529.24	61389.91
529.41	61190.97
529.58	61516.30
529.75	62232.50
529.92	62291.02
530.09	62035.90
530.26	62775.51
530.43	63519.80
530.60	62384.64
530.77	63114.89
530.94	63381.71
531.11	62368.26
531.28	62396.34
531.46	62532.09
531.63	62454.86
531.80	61993.77
531.97	61654.39
532.14	61609.92
532.31	60149.43
532.48	59468.33
532.65	59992.61
532.82	60502.85
532.99	62260.59
533.16	62284.00
533.33	62286.34
533.50	62642.10
533.67	62038.24
533.84	61694.18
534.01	62012.49
534.18	61956.32
534.35	61506.94
534.52	61090.32
534.69	61612.26
534.86	62300.38
535.03	62726.36
535.20	62396.34
535.37	63185.10
535.54	63220.21
535.71	63054.03
535.88	63103.18
536.05	61748.01
536.22	61305.65
536.38	61293.95
536.55	60825.84
536.72	60357.74
536.89	61167.56
537.06	60921.80
537.23	61385.23
537.40	61141.81
537.57	61038.83
537.74	61453.11
537.91	61743.33
538.08	61696.52
538.25	61733.97
538.42	62621.03
538.59	62110.80
538.75	61069.26
538.92	60453.70
539.09	61111.39
539.26	60804.78
539.43	60769.67
539.60	60594.13
539.77	61300.97
539.94	60872.65
540.11	60229.01
540.28	59870.90
540.44	59650.89
540.61	59824.09
540.78	60219.64
540.95	60879.67
541.12	60889.04
541.29	61368.85
541.46	61310.33
541.62	61579.49
541.79	60846.91
541.96	60348.37
542.13	60680.73
542.30	60530.93
542.47	60889.04
542.63	60870.31
542.80	60753.29
542.97	60350.71
543.14	60306.24
543.31	60776.69
543.48	61705.88
543.64	61537.36
543.81	62606.99
543.98	62265.27
544.15	61221.39
544.32	61581.84
544.48	60940.53
544.65	60968.61
544.82	61806.53
544.99	60135.38
545.16	60182.19
545.32	60519.23
545.49	60879.67
545.66	61041.17
545.83	61127.77
546.00	61408.64
546.16	61312.67
546.33	60757.97
546.50	61083.30
546.67	61535.02
546.83	60917.12
547.00	61118.41
547.17	60069.85
547.34	59632.17
547.50	59360.67
547.67	60200.92
547.84	61336.08
548.00	61090.32
548.17	60973.30
548.34	61092.66
548.51	61453.11
548.67	61242.46
548.84	61254.16
549.01	61233.10
549.18	60860.95
549.34	60938.19
549.51	61090.32
549.68	61443.74
549.84	60783.71
550.01	60093.25
550.18	60133.04
550.34	60362.42
550.51	60467.74
550.68	60919.46
550.84	60977.98
551.01	59964.52
551.18	60200.92
551.34	59772.60
551.51	60867.97
551.68	60961.59
551.84	61277.57
552.01	60718.18
552.18	60477.10
552.34	59646.21
552.51	59543.23
552.68	59484.72
552.84	59716.43
553.01	59793.67
553.18	60065.17
553.34	60217.30
553.51	60425.61
553.67	60680.73
553.84	60650.30
554.01	60804.78
554.17	60083.89
554.34	60423.27
554.51	60395.18
554.67	59711.75
554.84	59847.50
555.00	59554.93
555.17	59920.05
555.33	59454.29
555.50	59192.15
555.67	60016.02
555.83	59817.07
556.00	59561.95
556.16	59494.08
556.33	58885.54
556.50	59288.11
556.66	59470.67
556.83	59007.25
556.99	58810.64
557.16	59341.94
557.32	58899.58
557.49	59398.12
557.65	59236.62
557.82	59554.93
557.98	59711.75
558.15	58721.70
558.32	58040.60
558.48	57771.44
558.65	57888.47
558.81	57989.11
558.98	59049.38
559.14	58787.24
559.31	58864.47
559.47	58389.34
559.64	58461.90
559.80	57780.81
559.97	58609.35
560.13	59110.23
560.30	59887.29
560.46	60306.24
560.63	60488.80
560.79	60158.79
560.96	59636.85
561.12	58560.20
561.29	58368.28
561.45	58410.41
561.61	59348.96
561.78	58604.67
561.94	58969.80
562.11	58890.22
562.27	58251.25
562.44	59236.62
562.60	59269.39
562.77	59475.35
562.93	58665.53
563.10	58848.09
563.26	58983.84
563.42	59253.00
563.59	58740.42
563.75	58546.16
563.92	58461.90
564.08	58120.18
564.24	59091.51
564.41	58169.33
564.57	59180.45
564.74	59014.27
564.90	58185.72
565.07	57930.60
565.23	57160.56
565.39	56633.94
565.56	57088.01
565.72	57509.30
565.88	56596.49
566.05	58394.03
566.21	58452.54
566.38	57853.36
566.54	58291.04
566.70	58972.14
566.87	58658.51
567.03	58396.37
567.19	59440.24
567.36	59503.44
567.52	58262.96
567.68	57745.70
567.85	57076.30
568.01	57301.00
568.17	57712.93
568.34	57787.83
568.50	57261.21
568.66	57130.14
568.83	57015.45
568.99	56683.09
569.15	56985.02
569.32	57038.86
569.48	56914.81
569.64	56992.04
569.81	56884.38
569.97	56528.62
570.13	55884.97
570.30	55484.74
570.46	55344.31
570.62	54674.91
570.78	55140.68
570.95	55573.68
571.11	55742.20
571.27	55700.07
571.43	55789.01
571.60	55590.06
571.76	56640.96
571.92	56849.27
572.09	57244.82
572.25	57066.94
572.41	57160.56
572.57	56818.84
572.74	57261.21
572.90	58309.77
573.06	57717.61
573.22	57776.12
573.38	57450.79
573.55	58548.50
573.71	57200.35
573.87	57027.15
574.03	57165.24
574.20	56853.95
574.36	56687.78
574.52	55920.08
574.68	55936.46
574.84	55398.14
575.01	55423.89
575.17	55634.53
575.33	55803.05
575.49	56065.19
575.65	54944.08
575.82	55023.65
575.98	55510.49
576.14	56523.94
576.30	57214.40
576.46	55824.12
576.62	55737.52
576.79	55889.65
576.95	56044.13
577.11	56280.52
577.27	55929.44
577.43	56404.57
577.59	55781.99
577.75	54829.39
577.92	54939.39
578.08	55058.76
578.24	55145.36
578.40	55419.20
578.56	54300.43
578.72	54834.07
578.88	54419.80
579.04	55222.60
579.21	54705.34
579.37	55054.08
579.53	55358.35
579.69	54607.04
579.85	54780.24
580.01	54831.73
580.17	54405.75
580.33	55159.41
580.49	55505.80
580.65	54265.32
580.82	55096.21
580.98	55213.24
581.14	55505.80
581.30	55121.96
581.46	54494.69
581.62	55021.31
581.78	55660.28
581.94	55884.97
582.10	55767.94
582.26	55662.62
582.42	55835.82
582.58	54876.20
582.74	54560.23
582.90	54820.03
583.06	55379.42
583.22	55580.70
583.38	55196.85
583.54	55751.56
583.70	55859.23
583.86	55547.93
584.02	54585.97
584.18	54712.36
584.34	54333.20
584.50	54466.61
584.66	54377.67
584.82	54300.43
584.98	54532.14
585.14	53925.94
585.30	54122.55
