SpectraSuite Data File
++++++++++++++++++++++++++++++++++++
Date: Mon Oct 07 14:53:49 GMT-05:00 2013
User: price-jones
Dark Spectrum Present: No
Reference Spectrum Present: No
Number of Sampled Component Spectra: 1
Spectrometers: USB2+H05261
Integration Time (usec): 100000 (USB2+H05261)
Spectra Averaged: 1 (USB2+H05261)
Boxcar Smoothing: 0 (USB2+H05261)
Correct for Electrical Dark: No (USB2+H05261)
Strobe/Lamp Enabled: No (USB2+H05261)
Correct for Detector Non-linearity: No (USB2+H05261)
Correct for Stray Light: No (USB2+H05261)
Number of Pixels in Processed Spectrum: 2048
>>>>>Begin Processed Spectral Data<<<<<
365.73	0.00
365.92	0.00
366.12	0.00
366.32	0.00
366.52	0.00
366.72	0.00
366.91	0.00
367.11	0.00
367.31	0.00
367.51	0.00
367.70	0.00
367.90	0.00
368.10	0.00
368.30	0.00
368.49	0.00
368.69	0.00
368.89	0.00
369.09	0.00
369.28	0.00
369.48	0.00
369.68	0.00
369.87	0.00
370.07	0.00
370.27	0.00
370.47	535.98
370.66	2775.88
370.86	3538.89
371.06	3709.75
371.25	3829.12
371.45	3440.59
371.65	3171.43
371.84	2944.39
372.04	2822.69
372.24	3468.67
372.44	3548.25
372.63	3393.78
372.83	3103.55
373.03	2930.35
373.22	2513.74
373.42	2782.90
373.62	3255.69
373.81	3412.50
374.01	3452.29
374.21	3150.36
374.40	2864.82
374.60	2977.16
374.79	3407.82
374.99	3981.25
375.19	4315.95
375.38	4337.01
375.58	4175.52
375.78	3992.95
375.97	4250.41
376.17	4138.07
376.37	4273.82
376.56	4264.46
376.76	4580.43
376.95	4952.57
377.15	5160.88
377.35	5380.89
377.54	5755.38
377.74	5717.93
377.93	5893.47
378.13	5556.43
378.33	5392.59
378.52	4889.38
378.72	4636.60
378.91	4587.45
379.11	4418.93
379.31	4306.59
379.50	4236.37
379.70	4681.07
379.89	5228.76
380.09	5446.43
380.28	5582.18
380.48	5621.97
380.68	5495.58
380.87	5504.94
381.07	4861.29
381.26	4627.24
381.46	4358.08
381.65	4269.14
381.85	4077.21
382.04	3889.97
382.24	3700.39
382.43	3431.23
382.63	3295.47
382.83	3445.27
383.02	3501.44
383.22	3435.91
383.41	3297.81
383.61	3786.99
383.80	4124.02
384.00	4730.22
384.19	5308.34
384.39	5729.63
384.58	5521.32
384.78	5530.69
384.97	5544.73
385.17	5057.90
385.36	4966.62
385.56	4706.82
385.75	4849.59
385.95	5268.55
386.14	5617.29
386.34	5748.36
386.53	5352.81
386.72	5078.96
386.92	5167.90
387.11	5418.34
387.31	5636.01
387.50	5657.07
387.70	5554.09
387.89	5437.06
388.09	5500.26
388.28	5521.32
388.48	5558.77
388.67	5853.68
388.86	6670.53
389.06	7049.69
389.25	7236.94
389.45	7396.09
389.64	7363.33
389.84	7225.23
390.03	7190.13
390.22	7246.30
390.42	7456.95
390.61	7831.43
390.81	8542.96
391.00	8711.47
391.19	8676.37
391.39	8325.29
391.58	7971.86
391.78	7391.41
391.97	7199.49
392.16	6743.08
392.36	6022.20
392.55	4957.25
392.75	3887.63
392.94	3220.58
393.13	3108.23
393.33	3646.55
393.52	4734.90
393.71	5865.38
393.91	6284.34
394.10	7007.56
394.29	7761.22
394.49	8327.63
394.68	8905.74
394.88	9046.17
395.07	9392.57
395.26	9483.85
395.46	8999.36
395.65	8638.92
395.84	7468.65
396.04	6340.51
396.23	4997.04
396.42	4271.48
396.62	4028.06
396.81	4676.39
397.00	6090.07
397.19	7660.57
397.39	8980.64
397.58	10504.32
397.77	10876.47
397.97	11241.59
398.16	11531.82
398.35	11515.44
398.55	12170.79
398.74	12671.66
398.93	12933.80
399.12	12947.84
399.32	12468.03
399.51	12582.72
399.70	13458.08
399.90	13071.89
400.09	13610.22
400.28	13331.69
400.47	13153.81
400.67	13848.95
400.86	14326.42
401.05	14370.89
401.24	14359.19
401.44	14525.36
401.63	14670.48
401.82	14778.14
402.01	14628.35
402.21	14593.24
402.40	14841.34
402.59	14387.27
402.78	13900.44
402.97	13284.88
403.17	13745.97
403.36	14710.27
403.55	15119.86
403.74	15517.75
403.93	15007.52
404.13	13776.39
404.32	13310.63
404.51	14228.12
404.70	15297.74
404.89	15051.99
405.09	15028.58
405.28	14600.26
405.47	14368.55
405.66	14544.09
405.85	14127.47
406.05	13556.38
406.24	13795.12
406.43	14609.62
406.62	14986.45
406.81	15082.41
407.00	14633.03
407.20	14448.13
407.39	14265.57
407.58	14923.26
407.77	15662.86
407.96	16102.89
408.15	15983.52
408.34	16290.13
408.54	17284.86
408.73	16999.31
408.92	16971.22
409.11	16592.06
409.30	15637.12
409.49	14665.80
409.68	13827.88
409.87	13231.05
410.07	14291.31
410.26	15389.02
410.45	16353.32
410.64	16650.57
410.83	17132.72
411.02	17647.64
411.21	18293.63
411.40	18270.22
411.59	17961.27
411.78	17795.09
411.98	17767.01
412.17	18080.64
412.36	17752.96
412.55	17699.13
412.74	17649.98
412.93	17188.89
413.12	17121.02
413.31	18731.31
413.50	18850.67
413.69	19318.78
413.88	18251.50
414.07	17757.64
414.26	18420.02
414.45	18689.18
414.64	18845.99
414.83	18939.62
415.02	18801.52
415.22	18555.77
415.41	18972.38
415.60	19494.32
415.79	20255.00
415.98	20821.41
416.17	21165.46
416.36	20353.30
416.55	20187.12
416.74	19550.49
416.93	18675.13
417.12	18761.73
417.31	18970.04
417.50	19201.76
417.69	19777.53
417.88	19976.47
418.07	19840.72
418.26	19524.75
418.45	19639.44
418.64	20306.49
418.83	21060.14
419.02	20695.02
419.21	20830.77
419.39	19700.29
419.58	18810.89
419.77	18607.26
419.96	19351.55
420.15	20758.21
420.34	21404.20
420.53	22136.79
420.72	22487.87
420.91	21881.67
421.10	22101.68
421.29	21832.52
421.48	21113.97
421.67	22204.66
421.86	21406.54
422.05	19946.05
422.24	18045.53
422.43	17642.96
422.61	19454.53
422.80	21219.30
422.99	21191.21
423.18	20540.54
423.37	20166.06
423.56	20311.17
423.75	20418.83
423.94	21050.78
424.13	19838.38
424.32	19812.63
424.50	19840.72
424.69	19822.00
424.88	20191.80
425.07	19623.05
425.26	19819.66
425.45	19604.33
425.64	19166.65
425.83	19164.31
426.01	20542.88
426.20	20886.94
426.39	20594.37
426.58	19290.70
426.77	17413.59
426.96	17326.99
427.15	17724.88
427.33	19337.51
427.52	20128.61
427.71	20276.06
427.90	19829.02
428.09	19728.38
428.28	19096.43
428.46	18824.93
428.65	18340.44
428.84	18740.67
429.03	19234.52
429.22	18197.67
429.40	17172.51
429.59	15875.85
429.78	13682.77
429.97	13706.18
430.16	13898.10
430.34	13921.51
430.53	14005.77
430.72	14284.29
430.91	15653.50
431.10	18473.85
431.28	21942.52
431.47	23716.65
431.66	24137.94
431.85	21757.62
432.03	19917.96
432.22	19023.87
432.41	19943.70
432.60	22363.82
432.79	23281.31
432.97	23470.89
433.16	23218.11
433.35	20788.64
433.54	19208.78
433.72	17813.82
433.91	18445.76
434.10	20336.91
434.28	22097.00
434.47	23290.67
434.66	22614.26
434.85	22120.40
435.03	21820.81
435.22	22565.10
435.41	23908.57
435.59	23857.08
435.78	24159.01
435.97	24657.54
436.16	24952.45
436.34	24545.20
436.53	24121.56
436.72	24198.80
436.90	22572.13
437.09	22958.31
437.28	22623.62
437.46	23166.62
437.65	23264.92
437.84	21605.49
438.02	19520.07
438.21	19580.92
438.40	20781.62
438.58	22623.62
438.77	23269.61
438.96	23300.03
439.14	24362.64
439.33	24891.60
439.52	25610.14
439.70	24769.89
439.89	24540.52
440.08	23676.86
440.26	23264.92
440.45	24432.85
440.63	26127.40
440.82	27576.19
441.01	26745.30
441.19	26710.19
441.38	26911.48
441.57	28037.28
441.75	28627.09
441.94	28701.99
442.12	28533.47
442.31	28765.18
442.50	28620.07
442.68	28449.21
442.87	28283.03
443.05	27520.02
443.24	28161.33
443.43	28772.21
443.61	29383.09
443.80	29729.48
443.98	27627.68
444.17	28058.34
444.35	29720.12
444.54	30012.69
444.73	29736.51
444.91	28341.55
445.10	27527.04
445.28	26204.64
445.47	25881.64
445.65	26073.57
445.84	26632.96
446.02	27974.08
446.21	28119.20
446.39	28102.81
446.58	28531.13
446.77	29322.23
446.95	29092.86
447.14	30251.42
447.32	30656.34
447.51	29624.16
447.69	28540.49
447.88	28233.88
448.06	28584.96
448.25	29434.58
448.43	29762.25
448.62	29186.48
448.80	28889.23
448.99	29202.86
449.17	29125.63
449.36	29425.22
449.54	30541.65
449.73	31026.14
449.91	31433.39
450.10	32051.30
450.28	32634.09
450.46	32048.96
450.65	32498.34
450.83	32329.82
451.02	31337.43
451.20	31824.26
451.39	31562.12
451.57	30850.60
451.76	31505.95
451.94	30918.48
452.13	30480.80
452.31	28804.97
452.49	27534.06
452.68	27660.45
452.86	28070.04
453.05	28177.71
453.23	29111.58
453.42	29865.24
453.60	30630.59
453.78	30965.29
453.97	30536.97
454.15	30764.00
454.34	30167.16
454.52	29598.41
454.70	29626.50
454.89	29820.77
455.07	29795.02
455.26	30527.61
455.44	31562.12
455.62	32355.57
455.81	32512.38
455.99	31786.82
456.17	31754.05
456.36	31716.60
456.54	32687.92
456.73	32533.45
456.91	32947.72
457.09	33228.59
457.28	34022.03
457.46	32521.74
457.64	32168.32
457.83	31304.67
458.01	30316.96
458.19	31197.00
458.38	31328.07
458.56	32526.42
458.74	32367.27
458.93	31768.09
459.11	31784.48
459.29	31395.95
459.48	31597.23
459.66	31737.66
459.84	31969.38
460.03	32240.88
460.21	32201.09
460.39	33024.96
460.57	33273.06
460.76	33621.80
460.94	33986.92
461.12	33235.61
461.31	33305.82
461.49	33069.43
461.67	33230.93
461.85	34300.55
462.04	33865.21
462.22	33975.22
462.40	33614.77
462.59	34015.01
462.77	33937.77
462.95	33656.90
463.13	33544.56
463.32	33139.65
463.50	32999.21
463.68	33046.02
463.86	33151.35
464.05	32950.06
464.23	32130.87
464.41	32060.66
464.59	31463.82
464.78	32884.53
464.96	32547.49
465.14	32444.51
465.32	33177.09
465.50	34064.16
465.69	34412.90
465.87	33654.56
466.05	32903.25
466.23	31587.87
466.41	30651.66
466.60	31576.17
466.78	31393.61
466.96	32313.44
467.14	32662.18
467.32	33092.83
467.51	33502.43
467.69	31601.91
467.87	32266.63
468.05	32865.80
468.23	32931.34
468.41	33127.94
468.60	32999.21
468.78	33500.09
468.96	32701.96
469.14	33432.21
469.32	33652.22
469.50	32549.83
469.69	32404.72
469.87	31974.06
470.05	32247.90
470.23	31910.86
470.41	32025.55
470.59	32327.48
470.77	32706.65
470.95	33134.96
471.14	34190.55
471.32	33820.74
471.50	35894.46
471.68	35606.57
471.86	35892.12
472.04	36374.27
472.22	36130.85
472.40	34270.12
472.58	34246.72
472.77	33872.23
472.95	34478.43
473.13	35433.37
473.31	34471.41
473.49	34546.31
473.67	35189.95
473.85	35789.13
474.03	36367.24
474.21	36620.02
474.39	36687.90
474.57	37127.92
474.75	37010.89
474.93	36816.63
475.12	35742.32
475.30	35812.54
475.48	35931.90
475.66	36627.04
475.84	36240.86
476.02	36217.45
476.20	35550.40
476.38	36126.17
476.56	37181.75
476.74	37778.59
476.92	37481.34
477.10	38445.64
477.28	39496.54
477.46	39398.24
477.64	40048.91
477.82	39538.67
478.00	40231.47
478.18	39239.08
478.36	39529.31
478.54	39248.44
478.72	39552.71
478.90	40549.78
479.08	41338.54
479.26	41970.49
479.44	42010.28
479.62	41502.38
479.80	41706.01
479.98	42192.84
480.16	41979.85
480.34	41315.14
480.52	42110.92
480.70	42298.16
480.88	42335.61
481.06	42986.28
481.24	43185.22
481.41	44299.32
481.59	45148.93
481.77	44442.09
481.95	44083.99
482.13	44182.29
482.31	43840.57
482.49	44610.61
482.67	44383.58
482.85	44767.43
483.03	45216.81
483.21	45776.20
483.39	45862.80
483.57	44694.87
483.74	44449.11
483.92	44886.79
484.10	45123.19
484.28	46129.62
484.46	46674.96
484.64	46934.76
484.82	45837.05
485.00	45551.51
485.18	44612.95
485.35	43100.97
485.53	40446.80
485.71	36638.75
485.89	36247.88
486.07	38164.78
486.25	41502.38
486.43	43772.70
486.61	44648.06
486.78	44449.11
486.96	44484.22
487.14	46010.25
487.32	46993.28
487.50	47915.45
487.68	49074.01
487.85	49771.49
488.03	49659.15
488.21	48992.09
488.39	48629.31
488.57	47990.34
488.75	47288.18
488.92	48280.57
489.10	50780.26
489.28	52133.09
489.46	52772.06
489.64	52554.39
489.81	52711.20
489.99	52498.22
490.17	52662.05
490.35	52601.20
490.53	52549.71
490.70	51901.38
490.88	51498.81
491.06	52830.57
491.24	53123.14
491.41	51615.83
491.59	50291.09
491.77	49031.88
491.95	50354.29
492.13	51611.15
492.30	53088.03
492.48	53921.26
492.66	54258.30
492.84	54377.67
493.01	54035.95
493.19	53710.61
493.37	53188.67
493.54	52912.49
493.72	53694.23
493.90	54639.81
494.08	55346.65
494.25	55554.96
494.43	55667.30
494.61	56147.11
494.79	56374.14
494.96	56044.13
495.14	55147.70
495.32	54436.18
495.49	54024.25
495.67	54927.69
495.85	56198.60
496.02	56640.96
496.20	56144.77
496.38	55924.76
496.55	55838.16
496.73	56254.78
496.91	56420.95
497.09	57090.35
497.26	57006.09
497.44	56690.12
497.62	56348.40
497.79	55487.08
497.97	54131.91
498.14	54321.49
498.32	55332.60
498.50	56203.28
498.67	56987.36
498.85	56896.08
499.03	56762.67
499.20	57151.20
499.38	57345.47
499.56	56903.10
499.73	56657.35
499.91	56100.30
500.08	55742.20
500.26	54759.17
500.44	55159.41
500.61	56189.24
500.79	55753.90
500.97	55547.93
501.14	55353.67
501.32	55063.44
501.49	55267.07
501.67	55550.27
501.84	55999.66
502.02	56310.95
502.20	56704.16
502.37	56673.73
502.55	56718.20
502.72	57261.21
502.90	57659.10
503.07	57556.11
503.25	57015.45
503.43	56179.88
503.60	55650.92
503.78	54986.21
503.95	55339.63
504.13	56818.84
504.30	57537.39
504.48	57612.29
504.65	56940.55
504.83	57055.24
505.01	57614.63
505.18	58056.99
505.36	58475.94
505.53	58401.05
505.71	58700.64
505.88	58948.73
506.06	58188.06
506.23	57942.30
506.41	57623.99
506.58	57808.89
506.76	57745.70
506.93	57780.81
507.11	57560.79
507.28	57766.76
507.46	57153.54
507.63	56603.52
507.81	56388.19
507.98	56685.43
508.16	57301.00
508.33	58014.86
508.50	58284.02
508.68	58522.76
508.85	58899.58
509.03	58937.03
509.20	58712.34
509.38	58253.59
509.55	57214.40
509.73	57497.60
509.90	58026.56
510.08	58288.70
510.25	58099.12
510.42	57916.56
510.60	57752.72
510.77	57968.05
510.95	58707.66
511.12	58775.53
511.30	59100.87
511.47	59290.45
511.64	59325.56
511.82	59077.46
511.99	58347.21
512.17	58064.01
512.34	57453.13
512.51	57684.84
512.69	57883.79
512.86	57893.15
513.04	58157.63
513.21	58155.29
513.38	58099.12
513.56	57546.75
513.73	56917.15
513.90	57172.27
514.08	57015.45
514.25	57448.45
514.43	57488.24
514.60	57741.02
514.77	57881.45
514.95	57982.09
515.12	57902.51
515.29	58094.44
515.47	58539.14
515.64	58810.64
515.81	58298.06
515.99	57696.55
516.16	56299.25
516.33	54265.32
516.51	52449.06
516.68	52154.16
516.85	51344.33
517.03	51854.57
517.20	54288.73
517.37	57160.56
517.54	58031.24
517.72	57495.26
517.89	55421.55
518.06	52617.58
518.24	52903.13
518.41	55325.58
518.58	56486.49
518.75	56807.14
518.93	56872.68
519.10	56816.50
519.27	57385.25
519.45	57469.51
519.62	58300.40
519.79	58422.11
519.96	58265.30
520.14	58040.60
520.31	56963.96
520.48	57109.07
520.65	57242.48
520.83	58211.46
521.00	58574.25
521.17	58286.36
521.34	57806.55
521.52	58309.77
521.69	58628.08
521.86	59306.83
522.03	58763.83
522.20	57820.59
522.38	56526.28
522.55	56811.82
522.72	57237.80
522.89	57595.90
523.07	57640.37
523.24	57902.51
523.41	58738.08
523.58	58906.60
523.75	59370.03
523.92	59096.19
524.10	59290.45
524.27	59386.41
524.44	59264.70
524.61	59025.97
524.78	58742.77
524.96	58768.51
525.13	58724.04
525.30	58805.96
525.47	59262.36
525.64	59150.02
525.81	58457.22
525.98	57165.24
526.16	55814.76
526.33	54915.99
526.50	54569.59
526.67	54541.50
526.84	55093.87
527.01	55894.33
527.18	56669.05
527.36	57642.71
527.53	58511.05
527.70	58925.33
527.87	58115.50
528.04	57771.44
528.21	58166.99
528.38	58705.32
528.55	59367.69
528.72	59707.07
528.89	59746.86
529.07	59503.44
529.24	58843.41
529.41	58246.57
529.58	57771.44
529.75	57579.52
529.92	58284.02
530.09	58658.51
530.26	59063.42
530.43	59416.84
530.60	59213.21
530.77	59758.56
530.94	59877.93
531.11	59208.53
531.28	58941.71
531.46	58738.08
531.63	58871.49
531.80	58934.69
531.97	58279.34
532.14	57724.63
532.31	56786.08
532.48	56037.11
532.65	56123.71
532.82	56970.98
532.99	58052.31
533.16	58429.13
533.33	58979.16
533.50	58710.00
533.67	58288.70
533.84	57675.48
534.01	58073.37
534.18	57998.48
534.35	58389.34
534.52	58089.76
534.69	58426.79
534.86	58724.04
535.03	59072.78
535.20	59484.72
535.37	59697.70
535.54	59723.45
535.71	59367.69
535.88	59194.49
536.05	58564.88
536.22	57991.45
536.38	57724.63
536.55	57572.50
536.72	56828.21
536.89	56825.87
537.06	57403.98
537.23	58370.62
537.40	58534.46
537.57	58539.14
537.74	58391.68
537.91	58291.04
538.08	58148.27
538.25	58316.79
538.42	58532.12
538.59	58475.94
538.75	57970.39
538.92	57619.31
539.09	57326.74
539.26	57095.03
539.43	57052.90
539.60	56886.72
539.77	57254.18
539.94	57137.16
540.11	56348.40
540.28	56016.04
540.44	55891.99
540.61	56154.13
540.78	56343.72
540.95	57069.28
541.12	57279.93
541.29	57359.51
541.46	57832.30
541.62	57783.15
541.79	57722.29
541.96	57071.62
542.13	56968.64
542.30	57139.50
542.47	57666.12
542.63	57361.85
542.80	57085.67
542.97	57301.00
543.14	57109.07
543.31	57113.75
543.48	57567.82
543.64	58391.68
543.81	58721.70
543.98	58548.50
544.15	57846.34
544.32	57270.57
544.48	57317.38
544.65	57790.17
544.82	58239.55
544.99	57780.81
545.16	57298.65
545.32	56968.64
545.49	57977.41
545.66	58550.84
545.83	58052.31
546.00	57598.24
546.16	57392.28
546.33	57282.27
546.50	57446.11
546.67	57769.10
546.83	57499.94
547.00	57399.30
547.17	56828.21
547.34	56463.08
547.50	56144.77
547.67	56584.79
547.84	56509.89
548.00	57188.65
548.17	57715.27
548.34	57333.76
548.51	57420.36
548.67	57432.07
548.84	57415.68
549.01	57687.18
549.18	57366.53
549.34	57144.18
549.51	57095.03
549.68	57176.95
549.84	56980.34
550.01	56699.48
550.18	56917.15
550.34	56706.50
550.51	57006.09
550.68	57034.17
550.84	56399.89
551.01	56729.90
551.18	56385.85
551.34	56537.98
551.51	57034.17
551.68	57265.89
551.84	57308.02
552.01	57347.81
552.18	57190.99
552.34	56409.25
552.51	55887.31
552.68	55896.67
552.84	56371.80
553.01	56603.52
553.18	56463.08
553.34	56587.13
553.51	56601.18
553.67	56905.44
553.84	56952.26
554.01	56914.81
554.17	56596.49
554.34	56837.57
554.51	56924.17
554.67	57144.18
554.84	57193.33
555.00	56753.31
555.17	56463.08
555.33	56404.57
555.50	56552.02
555.67	56582.45
555.83	56282.86
556.00	56086.26
556.16	56142.43
556.33	55592.40
556.50	55522.19
556.66	55566.66
556.83	55416.86
556.99	55428.57
557.16	55318.56
557.32	55910.72
557.49	56004.34
557.65	55793.69
557.82	55917.74
557.98	55833.48
558.15	55288.13
558.32	54426.82
558.48	53668.48
558.65	53804.24
558.81	54122.55
558.98	54183.40
559.14	54787.26
559.31	54719.38
559.47	54630.44
559.64	54358.94
559.80	54113.19
559.97	54176.38
560.13	54365.96
560.30	55561.98
560.46	56011.36
560.63	56385.85
560.79	56217.33
560.96	55763.26
561.12	54983.86
561.29	53715.29
561.45	53839.34
561.61	54447.88
561.78	54932.37
561.94	55086.85
562.11	54546.18
562.27	54721.72
562.44	54972.16
562.60	55430.91
562.77	55351.33
562.93	55257.71
563.10	55049.40
563.26	54497.03
563.42	54698.32
563.59	54122.55
563.75	54363.62
563.92	54684.28
564.08	54415.11
564.24	54546.18
564.41	54803.64
564.57	54471.29
564.74	54520.44
564.90	54323.83
565.07	54000.84
565.23	53712.95
565.39	53436.77
565.56	53031.86
565.72	52748.65
565.88	53167.61
566.05	53076.33
566.21	53616.99
566.38	53874.45
566.54	53715.29
566.70	54003.18
566.87	54698.32
567.03	54438.52
567.19	54525.12
567.36	54176.38
567.52	54085.10
567.68	53869.77
567.85	52868.02
568.01	52875.04
568.17	52299.27
568.34	52509.92
568.50	52502.90
568.66	52530.98
568.83	53010.79
568.99	53116.12
569.15	53212.08
569.32	53139.52
569.48	52921.85
569.64	52711.20
569.81	52509.92
569.97	52308.63
570.13	52247.78
570.30	51618.17
570.46	51634.56
570.62	51044.74
570.78	50445.57
570.95	51009.64
571.11	51634.56
571.27	52013.73
571.43	52271.18
571.60	52617.58
571.76	52781.42
571.92	53214.42
572.09	53057.60
572.25	53092.71
572.41	52865.68
572.57	53066.97
572.74	53029.52
572.90	52203.31
573.06	52624.60
573.22	52378.85
573.38	52325.02
573.55	52116.71
573.71	52463.11
573.87	52776.74
574.03	52048.83
574.20	52369.49
574.36	52041.81
574.52	51466.04
574.68	51636.90
574.84	51011.98
575.01	50546.21
575.17	50520.46
575.33	51180.49
575.49	50930.06
575.65	51339.65
575.82	51281.14
575.98	50876.22
576.14	51157.09
576.30	51365.40
576.46	51419.23
576.62	51323.27
576.79	51447.32
576.95	51021.34
577.11	51131.34
577.27	51112.62
577.43	50965.17
577.59	50490.04
577.75	50204.49
577.92	49577.23
578.08	49509.35
578.24	49291.68
578.40	49890.86
578.56	49881.50
578.72	50094.49
578.88	50246.62
579.04	50656.21
579.21	50602.38
579.37	50506.42
579.53	50635.15
579.69	50731.11
579.85	50742.81
580.01	50728.77
580.17	50234.92
580.33	50148.32
580.49	50223.22
580.65	50555.57
580.82	50511.10
580.98	50621.11
581.14	50302.79
581.30	50532.17
581.46	50113.21
581.62	50724.09
581.78	50557.91
581.94	50588.34
582.10	50569.61
582.26	50855.16
582.42	50904.31
582.58	50988.57
582.74	50838.78
582.90	50951.12
583.06	50724.09
583.22	50468.97
583.38	50227.90
583.54	50873.88
583.70	50202.15
583.86	50403.44
584.02	49998.52
584.18	50508.76
584.34	49958.73
584.50	50103.85
584.66	49701.28
584.82	49701.28
584.98	49326.79
585.14	48872.73
585.30	48612.93
