SpectraSuite Data File
++++++++++++++++++++++++++++++++++++
Date: Mon Oct 07 14:53:43 GMT-05:00 2013
User: price-jones
Dark Spectrum Present: No
Reference Spectrum Present: No
Number of Sampled Component Spectra: 1
Spectrometers: USB2+H05261
Integration Time (usec): 100000 (USB2+H05261)
Spectra Averaged: 1 (USB2+H05261)
Boxcar Smoothing: 0 (USB2+H05261)
Correct for Electrical Dark: No (USB2+H05261)
Strobe/Lamp Enabled: No (USB2+H05261)
Correct for Detector Non-linearity: No (USB2+H05261)
Correct for Stray Light: No (USB2+H05261)
Number of Pixels in Processed Spectrum: 2048
>>>>>Begin Processed Spectral Data<<<<<
365.73	0.00
365.92	0.00
366.12	0.00
366.32	0.00
366.52	0.00
366.72	0.00
366.91	0.00
367.11	0.00
367.31	0.00
367.51	0.00
367.70	0.00
367.90	0.00
368.10	0.00
368.30	0.00
368.49	0.00
368.69	0.00
368.89	0.00
369.09	0.00
369.28	0.00
369.48	0.00
369.68	0.00
369.87	0.00
370.07	0.00
370.27	0.00
370.47	812.17
370.66	3702.73
370.86	4362.76
371.06	4847.25
371.25	4755.97
371.45	4393.19
371.65	3747.20
371.84	3695.71
372.04	3721.45
372.24	4332.33
372.44	4395.53
372.63	4432.97
372.83	4044.45
373.03	3515.48
373.22	3290.79
373.42	3487.40
373.62	3962.53
373.81	4428.29
374.01	4351.06
374.21	3960.19
374.40	3634.85
374.60	3866.56
374.79	4311.27
374.99	4931.51
375.19	5343.44
375.38	5348.12
375.58	5298.97
375.78	4821.50
375.97	5046.20
376.17	5146.84
376.37	5322.38
376.56	5516.64
376.76	5605.58
376.95	6118.16
377.15	6586.27
377.35	6722.02
377.54	6967.77
377.74	7178.42
377.93	7288.43
378.13	7019.27
378.33	6684.57
378.52	6310.08
378.72	5919.21
378.91	5790.49
379.11	5495.58
379.31	5540.05
379.50	5378.55
379.70	5860.70
379.89	6403.71
380.09	6846.07
380.28	7089.48
380.48	6906.92
380.68	6937.35
380.87	6832.02
381.07	6298.38
381.26	5856.02
381.46	5540.05
381.65	5341.10
381.85	5160.88
382.04	4887.04
382.24	4566.39
382.43	4283.18
382.63	4285.52
382.83	4278.50
383.02	4294.88
383.22	4346.37
383.41	4475.10
383.61	4603.83
383.80	5298.97
384.00	6022.20
384.19	6733.72
384.39	7133.95
384.58	7054.37
384.78	6846.07
384.97	7028.63
385.17	6513.71
385.36	6129.86
385.56	5987.09
385.75	6078.37
385.95	6731.38
386.14	7166.72
386.34	7396.09
386.53	6860.11
386.72	6604.99
386.92	6574.56
387.11	6963.09
387.31	7243.96
387.50	7206.51
387.70	6906.92
387.89	6614.35
388.09	6806.28
388.28	6883.52
388.48	7040.33
388.67	7637.17
388.86	8238.69
389.06	8922.12
389.25	9408.95
389.45	9460.45
389.64	9607.90
389.84	9472.15
390.03	9097.66
390.22	9200.65
390.42	9462.79
390.61	10022.17
390.81	11068.39
391.00	10871.79
391.19	11042.65
391.39	10431.77
391.58	9996.43
391.78	9100.00
391.97	9135.11
392.16	8557.00
392.36	7702.70
392.55	6160.29
392.75	4910.44
392.94	4051.47
393.13	3880.61
393.33	4510.21
393.52	5820.91
393.71	7309.49
393.91	8395.50
394.10	8830.84
394.29	9776.42
394.49	10626.03
394.68	11648.85
394.88	11580.97
395.07	11882.90
395.26	11964.82
395.46	11543.52
395.65	10773.49
395.84	9579.81
396.04	7918.03
396.23	6394.34
396.42	5448.77
396.62	5174.92
396.81	5996.45
397.00	7747.17
397.19	9867.70
397.39	11372.66
397.58	13130.41
397.77	13727.24
397.97	14520.68
398.16	14518.34
398.35	14911.55
398.55	15201.78
398.74	16070.12
398.93	16524.18
399.12	16102.89
399.32	15712.02
399.51	15854.79
399.70	16823.77
399.90	16669.30
400.09	16805.05
400.28	16655.25
400.47	16896.33
400.67	17603.17
400.86	17919.14
401.05	18050.21
401.24	18136.81
401.44	18590.88
401.63	18345.12
401.82	18747.69
402.01	18377.89
402.21	19005.15
402.40	18806.20
402.59	18427.04
402.78	17818.50
402.97	16987.61
403.17	17654.66
403.36	18600.24
403.55	19576.24
403.74	19683.91
403.93	18937.27
404.13	17444.01
404.32	16950.16
404.51	17429.97
404.70	19372.61
404.89	19517.73
405.09	18829.61
405.28	18265.54
405.47	18052.55
405.66	18153.20
405.85	17734.24
406.05	17128.04
406.24	17834.88
406.43	18314.69
406.62	18869.40
406.81	19098.77
407.00	18775.78
407.20	18417.68
407.39	18328.74
407.58	18923.23
407.77	19878.17
407.96	20603.74
408.15	20685.65
408.34	20662.25
408.54	21537.61
408.73	21834.86
408.92	21898.05
409.11	20900.98
409.30	20128.61
409.49	18555.77
409.68	17282.52
409.87	16683.34
410.07	18043.19
410.26	19236.86
410.45	20692.68
410.64	21167.80
410.83	21701.45
411.02	22242.11
411.21	23047.26
411.40	22813.20
411.59	22869.37
411.78	22787.46
411.98	22714.90
412.17	22998.10
412.36	22448.08
412.55	22775.75
412.74	21832.52
412.93	21422.92
413.12	21605.49
413.31	23742.39
413.50	24009.22
413.69	24767.55
413.88	23630.05
414.07	22848.31
414.26	23033.21
414.45	23948.36
414.64	24020.92
414.83	24297.10
415.02	23838.36
415.22	23641.75
415.41	24203.48
415.60	24929.05
415.79	25912.07
415.98	26319.32
416.17	26822.54
416.36	25570.35
416.55	25659.29
416.74	24940.75
416.93	23711.97
417.12	23852.40
417.31	24500.73
417.50	24734.78
417.69	25741.21
417.88	25308.21
418.07	25254.38
418.26	24673.93
418.45	24884.58
418.64	26024.42
418.83	26988.72
419.02	26532.31
419.21	26012.71
419.39	25060.12
419.58	24034.96
419.77	23964.75
419.96	25170.12
420.15	26256.13
420.34	27166.60
420.53	28128.56
420.72	28414.10
420.91	28357.93
421.10	27683.86
421.29	27821.95
421.48	26675.09
421.67	28374.31
421.86	27583.21
422.05	25685.04
422.24	23068.32
422.43	22403.61
422.61	25188.85
422.80	27098.72
422.99	27557.47
423.18	26197.62
423.37	25432.26
423.56	25322.26
423.75	26415.29
423.94	26541.68
424.13	25090.54
424.32	25336.30
424.50	25666.31
424.69	25139.69
424.88	25338.64
425.07	25486.09
425.26	25048.41
425.45	24884.58
425.64	24751.17
425.83	24666.91
426.01	25809.09
426.20	26724.24
426.39	26361.45
426.58	24428.17
426.77	22911.50
426.96	21680.38
427.15	22644.68
427.33	24442.21
427.52	25254.38
427.71	25443.96
427.90	25448.64
428.09	25247.36
428.28	25289.49
428.46	23899.21
428.65	23709.63
428.84	23768.14
429.03	24512.43
429.22	23323.44
429.40	21888.69
429.59	20095.84
429.78	17500.19
429.97	17736.58
430.16	17736.58
430.34	18464.49
430.53	17727.22
430.72	18181.28
430.91	20243.29
431.10	23868.78
431.28	27875.78
431.47	30455.05
431.66	30651.66
431.85	28011.53
432.03	25432.26
432.22	24500.73
432.41	25820.79
432.60	28493.68
432.79	29626.50
432.97	30183.55
433.16	29289.46
433.35	26946.59
433.54	24240.93
433.72	22661.07
433.91	23290.67
434.10	26078.25
434.28	27669.81
434.47	29427.56
434.66	28922.00
434.85	28215.16
435.03	27971.74
435.22	28739.44
435.41	30778.04
435.59	30543.99
435.78	31250.83
435.97	31665.11
436.16	31929.59
436.34	31461.48
436.53	30698.47
436.72	31220.41
436.90	29521.18
437.09	29689.70
437.28	28676.24
437.46	29795.02
437.65	29979.92
437.84	27850.03
438.02	25546.95
438.21	24889.26
438.40	26939.57
438.58	29027.32
438.77	29834.81
438.96	29975.24
439.14	30974.65
439.33	31833.63
439.52	32390.67
439.70	31850.01
439.89	31028.48
440.08	30118.01
440.26	30012.69
440.45	31180.62
440.63	33289.44
440.82	35082.29
441.01	34483.11
441.19	33855.85
441.38	34440.98
441.57	35697.85
441.75	35978.72
441.94	36519.38
442.12	36177.66
442.31	36669.17
442.50	36978.12
442.68	36734.71
442.87	36041.91
443.05	35599.55
443.24	36027.87
443.43	36397.67
443.61	37261.33
443.80	37661.56
443.98	35592.53
444.17	35613.59
444.35	37530.49
444.54	38354.36
444.73	37968.17
444.91	36217.45
445.10	35140.80
445.28	33734.14
445.47	33116.24
445.65	33242.63
445.84	34237.36
446.02	35440.39
446.21	35637.00
446.39	35793.81
446.58	36477.25
446.77	37081.11
446.95	37385.38
447.14	38373.08
447.32	38923.11
447.51	38202.22
447.69	36755.77
447.88	36297.03
448.06	36610.66
448.25	37715.39
448.43	37813.70
448.62	37359.63
448.80	37078.77
448.99	37350.27
449.17	37464.96
449.36	37359.63
449.54	38916.09
449.73	39447.39
449.91	39756.34
450.10	40961.72
450.28	41553.87
450.46	41170.02
450.65	40715.96
450.83	40861.07
451.02	40233.81
451.20	40098.06
451.39	39934.22
451.57	39658.04
451.76	39878.05
451.94	39480.16
452.13	38815.44
452.31	36893.86
452.49	35143.14
452.68	36039.57
452.86	35847.64
453.05	36584.91
453.23	37383.04
453.42	38328.61
453.60	39056.52
453.78	39250.78
453.97	38939.49
454.15	39206.31
454.34	38234.99
454.52	38506.49
454.70	37717.73
454.89	37902.64
455.07	38239.67
455.26	39077.58
455.44	40350.84
455.62	40748.73
455.81	41315.14
455.99	40992.14
456.17	40144.87
456.36	40629.36
456.54	41497.70
456.73	41778.56
456.91	42469.02
457.09	42333.27
457.28	43260.12
457.46	41579.62
457.64	40980.44
457.83	39643.99
458.01	39309.30
458.19	40074.65
458.38	40231.47
458.56	41460.25
458.74	41897.93
458.93	40996.82
459.11	41048.32
459.29	40428.07
459.48	40294.66
459.66	40144.87
459.84	40814.26
460.03	41532.81
460.21	41001.50
460.39	42342.63
460.57	42564.98
460.76	42597.75
460.94	43044.79
461.12	42314.55
461.31	42473.70
461.49	42782.65
461.67	42253.69
461.85	43606.52
462.04	43512.90
462.22	43407.58
462.40	43306.93
462.59	43344.38
462.77	43288.21
462.95	43997.39
463.13	43152.46
463.32	42525.19
463.50	42934.79
463.68	42326.25
463.86	42333.27
464.05	41729.41
464.23	41053.00
464.41	40751.07
464.59	40301.68
464.78	42646.90
464.96	41780.90
465.14	41532.81
465.32	42377.74
465.50	43550.35
465.69	44037.18
465.87	43084.58
466.05	41722.39
466.23	39835.92
466.41	39239.08
466.60	40278.28
466.78	40304.02
466.96	41308.11
467.14	41319.82
467.32	42831.80
467.51	42607.11
467.69	40629.36
467.87	41511.74
468.05	41893.25
468.23	41956.44
468.41	42387.10
468.60	42115.60
468.78	42382.42
468.96	41979.85
469.14	42909.04
469.32	43086.92
469.50	41394.71
469.69	41560.89
469.87	41123.21
470.05	40900.86
470.23	40645.74
470.41	41017.89
470.59	41558.55
470.77	41338.54
470.95	42424.55
471.14	43285.87
471.32	42831.80
471.50	45485.97
471.68	45373.63
471.86	45710.66
472.04	45963.44
472.22	45879.18
472.40	44233.78
472.58	43522.26
472.77	43082.24
472.95	44067.61
473.13	45235.53
473.31	43962.28
473.49	44360.17
473.67	45207.45
473.85	45483.63
474.03	45942.38
474.21	46265.37
474.39	46784.97
474.57	46801.35
474.75	47215.63
474.93	47030.72
475.12	45455.54
475.30	45539.80
475.48	45776.20
475.66	46590.70
475.84	46127.28
476.02	45869.82
476.20	45034.25
476.38	45762.15
476.56	47107.96
476.74	47835.87
476.92	48004.39
477.10	48507.60
477.28	49347.86
477.46	49254.23
477.64	49591.27
477.82	49649.78
478.00	50110.87
478.18	49333.81
478.36	49488.29
478.54	49195.72
478.72	49670.85
478.90	50209.17
479.08	51381.78
479.26	51819.46
479.44	51540.94
479.62	51363.06
479.80	51435.61
479.98	51679.03
480.16	51793.71
480.34	51625.20
480.52	51702.43
480.70	52004.36
480.88	51997.34
481.06	52500.56
481.24	52811.85
481.41	53605.29
481.59	53787.85
481.77	53804.24
481.95	53436.77
482.13	53240.17
482.31	53268.25
482.49	53832.32
482.67	53832.32
482.85	54073.40
483.03	54431.50
483.21	54555.55
483.39	54719.38
483.57	53909.56
483.74	53876.79
483.92	53961.05
484.10	54085.10
484.28	54728.75
484.46	55288.13
484.64	55540.91
484.82	54695.98
485.00	54473.63
485.18	53923.60
485.35	53008.45
485.53	50424.50
485.71	47145.41
485.89	46153.02
486.07	48219.72
486.25	51117.30
486.43	53251.87
486.61	53736.36
486.78	53787.85
486.96	53677.85
487.14	54993.23
487.32	55664.96
487.50	56526.28
487.68	57045.88
487.85	57588.88
488.03	57336.10
488.21	57155.88
488.39	56537.98
488.57	56179.88
488.75	56002.00
488.92	56666.71
489.10	58281.68
489.28	59306.83
489.46	59927.08
489.64	59765.58
489.81	60023.04
489.99	59475.35
490.17	59615.79
490.35	59882.61
490.53	59594.72
490.70	59274.07
490.88	58953.41
491.06	59955.16
491.24	59798.35
491.41	59009.59
491.59	57776.12
491.77	57190.99
491.95	58106.14
492.13	59016.61
492.30	59931.76
492.48	60793.07
492.66	61052.87
492.84	61034.15
493.01	61034.15
493.19	60587.11
493.37	60065.17
493.54	60062.83
493.72	60505.19
493.90	61315.01
494.08	62017.17
494.25	62071.01
494.43	62312.08
494.61	62721.68
494.79	62735.72
494.96	62504.01
495.14	61998.45
495.32	61244.80
495.49	60631.58
495.67	61628.65
495.85	62962.75
496.02	63049.35
496.20	62929.98
496.38	62461.88
496.55	62438.47
496.73	62993.18
496.91	63007.22
497.09	63414.47
497.26	63772.58
497.44	63238.93
497.62	62700.61
497.79	62255.91
497.97	61024.79
498.14	61137.13
498.32	62056.96
498.50	62812.96
498.67	63538.52
498.85	63388.73
499.03	63489.37
499.20	63700.02
499.38	63788.96
499.56	63423.84
499.73	63201.49
499.91	62731.04
500.08	62279.31
500.26	61982.07
500.44	62045.26
500.61	62679.55
500.79	62731.04
500.97	62209.10
501.14	62134.20
501.32	61916.53
501.49	61956.32
501.67	62159.95
501.84	62585.92
502.02	62770.83
502.20	63091.48
502.37	63276.38
502.55	63199.15
502.72	63660.23
502.90	64212.60
503.07	63927.05
503.25	63749.17
503.43	62901.90
503.60	62241.87
503.78	61673.12
503.95	61918.87
504.13	63426.18
504.30	63971.52
504.48	63901.31
504.65	63564.27
504.83	63660.23
505.01	64053.44
505.18	64273.45
505.36	64956.89
505.53	64910.08
505.71	65022.42
505.88	65244.77
506.06	64631.55
506.23	64446.65
506.41	63952.80
506.58	64186.85
506.76	64161.11
506.93	64252.39
507.11	63957.48
507.28	64179.83
507.46	63688.32
507.63	63175.74
507.81	62941.69
507.98	63224.89
508.16	63800.66
508.33	64315.58
508.50	64622.19
508.68	64912.42
508.85	65279.88
509.03	65305.63
509.20	65354.78
509.38	64551.98
509.55	63969.18
509.73	63973.86
509.90	64470.06
510.08	64640.92
510.25	64596.45
510.42	64491.12
510.60	64460.69
510.77	64690.07
510.95	64987.31
511.12	65368.82
511.30	65443.72
511.47	65535.00
511.64	65535.00
511.82	65354.78
511.99	64687.73
512.17	64306.22
512.34	63973.86
512.51	64090.89
512.69	64137.70
512.86	64240.68
513.04	64638.57
513.21	64804.75
513.38	64404.52
513.56	63936.41
513.73	63245.96
513.90	63573.63
514.08	63643.85
514.25	63997.27
514.43	64226.64
514.60	64200.89
514.77	64460.69
514.95	64533.25
515.12	64418.56
515.29	64601.13
515.47	64940.50
515.64	65176.90
515.81	64980.29
515.99	64257.07
516.16	63028.29
516.33	61162.88
516.51	59966.87
516.68	59400.46
516.85	59107.89
517.03	59096.19
517.20	61415.66
517.37	63564.27
517.54	64367.07
517.72	64067.48
517.89	62066.33
518.06	59891.97
518.24	60065.17
518.41	62007.81
518.58	63292.77
518.75	63304.47
518.93	63580.65
519.10	63456.60
519.27	63791.30
519.45	63971.52
519.62	64535.59
519.79	64980.29
519.96	64828.16
520.14	64388.14
520.31	63625.12
520.48	63664.91
520.65	64015.99
520.83	64849.22
521.00	65094.98
521.17	64867.95
521.34	64465.38
521.52	64863.27
521.69	65275.20
521.86	65535.00
522.03	65324.35
522.20	64289.84
522.38	63304.47
522.55	63370.00
522.72	63854.50
522.89	64079.19
523.07	64250.05
523.24	64479.42
523.41	65247.11
523.58	65509.25
523.75	65535.00
523.92	65535.00
524.10	65535.00
524.27	65535.00
524.44	65464.78
524.61	65317.33
524.78	65230.73
524.96	65230.73
525.13	65378.18
525.30	65331.37
525.47	65535.00
525.64	65535.00
525.81	65188.60
525.98	63952.80
526.16	62588.27
526.33	61874.40
526.50	61645.03
526.67	61593.54
526.84	61953.98
527.01	62780.19
527.18	63353.62
527.36	64102.59
527.53	64968.59
527.70	65417.97
527.87	64879.65
528.04	64404.52
528.21	64811.77
528.38	65331.37
528.55	65535.00
528.72	65535.00
528.89	65535.00
529.07	65535.00
529.24	65535.00
529.41	64750.92
529.58	64376.43
529.75	64353.03
529.92	64858.59
530.09	65247.11
530.26	65535.00
530.43	65535.00
530.60	65535.00
530.77	65535.00
530.94	65535.00
531.11	65535.00
531.28	65535.00
531.46	65359.46
531.63	65478.83
531.80	65518.62
531.97	65013.06
532.14	64385.80
532.31	63391.07
532.48	62913.60
532.65	62747.42
532.82	63629.80
532.99	64680.70
533.16	64968.59
533.33	65375.84
533.50	65172.22
533.67	64736.88
533.84	64130.68
534.01	64488.78
534.18	64643.26
534.35	64919.44
534.52	64582.40
534.69	65038.81
534.86	65076.26
535.03	65340.74
535.20	65535.00
535.37	65535.00
535.54	65535.00
535.71	65535.00
535.88	65535.00
536.05	64949.87
536.22	64807.09
536.38	64470.06
536.55	64126.00
536.72	63590.01
536.89	63594.70
537.06	64226.64
537.23	64968.59
537.40	65116.04
537.57	65186.26
537.74	65078.60
537.91	64921.78
538.08	64825.82
538.25	64968.59
538.42	65024.76
538.59	65148.81
538.75	64420.90
538.92	64212.60
539.09	64081.53
539.26	63803.00
539.43	63753.85
539.60	63903.65
539.77	63985.57
539.94	63973.86
540.11	63178.08
540.28	62691.25
540.44	62892.54
540.61	63039.99
540.78	63316.17
540.95	63744.49
541.12	63964.50
541.29	64170.47
541.46	64502.82
541.62	64556.66
541.79	64409.20
541.96	63807.68
542.13	63891.94
542.30	64177.49
542.47	64397.50
542.63	64172.81
542.80	63702.36
542.97	63840.45
543.14	63744.49
543.31	63847.47
543.48	64346.01
543.64	65111.36
543.81	65228.39
543.98	65008.38
544.15	64418.56
544.32	63884.92
544.48	63941.10
544.65	64245.36
544.82	64809.43
544.99	64551.98
545.16	64053.44
545.32	63856.84
545.49	64535.59
545.66	64858.59
545.83	64521.55
546.00	64385.80
546.16	63838.11
546.33	63891.94
546.50	64067.48
546.67	64540.27
546.83	64135.36
547.00	64179.83
547.17	63580.65
547.34	62906.58
547.50	62965.09
547.67	63519.80
547.84	63407.45
548.00	63882.58
548.17	64137.70
548.34	64154.08
548.51	63931.73
548.67	64147.06
548.84	64259.41
549.01	63992.59
549.18	64147.06
549.34	64104.93
549.51	64140.04
549.68	63788.96
549.84	63711.72
550.01	63667.25
550.18	63458.94
550.34	63657.89
550.51	63744.49
550.68	63632.14
550.84	63320.85
551.01	63388.73
551.18	63498.73
551.34	63674.27
551.51	63920.03
551.68	64278.13
551.84	64044.08
552.01	63905.99
552.18	63870.88
552.34	63082.12
552.51	62724.02
552.68	62815.30
552.84	63173.40
553.01	63505.76
553.18	63412.13
553.34	63351.28
553.51	63337.24
553.67	63828.75
553.84	63863.86
554.01	63784.28
554.17	63681.30
554.34	63655.55
554.51	63767.90
554.67	63955.14
554.84	63938.75
555.00	63604.06
555.17	63550.23
555.33	63353.62
555.50	63419.16
555.67	63524.48
555.83	63238.93
556.00	62976.79
556.16	62953.39
556.33	62639.76
556.50	62539.11
556.66	62614.01
556.83	62298.04
556.99	62415.07
557.16	62646.78
557.32	62843.38
557.49	62915.94
557.65	62951.05
557.82	62817.64
557.98	62719.34
558.15	62312.08
558.32	61703.54
558.48	60999.04
558.65	61139.47
558.81	61410.98
558.98	61586.52
559.14	62031.22
559.31	61851.00
559.47	62241.87
559.64	61740.99
559.80	61319.70
559.97	61453.11
560.13	61865.04
560.30	62637.42
560.46	63025.95
560.63	63334.90
560.79	63220.21
560.96	62738.06
561.12	61989.09
561.29	61158.20
561.45	61221.39
561.61	61673.12
561.78	62038.24
561.94	61991.43
562.11	61858.02
562.27	61839.29
562.44	61925.89
562.60	62232.50
562.77	62560.18
562.93	62347.19
563.10	62391.66
563.26	61710.56
563.42	61815.89
563.59	61689.50
563.75	61820.57
563.92	61689.50
564.08	61825.25
564.24	61731.63
564.41	61986.75
564.57	61848.66
564.74	61752.69
564.90	61560.77
565.07	61518.64
565.23	61071.60
565.39	60697.11
565.56	60467.74
565.72	60268.79
565.88	60680.73
566.05	60809.46
566.21	61013.08
566.38	61020.11
566.54	61041.17
566.70	61485.87
566.87	61740.99
567.03	61520.98
567.19	61872.06
567.36	61478.85
567.52	61420.34
567.68	61095.00
567.85	60872.65
568.01	60392.84
568.17	60317.95
568.34	60163.47
568.50	60006.65
568.66	60449.02
568.83	60470.08
568.99	60519.23
569.15	60706.47
569.32	60652.64
569.48	60636.26
569.64	60430.29
569.81	60247.73
569.97	60046.44
570.13	59950.48
570.30	59608.76
570.46	59384.07
570.62	59044.69
570.78	58702.98
570.95	58988.52
571.11	59580.68
571.27	59646.21
571.43	60114.32
571.60	60161.13
571.76	60165.81
571.92	60645.62
572.09	60498.17
572.25	60673.71
572.41	60566.04
572.57	60498.17
572.74	60519.23
572.90	59763.24
573.06	60165.81
573.22	60154.11
573.38	60224.32
573.55	60205.60
573.71	60402.21
573.87	60280.50
574.03	60006.65
574.20	60128.36
574.36	59674.30
574.52	59545.57
574.68	59690.68
574.84	59433.22
575.01	58698.30
575.17	58681.91
575.33	59217.89
575.49	59098.53
575.65	59332.58
575.82	59140.66
575.98	58934.69
576.14	59147.68
576.30	59611.10
576.46	59451.95
576.62	59554.93
576.79	59487.06
576.95	59100.87
577.11	59086.82
577.27	59126.61
577.43	59185.13
577.59	58876.18
577.75	58550.84
577.92	58148.27
578.08	58094.44
578.24	57944.64
578.40	58262.96
578.56	58541.48
578.72	58452.54
578.88	58504.03
579.04	58679.57
579.21	58834.05
579.37	58852.77
579.53	59238.96
579.69	58759.15
579.85	59091.51
580.01	59000.22
580.17	58482.97
580.33	58454.88
580.49	58576.59
580.65	58829.37
580.82	59143.00
580.98	59011.93
581.14	58770.85
581.30	59098.53
581.46	58595.31
581.62	58721.70
581.78	58908.94
581.94	58944.05
582.10	58932.35
582.26	59114.91
582.42	58930.01
582.58	59016.61
582.74	58859.79
582.90	59082.14
583.06	58965.12
583.22	58901.92
583.38	58667.87
583.54	58588.29
583.70	58702.98
583.86	58773.19
584.02	58625.74
584.18	58532.12
584.34	58447.86
584.50	58429.13
584.66	58679.57
584.82	58155.29
584.98	58286.36
585.14	57911.88
