SpectraSuite Data File
++++++++++++++++++++++++++++++++++++
Date: Mon Oct 07 14:53:17 GMT-05:00 2013
User: price-jones
Dark Spectrum Present: No
Reference Spectrum Present: No
Number of Sampled Component Spectra: 1
Spectrometers: USB2+H05261
Integration Time (usec): 100000 (USB2+H05261)
Spectra Averaged: 1 (USB2+H05261)
Boxcar Smoothing: 0 (USB2+H05261)
Correct for Electrical Dark: No (USB2+H05261)
Strobe/Lamp Enabled: No (USB2+H05261)
Correct for Detector Non-linearity: No (USB2+H05261)
Correct for Stray Light: No (USB2+H05261)
Number of Pixels in Processed Spectrum: 2048
>>>>>Begin Processed Spectral Data<<<<<
365.73	0.00
365.92	0.00
366.12	0.00
366.32	0.00
366.52	0.00
366.72	0.00
366.91	0.00
367.11	0.00
367.31	0.00
367.51	0.00
367.70	0.00
367.90	0.00
368.10	0.00
368.30	0.00
368.49	0.00
368.69	0.00
368.89	0.00
369.09	0.00
369.28	0.00
369.48	0.00
369.68	0.00
369.87	0.00
370.07	0.00
370.27	0.00
370.47	1423.05
370.66	6342.85
370.86	7339.92
371.06	7934.42
371.25	8091.23
371.45	6965.43
371.65	6382.64
371.84	6043.26
372.04	6363.92
372.24	7136.29
372.44	7419.50
372.63	7152.68
372.83	6602.65
373.03	5804.53
373.22	5483.88
373.42	5912.19
373.62	6677.55
373.81	7115.23
374.01	7068.42
374.21	6427.11
374.40	6012.84
374.60	6274.98
374.79	7087.14
374.99	8194.22
375.19	8744.24
375.38	8566.36
375.58	8124.00
375.78	7974.21
375.97	7978.89
376.17	8484.44
376.37	8484.44
376.56	8741.90
376.76	9266.18
376.95	9542.36
377.15	10157.92
377.35	10698.59
377.54	11267.34
377.74	11438.20
377.93	11321.17
378.13	11080.10
378.33	10169.63
378.52	9790.46
378.72	9228.73
378.91	9221.71
379.11	8819.14
379.31	8479.76
379.50	8549.98
379.70	9298.95
379.89	10160.27
380.09	10822.64
380.28	11047.33
380.48	11052.01
380.68	10761.78
380.87	10558.16
381.07	9706.20
381.26	9027.45
381.46	8278.47
381.65	8184.85
381.85	7950.80
382.04	7541.21
382.24	7028.63
382.43	6855.43
382.63	6745.42
382.83	6546.48
383.02	6644.78
383.22	6745.42
383.41	6628.40
383.61	7325.88
383.80	8182.51
384.00	9263.84
384.19	10359.21
384.39	10883.49
384.58	10813.28
384.78	10574.54
384.97	10305.38
385.17	9799.82
385.36	9455.76
385.56	8999.36
385.75	9329.38
385.95	10284.31
386.14	10949.03
386.34	10813.28
386.53	10494.96
386.72	9839.61
386.92	10120.48
387.11	10553.48
387.31	10871.79
387.50	10860.09
387.70	10661.14
387.89	10232.82
388.09	10373.25
388.28	10235.16
388.48	10406.02
388.67	11365.64
388.86	12446.97
389.06	13422.97
389.25	14005.77
389.45	14043.21
389.64	13902.78
389.84	13724.90
390.03	13832.57
390.22	13647.66
390.42	14193.01
390.61	15302.42
390.81	16184.80
391.00	16444.60
391.19	15957.77
391.39	15611.37
391.58	14703.25
391.78	13827.88
391.97	13109.34
392.16	12208.23
392.36	11089.46
392.55	8863.61
392.75	7052.03
392.94	6069.01
393.13	6024.54
393.33	7239.28
393.52	9202.99
393.71	11119.89
393.91	12180.15
394.10	13511.91
394.29	14923.26
394.49	15868.83
394.68	17209.96
394.88	16814.41
395.07	17591.47
395.26	17172.51
395.46	16933.78
395.65	15463.92
395.84	13380.84
396.04	11400.75
396.23	9116.39
396.42	7964.84
396.62	7702.70
396.81	9343.42
397.00	11936.73
397.19	14469.19
397.39	17263.79
397.58	19087.07
397.77	20156.69
397.97	21018.01
398.16	21408.88
398.35	22174.24
398.55	22700.86
398.74	23440.47
398.93	23889.85
399.12	23510.68
399.32	22934.91
399.51	23513.02
399.70	24711.38
399.90	24400.08
400.09	24016.24
400.28	24273.70
400.47	24383.70
400.67	25493.12
400.86	25921.43
401.05	26008.03
401.24	26434.01
401.44	26859.99
401.63	26883.39
401.82	27087.02
402.01	27063.61
402.21	27281.28
402.40	26930.20
402.59	26150.81
402.78	25039.05
402.97	24795.64
403.17	25663.97
403.36	27147.87
403.55	28259.63
403.74	28652.84
403.93	26801.47
404.13	25076.50
404.32	24957.13
404.51	25678.02
404.70	27927.27
404.89	27463.85
405.09	27384.27
405.28	26363.79
405.47	26586.15
405.66	26492.52
405.85	25589.08
406.05	25020.33
406.24	25088.20
406.43	26677.43
406.62	27061.27
406.81	27555.13
407.00	26562.74
407.20	25811.43
407.39	26164.85
407.58	27115.11
407.77	28147.28
407.96	28863.49
408.15	29474.37
408.34	29497.77
408.54	30810.81
408.73	30848.26
408.92	30614.21
409.11	29565.65
409.30	28456.23
409.49	26651.68
409.68	25022.67
409.87	24435.19
410.07	25661.63
410.26	27889.82
410.45	29846.51
410.64	30174.19
410.83	31599.57
411.02	32093.43
411.21	32765.16
411.40	32631.75
411.59	32444.51
411.78	32655.15
411.98	31938.95
412.17	32748.78
412.36	31880.44
412.55	31915.54
412.74	31770.43
412.93	30492.50
413.12	31271.90
413.31	34092.24
413.50	34426.94
413.69	34452.69
413.88	33380.72
414.07	32538.13
414.26	33312.84
414.45	34293.53
414.64	34436.30
414.83	34466.73
415.02	33558.60
415.22	33720.10
415.41	34614.18
415.60	35400.60
415.79	36912.59
415.98	37425.17
416.17	37296.44
416.36	36196.38
416.55	36030.21
416.74	35264.85
416.93	33652.22
417.12	34064.16
417.31	34529.92
417.50	34651.63
417.69	35412.31
417.88	35613.59
418.07	35498.91
418.26	35030.80
418.45	35199.32
418.64	36336.82
418.83	37867.53
419.02	37273.03
419.21	36931.31
419.39	35325.71
419.58	34120.33
419.77	34012.66
419.96	35201.66
420.15	37406.44
420.34	38323.93
420.53	39225.04
420.72	39791.45
420.91	39573.78
421.10	39360.79
421.29	39555.05
421.48	37296.44
421.67	39288.23
421.86	37794.97
422.05	35138.46
422.24	32236.20
422.43	31967.04
422.61	35716.58
422.80	37961.15
422.99	37633.47
423.18	36744.07
423.37	36236.17
423.56	35938.93
423.75	36568.53
423.94	37624.11
424.13	35845.30
424.32	36048.93
424.50	35550.40
424.69	35538.69
424.88	35473.16
425.07	35857.01
425.26	35040.16
425.45	34925.47
425.64	34314.59
425.83	34567.37
426.01	36814.29
426.20	37301.12
426.39	36811.95
426.58	33743.50
426.77	31908.52
426.96	30864.64
427.15	31936.61
427.33	35079.95
427.52	35414.65
427.71	36044.25
427.90	35508.27
428.09	34536.94
428.28	34057.14
428.46	33504.77
428.65	32886.87
428.84	33743.50
429.03	34082.88
429.22	32046.62
429.40	30459.73
429.59	27875.78
429.78	24538.18
429.97	25085.86
430.16	24992.24
430.34	25336.30
430.53	25301.19
430.72	25731.85
430.91	29156.05
431.10	34239.70
431.28	39772.72
431.47	41631.11
431.66	41968.15
431.85	38295.85
432.03	35791.47
432.22	34534.60
432.41	36175.32
432.60	39646.33
432.79	40765.11
432.97	42162.41
433.16	40247.85
433.35	36641.09
433.54	33408.81
433.72	32385.99
433.91	33298.80
434.10	36514.70
434.28	39276.53
434.47	40657.45
434.66	40147.21
434.85	39241.42
435.03	39306.96
435.22	39952.94
435.41	42436.25
435.59	42480.72
435.78	42958.19
435.97	43842.92
436.16	43779.72
436.34	43409.92
436.53	42405.83
436.72	42586.05
436.90	40793.20
437.09	40587.23
437.28	39770.38
437.46	41205.13
437.65	40636.38
437.84	38064.13
438.02	35452.09
438.21	35501.25
438.40	37488.36
438.58	40479.57
438.77	41764.52
438.96	41724.73
439.14	43491.83
439.33	44060.58
439.52	44287.62
439.70	43793.76
439.89	42920.74
440.08	41787.92
440.26	41890.91
440.45	42775.63
440.63	45434.48
440.82	47437.98
441.01	46745.18
441.19	46546.23
441.38	47290.52
441.57	48456.11
441.75	49062.31
441.94	49116.14
442.12	48720.59
442.31	49357.22
442.50	49481.27
442.68	49123.16
442.87	48556.75
443.05	47924.81
443.24	48823.58
443.43	49832.35
443.61	49832.35
443.80	50719.41
443.98	48374.19
444.17	48250.14
444.35	50035.97
444.54	50951.12
444.73	50876.22
444.91	48961.67
445.10	47412.23
445.28	46277.07
445.47	45626.40
445.65	45638.11
445.84	46719.43
446.02	47938.85
446.21	48596.54
446.39	48839.96
446.58	49240.19
446.77	49970.44
446.95	49848.73
447.14	50878.57
447.32	51288.16
447.51	50515.78
447.69	49371.26
447.88	49221.47
448.06	49558.50
448.25	50384.71
448.43	50761.54
448.62	49883.84
448.80	49380.62
448.99	50026.61
449.17	50192.79
449.36	49958.73
449.54	51309.22
449.73	51880.31
449.91	52247.78
450.10	53268.25
450.28	53368.90
450.46	53205.06
450.65	53186.33
450.83	52863.34
451.02	52662.05
451.20	52233.74
451.39	52144.80
451.57	52198.63
451.76	51784.35
451.94	51803.08
452.13	51077.51
452.31	49631.06
452.49	47992.68
452.68	48156.52
452.86	48313.34
453.05	48861.02
453.23	50499.40
453.42	51133.68
453.60	51349.01
453.78	51854.57
453.97	51643.92
454.15	51826.48
454.34	51063.47
454.52	51281.14
454.70	50410.46
454.89	50590.68
455.07	51037.72
455.26	51377.10
455.44	52409.28
455.62	52949.94
455.81	53083.35
455.99	52891.43
456.17	52392.89
456.36	52523.96
456.54	53544.44
456.73	53474.22
456.91	54068.72
457.09	53825.30
457.28	54897.27
457.46	53366.55
457.64	53148.88
457.83	52182.24
458.01	51494.13
458.19	52910.15
458.38	52556.73
458.56	53586.57
458.74	53347.83
458.93	52891.43
459.11	52959.30
459.29	52849.30
459.48	52839.93
459.66	52835.25
459.84	53329.11
460.03	53467.20
460.21	53624.01
460.39	54014.88
460.57	54066.38
460.76	54497.03
460.94	54363.62
461.12	54068.72
461.31	54354.26
461.49	54347.24
461.67	54101.48
461.85	55089.19
462.04	54724.07
462.22	55238.98
462.40	54813.01
462.59	54646.83
462.77	54651.51
462.95	54927.69
463.13	54408.09
463.32	54270.00
463.50	54087.44
463.68	54174.04
463.86	53925.94
464.05	53619.33
464.23	53015.47
464.41	52568.43
464.59	52671.42
464.78	54162.34
464.96	53729.34
465.14	53549.12
465.32	54494.69
465.50	55072.81
465.69	55295.16
465.87	54623.42
466.05	53865.09
466.23	52512.26
466.41	51831.16
466.60	52659.71
466.78	52467.79
466.96	53256.55
467.14	53523.37
467.32	54087.44
467.51	54033.61
467.69	52706.52
467.87	53345.49
468.05	54054.67
468.23	53801.89
468.41	53827.64
468.60	53925.94
468.78	54188.08
468.96	53907.22
469.14	54583.63
469.32	54880.88
469.50	53216.76
469.69	53659.12
469.87	53010.79
470.05	53043.56
470.23	52971.00
470.41	52996.75
470.59	53188.67
470.77	53745.72
470.95	54295.75
471.14	54277.02
471.32	54356.60
471.50	55980.93
471.68	56245.41
471.86	56460.74
472.04	56549.68
472.22	56772.03
472.40	54997.91
472.58	55236.64
472.77	54511.08
472.95	55014.29
473.13	55889.65
473.31	55210.90
473.49	55594.74
473.67	55821.78
473.85	56189.24
474.03	56622.24
474.21	56839.91
474.39	56865.66
474.57	57001.41
474.75	57324.40
474.93	56875.02
475.12	56200.94
475.30	56231.37
475.48	56523.94
475.66	57088.01
475.84	56533.30
476.02	56516.92
476.20	55971.57
476.38	56547.34
476.56	57265.89
476.74	57666.12
476.92	57902.51
477.10	58127.20
477.28	58735.74
477.46	58831.71
477.64	59147.68
477.82	59358.33
478.00	59264.70
478.18	58475.94
478.36	58796.60
478.54	58646.80
478.72	59154.70
478.90	59653.23
479.08	60137.72
479.26	60568.38
479.44	60341.35
479.62	60310.92
479.80	60189.22
479.98	60336.67
480.16	60603.49
480.34	60266.45
480.52	60554.34
480.70	60446.68
480.88	60692.43
481.06	61186.28
481.24	61366.51
481.41	61869.72
481.59	62230.16
481.77	62220.80
481.95	61687.16
482.13	61516.30
482.31	61623.96
482.49	62164.63
482.67	62082.71
482.85	62082.71
483.03	62504.01
483.21	62747.42
483.39	62660.82
483.57	62192.72
483.74	62068.67
483.92	62333.15
484.10	62347.19
484.28	62838.70
484.46	63061.05
484.64	63496.39
484.82	62920.62
485.00	62665.50
485.18	62227.82
485.35	61436.72
485.53	59306.83
485.71	57373.55
485.89	56853.95
486.07	58241.89
486.25	60402.21
486.43	61862.70
486.61	61764.40
486.78	61923.55
486.96	62005.47
487.14	62906.58
487.32	63522.14
487.50	64310.90
487.68	64757.94
487.85	65127.75
488.03	65034.13
488.21	64643.26
488.39	64231.32
488.57	63985.57
488.75	63697.68
488.92	64448.99
489.10	65535.00
489.28	65535.00
489.46	65535.00
489.64	65535.00
489.81	65535.00
489.99	65535.00
490.17	65535.00
490.35	65535.00
490.53	65535.00
490.70	65535.00
490.88	65535.00
491.06	65535.00
491.24	65535.00
491.41	65535.00
491.59	65535.00
491.77	64811.77
491.95	65535.00
492.13	65535.00
492.30	65535.00
492.48	65535.00
492.66	65535.00
492.84	65535.00
493.01	65535.00
493.19	65535.00
493.37	65535.00
493.54	65535.00
493.72	65535.00
493.90	65535.00
494.08	65535.00
494.25	65535.00
494.43	65535.00
494.61	65535.00
494.79	65535.00
494.96	65535.00
495.14	65535.00
495.32	65535.00
495.49	65535.00
495.67	65535.00
495.85	65535.00
496.02	65535.00
496.20	65535.00
496.38	65535.00
496.55	65535.00
496.73	65535.00
496.91	65535.00
497.09	65535.00
497.26	65535.00
497.44	65535.00
497.62	65535.00
497.79	65535.00
497.97	65535.00
498.14	65535.00
498.32	65535.00
498.50	65535.00
498.67	65535.00
498.85	65535.00
499.03	65535.00
499.20	65535.00
499.38	65535.00
499.56	65535.00
499.73	65535.00
499.91	65535.00
500.08	65535.00
500.26	65535.00
500.44	65535.00
500.61	65535.00
500.79	65535.00
500.97	65535.00
501.14	65535.00
501.32	65535.00
501.49	65535.00
501.67	65535.00
501.84	65535.00
502.02	65535.00
502.20	65535.00
502.37	65535.00
502.55	65535.00
502.72	65535.00
502.90	65535.00
503.07	65535.00
503.25	65535.00
503.43	65535.00
503.60	65535.00
503.78	65535.00
503.95	65535.00
504.13	65535.00
504.30	65535.00
504.48	65535.00
504.65	65535.00
504.83	65535.00
505.01	65535.00
505.18	65535.00
505.36	65535.00
505.53	65535.00
505.71	65535.00
505.88	65535.00
506.06	65535.00
506.23	65535.00
506.41	65535.00
506.58	65535.00
506.76	65535.00
506.93	65535.00
507.11	65535.00
507.28	65535.00
507.46	65535.00
507.63	65535.00
507.81	65535.00
507.98	65535.00
508.16	65535.00
508.33	65535.00
508.50	65535.00
508.68	65535.00
508.85	65535.00
509.03	65535.00
509.20	65535.00
509.38	65535.00
509.55	65535.00
509.73	65535.00
509.90	65535.00
510.08	65535.00
510.25	65535.00
510.42	65535.00
510.60	65535.00
510.77	65535.00
510.95	65535.00
511.12	65535.00
511.30	65535.00
511.47	65535.00
511.64	65535.00
511.82	65535.00
511.99	65535.00
512.17	65535.00
512.34	65535.00
512.51	65535.00
512.69	65535.00
512.86	65535.00
513.04	65535.00
513.21	65535.00
513.38	65535.00
513.56	65535.00
513.73	65535.00
513.90	65535.00
514.08	65535.00
514.25	65535.00
514.43	65535.00
514.60	65535.00
514.77	65535.00
514.95	65535.00
515.12	65535.00
515.29	65535.00
515.47	65535.00
515.64	65535.00
515.81	65535.00
515.99	65535.00
516.16	65535.00
516.33	65535.00
516.51	65535.00
516.68	65535.00
516.85	65535.00
517.03	65535.00
517.20	65535.00
517.37	65535.00
517.54	65535.00
517.72	65535.00
517.89	65535.00
518.06	65535.00
518.24	65535.00
518.41	65535.00
518.58	65535.00
518.75	65535.00
518.93	65535.00
519.10	65535.00
519.27	65535.00
519.45	65535.00
519.62	65535.00
519.79	65535.00
519.96	65535.00
520.14	65535.00
520.31	65535.00
520.48	65535.00
520.65	65535.00
520.83	65535.00
521.00	65535.00
521.17	65535.00
521.34	65535.00
521.52	65535.00
521.69	65535.00
521.86	65535.00
522.03	65535.00
522.20	65535.00
522.38	65535.00
522.55	65535.00
522.72	65535.00
522.89	65535.00
523.07	65535.00
523.24	65535.00
523.41	65535.00
523.58	65535.00
523.75	65535.00
523.92	65535.00
524.10	65535.00
524.27	65535.00
524.44	65535.00
524.61	65535.00
524.78	65535.00
524.96	65535.00
525.13	65535.00
525.30	65535.00
525.47	65535.00
525.64	65535.00
525.81	65535.00
525.98	65535.00
526.16	65535.00
526.33	65535.00
526.50	65535.00
526.67	65535.00
526.84	65535.00
527.01	65535.00
527.18	65535.00
527.36	65535.00
527.53	65535.00
527.70	65535.00
527.87	65535.00
528.04	65535.00
528.21	65535.00
528.38	65535.00
528.55	65535.00
528.72	65535.00
528.89	65535.00
529.07	65535.00
529.24	65535.00
529.41	65535.00
529.58	65535.00
529.75	65535.00
529.92	65535.00
530.09	65535.00
530.26	65535.00
530.43	65535.00
530.60	65535.00
530.77	65535.00
530.94	65535.00
531.11	65535.00
531.28	65535.00
531.46	65535.00
531.63	65535.00
531.80	65535.00
531.97	65535.00
532.14	65535.00
532.31	65535.00
532.48	65535.00
532.65	65535.00
532.82	65535.00
532.99	65535.00
533.16	65535.00
533.33	65535.00
533.50	65535.00
533.67	65535.00
533.84	65535.00
534.01	65535.00
534.18	65535.00
534.35	65535.00
534.52	65535.00
534.69	65535.00
534.86	65535.00
535.03	65535.00
535.20	65535.00
535.37	65535.00
535.54	65535.00
535.71	65535.00
535.88	65535.00
536.05	65535.00
536.22	65535.00
536.38	65535.00
536.55	65535.00
536.72	65535.00
536.89	65535.00
537.06	65535.00
537.23	65535.00
537.40	65535.00
537.57	65535.00
537.74	65535.00
537.91	65535.00
538.08	65535.00
538.25	65535.00
538.42	65535.00
538.59	65535.00
538.75	65535.00
538.92	65535.00
539.09	65535.00
539.26	65535.00
539.43	65535.00
539.60	65535.00
539.77	65535.00
539.94	65535.00
540.11	65535.00
540.28	65535.00
540.44	65535.00
540.61	65535.00
540.78	65535.00
540.95	65535.00
541.12	65535.00
541.29	65535.00
541.46	65535.00
541.62	65535.00
541.79	65535.00
541.96	65535.00
542.13	65535.00
542.30	65535.00
542.47	65535.00
542.63	65535.00
542.80	65535.00
542.97	65535.00
543.14	65535.00
543.31	65535.00
543.48	65535.00
543.64	65535.00
543.81	65535.00
543.98	65535.00
544.15	65535.00
544.32	65535.00
544.48	65535.00
544.65	65535.00
544.82	65535.00
544.99	65535.00
545.16	65535.00
545.32	65535.00
545.49	65535.00
545.66	65535.00
545.83	65535.00
546.00	65535.00
546.16	65535.00
546.33	65535.00
546.50	65535.00
546.67	65535.00
546.83	65535.00
547.00	65535.00
547.17	65535.00
547.34	65535.00
547.50	65535.00
547.67	65535.00
547.84	65535.00
548.00	65535.00
548.17	65535.00
548.34	65535.00
548.51	65535.00
548.67	65535.00
548.84	65535.00
549.01	65535.00
549.18	65535.00
549.34	65535.00
549.51	65535.00
549.68	65535.00
549.84	65535.00
550.01	65535.00
550.18	65535.00
550.34	65535.00
550.51	65535.00
550.68	65535.00
550.84	65535.00
551.01	65535.00
551.18	65535.00
551.34	65535.00
551.51	65535.00
551.68	65535.00
551.84	65535.00
552.01	65535.00
552.18	65535.00
552.34	65535.00
552.51	65535.00
552.68	65535.00
552.84	65535.00
553.01	65535.00
553.18	65535.00
553.34	65535.00
553.51	65535.00
553.67	65535.00
553.84	65535.00
554.01	65535.00
554.17	65535.00
554.34	65535.00
554.51	65535.00
554.67	65535.00
554.84	65535.00
555.00	65535.00
555.17	65535.00
555.33	65535.00
555.50	65535.00
555.67	65535.00
555.83	65535.00
556.00	65535.00
556.16	65535.00
556.33	65535.00
556.50	65535.00
556.66	65535.00
556.83	65535.00
556.99	65535.00
557.16	65535.00
557.32	65535.00
557.49	65535.00
557.65	65535.00
557.82	65535.00
557.98	65535.00
558.15	65535.00
558.32	65535.00
558.48	65535.00
558.65	65535.00
558.81	65535.00
558.98	65535.00
559.14	65535.00
559.31	65535.00
559.47	65535.00
559.64	65535.00
559.80	65535.00
559.97	65535.00
560.13	65535.00
560.30	65535.00
560.46	65535.00
560.63	65535.00
560.79	65535.00
560.96	65535.00
561.12	65535.00
561.29	65535.00
561.45	65535.00
561.61	65535.00
561.78	65535.00
561.94	65535.00
562.11	65535.00
562.27	65535.00
562.44	65535.00
562.60	65535.00
562.77	65535.00
562.93	65535.00
563.10	65535.00
563.26	65535.00
563.42	65535.00
563.59	65535.00
563.75	65535.00
563.92	65535.00
564.08	65535.00
564.24	65535.00
564.41	65535.00
564.57	65535.00
564.74	65535.00
564.90	65535.00
565.07	65535.00
565.23	65535.00
565.39	65535.00
565.56	65535.00
565.72	65535.00
565.88	65535.00
566.05	65535.00
566.21	65535.00
566.38	65535.00
566.54	65535.00
566.70	65535.00
566.87	65535.00
567.03	65535.00
567.19	65535.00
567.36	65535.00
567.52	65535.00
567.68	65535.00
567.85	65535.00
568.01	65535.00
568.17	65535.00
568.34	65535.00
568.50	65535.00
568.66	65535.00
568.83	65535.00
568.99	65535.00
569.15	65535.00
569.32	65535.00
569.48	65535.00
569.64	65535.00
569.81	65535.00
569.97	65535.00
570.13	65535.00
570.30	65535.00
570.46	65535.00
570.62	65535.00
570.78	65535.00
570.95	65535.00
571.11	65535.00
571.27	65535.00
571.43	65535.00
571.60	65535.00
571.76	65535.00
571.92	65535.00
572.09	65535.00
572.25	65535.00
572.41	65535.00
572.57	65535.00
572.74	65535.00
572.90	65535.00
573.06	65535.00
573.22	65535.00
573.38	65535.00
573.55	65535.00
573.71	65535.00
573.87	65535.00
574.03	65535.00
574.20	65535.00
574.36	65535.00
574.52	65535.00
574.68	65535.00
574.84	65535.00
575.01	65535.00
575.17	65535.00
575.33	65535.00
575.49	65535.00
575.65	65535.00
575.82	65535.00
575.98	65535.00
576.14	65535.00
576.30	65535.00
576.46	65535.00
576.62	65535.00
576.79	65535.00
576.95	65535.00
577.11	65535.00
577.27	65535.00
577.43	65535.00
577.59	65535.00
577.75	65535.00
577.92	65535.00
578.08	65535.00
578.24	65535.00
578.40	65535.00
578.56	65535.00
578.72	65535.00
578.88	65535.00
579.04	65535.00
579.21	65535.00
579.37	65535.00
579.53	65535.00
579.69	65535.00
579.85	65535.00
580.01	65535.00
580.17	65535.00
580.33	65535.00
580.49	65535.00
580.65	65535.00
580.82	65535.00
580.98	65535.00
581.14	65535.00
581.30	65535.00
581.46	65535.00
581.62	65535.00
581.78	65535.00
581.94	65535.00
582.10	65535.00
582.26	65535.00
582.42	65535.00
582.58	65535.00
582.74	65535.00
582.90	65535.00
583.06	65535.00
583.22	65535.00
583.38	65535.00
583.54	65535.00
583.70	65535.00
583.86	65535.00
584.02	65535.00
584.18	65535.00
584.34	65535.00
584.50	65535.00
