SpectraSuite Data File
++++++++++++++++++++++++++++++++++++
Date: Mon Oct 07 14:53:36 GMT-05:00 2013
User: price-jones
Dark Spectrum Present: No
Reference Spectrum Present: No
Number of Sampled Component Spectra: 1
Spectrometers: USB2+H05261
Integration Time (usec): 100000 (USB2+H05261)
Spectra Averaged: 1 (USB2+H05261)
Boxcar Smoothing: 0 (USB2+H05261)
Correct for Electrical Dark: No (USB2+H05261)
Strobe/Lamp Enabled: No (USB2+H05261)
Correct for Detector Non-linearity: No (USB2+H05261)
Correct for Stray Light: No (USB2+H05261)
Number of Pixels in Processed Spectrum: 2048
>>>>>Begin Processed Spectral Data<<<<<
365.73	0.00
365.92	0.00
366.12	0.00
366.32	0.00
366.52	0.00
366.72	0.00
366.91	0.00
367.11	0.00
367.31	0.00
367.51	0.00
367.70	0.00
367.90	0.00
368.10	0.00
368.30	0.00
368.49	0.00
368.69	0.00
368.89	0.00
369.09	0.00
369.28	0.00
369.48	0.00
369.68	0.00
369.87	0.00
370.07	0.00
370.27	0.00
370.47	877.70
370.66	3782.31
370.86	4540.64
371.06	4947.89
371.25	5067.26
371.45	4643.62
371.65	3978.91
371.84	3782.31
372.04	3957.85
372.24	4379.14
372.44	4643.62
372.63	4568.73
372.83	4383.82
373.03	3721.45
373.22	3613.79
373.42	3772.94
373.62	4135.73
373.81	4650.64
374.01	4732.56
374.21	4102.96
374.40	3669.96
374.60	3831.46
374.79	4423.61
374.99	5219.39
375.19	5715.59
375.38	5619.63
375.58	5308.34
375.78	5050.88
375.97	5139.82
376.17	5502.60
376.37	5561.11
376.56	5600.90
376.76	5839.64
376.95	6427.11
377.15	6637.76
377.35	6864.79
377.54	7222.89
377.74	7243.96
377.93	7503.76
378.13	7307.15
378.33	6984.16
378.52	6258.59
378.72	6097.10
378.91	5970.71
379.11	5851.34
379.31	5753.04
379.50	5490.90
379.70	6129.86
379.89	6820.32
380.09	7105.87
380.28	7517.80
380.48	7447.58
380.68	7208.85
380.87	6942.03
381.07	6544.14
381.26	6022.20
381.46	5565.79
381.65	5483.88
381.85	5334.08
382.04	5069.60
382.24	4812.14
382.43	4491.49
382.63	4514.89
382.83	4346.37
383.02	4437.66
383.22	4329.99
383.41	4447.02
383.61	4870.65
383.80	5418.34
384.00	6094.76
384.19	6935.01
384.39	7283.75
384.58	7089.48
384.78	7157.36
384.97	7321.20
385.17	6696.27
385.36	6413.07
385.56	6221.14
385.75	6272.64
385.95	7014.59
386.14	7375.03
386.34	7578.65
386.53	7056.72
386.72	6892.88
386.92	6764.15
387.11	7049.69
387.31	7564.61
387.50	7382.05
387.70	7103.53
387.89	7021.61
388.09	7241.62
388.28	7222.89
388.48	7199.49
388.67	7758.88
388.86	8566.36
389.06	8926.80
389.25	9640.67
389.45	9724.93
389.64	9750.67
389.84	9518.96
390.03	9357.46
390.22	9221.71
390.42	9661.73
390.61	10539.43
390.81	11016.90
391.00	11199.46
391.19	11084.78
391.39	10616.67
391.58	10092.39
391.78	9523.64
391.97	9142.13
392.16	8727.86
392.36	8053.78
392.55	6326.47
392.75	5048.54
392.94	4259.78
393.13	4044.45
393.33	4723.20
393.52	6164.97
393.71	7412.48
393.91	8557.00
394.10	9184.26
394.29	10071.33
394.49	10909.24
394.68	11847.79
394.88	11913.33
395.07	12065.46
395.26	12018.65
395.46	11585.65
395.65	11030.94
395.84	9968.34
396.04	8163.79
396.23	6801.60
396.42	5619.63
396.62	5263.86
396.81	6197.74
397.00	7836.11
397.19	9797.48
397.39	11756.51
397.58	13142.11
397.77	14040.87
397.97	14614.30
398.16	14843.68
398.35	15204.12
398.55	16013.95
398.74	16372.05
398.93	17013.35
399.12	16350.98
399.32	15765.85
399.51	16196.51
399.70	17216.98
399.90	17118.68
400.09	17528.27
400.28	16931.44
400.47	17282.52
400.67	18354.48
400.86	18775.78
401.05	18518.32
401.24	18686.84
401.44	18904.51
401.63	18932.59
401.82	18810.89
402.01	18981.74
402.21	19190.05
402.40	19283.67
402.59	18506.62
402.78	17916.80
402.97	17481.46
403.17	18054.89
403.36	19278.99
403.55	19606.67
403.74	20231.59
403.93	19180.69
404.13	17975.31
404.32	17305.92
404.51	18300.65
404.70	19761.14
404.89	19564.54
405.09	19325.80
405.28	18607.26
405.47	18876.42
405.66	18654.07
405.85	18267.88
406.05	18005.74
406.24	18082.98
406.43	18469.17
406.62	19295.38
406.81	19648.80
407.00	18761.73
407.20	18705.56
407.39	18539.38
407.58	19356.23
407.77	20292.44
407.96	21273.13
408.15	21172.49
408.34	21362.07
408.54	22218.71
408.73	22361.48
408.92	22015.08
409.11	21336.32
409.30	20498.41
409.49	18988.77
409.68	18120.43
409.87	17348.05
410.07	18485.55
410.26	19920.30
410.45	21130.36
410.64	21755.28
410.83	21970.61
411.02	22806.18
411.21	23683.88
411.40	23433.44
411.59	23831.33
411.78	23339.82
411.98	22843.63
412.17	23197.05
412.36	23283.65
412.55	23105.77
412.74	22569.79
412.93	22017.42
413.12	22630.64
413.31	24231.57
413.50	24549.88
413.69	25172.46
413.88	24266.67
414.07	23147.90
414.26	23903.89
414.45	24540.52
414.64	24819.04
414.83	24599.03
415.02	24322.85
415.22	24226.89
415.41	24919.68
415.60	25703.76
415.79	26214.00
415.98	26850.63
416.17	26885.73
416.36	26291.24
416.55	26082.93
416.74	24938.41
416.93	24393.06
417.12	24290.08
417.31	24966.49
417.50	25015.65
417.69	25979.95
417.88	26141.44
418.07	25804.41
418.26	25010.96
418.45	25603.12
418.64	26244.43
418.83	27274.26
419.02	27028.51
419.21	26733.60
419.39	25923.77
419.58	24336.89
419.77	24636.48
419.96	25600.78
420.15	26670.40
420.34	27782.16
420.53	28264.31
420.72	29158.39
420.91	29008.60
421.10	28503.04
421.29	28437.51
421.48	27267.24
421.67	28811.99
421.86	28173.03
422.05	26111.02
422.24	23475.57
422.43	23014.49
422.61	25142.03
422.80	27747.05
422.99	27740.03
423.18	26724.24
423.37	26375.50
423.56	26164.85
423.75	26405.92
423.94	27157.24
424.13	25996.33
424.32	25823.13
424.50	26167.19
424.69	26045.48
424.88	25977.61
425.07	25654.61
425.26	25886.32
425.45	25399.49
425.64	25160.76
425.83	25209.91
426.01	26363.79
426.20	27337.46
426.39	26787.43
426.58	25130.33
426.77	22963.00
426.96	22279.56
427.15	23337.48
427.33	24999.26
427.52	26251.45
427.71	26246.77
427.90	25734.19
428.09	26045.48
428.28	25144.38
428.46	24559.24
428.65	23828.99
428.84	24056.03
429.03	24835.42
429.22	23550.47
429.40	22178.92
429.59	20381.38
429.78	17867.65
429.97	18129.79
430.16	18185.96
430.34	18291.29
430.53	18178.94
430.72	18562.79
430.91	20765.23
431.10	24463.28
431.28	28278.35
431.47	30820.17
431.66	31042.53
431.85	28348.57
432.03	26450.39
432.22	24830.74
432.41	25935.48
432.60	28926.68
432.79	30174.19
432.97	30742.94
433.16	29956.52
433.35	27847.69
433.54	25071.82
433.72	23108.11
433.91	23756.44
434.10	26874.03
434.28	28629.43
434.47	30008.01
434.66	29549.26
434.85	28814.34
435.03	28718.37
435.22	29544.58
435.41	31178.28
435.59	31035.50
435.78	31435.74
435.97	32343.86
436.16	32655.15
436.34	32666.86
436.53	31316.37
436.72	31922.57
436.90	29820.77
437.09	30136.74
437.28	29167.76
437.46	30731.23
437.65	30536.97
437.84	28533.47
438.02	26195.28
438.21	25907.39
438.40	26960.63
438.58	29841.83
438.77	30473.78
438.96	30675.06
439.14	31431.05
439.33	32664.52
439.52	33633.50
439.70	32552.17
439.89	31384.24
440.08	30909.11
440.26	30335.68
440.45	31709.58
440.63	33766.91
440.82	35555.08
441.01	34890.37
441.19	34752.27
441.38	35370.18
441.57	36638.75
441.75	37401.76
441.94	37509.43
442.12	37153.66
442.31	37654.54
442.50	36891.52
442.68	37277.71
442.87	36926.63
443.05	36538.10
443.24	36767.48
443.43	37242.60
443.61	38513.52
443.80	38731.18
443.98	36577.89
444.17	36954.72
444.35	38504.15
444.54	39718.89
444.73	38799.06
444.91	37116.22
445.10	35744.66
445.28	34600.14
445.47	34000.96
445.65	33869.89
445.84	35072.93
446.02	36327.45
446.21	36905.57
446.39	36587.25
446.58	37088.13
446.77	37738.80
446.95	38038.39
447.14	38698.42
447.32	39943.58
447.51	39274.19
447.69	37258.99
447.88	36734.71
448.06	37626.45
448.25	38541.60
448.43	38829.49
448.62	37881.57
448.80	37612.41
448.99	37986.89
449.17	38323.93
449.36	38590.75
449.54	39529.31
449.73	40374.24
449.91	40362.54
450.10	41986.87
450.28	42218.58
450.46	42232.63
450.65	41951.76
450.83	41914.31
451.02	40596.59
451.20	40580.21
451.39	40582.55
451.57	40535.74
451.76	40154.23
451.94	40114.44
452.13	39655.70
452.31	37848.80
452.49	36123.83
452.68	36299.37
452.86	36851.73
453.05	36790.88
453.23	38164.78
453.42	38557.99
453.60	39985.71
453.78	40018.48
453.97	39936.56
454.15	39580.80
454.34	39260.15
454.52	39009.71
454.70	38494.79
454.89	38941.83
455.07	38941.83
455.26	39302.28
455.44	41425.14
455.62	41549.19
455.81	42014.96
455.99	41549.19
456.17	41598.34
456.36	41387.69
456.54	42387.10
456.73	42590.73
456.91	43313.95
457.09	43515.24
457.28	44051.22
457.46	42024.32
457.64	42312.20
457.83	41193.43
458.01	39716.55
458.19	40535.74
458.38	41244.92
458.56	42834.14
458.74	42401.14
458.93	41579.62
459.11	41785.58
459.29	40928.95
459.48	41801.97
459.66	41481.31
459.84	41553.87
460.03	42625.84
460.21	42267.73
460.39	42899.68
460.57	43103.31
460.76	43763.34
460.94	43889.73
461.12	43264.80
461.31	43643.97
461.49	43051.81
461.67	43297.57
461.85	44816.58
462.04	44414.01
462.22	44631.68
462.40	44294.64
462.59	44252.51
462.77	44472.52
462.95	44610.61
463.13	43990.37
463.32	43812.49
463.50	42925.42
463.68	43379.49
463.86	43126.71
464.05	42731.16
464.23	41645.15
464.41	41666.22
464.59	41188.75
464.78	42859.89
464.96	42749.88
465.14	42370.72
465.32	43409.92
465.50	44839.98
465.69	44676.15
465.87	43952.92
466.05	42768.61
466.23	41406.42
466.41	40060.61
466.60	41591.32
466.78	41312.80
466.96	42234.97
467.14	42794.36
467.32	43800.79
467.51	43030.75
467.69	41586.64
467.87	42625.84
468.05	42965.21
468.23	43005.00
468.41	43138.41
468.60	43178.20
468.78	43356.08
468.96	43086.92
469.14	43580.78
469.32	43803.13
469.50	41989.21
469.69	42733.50
469.87	41902.61
470.05	41734.09
470.23	41745.80
470.41	42567.32
470.59	42511.15
470.77	42616.47
470.95	43391.19
471.14	43849.94
471.32	44079.31
471.50	46155.36
471.68	46398.78
471.86	46300.48
472.04	46894.97
472.22	46330.90
472.40	44580.18
472.58	44367.20
472.77	44549.76
472.95	45092.76
473.13	45907.27
473.31	45291.71
473.49	44882.11
473.67	45942.38
473.85	46087.49
474.03	46791.99
474.21	47075.19
474.39	47522.24
474.57	47669.69
474.75	47700.12
474.93	47522.24
475.12	46859.87
475.30	46609.43
475.48	46829.44
475.66	47356.06
475.84	46953.49
476.02	46726.46
476.20	45666.19
476.38	46911.36
476.56	47215.63
476.74	48491.22
476.92	48519.31
477.10	49219.13
477.28	50148.32
477.46	50244.28
477.64	50588.34
477.82	50806.01
478.00	50571.96
478.18	50244.28
478.36	49961.08
478.54	49944.69
478.72	50487.70
478.90	51278.80
479.08	52217.35
479.26	52636.31
479.44	52439.70
479.62	52009.04
479.80	52236.08
479.98	52219.69
480.16	52589.50
480.34	52268.84
480.52	52739.29
480.70	52767.38
480.88	52765.04
481.06	53558.48
481.24	53675.51
481.41	54319.15
481.59	54494.69
481.77	54518.10
481.95	54103.82
482.13	53825.30
482.31	53984.46
482.49	54513.42
482.67	54302.77
482.85	54663.21
483.03	54965.14
483.21	55393.46
483.39	55194.51
483.57	54815.35
483.74	54518.10
483.92	54656.19
484.10	54642.15
484.28	55814.76
484.46	55819.44
484.64	56381.16
484.82	55140.68
485.00	55161.75
485.18	54632.78
485.35	53755.08
485.53	50965.17
485.71	47718.84
485.89	46831.78
486.07	49158.27
486.25	51908.40
486.43	53890.83
486.61	54255.96
486.78	54330.86
486.96	54536.82
487.14	55442.61
487.32	56317.97
487.50	57090.35
487.68	57441.43
487.85	58061.67
488.03	57867.40
488.21	57853.36
488.39	57111.41
488.57	56666.71
488.75	56584.79
488.92	57176.95
489.10	58922.99
489.28	59873.24
489.46	60512.21
489.64	60334.33
489.81	60493.49
489.99	60212.62
490.17	60168.15
490.35	60594.13
490.53	60324.97
490.70	59777.28
490.88	59798.35
491.06	60509.87
491.24	60561.36
491.41	59517.48
491.59	58377.64
491.77	57771.44
491.95	58794.26
492.13	59646.21
492.30	60530.93
492.48	61298.63
492.66	61698.86
492.84	61549.07
493.01	61612.26
493.19	61160.54
493.37	60811.80
493.54	60374.12
493.72	60994.36
493.90	61904.83
494.08	62370.60
494.25	62686.57
494.43	62817.64
494.61	63173.40
494.79	63358.30
494.96	63302.13
495.14	62555.50
495.32	61909.51
495.49	61331.40
495.67	62190.37
495.85	63421.50
496.02	63664.91
496.20	63505.76
496.38	63194.46
496.55	63077.44
496.73	63362.98
496.91	63529.16
497.09	64156.42
497.26	64212.60
497.44	63772.58
497.62	63278.72
497.79	62738.06
497.97	61558.43
498.14	61525.66
498.32	62569.54
498.50	63374.69
498.67	63927.05
498.85	63739.81
499.03	63969.18
499.20	64126.00
499.38	64135.36
499.56	64104.93
499.73	63557.25
499.91	63274.04
500.08	62929.98
500.26	62377.62
500.44	62616.35
500.61	63206.17
500.79	63185.10
500.97	62775.51
501.14	62632.74
501.32	62539.11
501.49	62485.28
501.67	62630.40
501.84	63157.02
502.02	63245.96
502.20	63744.49
502.37	63667.25
502.55	63821.73
502.72	64212.60
502.90	64783.69
503.07	64479.42
503.25	64207.92
503.43	63456.60
503.60	62901.90
503.78	62237.19
503.95	62791.89
504.13	63927.05
504.30	64502.82
504.48	64301.54
504.65	64303.88
504.83	64205.58
505.01	64650.28
505.18	64867.95
505.36	65439.04
505.53	65380.52
505.71	65535.00
505.88	65535.00
506.06	65102.00
506.23	64949.87
506.41	64608.15
506.58	64800.07
506.76	64748.58
506.93	64881.99
507.11	64444.31
507.28	64790.71
507.46	64437.29
507.63	63749.17
507.81	63693.00
507.98	64015.99
508.16	64322.60
508.33	64989.66
508.50	65263.50
508.68	65233.07
508.85	65535.00
509.03	65535.00
509.20	65535.00
509.38	65214.35
509.55	64540.27
509.73	64568.36
509.90	65106.68
510.08	65197.96
510.25	65029.44
510.42	64984.97
510.60	64678.36
510.77	65008.38
510.95	65535.00
511.12	65535.00
511.30	65535.00
511.47	65535.00
511.64	65535.00
511.82	65535.00
511.99	65319.67
512.17	64842.20
512.34	64514.53
512.51	64573.04
512.69	64816.46
512.86	64764.96
513.04	65340.74
513.21	65111.36
513.38	65003.70
513.56	64556.66
513.73	64032.38
513.90	64221.96
514.08	64273.45
514.25	64413.88
514.43	64605.81
514.60	64853.90
514.77	64849.22
514.95	64963.91
515.12	64757.94
515.29	65153.49
515.47	65520.96
515.64	65535.00
515.81	65410.95
515.99	64832.84
516.16	63746.83
516.33	61834.61
516.51	60757.97
516.68	59938.78
516.85	59421.52
517.03	59966.87
517.20	61846.32
517.37	64034.72
517.54	65022.42
517.72	64633.89
517.89	62520.39
518.06	60413.91
518.24	60598.81
518.41	62719.34
518.58	63707.04
518.75	63941.10
518.93	64151.74
519.10	63927.05
519.27	64425.59
519.45	64580.06
519.62	65059.87
519.79	65436.70
519.96	65380.52
520.14	65017.74
520.31	64109.61
520.48	64233.66
520.65	64605.81
520.83	65261.16
521.00	65535.00
521.17	65460.10
521.34	64942.84
521.52	65078.60
521.69	65535.00
521.86	65535.00
522.03	65535.00
522.20	64956.89
522.38	64001.95
522.55	63875.56
522.72	64427.93
522.89	64540.27
523.07	64783.69
523.24	65059.87
523.41	65535.00
523.58	65535.00
523.75	65535.00
523.92	65535.00
524.10	65535.00
524.27	65535.00
524.44	65535.00
524.61	65535.00
524.78	65535.00
524.96	65535.00
525.13	65535.00
525.30	65535.00
525.47	65535.00
525.64	65535.00
525.81	65535.00
525.98	64498.14
526.16	63210.85
526.33	62597.63
526.50	62335.49
526.67	62148.24
526.84	62625.71
527.01	63236.59
527.18	64088.55
527.36	64661.98
527.53	65535.00
527.70	65535.00
527.87	65401.59
528.04	64741.56
528.21	65364.14
528.38	65535.00
528.55	65535.00
528.72	65535.00
528.89	65535.00
529.07	65535.00
529.24	65535.00
529.41	65535.00
529.58	64914.76
529.75	64914.76
529.92	65326.69
530.09	65535.00
530.26	65535.00
530.43	65535.00
530.60	65535.00
530.77	65535.00
530.94	65535.00
531.11	65535.00
531.28	65535.00
531.46	65535.00
531.63	65535.00
531.80	65535.00
531.97	65535.00
532.14	64912.42
532.31	64053.44
532.48	63557.25
532.65	63330.22
532.82	63945.78
532.99	65233.07
533.16	65401.59
533.33	65535.00
533.50	65535.00
533.67	65181.58
533.84	64821.14
534.01	64940.50
534.18	65144.13
534.35	65506.91
534.52	65333.71
534.69	65535.00
534.86	65535.00
535.03	65535.00
535.20	65535.00
535.37	65535.00
535.54	65535.00
535.71	65535.00
535.88	65535.00
536.05	65535.00
536.22	65286.90
536.38	65048.17
536.55	64591.76
536.72	64130.68
536.89	63978.54
537.06	64718.15
537.23	65434.36
537.40	65535.00
537.57	65535.00
537.74	65535.00
537.91	65535.00
538.08	65485.85
538.25	65535.00
538.42	65535.00
538.59	65516.28
538.75	64996.68
538.92	64711.13
539.09	64706.45
539.26	64432.61
539.43	64219.62
539.60	64390.48
539.77	64580.06
539.94	64395.16
540.11	63835.77
540.28	63414.47
540.44	63449.58
540.61	63391.07
540.78	63732.79
540.95	64090.89
541.12	64661.98
541.29	64629.21
541.46	64982.63
541.62	65141.79
541.79	64956.89
541.96	64320.26
542.13	64362.39
542.30	64673.68
542.47	64788.37
542.63	64589.42
542.80	64240.68
542.97	64512.19
543.14	64479.42
543.31	64343.67
543.48	64977.95
543.64	65535.00
543.81	65535.00
543.98	65535.00
544.15	65256.48
544.32	64568.36
544.48	64587.08
544.65	64910.08
544.82	65268.18
544.99	65214.35
545.16	64830.50
545.32	64399.84
545.49	65017.74
545.66	65483.51
545.83	65167.54
546.00	64905.40
546.16	64481.76
546.33	64748.58
546.50	64729.86
546.67	65027.10
546.83	64811.77
547.00	64673.68
547.17	64135.36
547.34	63681.30
547.50	63529.16
547.67	64135.36
547.84	63791.30
548.00	64315.58
548.17	64753.26
548.34	64678.36
548.51	64687.73
548.67	64732.20
548.84	64814.12
549.01	64647.94
549.18	64544.95
549.34	64446.65
549.51	64453.67
549.68	64416.22
549.84	64097.91
550.01	64184.51
550.18	64184.51
550.34	64282.81
550.51	64217.28
550.68	64275.79
550.84	63929.39
551.01	64023.01
551.18	63880.24
551.34	64088.55
551.51	64423.25
551.68	64580.06
551.84	64666.66
552.01	64573.04
552.18	64519.21
552.34	63730.45
552.51	63634.48
552.68	63248.30
552.84	63805.34
553.01	63980.88
553.18	63987.91
553.34	63927.05
553.51	64140.04
553.67	64470.06
553.84	64589.42
554.01	64439.63
554.17	64170.47
554.34	64289.84
554.51	64322.60
554.67	64816.46
554.84	64437.29
555.00	64093.23
555.17	64015.99
555.33	64013.65
555.50	64053.44
555.67	64025.35
555.83	63702.36
556.00	63568.95
556.16	63524.48
556.33	63173.40
556.50	63236.59
556.66	63227.23
556.83	62911.26
556.99	63110.20
557.16	63178.08
557.32	63288.09
557.49	63622.78
557.65	63412.13
557.82	63608.74
557.98	63501.07
558.15	63084.46
558.32	62344.85
558.48	61525.66
558.65	61740.99
558.81	62031.22
558.98	62309.74
559.14	62363.57
559.31	62529.75
559.47	62602.31
559.64	62382.30
559.80	61993.77
559.97	62005.47
560.13	62197.40
560.30	63231.91
560.46	63608.74
560.63	63803.00
560.79	63943.44
560.96	63414.47
561.12	62494.64
561.29	61914.19
561.45	61708.22
561.61	62401.02
561.78	62630.40
561.94	62731.04
562.11	62513.37
562.27	62351.87
562.44	62660.82
562.60	62904.24
562.77	63011.90
562.93	62920.62
563.10	62908.92
563.26	62347.19
563.42	62501.67
563.59	62351.87
563.75	62274.63
563.92	62398.68
564.08	62321.44
564.24	62646.78
564.41	62440.81
564.57	62482.94
564.74	62396.34
564.90	62225.48
565.07	62248.89
565.23	61827.59
565.39	61598.22
565.56	61230.75
565.72	60903.08
565.88	61230.75
566.05	61455.45
566.21	61525.66
566.38	61544.39
566.54	61811.21
566.70	62157.61
566.87	62255.91
567.03	62377.62
567.19	62628.05
567.36	62218.46
567.52	62061.64
567.68	61860.36
567.85	61352.46
568.01	61127.77
568.17	60722.86
568.34	60963.93
568.50	60727.54
568.66	60910.10
568.83	61085.64
568.99	61249.48
569.15	61542.05
569.32	61350.12
569.48	61080.96
569.64	61167.56
569.81	60963.93
569.97	60652.64
570.13	60626.90
570.30	60294.54
570.46	60006.65
570.62	59597.06
570.78	59564.29
570.95	59760.90
571.11	60313.26
571.27	60423.27
571.43	60472.42
571.60	60804.78
571.76	60832.86
571.92	61195.65
572.09	61350.12
572.25	61219.05
572.41	61228.41
572.57	61057.56
572.74	61244.80
572.90	60786.05
573.06	60699.45
573.22	60786.05
573.38	60818.82
573.55	60746.26
573.71	60853.93
573.87	60816.48
574.03	60598.81
574.20	60734.56
574.36	60381.14
574.52	60341.35
574.68	60233.69
574.84	60055.81
575.01	59449.61
575.17	59379.39
575.33	59941.12
575.49	59800.69
575.65	60041.76
575.82	59814.73
575.98	59540.89
576.14	59920.05
576.30	60147.09
576.46	60135.38
576.62	60037.08
576.79	60069.85
576.95	59707.07
577.11	59746.86
577.27	59922.40
577.43	59915.37
577.59	59299.81
577.75	59187.47
577.92	58817.66
578.08	58623.40
578.24	58747.45
578.40	59016.61
578.56	59072.78
578.72	59313.86
578.88	59372.37
579.04	59278.75
579.21	59524.50
579.37	59458.97
579.53	59655.57
579.69	59559.61
579.85	59774.94
580.01	59475.35
580.17	59245.98
580.33	59007.25
580.49	59049.38
580.65	59419.18
580.82	59611.10
580.98	59557.27
581.14	59458.97
581.30	59278.75
581.46	59299.81
581.62	59440.24
581.78	59519.82
581.94	59833.46
582.10	59496.42
582.26	59746.86
582.42	59868.56
582.58	59784.30
582.74	59510.46
582.90	59716.43
583.06	59753.88
583.22	59496.42
583.38	59529.19
583.54	59297.47
583.70	59449.61
583.86	59302.15
584.02	59068.10
584.18	59243.64
584.34	59283.43
584.50	59131.29
584.66	58862.13
584.82	58567.23
584.98	58803.62
585.14	58454.88
