SpectraSuite Data File
++++++++++++++++++++++++++++++++++++
Date: Mon Oct 07 14:53:27 GMT-05:00 2013
User: price-jones
Dark Spectrum Present: No
Reference Spectrum Present: No
Number of Sampled Component Spectra: 1
Spectrometers: USB2+H05261
Integration Time (usec): 100000 (USB2+H05261)
Spectra Averaged: 1 (USB2+H05261)
Boxcar Smoothing: 0 (USB2+H05261)
Correct for Electrical Dark: No (USB2+H05261)
Strobe/Lamp Enabled: No (USB2+H05261)
Correct for Detector Non-linearity: No (USB2+H05261)
Correct for Stray Light: No (USB2+H05261)
Number of Pixels in Processed Spectrum: 2048
>>>>>Begin Processed Spectral Data<<<<<
365.73	0.00
365.92	0.00
366.12	0.00
366.32	0.00
366.52	0.00
366.72	0.00
366.91	0.00
367.11	0.00
367.31	0.00
367.51	0.00
367.70	0.00
367.90	0.00
368.10	0.00
368.30	0.00
368.49	0.00
368.69	0.00
368.89	0.00
369.09	0.00
369.28	0.00
369.48	0.00
369.68	0.00
369.87	0.00
370.07	0.00
370.27	0.00
370.47	891.74
370.66	4077.21
370.86	4840.23
371.06	5205.35
371.25	5245.14
371.45	4699.80
371.65	4339.35
371.84	4046.79
372.04	4273.82
372.24	4755.97
372.44	4966.62
372.63	4786.40
372.83	4447.02
373.03	3962.53
373.22	3623.15
373.42	3880.61
373.62	4496.17
373.81	4889.38
374.01	4947.89
374.21	4337.01
374.40	4086.58
374.60	4297.22
374.79	4821.50
374.99	5544.73
375.19	5933.26
375.38	6052.63
375.58	5542.39
375.78	5303.65
375.97	5420.68
376.17	5694.52
376.37	5783.46
376.56	6104.12
376.76	6333.49
376.95	6644.78
377.15	7023.95
377.35	7356.30
377.54	7892.29
377.74	7829.09
377.93	7852.50
378.13	7655.89
378.33	7262.68
378.52	6682.23
378.72	6384.98
378.91	6359.24
379.11	6164.97
379.31	5827.93
379.50	5966.03
379.70	6581.59
379.89	7194.81
380.09	7375.03
380.28	7765.90
380.48	7627.81
380.68	7410.14
380.87	7370.35
381.07	6675.21
381.26	6324.13
381.46	5888.79
381.65	5701.54
381.85	5394.93
382.04	5228.76
382.24	4896.40
382.43	4519.57
382.63	4547.66
382.83	4643.62
383.02	4629.58
383.22	4683.41
383.41	4643.62
383.61	5011.09
383.80	5825.59
384.00	6590.95
384.19	7243.96
384.39	7407.80
384.58	7719.09
384.78	7190.13
384.97	7368.01
385.17	7054.37
385.36	6815.64
385.56	6218.80
385.75	6408.39
385.95	7269.70
386.14	7765.90
386.34	7758.88
386.53	7435.88
386.72	7012.24
386.92	6993.52
387.11	7438.22
387.31	7817.39
387.50	7744.83
387.70	7316.51
387.89	7417.16
388.09	7370.35
388.28	7480.35
388.48	7480.35
388.67	7974.21
388.86	8901.06
389.06	9404.27
389.25	10178.99
389.45	10022.17
389.64	10026.86
389.84	9783.44
390.03	9589.17
390.22	9741.31
390.42	10071.33
390.61	10766.46
390.81	11529.48
391.00	11564.59
391.19	11461.60
391.39	10991.16
391.58	10604.97
391.78	9834.93
391.97	9387.89
392.16	8982.98
392.36	7992.93
392.55	6628.40
392.75	5226.42
392.94	4212.96
393.13	4166.15
393.33	4912.78
393.52	6296.04
393.71	7845.48
393.91	8828.50
394.10	9614.92
394.29	10342.83
394.49	11229.89
394.68	12065.46
394.88	11878.22
395.07	12475.06
395.26	12397.82
395.46	12084.19
395.65	11398.41
395.84	9820.89
396.04	8294.86
396.23	6808.62
396.42	5673.46
396.62	5565.79
396.81	6562.86
397.00	8252.73
397.19	10305.38
397.39	12168.45
397.58	13675.75
397.77	14483.24
397.97	14902.19
398.16	15288.38
398.35	15749.46
398.55	16465.67
398.74	16767.60
398.93	17221.66
399.12	16702.06
399.32	16493.76
399.51	16889.31
399.70	17776.37
399.90	17362.09
400.09	17638.28
400.28	17406.56
400.47	17631.26
400.67	18265.54
400.86	19129.20
401.05	18785.14
401.24	18799.18
401.44	19370.27
401.63	19379.64
401.82	19522.41
402.01	19264.95
402.21	19494.32
402.40	19695.61
402.59	19323.46
402.78	18452.78
402.97	17736.58
403.17	18302.99
403.36	19428.79
403.55	20313.51
403.74	20528.84
403.93	19796.25
404.13	17975.31
404.32	17802.11
404.51	18810.89
404.70	20123.93
404.89	19941.36
405.09	19934.34
405.28	19063.66
405.47	19019.19
405.66	19215.80
405.85	18878.76
406.05	18019.78
406.24	18363.84
406.43	19117.50
406.62	19791.57
406.81	20154.35
407.00	19119.84
407.20	18703.22
407.39	19082.39
407.58	19721.35
407.77	20402.45
407.96	21069.50
408.15	21605.49
408.34	21635.91
408.54	22408.29
408.73	22747.67
408.92	22508.93
409.11	21579.74
409.30	20540.54
409.49	19580.92
409.68	18104.04
409.87	17547.00
410.07	18775.78
410.26	20240.95
410.45	21509.52
410.64	21951.88
410.83	22525.32
411.02	23136.20
411.21	24063.05
411.40	23824.31
411.59	24077.09
411.78	23601.96
411.98	23110.45
412.17	23805.59
412.36	23140.88
412.55	23356.21
412.74	23044.91
412.93	22445.74
413.12	22326.37
413.31	24634.14
413.50	24952.45
413.69	25565.67
413.88	24219.86
414.07	23524.72
414.26	24233.91
414.45	24840.11
414.64	25308.21
414.83	25369.07
415.02	24201.14
415.22	24627.12
415.41	25319.92
415.60	26047.82
415.79	27056.59
415.98	27459.16
416.17	27690.88
416.36	26698.49
416.55	26293.58
416.74	25366.73
416.93	24842.45
417.12	24437.53
417.31	24851.81
417.50	25015.65
417.69	26686.79
417.88	26228.04
418.07	25895.69
418.26	25448.64
418.45	25972.92
418.64	26443.37
418.83	27510.66
419.02	27192.34
419.21	27068.30
419.39	25600.78
419.58	24629.46
419.77	24772.23
419.96	25860.58
420.15	27072.98
420.34	27735.35
420.53	28678.58
420.72	29523.52
420.91	29142.01
421.10	29179.46
421.29	28912.64
421.48	27557.47
421.67	29020.30
421.86	28205.80
422.05	26614.23
422.24	23915.59
422.43	23337.48
422.61	26015.05
422.80	27843.01
422.99	27950.68
423.18	26920.84
423.37	26066.55
423.56	26892.76
423.75	26955.95
423.94	27491.93
424.13	26314.64
424.32	26139.10
424.50	26288.90
424.69	26155.49
424.88	25942.50
425.07	26146.12
425.26	26022.08
425.45	25860.58
425.64	25254.38
425.83	25259.06
426.01	26682.11
426.20	27534.06
426.39	27323.41
426.58	25453.33
426.77	23489.62
426.96	22436.38
427.15	23569.19
427.33	25369.07
427.52	26150.81
427.71	26415.29
427.90	26197.62
428.09	25727.17
428.28	25071.82
428.46	24311.14
428.65	23946.02
428.84	24297.10
429.03	24961.81
429.22	23775.16
429.40	22544.04
429.59	19922.64
429.78	18052.55
429.97	18162.56
430.16	18382.57
430.34	18773.44
430.53	18380.23
430.72	19016.85
430.91	20966.52
431.10	24470.30
431.28	28713.69
431.47	30913.80
431.66	31655.75
431.85	28247.93
432.03	26139.10
432.22	25188.85
432.41	26256.13
432.60	29263.72
432.79	30323.98
432.97	30974.65
433.16	30038.44
433.35	27728.33
433.54	24816.70
433.72	23716.65
433.91	23983.47
434.10	26937.23
434.28	28599.01
434.47	30801.45
434.66	29898.00
434.85	28893.91
435.03	28931.36
435.22	29736.51
435.41	31344.45
435.59	31735.32
435.78	31812.56
435.97	32503.02
436.16	32697.28
436.34	32222.16
436.53	31484.89
436.72	31428.71
436.90	30029.07
437.09	29912.05
437.28	29558.63
437.46	30497.18
437.65	30408.24
437.84	28453.89
438.02	26075.91
438.21	26075.91
438.40	27124.47
438.58	29436.92
438.77	30611.87
438.96	31049.55
439.14	31988.10
439.33	32882.19
439.52	33137.30
439.70	32505.36
439.89	31943.63
440.08	30836.56
440.26	30876.35
440.45	32123.85
440.63	34328.64
440.82	35552.74
441.01	35215.70
441.19	34946.54
441.38	35314.00
441.57	36697.26
441.75	37322.18
441.94	37666.24
442.12	37048.34
442.31	37455.59
442.50	37434.53
442.68	37038.98
442.87	36290.01
443.05	35976.37
443.24	36734.71
443.43	37460.27
443.61	38298.19
443.80	38693.74
443.98	36671.51
444.17	35805.52
444.35	38604.80
444.54	39222.70
444.73	38831.83
444.91	37261.33
445.10	35707.21
445.28	34621.20
445.47	33675.63
445.65	34057.14
445.84	35204.00
446.02	35875.73
446.21	36533.42
446.39	36917.27
446.58	37268.35
446.77	37825.40
446.95	37902.64
447.14	38780.34
447.32	39381.85
447.51	38864.60
447.69	37853.48
447.88	36996.85
448.06	37467.30
448.25	38190.52
448.43	38759.27
448.62	37790.29
448.80	37706.03
448.99	38162.43
449.17	38323.93
449.36	38436.28
449.54	39388.88
449.73	40065.29
449.91	41031.93
450.10	42398.80
450.28	42302.84
450.46	41947.08
450.65	41769.20
450.83	41752.82
451.02	40797.88
451.20	40776.81
451.39	40521.69
451.57	40116.78
451.76	40769.79
451.94	39913.16
452.13	39484.84
452.31	38010.30
452.49	35887.43
452.68	36594.28
452.86	36985.15
453.05	36816.63
453.23	37940.08
453.42	38728.84
453.60	39927.20
453.78	40636.38
453.97	39903.79
454.15	39798.47
454.34	38801.40
454.52	38845.87
454.70	38555.64
454.89	39023.75
455.07	38873.96
455.26	39782.09
455.44	41045.97
455.62	41326.84
455.81	41722.39
455.99	41179.39
456.17	41282.37
456.36	40992.14
456.54	42464.34
456.73	42199.86
456.91	42838.83
457.09	43136.07
457.28	44018.46
457.46	42775.63
457.64	41834.74
457.83	40832.99
458.01	39461.43
458.19	40973.42
458.38	40816.60
458.56	42436.25
458.74	42377.74
458.93	41757.50
459.11	41596.00
459.29	41015.55
459.48	41141.94
459.66	41111.51
459.84	42005.59
460.03	41888.57
460.21	42066.45
460.39	43229.69
460.57	43058.84
460.76	43817.17
460.94	43636.95
461.12	43077.56
461.31	43381.83
461.49	43110.33
461.67	42679.67
461.85	43966.96
462.04	44004.41
462.22	44472.52
462.40	44311.02
462.59	44421.03
462.77	43955.26
462.95	44140.16
463.13	43597.16
463.32	43288.21
463.50	43068.20
463.68	42787.33
463.86	43285.87
464.05	42857.55
464.23	41897.93
464.41	41844.10
464.59	40952.35
464.78	42714.78
464.96	42574.34
465.14	42059.43
465.32	43524.60
465.50	44231.44
465.69	44392.94
465.87	43660.35
466.05	42663.28
466.23	40797.88
466.41	40072.31
466.60	41319.82
466.78	40947.67
466.96	42223.26
467.14	42583.71
467.32	43178.20
467.51	43461.41
467.69	41450.89
467.87	41923.68
468.05	42155.39
468.23	42206.88
468.41	42763.93
468.60	42691.37
468.78	43201.61
468.96	42873.93
469.14	43299.91
469.32	43665.03
469.50	42209.22
469.69	41923.68
469.87	41593.66
470.05	41486.00
470.23	41102.15
470.41	41701.32
470.59	42796.70
470.77	42370.72
470.95	43255.44
471.14	43388.85
471.32	43342.04
471.50	45818.33
471.68	45722.37
471.86	45984.51
472.04	46473.68
472.22	46267.71
472.40	44519.33
472.58	44081.65
472.77	43777.38
472.95	44844.66
473.13	45394.69
473.31	44624.65
473.49	44783.81
473.67	45408.73
473.85	45904.93
474.03	46461.97
474.21	46700.71
474.39	47552.66
474.57	47103.28
474.75	47353.72
474.93	47257.76
475.12	46298.14
475.30	46309.84
475.48	46089.83
475.66	46927.74
475.84	46656.24
476.02	46192.81
476.20	45373.63
476.38	46408.14
476.56	47430.96
476.74	47817.14
476.92	47959.92
477.10	48907.83
477.28	49923.63
477.46	49989.16
477.64	50216.19
477.82	50216.19
478.00	50525.14
478.18	49888.52
478.36	50007.89
478.54	50014.91
478.72	49869.79
478.90	50920.70
479.08	51873.29
479.26	52093.30
479.44	52044.15
479.62	51688.39
479.80	51856.91
479.98	51877.97
480.16	52233.74
480.34	51618.17
480.52	52287.57
480.70	52568.43
480.88	52685.46
481.06	53375.92
481.24	53261.23
481.41	53858.07
481.59	54457.24
481.77	54157.66
481.95	53743.38
482.13	53628.69
482.31	53797.21
482.49	54405.75
482.67	54047.65
482.85	53968.07
483.03	54941.74
483.21	54995.57
483.39	54923.01
483.57	54295.75
483.74	54129.57
483.92	54372.99
484.10	54585.97
484.28	55119.62
484.46	55480.06
484.64	55828.80
484.82	55238.98
485.00	54468.95
485.18	54108.50
485.35	53481.24
485.53	50660.90
485.71	46656.24
485.89	46813.05
486.07	48472.49
486.25	51742.22
486.43	53511.67
486.61	53979.78
486.78	54124.89
486.96	54078.08
487.14	55290.48
487.32	56072.21
487.50	56739.27
487.68	57448.45
487.85	57776.12
488.03	57846.34
488.21	57289.29
488.39	56851.61
488.57	56339.04
488.75	56147.11
488.92	56882.04
489.10	58457.22
489.28	59671.96
489.46	60243.05
489.64	60018.36
489.81	60299.22
489.99	59854.52
490.17	59903.67
490.35	60079.21
490.53	59632.17
490.70	59676.64
490.88	59564.29
491.06	60240.71
491.24	60196.24
491.41	59489.40
491.59	58061.67
491.77	57434.41
491.95	58543.82
492.13	59363.01
492.30	59863.88
492.48	61066.92
492.66	61228.41
492.84	61296.29
493.01	61055.21
493.19	60711.16
493.37	60474.76
493.54	60360.08
493.72	60708.82
493.90	61752.69
494.08	62370.60
494.25	62625.71
494.43	62494.64
494.61	62934.66
494.79	62899.56
494.96	62857.43
495.14	62279.31
495.32	61490.55
495.49	61001.38
495.67	61946.96
495.85	63252.98
496.02	63430.86
496.20	63194.46
496.38	62981.48
496.55	62672.52
496.73	62995.52
496.91	63444.90
497.09	63711.72
497.26	63795.98
497.44	63526.82
497.62	62953.39
497.79	62408.04
497.97	61401.61
498.14	61645.03
498.32	62370.60
498.50	63098.50
498.67	63629.80
498.85	63669.59
499.03	63707.04
499.20	63828.75
499.38	63824.07
499.56	63620.44
499.73	63220.21
499.91	62962.75
500.08	62618.69
500.26	61986.75
500.44	62298.04
500.61	63032.97
500.79	62876.15
500.97	62604.65
501.14	62209.10
501.32	62248.89
501.49	62255.91
501.67	62389.32
501.84	62953.39
502.02	63114.89
502.20	63475.33
502.37	63477.67
502.55	63639.17
502.72	64062.80
502.90	64446.65
503.07	64336.65
503.25	63805.34
503.43	63061.05
503.60	62583.58
503.78	62052.28
503.95	62403.36
504.13	63655.55
504.30	64240.68
504.48	63955.14
504.65	63849.81
504.83	63690.66
505.01	64507.50
505.18	64549.63
505.36	65305.63
505.53	65240.09
505.71	65453.08
505.88	65380.52
506.06	64956.89
506.23	64589.42
506.41	64282.81
506.58	64381.12
506.76	64355.37
506.93	64381.12
507.11	64257.07
507.28	64535.59
507.46	64053.44
507.63	63437.88
507.81	63238.93
507.98	63508.10
508.16	64217.28
508.33	64594.10
508.50	64879.65
508.68	65162.85
508.85	65535.00
509.03	65490.53
509.20	65535.00
509.38	64748.58
509.55	64121.32
509.73	64226.64
509.90	64603.47
510.08	64816.46
510.25	64633.89
510.42	64587.08
510.60	64512.19
510.77	64870.29
510.95	65343.08
511.12	65401.59
511.30	65535.00
511.47	65535.00
511.64	65535.00
511.82	65535.00
511.99	64928.80
512.17	64502.82
512.34	64205.58
512.51	64392.82
512.69	64374.09
512.86	64708.79
513.04	64956.89
513.21	65031.78
513.38	64647.94
513.56	64172.81
513.73	63660.23
513.90	63877.90
514.08	64037.06
514.25	64257.07
514.43	64254.73
514.60	64338.99
514.77	64727.52
514.95	64661.98
515.12	64580.06
515.29	64718.15
515.47	65160.51
515.64	65188.60
515.81	65071.57
515.99	64467.72
516.16	63480.01
516.33	61291.61
516.51	60128.36
516.68	59510.46
516.85	59131.29
517.03	59657.91
517.20	61806.53
517.37	63901.31
517.54	64715.81
517.72	64324.94
517.89	62216.12
518.06	60329.65
518.24	60441.99
518.41	62426.77
518.58	63512.78
518.75	63781.94
518.93	63852.15
519.10	63627.46
519.27	64147.06
519.45	64233.66
519.62	64870.29
519.79	65237.75
519.96	64980.29
520.14	64563.68
520.31	63875.56
520.48	63971.52
520.65	64303.88
520.83	64975.61
521.00	65394.57
521.17	65064.55
521.34	64474.74
521.52	64921.78
521.69	65490.53
521.86	65535.00
522.03	65446.06
522.20	64371.75
522.38	63678.96
522.55	63456.60
522.72	64128.34
522.89	64287.49
523.07	64346.01
523.24	64570.70
523.41	65345.42
523.58	65535.00
523.75	65535.00
523.92	65535.00
524.10	65535.00
524.27	65535.00
524.44	65535.00
524.61	65535.00
524.78	65483.51
524.96	65223.71
525.13	65261.16
525.30	65535.00
525.47	65535.00
525.64	65535.00
525.81	65350.10
525.98	64055.78
526.16	62789.55
526.33	62155.27
526.50	61949.30
526.67	61687.16
526.84	62218.46
527.01	63178.08
527.18	63716.40
527.36	64463.03
527.53	65249.45
527.70	65373.50
527.87	64786.03
528.04	64418.56
528.21	65050.51
528.38	65535.00
528.55	65535.00
528.72	65535.00
528.89	65535.00
529.07	65535.00
529.24	65535.00
529.41	65200.30
529.58	64456.01
529.75	64577.72
529.92	65041.15
530.09	65375.84
530.26	65535.00
530.43	65535.00
530.60	65535.00
530.77	65535.00
530.94	65535.00
531.11	65535.00
531.28	65535.00
531.46	65497.55
531.63	65535.00
531.80	65535.00
531.97	65204.98
532.14	64383.46
532.31	63718.74
532.48	63168.72
532.65	63255.32
532.82	63910.67
532.99	64872.63
533.16	65120.73
533.33	65535.00
533.50	65518.62
533.67	64982.63
533.84	64495.80
534.01	64722.83
534.18	64933.48
534.35	65045.83
534.52	64877.31
534.69	65223.71
534.86	65535.00
535.03	65535.00
535.20	65535.00
535.37	65535.00
535.54	65535.00
535.71	65535.00
535.88	65535.00
536.05	65139.45
536.22	64788.37
536.38	64615.17
536.55	64053.44
536.72	63800.66
536.89	63910.67
537.06	64519.21
537.23	65043.49
537.40	65291.58
537.57	65279.88
537.74	65272.86
537.91	65066.89
538.08	65045.83
538.25	65162.85
538.42	65279.88
538.59	65141.79
538.75	64699.43
538.92	64390.48
539.09	64280.47
539.26	64001.95
539.43	63969.18
539.60	63889.60
539.77	64399.84
539.94	64030.04
540.11	63252.98
540.28	62976.79
540.44	63295.11
540.61	63128.93
540.78	63339.58
540.95	63730.45
541.12	64118.98
541.29	64287.49
541.46	64769.64
541.62	64779.01
541.79	64619.85
541.96	63955.14
542.13	64023.01
542.30	64184.51
542.47	64397.50
542.63	64175.15
542.80	64058.12
542.97	64254.73
543.14	64025.35
543.31	64126.00
543.48	64402.18
543.64	65148.81
543.81	65535.00
543.98	65228.39
544.15	64725.17
544.32	64090.89
544.48	64317.92
544.65	64577.72
544.82	64961.57
544.99	64432.61
545.16	64278.13
545.32	63985.57
545.49	64678.36
545.66	65202.64
545.83	64755.60
546.00	64425.59
546.16	64245.36
546.33	64299.20
546.50	64219.62
546.67	64729.86
546.83	64158.76
547.00	64217.28
547.17	63714.06
547.34	63220.21
547.50	63166.38
547.67	63599.38
547.84	63702.36
548.00	64093.23
548.17	64521.55
548.34	64301.54
548.51	64334.31
548.67	64355.37
548.84	64376.43
549.01	64214.94
549.18	64198.55
549.34	64324.94
549.51	64231.32
549.68	64123.66
549.84	63920.03
550.01	63952.80
550.18	63702.36
550.34	63849.81
550.51	64102.59
550.68	64118.98
550.84	63646.19
551.01	63646.19
551.18	63690.66
551.34	63866.20
551.51	64039.40
551.68	64427.93
551.84	64271.11
552.01	64198.55
552.18	64140.04
552.34	63379.37
552.51	63168.72
552.68	62995.52
552.84	63484.69
553.01	63753.85
553.18	63671.93
553.34	63590.01
553.51	63898.97
553.67	63913.01
553.84	64076.85
554.01	63945.78
554.17	63798.32
554.34	63868.54
554.51	64137.70
554.67	64324.94
554.84	64102.59
555.00	63807.68
555.17	63639.17
555.33	63732.79
555.50	63496.39
555.67	63622.78
555.83	63428.52
556.00	63206.17
556.16	63231.91
556.33	62922.96
556.50	62555.50
556.66	62794.23
556.83	62541.45
556.99	62686.57
557.16	62681.89
557.32	63011.90
557.49	63241.28
557.65	63173.40
557.82	63384.05
557.98	62979.14
558.15	62511.03
558.32	61780.78
558.48	60996.70
558.65	61502.26
558.81	61750.35
558.98	62120.16
559.14	62202.08
559.31	62255.91
559.47	62286.34
559.64	61776.10
559.80	61567.79
559.97	61670.78
560.13	62028.88
560.30	62770.83
560.46	63325.53
560.63	63622.78
560.79	63512.78
560.96	62885.51
561.12	62192.72
561.29	61457.79
561.45	61422.68
561.61	61874.40
561.78	62480.60
561.94	62415.07
562.11	62115.48
562.27	62003.13
562.44	62258.25
562.60	62433.79
562.77	62763.81
562.93	62674.87
563.10	62724.02
563.26	62040.58
563.42	62052.28
563.59	61874.40
563.75	61890.79
563.92	62155.27
564.08	61921.21
564.24	62206.76
564.41	62232.50
564.57	62248.89
564.74	61722.27
564.90	61712.91
565.07	61827.59
565.23	61380.55
565.39	61069.26
565.56	60860.95
565.72	60697.11
565.88	60992.02
566.05	61134.79
566.21	61317.35
566.38	61385.23
566.54	61265.86
566.70	61883.76
566.87	61970.36
567.03	62012.49
567.19	62082.71
567.36	61886.10
567.52	61719.93
567.68	61530.34
567.85	61104.37
568.01	60842.23
568.17	60596.47
568.34	60479.44
568.50	60327.31
568.66	60554.34
568.83	60842.23
568.99	60924.14
569.15	60942.87
569.32	60940.53
569.48	60779.03
569.64	60608.17
569.81	60463.06
569.97	60336.67
570.13	60264.11
570.30	59994.95
570.46	59583.02
570.62	59339.60
570.78	59171.08
570.95	59473.01
571.11	59969.21
571.27	60074.53
571.43	60179.85
571.60	60526.25
571.76	60479.44
571.92	60921.80
572.09	60996.70
572.25	60781.37
572.41	61013.08
572.57	60692.43
572.74	60739.24
572.90	60397.52
573.06	60353.05
573.22	60617.53
573.38	60498.17
573.55	60292.20
573.71	60416.25
573.87	60329.65
574.03	60151.77
574.20	60301.56
574.36	59924.74
574.52	59927.08
574.68	59833.46
574.84	59470.67
575.01	59110.23
575.17	58951.07
575.33	59360.67
575.49	59475.35
575.65	59714.09
575.82	59398.12
575.98	59309.18
576.14	59423.86
576.30	59781.96
576.46	59992.61
576.62	59756.22
576.79	59744.51
576.95	59388.75
577.11	59416.84
577.27	59498.76
577.43	59648.55
577.59	59117.25
577.75	58967.46
577.92	58335.51
578.08	58115.50
578.24	58244.23
578.40	58607.01
578.56	58700.64
578.72	58808.30
578.88	58761.49
579.04	58859.79
579.21	59171.08
579.37	59157.04
579.53	59208.53
579.69	59203.85
579.85	59379.39
580.01	59082.14
580.17	58834.05
580.33	58719.36
580.49	58829.37
580.65	59133.63
580.82	59262.36
580.98	59201.51
581.14	58791.92
581.30	59192.15
581.46	58995.54
581.62	59360.67
581.78	59147.68
581.94	59374.71
582.10	59341.94
582.26	59384.07
582.42	59086.82
582.58	59442.59
582.74	59196.83
582.90	59379.39
583.06	59311.52
583.22	59126.61
583.38	59166.40
583.54	58859.79
583.70	58927.67
583.86	59040.01
584.02	58862.13
584.18	58913.62
584.34	58913.62
584.50	58831.71
584.66	58822.34
584.82	58501.69
584.98	58450.20
