SpectraSuite Data File
++++++++++++++++++++++++++++++++++++
Date: Mon Oct 07 14:53:40 GMT-05:00 2013
User: price-jones
Dark Spectrum Present: No
Reference Spectrum Present: No
Number of Sampled Component Spectra: 1
Spectrometers: USB2+H05261
Integration Time (usec): 100000 (USB2+H05261)
Spectra Averaged: 1 (USB2+H05261)
Boxcar Smoothing: 0 (USB2+H05261)
Correct for Electrical Dark: No (USB2+H05261)
Strobe/Lamp Enabled: No (USB2+H05261)
Correct for Detector Non-linearity: No (USB2+H05261)
Correct for Stray Light: No (USB2+H05261)
Number of Pixels in Processed Spectrum: 2048
>>>>>Begin Processed Spectral Data<<<<<
365.73	0.00
365.92	0.00
366.12	0.00
366.32	0.00
366.52	0.00
366.72	0.00
366.91	0.00
367.11	0.00
367.31	0.00
367.51	0.00
367.70	0.00
367.90	0.00
368.10	0.00
368.30	0.00
368.49	0.00
368.69	0.00
368.89	0.00
369.09	0.00
369.28	0.00
369.48	0.00
369.68	0.00
369.87	0.00
370.07	0.00
370.27	0.00
370.47	521.94
370.66	2682.25
370.86	3115.25
371.06	3440.59
371.25	3583.36
371.45	3014.61
371.65	2796.94
371.84	2752.47
372.04	2829.71
372.24	3141.00
372.44	3293.13
372.63	3398.46
372.83	3070.78
373.03	2740.77
373.22	2539.48
373.42	2609.70
373.62	2967.80
373.81	3152.70
374.01	3234.62
374.21	3040.36
374.40	2640.12
374.60	2822.69
374.79	3070.78
374.99	3602.08
375.19	3929.76
375.38	3943.80
375.58	3819.75
375.78	3674.64
375.97	3786.99
376.17	3899.33
376.37	4011.68
376.56	4098.28
376.76	4201.26
376.95	4418.93
377.15	4837.89
377.35	5013.43
377.54	5455.79
377.74	5397.28
377.93	5448.77
378.13	5249.82
378.33	5109.39
378.52	4730.22
378.72	4430.63
378.91	4332.33
379.11	4114.66
379.31	4091.26
379.50	3868.91
379.70	4320.63
379.89	4748.95
380.09	4936.19
380.28	5284.93
380.48	5226.42
380.68	5186.63
380.87	5074.28
381.07	4828.53
381.26	4393.19
381.46	4042.11
381.65	3971.89
381.85	3871.25
382.04	3658.26
382.24	3482.72
382.43	3318.88
382.63	3183.13
382.83	3148.02
383.02	3112.91
383.22	3206.53
383.41	3428.88
383.61	3461.65
383.80	3913.38
384.00	4472.76
384.19	4950.23
384.39	5313.02
384.58	5287.27
384.78	5310.68
384.97	5060.24
385.17	4978.32
385.36	4566.39
385.56	4367.44
385.75	4411.91
385.95	4973.64
386.14	5488.56
386.34	5600.90
386.53	5118.75
386.72	4840.23
386.92	4959.60
387.11	5135.14
387.31	5294.29
387.50	5322.38
387.70	5203.01
387.89	5125.77
388.09	5153.86
388.28	5151.52
388.48	5240.46
388.67	5598.56
388.86	6120.50
389.06	6506.69
389.25	7180.76
389.45	6876.49
389.64	7148.00
389.84	7129.27
390.03	6796.92
390.22	6766.49
390.42	7204.17
390.61	7531.84
390.81	7911.01
391.00	8184.85
391.19	8149.75
391.39	7880.58
391.58	7370.35
391.78	6960.75
391.97	6815.64
392.16	6401.37
392.36	5813.89
392.55	4521.92
392.75	3705.07
392.94	2986.52
393.13	3005.25
393.33	3433.57
393.52	4440.00
393.71	5614.95
393.91	6232.85
394.10	6497.33
394.29	7213.53
394.49	7985.91
394.68	8608.49
394.88	8634.24
395.07	9156.18
395.26	8861.27
395.46	8540.61
395.65	8037.40
395.84	7218.21
396.04	6036.24
396.23	4819.16
396.42	4049.13
396.62	3901.67
396.81	4458.72
397.00	5785.80
397.19	7176.08
397.39	8741.90
397.58	9610.24
397.77	10106.43
397.97	10710.29
398.16	10862.43
398.35	11276.70
398.55	11508.41
398.74	12149.72
398.93	12226.96
399.12	12107.59
399.32	11426.50
399.51	11840.77
399.70	12561.66
399.90	12411.86
400.09	12601.44
400.28	12554.63
400.47	12587.40
400.67	13385.52
400.86	13516.59
401.05	13511.91
401.24	13621.92
401.44	13610.22
401.63	13891.08
401.82	14244.50
402.01	14033.85
402.21	13858.31
402.40	14094.71
402.59	13549.36
402.78	12858.90
402.97	12788.69
403.17	13282.54
403.36	13895.76
403.55	14668.14
403.74	14876.44
403.93	14209.39
404.13	13294.24
404.32	12688.04
404.51	13284.88
404.70	14239.82
404.89	14562.81
405.09	14300.67
405.28	13635.96
405.47	13713.20
405.66	13703.84
405.85	13275.52
406.05	12847.20
406.24	12901.03
406.43	13598.51
406.62	14263.22
406.81	14368.55
407.00	13802.14
407.20	13284.88
407.39	13710.86
407.58	14356.85
407.77	14967.73
407.96	15435.83
408.15	15363.28
408.34	15445.20
408.54	16250.34
408.73	16376.73
408.92	16175.44
409.11	15805.64
409.30	14923.26
409.49	13991.72
409.68	13193.60
409.87	12800.39
410.07	13497.87
410.26	14555.79
410.45	15552.86
410.64	16081.82
410.83	16374.39
411.02	16645.89
411.21	17359.75
411.40	17397.20
411.59	17418.27
411.78	17415.93
411.98	16842.50
412.17	17422.95
412.36	16812.07
412.55	16922.07
412.74	16613.12
412.93	16037.35
413.12	16430.56
413.31	17937.87
413.50	18139.15
413.69	18724.29
413.88	17792.75
414.07	17179.53
414.26	17348.05
414.45	18064.25
414.64	18185.96
414.83	17949.57
415.02	17837.22
415.22	17844.24
415.41	18305.33
415.60	18508.96
415.79	19683.91
415.98	20273.72
416.17	20215.21
416.36	19176.01
416.55	19459.21
416.74	18602.58
416.93	18221.07
417.12	18019.78
417.31	18525.34
417.50	18342.78
417.69	19389.00
417.88	18944.30
418.07	18998.13
418.26	18625.98
418.45	18888.12
418.64	19623.05
418.83	20086.48
419.02	19878.17
419.21	19742.42
419.39	18883.44
419.58	18162.56
419.77	18073.62
419.96	19087.07
420.15	19871.15
420.34	20294.79
420.53	21315.26
420.72	21472.07
420.91	21572.72
421.10	21226.32
421.29	21109.29
421.48	20049.03
421.67	21200.57
421.86	20657.57
422.05	19360.91
422.24	17266.13
422.43	17027.40
422.61	18841.31
422.80	20409.47
422.99	20393.09
423.18	19803.27
423.37	19393.68
423.56	19548.15
423.75	19733.06
423.94	20004.56
424.13	19033.24
424.32	19056.64
424.50	19215.80
424.69	19042.60
424.88	19126.86
425.07	18984.09
425.26	18967.70
425.45	19115.16
425.64	18448.10
425.83	18740.67
426.01	19363.25
426.20	20119.24
426.39	20032.65
426.58	18766.42
426.77	17270.81
426.96	16468.01
427.15	17329.33
427.33	18441.08
427.52	19234.52
427.71	19278.99
427.90	19283.67
428.09	19185.37
428.28	18623.64
428.46	18284.26
428.65	17469.76
428.84	17958.93
429.03	18527.68
429.22	17181.87
429.40	16744.19
429.59	14960.70
429.78	13179.56
429.97	13298.92
430.16	13589.15
430.34	13708.52
430.53	13415.95
430.72	13764.69
430.91	15286.04
431.10	17869.99
431.28	20980.56
431.47	23033.21
431.66	23274.29
431.85	21198.23
432.03	19377.30
432.22	18576.83
432.41	19171.33
432.60	21443.99
432.79	22780.43
432.97	22817.88
433.16	22377.86
433.35	20868.22
433.54	18242.14
433.72	17205.28
433.91	17820.84
434.10	19983.49
434.28	21371.43
434.47	22492.55
434.66	22059.55
434.85	21394.84
435.03	21261.43
435.22	21900.39
435.41	22906.82
435.59	23096.41
435.78	23555.15
435.97	24311.14
436.16	24491.37
436.34	24009.22
436.53	23498.98
436.72	23417.06
436.90	22569.79
437.09	22616.60
437.28	21561.02
437.46	22532.34
437.65	22703.20
437.84	21231.00
438.02	19325.80
438.21	19470.92
438.40	20430.54
438.58	21748.26
438.77	22684.47
438.96	23068.32
439.14	23833.68
439.33	24002.19
439.52	24755.85
439.70	23756.44
439.89	23510.68
440.08	22801.50
440.26	22852.99
440.45	23590.26
440.63	25163.10
440.82	26384.86
441.01	26312.30
441.19	25968.24
441.38	26417.63
441.57	26965.31
441.75	27990.47
441.94	27665.13
442.12	27496.61
442.31	28519.43
442.50	28383.68
442.68	27843.01
442.87	27388.95
443.05	26913.82
443.24	27243.84
443.43	27985.79
443.61	28531.13
443.80	28741.78
443.98	27559.81
444.17	26993.40
444.35	28786.25
444.54	29186.48
444.73	28673.90
444.91	27681.52
445.10	26558.06
445.28	25778.66
445.47	25212.25
445.65	25572.69
445.84	25986.97
446.02	27136.17
446.21	27035.53
446.39	27239.15
446.58	27917.91
446.77	28430.49
446.95	28301.76
447.14	29294.14
447.32	29731.83
447.51	28769.86
447.69	28322.82
447.88	27906.21
448.06	28144.94
448.25	28840.08
448.43	29027.32
448.62	28507.72
448.80	28299.42
448.99	28877.53
449.17	28474.96
449.36	28835.40
449.54	29553.94
449.73	30272.49
449.91	30553.35
450.10	31791.50
450.28	31814.90
450.46	32079.38
450.65	31924.91
450.83	31571.49
451.02	30815.49
451.20	30588.46
451.39	30794.43
451.57	30553.35
451.76	30185.89
451.94	30019.71
452.13	30029.07
452.31	28126.22
452.49	26923.18
452.68	27276.60
452.86	27325.75
453.05	27908.55
453.23	28582.62
453.42	29347.98
453.60	30082.91
453.78	30494.84
453.97	29614.80
454.15	29816.08
454.34	29310.53
454.52	29390.11
454.70	28863.49
454.89	28933.70
455.07	29607.78
455.26	29745.87
455.44	30974.65
455.62	31283.60
455.81	31630.00
455.99	31388.92
456.17	30948.90
456.36	31260.20
456.54	31751.71
456.73	32039.59
456.91	32418.76
457.09	32826.01
457.28	33216.88
457.46	31758.73
457.64	31988.10
457.83	30637.61
458.01	30026.73
458.19	30595.48
458.38	30532.29
458.56	32252.58
458.74	32095.77
458.93	31290.62
459.11	31058.91
459.29	31129.12
459.48	31089.34
459.66	31271.90
459.84	31344.45
460.03	32128.53
460.21	31866.39
460.39	32596.64
460.57	32926.66
460.76	33064.75
460.94	33113.90
461.12	32858.78
461.31	32610.68
461.49	32524.08
461.67	32748.78
461.85	33787.97
462.04	33631.16
462.22	33532.86
462.40	33050.70
462.59	33326.89
462.77	33605.41
462.95	33570.30
463.13	33041.34
463.32	32989.85
463.50	32371.95
463.68	32322.80
463.86	32409.40
464.05	32388.33
464.23	31534.04
464.41	31445.10
464.59	30710.17
464.78	32346.20
464.96	32325.14
465.14	31669.79
465.32	32877.51
465.50	33596.05
465.69	33853.51
465.87	33343.27
466.05	32374.29
466.23	30937.20
466.41	30368.45
466.60	30972.31
466.78	31187.64
466.96	31637.02
467.14	32240.88
467.32	32737.07
467.51	32884.53
467.69	31356.16
467.87	32016.19
468.05	32362.59
468.23	32545.15
468.41	32587.28
468.60	32554.51
468.78	32882.19
468.96	32362.59
469.14	33708.40
469.32	32924.32
469.50	32126.19
469.69	32287.69
469.87	31477.86
470.05	31601.91
470.23	31262.54
470.41	31957.67
470.59	32147.26
470.77	32465.57
470.95	33268.37
471.14	32968.79
471.32	33184.12
471.50	35070.59
471.68	35175.91
471.86	35496.56
472.04	35597.21
472.22	35901.48
472.40	33738.82
472.58	33436.89
472.77	33141.99
472.95	33930.75
473.13	34813.13
473.31	34235.02
473.49	33883.94
473.67	34881.00
473.85	34834.19
474.03	36055.95
474.21	36070.00
474.39	36507.68
474.57	36414.05
474.75	36568.53
474.93	36201.07
475.12	35225.06
475.30	35548.06
475.48	35648.70
475.66	36233.83
475.84	35835.94
476.02	35831.26
476.20	34890.37
476.38	35751.68
476.56	36587.25
476.74	37242.60
476.92	37380.70
477.10	37804.33
477.28	38745.23
477.46	39037.80
477.64	39845.28
477.82	39578.46
478.00	39622.93
478.18	38993.32
478.36	38906.73
478.54	38880.98
478.72	38911.41
478.90	40128.48
479.08	41123.21
479.26	41612.38
479.44	41516.42
479.62	40837.67
479.80	41247.26
479.98	41406.42
480.16	41696.64
480.34	41228.54
480.52	41930.70
480.70	41975.17
480.88	42431.57
481.06	42684.35
481.24	43058.84
481.41	43906.11
481.59	44580.18
481.77	44268.89
481.95	43826.53
482.13	43494.18
482.31	43896.75
482.49	44797.85
482.67	44081.65
482.85	44385.92
483.03	45137.23
483.21	45537.46
483.39	45106.80
483.57	44577.84
483.74	44219.74
483.92	44690.19
484.10	44919.56
484.28	45804.28
484.46	46043.02
484.64	46986.25
484.82	46057.06
485.00	45287.03
485.18	44149.53
485.35	43112.67
485.53	40065.29
485.71	36662.15
485.89	35882.75
486.07	37860.51
486.25	40863.41
486.43	43290.55
486.61	44341.45
486.78	43981.01
486.96	44292.30
487.14	46157.70
487.32	46806.03
487.50	48105.03
487.68	48458.45
487.85	49514.03
488.03	49242.53
488.21	48856.34
488.39	48126.10
488.57	47524.58
488.75	47283.50
488.92	48350.79
489.10	50780.26
489.28	52149.48
489.46	52640.99
489.64	52498.22
489.81	52680.78
489.99	52383.53
490.17	52413.96
490.35	52687.80
490.53	52032.45
490.70	51856.91
490.88	51496.47
491.06	52774.40
491.24	52858.66
491.41	51679.03
491.59	50110.87
491.77	49385.30
491.95	50150.66
492.13	51704.77
492.30	53015.47
492.48	53951.69
492.66	54410.43
492.84	54178.72
493.01	53970.41
493.19	53336.13
493.37	52982.71
493.54	53064.63
493.72	53401.66
493.90	54405.75
494.08	55463.67
494.25	55547.93
494.43	55519.85
494.61	56097.96
494.79	56275.84
494.96	55679.00
495.14	55334.95
495.32	54412.77
495.49	53502.31
495.67	54532.14
495.85	56203.28
496.02	56385.85
496.20	56423.29
496.38	56058.17
496.55	55941.14
496.73	56275.84
496.91	56507.55
497.09	57132.48
497.26	57322.06
497.44	57017.79
497.62	56193.92
497.79	55468.36
497.97	54267.66
498.14	54389.37
498.32	55356.01
498.50	56257.12
498.67	56860.97
498.85	56774.37
499.03	56914.81
499.20	57059.92
499.38	57190.99
499.56	57146.52
499.73	56472.45
499.91	56212.65
500.08	55599.43
500.26	54941.74
500.44	55400.48
500.61	56114.34
500.79	56165.84
500.97	55545.59
501.14	55086.85
501.32	55128.98
501.49	55323.24
501.67	55515.17
501.84	56217.33
502.02	56322.65
502.20	56664.37
502.37	56788.42
502.55	56853.95
502.72	57298.65
502.90	57928.26
503.07	57708.25
503.25	56947.57
503.43	56444.36
503.60	55622.83
503.78	55030.68
503.95	55168.77
504.13	56935.87
504.30	57623.99
504.48	57457.81
504.65	57134.82
504.83	57258.87
505.01	57584.20
505.18	58031.24
505.36	58443.18
505.53	58721.70
505.71	58920.65
505.88	58890.22
506.06	58480.63
506.23	57820.59
506.41	57790.17
506.58	57834.64
506.76	57879.11
506.93	57738.68
507.11	57499.94
507.28	57605.26
507.46	57176.95
507.63	56612.88
507.81	56521.60
507.98	56821.19
508.16	57382.91
508.33	57904.85
508.50	58213.80
508.68	58548.50
508.85	59009.59
509.03	59206.19
509.20	58852.77
509.38	58347.21
509.55	57638.03
509.73	57403.98
509.90	58124.86
510.08	58403.39
510.25	58101.46
510.42	57989.11
510.60	57904.85
510.77	58372.96
510.95	58812.98
511.12	58951.07
511.30	59231.94
511.47	59538.55
511.64	59391.09
511.82	59040.01
511.99	58438.50
512.17	57792.51
512.34	57666.12
512.51	57719.95
512.69	57696.55
512.86	58080.39
513.04	58429.13
513.21	58375.30
513.38	58124.86
513.56	57607.61
513.73	56814.16
513.90	57186.31
514.08	57214.40
514.25	57579.52
514.43	57848.68
514.60	57799.53
514.77	58230.19
514.95	58026.56
515.12	58017.20
515.29	58108.48
515.47	58827.02
515.64	59044.69
515.81	58387.00
515.99	57944.64
516.16	56619.90
516.33	54347.24
516.51	52935.90
516.68	52215.01
516.85	51875.63
517.03	51959.89
517.20	54759.17
517.37	57069.28
517.54	58262.96
517.72	57883.79
517.89	55430.91
518.06	52678.44
518.24	53169.95
518.41	55400.48
518.58	56797.78
518.75	57083.33
518.93	57144.18
519.10	56868.00
519.27	57441.43
519.45	57677.82
519.62	58342.53
519.79	58775.53
519.96	58527.44
520.14	58064.01
520.31	57315.04
520.48	57045.88
520.65	57593.56
520.83	58717.02
521.00	58915.96
521.17	58588.29
521.34	57977.41
521.52	58314.45
521.69	59037.67
521.86	59416.84
522.03	59306.83
522.20	58066.35
522.38	57015.45
522.55	57059.92
522.72	57694.21
522.89	57638.03
523.07	57769.10
523.24	58284.02
523.41	58908.94
523.58	59412.16
523.75	59707.07
523.92	59657.91
524.10	59440.24
524.27	59433.22
524.44	59435.56
524.61	59194.49
524.78	58993.20
524.96	58983.84
525.13	58866.81
525.30	59044.69
525.47	59704.73
525.64	59451.95
525.81	58761.49
525.98	57698.89
526.16	56100.30
526.33	55580.70
526.50	55035.36
526.67	54597.68
526.84	55543.25
527.01	56526.28
527.18	56963.96
527.36	57869.75
527.53	58925.33
527.70	59234.28
527.87	58658.51
528.04	58099.12
528.21	58478.28
528.38	59208.53
528.55	59980.91
528.72	59973.89
528.89	60170.49
529.07	59952.82
529.24	59355.99
529.41	58789.58
529.58	58265.30
529.75	58262.96
529.92	58384.66
530.09	59082.14
530.26	59683.66
530.43	59828.77
530.60	59793.67
530.77	60067.51
530.94	60163.47
531.11	59728.13
531.28	59178.10
531.46	59159.38
531.63	59245.98
531.80	59112.57
531.97	58681.91
532.14	57921.24
532.31	57134.82
532.48	56493.51
532.65	56275.84
532.82	57073.96
532.99	58342.53
533.16	58775.53
533.33	59147.68
533.50	59234.28
533.67	58478.28
533.84	58206.78
534.01	58206.78
534.18	58377.64
534.35	58646.80
534.52	58604.67
534.69	58887.88
534.86	59140.66
535.03	59182.79
535.20	59585.36
535.37	60219.64
535.54	60221.98
535.71	59903.67
535.88	59428.54
536.05	58894.90
536.22	58419.77
536.38	58262.96
536.55	57684.84
536.72	57183.97
536.89	57031.83
537.06	57822.93
537.23	58913.62
537.40	58967.46
537.57	59025.97
537.74	58831.71
537.91	58946.39
538.08	58733.40
538.25	58820.00
538.42	58946.39
538.59	58749.79
538.75	58412.75
538.92	58028.90
539.09	57602.92
539.26	57755.06
539.43	57670.80
539.60	57382.91
539.77	57783.15
539.94	57722.29
540.11	56662.03
540.28	56196.26
540.44	56229.03
540.61	56545.00
540.78	56839.91
540.95	57251.84
541.12	57794.85
541.29	57914.22
541.46	58337.85
541.62	58375.30
541.79	58171.67
541.96	57331.42
542.13	57453.13
542.30	57855.70
542.47	58202.10
542.63	57776.12
542.80	57361.85
542.97	57790.17
543.14	57499.94
543.31	57436.75
543.48	57968.05
543.64	58782.55
543.81	59199.17
543.98	58894.90
544.15	58319.13
544.32	57481.22
544.48	57832.30
544.65	58019.54
544.82	58494.67
544.99	58138.91
545.16	58014.86
545.32	57818.25
545.49	58356.58
545.66	59018.95
545.83	58473.60
546.00	58183.38
546.16	57717.61
546.33	57642.71
546.50	57673.14
546.67	58092.10
546.83	57923.58
547.00	57989.11
547.17	57418.02
547.34	56474.79
547.50	56666.71
547.67	57293.97
547.84	57429.72
548.00	57675.48
548.17	57909.53
548.34	57769.10
548.51	57677.82
548.67	57598.24
548.84	57958.69
549.01	57890.81
549.18	57961.03
549.34	57841.66
549.51	57513.98
549.68	57813.57
549.84	57457.81
550.01	57202.69
550.18	57338.44
550.34	57352.49
550.51	57532.71
550.68	57448.45
550.84	57172.27
551.01	57118.43
551.18	57059.92
551.34	57198.01
551.51	57750.38
551.68	57855.70
551.84	57820.59
552.01	57675.48
552.18	57602.92
552.34	56891.40
552.51	56444.36
552.68	56371.80
552.84	56914.81
553.01	57148.86
553.18	57024.81
553.34	57113.75
553.51	57258.87
553.67	57516.32
553.84	57778.46
554.01	57432.07
554.17	56996.73
554.34	57492.92
554.51	57612.29
554.67	57764.42
554.84	57518.67
555.00	57467.17
555.17	57132.48
555.33	56931.19
555.50	56825.87
555.67	57088.01
555.83	56846.93
556.00	56626.92
556.16	56573.09
556.33	56308.61
556.50	56086.26
556.66	56236.05
556.83	55955.19
556.99	55938.80
557.16	56165.84
557.32	56523.94
557.49	56750.97
557.65	56451.38
557.82	56633.94
557.98	56451.38
558.15	56023.06
558.32	55014.29
558.48	54171.70
558.65	54258.30
558.81	54747.47
558.98	55334.95
559.14	55475.38
559.31	55461.33
559.47	55463.67
559.64	55344.31
559.80	54721.72
559.97	54899.61
560.13	55627.51
560.30	56072.21
560.46	56690.12
560.63	57071.62
560.79	56772.03
560.96	56577.77
561.12	55327.92
561.29	54808.32
561.45	54497.03
561.61	55150.04
561.78	55409.84
561.94	55653.26
562.11	55363.03
562.27	55178.13
562.44	55068.12
562.60	55772.63
562.77	55835.82
562.93	56128.39
563.10	55774.97
563.26	55278.77
563.42	55295.16
563.59	55117.28
563.75	55180.47
563.92	55227.28
564.08	55124.30
564.24	55583.04
564.41	55454.31
564.57	55447.29
564.74	55025.99
564.90	54955.78
565.07	55068.12
565.23	54642.15
565.39	53729.34
565.56	53893.18
565.72	53558.48
565.88	53867.43
566.05	54038.29
566.21	54241.92
566.38	54326.17
566.54	54543.84
566.70	55206.22
566.87	55246.00
567.03	55168.77
567.19	55395.80
567.36	54981.52
567.52	55201.53
567.68	54775.56
567.85	54092.12
568.01	53518.69
568.17	53076.33
568.34	53151.23
568.50	53338.47
568.66	53616.99
568.83	53883.81
568.99	53783.17
569.15	54031.27
569.32	54127.23
569.48	53855.73
569.64	53565.50
569.81	53312.72
569.97	53298.68
570.13	53284.64
570.30	52523.96
570.46	52158.84
570.62	51473.06
570.78	51611.15
570.95	51583.07
571.11	52509.92
571.27	52996.75
571.43	52975.69
571.60	53148.88
571.76	53415.71
571.92	53736.36
572.09	53939.99
572.25	54138.93
572.41	53804.24
572.57	53801.89
572.74	53820.62
572.90	53347.83
573.06	53401.66
573.22	53336.13
573.38	53354.85
573.55	53368.90
573.71	53506.99
573.87	53434.43
574.03	52992.07
574.20	53010.79
574.36	52605.88
574.52	52669.08
574.68	52591.84
574.84	52320.34
575.01	51765.63
575.17	51767.97
575.33	51789.03
575.49	52144.80
575.65	52811.85
575.82	52278.21
575.98	52004.36
576.14	52397.57
576.30	52355.44
576.46	52545.03
576.62	52315.65
576.79	52264.16
576.95	52032.45
577.11	52219.69
577.27	51927.13
577.43	51938.83
577.59	51702.43
577.75	51337.31
577.92	50492.38
578.08	50529.83
578.24	50473.65
578.40	50646.85
578.56	51370.08
578.72	51189.86
578.88	51264.75
579.04	51475.40
579.21	51557.32
579.37	51803.08
579.53	52048.83
579.69	51573.70
579.85	51924.78
580.01	51660.30
580.17	51559.66
580.33	51112.62
580.49	51257.73
580.65	51461.36
580.82	51887.34
580.98	51899.04
581.14	51672.01
581.30	51866.27
581.46	51739.88
581.62	51945.85
581.78	51985.64
581.94	52062.88
582.10	51866.27
582.26	51569.02
582.42	51704.77
582.58	52088.62
582.74	51791.37
582.90	52027.77
583.06	51793.71
583.22	51566.68
583.38	51894.36
583.54	51372.42
583.70	51927.13
583.86	51421.57
584.02	51246.03
584.18	51213.26
584.34	51206.24
584.50	51585.41
584.66	50976.87
584.82	50726.43
584.98	50564.93
585.14	50520.46
585.30	49343.17
