SpectraSuite Data File
++++++++++++++++++++++++++++++++++++
Date: Mon Oct 07 14:54:56 GMT-05:00 2013
User: price-jones
Dark Spectrum Present: No
Reference Spectrum Present: No
Number of Sampled Component Spectra: 1
Spectrometers: USB2+H05261
Integration Time (usec): 10000 (USB2+H05261)
Spectra Averaged: 1 (USB2+H05261)
Boxcar Smoothing: 0 (USB2+H05261)
Correct for Electrical Dark: No (USB2+H05261)
Strobe/Lamp Enabled: No (USB2+H05261)
Correct for Detector Non-linearity: No (USB2+H05261)
Correct for Stray Light: No (USB2+H05261)
Number of Pixels in Processed Spectrum: 2048
>>>>>Begin Processed Spectral Data<<<<<
365.73	0.00
365.92	0.00
366.12	0.00
366.32	0.00
366.52	0.00
366.72	0.00
366.91	0.00
367.11	0.00
367.31	0.00
367.51	0.00
367.70	0.00
367.90	0.00
368.10	0.00
368.30	0.00
368.49	0.00
368.69	0.00
368.89	0.00
369.09	0.00
369.28	0.00
369.48	0.00
369.68	0.00
369.87	0.00
370.07	0.00
370.27	0.00
370.47	0.00
370.66	58.51
370.86	194.26
371.06	234.05
371.25	297.25
371.45	252.78
371.65	245.76
371.84	110.01
372.04	184.90
372.24	341.72
372.44	273.84
372.63	334.70
372.83	255.12
373.03	142.77
373.22	234.05
373.42	262.14
373.62	248.10
373.81	250.44
374.01	332.36
374.21	236.39
374.40	191.92
374.60	217.67
374.79	269.16
374.99	381.51
375.19	418.96
375.38	458.74
375.58	425.98
375.78	245.76
375.97	318.31
376.17	475.13
376.37	430.66
376.56	416.62
376.76	477.47
376.95	468.11
377.15	533.64
377.35	554.71
377.54	615.56
377.74	634.29
377.93	533.64
378.13	550.03
378.33	472.79
378.52	538.32
378.72	435.34
378.91	418.96
379.11	414.27
379.31	327.68
379.50	397.89
379.70	402.57
379.89	510.24
380.09	545.34
380.28	540.66
380.48	493.85
380.68	582.79
380.87	512.58
381.07	411.93
381.26	437.68
381.46	454.06
381.65	433.00
381.85	404.91
382.04	311.29
382.24	278.52
382.43	337.04
382.63	238.73
382.83	217.67
383.02	194.26
383.22	166.18
383.41	154.48
383.61	238.73
383.80	332.36
384.00	477.47
384.19	461.09
384.39	463.43
384.58	573.43
384.78	552.37
384.97	524.28
385.17	517.26
385.36	463.43
385.56	435.34
385.75	447.04
385.95	465.77
386.14	526.62
386.34	580.45
386.53	594.50
386.72	521.94
386.92	486.83
387.11	596.84
387.31	514.92
387.50	589.82
387.70	547.69
387.89	533.64
388.09	524.28
388.28	500.87
388.48	498.53
388.67	587.47
388.86	636.63
389.06	800.46
389.25	753.65
389.45	739.61
389.64	770.04
389.84	798.12
390.03	723.23
390.22	751.31
390.42	758.33
390.61	896.43
390.81	976.00
391.00	898.77
391.19	952.60
391.39	994.73
391.58	908.13
391.78	814.51
391.97	812.17
392.16	746.63
392.36	613.22
392.55	390.87
392.75	220.01
392.94	177.88
393.13	161.50
393.33	351.08
393.52	374.49
393.71	524.28
393.91	690.46
394.10	732.59
394.29	737.27
394.49	922.17
394.68	994.73
394.88	997.07
395.07	985.37
395.26	978.34
395.46	961.96
395.65	943.24
395.84	697.48
396.04	613.22
396.23	334.70
396.42	337.04
396.62	341.72
396.81	369.80
397.00	561.73
397.19	765.36
397.39	976.00
397.58	1156.22
397.77	1174.95
397.97	1268.57
398.16	1301.34
398.35	1308.36
398.55	1359.85
398.74	1413.68
398.93	1469.86
399.12	1476.88
399.32	1315.38
399.51	1336.45
399.70	1441.77
399.90	1500.28
400.09	1509.65
400.28	1427.73
400.47	1479.22
400.67	1462.83
400.86	1586.88
401.05	1537.73
401.24	1664.12
401.44	1563.48
401.63	1703.91
401.82	1647.74
402.01	1572.84
402.21	1638.38
402.40	1640.72
402.59	1633.69
402.78	1507.30
402.97	1579.86
403.17	1605.61
403.36	1577.52
403.55	1715.61
403.74	1631.35
403.93	1600.93
404.13	1511.99
404.32	1469.86
404.51	1366.87
404.70	1792.85
404.89	1729.66
405.09	1600.93
405.28	1556.46
405.47	1565.82
405.66	1624.33
405.85	1504.96
406.05	1455.81
406.24	1476.88
406.43	1554.12
406.62	1633.69
406.81	1563.48
407.00	1497.94
407.20	1519.01
407.39	1486.24
407.58	1671.14
407.77	1853.70
407.96	1783.49
408.15	1832.64
408.34	1764.76
408.54	1914.56
408.73	1802.21
408.92	1741.36
409.11	1827.96
409.30	1659.44
409.49	1572.84
409.68	1394.96
409.87	1519.01
410.07	1603.27
410.26	1682.85
410.45	1703.91
410.64	1717.95
410.83	1863.07
411.02	1980.09
411.21	2040.95
411.40	1867.75
411.59	1923.92
411.78	1884.13
411.98	1977.75
412.17	2029.24
412.36	1989.46
412.55	1867.75
412.74	1891.15
412.93	1797.53
413.12	1781.15
413.31	2092.44
413.50	2106.48
413.69	1987.11
413.88	1987.11
414.07	1898.17
414.26	1991.80
414.45	2026.90
414.64	2085.42
414.83	2040.95
415.02	2045.63
415.22	2059.67
415.41	2047.97
415.60	2179.04
415.79	2230.53
415.98	2289.04
416.17	2298.41
416.36	2197.76
416.55	2169.68
416.74	2047.97
416.93	2101.80
417.12	2047.97
417.31	2059.67
417.50	2090.10
417.69	2162.66
417.88	2104.14
418.07	2146.27
418.26	2019.88
418.45	2008.18
418.64	2256.28
418.83	2221.17
419.02	2193.08
419.21	2253.94
419.39	2094.78
419.58	1959.03
419.77	1916.90
419.96	2115.84
420.15	2307.77
420.34	2251.60
420.53	2282.02
420.72	2424.80
420.91	2375.64
421.10	2380.32
421.29	2340.54
421.48	2399.05
421.67	2342.88
421.86	2160.31
422.05	2120.53
422.24	1900.52
422.43	1940.30
422.61	2022.22
422.80	2321.81
422.99	2333.51
423.18	2237.55
423.37	2155.63
423.56	2125.21
423.75	2244.57
423.94	2207.13
424.13	2202.44
424.32	2167.34
424.50	2143.93
424.69	2017.54
424.88	2078.40
425.07	2045.63
425.26	2054.99
425.45	2029.24
425.64	2008.18
425.83	1959.03
426.01	2183.72
426.20	2214.15
426.39	2167.34
426.58	2036.27
426.77	1797.53
426.96	1818.60
427.15	1886.47
427.33	2043.29
427.52	2127.55
427.71	2143.93
427.90	2036.27
428.09	2139.25
428.28	2043.29
428.46	1926.26
428.65	1879.45
428.84	1973.07
429.03	1893.49
429.22	1935.62
429.40	1806.89
429.59	1614.97
429.78	1439.43
429.97	1343.47
430.16	1334.11
430.34	1371.55
430.53	1401.98
430.72	1575.18
430.91	1570.50
431.10	2038.61
431.28	2265.64
431.47	2485.65
431.66	2506.71
431.85	2216.49
432.03	2162.66
432.22	1975.41
432.41	2106.48
432.60	2326.49
432.79	2312.45
432.97	2562.89
433.16	2399.05
433.35	2169.68
433.54	1930.94
433.72	1863.07
433.91	1970.73
434.10	2197.76
434.28	2279.68
434.47	2340.54
434.66	2429.48
434.85	2211.81
435.03	2303.09
435.22	2256.28
435.41	2490.33
435.59	2452.88
435.78	2586.29
435.97	2567.57
436.16	2724.38
436.34	2492.67
436.53	2410.75
436.72	2483.31
436.90	2363.94
437.09	2424.80
437.28	2403.73
437.46	2518.42
437.65	2450.54
437.84	2176.70
438.02	1944.99
438.21	1994.14
438.40	2167.34
438.58	2349.90
438.77	2443.52
438.96	2385.01
439.14	2450.54
439.33	2672.89
439.52	2640.12
439.70	2597.99
439.89	2483.31
440.08	2464.58
440.26	2469.27
440.45	2614.38
440.63	2605.02
440.82	2768.85
441.01	2818.00
441.19	2757.15
441.38	2785.24
441.57	2963.12
441.75	2930.35
441.94	2995.89
442.12	3033.33
442.31	3028.65
442.50	3030.99
442.68	2874.18
442.87	2864.82
443.05	2876.52
443.24	2965.46
443.43	3141.00
443.61	3038.02
443.80	3089.51
443.98	3035.67
444.17	2839.07
444.35	3028.65
444.54	3131.64
444.73	3042.70
444.91	3028.65
445.10	2759.49
445.28	2649.49
445.47	2722.04
445.65	2745.45
445.84	2766.51
446.02	2850.77
446.21	2916.31
446.39	2920.99
446.58	2953.76
446.77	2974.82
446.95	3012.27
447.14	3002.91
447.32	3178.45
447.51	3080.14
447.69	3021.63
447.88	2909.29
448.06	2860.13
448.25	3059.08
448.43	3187.81
448.62	2979.50
448.80	2902.26
448.99	3119.93
449.17	2986.52
449.36	3000.57
449.54	3166.74
449.73	3255.69
449.91	3105.89
450.10	3353.99
450.28	3382.07
450.46	3241.64
450.65	3332.92
450.83	3194.83
451.02	3199.51
451.20	3206.53
451.39	3325.90
451.57	3279.09
451.76	3227.60
451.94	3077.80
452.13	3049.72
452.31	2974.82
452.49	2841.41
452.68	2799.28
452.86	2874.18
453.05	2869.50
453.23	2869.50
453.42	3110.57
453.60	3145.68
453.78	3105.89
453.97	3089.51
454.15	3124.62
454.34	3035.67
454.52	3000.57
454.70	2956.10
454.89	3054.40
455.07	2909.29
455.26	3096.53
455.44	3206.53
455.62	3297.81
455.81	3241.64
455.99	3248.66
456.17	3143.34
456.36	3194.83
456.54	3246.32
456.73	3295.47
456.91	3304.84
457.09	3377.39
457.28	3337.60
457.46	3316.54
457.64	3286.11
457.83	3164.40
458.01	3103.55
458.19	3171.43
458.38	3166.74
458.56	3346.97
458.74	3361.01
458.93	3368.03
459.11	3206.53
459.29	3138.66
459.48	3300.16
459.66	3136.32
459.84	3281.43
460.03	3293.13
460.21	3255.69
460.39	3236.96
460.57	3314.20
460.76	3389.10
460.94	3314.20
461.12	3316.54
461.31	3300.16
461.49	3335.26
461.67	3300.16
461.85	3391.44
462.04	3414.84
462.22	3522.51
462.40	3442.93
462.59	3515.48
462.77	3396.12
462.95	3356.33
463.13	3293.13
463.32	3274.41
463.50	3368.03
463.68	3339.94
463.86	3335.26
464.05	3222.92
464.23	3124.62
464.41	3035.67
464.59	3030.99
464.78	3201.85
464.96	3316.54
465.14	3239.30
465.32	3428.88
465.50	3356.33
465.69	3440.59
465.87	3459.31
466.05	3234.62
466.23	3211.22
466.41	3126.96
466.60	3239.30
466.78	3190.15
466.96	3405.48
467.14	3279.09
467.32	3393.78
467.51	3269.73
467.69	3173.77
467.87	3166.74
468.05	3180.79
468.23	3279.09
468.41	3248.66
468.60	3129.30
468.78	3265.05
468.96	3187.81
469.14	3393.78
469.32	3232.28
469.50	3211.22
469.69	3194.83
469.87	3201.85
470.05	3171.43
470.23	3157.38
470.41	3073.12
470.59	3155.04
470.77	3164.40
470.95	3307.18
471.14	3283.77
471.32	3316.54
471.50	3471.01
471.68	3562.30
471.86	3548.25
472.04	3574.00
472.22	3541.23
472.40	3382.07
472.58	3218.24
472.77	3323.56
472.95	3524.85
473.13	3531.87
473.31	3398.46
473.49	3297.81
473.67	3459.31
473.85	3492.08
474.03	3597.40
474.21	3559.95
474.39	3653.58
474.57	3637.19
474.75	3733.15
474.93	3618.47
475.12	3667.62
475.30	3545.91
475.48	3508.46
475.66	3574.00
475.84	3522.51
476.02	3375.05
476.20	3478.04
476.38	3494.42
476.56	3515.48
476.74	3709.75
476.92	3719.11
477.10	3765.92
477.28	3866.56
477.46	3758.90
477.64	3957.85
477.82	3974.23
478.00	3904.01
478.18	3983.59
478.36	3913.38
478.54	3824.44
478.72	3801.03
478.90	3995.29
479.08	4084.23
479.26	4187.22
479.44	4109.98
479.62	4102.96
479.80	4095.94
479.98	4248.07
480.16	4208.28
480.34	4100.62
480.52	4067.85
480.70	4222.33
480.88	4205.94
481.06	4259.78
481.24	4269.14
481.41	4461.06
481.59	4505.53
481.77	4425.95
481.95	4315.95
482.13	4339.35
482.31	4386.16
482.49	4557.02
482.67	4318.29
482.85	4550.00
483.03	4493.83
483.21	4667.03
483.39	4582.77
483.57	4491.49
483.74	4444.68
483.92	4517.23
484.10	4540.64
484.28	4627.24
484.46	4730.22
484.64	4880.02
484.82	4486.81
485.00	4505.53
485.18	4512.55
485.35	4131.05
485.53	3957.85
485.71	3597.40
485.89	3487.40
486.07	3786.99
486.25	4002.32
486.43	4339.35
486.61	4418.93
486.78	4341.69
486.96	4379.14
487.14	4683.41
487.32	4725.54
487.50	4727.88
487.68	4980.66
487.85	4877.68
488.03	5149.18
488.21	4760.65
488.39	4858.95
488.57	4709.16
488.75	4690.43
488.92	4814.48
489.10	5198.33
489.28	5423.02
489.46	5556.43
489.64	5416.00
489.81	5476.85
489.99	5502.60
490.17	5514.30
490.35	5467.49
490.53	5467.49
490.70	5537.71
490.88	5324.72
491.06	5584.52
491.24	5598.56
491.41	5423.02
491.59	5132.79
491.77	4992.36
491.95	5100.03
492.13	5359.83
492.30	5633.67
492.48	5762.40
492.66	5919.21
492.84	5778.78
493.01	5638.35
493.19	5533.03
493.37	5605.58
493.54	5530.69
493.72	5666.44
493.90	5827.93
494.08	5970.71
494.25	5977.73
494.43	6101.78
494.61	6200.08
494.79	6150.93
494.96	6052.63
495.14	5961.34
495.32	5626.65
495.49	5535.37
495.67	5940.28
495.85	6267.95
496.02	6176.67
496.20	6155.61
496.38	6108.80
496.55	6094.76
496.73	6525.41
496.91	6181.35
497.09	6457.54
497.26	6361.58
497.44	6342.85
497.62	6150.93
497.79	5919.21
497.97	5788.14
498.14	5867.72
498.32	6228.17
498.50	6209.44
498.67	6314.77
498.85	6394.34
499.03	6431.79
499.20	6331.15
499.38	6368.60
499.56	6342.85
499.73	6176.67
499.91	6129.86
500.08	6019.86
500.26	5935.60
500.44	5998.79
500.61	6106.46
500.79	6076.03
500.97	6036.24
501.14	5989.43
501.32	5914.53
501.49	5919.21
501.67	6064.33
501.84	6083.05
502.02	6251.57
502.20	6204.76
502.37	6129.86
502.55	6324.13
502.72	6282.00
502.90	6319.45
503.07	6406.05
503.25	6342.85
503.43	6193.06
503.60	6083.05
503.78	5900.49
503.95	5959.00
504.13	6202.42
504.30	6457.54
504.48	6485.62
504.65	6370.94
504.83	6511.37
505.01	6497.33
505.18	6427.11
505.36	6642.44
505.53	6848.41
505.71	6691.59
505.88	6562.86
506.06	6520.73
506.23	6663.51
506.41	6574.56
506.58	6551.16
506.76	6558.18
506.93	6363.92
507.11	6377.96
507.28	6366.26
507.46	6284.34
507.63	6204.76
507.81	6129.86
507.98	6164.97
508.16	6679.89
508.33	6565.20
508.50	6537.12
508.68	6782.87
508.85	6813.30
509.03	6885.86
509.20	6670.53
509.38	6595.63
509.55	6293.70
509.73	6312.42
509.90	6483.28
510.08	6675.21
510.25	6590.95
510.42	6485.62
510.60	6516.05
510.77	6420.09
510.95	6696.27
511.12	6743.08
511.30	6825.00
511.47	6834.36
511.64	6885.86
511.82	6682.23
511.99	6420.09
512.17	6574.56
512.34	6300.72
512.51	6274.98
512.69	6375.62
512.86	6417.75
513.04	6509.03
513.21	6434.13
513.38	6333.49
513.56	6349.87
513.73	6272.64
513.90	6108.80
514.08	6300.72
514.25	6370.94
514.43	6434.13
514.60	6396.68
514.77	6384.98
514.95	6485.62
515.12	6422.43
515.29	6431.79
515.47	6612.01
515.64	6502.01
515.81	6434.13
515.99	6403.71
516.16	6061.99
516.33	5659.42
516.51	5399.62
516.68	5228.76
516.85	5076.62
517.03	5249.82
517.20	5657.07
517.37	6134.54
517.54	6389.66
517.72	6338.17
517.89	5692.18
518.06	5259.18
518.24	5446.43
518.41	5792.83
518.58	6071.35
518.75	6141.57
518.93	6115.82
519.10	6260.93
519.27	6253.91
519.45	6328.81
519.62	6661.16
519.79	6530.09
519.96	6562.86
520.14	6436.47
520.31	6052.63
520.48	6069.01
520.65	6274.98
520.83	6406.05
521.00	6590.95
521.17	6380.30
521.34	6478.60
521.52	6441.15
521.69	6544.14
521.86	6766.49
522.03	6668.19
522.20	6370.94
522.38	6064.33
522.55	6181.35
522.72	5996.45
522.89	6073.69
523.07	6235.19
523.24	6356.90
523.41	6689.25
523.58	6579.25
523.75	6698.61
523.92	6703.29
524.10	6729.04
524.27	6899.90
524.44	6787.55
524.61	6775.85
524.78	6452.86
524.96	6740.74
525.13	6604.99
525.30	6724.36
525.47	6743.08
525.64	6825.00
525.81	6553.50
525.98	6494.99
526.16	5973.05
526.33	5673.46
526.50	5638.35
526.67	5647.71
526.84	5706.23
527.01	5825.59
527.18	6228.17
527.36	6270.30
527.53	6562.86
527.70	6731.38
527.87	6459.88
528.04	6399.02
528.21	6403.71
528.38	6628.40
528.55	6614.35
528.72	6857.77
528.89	6796.92
529.07	6825.00
529.24	6602.65
529.41	6516.05
529.58	6466.90
529.75	6347.53
529.92	6459.88
530.09	6413.07
530.26	6703.29
530.43	6623.72
530.60	6752.45
530.77	6897.56
530.94	6808.62
531.11	6857.77
531.28	6590.95
531.46	6480.94
531.63	6487.96
531.80	6565.20
531.97	6427.11
532.14	6265.61
532.31	6019.86
532.48	5769.42
532.65	5895.81
532.82	6054.97
532.99	6452.86
533.16	6319.45
533.33	6534.78
533.50	6600.31
533.67	6153.27
533.84	6195.40
534.01	6258.59
534.18	6420.09
534.35	6354.55
534.52	6235.19
534.69	6366.26
534.86	6441.15
535.03	6555.84
535.20	6612.01
535.37	6738.40
535.54	6897.56
535.71	6731.38
535.88	6626.06
536.05	6457.54
536.22	6333.49
536.38	6267.95
536.55	6118.16
536.72	6001.13
536.89	5977.73
537.06	6136.88
537.23	6415.41
537.40	6429.45
537.57	6429.45
537.74	6279.66
537.91	6462.22
538.08	6246.89
538.25	6366.26
538.42	6373.28
538.59	6422.43
538.75	6354.55
538.92	6209.44
539.09	6125.18
539.26	6424.77
539.43	6059.65
539.60	6047.94
539.77	6047.94
539.94	6040.92
540.11	5870.06
540.28	5909.85
540.44	5750.70
540.61	5832.62
540.78	5963.68
540.95	5909.85
541.12	6202.42
541.29	6167.31
541.46	6235.19
541.62	6183.70
541.79	6076.03
541.96	5877.09
542.13	6008.16
542.30	6162.63
542.47	6073.69
542.63	5991.77
542.80	5956.66
542.97	6195.40
543.14	6012.84
543.31	6223.48
543.48	6225.82
543.64	6399.02
543.81	6230.51
543.98	6457.54
544.15	6155.61
544.32	6064.33
544.48	5823.25
544.65	6279.66
544.82	6195.40
544.99	6129.86
545.16	6157.95
545.32	5977.73
545.49	6314.77
545.66	6214.12
545.83	6148.59
546.00	6218.80
546.16	6087.73
546.33	6026.88
546.50	6090.07
546.67	6237.53
546.83	5998.79
547.00	6188.38
547.17	5818.57
547.34	5813.89
547.50	5788.14
547.67	5802.19
547.84	6036.24
548.00	5921.56
548.17	6167.31
548.34	6092.41
548.51	6029.22
548.67	6083.05
548.84	6132.20
549.01	6157.95
549.18	6071.35
549.34	5998.79
549.51	6078.37
549.68	5905.17
549.84	5930.92
550.01	5935.60
550.18	5919.21
550.34	5905.17
550.51	5919.21
550.68	5996.45
550.84	5949.64
551.01	5837.30
551.18	5785.80
551.34	5764.74
551.51	5980.07
551.68	6012.84
551.84	5933.26
552.01	6153.27
552.18	5947.30
552.34	5813.89
552.51	5706.23
552.68	5762.40
552.84	5802.19
553.01	5963.68
553.18	6022.20
553.34	5968.37
553.51	5909.85
553.67	6059.65
553.84	5930.92
554.01	5928.58
554.17	6031.56
554.34	5959.00
554.51	5891.13
554.67	5888.79
554.84	5902.83
555.00	5811.55
555.17	5863.04
555.33	5804.53
555.50	5863.04
555.67	5762.40
555.83	5944.96
556.00	5657.07
556.16	5823.25
556.33	5685.16
556.50	5570.48
556.66	5713.25
556.83	5605.58
556.99	5626.65
557.16	5591.54
557.32	5612.60
557.49	5856.02
557.65	5729.63
557.82	5598.56
557.98	5680.48
558.15	5706.23
558.32	5500.26
558.48	5310.68
558.65	5247.48
558.81	5280.25
558.98	5350.46
559.14	5530.69
559.31	5305.99
559.47	5465.15
559.64	5509.62
559.80	5345.78
559.97	5397.28
560.13	5350.46
560.30	5439.40
560.46	5661.76
560.63	5724.95
560.79	5863.04
560.96	5722.61
561.12	5502.60
561.29	5327.06
561.45	5364.51
561.61	5380.89
561.78	5437.06
561.94	5341.10
562.11	5425.36
562.27	5467.49
562.44	5582.18
562.60	5387.91
562.77	5514.30
562.93	5408.98
563.10	5483.88
563.26	5294.29
563.42	5397.28
563.59	5341.10
563.75	5446.43
563.92	5420.68
564.08	5547.07
564.24	5376.21
564.41	5350.46
564.57	5451.11
564.74	5231.10
564.90	5256.84
565.07	5270.89
565.23	5280.25
565.39	5221.74
565.56	5118.75
565.72	5069.60
565.88	5043.85
566.05	5205.35
566.21	5104.71
566.38	5355.15
566.54	5156.20
566.70	5348.12
566.87	5357.49
567.03	5334.08
567.19	5448.77
567.36	5221.74
567.52	5338.76
567.68	5291.95
567.85	5039.17
568.01	5043.85
568.17	4954.91
568.34	4882.36
568.50	5069.60
568.66	4964.28
568.83	5107.05
568.99	5088.32
569.15	4954.91
569.32	5240.46
569.48	4952.57
569.64	5062.58
569.81	4947.89
569.97	4905.76
570.13	4828.53
570.30	4821.50
570.46	4784.06
570.62	4805.12
570.78	4842.57
570.95	4868.31
571.11	4926.83
571.27	4975.98
571.43	4830.87
571.60	4858.95
571.76	5036.83
571.92	4994.70
572.09	4997.04
572.25	5114.07
572.41	4929.17
572.57	5022.79
572.74	5114.07
572.90	4947.89
573.06	5018.11
573.22	5029.81
573.38	5132.79
573.55	4999.38
573.71	4950.23
573.87	5001.72
574.03	5008.75
574.20	4933.85
574.36	4896.40
574.52	4940.87
574.68	4706.82
574.84	4793.42
575.01	4676.39
575.17	4606.17
575.33	4737.24
575.49	4711.50
575.65	4610.86
575.82	4716.18
575.98	4805.12
576.14	4833.21
576.30	4526.60
576.46	4807.46
576.62	4835.55
576.79	4816.82
576.95	4688.09
577.11	4788.74
577.27	4812.14
577.43	4608.51
577.59	4601.49
577.75	4713.84
577.92	4381.48
578.08	4444.68
578.24	4477.44
578.40	4545.32
578.56	4571.07
578.72	4468.08
578.88	4617.88
579.04	4671.71
579.21	4547.66
579.37	4709.16
579.53	4706.82
579.69	4723.20
579.85	4667.03
580.01	4645.96
580.17	4601.49
580.33	4589.79
580.49	4589.79
580.65	4713.84
580.82	4585.11
580.98	4753.63
581.14	4631.92
581.30	4702.14
581.46	4739.58
581.62	4613.20
581.78	4681.07
581.94	4667.03
582.10	4575.75
582.26	4601.49
582.42	4652.98
582.58	4847.25
582.74	4627.24
582.90	4603.83
583.06	4685.75
583.22	4608.51
583.38	4784.06
583.54	4660.01
583.70	4596.81
583.86	4648.30
584.02	4744.27
584.18	4681.07
584.34	4533.62
584.50	4493.83
584.66	4594.47
584.82	4507.87
584.98	4568.73
585.14	4376.80
585.30	4259.78
585.46	4325.31
585.62	4332.33
585.78	4241.05
585.94	4084.23
586.10	4437.66
586.26	4447.02
586.42	4510.21
586.58	4484.47
586.74	4418.93
586.90	4351.06
587.06	4425.95
587.22	4437.66
587.38	4334.67
587.54	4332.33
587.70	4341.69
587.86	4383.82
588.02	4234.03
588.18	4301.90
588.34	4074.87
588.49	3744.86
588.65	3447.61
588.81	3501.44
588.97	3742.52
589.13	3599.74
589.29	3332.92
589.45	3688.68
589.61	3847.84
589.77	4016.36
589.93	4112.32
590.08	4217.65
590.24	4271.48
590.40	4100.62
590.56	4203.60
590.72	4093.60
590.88	3992.95
591.04	4077.21
591.20	4002.32
591.35	4007.00
591.51	4154.45
591.67	4018.70
591.83	4198.92
591.99	3957.85
592.15	4184.88
592.31	4159.13
592.46	4063.17
592.62	4035.08
592.78	3934.44
592.94	4091.26
593.10	4023.38
593.26	4077.21
593.41	4266.80
593.57	4145.09
593.73	4081.89
593.89	3953.16
594.05	3974.23
594.20	3864.22
594.36	3882.95
594.52	3915.72
594.68	3873.59
594.84	3885.29
594.99	4095.94
595.15	4030.40
595.31	3983.59
595.47	3983.59
595.62	4037.42
595.78	3943.80
595.94	4079.55
596.10	4025.72
596.25	4014.02
596.41	3953.16
596.57	3899.33
596.73	3948.48
596.88	4067.85
597.04	4004.66
597.20	3873.59
597.36	3904.01
597.51	3943.80
597.67	3946.14
597.83	3978.91
597.99	3847.84
