SpectraSuite Data File
++++++++++++++++++++++++++++++++++++
Date: Mon Oct 07 14:55:44 GMT-05:00 2013
User: price-jones
Dark Spectrum Present: No
Reference Spectrum Present: No
Number of Sampled Component Spectra: 1
Spectrometers: USB2+H05261
Integration Time (usec): 1000000 (USB2+H05261)
Spectra Averaged: 1 (USB2+H05261)
Boxcar Smoothing: 0 (USB2+H05261)
Correct for Electrical Dark: No (USB2+H05261)
Strobe/Lamp Enabled: No (USB2+H05261)
Correct for Detector Non-linearity: No (USB2+H05261)
Correct for Stray Light: No (USB2+H05261)
Number of Pixels in Processed Spectrum: 2048
>>>>>Begin Processed Spectral Data<<<<<
365.73	0.00
365.92	0.00
366.12	0.00
366.32	0.00
366.52	0.00
366.72	138.09
366.91	0.00
367.11	140.43
367.31	30.43
367.51	180.22
367.70	238.73
367.90	465.77
368.10	189.58
368.30	252.78
368.49	0.00
368.69	442.36
368.89	147.45
369.09	0.00
369.28	138.09
369.48	0.00
369.68	49.15
369.87	194.26
370.07	53.83
370.27	456.40
370.47	1469.86
370.66	4465.74
370.86	5554.09
371.06	6066.67
371.25	6265.61
371.45	5191.31
371.65	4968.96
371.84	4329.99
372.04	4622.56
372.24	5355.15
372.44	5355.15
372.63	5343.44
372.83	5221.74
373.03	4425.95
373.22	3939.12
373.42	4358.08
373.62	4959.60
373.81	5259.18
374.01	5479.19
374.21	4910.44
374.40	4374.46
374.60	4957.25
374.79	5282.59
374.99	5989.43
375.19	6321.79
375.38	6356.90
375.58	5797.51
375.78	6167.31
375.97	6108.80
376.17	6876.49
376.37	6008.16
376.56	6544.14
376.76	6497.33
376.95	6967.77
377.15	7510.78
377.35	7700.36
377.54	7953.14
377.74	7957.82
377.93	8095.91
378.13	7861.86
378.33	7826.75
378.52	6988.84
378.72	7197.15
378.91	6911.60
379.11	6370.94
379.31	6087.73
379.50	6134.54
379.70	7129.27
379.89	7660.57
380.09	7520.14
380.28	7623.12
380.48	7882.92
380.68	7604.40
380.87	7232.26
381.07	7056.72
381.26	6834.36
381.46	6494.99
381.65	6083.05
381.85	5757.72
382.04	5717.93
382.24	5474.51
382.43	4983.00
382.63	4688.09
382.83	4814.48
383.02	5198.33
383.22	5394.93
383.41	4964.28
383.61	5184.29
383.80	6382.64
384.00	6759.47
384.19	7169.06
384.39	7634.83
384.58	7604.40
384.78	7896.97
384.97	7431.20
385.17	7091.82
385.36	6874.15
385.56	6803.94
385.75	6773.51
385.95	7363.33
386.14	7831.43
386.34	7632.49
386.53	7578.65
386.72	7052.03
386.92	7599.72
387.11	7777.60
387.31	7845.48
387.50	7559.93
387.70	7166.72
387.89	7426.52
388.09	7246.30
388.28	7269.70
388.48	7485.03
388.67	8339.33
388.86	8812.12
389.06	9256.82
389.25	9809.19
389.45	9951.96
389.64	10064.30
389.84	9891.10
390.03	9495.55
390.22	9680.46
390.42	9935.57
390.61	10523.05
390.81	11073.07
391.00	11386.71
391.19	11419.47
391.39	10707.95
391.58	10216.44
391.78	9671.09
391.97	9439.38
392.16	8568.70
392.36	8226.98
392.55	6719.68
392.75	5345.78
392.94	4346.37
393.13	4851.93
393.33	5210.03
393.52	6443.49
393.71	8102.93
393.91	8655.30
394.10	8980.64
394.29	10005.79
394.49	10698.59
394.68	11702.68
394.88	11927.37
395.07	12194.19
395.26	11878.22
395.46	11522.46
395.65	11047.33
395.84	9603.22
396.04	8959.57
396.23	6715.00
396.42	5537.71
396.62	5710.91
396.81	6810.96
397.00	8299.54
397.19	10118.14
397.39	11779.92
397.58	13514.25
397.77	13781.07
397.97	14251.52
398.16	14375.57
398.35	15131.56
398.55	15070.71
398.74	15974.16
398.93	16390.77
399.12	15730.74
399.32	15389.02
399.51	15779.89
399.70	17060.16
399.90	16388.43
400.09	16622.48
400.28	16697.38
400.47	16393.11
400.67	17521.25
400.86	17752.96
401.05	17965.95
401.24	17956.59
401.44	18501.93
401.63	18211.71
401.82	18504.28
402.01	18008.08
402.21	18148.51
402.40	18441.08
402.59	17673.39
402.78	17144.42
402.97	16456.31
403.17	17238.05
403.36	18171.92
403.55	18740.67
403.74	19311.76
403.93	18342.78
404.13	17338.69
404.32	16945.48
404.51	17874.67
404.70	19023.87
404.89	18572.15
405.09	18731.31
405.28	17628.92
405.47	17614.87
405.66	17951.91
405.85	17252.09
406.05	16821.43
406.24	17062.51
406.43	17589.13
406.62	18331.08
406.81	18721.95
407.00	18256.18
407.20	17539.97
407.39	17635.94
407.58	18221.07
407.77	18721.95
407.96	19896.89
408.15	19784.55
408.34	19955.41
408.54	20617.78
408.73	20484.37
408.92	20325.21
409.11	19983.49
409.30	19157.28
409.49	17490.82
409.68	16636.53
409.87	16262.04
410.07	16924.41
410.26	18714.92
410.45	19756.46
410.64	19971.79
410.83	20463.30
411.02	20947.79
411.21	21759.96
411.40	21699.11
411.59	21476.76
411.78	21493.14
411.98	21268.45
412.17	21198.23
412.36	21010.99
412.55	20854.17
412.74	20835.45
412.93	20982.90
413.12	20339.26
413.31	22623.62
413.50	22459.78
413.69	22759.37
413.88	22312.33
414.07	21111.63
414.26	21603.14
414.45	22080.61
414.64	22583.83
414.83	22443.40
415.02	21813.79
415.22	22155.51
415.41	23040.23
415.60	22703.20
415.79	23999.85
415.98	24886.92
416.17	24297.10
416.36	23791.55
416.55	23281.31
416.74	22546.38
416.93	22333.39
417.12	21923.80
417.31	22405.95
417.50	22597.87
417.69	23992.83
417.88	23035.55
418.07	22635.32
418.26	22073.59
418.45	22843.63
418.64	23955.38
418.83	24372.00
419.02	24060.71
419.21	23592.60
419.39	22611.92
419.58	21362.07
419.77	21561.02
419.96	22899.80
420.15	24252.63
420.34	24514.77
420.53	25186.50
420.72	25813.77
420.91	25472.05
421.10	25252.04
421.29	24554.56
421.48	24208.16
421.67	25652.27
421.86	24301.78
422.05	22691.49
422.24	20514.80
422.43	20783.96
422.61	22668.09
422.80	24105.18
422.99	23854.74
423.18	23344.50
423.37	23131.51
423.56	23498.98
423.75	23557.49
423.94	23480.25
424.13	22794.48
424.32	22558.08
424.50	22623.62
424.69	22363.82
424.88	23124.49
425.07	22195.30
425.26	22759.37
425.45	22024.44
425.64	21818.47
425.83	21947.20
426.01	23524.72
426.20	23557.49
426.39	23183.01
426.58	21692.08
426.77	20051.37
426.96	19639.44
427.15	20636.50
427.33	22047.85
427.52	22593.19
427.71	22207.00
427.90	22647.02
428.09	22148.49
428.28	21259.09
428.46	20833.11
428.65	20725.44
428.84	20957.16
429.03	21986.99
429.22	20034.99
429.40	18895.14
429.59	17338.69
429.78	15822.02
429.97	15648.82
430.16	15782.23
430.34	15740.10
430.53	15726.06
430.72	16278.43
430.91	18347.46
431.10	20896.30
431.28	24727.76
431.47	26438.69
431.66	26197.62
431.85	23681.54
432.03	22005.72
432.22	22010.40
432.41	22569.79
432.60	25205.23
432.79	24954.79
432.97	26029.10
433.16	25406.52
433.35	22970.02
433.54	20814.38
433.72	20154.35
433.91	21095.25
434.10	22920.87
434.28	24510.09
434.47	25317.57
434.66	25483.75
434.85	24402.43
435.03	25186.50
435.22	27744.71
435.41	31264.88
435.59	31211.04
435.78	29242.65
435.97	28137.92
436.16	28044.30
436.34	26988.72
436.53	26398.90
436.72	26895.10
436.90	25294.17
437.09	25064.80
437.28	24559.24
437.46	25282.47
437.65	25207.57
437.84	23686.22
438.02	21853.58
438.21	21867.63
438.40	23021.51
438.58	24526.47
438.77	25694.40
438.96	25525.88
439.14	25818.45
439.33	27246.18
439.52	27431.08
439.70	26883.39
439.89	26562.74
440.08	25481.41
440.26	25860.58
440.45	26913.82
440.63	28163.67
440.82	29216.91
441.01	28966.47
441.19	28350.91
441.38	28961.79
441.57	29996.31
441.75	30583.78
441.94	30644.63
442.12	29846.51
442.31	31096.36
442.50	30160.14
442.68	30391.86
442.87	30031.41
443.05	29394.79
443.24	30059.50
443.43	30859.96
443.61	31456.80
443.80	31325.73
443.98	29659.27
444.17	29729.48
444.35	31906.18
444.54	31606.59
444.73	31227.43
444.91	30253.76
445.10	28849.44
445.28	27651.09
445.47	27182.98
445.65	27831.31
445.84	28149.62
446.02	29645.23
446.21	29560.97
446.39	29766.93
446.58	29975.24
446.77	30153.12
446.95	30876.35
447.14	31126.78
447.32	32294.71
447.51	30972.31
447.69	30075.88
447.88	30120.35
448.06	30672.72
448.25	31140.83
448.43	30719.53
448.62	30312.28
448.80	30485.48
448.99	29970.56
449.17	30375.47
449.36	30539.31
449.54	31747.03
449.73	32130.87
449.91	32779.20
450.10	33376.04
450.28	34235.02
450.46	34227.99
450.65	33450.94
450.83	33326.89
451.02	32350.88
451.20	31992.78
451.39	32151.94
451.57	32107.47
451.76	32168.32
451.94	31634.68
452.13	31262.54
452.31	30047.80
452.49	28617.73
452.68	28809.65
452.86	28781.57
453.05	29486.07
453.23	30110.99
453.42	30749.96
453.60	31084.65
453.78	31873.42
453.97	30955.93
454.15	31136.15
454.34	30150.78
454.52	30293.55
454.70	30412.92
454.89	30822.51
455.07	30452.71
455.26	31239.13
455.44	32465.57
455.62	32634.09
455.81	33046.02
455.99	32456.21
456.17	32304.07
456.36	32051.30
456.54	33223.90
456.73	33141.99
456.91	33970.54
457.09	33921.38
457.28	34665.67
457.46	33109.22
457.64	33006.23
457.83	31468.50
458.01	30448.03
458.19	31590.21
458.38	31967.04
458.56	33048.36
458.74	32238.54
458.93	32126.19
459.11	32444.51
459.29	31601.91
459.48	32046.62
459.66	32229.18
459.84	32285.35
460.03	33780.95
460.21	32498.34
460.39	33422.85
460.57	33298.80
460.76	33668.61
460.94	33638.18
461.12	33280.08
461.31	33572.64
461.49	33029.64
461.67	33104.54
461.85	34225.65
462.04	33883.94
462.22	40781.49
462.40	33869.89
462.59	33783.29
462.77	33942.45
462.95	34132.03
463.13	33097.52
463.32	33514.13
463.50	32840.06
463.68	32793.25
463.86	33345.61
464.05	32388.33
464.23	32224.50
464.41	31648.72
464.59	31084.65
464.78	32723.03
464.96	32126.19
465.14	32123.85
465.32	32687.92
465.50	33563.28
465.69	34073.52
465.87	32884.53
466.05	32275.99
466.23	30548.67
466.41	30122.69
466.60	31400.63
466.78	31440.42
466.96	32236.20
467.14	32423.44
467.32	32950.06
467.51	32606.00
467.69	31211.04
467.87	32102.79
468.05	32423.44
468.23	32648.13
468.41	32491.32
468.60	32350.88
468.78	32498.34
468.96	32542.81
469.14	33109.22
469.32	32933.68
469.50	31283.60
469.69	31859.37
469.87	31140.83
470.05	31386.58
470.23	30951.24
470.41	30920.82
470.59	31709.58
470.77	31718.94
470.95	32287.69
471.14	33280.08
471.32	32638.77
471.50	34878.66
471.68	34705.46
471.86	34511.20
472.04	34487.79
472.22	34595.46
472.40	33280.08
472.58	32968.79
472.77	32397.70
472.95	32879.85
473.13	34466.73
473.31	33268.37
473.49	33008.58
473.67	33806.70
473.85	34122.67
474.03	35164.21
474.21	34759.30
474.39	35285.92
474.57	35831.26
474.75	35438.05
474.93	34771.00
475.12	34068.84
475.30	33977.56
475.48	34656.31
475.66	35098.67
475.84	34469.07
476.02	33963.51
476.20	33930.75
476.38	34239.70
476.56	35402.94
476.74	35611.25
476.92	36191.70
477.10	36741.73
477.28	37556.24
477.46	37134.94
477.64	37464.96
477.82	37268.35
478.00	37607.73
478.18	36973.44
478.36	37130.26
478.54	37429.85
478.72	36921.95
478.90	38536.92
479.08	39416.96
479.26	39489.52
479.44	39452.07
479.62	39363.13
479.80	39171.21
479.98	39089.29
480.16	39866.34
480.34	39512.92
480.52	39323.34
480.70	39948.26
480.88	39892.09
481.06	40453.82
481.24	40809.58
481.41	41668.56
481.59	42284.12
481.77	41663.88
481.95	41303.43
482.13	41816.01
482.31	40804.90
482.49	41500.04
482.67	41551.53
482.85	42426.89
483.03	42721.80
483.21	43463.75
483.39	43246.08
483.57	41799.63
483.74	41867.50
483.92	42527.53
484.10	42014.96
484.28	43335.02
484.46	44409.32
484.64	43995.05
484.82	43126.71
485.00	42520.51
485.18	41483.66
485.35	40718.30
485.53	37123.24
485.71	35112.72
485.89	34122.67
486.07	36533.42
486.25	39845.28
486.43	41411.10
486.61	41670.90
486.78	41612.38
486.96	41654.51
487.14	43423.96
487.32	44554.44
487.50	45626.40
487.68	46401.12
487.85	46305.16
488.03	46576.66
488.21	46436.23
488.39	45492.99
488.57	44619.97
488.75	44034.84
488.92	48392.92
489.10	47599.47
489.28	49663.83
489.46	49687.23
489.64	49984.48
489.81	49462.54
489.99	49478.92
490.17	49212.10
490.35	50216.19
490.53	48926.56
490.70	48289.93
490.88	48650.38
491.06	50064.06
491.24	49530.42
491.41	48732.29
491.59	46719.43
491.77	45783.22
491.95	47175.84
492.13	48509.94
492.30	50309.82
492.48	50782.60
492.66	51316.25
492.84	51152.41
493.01	50658.56
493.19	50272.37
493.37	50202.15
493.54	49406.37
493.72	50424.50
493.90	51297.52
494.08	52158.84
494.25	52868.02
494.43	52207.99
494.61	52406.94
494.79	52959.30
494.96	52493.54
495.14	52135.43
495.32	50993.25
495.49	49734.04
495.67	51578.39
495.85	53127.82
496.02	53324.43
496.20	53609.97
496.38	52397.57
496.55	52301.61
496.73	53198.04
496.91	52889.09
497.09	53874.45
497.26	53467.20
497.44	53013.13
497.62	52404.59
497.79	52009.04
497.97	50483.01
498.14	50724.09
498.32	51597.11
498.50	52507.58
498.67	53549.12
498.85	53310.38
499.03	53296.34
499.20	53518.69
499.38	53801.89
499.56	53588.91
499.73	53169.95
499.91	52636.31
500.08	51938.83
500.26	51042.40
500.44	51842.87
500.61	52617.58
500.79	51995.00
500.97	51803.08
501.14	51573.70
501.32	50845.80
501.49	51381.78
501.67	51803.08
501.84	52172.88
502.02	52371.83
502.20	53305.70
502.37	52961.64
502.55	52884.40
502.72	53277.61
502.90	53757.42
503.07	53460.18
503.25	53139.52
503.43	51950.53
503.60	51236.67
503.78	50569.61
503.95	51395.82
504.13	52846.96
504.30	53869.77
504.48	53705.93
504.65	53111.44
504.83	52917.17
505.01	53523.37
505.18	53509.33
505.36	54862.16
505.53	54803.64
505.71	54674.91
505.88	55215.58
506.06	54197.44
506.23	54251.28
506.41	53352.51
506.58	54131.91
506.76	53696.57
506.93	53916.58
507.11	53502.31
507.28	53258.89
507.46	52898.45
507.63	51908.40
507.81	52154.16
507.98	52678.44
508.16	53109.10
508.33	53813.60
508.50	54206.81
508.68	54351.92
508.85	54944.08
509.03	54728.75
509.20	54382.35
509.38	53923.60
509.55	52968.66
509.73	53497.62
509.90	54351.92
510.08	53829.98
510.25	53869.77
510.42	53441.45
510.60	53446.13
510.77	54391.71
510.95	54801.30
511.12	54550.87
511.30	55075.15
511.47	55456.65
511.64	54979.18
511.82	54681.94
511.99	53965.73
512.17	53361.87
512.34	52896.11
512.51	53677.85
512.69	53179.31
512.86	53441.45
513.04	54057.01
513.21	53762.11
513.38	53059.94
513.56	52886.74
513.73	52128.41
513.90	52554.39
514.08	52119.05
514.25	52776.74
514.43	53282.30
514.60	52839.93
514.77	53137.18
514.95	53193.36
515.12	53301.02
515.29	53935.30
515.47	54295.75
515.64	54415.11
515.81	53984.46
515.99	53425.07
516.16	51739.88
516.33	49165.29
516.51	47086.90
516.68	45991.53
516.85	45670.87
517.03	46752.20
517.20	49940.01
517.37	52224.37
517.54	53577.20
517.72	52294.59
517.89	49743.41
518.06	46834.12
518.24	48392.92
518.41	50567.27
518.58	52034.79
518.75	51845.21
518.93	51920.10
519.10	51847.55
519.27	52278.21
519.45	52692.48
519.62	53406.34
519.79	54078.08
519.96	53684.87
520.14	52917.17
520.31	52495.88
520.48	52119.05
520.65	52837.59
520.83	53521.03
521.00	54152.97
521.17	53712.95
521.34	53158.25
521.52	53434.43
521.69	54129.57
521.86	54562.57
522.03	53986.80
522.20	52931.22
522.38	51236.67
522.55	51751.59
522.72	52273.52
522.89	52458.43
523.07	53106.76
523.24	53382.94
523.41	54129.57
523.58	54431.50
523.75	54782.58
523.92	54387.03
524.10	54667.89
524.27	54396.39
524.44	54033.61
524.61	54368.30
524.78	53680.19
524.96	53897.86
525.13	54028.93
525.30	53851.05
525.47	54906.63
525.64	53860.41
525.81	53038.88
525.98	52025.43
526.16	49932.99
526.33	49340.83
526.50	48105.03
526.67	47955.24
526.84	49160.61
527.01	50347.26
527.18	51250.71
527.36	52456.09
527.53	53551.46
527.70	53975.09
527.87	53237.83
528.04	52603.54
528.21	53015.47
528.38	53787.85
528.55	54897.27
528.72	54866.84
528.89	55248.35
529.07	54728.75
529.24	53750.40
529.41	53223.78
529.58	52680.78
529.75	52774.40
529.92	53485.92
530.09	53521.03
530.26	54108.50
530.43	54466.61
530.60	54410.43
530.77	54590.66
530.94	55021.31
531.11	54302.77
531.28	54047.65
531.46	53799.55
531.63	53904.88
531.80	53701.25
531.97	53099.73
532.14	51913.08
532.31	51414.55
532.48	50328.54
532.65	51068.15
532.82	50990.91
532.99	52645.67
533.16	53059.94
533.33	53736.36
533.50	53469.54
533.67	52177.56
533.84	52170.54
534.01	52107.35
534.18	52626.95
534.35	52556.73
534.52	52776.74
534.69	53415.71
534.86	53127.82
535.03	53563.16
535.20	54124.89
535.37	55065.78
535.54	54822.37
535.71	54141.27
535.88	53979.78
536.05	53270.59
536.22	52882.06
536.38	52280.55
536.55	51999.68
536.72	51700.09
536.89	51262.41
537.06	52327.36
537.23	52615.24
537.40	53148.88
537.57	53090.37
537.74	53230.80
537.91	53312.72
538.08	53396.98
538.25	53301.02
538.42	53317.40
538.59	52851.64
538.75	52226.71
538.92	52570.77
539.09	52514.60
539.26	52027.77
539.43	52404.59
539.60	52329.70
539.77	52498.22
539.94	52341.40
540.11	51835.84
540.28	51686.05
540.44	52002.02
540.61	51985.64
540.78	52622.26
540.95	53162.93
541.12	54092.12
541.29	54328.52
541.46	55068.12
541.62	54939.39
541.79	54637.47
541.96	54143.61
542.13	54319.15
542.30	54447.88
542.47	54571.93
542.63	53797.21
542.80	53621.67
542.97	54064.03
543.14	53340.81
543.31	53935.30
543.48	54316.81
543.64	55131.32
543.81	55580.70
543.98	55009.61
544.15	54382.35
544.32	53558.48
544.48	53743.38
544.65	54316.81
544.82	54520.44
544.99	54143.61
545.16	53741.04
545.32	53832.32
545.49	56673.73
545.66	58548.50
545.83	58805.96
546.00	57340.78
546.16	55075.15
546.33	53949.35
546.50	53467.20
546.67	53478.90
546.83	52608.22
547.00	53006.11
547.17	51938.83
547.34	51337.31
547.50	51477.74
547.67	51887.34
547.84	51599.45
548.00	52343.74
548.17	52706.52
548.34	52402.25
548.51	52425.66
548.67	52350.76
548.84	52233.74
549.01	52458.43
549.18	52034.79
549.34	52317.99
549.51	52121.39
549.68	51831.16
549.84	51508.17
550.01	51061.13
550.18	52121.39
550.34	51693.07
550.51	51313.90
550.68	51330.29
550.84	50527.48
551.01	50485.36
551.18	50944.10
551.34	51208.58
551.51	51349.01
551.68	51510.51
551.84	51564.34
552.01	50621.11
552.18	51168.79
552.34	49986.82
552.51	49645.10
552.68	49598.29
552.84	49900.22
553.01	50459.61
553.18	50277.05
553.34	50389.39
553.51	50431.52
553.67	50820.05
553.84	50869.20
554.01	50646.85
554.17	50459.61
554.34	49947.03
554.51	50361.31
554.67	50876.22
554.84	50588.34
555.00	49970.44
555.17	50047.68
555.33	49918.95
555.50	49610.00
555.67	49436.80
555.83	49352.54
556.00	49069.33
556.16	50087.46
556.33	48322.70
556.50	48233.76
556.66	48030.13
556.83	47297.55
556.99	48088.65
557.16	48163.54
557.32	48289.93
557.49	48488.88
557.65	48685.48
557.82	48280.57
557.98	48313.34
558.15	47590.11
558.32	46515.81
558.48	45748.11
558.65	45830.03
558.81	46831.78
558.98	46403.46
559.14	46937.10
559.31	46696.03
559.47	47065.83
559.64	46138.98
559.80	46096.85
559.97	45762.15
560.13	46808.37
560.30	47615.86
560.46	48098.01
560.63	48870.39
560.79	48809.53
560.96	47997.37
561.12	46340.27
561.29	45092.76
561.45	45394.69
561.61	46028.98
561.78	47796.08
561.94	47140.73
562.11	46831.78
562.27	46658.58
562.44	47063.49
562.60	47119.66
562.77	47466.06
562.93	47707.14
563.10	47295.21
563.26	46197.49
563.42	46319.20
563.59	45998.55
563.75	45797.26
563.92	46635.17
564.08	46286.43
564.24	46756.88
564.41	46726.46
564.57	46377.72
564.74	46080.47
564.90	45497.67
565.07	45701.30
565.23	45570.23
565.39	44634.02
565.56	43906.11
565.72	43887.39
565.88	44444.43
566.05	44444.43
566.21	44552.10
566.38	45006.16
566.54	45399.37
566.70	45752.79
566.87	45375.97
567.03	45830.03
567.19	46134.30
567.36	45598.32
567.52	45076.38
567.68	45387.67
567.85	44264.21
568.01	43772.70
568.17	42838.83
568.34	43426.30
568.50	43622.90
568.66	43133.73
568.83	44416.35
568.99	43531.62
569.15	44060.58
569.32	44041.86
569.48	43438.00
569.64	42988.62
569.81	42637.54
569.97	42401.14
570.13	42686.69
570.30	42064.11
570.46	41537.49
570.62	40357.86
570.78	40704.26
570.95	40505.31
571.11	42541.58
571.27	42948.83
571.43	42405.83
571.60	43435.66
571.76	42939.47
571.92	43845.26
572.09	43627.59
572.25	43562.05
572.41	43246.08
572.57	42850.53
572.74	43894.41
572.90	43447.36
573.06	43297.57
573.22	43159.48
573.38	43098.62
573.55	42721.80
573.71	43309.27
573.87	42787.33
574.03	42038.36
574.20	42270.08
574.36	42139.00
574.52	41656.85
574.68	41329.18
574.84	41378.33
575.01	40657.45
575.17	40896.18
575.33	41237.90
575.49	41425.14
575.65	41830.05
575.82	41581.96
575.98	41764.52
576.14	41343.22
576.30	42773.29
576.46	43533.96
576.62	44013.77
576.79	43622.90
576.95	42799.04
577.11	41450.89
577.27	41191.09
577.43	41500.04
577.59	40650.42
577.75	40076.99
577.92	39005.03
578.08	39026.09
578.24	39201.63
578.40	41055.34
578.56	42012.62
578.72	42604.77
578.88	42576.69
579.04	41214.49
579.21	41015.55
579.37	40781.49
579.53	40744.05
579.69	41237.90
579.85	41081.08
580.01	41514.08
580.17	40243.17
580.33	40495.95
580.49	40264.24
580.65	40470.20
580.82	40776.81
580.98	40257.21
581.14	40261.90
581.30	40863.41
581.46	40671.49
581.62	41294.07
581.78	40477.22
581.94	41535.15
582.10	40816.60
582.26	41240.24
582.42	41027.25
582.58	41027.25
582.74	40776.81
582.90	41205.13
583.06	40921.93
583.22	41092.79
583.38	40896.18
583.54	40655.11
583.70	41153.64
583.86	41041.29
584.02	40615.32
584.18	41593.66
584.34	40390.62
584.50	40224.45
584.66	39646.33
584.82	39145.46
