SpectraSuite Data File
++++++++++++++++++++++++++++++++++++
Date: Mon Oct 07 14:53:57 GMT-05:00 2013
User: price-jones
Dark Spectrum Present: No
Reference Spectrum Present: No
Number of Sampled Component Spectra: 1
Spectrometers: USB2+H05261
Integration Time (usec): 100000 (USB2+H05261)
Spectra Averaged: 1 (USB2+H05261)
Boxcar Smoothing: 0 (USB2+H05261)
Correct for Electrical Dark: No (USB2+H05261)
Strobe/Lamp Enabled: No (USB2+H05261)
Correct for Detector Non-linearity: No (USB2+H05261)
Correct for Stray Light: No (USB2+H05261)
Number of Pixels in Processed Spectrum: 2048
>>>>>Begin Processed Spectral Data<<<<<
365.73	0.00
365.92	0.00
366.12	0.00
366.32	0.00
366.52	0.00
366.72	0.00
366.91	0.00
367.11	0.00
367.31	0.00
367.51	0.00
367.70	0.00
367.90	0.00
368.10	0.00
368.30	0.00
368.49	0.00
368.69	0.00
368.89	0.00
369.09	0.00
369.28	0.00
369.48	0.00
369.68	0.00
369.87	0.00
370.07	0.00
370.27	0.00
370.47	898.77
370.66	4262.12
370.86	5011.09
371.06	5301.31
371.25	5313.02
371.45	4802.78
371.65	4435.32
371.84	4100.62
372.04	4292.54
372.24	4891.72
372.44	5130.45
372.63	4910.44
372.83	4503.19
373.03	3962.53
373.22	3791.67
373.42	3948.48
373.62	4447.02
373.81	4952.57
374.01	4830.87
374.21	4306.59
374.40	4037.42
374.60	4180.20
374.79	4791.08
374.99	5558.77
375.19	6087.73
375.38	6015.18
375.58	5591.54
375.78	5540.05
375.97	5652.39
376.17	5685.16
376.37	5902.83
376.56	5975.39
376.76	6345.19
376.95	6640.10
377.15	7377.37
377.35	7344.60
377.54	7667.60
377.74	7929.74
377.93	7948.46
378.13	7604.40
378.33	7452.27
378.52	6803.94
378.72	6392.00
378.91	6389.66
379.11	6076.03
379.31	5998.79
379.50	6057.31
379.70	6511.37
379.89	7157.36
380.09	7730.79
380.28	7719.09
380.48	7742.49
380.68	7550.57
380.87	7199.49
381.07	6972.46
381.26	6356.90
381.46	5956.66
381.65	5846.66
381.85	5565.79
382.04	5181.95
382.24	5029.81
382.43	4793.42
382.63	4655.33
382.83	4690.43
383.02	4702.14
383.22	4587.45
383.41	4524.26
383.61	5123.43
383.80	5767.08
384.00	6459.88
384.19	7379.71
384.39	7747.17
384.58	7447.58
384.78	7360.98
384.97	7372.69
385.17	6794.58
385.36	6471.58
385.56	6258.59
385.75	6520.73
385.95	7075.44
386.14	7749.51
386.34	7988.25
386.53	7438.22
386.72	6949.05
386.92	6815.64
387.11	7410.14
387.31	7693.34
387.50	7545.89
387.70	7346.94
387.89	7148.00
388.09	7424.18
388.28	7499.08
388.48	7611.42
388.67	7801.01
388.86	8870.63
389.06	9460.45
389.25	9715.56
389.45	9935.57
389.64	9926.21
389.84	9823.23
390.03	9736.63
390.22	9654.71
390.42	9837.27
390.61	10696.25
390.81	11265.00
391.00	11552.88
391.19	11265.00
391.39	10792.21
391.58	10410.70
391.78	9596.20
391.97	9460.45
392.16	8793.39
392.36	8056.12
392.55	6548.82
392.75	5135.14
392.94	4217.65
393.13	4294.88
393.33	5015.77
393.52	6492.65
393.71	7941.44
393.91	8781.69
394.10	9380.87
394.29	10373.25
394.49	11119.89
394.68	11833.75
394.88	11892.26
395.07	12538.25
395.26	12009.29
395.46	11644.17
395.65	11393.73
395.84	9804.50
396.04	8514.87
396.23	6647.12
396.42	5636.01
396.62	5643.03
396.81	6286.68
397.00	8067.83
397.19	10150.90
397.39	12079.50
397.58	13556.38
397.77	14530.05
397.97	14949.00
398.16	14988.79
398.35	15824.36
398.55	16070.12
398.74	16917.39
398.93	17153.79
399.12	16566.31
399.32	15920.32
399.51	16610.78
399.70	17479.12
399.90	17326.99
400.09	17055.48
400.28	17348.05
400.47	17362.09
400.67	18511.30
400.86	18939.62
401.05	18597.90
401.24	18927.91
401.44	19161.97
401.63	18932.59
401.82	19424.11
402.01	19124.52
402.21	19431.13
402.40	19440.49
402.59	18745.35
402.78	18153.20
402.97	17582.10
403.17	18092.34
403.36	19396.02
403.55	20013.92
403.74	20645.87
403.93	19288.35
404.13	17926.16
404.32	17488.48
404.51	18459.81
404.70	19709.65
404.89	19711.99
405.09	19377.30
405.28	18906.85
405.47	18602.58
405.66	18471.51
405.85	18104.04
406.05	17556.36
406.24	18008.08
406.43	18654.07
406.62	19557.52
406.81	19487.30
407.00	18750.03
407.20	18705.56
407.39	18588.53
407.58	19372.61
407.77	20355.64
407.96	20924.39
408.15	21191.21
408.34	21132.70
408.54	22188.28
408.73	22223.39
408.92	22061.89
409.11	21275.47
409.30	20290.10
409.49	18838.97
409.68	17825.52
409.87	17532.95
410.07	18628.32
410.26	19997.54
410.45	20762.89
410.64	21598.46
410.83	22293.60
411.02	22331.05
411.21	23620.69
411.40	23117.47
411.59	23227.48
411.78	23119.81
411.98	22918.53
412.17	23278.97
412.36	23014.49
412.55	23028.53
412.74	22286.58
412.93	21673.36
413.12	22127.42
413.31	24474.98
413.50	24346.25
413.69	24795.64
413.88	23852.40
414.07	23360.89
414.26	23580.90
414.45	24694.99
414.64	24306.46
414.83	24386.04
415.02	23826.65
415.22	23754.10
415.41	24697.33
415.60	25467.37
415.79	26618.91
415.98	26815.52
416.17	27150.21
416.36	25970.58
416.55	26071.23
416.74	25097.56
416.93	23831.33
417.12	24065.39
417.31	24292.42
417.50	25036.71
417.69	25546.95
417.88	25881.64
418.07	25390.13
418.26	24826.06
418.45	25348.00
418.64	26263.15
418.83	27154.90
419.02	26480.82
419.21	26494.86
419.39	25099.90
419.58	24053.69
419.77	23789.20
419.96	24994.58
420.15	26232.72
420.34	27360.86
420.53	28144.94
420.72	28442.19
420.91	28648.16
421.10	27845.35
421.29	27859.40
421.48	26962.97
421.67	28011.53
421.86	27747.05
422.05	25816.11
422.24	22768.73
422.43	23288.33
422.61	24966.49
422.80	27421.72
422.99	27033.19
423.18	26471.46
423.37	25577.37
423.56	25593.76
423.75	26230.38
423.94	26539.33
424.13	25151.40
424.32	25563.33
424.50	25362.04
424.69	25179.48
424.88	25289.49
425.07	25668.66
425.26	25338.64
425.45	25099.90
425.64	24603.71
425.83	24423.49
426.01	25848.88
426.20	26689.13
426.39	26642.32
426.58	24814.36
426.77	22794.48
426.96	22190.62
427.15	22902.14
427.33	24577.97
427.52	25441.62
427.71	25671.00
427.90	25167.78
428.09	24692.65
428.28	24482.00
428.46	23426.42
428.65	23197.05
428.84	23639.41
429.03	24568.60
429.22	23204.07
429.40	21958.91
429.59	19625.39
429.78	17287.20
429.97	17408.90
430.16	17984.68
430.34	17720.20
430.53	17694.45
430.72	18298.31
430.91	20051.37
431.10	23903.89
431.28	27653.43
431.47	30211.64
431.66	30417.60
431.85	27744.71
432.03	25560.99
432.22	24292.42
432.41	25390.13
432.60	27985.79
432.79	29010.94
432.97	30073.54
433.16	29521.18
433.35	26675.09
433.54	23831.33
433.72	22555.74
433.91	23222.80
434.10	25738.87
434.28	27857.06
434.47	29399.47
434.66	28814.34
434.85	28121.54
435.03	28018.55
435.22	28666.88
435.41	30202.27
435.59	30354.41
435.78	30492.50
435.97	31454.46
436.16	31873.42
436.34	31269.56
436.53	30991.03
436.72	30387.18
436.90	28954.77
437.09	28922.00
437.28	28470.28
437.46	29308.19
437.65	29591.39
437.84	27173.62
438.02	25200.55
438.21	24877.55
438.40	26394.22
438.58	28577.94
438.77	29221.59
438.96	29448.62
439.14	31175.94
439.33	31412.33
439.52	32224.50
439.70	31274.24
439.89	30492.50
440.08	29642.88
440.26	29575.01
440.45	30525.27
440.63	32849.42
440.82	34452.69
441.01	33968.19
441.19	33799.68
441.38	34251.40
441.57	35370.18
441.75	36079.36
441.94	36112.13
442.12	35583.16
442.31	36051.27
442.50	36435.12
442.68	35849.99
442.87	34988.67
443.05	34792.06
443.24	35449.75
443.43	36051.27
443.61	36856.42
443.80	37354.95
443.98	35140.80
444.17	34953.56
444.35	37436.87
444.54	37556.24
444.73	37046.00
444.91	35758.70
445.10	34529.92
445.28	32978.15
445.47	32561.53
445.65	32573.24
445.84	33553.92
446.02	34848.24
446.21	34969.94
446.39	35316.34
446.58	35449.75
446.77	36467.89
446.95	36512.36
447.14	37214.52
447.32	38181.16
447.51	37502.40
447.69	35875.73
447.88	35185.27
448.06	35541.03
448.25	36692.58
448.43	37546.87
448.62	36123.83
448.80	35768.07
448.99	36240.86
449.17	36444.48
449.36	36498.31
449.54	38043.07
449.73	38253.72
449.91	38962.90
450.10	40334.45
450.28	40439.78
450.46	40243.17
450.65	40172.96
450.83	39798.47
451.02	39475.48
451.20	38902.04
451.39	38944.17
451.57	38574.37
451.76	38876.30
451.94	38103.92
452.13	37509.43
452.31	35852.33
452.49	34778.02
452.68	35091.65
452.86	34878.66
453.05	35386.56
453.23	36205.75
453.42	37226.22
453.60	38232.65
453.78	38583.73
453.97	38583.73
454.15	38169.46
454.34	37361.97
454.52	37350.27
454.70	36865.78
454.89	37069.40
455.07	37404.10
455.26	37724.75
455.44	39257.81
455.62	39817.19
455.81	39672.08
455.99	39751.66
456.17	39175.89
456.36	39496.54
456.54	40341.47
456.73	40390.62
456.91	40854.05
457.09	41303.43
457.28	41780.90
457.46	40367.22
457.64	40484.25
457.83	39161.84
458.01	37834.76
458.19	39119.71
458.38	39222.70
458.56	40765.11
458.74	40760.43
458.93	39349.09
459.11	39655.70
459.29	39351.43
459.48	39480.16
459.66	39208.65
459.84	39433.35
460.03	39840.60
460.21	39995.07
460.39	41174.70
460.57	41298.75
460.76	41195.77
460.94	41432.16
461.12	40893.84
461.31	40987.46
461.49	40982.78
461.67	41319.82
461.85	42356.67
462.04	41832.39
462.22	42513.49
462.40	42307.52
462.59	42316.89
462.77	41907.29
462.95	41567.91
463.13	41308.11
463.32	41303.43
463.50	41141.94
463.68	40992.14
463.86	41228.54
464.05	40526.38
464.23	39466.11
464.41	39241.42
464.59	38684.37
464.78	40861.07
464.96	40650.42
465.14	39611.23
465.32	41315.14
465.50	41696.64
465.69	42595.41
465.87	41371.31
466.05	40533.40
466.23	39084.61
466.41	38164.78
466.60	39173.55
466.78	39058.86
466.96	40100.40
467.14	40608.29
467.32	40580.21
467.51	40620.00
467.69	39220.36
467.87	40453.82
468.05	40470.20
468.23	40006.78
468.41	41020.23
468.60	40758.09
468.78	40753.41
468.96	40540.42
469.14	41186.41
469.32	41621.75
469.50	39636.97
469.69	40004.44
469.87	39416.96
470.05	39147.80
470.23	39641.65
470.41	39236.74
470.59	40116.78
470.77	40194.02
470.95	41177.04
471.14	41092.79
471.32	41626.43
471.50	43728.23
471.68	43592.48
471.86	43971.64
472.04	43770.36
472.22	44245.49
472.40	42178.79
472.58	41837.08
472.77	41226.20
472.95	42160.07
473.13	43175.86
473.31	41935.38
473.49	41734.09
473.67	43309.27
473.85	43100.97
474.03	44444.43
474.21	44247.83
474.39	44818.92
474.57	44959.35
474.75	45446.18
474.93	44821.26
475.12	43999.73
475.30	43789.08
475.48	44074.63
475.66	44776.79
475.84	43978.67
476.02	44027.82
476.20	43030.75
476.38	43601.84
476.56	45069.36
476.74	45558.53
476.92	46108.55
477.10	46593.04
477.28	47372.44
477.46	47763.31
477.64	47955.24
477.82	48016.09
478.00	48334.40
478.18	47482.45
478.36	47433.30
478.54	47365.42
478.72	47657.99
478.90	48755.70
479.08	49595.95
479.26	50145.98
479.44	49963.42
479.62	49944.69
479.80	49759.79
479.98	49909.58
480.16	50328.54
480.34	49970.44
480.52	49972.78
480.70	50684.30
480.88	50401.10
481.06	50850.48
481.24	51337.31
481.41	51810.10
481.59	52240.76
481.77	52226.71
481.95	51601.79
482.13	51475.40
482.31	51601.79
482.49	52463.11
482.67	52025.43
482.85	52184.58
483.03	52774.40
483.21	52973.34
483.39	52954.62
483.57	52280.55
483.74	52095.64
483.92	52505.24
484.10	52453.75
484.28	53352.51
484.46	53457.84
484.64	53710.61
484.82	53254.21
485.00	52776.74
485.18	52100.32
485.35	51386.46
485.53	48437.39
485.71	44580.18
485.89	44208.04
486.07	45521.08
486.25	49181.68
486.43	51360.72
486.61	52196.29
486.78	51831.16
486.96	52020.75
487.14	53441.45
487.32	54064.03
487.50	54958.12
487.68	55468.36
487.85	55999.66
488.03	56060.51
488.21	55781.99
488.39	55103.23
488.57	54454.90
488.75	54176.38
488.92	54878.54
489.10	57036.51
489.28	57766.76
489.46	58511.05
489.64	58284.02
489.81	58333.17
489.99	58211.46
490.17	58089.76
490.35	58391.68
490.53	58302.74
490.70	57811.23
490.88	57771.44
491.06	58557.86
491.24	58489.99
491.41	57502.28
491.59	56329.67
491.77	55414.52
491.95	56507.55
492.13	57668.46
492.30	58424.45
492.48	59253.00
492.66	59664.94
492.84	59590.04
493.01	59388.75
493.19	59112.57
493.37	58663.19
493.54	58450.20
493.72	59089.16
493.90	59990.27
494.08	60741.58
494.25	60706.47
494.43	60917.12
494.61	61179.26
494.79	61307.99
494.96	61141.81
495.14	60395.18
495.32	59650.89
495.49	59423.86
495.67	60140.07
495.85	61221.39
496.02	61549.07
496.20	61656.73
496.38	61029.47
496.55	60973.30
496.73	61528.00
496.91	61450.77
497.09	62024.20
497.26	62110.80
497.44	61724.61
497.62	61303.31
497.79	60313.26
497.97	59515.14
498.14	59620.47
498.32	60605.83
498.50	61474.17
498.67	61762.06
498.85	61750.35
499.03	61726.95
499.20	61867.38
499.38	62124.84
499.56	61815.89
499.73	61530.34
499.91	61195.65
500.08	60795.42
500.26	60135.38
500.44	60530.93
500.61	61029.47
500.79	61029.47
500.97	60629.24
501.14	60552.00
501.32	60474.76
501.49	60334.33
501.67	60549.66
501.84	60807.12
502.02	61230.75
502.20	61600.56
502.37	61743.33
502.55	61649.71
502.72	62234.84
502.90	62670.18
503.07	62405.70
503.25	62082.71
503.43	61275.22
503.60	60856.27
503.78	59973.89
503.95	60495.83
504.13	61652.05
504.30	62358.89
504.48	62122.50
504.65	61872.06
504.83	61895.47
505.01	62361.23
505.18	62747.42
505.36	63360.64
505.53	63297.45
505.71	63685.98
505.88	63568.95
506.06	63054.03
506.23	62527.41
506.41	62394.00
506.58	62548.48
506.76	62602.31
506.93	62614.01
507.11	62262.93
507.28	62433.79
507.46	62085.05
507.63	61399.27
507.81	61462.47
507.98	61588.86
508.16	62241.87
508.33	62536.77
508.50	62997.86
508.68	63220.21
508.85	63550.23
509.03	63557.25
509.20	63660.23
509.38	62819.98
509.55	62269.95
509.73	62178.67
509.90	62726.36
510.08	62873.81
510.25	62953.39
510.42	62482.94
510.60	62667.84
510.77	62892.54
510.95	63440.22
511.12	63566.61
511.30	63580.65
511.47	64006.63
511.64	63838.11
511.82	63732.79
511.99	62967.43
512.17	62702.95
512.34	62251.23
512.51	62408.04
512.69	62478.26
512.86	62522.73
513.04	62986.16
513.21	62965.09
513.38	62714.65
513.56	62386.98
513.73	61668.44
513.90	61872.06
514.08	61932.92
514.25	62063.99
514.43	62260.59
514.60	62370.60
514.77	62562.52
514.95	62667.84
515.12	62691.25
515.29	62761.47
515.47	63164.04
515.64	63243.62
515.81	63093.82
515.99	62529.75
516.16	61230.75
516.33	59220.23
516.51	58087.42
516.68	57380.57
516.85	57113.75
517.03	57352.49
517.20	59847.50
517.37	61736.31
517.54	62656.14
517.72	62068.67
517.89	60130.70
518.06	57794.85
518.24	58342.53
518.41	60254.75
518.58	61422.68
518.75	61439.06
518.93	61689.50
519.10	61471.83
519.27	61820.57
519.45	62115.48
519.62	62714.65
519.79	63149.99
519.96	62988.50
520.14	62405.70
520.31	61799.50
520.48	61680.14
520.65	62138.88
520.83	62929.98
521.00	63203.83
521.17	62983.82
521.34	62457.20
521.52	62834.02
521.69	63341.92
521.86	63868.54
522.03	63571.29
522.20	62262.93
522.38	61432.04
522.55	61621.62
522.72	62159.95
522.89	62138.88
523.07	62227.82
523.24	62415.07
523.41	63433.20
523.58	63716.40
523.75	63973.86
523.92	64100.25
524.10	63845.13
524.27	63788.96
524.44	63484.69
524.61	63426.18
524.78	63213.19
524.96	62988.50
525.13	63283.40
525.30	63400.43
525.47	63849.81
525.64	63758.53
525.81	63110.20
525.98	61638.01
526.16	60505.19
526.33	59931.76
526.50	59898.99
526.67	59262.36
526.84	59948.14
527.01	60903.08
527.18	61403.95
527.36	62178.67
527.53	63007.22
527.70	63274.04
527.87	62742.74
528.04	62241.87
528.21	62766.15
528.38	63384.05
528.55	64039.40
528.72	64076.85
528.89	64376.43
529.07	64037.06
529.24	63447.24
529.41	62920.62
529.58	62272.29
529.75	62452.51
529.92	62906.58
530.09	63505.76
530.26	63685.98
530.43	63955.14
530.60	63948.12
530.77	64170.47
530.94	64285.15
531.11	63690.66
531.28	63337.24
531.46	63430.86
531.63	63472.99
531.80	63433.20
531.97	62883.17
532.14	62120.16
532.31	61378.21
532.48	60849.25
532.65	60650.30
532.82	61628.65
532.99	62583.58
533.16	62583.58
533.33	63435.54
533.50	63072.76
533.67	62644.44
533.84	62330.81
534.01	62468.90
534.18	62649.12
534.35	62649.12
534.52	62522.73
534.69	62927.64
534.86	63077.44
535.03	63295.11
535.20	63833.43
535.37	64030.04
535.54	64030.04
535.71	63767.90
535.88	63526.82
536.05	63070.42
536.22	62581.24
536.38	62316.76
536.55	61862.70
536.72	61448.42
536.89	61401.61
537.06	62211.44
537.23	62855.09
537.40	62925.30
537.57	63091.48
537.74	62742.74
537.91	62759.12
538.08	62749.76
538.25	62829.34
538.42	62876.15
538.59	62726.36
538.75	62316.76
538.92	62024.20
539.09	61897.81
539.26	61900.15
539.43	61642.69
539.60	61474.17
539.77	61724.61
539.94	61652.05
540.11	61078.62
540.28	60591.79
540.44	60622.22
540.61	60832.86
540.78	61041.17
540.95	61441.40
541.12	61787.80
541.29	61794.82
541.46	62216.12
541.62	62307.40
541.79	62241.87
541.96	61773.76
542.13	61584.18
542.30	61925.89
542.47	62024.20
542.63	62003.13
542.80	61722.27
542.97	61684.82
543.14	61619.28
543.31	61556.09
543.48	62141.22
543.64	62864.45
543.81	63196.80
543.98	63039.99
544.15	62202.08
544.32	61750.35
544.48	61663.75
544.65	62122.50
544.82	62557.84
544.99	62141.22
545.16	61963.34
545.32	61581.84
545.49	62276.97
545.66	62728.70
545.83	62419.75
546.00	62145.90
546.16	61740.99
546.33	61712.91
546.50	61907.17
546.67	62307.40
546.83	61776.10
547.00	62012.49
547.17	61371.19
547.34	60715.84
547.50	60711.16
547.67	61029.47
547.84	61062.24
548.00	61708.22
548.17	61836.95
548.34	61757.38
548.51	61719.93
548.67	61778.44
548.84	61876.74
549.01	61815.89
549.18	61755.03
549.34	61724.61
549.51	61719.93
549.68	61703.54
549.84	61572.47
550.01	61408.64
550.18	61151.18
550.34	61418.00
550.51	61591.20
550.68	61415.66
550.84	61109.05
551.01	61127.77
551.18	61123.09
551.34	61099.68
551.51	61612.26
551.68	61670.78
551.84	61874.40
552.01	61607.58
552.18	61380.55
552.34	60870.31
552.51	60577.75
552.68	60374.12
552.84	61027.13
553.01	61111.39
553.18	61073.94
553.34	61146.50
553.51	61214.37
553.67	61464.81
553.84	61495.24
554.01	61439.06
554.17	61118.41
554.34	61350.12
554.51	61368.85
554.67	61602.90
554.84	61689.50
555.00	61099.68
555.17	60931.17
555.33	61057.56
555.50	60842.23
555.67	60832.86
555.83	60900.74
556.00	60580.09
556.16	60563.70
556.33	60261.77
556.50	60287.52
556.66	60161.13
556.83	59908.35
556.99	60076.87
557.16	59952.82
557.32	60273.48
557.49	60563.70
557.65	60353.05
557.82	60456.04
557.98	60402.21
558.15	59840.48
558.32	59077.46
558.48	58784.90
558.65	58548.50
558.81	59032.99
558.98	59117.25
559.14	59306.83
559.31	59327.90
559.47	59524.50
559.64	59135.98
559.80	58775.53
559.97	59030.65
560.13	59330.24
560.30	60200.92
560.46	60743.92
560.63	60743.92
560.79	60865.63
560.96	60437.31
561.12	59447.27
561.29	58609.35
561.45	58719.36
561.61	59260.02
561.78	59564.29
561.94	59423.86
562.11	59164.06
562.27	59098.53
562.44	59473.01
562.60	59697.70
562.77	59906.01
562.93	59847.50
563.10	59894.31
563.26	59470.67
563.42	59395.77
563.59	59016.61
563.75	58974.48
563.92	59236.62
564.08	59100.87
564.24	59351.30
564.41	59327.90
564.57	59377.05
564.74	59131.29
564.90	58995.54
565.07	58700.64
565.23	58492.33
565.39	58232.53
565.56	57818.25
565.72	57719.95
565.88	58155.29
566.05	58089.76
566.21	58499.35
566.38	58525.10
566.54	58592.97
566.70	58749.79
566.87	58997.88
567.03	58995.54
567.19	59140.66
567.36	59037.67
567.52	58862.13
567.68	58742.77
567.85	58047.63
568.01	57628.67
568.17	57474.20
568.34	57446.11
568.50	57387.60
568.66	57502.28
568.83	57876.77
568.99	57851.02
569.15	57801.87
569.32	57923.58
569.48	57776.12
569.64	57560.79
569.81	57268.23
569.97	57265.89
570.13	57282.27
570.30	56575.43
570.46	56420.95
570.62	56079.24
570.78	55805.39
570.95	56229.03
571.11	56692.46
571.27	56961.62
571.43	57183.97
571.60	57638.03
571.76	57565.48
571.92	57616.97
572.09	57827.62
572.25	57911.88
572.41	57996.13
572.57	57532.71
572.74	57661.44
572.90	57212.06
573.06	57277.59
573.22	57364.19
573.38	57200.35
573.55	57387.60
573.71	57411.00
573.87	57354.83
574.03	57120.77
574.20	57216.74
574.36	56963.96
574.52	57001.41
574.68	56622.24
574.84	56439.68
575.01	55742.20
575.17	55753.90
575.33	56184.56
575.49	56495.85
575.65	56369.46
575.82	56432.66
575.98	55798.37
576.14	56460.74
576.30	56617.56
576.46	56830.55
576.62	56584.79
576.79	56430.32
576.95	56142.43
577.11	56285.20
577.27	55983.27
577.43	56444.36
577.59	55765.60
577.75	55519.85
577.92	55110.25
578.08	54911.31
578.24	54827.05
578.40	55351.33
578.56	55510.49
578.72	55451.97
578.88	55526.87
579.04	55679.00
579.21	55789.01
579.37	55842.84
579.53	56163.50
579.69	55910.72
579.85	56207.97
580.01	55854.54
580.17	55583.04
580.33	55234.30
580.49	55648.58
580.65	55791.35
580.82	56037.11
580.98	55863.91
581.14	55817.10
581.30	55826.46
581.46	55751.56
581.62	55943.48
581.78	55683.69
581.94	56009.02
582.10	55840.50
582.26	56025.40
582.42	55800.71
582.58	56030.08
582.74	55896.67
582.90	55854.54
583.06	55999.66
583.22	55566.66
583.38	55716.45
583.54	55711.77
583.70	55285.79
583.86	55744.54
584.02	55430.91
584.18	55636.87
584.34	55456.65
584.50	55484.74
584.66	55351.33
584.82	55306.86
584.98	54775.56
585.14	54480.65
