SpectraSuite Data File
++++++++++++++++++++++++++++++++++++
Date: Mon Oct 07 14:55:00 GMT-05:00 2013
User: price-jones
Dark Spectrum Present: No
Reference Spectrum Present: No
Number of Sampled Component Spectra: 1
Spectrometers: USB2+H05261
Integration Time (usec): 10000 (USB2+H05261)
Spectra Averaged: 1 (USB2+H05261)
Boxcar Smoothing: 0 (USB2+H05261)
Correct for Electrical Dark: No (USB2+H05261)
Strobe/Lamp Enabled: No (USB2+H05261)
Correct for Detector Non-linearity: No (USB2+H05261)
Correct for Stray Light: No (USB2+H05261)
Number of Pixels in Processed Spectrum: 2048
>>>>>Begin Processed Spectral Data<<<<<
365.73	0.00
365.92	0.00
366.12	0.00
366.32	0.00
366.52	0.00
366.72	0.00
366.91	0.00
367.11	0.00
367.31	0.00
367.51	0.00
367.70	0.00
367.90	0.00
368.10	0.00
368.30	0.00
368.49	0.00
368.69	0.00
368.89	0.00
369.09	0.00
369.28	0.00
369.48	0.00
369.68	0.00
369.87	0.00
370.07	0.00
370.27	0.00
370.47	360.44
370.66	2417.77
370.86	2600.34
371.06	2888.22
371.25	2876.52
371.45	2495.01
371.65	2263.30
371.84	2169.68
372.04	2256.28
372.24	2635.44
372.44	2768.85
372.63	2569.91
372.83	2387.35
373.03	2038.61
373.22	2008.18
373.42	2246.91
373.62	2595.65
373.81	2637.78
374.01	2483.31
374.21	2326.49
374.40	2286.70
374.60	2415.43
374.79	2771.19
374.99	3094.19
375.19	3229.94
375.38	3248.66
375.58	3052.06
375.78	3009.93
375.97	3110.57
376.17	3176.11
376.37	3222.92
376.56	3370.37
376.76	3585.70
376.95	3770.60
377.15	3864.22
377.35	4215.30
377.54	4547.66
377.74	4552.34
377.93	4409.57
378.13	4299.56
378.33	4245.73
378.52	3772.94
378.72	3644.21
378.91	3499.10
379.11	3571.66
379.31	3447.61
379.50	3375.05
379.70	3801.03
379.89	4224.67
380.09	4243.39
380.28	4440.00
380.48	4322.97
380.68	4468.08
380.87	4166.15
381.07	3763.58
381.26	3442.93
381.46	3253.34
381.65	3141.00
381.85	3094.19
382.04	3005.25
382.24	2712.68
382.43	2693.96
382.63	2691.62
382.83	2672.89
383.02	2630.76
383.22	2656.51
383.41	2637.78
383.61	3056.74
383.80	3452.29
384.00	3875.93
384.19	4189.56
384.39	4294.88
384.58	4290.20
384.78	4234.03
384.97	4234.03
385.17	4121.68
385.36	3817.41
385.56	3667.62
385.75	3843.16
385.95	4210.62
386.14	4575.75
386.34	4376.80
386.53	4285.52
386.72	3885.29
386.92	4180.20
387.11	4416.59
387.31	4547.66
387.50	4425.95
387.70	4358.08
387.89	4187.22
388.09	4442.34
388.28	4311.27
388.48	4442.34
388.67	4823.84
388.86	5343.44
389.06	5526.00
389.25	6090.07
389.45	5987.09
389.64	6071.35
389.84	5872.40
390.03	5769.42
390.22	5982.41
390.42	6284.34
390.61	6415.41
390.81	6944.37
391.00	7159.70
391.19	7073.10
391.39	6520.73
391.58	6282.00
391.78	5806.87
391.97	5746.02
392.16	5294.29
392.36	4688.09
392.55	3641.87
392.75	2801.62
392.94	2562.89
393.13	2525.44
393.33	3197.17
393.52	4208.28
393.71	4903.42
393.91	5488.56
394.10	5853.68
394.29	6399.02
394.49	7023.95
394.68	7606.74
394.88	7375.03
395.07	7494.40
395.26	7630.15
395.46	7131.61
395.65	6743.08
395.84	5926.24
396.04	4999.38
396.23	4049.13
396.42	3353.99
396.62	3445.27
396.81	4152.11
397.00	5224.08
397.19	6712.66
397.39	7864.20
397.58	8870.63
397.77	9032.13
397.97	9364.48
398.16	9607.90
398.35	9900.47
398.55	10167.29
398.74	10609.65
398.93	10668.16
399.12	10431.77
399.32	10200.05
399.51	10771.15
399.70	11192.44
399.90	10920.94
400.09	11105.84
400.28	10878.81
400.47	11290.74
400.67	11700.34
400.86	11775.24
401.05	11756.51
401.24	12051.42
401.44	12280.79
401.63	12224.62
401.82	12339.30
402.01	12287.81
402.21	12446.97
402.40	12507.82
402.59	11803.32
402.78	11215.85
402.97	11267.34
403.17	11943.75
403.36	12716.13
403.55	12755.92
403.74	12744.22
403.93	12147.38
404.13	11246.27
404.32	11316.49
404.51	12194.19
404.70	12769.96
404.89	12926.78
405.09	12582.72
405.28	12166.10
405.47	12386.12
405.66	12250.36
405.85	11721.40
406.05	11550.54
406.24	11754.17
406.43	12355.69
406.62	12746.56
406.81	12816.77
407.00	12418.88
407.20	11887.58
407.39	12123.98
407.58	12821.45
407.77	13535.32
407.96	13872.36
408.15	13806.82
408.34	13907.46
408.54	14621.33
408.73	14518.34
408.92	14157.90
409.11	13500.21
409.30	13205.30
409.49	12229.30
409.68	11674.59
409.87	11449.90
410.07	12395.48
410.26	13181.90
410.45	13633.62
410.64	14317.06
410.83	14686.86
411.02	15161.99
411.21	15571.58
411.40	15255.61
411.59	15882.88
411.78	15250.93
411.98	15063.69
412.17	15435.83
412.36	15274.34
412.55	15014.54
412.74	14553.45
412.93	14658.78
413.12	15126.88
413.31	16292.47
413.50	16411.84
413.69	16407.16
413.88	15599.67
414.07	15386.68
414.26	15934.37
414.45	16376.73
414.64	16030.33
414.83	16229.27
415.02	16189.49
415.22	16348.64
415.41	16613.12
415.60	17263.79
415.79	17827.86
415.98	18321.71
416.17	17937.87
416.36	17654.66
416.55	17621.89
416.74	16959.52
416.93	16409.50
417.12	16252.68
417.31	16610.78
417.50	16774.62
417.69	17628.92
417.88	17151.45
418.07	17425.29
418.26	17116.34
418.45	17041.44
418.64	17767.01
418.83	18441.08
419.02	18031.49
419.21	17813.82
419.39	17102.29
419.58	16180.12
419.77	16533.54
419.96	17472.10
420.15	18305.33
420.34	18958.34
420.53	19332.82
420.72	19847.74
420.91	19269.63
421.10	18974.72
421.29	18920.89
421.48	18656.41
421.67	19501.34
421.86	18518.32
422.05	17109.32
422.24	15630.10
422.43	15889.90
422.61	17607.85
422.80	18895.14
422.99	18443.42
423.18	18129.79
423.37	17855.95
423.56	17848.93
423.75	18101.70
423.94	18602.58
424.13	17645.30
424.32	17715.51
424.50	18195.32
424.69	17727.22
424.88	17874.67
425.07	17965.95
425.26	17703.81
425.45	17130.38
425.64	16648.23
425.83	17341.03
426.01	18462.15
426.20	18768.76
426.39	17937.87
426.58	16737.17
426.77	15365.62
426.96	15641.80
427.15	16060.76
427.33	17649.98
427.52	18064.25
427.71	17818.50
427.90	17647.64
428.09	17462.74
428.28	17062.51
428.46	16264.38
428.65	16479.71
428.84	17048.46
429.03	16875.26
429.22	15974.16
429.40	14932.62
429.59	13277.86
429.78	12224.62
429.97	12428.24
430.16	12496.12
430.34	12374.41
430.53	12727.83
430.72	13284.88
430.91	14867.08
431.10	17659.34
431.28	20147.33
431.47	21769.32
431.66	21053.12
431.85	18874.08
432.03	17369.12
432.22	17411.25
432.41	18789.82
432.60	20395.43
432.79	20830.77
432.97	21238.02
433.16	20133.29
433.35	18768.76
433.54	16634.19
433.72	15873.51
433.91	17221.66
434.10	19115.16
434.28	20231.59
434.47	21219.30
434.66	20334.57
434.85	19936.68
435.03	20519.48
435.22	20472.67
435.41	21518.89
435.59	21680.38
435.78	22401.27
435.97	22314.67
436.16	23002.78
436.34	22195.30
436.53	21565.70
436.72	21884.01
436.90	20971.20
437.09	20741.83
437.28	20622.46
437.46	21345.69
437.65	20975.88
437.84	19417.08
438.02	18153.20
438.21	18724.29
438.40	19150.26
438.58	20819.07
438.77	21284.83
438.96	21362.07
439.14	22284.24
439.33	22911.50
439.52	23115.13
439.70	22431.69
439.89	22003.38
440.08	21546.97
440.26	21551.65
440.45	22459.78
440.63	24339.23
440.82	25118.63
441.01	24474.98
441.19	24491.37
441.38	25060.12
441.57	26038.46
441.75	26115.70
441.94	26658.70
442.12	26340.39
442.31	27318.73
442.50	26958.29
442.68	26448.05
442.87	25682.70
443.05	25766.96
443.24	26237.41
443.43	26700.83
443.61	26747.64
443.80	26955.95
443.98	25881.64
444.17	26382.52
444.35	27784.50
444.54	27997.49
444.73	26953.61
444.91	25883.98
445.10	25041.39
445.28	24264.33
445.47	24208.16
445.65	24159.01
445.84	25017.99
446.02	25738.87
446.21	26258.47
446.39	26218.68
446.58	26597.85
446.77	27321.07
446.95	27363.20
447.14	28397.72
447.32	29027.32
447.51	27983.44
447.69	26909.14
447.88	26754.66
448.06	27520.02
448.25	27658.11
448.43	27431.08
448.62	27204.05
448.80	27269.58
448.99	27264.90
449.17	27529.38
449.36	27882.80
449.54	28734.76
449.73	29205.20
449.91	29668.63
450.10	30347.39
450.28	30448.03
450.46	30197.59
450.65	30101.63
450.83	29919.07
451.02	29490.75
451.20	29422.87
451.39	28748.80
451.57	29022.64
451.76	29490.75
451.94	28474.96
452.13	28091.11
452.31	26342.73
452.49	25298.85
452.68	26312.30
452.86	26291.24
453.05	26679.77
453.23	27929.61
453.42	28685.61
453.60	29198.18
453.78	29790.34
453.97	28826.04
454.15	28315.80
454.34	28196.43
454.52	27955.36
454.70	27300.01
454.89	27765.78
455.07	28622.41
455.26	29083.50
455.44	30246.74
455.62	30347.39
455.81	30410.58
455.99	29982.26
456.17	29708.42
456.36	30536.97
456.54	30597.82
456.73	30410.58
456.91	31253.17
457.09	31297.64
457.28	32315.78
457.46	30632.93
457.64	29675.65
457.83	29212.23
458.01	28819.02
458.19	29921.41
458.38	30237.38
458.56	31037.84
458.74	30925.50
458.93	30323.98
459.11	29951.84
459.29	29846.51
459.48	29811.40
459.66	29790.34
459.84	30017.37
460.03	30604.84
460.21	31218.07
460.39	31791.50
460.57	31800.86
460.76	31667.45
460.94	31880.44
461.12	31541.06
461.31	31136.15
461.49	31702.56
461.67	32107.47
461.85	32259.60
462.04	32411.74
462.22	32231.52
462.40	32652.81
462.59	32559.19
462.77	32615.37
462.95	32123.85
463.13	32133.21
463.32	32055.98
463.50	31913.20
463.68	32072.36
463.86	31482.55
464.05	31283.60
464.23	30225.68
464.41	30363.77
464.59	30768.68
464.78	32496.00
464.96	31871.07
465.14	31178.28
465.32	32400.04
465.50	32706.65
465.69	33109.22
465.87	31941.29
466.05	30717.19
466.23	29500.11
466.41	29233.29
466.60	29926.09
466.78	30356.75
466.96	30267.81
467.14	31618.30
467.32	31534.04
467.51	31929.59
467.69	30270.15
467.87	31192.32
468.05	31768.09
468.23	31725.96
468.41	31491.91
468.60	31384.24
468.78	32297.05
468.96	31730.64
469.14	32292.37
469.32	32151.94
469.50	30927.84
469.69	31400.63
469.87	30953.58
470.05	31136.15
470.23	31056.57
470.41	31150.19
470.59	31763.41
470.77	31264.88
470.95	31807.88
471.14	32851.76
471.32	33167.73
471.50	34597.80
471.68	33680.31
471.86	34314.59
472.04	34639.93
472.22	34384.81
472.40	33081.13
472.58	32875.16
472.77	33041.34
472.95	33039.00
473.13	33944.79
473.31	33153.69
473.49	33357.32
473.67	34553.33
473.85	34555.67
474.03	34859.94
474.21	35810.20
474.39	35693.17
474.57	35842.96
474.75	35763.39
474.93	34595.46
475.12	34752.27
475.30	35196.98
475.48	35536.35
475.66	35241.45
475.84	35283.58
476.02	34749.93
476.20	34277.15
476.38	35601.89
476.56	36753.43
476.74	36332.14
476.92	36800.24
477.10	36989.83
477.28	37682.62
477.46	37333.89
477.64	38962.90
477.82	38492.45
478.00	38117.96
478.18	37390.06
478.36	37872.21
478.54	37247.29
478.72	38012.64
478.90	39475.48
479.08	40669.15
479.26	40140.19
479.44	40577.87
479.62	40416.37
479.80	40832.99
479.98	40346.15
480.16	41226.20
480.34	40509.99
480.52	41642.81
480.70	42021.98
480.88	41593.66
481.06	41340.88
481.24	42115.60
481.41	42974.58
481.59	43540.99
481.77	43012.02
481.95	42639.88
482.13	43070.54
482.31	42506.47
482.49	43430.98
482.67	43559.71
482.85	42850.53
483.03	44020.80
483.21	45326.81
483.39	44851.69
483.57	44629.34
483.74	43529.28
483.92	44308.68
484.10	44615.29
484.28	45340.86
484.46	45476.61
484.64	46124.94
484.82	45574.91
485.00	44732.32
485.18	43971.64
485.35	41296.41
485.53	37759.86
485.71	35189.95
485.89	35136.12
486.07	37888.59
486.25	41031.93
486.43	43246.08
486.61	44198.68
486.78	44282.94
486.96	44612.95
487.14	46078.13
487.32	46754.54
487.50	48074.60
487.68	48151.84
487.85	49085.72
488.03	48102.69
488.21	48046.52
488.39	47524.58
488.57	46279.41
488.75	46913.70
488.92	48105.03
489.10	50698.34
489.28	50522.80
489.46	51466.04
489.64	51760.95
489.81	52313.31
489.99	52383.53
490.17	51835.84
490.35	51896.70
490.53	51641.58
490.70	51447.32
490.88	51985.64
491.06	53095.05
491.24	52570.77
491.41	50864.52
491.59	49546.80
491.77	48956.99
491.95	50990.91
492.13	51885.00
492.30	52322.68
492.48	53734.02
492.66	54321.49
492.84	53483.58
493.01	53439.11
493.19	53102.07
493.37	52629.29
493.54	52371.83
493.72	53488.26
493.90	54141.27
494.08	55501.12
494.25	55704.75
494.43	55751.56
494.61	55894.33
494.79	55416.86
494.96	55524.53
495.14	55260.05
495.32	53663.80
495.49	53696.57
495.67	54768.54
495.85	55615.81
496.02	56512.23
496.20	56652.67
496.38	56395.21
496.55	55994.98
496.73	56568.41
496.91	56030.08
497.09	56596.49
497.26	57139.50
497.44	56439.68
497.62	55599.43
497.79	54293.41
497.97	54038.29
498.14	55203.88
498.32	55915.40
498.50	56306.27
498.67	56949.92
498.85	56645.65
499.03	56797.78
499.20	57565.48
499.38	56875.02
499.56	56463.08
499.73	56055.83
499.91	55922.42
500.08	55519.85
500.26	55653.26
500.44	56097.96
500.61	55828.80
500.79	55786.67
500.97	56030.08
501.14	55580.70
501.32	54731.09
501.49	55206.22
501.67	55779.65
501.84	55791.35
502.02	56313.29
502.20	56423.29
502.37	56860.97
502.55	57141.84
502.72	57715.27
502.90	57993.79
503.07	56928.85
503.25	56278.18
503.43	55267.07
503.60	55622.83
503.78	55295.16
503.95	55856.88
504.13	57102.05
504.30	57958.69
504.48	57132.48
504.65	57113.75
504.83	57249.50
505.01	57645.05
505.18	57935.28
505.36	58550.84
505.53	58604.67
505.71	58913.62
505.88	58927.67
506.06	58773.19
506.23	58056.99
506.41	57513.98
506.58	57322.06
506.76	58000.82
506.93	57584.20
507.11	57633.35
507.28	57446.11
507.46	56828.21
507.63	56875.02
507.81	57097.37
507.98	57312.70
508.16	57247.16
508.33	57467.17
508.50	58688.93
508.68	58866.81
508.85	59498.76
509.03	59604.08
509.20	59117.25
509.38	58115.50
509.55	57354.83
509.73	57478.88
509.90	58251.25
510.08	58812.98
510.25	58272.32
510.42	57315.04
510.60	57394.62
510.77	57914.22
510.95	58656.17
511.12	58763.83
511.30	59147.68
511.47	59384.07
511.64	59543.23
511.82	59503.44
511.99	58419.77
512.17	57963.37
512.34	57483.56
512.51	57946.98
512.69	57886.13
512.86	57719.95
513.04	58536.80
513.21	57745.70
513.38	56966.30
513.56	56598.83
513.73	56435.00
513.90	56795.44
514.08	57003.75
514.25	57453.13
514.43	57710.59
514.60	57504.62
514.77	57909.53
514.95	58745.11
515.12	59030.65
515.29	59112.57
515.47	59063.42
515.64	59313.86
515.81	58637.44
515.99	57499.94
516.16	55547.93
516.33	53378.26
516.51	53219.10
516.68	51332.63
516.85	50307.47
517.03	52512.26
517.20	55482.40
517.37	57495.26
517.54	58281.68
517.72	57396.96
517.89	54354.26
518.06	53001.43
518.24	54323.83
518.41	56418.61
518.58	57261.21
518.75	56865.66
518.93	56729.90
519.10	56537.98
519.27	57144.18
519.45	57649.74
519.62	58518.07
519.79	58117.84
519.96	57738.68
520.14	58056.99
520.31	57310.36
520.48	57373.55
520.65	57394.62
520.83	58061.67
521.00	58152.95
521.17	57701.23
521.34	58281.68
521.52	58922.99
521.69	59114.91
521.86	59835.80
522.03	59192.15
522.20	57069.28
522.38	56619.90
522.55	56767.35
522.72	56989.70
522.89	57787.83
523.07	57872.09
523.24	58110.82
523.41	58747.45
523.58	59774.94
523.75	59634.51
523.92	59576.00
524.10	59639.19
524.27	59753.88
524.44	58848.09
524.61	58845.75
524.78	59143.00
524.96	59121.93
525.13	59304.49
525.30	59877.93
525.47	60395.18
525.64	59744.51
525.81	59044.69
525.98	57506.96
526.16	55894.33
526.33	55583.04
526.50	54976.84
526.67	55257.71
526.84	55679.00
527.01	56472.45
527.18	57158.22
527.36	58241.89
527.53	58944.05
527.70	58976.82
527.87	58075.71
528.04	58042.95
528.21	58958.09
528.38	59348.96
528.55	60083.89
528.72	60044.10
528.89	60254.75
529.07	60074.53
529.24	59084.48
529.41	58494.67
529.58	58562.54
529.75	58890.22
529.92	59271.73
530.09	59419.18
530.26	58948.73
530.43	59395.77
530.60	59873.24
530.77	59583.02
530.94	59360.67
531.11	58852.77
531.28	58873.84
531.46	59505.78
531.63	59611.10
531.80	58585.95
531.97	58335.51
532.14	57488.24
532.31	56596.49
532.48	56191.58
532.65	56685.43
532.82	57261.21
532.99	59063.42
533.16	59192.15
533.33	59147.68
533.50	59561.95
533.67	58398.71
533.84	58237.21
534.01	58663.19
534.18	58321.47
534.35	58630.42
534.52	58267.64
534.69	58976.82
534.86	58710.00
535.03	59414.50
535.20	59681.32
535.37	60271.14
535.54	60673.71
535.71	59962.18
535.88	59435.56
536.05	58630.42
536.22	57855.70
536.38	58412.75
536.55	57759.74
536.72	57408.66
536.89	57483.56
537.06	58623.40
537.23	58981.50
537.40	59072.78
537.57	59948.14
537.74	59355.99
537.91	59185.13
538.08	58915.96
538.25	59463.65
538.42	58801.28
538.59	58817.66
538.75	58113.16
538.92	57848.68
539.09	57691.86
539.26	57825.28
539.43	58014.86
539.60	57661.44
539.77	58391.68
539.94	57471.85
540.11	56797.78
540.28	56259.46
540.44	56811.82
540.61	57528.03
540.78	57499.94
540.95	57851.02
541.12	56769.69
541.29	58026.56
541.46	58136.57
541.62	58724.04
541.79	57282.27
541.96	56910.13
542.13	57724.63
542.30	58223.17
542.47	58213.80
542.63	57996.13
542.80	57607.61
542.97	58019.54
543.14	57607.61
543.31	57989.11
543.48	58471.26
543.64	59159.38
543.81	59491.74
543.98	59423.86
544.15	58391.68
544.32	58195.08
544.48	58480.63
544.65	58710.00
544.82	58810.64
544.99	58035.92
545.16	58127.20
545.32	57717.61
545.49	58475.94
545.66	58953.41
545.83	58419.77
546.00	58607.01
546.16	58405.73
546.33	58642.12
546.50	57577.18
546.67	58379.98
546.83	58761.49
547.00	58513.39
547.17	56811.82
547.34	56561.39
547.50	56523.94
547.67	57263.55
547.84	57420.36
548.00	58429.13
548.17	58120.18
548.34	58433.81
548.51	58312.11
548.67	58066.35
548.84	58094.44
549.01	57872.09
549.18	57804.21
549.34	57441.43
549.51	57925.92
549.68	57329.08
549.84	57408.66
550.01	56683.09
550.18	57029.49
550.34	57172.27
550.51	58014.86
550.68	57333.76
550.84	57640.37
551.01	58211.46
551.18	57731.65
551.34	57989.11
551.51	57799.53
551.68	57495.26
551.84	58171.67
552.01	57750.38
552.18	57113.75
552.34	57076.30
552.51	56659.69
552.68	57181.63
552.84	56947.57
553.01	57483.56
553.18	56303.93
553.34	57120.77
553.51	57329.08
553.67	57045.88
553.84	57090.35
554.01	57736.34
554.17	56905.44
554.34	56889.06
554.51	57375.89
554.67	57469.51
554.84	56980.34
555.00	56816.50
555.17	56949.92
555.33	57083.33
555.50	57134.82
555.67	57991.45
555.83	57474.20
556.00	56563.73
556.16	56446.70
556.33	56699.48
556.50	56877.36
556.66	57069.28
556.83	56540.32
556.99	56795.44
557.16	56708.84
557.32	56938.21
557.49	57027.15
557.65	56762.67
557.82	57394.62
557.98	56809.48
558.15	56439.68
558.32	55098.55
558.48	54665.55
558.65	54461.93
558.81	54848.11
558.98	54553.21
559.14	54410.43
559.31	55416.86
559.47	56058.17
559.64	54684.28
559.80	54293.41
559.97	54908.97
560.13	55861.57
560.30	56537.98
560.46	57719.95
560.63	57628.67
560.79	58419.77
560.96	56856.29
561.12	56002.00
561.29	56023.06
561.45	55093.87
561.61	56425.64
561.78	56303.93
561.94	56023.06
562.11	55011.95
562.27	54639.81
562.44	55463.67
562.60	55641.56
562.77	56348.40
562.93	56121.37
563.10	56189.24
563.26	56144.77
563.42	55880.29
563.59	55758.58
563.75	55180.47
563.92	55648.58
564.08	56273.50
564.24	55950.51
564.41	55119.62
564.57	55779.65
564.74	54913.65
564.90	55309.20
565.07	54843.43
565.23	54731.09
565.39	53949.35
565.56	54522.78
565.72	54314.47
565.88	54157.66
566.05	55466.02
566.21	54703.00
566.38	54623.42
566.54	55306.86
566.70	55152.38
566.87	55140.68
567.03	55894.33
567.19	56041.79
567.36	55473.04
567.52	55250.69
567.68	55372.39
567.85	54635.13
568.01	54347.24
568.17	54176.38
568.34	54295.75
568.50	53869.77
568.66	53045.90
568.83	53464.86
568.99	53499.97
569.15	54068.72
569.32	54843.43
569.48	54026.59
569.64	53979.78
569.81	54459.58
569.97	54019.56
570.13	52669.08
570.30	52516.94
570.46	52933.56
570.62	51653.28
570.78	52399.91
570.95	52942.92
571.11	53097.39
571.27	52919.51
571.43	53521.03
571.60	54129.57
571.76	53729.34
571.92	54445.54
572.09	53680.19
572.25	53947.01
572.41	54361.28
572.57	54471.29
572.74	54796.62
572.90	53434.43
573.06	54246.60
573.22	54632.78
573.38	54167.02
573.55	54873.86
573.71	54253.62
573.87	54333.20
574.03	53862.75
574.20	54138.93
574.36	53249.53
574.52	53059.94
574.68	52491.19
574.84	52446.72
575.01	52034.79
575.17	52973.34
575.33	52949.94
575.49	54049.99
575.65	53886.15
575.82	52725.25
575.98	52657.37
576.14	53198.04
576.30	53609.97
576.46	53514.01
576.62	52870.36
576.79	52500.56
576.95	53183.99
577.11	52453.75
577.27	52720.57
577.43	52364.81
577.59	52683.12
577.75	53162.93
577.92	52116.71
578.08	50986.23
578.24	51262.41
578.40	51372.42
578.56	51470.72
578.72	52046.49
578.88	52144.80
579.04	52549.71
579.21	52128.41
579.37	51522.21
579.53	51330.29
579.69	51344.33
579.85	52217.35
580.01	51758.61
580.17	51517.53
580.33	53064.63
580.49	52538.01
580.65	52896.11
580.82	52701.84
580.98	52430.34
581.14	51461.36
581.30	51686.05
581.46	51901.38
581.62	52079.26
581.78	52322.68
581.94	52495.88
582.10	52053.51
582.26	51587.75
582.42	51922.44
582.58	52769.72
582.74	52200.97
582.90	51847.55
583.06	53179.31
583.22	52308.63
583.38	52481.83
583.54	52411.62
583.70	52095.64
583.86	51650.94
584.02	51901.38
584.18	52509.92
584.34	51646.26
584.50	51463.70
584.66	51241.35
584.82	51143.05
584.98	51262.41
585.14	51016.66
585.30	50532.17
