SpectraSuite Data File
++++++++++++++++++++++++++++++++++++
Date: Mon Oct 07 14:53:00 GMT-05:00 2013
User: price-jones
Dark Spectrum Present: No
Reference Spectrum Present: No
Number of Sampled Component Spectra: 1
Spectrometers: USB2+H05261
Integration Time (usec): 100000 (USB2+H05261)
Spectra Averaged: 1 (USB2+H05261)
Boxcar Smoothing: 0 (USB2+H05261)
Correct for Electrical Dark: No (USB2+H05261)
Strobe/Lamp Enabled: No (USB2+H05261)
Correct for Detector Non-linearity: No (USB2+H05261)
Correct for Stray Light: No (USB2+H05261)
Number of Pixels in Processed Spectrum: 2048
>>>>>Begin Processed Spectral Data<<<<<
365.73	0.00
365.92	0.00
366.12	0.00
366.32	0.00
366.52	0.00
366.72	0.00
366.91	0.00
367.11	0.00
367.31	0.00
367.51	0.00
367.70	0.00
367.90	0.00
368.10	0.00
368.30	0.00
368.49	0.00
368.69	0.00
368.89	0.00
369.09	0.00
369.28	0.00
369.48	0.00
369.68	0.00
369.87	0.00
370.07	0.00
370.27	0.00
370.47	629.60
370.66	2937.37
370.86	3440.59
371.06	3749.54
371.25	3911.04
371.45	3559.95
371.65	3133.98
371.84	2949.08
372.04	3122.27
372.24	3463.99
372.44	3468.67
372.63	3618.47
372.83	3449.95
373.03	2888.22
373.22	2782.90
373.42	2956.10
373.62	3211.22
373.81	3627.83
374.01	3571.66
374.21	3197.17
374.40	2920.99
374.60	3117.59
374.79	3485.06
374.99	4154.45
375.19	4514.89
375.38	4383.82
375.58	4196.58
375.78	3990.61
375.97	4163.81
376.17	4341.69
376.37	4072.53
376.56	4400.21
376.76	4582.77
376.95	4889.38
377.15	5294.29
377.35	5444.09
377.54	5708.57
377.74	5774.10
377.93	5820.91
378.13	5774.10
378.33	5327.06
378.52	5029.81
378.72	4795.76
378.91	4744.27
379.11	4594.47
379.31	4318.29
379.50	4332.33
379.70	4737.24
379.89	5301.31
380.09	5628.99
380.28	5830.27
380.48	5799.85
380.68	5612.60
380.87	5518.98
381.07	5277.91
381.26	4748.95
381.46	4395.53
381.65	4358.08
381.85	4072.53
382.04	3950.82
382.24	3581.02
382.43	3660.60
382.63	3384.41
382.83	3552.93
383.02	3494.42
383.22	3513.14
383.41	3440.59
383.61	3838.48
383.80	4194.24
384.00	4758.31
384.19	5334.08
384.39	5596.22
384.58	5701.54
384.78	5556.43
384.97	5612.60
385.17	5249.82
385.36	4922.15
385.56	4678.73
385.75	4947.89
385.95	5427.70
386.14	5788.14
386.34	5647.71
386.53	5462.81
386.72	5179.61
386.92	5390.25
387.11	5757.72
387.31	5886.45
387.50	5746.02
387.70	5628.99
387.89	5579.84
388.09	5500.26
388.28	5537.71
388.48	5832.62
388.67	6076.03
388.86	6841.39
389.06	7428.86
389.25	7478.01
389.45	7728.45
389.64	7403.11
389.84	7569.29
390.03	7414.82
390.22	7573.97
390.42	7648.87
390.61	8271.45
390.81	8793.39
391.00	8772.33
391.19	8830.84
391.39	8411.89
391.58	8035.06
391.78	7513.12
391.97	7164.38
392.16	6757.13
392.36	6057.31
392.55	4901.08
392.75	3922.74
392.94	3178.45
393.13	3124.62
393.33	3801.03
393.52	5004.07
393.71	5973.05
393.91	6649.46
394.10	7356.30
394.29	7922.71
394.49	8564.02
394.68	9118.73
394.88	9217.03
395.07	9668.75
395.26	9359.80
395.46	9114.05
395.65	8702.11
395.84	7531.84
396.04	6541.80
396.23	5191.31
396.42	4414.25
396.62	4322.97
396.81	5041.51
397.00	6326.47
397.19	8006.97
397.39	9291.93
397.58	10586.24
397.77	11304.79
397.97	11597.35
398.16	11566.93
398.35	12198.87
398.55	12393.14
398.74	12985.29
398.93	13270.84
399.12	13107.00
399.32	12695.07
399.51	12922.10
399.70	13865.33
399.90	13252.11
400.09	13645.32
400.28	13577.45
400.47	13654.69
400.67	14253.86
400.86	14497.28
401.05	14389.61
401.24	14436.42
401.44	15000.49
401.63	15314.13
401.82	15087.09
402.01	14981.77
402.21	15110.50
402.40	15363.28
402.59	14743.03
402.78	14066.62
402.97	13958.96
403.17	14347.48
403.36	15384.34
403.55	15805.64
403.74	16177.78
403.93	15049.64
404.13	13881.72
404.32	14101.73
404.51	14621.33
404.70	15562.22
404.89	15646.48
405.09	15222.84
405.28	14834.32
405.47	14579.20
405.66	14974.75
405.85	14497.28
406.05	14106.41
406.24	14162.58
406.43	15154.97
406.62	15756.49
406.81	15379.66
407.00	15112.84
407.20	14558.13
407.39	14665.80
407.58	15304.76
407.77	16009.26
407.96	16608.44
408.15	16451.63
408.34	17092.93
408.54	17638.28
408.73	17563.38
408.92	17266.13
409.11	16858.88
409.30	15932.03
409.49	15047.30
409.68	13909.80
409.87	13715.54
410.07	14551.11
410.26	15499.03
410.45	16861.22
410.64	17137.40
410.83	17921.48
411.02	18132.13
411.21	19047.28
411.40	18480.87
411.59	18735.99
411.78	18469.17
411.98	18274.90
412.17	18773.44
412.36	18286.61
412.55	18370.86
412.74	18045.53
412.93	17298.90
413.12	17888.71
413.31	19377.30
413.50	19447.51
413.69	19599.65
413.88	18834.29
414.07	18272.56
414.26	18871.74
414.45	19557.52
414.64	19445.17
414.83	19522.41
415.02	19033.24
415.22	19314.10
415.41	19791.57
415.60	20304.15
415.79	21095.25
415.98	21472.07
416.17	21654.64
416.36	21069.50
416.55	20676.29
416.74	19838.38
416.93	19405.38
417.12	19339.85
417.31	19578.58
417.50	19913.28
417.69	20526.50
417.88	20191.80
418.07	20252.66
418.26	20276.06
418.45	20357.98
418.64	21104.61
418.83	21724.85
419.02	21612.51
419.21	21329.30
419.39	20585.01
419.58	19424.11
419.77	19545.81
419.96	20233.93
420.15	21605.49
420.34	22167.21
420.53	22738.30
420.72	23285.99
420.91	23068.32
421.10	22480.85
421.29	22572.13
421.48	21514.20
421.67	22967.68
421.86	22284.24
422.05	20744.17
422.24	18757.05
422.43	18499.59
422.61	20432.88
422.80	21900.39
422.99	22162.53
423.18	21399.52
423.37	20819.07
423.56	20922.05
423.75	21460.37
423.94	21809.11
424.13	20526.50
424.32	20465.64
424.50	20624.80
424.69	20526.50
424.88	20407.13
425.07	20500.75
425.26	20718.42
425.45	20332.23
425.64	19969.45
425.83	20011.58
426.01	21270.79
426.20	21607.83
426.39	21469.73
426.58	19805.61
426.77	18436.40
426.96	17654.66
427.15	18394.27
427.33	20315.85
427.52	20982.90
427.71	21018.01
427.90	20697.36
428.09	20599.05
428.28	19754.12
428.46	19438.15
428.65	19164.31
428.84	19651.14
429.03	19885.19
429.22	18822.59
429.40	17853.61
429.59	16379.07
429.78	14331.10
429.97	14244.50
430.16	14270.25
430.34	14579.20
430.53	14342.80
430.72	15152.63
430.91	16681.00
431.10	19660.50
431.28	23403.02
431.47	24617.75
431.66	25160.76
431.85	22948.95
432.03	20863.54
432.22	20013.92
432.41	20929.07
432.60	22939.59
432.79	24273.70
432.97	24575.62
433.16	24046.66
433.35	22073.59
433.54	19761.14
433.72	18665.77
433.91	19353.89
434.10	21511.86
434.28	23082.36
434.47	24250.29
434.66	23695.58
434.85	23199.39
435.03	23260.24
435.22	23796.23
435.41	25092.88
435.59	25200.55
435.78	25209.91
435.97	26073.57
436.16	26394.22
436.34	25591.42
436.53	25436.94
436.72	25247.36
436.90	24086.45
437.09	23796.23
437.28	23349.18
437.46	24444.56
437.65	24091.13
437.84	22530.00
438.02	20788.64
438.21	20926.73
438.40	21965.93
438.58	23831.33
438.77	24070.07
438.96	24996.92
439.14	25645.25
439.33	26401.24
439.52	26918.50
439.70	25893.35
439.89	25355.02
440.08	24634.14
440.26	24891.60
440.45	25565.67
440.63	27653.43
440.82	28489.00
441.01	28435.17
441.19	28287.71
441.38	28563.90
441.57	29322.23
441.75	29869.92
441.94	29944.81
442.12	29865.24
442.31	30260.79
442.50	30424.62
442.68	29944.81
442.87	29771.61
443.05	28886.89
443.24	29347.98
443.43	30162.48
443.61	30859.96
443.80	31426.37
443.98	29483.73
444.17	28980.51
444.35	31035.50
444.54	31662.77
444.73	31409.99
444.91	29741.19
445.10	28893.91
445.28	27983.44
445.47	27477.89
445.65	27271.92
445.84	28063.02
446.02	29188.82
446.21	29862.90
446.39	29544.58
446.58	30230.36
446.77	30885.71
446.95	30639.95
447.14	31864.05
447.32	32313.44
447.51	31583.19
447.69	30115.67
447.88	30143.76
448.06	30263.13
448.25	31173.60
448.43	31271.90
448.62	30333.34
448.80	30326.32
448.99	30789.75
449.17	31035.50
449.36	30859.96
449.54	31721.28
449.73	32510.04
449.91	33275.40
450.10	33890.96
450.28	34132.03
450.46	34106.29
450.65	34127.35
450.83	33832.44
451.02	33095.18
451.20	32776.86
451.39	33139.65
451.57	32552.17
451.76	32842.40
451.94	32432.80
452.13	31950.65
452.31	30710.17
452.49	29149.03
452.68	29977.58
452.86	29766.93
453.05	30244.40
453.23	31229.77
453.42	31601.91
453.60	32301.73
453.78	32692.60
453.97	32252.58
454.15	32460.89
454.34	31512.97
454.52	31711.92
454.70	31068.27
454.89	31669.79
455.07	32009.17
455.26	32135.56
455.44	33542.22
455.62	33881.60
455.81	33930.75
455.99	33455.62
456.17	33378.38
456.36	33446.26
456.54	34464.39
456.73	34375.45
456.91	35061.22
457.09	35229.74
457.28	35768.07
457.46	34267.78
457.64	34005.64
457.83	33340.93
458.01	32397.70
458.19	33490.73
458.38	33703.71
458.56	34569.71
458.74	34309.91
458.93	33965.85
459.11	33832.44
459.29	33546.90
459.48	33799.68
459.66	33422.85
459.84	33752.87
460.03	34307.57
460.21	34354.38
460.39	35426.35
460.57	34962.92
460.76	35314.00
460.94	35828.92
461.12	35351.45
461.31	35168.89
461.49	35655.72
461.67	35534.01
461.85	36648.11
462.04	36290.01
462.22	37099.83
462.40	36182.34
462.59	36327.45
462.77	36140.21
462.95	36421.08
463.13	35917.86
463.32	35241.45
463.50	35370.18
463.68	35541.03
463.86	35402.94
464.05	34902.07
464.23	33905.00
464.41	33839.47
464.59	33362.00
464.78	35262.51
464.96	34707.80
465.14	34616.52
465.32	35789.13
465.50	36446.82
465.69	37177.07
465.87	36034.89
466.05	35335.07
466.23	33340.93
466.41	32783.88
466.60	34302.89
466.78	33633.50
466.96	34646.95
467.14	34899.73
467.32	35318.68
467.51	35477.84
467.69	34181.18
467.87	34555.67
468.05	34836.53
468.23	34799.08
468.41	35211.02
468.60	35339.75
468.78	35346.77
468.96	35131.44
469.14	35632.32
469.32	36086.38
469.50	34616.52
469.69	34972.28
469.87	34045.43
470.05	34249.06
470.23	34052.45
470.41	34436.30
470.59	34668.02
470.77	35042.50
470.95	35644.02
471.14	36425.76
471.32	35697.85
471.50	37900.29
471.68	37860.51
471.86	38742.89
472.04	38965.24
472.22	38735.87
472.40	36598.96
472.58	36318.09
472.77	36332.14
472.95	37148.98
473.13	38295.85
473.31	36706.62
473.49	36744.07
473.67	37736.46
473.85	38129.67
474.03	39117.37
474.21	39386.54
474.39	39728.25
474.57	39229.72
474.75	39367.81
474.93	39096.31
475.12	38307.55
475.30	38426.92
475.48	38761.61
475.66	39234.40
475.84	38745.23
476.02	38651.61
476.20	37970.51
476.38	38740.55
476.56	40025.50
476.74	40465.52
476.92	40500.63
477.10	40823.62
477.28	41577.28
477.46	42586.05
477.64	42499.45
477.82	42298.16
478.00	42782.65
478.18	42436.25
478.36	42162.41
478.54	41816.01
478.72	42529.87
478.90	43339.70
479.08	44514.65
479.26	44910.20
479.44	44800.19
479.62	44760.40
479.80	44711.25
479.98	44538.05
480.16	45048.29
480.34	44355.49
480.52	45083.40
480.70	45095.10
480.88	45191.06
481.06	46057.06
481.24	46485.38
481.41	47503.51
481.59	47796.08
481.77	47248.39
481.95	46733.48
482.13	46726.46
482.31	46740.50
482.49	47592.45
482.67	47100.94
482.85	48119.07
483.03	48184.61
483.21	48706.55
483.39	48559.09
483.57	47791.40
483.74	47665.01
483.92	47885.02
484.10	47978.64
484.28	48954.64
484.46	49441.48
484.64	49965.76
484.82	48879.75
485.00	48350.79
485.18	47489.47
485.35	46234.94
485.53	43419.28
485.71	39555.05
485.89	38960.56
486.07	41603.02
486.25	44856.37
486.43	46663.26
486.61	47381.80
486.78	47227.33
486.96	47892.04
487.14	49216.78
487.32	50178.75
487.50	51119.64
487.68	51728.18
487.85	52343.74
488.03	52229.05
488.21	51461.36
488.39	51175.81
488.57	50415.14
488.75	50302.79
488.92	51522.21
489.10	53684.87
489.28	54738.11
489.46	55269.41
489.64	55047.06
489.81	55281.11
489.99	54908.97
490.17	54930.03
490.35	55311.54
490.53	54749.81
490.70	54340.22
490.88	54630.44
491.06	55178.13
491.24	55285.79
491.41	54330.86
491.59	52584.82
491.77	52224.37
491.95	53308.04
492.13	54232.55
492.30	55271.75
492.48	56240.73
492.66	56666.71
492.84	56537.98
493.01	56484.15
493.19	55884.97
493.37	55325.58
493.54	55374.73
493.72	55973.91
493.90	57066.94
494.08	57677.82
494.25	57801.87
494.43	58003.16
494.61	58539.14
494.79	58424.45
494.96	58298.06
495.14	57467.17
495.32	56835.23
495.49	56128.39
495.67	57549.09
495.85	58443.18
496.02	58951.07
496.20	58604.67
496.38	58042.95
496.55	58061.67
496.73	58677.23
496.91	58637.44
497.09	59264.70
497.26	59494.08
497.44	59178.10
497.62	58375.30
497.79	57586.54
497.97	56624.58
498.14	56935.87
498.32	57972.73
498.50	58702.98
498.67	59213.21
498.85	59138.32
499.03	59290.45
499.20	59243.64
499.38	59365.35
499.56	59309.18
499.73	58805.96
499.91	58347.21
500.08	57998.48
500.26	57509.30
500.44	57780.81
500.61	58630.42
500.79	58244.23
500.97	57942.30
501.14	57741.02
501.32	57600.58
501.49	57829.96
501.67	57979.75
501.84	58298.06
502.02	58583.61
502.20	58927.67
502.37	59009.59
502.55	59269.39
502.72	59767.92
502.90	60123.68
503.07	59657.91
503.25	59220.23
503.43	58576.59
503.60	57682.50
503.78	57460.15
503.95	57719.95
504.13	59199.17
504.30	59943.46
504.48	59370.03
504.65	59344.28
504.83	59477.69
505.01	59889.63
505.18	60198.58
505.36	60907.76
505.53	60821.16
505.71	60975.64
505.88	61111.39
506.06	60456.04
506.23	60294.54
506.41	59863.88
506.58	60186.88
506.76	60011.34
506.93	59969.21
507.11	59739.83
507.28	60250.07
507.46	59524.50
507.63	59070.44
507.81	59114.91
507.98	59295.13
508.16	59817.07
508.33	60191.56
508.50	60516.89
508.68	60863.29
508.85	61169.90
509.03	61333.74
509.20	61071.60
509.38	60385.82
509.55	59622.81
509.73	59920.05
509.90	60193.90
510.08	60505.19
510.25	60470.08
510.42	60329.65
510.60	60390.50
510.77	60512.21
510.95	60903.08
511.12	61106.71
511.30	61488.21
511.47	61560.77
511.64	61605.24
511.82	61052.87
511.99	60427.95
512.17	60264.11
512.34	59938.78
512.51	60133.04
512.69	60170.49
512.86	60240.71
513.04	60772.01
513.21	60687.75
513.38	60217.30
513.56	59767.92
513.73	59192.15
513.90	59566.63
514.08	59601.74
514.25	60130.70
514.43	60229.01
514.60	60100.28
514.77	60353.05
514.95	60392.84
515.12	60247.73
515.29	60404.55
515.47	60977.98
515.64	61228.41
515.81	60935.85
515.99	60184.54
516.16	58808.30
516.33	56830.55
516.51	55554.96
516.68	54775.56
516.85	54326.17
517.03	55004.93
517.20	57368.87
517.37	59671.96
517.54	60465.40
517.72	59908.35
517.89	57441.43
518.06	55561.98
518.24	56102.64
518.41	57853.36
518.58	59110.23
518.75	59161.72
518.93	59648.55
519.10	59082.14
519.27	59730.47
519.45	60163.47
519.62	60573.06
519.79	61073.94
519.96	60811.80
520.14	60540.30
520.31	59465.99
520.48	59564.29
520.65	60214.96
520.83	61027.13
521.00	61176.92
521.17	60764.99
521.34	60376.46
521.52	61050.53
521.69	61249.48
521.86	61567.79
522.03	61303.31
522.20	60175.17
522.38	59271.73
522.55	59412.16
522.72	59980.91
522.89	59971.55
523.07	60306.24
523.24	60692.43
523.41	61394.59
523.58	61579.49
523.75	61879.08
523.92	61806.53
524.10	61630.99
524.27	61673.12
524.44	61537.36
524.61	61282.25
524.78	61446.08
524.96	61167.56
525.13	61333.74
525.30	61432.04
525.47	61846.32
525.64	61827.59
525.81	61249.48
525.98	59695.36
526.16	58482.97
526.33	58056.99
526.50	57661.44
526.67	57406.32
526.84	57862.72
527.01	58712.34
527.18	59482.37
527.36	60329.65
527.53	61151.18
527.70	61251.82
527.87	60807.12
528.04	60495.83
528.21	61172.24
528.38	61286.93
528.55	61860.36
528.72	62251.23
528.89	62464.22
529.07	62033.56
529.24	61572.47
529.41	60949.89
529.58	60292.20
529.75	60514.55
529.92	60949.89
530.09	61265.86
530.26	61677.80
530.43	61993.77
530.60	62218.46
530.77	62307.40
530.94	62312.08
531.11	62007.81
531.28	61333.74
531.46	61282.25
531.63	61630.99
531.80	61399.27
531.97	60952.23
532.14	60392.84
532.31	59341.94
532.48	58824.68
532.65	58937.03
532.82	59840.48
532.99	60664.35
533.16	61071.60
533.33	61621.62
533.50	61212.03
533.67	60837.54
533.84	60383.48
534.01	60725.20
534.18	60694.77
534.35	60935.85
534.52	60844.57
534.69	61029.47
534.86	61310.33
535.03	61495.24
535.20	62028.88
535.37	62248.89
535.54	62415.07
535.71	61888.45
535.88	61778.44
536.05	61057.56
536.22	60753.29
536.38	60402.21
536.55	60025.38
536.72	59660.26
536.89	59711.75
537.06	60264.11
537.23	61165.22
537.40	61289.27
537.57	61357.14
537.74	61008.40
537.91	61158.20
538.08	61001.38
538.25	61109.05
538.42	61179.26
538.59	61080.96
538.75	60486.46
538.92	60369.44
539.09	60100.28
539.26	60009.00
539.43	59636.85
539.60	60074.53
539.77	60128.36
539.94	59980.91
540.11	59395.77
540.28	58794.26
540.44	58913.62
540.61	59023.63
540.78	59227.26
540.95	59671.96
541.12	60196.24
541.29	60193.90
541.46	60488.80
541.62	60797.76
541.79	60488.80
541.96	59891.97
542.13	59948.14
542.30	60388.16
542.47	60331.99
542.63	60111.98
542.80	59856.86
542.97	60058.15
543.14	59934.10
543.31	59964.52
543.48	60552.00
543.64	61272.88
543.81	61535.02
543.98	61099.68
544.15	60582.43
544.32	60093.25
544.48	60388.16
544.65	60769.67
544.82	60931.17
544.99	60554.34
545.16	60282.84
545.32	60217.30
545.49	60884.36
545.66	61092.66
545.83	60718.18
546.00	60383.48
546.16	60135.38
546.33	60184.54
546.50	60250.07
546.67	60662.00
546.83	60037.08
547.00	60144.75
547.17	59650.89
547.34	59257.68
547.50	59126.61
547.67	59643.87
547.84	59646.21
548.00	59957.50
548.17	60488.80
548.34	60334.33
548.51	60463.06
548.67	60533.28
548.84	60498.17
549.01	60165.81
549.18	60329.65
549.34	60137.72
549.51	60264.11
549.68	60196.24
549.84	59749.20
550.01	59683.66
550.18	59646.21
550.34	59915.37
550.51	60006.65
550.68	59924.74
550.84	59194.49
551.01	59697.70
551.18	59636.85
551.34	59557.27
551.51	60027.72
551.68	60390.50
551.84	60334.33
552.01	60172.83
552.18	59917.71
552.34	59348.96
552.51	59229.60
552.68	58983.84
552.84	59316.20
553.01	59664.94
553.18	59501.10
553.34	59735.15
553.51	59838.14
553.67	59915.37
553.84	60020.70
554.01	59910.69
554.17	59690.68
554.34	59852.18
554.51	60301.56
554.67	60273.48
554.84	60292.20
555.00	59833.46
555.17	59812.39
555.33	59611.10
555.50	59484.72
555.67	59730.47
555.83	59554.93
556.00	59199.17
556.16	59098.53
556.33	58948.73
556.50	58829.37
556.66	58831.71
556.83	58564.88
556.99	58796.60
557.16	58700.64
557.32	59128.95
557.49	59271.73
557.65	59040.01
557.82	59014.27
557.98	59079.80
558.15	58328.49
558.32	57865.06
558.48	56919.49
558.65	57347.81
558.81	57836.98
558.98	57874.43
559.14	58059.33
559.31	58073.37
559.47	58197.42
559.64	57954.00
559.80	57422.70
559.97	57748.04
560.13	58073.37
560.30	58927.67
560.46	59208.53
560.63	59480.03
560.79	59573.66
560.96	59110.23
561.12	57991.45
561.29	57581.86
561.45	57420.36
561.61	58033.58
561.78	58354.24
561.94	58054.65
562.11	57916.56
562.27	58064.01
562.44	58361.26
562.60	58548.50
562.77	58702.98
562.93	58616.38
563.10	58602.33
563.26	58183.38
563.42	58113.16
563.59	58005.50
563.75	57942.30
563.92	58052.31
564.08	58019.54
564.24	58241.89
564.41	58279.34
564.57	58066.35
564.74	57825.28
564.90	57839.32
565.07	57668.46
565.23	57471.85
565.39	56875.02
565.56	56699.48
565.72	56521.60
565.88	56849.27
566.05	56996.73
566.21	57183.97
566.38	57190.99
566.54	57460.15
566.70	57626.33
566.87	58012.52
567.03	57982.09
567.19	58162.31
567.36	57565.48
567.52	57741.02
567.68	57523.35
567.85	56924.17
568.01	56690.12
568.17	56179.88
568.34	56278.18
568.50	56133.07
568.66	56402.23
568.83	56694.80
568.99	56917.15
569.15	56992.04
569.32	56917.15
569.48	56680.75
569.64	56313.29
569.81	55992.64
569.97	56107.32
570.13	55976.25
570.30	55669.64
570.46	55168.77
570.62	54712.36
570.78	54869.18
570.95	55065.78
571.11	55739.86
571.27	55697.73
571.43	56093.28
571.60	56348.40
571.76	56704.16
571.92	56769.69
572.09	56783.74
572.25	56750.97
572.41	56722.88
572.57	56552.02
572.74	56715.86
572.90	56332.01
573.06	56442.02
573.22	56374.14
573.38	56261.80
573.55	56203.28
573.71	56704.16
573.87	56507.55
574.03	56280.52
574.20	56299.25
574.36	56002.00
574.52	55812.41
574.68	55842.84
574.84	54979.18
575.01	54789.60
575.17	54908.97
575.33	55016.63
575.49	55353.67
575.65	55679.00
575.82	55496.44
575.98	54824.71
576.14	55264.73
576.30	55576.02
576.46	55433.25
576.62	55526.87
576.79	55498.78
576.95	55189.83
577.11	55112.59
577.27	55236.64
577.43	55358.35
577.59	54986.21
577.75	54466.61
577.92	54038.29
578.08	53787.85
578.24	54000.84
578.40	54169.36
578.56	54616.40
578.72	54377.67
578.88	54693.64
579.04	54941.74
579.21	54817.69
579.37	54974.50
579.53	55040.04
579.69	55004.93
579.85	55040.04
580.01	54810.67
580.17	54611.72
580.33	54361.28
580.49	54581.29
580.65	54850.45
580.82	54941.74
580.98	54803.64
581.14	54567.25
581.30	55035.36
581.46	54656.19
581.62	54906.63
581.78	54923.01
581.94	55150.04
582.10	55079.83
582.26	55260.05
582.42	55119.62
582.58	55147.70
582.74	55023.65
582.90	55217.92
583.06	55009.61
583.22	54887.90
583.38	54653.85
583.54	54672.57
583.70	54990.89
583.86	54869.18
584.02	54555.55
584.18	54560.23
584.34	54518.10
584.50	54843.43
584.66	54337.88
584.82	54174.04
584.98	53923.60
585.14	53530.39
585.30	52982.71
