SpectraSuite Data File
++++++++++++++++++++++++++++++++++++
Date: Mon Oct 07 14:54:54 GMT-05:00 2013
User: price-jones
Dark Spectrum Present: No
Reference Spectrum Present: No
Number of Sampled Component Spectra: 1
Spectrometers: USB2+H05261
Integration Time (usec): 10000 (USB2+H05261)
Spectra Averaged: 1 (USB2+H05261)
Boxcar Smoothing: 0 (USB2+H05261)
Correct for Electrical Dark: No (USB2+H05261)
Strobe/Lamp Enabled: No (USB2+H05261)
Correct for Detector Non-linearity: No (USB2+H05261)
Correct for Stray Light: No (USB2+H05261)
Number of Pixels in Processed Spectrum: 2048
>>>>>Begin Processed Spectral Data<<<<<
365.73	0.00
365.92	0.00
366.12	0.00
366.32	0.00
366.52	0.00
366.72	0.00
366.91	0.00
367.11	0.00
367.31	0.00
367.51	0.00
367.70	0.00
367.90	0.00
368.10	0.00
368.30	0.00
368.49	0.00
368.69	0.00
368.89	0.00
369.09	0.00
369.28	0.00
369.48	0.00
369.68	0.00
369.87	0.00
370.07	0.00
370.27	0.00
370.47	0.00
370.66	0.00
370.86	32.77
371.06	2.34
371.25	0.00
371.45	0.00
371.65	0.00
371.84	0.00
372.04	0.00
372.24	0.00
372.44	23.41
372.63	74.90
372.83	16.38
373.03	0.00
373.22	0.00
373.42	0.00
373.62	30.43
373.81	110.01
374.01	30.43
374.21	9.36
374.40	0.00
374.60	56.17
374.79	46.81
374.99	77.24
375.19	67.88
375.38	2.34
375.58	86.60
375.78	107.66
375.97	95.96
376.17	74.90
376.37	60.85
376.56	135.75
376.76	133.41
376.95	126.39
377.15	154.48
377.35	145.11
377.54	294.91
377.74	194.26
377.93	280.86
378.13	194.26
378.33	86.60
378.52	117.03
378.72	180.22
378.91	227.03
379.11	102.98
379.31	128.73
379.50	39.79
379.70	140.43
379.89	224.69
380.09	161.50
380.28	212.99
380.48	142.77
380.68	196.60
380.87	142.77
381.07	154.48
381.26	88.94
381.46	107.66
381.65	70.22
381.85	91.28
382.04	49.15
382.24	60.85
382.43	112.35
382.63	53.83
382.83	63.19
383.02	32.77
383.22	9.36
383.41	0.00
383.61	56.17
383.80	105.32
384.00	210.65
384.19	238.73
384.39	210.65
384.58	217.67
384.78	140.43
384.97	163.84
385.17	140.43
385.36	128.73
385.56	128.73
385.75	138.09
385.95	131.07
386.14	147.45
386.34	163.84
386.53	142.77
386.72	124.05
386.92	149.79
387.11	177.88
387.31	234.05
387.50	234.05
387.70	121.71
387.89	182.56
388.09	287.89
388.28	177.88
388.48	259.80
388.67	255.12
388.86	266.82
389.06	269.16
389.25	346.40
389.45	374.49
389.64	376.83
389.84	358.10
390.03	262.14
390.22	322.99
390.42	332.36
390.61	465.77
390.81	491.51
391.00	468.11
391.19	430.66
391.39	416.62
391.58	381.51
391.78	341.72
391.97	287.89
392.16	299.59
392.36	311.29
392.55	161.50
392.75	107.66
392.94	0.00
393.13	46.81
393.33	39.79
393.52	105.32
393.71	269.16
393.91	243.42
394.10	355.76
394.29	421.30
394.49	360.44
394.68	461.09
394.88	463.43
395.07	470.45
395.26	435.34
395.46	407.25
395.65	383.85
395.84	346.40
396.04	269.16
396.23	145.11
396.42	86.60
396.62	91.28
396.81	119.37
397.00	205.97
397.19	344.06
397.39	472.79
397.58	512.58
397.77	599.18
397.97	568.75
398.16	573.43
398.35	669.39
398.55	683.44
398.74	795.78
398.93	758.33
399.12	683.44
399.32	608.54
399.51	744.29
399.70	814.51
399.90	692.80
400.09	716.20
400.28	744.29
400.47	812.17
400.67	802.80
400.86	812.17
401.05	816.85
401.24	931.53
401.44	891.74
401.63	870.68
401.82	887.06
402.01	849.61
402.21	894.08
402.40	922.17
402.59	798.12
402.78	793.44
402.97	765.36
403.17	821.53
403.36	823.87
403.55	847.27
403.74	971.32
403.93	919.83
404.13	753.65
404.32	734.93
404.51	821.53
404.70	898.77
404.89	868.34
405.09	851.96
405.28	842.59
405.47	901.11
405.66	744.29
405.85	772.38
406.05	763.01
406.24	863.66
406.43	896.43
406.62	830.89
406.81	880.04
407.00	800.46
407.20	828.55
407.39	718.54
407.58	950.26
407.77	922.17
407.96	919.83
408.15	997.07
408.34	990.05
408.54	945.58
408.73	1041.54
408.92	968.98
409.11	990.05
409.30	940.90
409.49	870.68
409.68	730.25
409.87	786.42
410.07	706.84
410.26	826.21
410.45	938.55
410.64	1015.79
410.83	1025.15
411.02	1081.33
411.21	1128.14
411.40	1114.10
411.59	1158.57
411.78	983.02
411.98	1090.69
412.17	1050.90
412.36	1067.28
412.55	1086.01
412.74	1055.58
412.93	1102.39
413.12	1083.67
413.31	1217.08
413.50	1184.31
413.69	1142.18
413.88	1053.24
414.07	1008.77
414.26	1081.33
414.45	1160.91
414.64	1086.01
414.83	1247.51
415.02	1114.10
415.22	1109.41
415.41	1100.05
415.60	1083.67
415.79	1235.80
415.98	1233.46
416.17	1235.80
416.36	1207.72
416.55	1184.31
416.74	1095.37
416.93	1207.72
417.12	1132.82
417.31	1064.94
417.50	1114.10
417.69	1100.05
417.88	1242.82
418.07	1102.39
418.26	1245.16
418.45	1081.33
418.64	1111.75
418.83	1193.67
419.02	1259.21
419.21	1221.76
419.39	1174.95
419.58	1137.50
419.77	1013.45
419.96	1137.50
420.15	1210.06
420.34	1247.51
420.53	1341.13
420.72	1434.75
420.91	1357.51
421.10	1338.79
421.29	1306.02
421.48	1191.33
421.67	1338.79
421.86	1273.25
422.05	1219.42
422.24	1064.94
422.43	1081.33
422.61	1193.67
422.80	1266.23
422.99	1282.61
423.18	1214.74
423.37	1203.04
423.56	1247.51
423.75	1210.06
423.94	1214.74
424.13	1301.34
424.32	1186.65
424.50	1210.06
424.69	1156.22
424.88	1214.74
425.07	1210.06
425.26	1177.29
425.45	1266.23
425.64	1123.46
425.83	1111.75
426.01	1261.55
426.20	1245.16
426.39	1198.35
426.58	1151.54
426.77	992.39
426.96	968.98
427.15	954.94
427.33	1210.06
427.52	1210.06
427.71	1142.18
427.90	1118.78
428.09	1095.37
428.28	1193.67
428.46	1050.90
428.65	1069.62
428.84	1078.99
429.03	1144.52
429.22	1057.92
429.40	882.38
429.59	875.36
429.78	816.85
429.97	713.86
430.16	746.63
430.34	744.29
430.53	674.07
430.72	847.27
430.91	959.62
431.10	1181.97
431.28	1310.70
431.47	1427.73
431.66	1500.28
431.85	1212.40
432.03	1245.16
432.22	1095.37
432.41	1205.38
432.60	1324.74
432.79	1357.51
432.97	1357.51
433.16	1376.24
433.35	1270.91
433.54	1114.10
433.72	1095.37
433.91	1043.88
434.10	1210.06
434.28	1277.93
434.47	1263.89
434.66	1394.96
434.85	1394.96
435.03	1327.08
435.22	1327.08
435.41	1401.98
435.59	1467.52
435.78	1582.20
435.97	1467.52
436.16	1533.05
436.34	1385.60
436.53	1411.34
436.72	1425.39
436.90	1348.15
437.09	1252.19
437.28	1322.40
437.46	1371.55
437.65	1378.58
437.84	1174.95
438.02	1132.82
438.21	1165.59
438.40	1181.97
438.58	1383.26
438.77	1287.29
438.96	1385.60
439.14	1495.60
439.33	1446.45
439.52	1366.87
439.70	1453.47
439.89	1313.04
440.08	1376.24
440.26	1331.76
440.45	1439.43
440.63	1621.99
440.82	1729.66
441.01	1717.95
441.19	1680.50
441.38	1647.74
441.57	1696.89
441.75	1703.91
441.94	1631.35
442.12	1769.44
442.31	1792.85
442.50	1781.15
442.68	1799.87
442.87	1680.50
443.05	1575.18
443.24	1666.46
443.43	1699.23
443.61	1715.61
443.80	1748.38
443.98	1565.82
444.17	1626.67
444.35	1818.60
444.54	1834.98
444.73	1867.75
444.91	1626.67
445.10	1743.70
445.28	1547.09
445.47	1570.50
445.65	1511.99
445.84	1537.73
446.02	1645.40
446.21	1675.82
446.39	1542.41
446.58	1764.76
446.77	1755.40
446.95	1757.74
447.14	1853.70
447.32	1792.85
447.51	1776.47
447.69	1741.36
447.88	1748.38
448.06	1797.53
448.25	1776.47
448.43	1757.74
448.62	1715.61
448.80	1664.12
448.99	1696.89
449.17	1706.25
449.36	1678.16
449.54	1781.15
449.73	1806.89
449.91	1816.26
450.10	1973.07
450.28	1963.71
450.46	1853.70
450.65	2043.29
450.83	1860.73
451.02	1689.87
451.20	1956.69
451.39	1923.92
451.57	1860.73
451.76	1816.26
451.94	1708.59
452.13	1739.02
452.31	1607.95
452.49	1631.35
452.68	1474.54
452.86	1657.10
453.05	1668.80
453.23	1729.66
453.42	1729.66
453.60	1753.06
453.78	1729.66
453.97	1827.96
454.15	1832.64
454.34	1769.44
454.52	1706.25
454.70	1748.38
454.89	1713.27
455.07	1678.16
455.26	1767.10
455.44	1956.69
455.62	1881.79
455.81	1788.17
455.99	1954.35
456.17	1781.15
456.36	1844.34
456.54	1806.89
456.73	1968.39
456.91	1966.05
457.09	1928.60
457.28	1968.39
457.46	1865.41
457.64	2010.52
457.83	1781.15
458.01	1820.94
458.19	1849.02
458.38	1769.44
458.56	1940.30
458.74	1881.79
458.93	1926.26
459.11	1823.28
459.29	1675.82
459.48	1830.30
459.66	1860.73
459.84	1877.11
460.03	1769.44
460.21	1879.45
460.39	1996.48
460.57	2040.95
460.76	1963.71
460.94	2012.86
461.12	1839.66
461.31	1996.48
461.49	1881.79
461.67	1991.80
461.85	1959.03
462.04	2008.18
462.22	1947.33
462.40	2052.65
462.59	2115.84
462.77	2001.16
462.95	2024.56
463.13	1940.30
463.32	1912.22
463.50	1846.68
463.68	1895.83
463.86	2008.18
464.05	1980.09
464.23	1898.17
464.41	1818.60
464.59	1837.32
464.78	1870.09
464.96	2012.86
465.14	1891.15
465.32	1963.71
465.50	2076.06
465.69	2043.29
465.87	1909.88
466.05	1888.81
466.23	1902.86
466.41	1729.66
466.60	1771.79
466.78	1834.98
466.96	1797.53
467.14	1916.90
467.32	1928.60
467.51	1914.56
467.69	1774.13
467.87	1914.56
468.05	1914.56
468.23	1886.47
468.41	1912.22
468.60	1877.11
468.78	1853.70
468.96	1937.96
469.14	1902.86
469.32	1893.49
469.50	1806.89
469.69	1879.45
469.87	1809.23
470.05	1750.72
470.23	1771.79
470.41	1881.79
470.59	1884.13
470.77	1884.13
470.95	1970.73
471.14	1919.24
471.32	1881.79
471.50	2062.01
471.68	2104.14
471.86	2094.78
472.04	2054.99
472.22	1973.07
472.40	1970.73
472.58	1952.01
472.77	1837.32
472.95	2043.29
473.13	2052.65
473.31	2050.31
473.49	1912.22
473.67	1966.05
473.85	2031.58
474.03	2183.72
474.21	2111.16
474.39	2085.42
474.57	2085.42
474.75	2101.80
474.93	2122.87
475.12	2083.08
475.30	2012.86
475.48	2054.99
475.66	2188.40
475.84	2029.24
476.02	2050.31
476.20	2092.44
476.38	2176.70
476.56	2108.82
476.74	2101.80
476.92	2054.99
477.10	2225.85
477.28	2200.10
477.46	2366.28
477.64	2289.04
477.82	2272.66
478.00	2277.34
478.18	2256.28
478.36	2310.11
478.54	2296.07
478.72	2181.38
478.90	2394.37
479.08	2305.43
479.26	2473.95
479.44	2401.39
479.62	2424.80
479.80	2272.66
479.98	2352.24
480.16	2506.71
480.34	2326.49
480.52	2373.30
480.70	2476.29
480.88	2417.77
481.06	2485.65
481.24	2497.35
481.41	2548.84
481.59	2600.34
481.77	2600.34
481.95	2651.83
482.13	2539.48
482.31	2595.65
482.49	2656.51
482.67	2525.44
482.85	2668.21
483.03	2757.15
483.21	2600.34
483.39	2588.63
483.57	2635.44
483.74	2574.59
483.92	2623.74
484.10	2534.80
484.28	2586.29
484.46	2775.88
484.64	2757.15
484.82	2705.66
485.00	2658.85
485.18	2602.68
485.35	2595.65
485.53	2326.49
485.71	2111.16
485.89	2108.82
486.07	2108.82
486.25	2385.01
486.43	2492.67
486.61	2642.46
486.78	2626.08
486.96	2471.61
487.14	2579.27
487.32	2773.53
487.50	2796.94
487.68	2897.58
487.85	3035.67
488.03	2799.28
488.21	2881.20
488.39	2771.19
488.57	2761.83
488.75	2808.64
488.92	2909.29
489.10	3103.55
489.28	3187.81
489.46	3396.12
489.64	3286.11
489.81	3290.79
489.99	3316.54
490.17	3243.98
490.35	3300.16
490.53	3251.00
490.70	3152.70
490.88	3077.80
491.06	3293.13
491.24	3353.99
491.41	3145.68
491.59	2888.22
491.77	3030.99
491.95	3009.93
492.13	3040.36
492.30	3225.26
492.48	3239.30
492.66	3400.80
492.84	3595.06
493.01	3386.76
493.19	3431.23
493.37	3246.32
493.54	3330.58
493.72	3428.88
493.90	3431.23
494.08	3442.93
494.25	3543.57
494.43	3562.30
494.61	3658.26
494.79	3751.88
494.96	3618.47
495.14	3538.89
495.32	3267.39
495.49	3393.78
495.67	3435.91
495.85	3578.68
496.02	3679.32
496.20	3705.07
496.38	3574.00
496.55	3742.52
496.73	3684.00
496.91	3691.02
497.09	3840.82
497.26	3798.69
497.44	3733.15
497.62	3754.22
497.79	3552.93
497.97	3337.60
498.14	3337.60
498.32	3578.68
498.50	3662.94
498.67	3700.39
498.85	3644.21
499.03	3688.68
499.20	3761.24
499.38	3742.52
499.56	3730.81
499.73	3679.32
499.91	3651.24
500.08	3602.08
500.26	3473.36
500.44	3435.91
500.61	3480.38
500.79	3506.12
500.97	3475.70
501.14	3536.55
501.32	3517.83
501.49	3389.10
501.67	3576.34
501.84	3574.00
502.02	3681.66
502.20	3681.66
502.37	3702.73
502.55	3737.84
502.72	3857.20
502.90	3899.33
503.07	3749.54
503.25	3686.34
503.43	3655.92
503.60	3571.66
503.78	3494.42
503.95	3646.55
504.13	3534.21
504.30	3588.04
504.48	3824.44
504.65	3810.39
504.83	3791.67
505.01	3796.35
505.18	3880.61
505.36	4037.42
505.53	3904.01
505.71	4081.89
505.88	3920.40
506.06	3847.84
506.23	3812.73
506.41	3695.71
506.58	3758.90
506.76	3911.04
506.93	3728.47
507.11	3749.54
507.28	3786.99
507.46	3779.97
507.63	3613.79
507.81	3667.62
507.98	3630.17
508.16	3819.75
508.33	3833.80
508.50	3880.61
508.68	3854.86
508.85	4098.28
509.03	3962.53
509.20	3941.46
509.38	3974.23
509.55	3784.65
509.73	3751.88
509.90	3873.59
510.08	3770.60
510.25	3836.14
510.42	3859.54
510.60	3840.82
510.77	3957.85
510.95	4009.34
511.12	4032.74
511.30	3892.31
511.47	4049.13
511.64	4091.26
511.82	4079.55
511.99	3885.29
512.17	3962.53
512.34	3836.14
512.51	3784.65
512.69	3868.91
512.86	3695.71
513.04	3805.71
513.21	3826.78
513.38	3988.27
513.56	3735.50
513.73	3618.47
513.90	3850.18
514.08	3815.07
514.25	3786.99
514.43	3698.05
514.60	3616.13
514.77	3829.12
514.95	3784.65
515.12	3763.58
515.29	3737.84
515.47	3969.55
515.64	3836.14
515.81	3946.14
515.99	3751.88
516.16	3627.83
516.33	3295.47
516.51	3126.96
516.68	3096.53
516.85	3009.93
517.03	2970.14
517.20	3309.52
517.37	3583.36
517.54	3751.88
517.72	3857.20
517.89	3466.33
518.06	3098.87
518.24	3075.46
518.41	3571.66
518.58	3492.08
518.75	3618.47
518.93	3700.39
519.10	3686.34
519.27	3695.71
519.45	3719.11
519.62	3777.62
519.79	3882.95
519.96	3815.07
520.14	3698.05
520.31	3538.89
520.48	3651.24
520.65	3721.45
520.83	3819.75
521.00	3948.48
521.17	3765.92
521.34	3779.97
521.52	3779.97
521.69	3934.44
521.86	3950.82
522.03	3882.95
522.20	3695.71
522.38	3550.59
522.55	3571.66
522.72	3616.13
522.89	3763.58
523.07	3700.39
523.24	3744.86
523.41	3906.35
523.58	3892.31
523.75	3971.89
523.92	3826.78
524.10	3894.65
524.27	3794.01
524.44	3990.61
524.61	4002.32
524.78	3964.87
524.96	3831.46
525.13	3941.46
525.30	4065.51
525.47	3934.44
525.64	3911.04
525.81	3805.71
525.98	3463.99
526.16	3510.80
526.33	3269.73
526.50	3433.57
526.67	3412.50
526.84	3382.07
527.01	3510.80
527.18	3496.76
527.36	3707.41
527.53	3836.14
527.70	3913.38
527.87	3714.43
528.04	3712.09
528.21	3674.64
528.38	3915.72
528.55	3854.86
528.72	4109.98
528.89	3939.12
529.07	4126.36
529.24	3801.03
529.41	3730.81
529.58	3691.02
529.75	3744.86
529.92	3801.03
530.09	3761.24
530.26	3850.18
530.43	3969.55
530.60	4109.98
530.77	3985.93
530.94	3978.91
531.11	3976.57
531.28	3873.59
531.46	3850.18
531.63	3936.78
531.80	3831.46
531.97	3880.61
532.14	3698.05
532.31	3508.46
532.48	3569.32
532.65	3501.44
532.82	3552.93
532.99	3751.88
533.16	3763.58
533.33	3819.75
533.50	3911.04
533.67	3686.34
533.84	3700.39
534.01	3651.24
534.18	3707.41
534.35	3859.54
534.52	3784.65
534.69	3880.61
534.86	3829.12
535.03	3765.92
535.20	3918.06
535.37	4002.32
535.54	4032.74
535.71	3957.85
535.88	3887.63
536.05	3786.99
536.22	3850.18
536.38	3686.34
536.55	3545.91
536.72	3534.21
536.89	3414.84
537.06	3592.72
537.23	3761.24
537.40	3878.27
537.57	3861.88
537.74	3709.75
537.91	3740.18
538.08	3630.17
538.25	3765.92
538.42	3805.71
538.59	3768.26
538.75	3679.32
538.92	3669.96
539.09	3667.62
539.26	3566.98
539.43	3571.66
539.60	3536.55
539.77	3599.74
539.94	3536.55
540.11	3482.72
540.28	3349.31
540.44	3391.44
540.61	3449.95
540.78	3431.23
540.95	3557.61
541.12	3606.77
541.29	3698.05
541.46	3602.08
541.62	3819.75
541.79	3721.45
541.96	3590.38
542.13	3684.00
542.30	3655.92
542.47	3578.68
542.63	3562.30
542.80	3602.08
542.97	3574.00
543.14	3726.13
543.31	3426.54
543.48	3772.94
543.64	3735.50
543.81	3669.96
543.98	3777.62
544.15	3686.34
544.32	3386.76
544.48	3616.13
544.65	3709.75
544.82	3796.35
544.99	3644.21
545.16	3613.79
545.32	3513.14
545.49	3625.49
545.66	3911.04
545.83	3665.28
546.00	3623.15
546.16	3562.30
546.33	3543.57
546.50	3595.06
546.67	3655.92
546.83	3634.85
547.00	3489.74
547.17	3459.31
547.34	3370.37
547.50	3424.20
547.67	3513.14
547.84	3435.91
548.00	3440.59
548.17	3548.25
548.34	3576.34
548.51	3707.41
548.67	3616.13
548.84	3737.84
549.01	3471.01
549.18	3492.08
549.34	3506.12
549.51	3630.17
549.68	3543.57
549.84	3538.89
550.01	3382.07
550.18	3400.80
550.34	3494.42
550.51	3454.63
550.68	3527.19
550.84	3466.33
551.01	3356.33
551.18	3391.44
551.34	3440.59
551.51	3543.57
551.68	3569.32
551.84	3585.70
552.01	3559.95
552.18	3564.64
552.34	3332.92
552.51	3339.94
552.68	3398.46
552.84	3407.82
553.01	3473.36
553.18	3346.97
553.34	3440.59
553.51	3403.14
553.67	3646.55
553.84	3433.57
554.01	3611.45
554.17	3545.91
554.34	3463.99
554.51	3403.14
554.67	3566.98
554.84	3438.25
555.00	3393.78
555.17	3262.71
555.33	3524.85
555.50	3393.78
555.67	3433.57
555.83	3433.57
556.00	3330.58
556.16	3393.78
556.33	3307.18
556.50	3325.90
556.66	3260.37
556.83	3239.30
556.99	3246.32
557.16	3180.79
557.32	3335.26
557.49	3365.69
557.65	3260.37
557.82	3323.56
557.98	3232.28
558.15	3122.27
558.32	3141.00
558.48	3028.65
558.65	2988.86
558.81	3059.08
558.98	3075.46
559.14	3110.57
559.31	3082.49
559.47	3314.20
559.64	3164.40
559.80	3103.55
559.97	3131.64
560.13	3166.74
560.30	3311.86
560.46	3325.90
560.63	3389.10
560.79	3227.60
560.96	3295.47
561.12	3180.79
561.29	3056.74
561.45	3145.68
561.61	3148.02
561.78	3133.98
561.94	3185.47
562.11	3183.13
562.27	2928.01
562.44	3288.45
562.60	3150.36
562.77	3143.34
562.93	3300.16
563.10	3241.64
563.26	3185.47
563.42	3173.77
563.59	3040.36
563.75	3133.98
563.92	3002.91
564.08	3173.77
564.24	3115.25
564.41	3239.30
564.57	3035.67
564.74	3115.25
564.90	2925.67
565.07	3077.80
565.23	3124.62
565.39	3070.78
565.56	2988.86
565.72	2860.13
565.88	2988.86
566.05	3094.19
566.21	2963.12
566.38	3030.99
566.54	3023.97
566.70	3059.08
566.87	3124.62
567.03	3180.79
567.19	3133.98
567.36	3108.23
567.52	3089.51
567.68	2949.08
567.85	2991.20
568.01	2920.99
568.17	2792.26
568.34	2885.88
568.50	2773.53
568.66	2925.67
568.83	2874.18
568.99	2871.84
569.15	2953.76
569.32	2991.20
569.48	2972.48
569.64	2864.82
569.81	2836.73
569.97	2843.75
570.13	2829.71
570.30	2883.54
570.46	2792.26
570.62	2757.15
570.78	2715.02
570.95	2773.53
571.11	2773.53
571.27	2808.64
571.43	2935.03
571.60	2871.84
571.76	2818.00
571.92	2965.46
572.09	2972.48
572.25	2942.05
572.41	2925.67
572.57	2925.67
572.74	2984.18
572.90	2937.37
573.06	2951.42
573.22	3000.57
573.38	2843.75
573.55	2759.49
573.71	2920.99
573.87	2857.79
574.03	2892.90
574.20	2794.60
574.36	2806.30
574.52	2799.28
574.68	2841.41
574.84	2787.58
575.01	2794.60
575.17	2698.64
575.33	2818.00
575.49	2836.73
575.65	2780.56
575.82	2836.73
575.98	2766.51
576.14	2626.08
576.30	2801.62
576.46	2670.55
576.62	2693.96
576.79	2787.58
576.95	2698.64
577.11	2738.43
577.27	2757.15
577.43	2722.04
577.59	2815.66
577.75	2738.43
577.92	2558.21
578.08	2640.12
578.24	2548.84
578.40	2560.55
578.56	2619.06
578.72	2818.00
578.88	2705.66
579.04	2766.51
579.21	2719.70
579.37	2682.25
579.53	2703.32
579.69	2740.77
579.85	2691.62
580.01	2668.21
580.17	2736.09
580.33	2593.31
580.49	2686.94
580.65	2633.10
580.82	2672.89
580.98	2712.68
581.14	2679.91
581.30	2626.08
581.46	2637.78
581.62	2745.45
581.78	2724.38
581.94	2684.59
582.10	2651.83
582.26	2782.90
582.42	2745.45
582.58	2644.81
582.74	2698.64
582.90	2668.21
583.06	2708.00
583.22	2750.13
583.38	2583.95
583.54	2757.15
583.70	2623.74
583.86	2696.30
584.02	2527.78
584.18	2640.12
584.34	2677.57
584.50	2677.57
584.66	2562.89
584.82	2607.36
584.98	2595.65
585.14	2516.08
585.30	2511.39
585.46	2480.97
585.62	2394.37
585.78	2455.22
585.94	2401.39
586.10	2541.82
586.26	2623.74
586.42	2539.48
586.58	2588.63
586.74	2609.70
586.90	2626.08
587.06	2590.97
587.22	2459.90
587.38	2569.91
587.54	2661.19
587.70	2450.54
587.86	2487.99
588.02	2328.83
588.18	2399.05
588.34	2420.11
588.49	2211.81
588.65	2111.16
588.81	1991.80
588.97	2059.67
589.13	2054.99
589.29	1975.41
589.45	2022.22
589.61	2321.81
589.77	2244.57
589.93	2293.72
590.08	2466.92
590.24	2457.56
590.40	2406.07
590.56	2396.71
590.72	2485.65
590.88	2279.68
591.04	2413.09
591.20	2242.23
591.35	2246.91
591.51	2340.54
591.67	2310.11
591.83	2181.38
591.99	2279.68
592.15	2265.64
592.31	2495.01
592.46	2289.04
592.62	2363.94
592.78	2356.92
592.94	2293.72
593.10	2256.28
593.26	2370.96
593.41	2429.48
593.57	2359.26
593.73	2216.49
593.89	2150.95
594.05	2324.15
594.20	2232.87
594.36	2204.78
594.52	2321.81
594.68	2179.04
594.84	2256.28
594.99	2289.04
595.15	2207.13
595.31	2352.24
595.47	2319.47
595.62	2352.24
595.78	2284.36
595.94	2415.43
596.10	2312.45
596.25	2307.77
596.41	2143.93
596.57	2263.30
596.73	2225.85
596.88	2368.62
597.04	2347.56
597.20	2265.64
597.36	2298.41
597.51	2195.42
597.67	2335.85
597.83	2265.64
597.99	2132.23
598.14	2176.70
598.30	2167.34
598.46	2108.82
598.61	2314.79
598.77	2225.85
598.93	2204.78
599.09	2319.47
599.24	2300.75
599.40	2260.96
