SpectraSuite Data File
++++++++++++++++++++++++++++++++++++
Date: Mon Oct 07 14:55:00 GMT-05:00 2013
User: price-jones
Dark Spectrum Present: No
Reference Spectrum Present: No
Number of Sampled Component Spectra: 1
Spectrometers: USB2+H05261
Integration Time (usec): 10000 (USB2+H05261)
Spectra Averaged: 1 (USB2+H05261)
Boxcar Smoothing: 0 (USB2+H05261)
Correct for Electrical Dark: No (USB2+H05261)
Strobe/Lamp Enabled: No (USB2+H05261)
Correct for Detector Non-linearity: No (USB2+H05261)
Correct for Stray Light: No (USB2+H05261)
Number of Pixels in Processed Spectrum: 2048
>>>>>Begin Processed Spectral Data<<<<<
365.73	0.00
365.92	0.00
366.12	0.00
366.32	0.00
366.52	0.00
366.72	0.00
366.91	0.00
367.11	0.00
367.31	0.00
367.51	0.00
367.70	0.00
367.90	0.00
368.10	0.00
368.30	0.00
368.49	0.00
368.69	0.00
368.89	0.00
369.09	0.00
369.28	0.00
369.48	0.00
369.68	0.00
369.87	0.00
370.07	0.00
370.27	0.00
370.47	344.06
370.66	2310.11
370.86	2670.55
371.06	2967.80
371.25	2827.37
371.45	2558.21
371.65	2298.41
371.84	2162.66
372.04	2382.67
372.24	2588.63
372.44	2841.41
372.63	2649.49
372.83	2368.62
373.03	2221.17
373.22	1998.82
373.42	2286.70
373.62	2466.92
373.81	2630.76
374.01	2588.63
374.21	2298.41
374.40	2270.32
374.60	2363.94
374.79	2881.20
374.99	3272.07
375.19	3452.29
375.38	3321.22
375.58	3112.91
375.78	3082.49
375.97	3166.74
376.17	3159.72
376.37	3393.78
376.56	3414.84
376.76	3569.32
376.95	3763.58
377.15	3997.64
377.35	4147.43
377.54	4442.34
377.74	4695.11
377.93	4444.68
378.13	4187.22
378.33	3999.98
378.52	3894.65
378.72	3676.98
378.91	3707.41
379.11	3611.45
379.31	3337.60
379.50	3412.50
379.70	3843.16
379.89	4194.24
380.09	4337.01
380.28	4486.81
380.48	4571.07
380.68	4376.80
380.87	4077.21
381.07	3857.20
381.26	3494.42
381.46	3368.03
381.65	3267.39
381.85	3241.64
382.04	2883.54
382.24	2925.67
382.43	2773.53
382.63	2609.70
382.83	2593.31
383.02	2682.25
383.22	2534.80
383.41	2729.06
383.61	2949.08
383.80	3337.60
384.00	3866.56
384.19	4341.69
384.39	4463.40
384.58	4388.50
384.78	4311.27
384.97	4362.76
385.17	4114.66
385.36	3880.61
385.56	3702.73
385.75	3901.67
385.95	4257.43
386.14	4573.41
386.34	4519.57
386.53	4280.84
386.72	4079.55
386.92	4238.71
387.11	4383.82
387.31	4620.22
387.50	4344.03
387.70	4278.50
387.89	4292.54
388.09	4379.14
388.28	4402.55
388.48	4599.15
388.67	4875.34
388.86	5298.97
389.06	5708.57
389.25	6057.31
389.45	5900.49
389.64	5968.37
389.84	6043.26
390.03	5790.49
390.22	5944.96
390.42	6104.12
390.61	6619.04
390.81	6932.67
391.00	7126.93
391.19	6923.30
391.39	6682.23
391.58	6345.19
391.78	5731.97
391.97	5703.89
392.16	5324.72
392.36	4622.56
392.55	3581.02
392.75	2911.63
392.94	2326.49
393.13	2595.65
393.33	3302.50
393.52	4102.96
393.71	4973.64
393.91	5607.92
394.10	5975.39
394.29	6506.69
394.49	7148.00
394.68	7616.10
394.88	7190.13
395.07	7625.47
395.26	7634.83
395.46	7199.49
395.65	6888.20
395.84	5891.13
396.04	4896.40
396.23	4014.02
396.42	3503.78
396.62	3461.65
396.81	4147.43
397.00	5268.55
397.19	6810.96
397.39	7915.69
397.58	9083.62
397.77	9032.13
397.97	9523.64
398.16	9731.95
398.35	10052.60
398.55	10146.22
398.74	10567.52
398.93	10860.09
399.12	10541.77
399.32	10434.11
399.51	10731.36
399.70	11140.95
399.90	10878.81
400.09	10888.17
400.28	11126.91
400.47	10998.18
400.67	11758.85
400.86	11845.45
401.05	12145.04
401.24	12030.35
401.44	12353.35
401.63	12374.41
401.82	12348.67
402.01	12458.67
402.21	12388.46
402.40	12353.35
402.59	11658.21
402.78	11363.30
402.97	11311.81
403.17	12018.65
403.36	12695.07
403.55	12624.85
403.74	13006.36
403.93	12297.17
404.13	11407.77
404.32	11541.18
404.51	12442.29
404.70	13015.72
404.89	12868.27
405.09	12409.52
405.28	12418.88
405.47	12407.18
405.66	12276.11
405.85	11756.51
406.05	11552.88
406.24	11782.26
406.43	12582.72
406.62	12886.99
406.81	12795.71
407.00	12589.74
407.20	12159.08
407.39	12236.32
407.58	12966.57
407.77	13715.54
407.96	14008.11
408.15	13635.96
408.34	14176.62
408.54	14705.59
408.73	14223.44
408.92	14232.80
409.11	13619.58
409.30	13062.53
409.49	12313.56
409.68	11466.28
409.87	11529.48
410.07	12491.44
410.26	13383.18
410.45	13956.61
410.64	14230.46
410.83	14974.75
411.02	15267.31
411.21	15679.25
411.40	15360.94
411.59	15875.85
411.78	15499.03
411.98	14981.77
412.17	15583.29
412.36	15253.27
412.55	15257.95
412.74	14647.07
412.93	14663.46
413.12	15157.31
413.31	16531.20
413.50	16451.63
413.69	16484.39
413.88	15962.45
414.07	15552.86
414.26	15920.32
414.45	16196.51
414.64	16306.51
414.83	16252.68
415.02	15976.50
415.22	16145.02
415.41	16786.32
415.60	17249.75
415.79	17947.23
415.98	18094.68
416.17	18239.79
416.36	17289.54
416.55	17621.89
416.74	17029.74
416.93	16535.88
417.12	16589.72
417.31	16877.60
417.50	17097.61
417.69	17205.28
417.88	17317.62
418.07	17224.00
418.26	17142.08
418.45	17212.30
418.64	17792.75
418.83	18574.49
419.02	18225.75
419.21	18019.78
419.39	17205.28
419.58	16339.28
419.77	16676.32
419.96	17563.38
420.15	18621.30
420.34	18888.12
420.53	19187.71
420.72	19625.39
420.91	19154.94
421.10	18789.82
421.29	19005.15
421.48	18647.05
421.67	19707.31
421.86	18764.07
422.05	17436.99
422.24	15735.42
422.43	16035.01
422.61	18003.40
422.80	19035.58
422.99	18551.09
423.18	17872.33
423.37	17919.14
423.56	18157.88
423.75	18331.08
423.94	18892.80
424.13	17371.46
424.32	17687.43
424.50	18005.74
424.69	17804.46
424.88	17781.05
425.07	17799.77
425.26	18136.81
425.45	17074.21
425.64	17006.33
425.83	17500.19
426.01	18181.28
426.20	18738.33
426.39	18326.39
426.58	16901.01
426.77	15557.54
426.96	15461.58
427.15	16348.64
427.33	17654.66
427.52	18155.54
427.71	18047.87
427.90	18183.62
428.09	17617.21
428.28	17041.44
428.46	16498.44
428.65	16720.79
428.84	17088.25
429.03	16877.60
429.22	16016.29
429.40	14780.48
429.59	13294.24
429.78	12224.62
429.97	12657.62
430.16	12477.40
430.34	12535.91
430.53	12690.38
430.72	13259.13
430.91	14604.94
431.10	17547.00
431.28	20086.48
431.47	21399.52
431.66	21188.87
431.85	18965.36
432.03	17813.82
432.22	17699.13
432.41	18682.16
432.60	20388.41
432.79	21221.64
432.97	21308.24
433.16	20840.13
433.35	18850.67
433.54	16524.18
433.72	15981.18
433.91	17502.53
434.10	19094.09
434.28	20163.72
434.47	21153.76
434.66	20320.53
434.85	20245.63
435.03	20292.44
435.22	20559.27
435.41	21546.97
435.59	21902.73
435.78	22401.27
435.97	22565.10
436.16	22607.23
436.34	22244.45
436.53	21699.11
436.72	21841.88
436.90	20978.22
437.09	20844.81
437.28	20704.38
437.46	21486.12
437.65	20718.42
437.84	19241.54
438.02	18141.49
438.21	18569.81
438.40	19262.61
438.58	20821.41
438.77	21268.45
438.96	21692.08
439.14	22705.54
439.33	22934.91
439.52	22916.19
439.70	22597.87
439.89	22277.22
440.08	21502.50
440.26	21930.82
440.45	22785.12
440.63	24194.12
440.82	25172.46
441.01	24940.75
441.19	24430.51
441.38	25081.18
441.57	25797.38
441.75	26134.42
441.94	26838.92
442.12	26705.51
442.31	27166.60
442.50	27115.11
442.68	26567.42
442.87	26050.16
443.05	25551.63
443.24	26782.75
443.43	26698.49
443.61	26944.25
443.80	27314.05
443.98	26143.78
444.17	26663.38
444.35	27402.99
444.54	28030.26
444.73	27789.18
444.91	26452.73
445.10	25642.91
445.28	24636.48
445.47	24465.62
445.65	24271.36
445.84	24903.30
446.02	26087.61
446.21	25986.97
446.39	26001.01
446.58	26625.93
446.77	27641.73
446.95	27889.82
447.14	28655.18
447.32	28814.34
447.51	27920.25
447.69	27154.90
447.88	27232.13
448.06	27971.74
448.25	27641.73
448.43	27564.49
448.62	27356.18
448.80	27129.15
448.99	27218.09
449.17	27262.56
449.36	27772.80
449.54	28631.77
449.73	29284.78
449.91	29813.74
450.10	30586.12
450.28	30661.02
450.46	30192.91
450.65	30197.59
450.83	30253.76
451.02	29486.07
451.20	29284.78
451.39	29582.03
451.57	29144.35
451.76	29137.33
451.94	28276.01
452.13	27910.89
452.31	26380.18
452.49	25380.77
452.68	26373.16
452.86	25975.27
453.05	26342.73
453.23	27943.66
453.42	28816.68
453.60	28996.90
453.78	29741.19
453.97	29247.33
454.15	28622.41
454.34	27899.19
454.52	28079.41
454.70	27683.86
454.89	28053.66
455.07	28460.91
455.26	28830.72
455.44	30525.27
455.62	30326.32
455.81	30068.86
455.99	29783.32
456.17	29991.62
456.36	30307.60
456.54	30799.11
456.73	30829.54
456.91	31393.61
457.09	31512.97
457.28	32641.11
457.46	30883.37
457.64	29912.05
457.83	29500.11
458.01	28669.22
458.19	29951.84
458.38	30003.33
458.56	30958.27
458.74	30834.22
458.93	30572.08
459.11	29783.32
459.29	29575.01
459.48	30543.99
459.66	29923.75
459.84	30223.34
460.03	30661.02
460.21	30780.39
460.39	31831.29
460.57	31721.28
460.76	32112.15
460.94	31627.66
461.12	31896.82
461.31	31531.70
461.49	31487.23
461.67	31934.27
461.85	32313.44
462.04	32147.26
462.22	32945.38
462.40	32432.80
462.59	31990.44
462.77	32687.92
462.95	32395.35
463.13	32137.90
463.32	31461.48
463.50	31885.12
463.68	32100.45
463.86	32100.45
464.05	31232.11
464.23	30309.94
464.41	30658.68
464.59	30391.86
464.78	32203.43
464.96	31374.88
465.14	30944.22
465.32	32091.09
465.50	32720.69
465.69	33010.92
465.87	32154.28
466.05	31033.16
466.23	29872.26
466.41	29481.39
466.60	30574.42
466.78	30492.50
466.96	30546.33
467.14	31421.69
467.32	31875.76
467.51	32140.24
467.69	30288.87
467.87	31543.40
468.05	31587.87
468.23	31915.54
468.41	31562.12
468.60	31634.68
468.78	32226.84
468.96	31620.64
469.14	32800.27
469.32	31969.38
469.50	30843.58
469.69	31768.09
469.87	30602.50
470.05	30635.27
470.23	30881.03
470.41	31255.51
470.59	32393.01
470.77	31189.98
470.95	31995.12
471.14	32559.19
471.32	33181.77
471.50	34628.23
471.68	33804.36
471.86	34424.60
472.04	34492.47
472.22	34410.56
472.40	32889.21
472.58	32786.22
472.77	33027.30
472.95	33317.53
473.13	33841.81
473.31	33600.73
473.49	34010.32
473.67	34307.57
473.85	34609.50
474.03	35426.35
474.21	35969.35
474.39	35711.89
474.57	35267.19
474.75	35637.00
474.93	34983.99
475.12	34150.76
475.30	35489.54
475.48	35725.94
475.66	35262.51
475.84	34995.69
476.02	34995.69
476.20	34440.98
476.38	35648.70
476.56	36650.45
476.74	36634.06
476.92	37429.85
477.10	37050.68
477.28	37844.12
477.46	37249.63
477.64	39150.14
477.82	38286.48
478.00	38115.62
478.18	37471.98
478.36	38153.07
478.54	37589.00
478.72	38387.13
478.90	38869.28
479.08	40493.61
479.26	40189.34
479.44	40575.53
479.62	40959.38
479.80	40900.86
479.98	40257.21
480.16	41137.26
480.34	40343.81
480.52	41160.66
480.70	42057.09
480.88	41677.92
481.06	41411.10
481.24	41677.92
481.41	42635.20
481.59	43466.09
481.77	42913.72
481.95	42902.02
482.13	42937.13
482.31	42829.46
482.49	43618.22
482.67	43842.92
482.85	43339.70
483.03	43995.05
483.21	45254.26
483.39	45216.81
483.57	44507.63
483.74	43569.07
483.92	44619.97
484.10	44594.23
484.28	45247.24
484.46	45038.93
484.64	46267.71
484.82	45167.66
485.00	44914.88
485.18	43992.71
485.35	41626.43
485.53	37628.79
485.71	35304.64
485.89	35608.91
486.07	38270.10
486.25	40825.96
486.43	43468.43
486.61	44137.82
486.78	43728.23
486.96	44521.67
487.14	45904.93
487.32	47103.28
487.50	47917.79
487.68	48364.83
487.85	48987.41
488.03	48217.38
488.21	47861.61
488.39	47440.32
488.57	46431.55
488.75	47107.96
488.92	48062.90
489.10	50532.17
489.28	50848.14
489.46	51550.30
489.64	51681.37
489.81	52420.98
489.99	52182.24
490.17	52107.35
490.35	52144.80
490.53	51716.48
490.70	51613.49
490.88	52193.95
491.06	53429.75
491.24	52554.39
491.41	50848.14
491.59	49602.97
491.77	49041.24
491.95	51281.14
492.13	51632.22
492.30	52346.08
492.48	53626.35
492.66	54410.43
492.84	53352.51
493.01	53244.85
493.19	53308.04
493.37	52760.36
493.54	52399.91
493.72	53579.54
493.90	54356.60
494.08	55348.99
494.25	55842.84
494.43	55840.50
494.61	55854.54
494.79	55737.52
494.96	55618.15
495.14	55154.72
495.32	53656.78
495.49	53982.12
495.67	54850.45
495.85	55737.52
496.02	56790.76
496.20	56757.99
496.38	56413.93
496.55	56016.04
496.73	56537.98
496.91	56184.56
497.09	56287.54
497.26	57118.43
497.44	56640.96
497.62	55739.86
497.79	54555.55
497.97	54281.70
498.14	55037.70
498.32	56002.00
498.50	56027.74
498.67	56690.12
498.85	56385.85
499.03	56863.32
499.20	57301.00
499.38	56680.75
499.56	56308.61
499.73	56004.34
499.91	56058.17
500.08	55671.98
500.26	55704.75
500.44	56107.32
500.61	55987.95
500.79	55716.45
500.97	55700.07
501.14	55370.05
501.32	54796.62
501.49	54796.62
501.67	55655.60
501.84	55739.86
502.02	56133.07
502.20	56465.42
502.37	56652.67
502.55	57188.65
502.72	57645.05
502.90	58000.82
503.07	57144.18
503.25	56458.40
503.43	55290.48
503.60	55608.79
503.78	55346.65
503.95	55704.75
504.13	57240.14
504.30	57893.15
504.48	57113.75
504.65	57188.65
504.83	57469.51
505.01	57490.58
505.18	58176.36
505.36	58567.23
505.53	58466.58
505.71	59007.25
505.88	58976.82
506.06	58913.62
506.23	57858.04
506.41	57167.58
506.58	57172.27
506.76	57598.24
506.93	57825.28
507.11	57623.99
507.28	57336.10
507.46	56608.20
507.63	57125.46
507.81	57055.24
507.98	57221.42
508.16	57385.25
508.33	57755.06
508.50	58635.10
508.68	58911.28
508.85	59606.42
509.03	59580.68
509.20	59075.12
509.38	58230.19
509.55	57677.82
509.73	57570.16
509.90	58218.49
510.08	58899.58
510.25	58166.99
510.42	57513.98
510.60	57584.20
510.77	58028.90
510.95	58653.82
511.12	58852.77
511.30	59224.92
511.47	59550.25
511.64	59601.74
511.82	59346.62
511.99	58461.90
512.17	58166.99
512.34	57511.64
512.51	58145.93
512.69	58155.29
512.86	57605.26
513.04	58335.51
513.21	57757.40
513.38	57118.43
513.56	56456.06
513.73	56109.66
513.90	56952.26
514.08	57095.03
514.25	57581.86
514.43	57504.62
514.60	57591.22
514.77	57914.22
514.95	58791.92
515.12	58920.65
515.29	59018.95
515.47	59297.47
515.64	59456.63
515.81	58752.13
515.99	57443.77
516.16	55517.51
516.33	53570.18
516.51	53251.87
516.68	51140.71
516.85	50475.99
517.03	52348.42
517.20	55018.97
517.37	57497.60
517.54	58396.37
517.72	57656.76
517.89	54216.17
518.06	52786.10
518.24	54363.62
518.41	56465.42
518.58	57422.70
518.75	56603.52
518.93	57104.39
519.10	56666.71
519.27	57223.76
519.45	57595.90
519.62	58684.25
519.79	58504.03
519.96	57886.13
520.14	57939.96
520.31	57483.56
520.48	57319.72
520.65	57570.16
520.83	58251.25
521.00	58017.20
521.17	57455.47
521.34	58260.62
521.52	58906.60
521.69	59182.79
521.86	59976.23
522.03	59180.45
522.20	57027.15
522.38	56580.11
522.55	56720.54
522.72	57003.75
522.89	57708.25
523.07	57745.70
523.24	57851.02
523.41	58941.71
523.58	59842.82
523.75	59824.09
523.92	59721.11
524.10	59625.15
524.27	59550.25
524.44	58663.19
524.61	58702.98
524.78	59117.25
524.96	58695.95
525.13	59344.28
525.30	59704.73
525.47	60329.65
525.64	59908.35
525.81	58859.79
525.98	57504.62
526.16	55913.06
526.33	55569.00
526.50	55089.19
526.67	55131.32
526.84	55896.67
527.01	56477.13
527.18	57057.58
527.36	57930.60
527.53	59091.51
527.70	58941.71
527.87	58003.16
528.04	58045.29
528.21	58894.90
528.38	59243.64
528.55	60032.40
528.72	60392.84
528.89	60156.45
529.07	59861.54
529.24	58990.86
529.41	58536.80
529.58	58731.06
529.75	58922.99
529.92	59421.52
530.09	59515.14
530.26	59119.59
530.43	59559.61
530.60	60013.68
530.77	59643.87
530.94	59304.49
531.11	59042.35
531.28	58766.17
531.46	59456.63
531.63	59728.13
531.80	58796.60
531.97	58363.60
532.14	57490.58
532.31	56472.45
532.48	56254.78
532.65	56603.52
532.82	57284.61
532.99	59253.00
533.16	59072.78
533.33	59128.95
533.50	59437.90
533.67	58225.51
533.84	58192.74
534.01	58576.59
534.18	58487.65
534.35	58845.75
534.52	58038.26
534.69	58967.46
534.86	58766.17
535.03	59578.34
535.20	59559.61
535.37	60111.98
535.54	60509.87
535.71	59819.41
535.88	59465.99
536.05	58710.00
536.22	57865.06
536.38	58511.05
536.55	57855.70
536.72	57628.67
536.89	57724.63
537.06	58644.46
537.23	59084.48
537.40	58981.50
537.57	59611.10
537.74	59288.11
537.91	59044.69
538.08	58887.88
538.25	59440.24
538.42	59147.68
538.59	58780.21
538.75	58174.02
538.92	57418.02
539.09	57670.80
539.26	57813.57
539.43	57991.45
539.60	57350.15
539.77	58295.72
539.94	57439.09
540.11	56837.57
540.28	56715.86
540.44	56809.48
540.61	57532.71
540.78	57453.13
540.95	57633.35
541.12	56917.15
541.29	58141.25
541.46	57958.69
541.62	58918.31
541.79	57310.36
541.96	56711.18
542.13	57434.41
542.30	58241.89
542.47	57963.37
542.63	57972.73
542.80	57640.37
542.97	57670.80
543.14	57626.33
543.31	57984.43
543.48	59028.31
543.64	59135.98
543.81	59545.57
543.98	59421.52
544.15	58363.60
544.32	58190.40
544.48	58635.10
544.65	58567.23
544.82	58918.31
544.99	58176.36
545.16	58239.55
545.32	57647.39
545.49	58688.93
545.66	59276.41
545.83	58614.04
546.00	58651.48
546.16	58686.59
546.33	58244.23
546.50	57558.45
546.67	58401.05
546.83	58604.67
547.00	58511.05
547.17	56851.61
547.34	56451.38
547.50	56554.36
547.67	57029.49
547.84	57181.63
548.00	58279.34
548.17	58131.89
548.34	58461.90
548.51	58108.48
548.67	57745.70
548.84	58164.65
549.01	57954.00
549.18	57715.27
549.34	57296.31
549.51	58096.78
549.68	57668.46
549.84	57214.40
550.01	56643.30
550.18	57013.11
550.34	57013.11
550.51	57731.65
550.68	57230.78
550.84	57474.20
551.01	57869.75
551.18	57169.93
551.34	57771.44
551.51	58101.46
551.68	57502.28
551.84	58199.76
552.01	57635.69
552.18	57095.03
552.34	56472.45
552.51	56458.40
552.68	56732.25
552.84	56949.92
553.01	57551.43
553.18	56381.16
553.34	57069.28
553.51	57289.29
553.67	57111.41
553.84	57212.06
554.01	57883.79
554.17	57045.88
554.34	56996.73
554.51	57532.71
554.67	57284.61
554.84	57235.46
555.00	57102.05
555.17	56931.19
555.33	57359.51
555.50	57183.97
555.67	57698.89
555.83	57357.17
556.00	56371.80
556.16	56332.01
556.33	56970.98
556.50	56835.23
556.66	56954.60
556.83	56676.07
556.99	56530.96
557.16	56631.60
557.32	56858.63
557.49	57144.18
557.65	56722.88
557.82	57111.41
557.98	56818.84
558.15	56205.62
558.32	55154.72
558.48	54532.14
558.65	54169.36
558.81	54726.41
558.98	54600.02
559.14	54443.20
559.31	55257.71
559.47	55959.87
559.64	54590.66
559.80	54028.93
559.97	54466.61
560.13	55826.46
560.30	56472.45
560.46	57499.94
560.63	57495.26
560.79	58183.38
560.96	56458.40
561.12	56011.36
561.29	56060.51
561.45	55578.36
561.61	56619.90
561.78	55992.64
561.94	55889.65
562.11	55004.93
562.27	54344.90
562.44	55370.05
562.60	55664.96
562.77	56048.81
562.93	55664.96
563.10	56149.45
563.26	56388.19
563.42	55828.80
563.59	55807.73
563.75	55056.42
563.92	55547.93
564.08	56062.85
564.24	56224.35
564.41	55285.79
564.57	55779.65
564.74	55292.82
564.90	55407.50
565.07	54632.78
565.23	54415.11
565.39	53719.98
565.56	54480.65
565.72	54632.78
565.88	54113.19
566.05	55709.43
566.21	54452.56
566.38	54906.63
566.54	55388.78
566.70	55346.65
566.87	55550.27
567.03	56039.45
567.19	56266.48
567.36	55512.83
567.52	55117.28
567.68	55299.84
567.85	54419.80
568.01	54307.45
568.17	54171.70
568.34	54087.44
568.50	54108.50
568.66	53509.33
568.83	53418.05
568.99	53420.39
569.15	53862.75
569.32	54651.51
569.48	53916.58
569.64	53972.75
569.81	54192.76
569.97	53904.88
570.13	52963.98
570.30	52439.70
570.46	52456.09
570.62	51880.31
570.78	52542.69
570.95	53055.26
571.11	53258.89
571.27	52809.51
571.43	53588.91
571.60	54302.77
571.76	53602.95
571.92	54307.45
572.09	53932.96
572.25	53839.34
572.41	54213.83
572.57	54298.09
572.74	54930.03
572.90	53602.95
573.06	54485.33
573.22	54630.44
573.38	54403.41
573.55	54871.52
573.71	54096.80
573.87	54574.27
574.03	53982.12
574.20	53865.09
574.36	52898.45
574.52	53247.19
574.68	52313.31
574.84	52533.32
575.01	52322.68
575.17	52786.10
575.33	53448.47
575.49	53591.25
575.65	53694.23
575.82	52781.42
575.98	52811.85
576.14	53020.16
576.30	53642.74
576.46	53183.99
576.62	52673.76
576.79	52542.69
576.95	53226.12
577.11	52680.78
577.27	52528.64
577.43	52020.75
577.59	52631.63
577.75	53050.58
577.92	51969.26
578.08	51760.95
578.24	51011.98
578.40	51299.86
578.56	50838.78
578.72	52123.73
578.88	52229.05
579.04	52446.72
579.21	51777.33
579.37	51650.94
579.53	51334.97
579.69	51271.78
579.85	51922.44
580.01	51339.65
580.17	50995.59
580.33	52783.76
580.49	52444.38
580.65	52622.26
580.82	52528.64
580.98	52336.72
581.14	51533.92
581.30	51379.44
581.46	51580.73
581.62	51828.82
581.78	52002.02
581.94	52479.49
582.10	51847.55
582.26	51585.41
582.42	52133.09
582.58	52765.04
582.74	52044.15
582.90	51456.68
583.06	53476.56
583.22	52577.79
583.38	52147.14
583.54	52301.61
583.70	51978.62
583.86	51789.03
584.02	51419.23
584.18	51681.37
584.34	51508.17
584.50	51550.30
584.66	51236.67
584.82	50925.38
584.98	51035.38
585.14	50520.46
585.30	50019.59
