SpectraSuite Data File
++++++++++++++++++++++++++++++++++++
Date: Mon Oct 07 14:53:37 GMT-05:00 2013
User: price-jones
Dark Spectrum Present: No
Reference Spectrum Present: No
Number of Sampled Component Spectra: 1
Spectrometers: USB2+H05261
Integration Time (usec): 100000 (USB2+H05261)
Spectra Averaged: 1 (USB2+H05261)
Boxcar Smoothing: 0 (USB2+H05261)
Correct for Electrical Dark: No (USB2+H05261)
Strobe/Lamp Enabled: No (USB2+H05261)
Correct for Detector Non-linearity: No (USB2+H05261)
Correct for Stray Light: No (USB2+H05261)
Number of Pixels in Processed Spectrum: 2048
>>>>>Begin Processed Spectral Data<<<<<
365.73	0.00
365.92	0.00
366.12	0.00
366.32	0.00
366.52	0.00
366.72	0.00
366.91	0.00
367.11	0.00
367.31	0.00
367.51	0.00
367.70	0.00
367.90	0.00
368.10	0.00
368.30	0.00
368.49	0.00
368.69	0.00
368.89	0.00
369.09	0.00
369.28	0.00
369.48	0.00
369.68	0.00
369.87	0.00
370.07	0.00
370.27	0.00
370.47	585.13
370.66	3096.53
370.86	3515.48
371.06	3885.29
371.25	4056.15
371.45	3592.72
371.65	3122.27
371.84	2977.16
372.04	3236.96
372.24	3463.99
372.44	3679.32
372.63	3653.58
372.83	3384.41
373.03	3122.27
373.22	2726.72
373.42	2834.39
373.62	3260.37
373.81	3723.79
374.01	3648.90
374.21	3262.71
374.40	2925.67
374.60	3133.98
374.79	3529.53
374.99	4121.68
375.19	4456.38
375.38	4484.47
375.58	4147.43
375.78	4117.00
375.97	4208.28
376.17	4283.18
376.37	4301.90
376.56	4383.82
376.76	4709.16
376.95	4896.40
377.15	5493.24
377.35	5605.58
377.54	5909.85
377.74	5916.87
377.93	5921.56
378.13	5783.46
378.33	5521.32
378.52	4990.02
378.72	5013.43
378.91	4739.58
379.11	4645.96
379.31	4489.15
379.50	4395.53
379.70	4751.29
379.89	5289.61
380.09	5638.35
380.28	5846.66
380.48	5902.83
380.68	5746.02
380.87	5584.52
381.07	5343.44
381.26	4997.04
381.46	4526.60
381.65	4435.32
381.85	4119.34
382.04	3976.57
382.24	3880.61
382.43	3566.98
382.63	3513.14
382.83	3566.98
383.02	3648.90
383.22	3630.17
383.41	3447.61
383.61	3740.18
383.80	4341.69
384.00	4840.23
384.19	5535.37
384.39	5851.34
384.58	5879.43
384.78	5640.69
384.97	5753.04
385.17	5586.86
385.36	5100.03
385.56	4882.36
385.75	5142.16
385.95	5500.26
386.14	6012.84
386.34	6050.28
386.53	5598.56
386.72	5423.02
386.92	5462.81
387.11	5729.63
387.31	6015.18
387.50	6015.18
387.70	5682.82
387.89	5673.46
388.09	5687.50
388.28	5661.76
388.48	5914.53
388.67	6207.10
388.86	6789.89
389.06	7258.00
389.25	7716.75
389.45	7700.36
389.64	7791.64
389.84	7557.59
390.03	7480.35
390.22	7372.69
390.42	7779.94
390.61	8360.39
390.81	9006.38
391.00	9060.21
391.19	9018.08
391.39	8718.50
391.58	8234.00
391.78	7599.72
391.97	7412.48
392.16	7112.89
392.36	6429.45
392.55	5228.76
392.75	4133.39
392.94	3300.16
393.13	3351.65
393.33	3887.63
393.52	4959.60
393.71	5996.45
393.91	6855.43
394.10	7384.39
394.29	8175.49
394.49	8933.82
394.68	9441.72
394.88	9638.33
395.07	9778.76
395.26	9937.91
395.46	9624.28
395.65	9128.09
395.84	7906.33
396.04	6759.47
396.23	5481.53
396.42	4395.53
396.62	4292.54
396.81	5203.01
397.00	6509.03
397.19	7997.61
397.39	9863.02
397.58	10920.94
397.77	11410.11
397.97	11756.51
398.16	12149.72
398.35	12503.14
398.55	12851.88
398.74	13296.58
398.93	13614.90
399.12	13645.32
399.32	12898.69
399.51	13116.36
399.70	14293.65
399.90	13767.03
400.09	14099.39
400.28	13930.87
400.47	14085.34
400.67	14946.66
400.86	15147.95
401.05	15068.37
401.24	15014.54
401.44	15241.57
401.63	15229.87
401.82	15452.22
402.01	15527.11
402.21	15262.63
402.40	15520.09
402.59	15054.33
402.78	14654.09
402.97	13980.02
403.17	14511.32
403.36	15658.18
403.55	16269.06
403.74	16573.33
403.93	15800.96
404.13	14602.60
404.32	14218.75
404.51	14544.09
404.70	15908.62
404.89	16053.73
405.09	15522.43
405.28	15470.94
405.47	15328.17
405.66	15494.35
405.85	15059.01
406.05	14162.58
406.24	14642.39
406.43	15314.13
406.62	15819.68
406.81	16180.12
407.00	15075.39
407.20	14965.39
407.39	15103.48
407.58	15889.90
407.77	16327.58
407.96	17128.04
408.15	17142.08
408.34	17144.42
408.54	18162.56
408.73	18036.17
408.92	17813.82
409.11	17397.20
409.30	16615.46
409.49	15522.43
409.68	14710.27
409.87	14033.85
410.07	15082.41
410.26	16074.80
410.45	17032.08
410.64	17774.03
410.83	18064.25
411.02	18373.21
411.21	19206.44
411.40	19077.71
411.59	19494.32
411.78	19309.42
411.98	18845.99
412.17	19257.93
412.36	18621.30
412.55	19028.56
412.74	18368.52
412.93	17912.12
413.12	18434.06
413.31	19784.55
413.50	19976.47
413.69	20489.05
413.88	19676.88
414.07	18984.09
414.26	19248.57
414.45	19822.00
414.64	20107.54
414.83	20479.69
415.02	19784.55
415.22	19985.83
415.41	20217.55
415.60	20702.04
415.79	21565.70
415.98	22031.46
416.17	22352.12
416.36	21425.26
416.55	21373.77
416.74	20776.94
416.93	19899.23
417.12	19906.26
417.31	20702.04
417.50	20671.61
417.69	21322.28
417.88	21371.43
418.07	21069.50
418.26	20599.05
418.45	21050.78
418.64	21418.24
418.83	22513.61
419.02	21844.22
419.21	21774.00
419.39	20957.16
419.58	20037.33
419.77	19840.72
419.96	20798.00
420.15	21846.56
420.34	22881.08
420.53	23641.75
420.72	23880.49
420.91	23953.04
421.10	23484.94
421.29	23473.23
421.48	22405.95
421.67	23475.57
421.86	23105.77
422.05	21504.84
422.24	19260.27
422.43	18766.42
422.61	20798.00
422.80	22597.87
422.99	22569.79
423.18	21944.86
423.37	21511.86
423.56	21394.84
423.75	21741.24
423.94	22527.66
424.13	21085.89
424.32	21378.45
424.50	21443.99
424.69	20959.50
424.88	21172.49
425.07	21053.12
425.26	21399.52
425.45	21043.76
425.64	20723.10
425.83	20446.92
426.01	21528.25
426.20	22363.82
426.39	22066.57
426.58	20524.16
426.77	18920.89
426.96	18218.73
427.15	18967.70
427.33	20732.47
427.52	21654.64
427.71	21703.79
427.90	21341.00
428.09	21378.45
428.28	20772.25
428.46	20114.56
428.65	19896.89
428.84	19885.19
429.03	20503.09
429.22	19398.36
429.40	18331.08
429.59	16636.53
429.78	14714.95
429.97	14691.54
430.16	14775.80
430.34	15190.08
430.53	15000.49
430.72	15220.50
430.91	17064.85
431.10	19786.89
431.28	23206.41
431.47	25364.39
431.66	25598.44
431.85	23197.05
432.03	21734.21
432.22	20442.24
432.41	21453.35
432.60	24051.34
432.79	24676.27
432.97	25474.39
433.16	24805.00
433.35	22747.67
433.54	20315.85
433.72	19087.07
433.91	19683.91
434.10	21942.52
434.28	23510.68
434.47	24753.51
434.66	24535.84
434.85	23997.51
435.03	23484.94
435.22	24407.11
435.41	25907.39
435.59	25773.98
435.78	25891.01
435.97	26448.05
436.16	26923.18
436.34	26740.62
436.53	25902.71
436.72	26122.72
436.90	24444.56
437.09	24608.39
437.28	24280.72
437.46	25322.26
437.65	25205.23
437.84	23271.95
438.02	21139.72
438.21	21156.10
438.40	22352.12
438.58	24650.52
438.77	24912.66
438.96	25261.40
439.14	26230.38
439.33	26824.88
439.52	27171.28
439.70	26590.83
439.89	26150.81
440.08	25238.00
440.26	25099.90
440.45	25947.18
440.63	27578.53
440.82	29516.50
441.01	29202.86
441.19	28676.24
441.38	29097.54
441.57	30312.28
441.75	30995.71
441.94	30705.49
442.12	30555.69
442.31	31182.96
442.50	30857.62
442.68	30888.05
442.87	30101.63
443.05	30113.33
443.24	30279.51
443.43	30817.83
443.61	31775.11
443.80	31695.53
443.98	30380.15
444.17	30038.44
444.35	32053.64
444.54	32472.59
444.73	32060.66
444.91	30831.88
445.10	29865.24
445.28	28386.02
445.47	27555.13
445.65	27821.95
445.84	28865.83
446.02	30045.46
446.21	30239.72
446.39	30438.67
446.58	30895.07
446.77	31615.96
446.95	31494.25
447.14	32350.88
447.32	32802.61
447.51	32163.64
447.69	30974.65
447.88	30309.94
448.06	31007.42
448.25	31812.56
448.43	31997.46
448.62	31424.03
448.80	31288.28
448.99	31491.91
449.17	31723.62
449.36	31622.98
449.54	32650.47
449.73	33486.04
449.91	33659.24
450.10	34778.02
450.28	35084.63
450.46	35154.85
450.65	34822.49
450.83	34857.60
451.02	34190.55
451.20	33759.89
451.39	33582.01
451.57	33633.50
451.76	33441.57
451.94	33259.01
452.13	33006.23
452.31	31534.04
452.49	30075.88
452.68	30457.39
452.86	30251.42
453.05	30609.53
453.23	32201.09
453.42	31995.12
453.60	33333.91
453.78	33329.23
453.97	33109.22
454.15	33282.42
454.34	32250.24
454.52	32589.62
454.70	31967.04
454.89	32484.30
455.07	32060.66
455.26	33127.94
455.44	34075.86
455.62	34759.30
455.81	34796.74
455.99	34766.32
456.17	34153.10
456.36	34480.77
456.54	35068.25
456.73	35065.91
456.91	35845.30
457.09	35831.26
457.28	36437.46
457.46	35510.61
457.64	35187.61
457.83	33968.19
458.01	33088.15
458.19	34298.21
458.38	34663.33
458.56	35215.70
458.74	35030.80
458.93	34754.61
459.11	34658.65
459.29	34277.15
459.48	34270.12
459.66	34244.38
459.84	35002.71
460.03	35644.02
460.21	35304.64
460.39	35962.33
460.57	36011.48
460.76	36741.73
460.94	36201.07
461.12	35793.81
461.31	36240.86
461.49	35744.66
461.67	35924.88
461.85	37212.18
462.04	36912.59
462.22	37404.10
462.40	36685.56
462.59	36823.65
462.77	36966.42
462.95	37198.13
463.13	36627.04
463.32	36091.06
463.50	35613.59
463.68	35849.99
463.86	35796.15
464.05	35152.51
464.23	34976.97
464.41	35021.44
464.59	34256.08
464.78	36133.19
464.96	35573.80
465.14	35192.30
465.32	36376.61
465.50	37141.96
465.69	37017.91
465.87	36879.82
466.05	35484.86
466.23	33888.62
466.41	33441.57
466.60	34253.74
466.78	34616.52
466.96	34897.39
467.14	35679.13
467.32	36282.98
467.51	36374.27
467.69	34293.53
467.87	35208.68
468.05	36109.78
468.23	36065.31
468.41	35601.89
468.60	36053.61
468.78	36404.69
468.96	35812.54
469.14	36184.68
469.32	36758.11
469.50	35292.94
469.69	35435.71
469.87	34806.11
470.05	34412.90
470.23	34906.75
470.41	35117.40
470.59	35374.86
470.77	35466.14
470.95	36416.40
471.14	36912.59
471.32	36751.09
471.50	38801.40
471.68	39112.69
471.86	38969.92
472.04	39051.84
472.22	39393.56
472.40	36959.40
472.58	36938.33
472.77	36987.49
472.95	37801.99
473.13	38426.92
473.31	37457.93
473.49	37312.82
473.67	38555.64
473.85	39063.54
474.03	39676.76
474.21	39269.51
474.39	40442.12
474.57	40978.10
474.75	39824.22
474.93	39871.03
475.12	39213.34
475.30	38845.87
475.48	38965.24
475.66	40030.18
475.84	39274.19
476.02	39274.19
476.20	38628.20
476.38	39440.37
476.56	40196.36
476.74	40999.16
476.92	41076.40
477.10	41415.78
477.28	42784.99
477.46	43049.47
477.64	43512.90
477.82	43012.02
478.00	43519.92
478.18	43309.27
478.36	42892.66
478.54	42674.99
478.72	43316.29
478.90	43704.82
479.08	45312.77
479.26	45492.99
479.44	45057.65
479.62	45485.97
479.80	45256.60
479.98	45617.04
480.16	45855.78
480.34	45507.04
480.52	45530.44
480.70	46014.93
480.88	46164.73
481.06	46824.76
481.24	46560.28
481.41	48264.19
481.59	48484.20
481.77	48542.71
481.95	47758.63
482.13	47508.19
482.31	47594.79
482.49	48341.42
482.67	47976.30
482.85	48570.80
483.03	48996.77
483.21	49610.00
483.39	48884.43
483.57	48552.07
483.74	48009.07
483.92	48502.92
484.10	48655.06
484.28	49567.87
484.46	50108.53
484.64	50438.54
484.82	49347.86
485.00	49010.82
485.18	48402.28
485.35	47428.62
485.53	44074.63
485.71	40287.64
485.89	39363.13
486.07	41429.82
486.25	44954.67
486.43	47016.68
486.61	48226.74
486.78	48217.38
486.96	48287.59
487.14	49724.68
487.32	50808.35
487.50	51297.52
487.68	52512.26
487.85	52645.67
488.03	52664.39
488.21	52521.62
488.39	51634.56
488.57	50969.85
488.75	50548.55
488.92	51744.56
489.10	53860.41
489.28	55194.51
489.46	55721.13
489.64	55662.62
489.81	55552.62
489.99	55217.92
490.17	55091.53
490.35	55608.79
490.53	55393.46
490.70	55033.02
490.88	54841.09
491.06	55646.24
491.24	55884.97
491.41	54719.38
491.59	53191.01
491.77	52458.43
491.95	53474.22
492.13	54752.15
492.30	55590.06
492.48	56549.68
492.66	57088.01
492.84	56954.60
493.01	56690.12
493.19	56226.69
493.37	55826.46
493.54	55592.40
493.72	56315.63
493.90	57209.71
494.08	57717.61
494.25	58169.33
494.43	58267.64
494.61	58733.40
494.79	58644.46
494.96	58403.39
495.14	58108.48
495.32	57265.89
495.49	56357.76
495.67	57549.09
495.85	58885.54
496.02	59224.92
496.20	58990.86
496.38	58515.73
496.55	58389.34
496.73	59121.93
496.91	58925.33
497.09	59559.61
497.26	59784.30
497.44	59337.26
497.62	58829.37
497.79	58035.92
497.97	57043.54
498.14	57130.14
498.32	58162.31
498.50	58920.65
498.67	59580.68
498.85	59332.58
499.03	59440.24
499.20	59625.15
499.38	59681.32
499.56	59629.83
499.73	58955.75
499.91	58714.68
500.08	58258.27
500.26	57766.76
500.44	58019.54
500.61	58621.06
500.79	58590.63
500.97	58319.13
501.14	57982.09
501.32	58080.39
501.49	58117.84
501.67	58164.65
501.84	58646.80
502.02	58976.82
502.20	59236.62
502.37	59363.01
502.55	59215.55
502.72	59774.94
502.90	60212.62
503.07	59936.44
503.25	59730.47
503.43	58714.68
503.60	58298.06
503.78	57701.23
503.95	58080.39
504.13	59487.06
504.30	60229.01
504.48	59971.55
504.65	59732.81
504.83	59540.89
505.01	60191.56
505.18	60441.99
505.36	61038.83
505.53	61050.53
505.71	61382.89
505.88	61434.38
506.06	60867.97
506.23	60598.81
506.41	60189.22
506.58	60303.90
506.76	60411.57
506.93	60514.55
507.11	60053.47
507.28	60341.35
507.46	59735.15
507.63	59323.22
507.81	59140.66
507.98	59299.81
508.16	59845.16
508.33	60596.47
508.50	60669.03
508.68	61027.13
508.85	61413.32
509.03	61221.39
509.20	61418.00
509.38	60844.57
509.55	60032.40
509.73	60128.36
509.90	60446.68
510.08	60807.12
510.25	60601.15
510.42	60444.33
510.60	60547.32
510.77	60746.26
510.95	61300.97
511.12	61485.87
511.30	61684.82
511.47	61874.40
511.64	61642.69
511.82	61488.21
511.99	60891.38
512.17	60502.85
512.34	60030.06
512.51	60231.35
512.69	60399.86
512.86	60374.12
513.04	60772.01
513.21	60851.59
513.38	60678.39
513.56	60217.30
513.73	59639.19
513.90	59784.30
514.08	59854.52
514.25	60128.36
514.43	60350.71
514.60	60310.92
514.77	60603.49
514.95	60664.35
515.12	60559.02
515.29	60715.84
515.47	61134.79
515.64	61373.53
515.81	61116.07
515.99	60659.66
516.16	59175.76
516.33	57284.61
516.51	55894.33
516.68	54969.82
516.85	54534.48
517.03	55030.68
517.20	57448.45
517.37	59491.74
517.54	60540.30
517.72	60322.63
517.89	58169.33
518.06	55838.16
518.24	55980.93
518.41	57968.05
518.58	59131.29
518.75	59571.32
518.93	59868.56
519.10	59585.36
519.27	59999.63
519.45	60247.73
519.62	60905.42
519.79	61322.04
519.96	60942.87
520.14	60685.41
520.31	59585.36
520.48	59763.24
520.65	60123.68
520.83	60968.61
521.00	61389.91
521.17	61116.07
521.34	60561.36
521.52	61017.77
521.69	61378.21
521.86	61862.70
522.03	61551.41
522.20	60374.12
522.38	59494.08
522.55	59428.54
522.72	60067.51
522.89	60102.62
523.07	60334.33
523.24	60718.18
523.41	61371.19
523.58	61834.61
523.75	62017.17
523.92	62028.88
524.10	61797.16
524.27	61895.47
524.44	61740.99
524.61	61516.30
524.78	61626.31
524.96	61443.74
525.13	61406.30
525.30	61483.53
525.47	62063.99
525.64	62087.39
525.81	61366.51
525.98	60079.21
526.16	58635.10
526.33	58026.56
526.50	57764.42
526.67	57565.48
526.84	57741.02
527.01	58918.31
527.18	59620.47
527.36	60491.15
527.53	61310.33
527.70	61598.22
527.87	61111.39
528.04	60472.42
528.21	60879.67
528.38	61567.79
528.55	62232.50
528.72	62447.83
528.89	62588.27
529.07	62340.17
529.24	61792.48
529.41	60987.34
529.58	60554.34
529.75	60439.65
529.92	61062.24
530.09	61485.87
530.26	61843.98
530.43	62279.31
530.60	62071.01
530.77	62386.98
530.94	62546.14
531.11	62087.39
531.28	61675.46
531.46	61659.07
531.63	61865.04
531.80	61682.48
531.97	61251.82
532.14	60556.68
532.31	59524.50
532.48	59068.10
532.65	58934.69
532.82	59744.51
532.99	60856.27
533.16	61193.31
533.33	61890.79
533.50	61691.84
533.67	60790.73
533.84	60367.10
534.01	60662.00
534.18	60786.05
534.35	61153.52
534.52	60999.04
534.69	61085.64
534.86	61528.00
535.03	61687.16
535.20	62183.35
535.37	62583.58
535.54	62520.39
535.71	62344.85
535.88	61961.00
536.05	61296.29
536.22	60910.10
536.38	60690.09
536.55	60329.65
536.72	59863.88
536.89	59828.77
537.06	60278.16
537.23	61434.38
537.40	61385.23
537.57	61516.30
537.74	61106.71
537.91	61087.98
538.08	61193.31
538.25	61127.77
538.42	61446.08
538.59	61183.94
538.75	60753.29
538.92	60385.82
539.09	60357.74
539.26	60205.60
539.43	59927.08
539.60	59976.23
539.77	60114.32
539.94	60292.20
540.11	59540.89
540.28	58962.78
540.44	59016.61
540.61	59189.81
540.78	59351.30
540.95	60020.70
541.12	60191.56
541.29	60434.97
541.46	60533.28
541.62	60779.03
541.79	60594.13
541.96	60053.47
542.13	60048.78
542.30	60322.63
542.47	60570.72
542.63	60170.49
542.80	60196.24
542.97	60257.09
543.14	60123.68
543.31	60170.49
543.48	60605.83
543.64	61319.70
543.81	61626.31
543.98	61446.08
544.15	60781.37
544.32	60163.47
544.48	60247.73
544.65	60568.38
544.82	60954.57
544.99	60470.08
545.16	60500.51
545.32	60151.77
545.49	60980.32
545.66	61289.27
545.83	61015.43
546.00	60575.40
546.16	60252.41
546.33	60292.20
546.50	60224.32
546.67	60573.06
546.83	60441.99
547.00	60451.36
547.17	59742.17
547.34	59313.86
547.50	59147.68
547.67	59578.34
547.84	59700.04
548.00	60163.47
548.17	60388.16
548.34	60200.92
548.51	60308.58
548.67	60437.31
548.84	60535.62
549.01	60444.33
549.18	60310.92
549.34	60240.71
549.51	60385.82
549.68	60142.41
549.84	59828.77
550.01	59927.08
550.18	59838.14
550.34	59854.52
550.51	59966.87
550.68	60060.49
550.84	59496.42
551.01	59475.35
551.18	59648.55
551.34	59465.99
551.51	60331.99
551.68	60308.58
551.84	60470.08
552.01	60322.63
552.18	60149.43
552.34	59271.73
552.51	59267.05
552.68	58810.64
552.84	59323.22
553.01	59728.13
553.18	59641.53
553.34	59777.28
553.51	59898.99
553.67	59964.52
553.84	59994.95
554.01	59978.57
554.17	59859.20
554.34	59922.40
554.51	59969.21
554.67	60308.58
554.84	60257.09
555.00	59891.97
555.17	59618.13
555.33	59337.26
555.50	59576.00
555.67	59817.07
555.83	59522.16
556.00	59231.94
556.16	59182.79
556.33	58794.26
556.50	58717.02
556.66	58791.92
556.83	58555.52
556.99	58904.26
557.16	58494.67
557.32	58894.90
557.49	59175.76
557.65	59201.51
557.82	59072.78
557.98	58857.45
558.15	58695.95
558.32	57640.37
558.48	56832.89
558.65	57097.37
558.81	57380.57
558.98	57848.68
559.14	58080.39
559.31	58096.78
559.47	57921.24
559.64	58005.50
559.80	57460.15
559.97	57623.99
560.13	57907.19
560.30	58702.98
560.46	59110.23
560.63	59447.27
560.79	59365.35
560.96	59117.25
561.12	58157.63
561.29	57382.91
561.45	57179.29
561.61	57867.40
561.78	58244.23
561.94	58047.63
562.11	57977.41
562.27	57710.59
562.44	58213.80
562.60	58389.34
562.77	58754.47
562.93	58494.67
563.10	58581.27
563.26	57743.36
563.42	57879.11
563.59	57911.88
563.75	57813.57
563.92	57738.68
564.08	57832.30
564.24	58155.29
564.41	57895.49
564.57	58152.95
564.74	57776.12
564.90	57703.57
565.07	57499.94
565.23	57446.11
565.39	56870.34
565.56	56807.14
565.72	56357.76
565.88	56814.16
566.05	56978.00
566.21	57036.51
566.38	57003.75
566.54	57272.91
566.70	57736.34
566.87	57932.94
567.03	57759.74
567.19	58150.61
567.36	57785.49
567.52	57523.35
567.68	57455.47
567.85	56856.29
568.01	56477.13
568.17	56177.54
568.34	56413.93
568.50	55997.32
568.66	56271.16
568.83	56587.13
568.99	56739.27
569.15	56666.71
569.32	56755.65
569.48	56645.65
569.64	56435.00
569.81	56116.68
569.97	56245.41
570.13	56210.31
570.30	55515.17
570.46	55201.53
570.62	54761.51
570.78	54452.56
570.95	54852.80
571.11	55461.33
571.27	55772.63
571.43	55753.90
571.60	56097.96
571.76	56189.24
571.92	56669.05
572.09	56797.78
572.25	56556.70
572.41	56823.53
572.57	56512.23
572.74	56591.81
572.90	56198.60
573.06	56154.13
573.22	56238.39
573.38	56282.86
573.55	56079.24
573.71	56313.29
573.87	56189.24
574.03	56102.64
574.20	56170.52
574.36	55702.41
574.52	55781.99
574.68	55449.63
574.84	55121.96
575.01	54829.39
575.17	54700.66
575.33	54848.11
575.49	55372.39
575.65	55255.37
575.82	55278.77
575.98	54796.62
576.14	55143.02
576.30	55325.58
576.46	55311.54
576.62	55281.11
576.79	55260.05
576.95	54958.12
577.11	54841.09
577.27	55023.65
577.43	55009.61
577.59	54869.18
577.75	54560.23
577.92	54061.69
578.08	53750.40
578.24	53588.91
578.40	54082.76
578.56	54148.29
578.72	54307.45
578.88	54602.36
579.04	54518.10
579.21	54724.07
579.37	54817.69
579.53	55025.99
579.69	54693.64
579.85	55037.70
580.01	54766.20
580.17	54461.93
580.33	54085.10
580.49	54347.24
580.65	54618.74
580.82	54911.31
580.98	54824.71
581.14	54700.66
581.30	54775.56
581.46	54403.41
581.62	54731.09
581.78	54897.27
581.94	54831.73
582.10	54784.92
582.26	55103.23
582.42	55133.66
582.58	54834.07
582.74	55002.59
582.90	54960.46
583.06	55096.21
583.22	54660.87
583.38	54468.95
583.54	54621.08
583.70	54321.49
583.86	54614.06
584.02	54578.95
584.18	54506.40
584.34	54305.11
584.50	54262.98
584.66	54363.62
584.82	54071.06
584.98	54003.18
585.14	53481.24
585.30	53038.88
