SpectraSuite Data File
++++++++++++++++++++++++++++++++++++
Date: Mon Oct 07 14:55:01 GMT-05:00 2013
User: price-jones
Dark Spectrum Present: No
Reference Spectrum Present: No
Number of Sampled Component Spectra: 1
Spectrometers: USB2+H05261
Integration Time (usec): 10000 (USB2+H05261)
Spectra Averaged: 1 (USB2+H05261)
Boxcar Smoothing: 0 (USB2+H05261)
Correct for Electrical Dark: No (USB2+H05261)
Strobe/Lamp Enabled: No (USB2+H05261)
Correct for Detector Non-linearity: No (USB2+H05261)
Correct for Stray Light: No (USB2+H05261)
Number of Pixels in Processed Spectrum: 2048
>>>>>Begin Processed Spectral Data<<<<<
365.73	0.00
365.92	0.00
366.12	0.00
366.32	0.00
366.52	0.00
366.72	0.00
366.91	0.00
367.11	0.00
367.31	0.00
367.51	0.00
367.70	0.00
367.90	0.00
368.10	0.00
368.30	0.00
368.49	0.00
368.69	0.00
368.89	0.00
369.09	0.00
369.28	0.00
369.48	0.00
369.68	0.00
369.87	0.00
370.07	0.00
370.27	0.00
370.47	402.57
370.66	2420.11
370.86	2675.23
371.06	3066.10
371.25	2958.44
371.45	2621.40
371.65	2373.30
371.84	2221.17
372.04	2480.97
372.24	2708.00
372.44	2813.32
372.63	2609.70
372.83	2256.28
373.03	2176.70
373.22	2069.03
373.42	2354.58
373.62	2562.89
373.81	2808.64
374.01	2544.16
374.21	2363.94
374.40	2298.41
374.60	2445.86
374.79	2843.75
374.99	3131.64
375.19	3368.03
375.38	3232.28
375.58	3075.46
375.78	3164.40
375.97	3276.75
376.17	3183.13
376.37	3295.47
376.56	3459.31
376.76	3721.45
376.95	3845.50
377.15	4138.07
377.35	4243.39
377.54	4578.09
377.74	4512.55
377.93	4557.02
378.13	4411.91
378.33	3990.61
378.52	3850.18
378.72	3751.88
378.91	3630.17
379.11	3569.32
379.31	3332.92
379.50	3496.76
379.70	3805.71
379.89	4093.60
380.09	4381.48
380.28	4430.63
380.48	4318.29
380.68	4458.72
380.87	4112.32
381.07	3751.88
381.26	3611.45
381.46	3487.40
381.65	3300.16
381.85	3119.93
382.04	2981.84
382.24	2785.24
382.43	2691.62
382.63	2724.38
382.83	2656.51
383.02	2703.32
383.22	2600.34
383.41	2745.45
383.61	3021.63
383.80	3468.67
384.00	3969.55
384.19	4355.74
384.39	4337.01
384.58	4411.91
384.78	4269.14
384.97	4353.40
385.17	3948.48
385.36	3744.86
385.56	3749.54
385.75	4131.05
385.95	4292.54
386.14	4617.88
386.34	4650.64
386.53	4308.93
386.72	4088.92
386.92	4255.09
387.11	4580.43
387.31	4589.79
387.50	4456.38
387.70	4339.35
387.89	4388.50
388.09	4360.42
388.28	4447.02
388.48	4641.28
388.67	5004.07
388.86	5451.11
389.06	5605.58
389.25	6038.58
389.45	6183.70
389.64	6033.90
389.84	5881.77
390.03	5753.04
390.22	6012.84
390.42	6155.61
390.61	6691.59
390.81	6885.86
391.00	6981.82
391.19	6902.24
391.39	6705.63
391.58	6291.36
391.78	6012.84
391.97	5806.87
392.16	5240.46
392.36	4624.90
392.55	3669.96
392.75	2766.51
392.94	2476.29
393.13	2637.78
393.33	3253.34
393.52	4161.47
393.71	4987.68
393.91	5408.98
394.10	5970.71
394.29	6399.02
394.49	6995.86
394.68	7382.05
394.88	7459.29
395.07	7871.22
395.26	7389.07
395.46	7342.26
395.65	6691.59
395.84	5724.95
396.04	4608.51
396.23	3861.88
396.42	3440.59
396.62	3424.20
396.81	4229.35
397.00	5390.25
397.19	6633.08
397.39	7838.45
397.58	8564.02
397.77	8961.91
397.97	9240.44
398.16	9392.57
398.35	9771.74
398.55	10370.91
398.74	10602.63
398.93	10782.85
399.12	10656.46
399.32	9970.68
399.51	10497.30
399.70	11002.86
399.90	11075.42
400.09	10972.43
400.28	10663.48
400.47	11199.46
400.67	11648.85
400.86	11850.13
401.05	11779.92
401.24	11749.49
401.44	11988.22
401.63	12205.89
401.82	12140.36
402.01	12250.36
402.21	12430.59
402.40	12147.38
402.59	11927.37
402.78	11262.66
402.97	11126.91
403.17	11955.46
403.36	12425.90
403.55	12795.71
403.74	13158.49
403.93	12081.85
404.13	11236.91
404.32	11424.15
404.51	11953.12
404.70	12556.97
404.89	12468.03
405.09	12287.81
405.28	11934.39
405.47	12091.21
405.66	12208.23
405.85	11665.23
406.05	11576.29
406.24	11559.91
406.43	12070.14
406.62	12320.58
406.81	12634.21
407.00	12121.63
407.20	11925.03
407.39	11988.22
407.58	12697.41
407.77	13369.14
407.96	13748.31
408.15	13802.14
408.34	13799.80
408.54	14429.40
408.73	14471.53
408.92	14340.46
409.11	13294.24
409.30	12912.74
409.49	12044.40
409.68	11421.81
409.87	11417.13
410.07	12025.67
410.26	13268.50
410.45	13760.01
410.64	14136.84
410.83	14490.26
411.02	14611.96
411.21	15365.62
411.40	15279.02
411.59	15410.09
411.78	15094.11
411.98	15276.68
412.17	15489.67
412.36	15023.90
412.55	15037.94
412.74	14656.43
412.93	14132.15
413.12	14883.47
413.31	16112.25
413.50	16325.24
413.69	16418.86
413.88	15515.41
414.07	15405.41
414.26	16145.02
414.45	16655.25
414.64	16100.55
414.83	16121.61
415.02	15770.53
415.22	15852.45
415.41	16659.93
415.60	16982.93
415.79	17289.54
415.98	17771.69
416.17	17743.60
416.36	17233.36
416.55	17177.19
416.74	16365.03
416.93	16025.65
417.12	16166.08
417.31	16341.62
417.50	16652.91
417.69	17116.34
417.88	16758.24
418.07	16812.07
418.26	16596.74
418.45	16814.41
418.64	17654.66
418.83	18537.04
419.02	17851.27
419.21	17448.69
419.39	16959.52
419.58	15920.32
419.77	16360.34
419.96	17207.62
420.15	18019.78
420.34	18459.81
420.53	18974.72
420.72	19442.83
420.91	19180.69
421.10	18696.20
421.29	18773.44
421.48	18555.77
421.67	19463.90
421.86	18054.89
422.05	16636.53
422.24	15506.05
422.43	16020.97
422.61	18082.98
422.80	18574.49
422.99	17757.64
423.18	17273.15
423.37	17460.40
423.56	17565.72
423.75	18277.24
423.94	18317.03
424.13	17139.74
424.32	17490.82
424.50	17556.36
424.69	17844.24
424.88	17649.98
425.07	17706.15
425.26	17446.35
425.45	16755.90
425.64	16734.83
425.83	17195.92
426.01	17802.11
426.20	18019.78
426.39	17757.64
426.58	16475.03
426.77	15611.37
426.96	15288.38
427.15	16086.50
427.33	16961.86
427.52	17305.92
427.71	17652.32
427.90	17446.35
428.09	17387.84
428.28	16517.16
428.46	16027.99
428.65	15868.83
428.84	16837.81
429.03	16594.40
429.22	15817.34
429.40	14520.68
429.59	13130.41
429.78	11964.82
429.97	12065.46
430.16	12100.57
430.34	11976.52
430.53	12262.07
430.72	13331.69
430.91	14750.06
431.10	17303.58
431.28	19983.49
431.47	21144.40
431.66	20994.61
431.85	18525.34
432.03	17046.12
432.22	17193.58
432.41	18429.38
432.60	19707.31
432.79	20233.93
432.97	20776.94
433.16	20034.99
433.35	17869.99
433.54	16203.53
433.72	15552.86
433.91	16758.24
434.10	18607.26
434.28	19658.16
434.47	20685.65
434.66	19707.31
434.85	19428.79
435.03	19594.96
435.22	20240.95
435.41	21329.30
435.59	21572.72
435.78	21312.92
435.97	21933.16
436.16	22115.72
436.34	21811.45
436.53	21427.60
436.72	21429.94
436.90	20252.66
437.09	20435.22
437.28	19887.53
437.46	20891.62
437.65	20208.19
437.84	18787.48
438.02	17888.71
438.21	18071.28
438.40	18490.23
438.58	20088.82
438.77	20755.87
438.96	20805.02
439.14	22160.19
439.33	22293.60
439.52	22434.03
439.70	21860.60
439.89	20964.18
440.08	20868.22
440.26	20912.69
440.45	21759.96
440.63	23906.23
440.82	24238.59
441.01	23866.44
441.19	23440.47
441.38	24521.79
441.57	25303.53
441.75	25336.30
441.94	25542.27
442.12	25537.59
442.31	26045.48
442.50	25830.15
442.68	25474.39
442.87	25029.69
443.05	24254.97
443.24	25441.62
443.43	25977.61
443.61	25977.61
443.80	26401.24
443.98	25579.71
444.17	25226.29
444.35	26546.36
444.54	26955.95
444.73	26665.72
444.91	25083.52
445.10	24065.39
445.28	23281.31
445.47	23168.96
445.65	23328.12
445.84	24489.03
446.02	24940.75
446.21	25305.87
446.39	25120.97
446.58	26036.12
446.77	26122.72
446.95	26401.24
447.14	27285.97
447.32	27505.98
447.51	26747.64
447.69	25881.64
447.88	25769.30
448.06	26260.81
448.25	26183.57
448.43	26199.96
448.62	26382.52
448.80	25869.94
448.99	25940.16
449.17	26455.08
449.36	26874.03
449.54	27452.14
449.73	27833.65
449.91	28526.45
450.10	28945.41
450.28	29289.46
450.46	29340.96
450.65	29207.55
450.83	28868.17
451.02	28077.07
451.20	28634.11
451.39	27999.83
451.57	28395.38
451.76	28203.46
451.94	27627.68
452.13	26611.89
452.31	25582.06
452.49	24364.98
452.68	25397.15
452.86	25593.76
453.05	26108.68
453.23	27295.33
453.42	27199.37
453.60	28201.11
453.78	27812.59
453.97	27910.89
454.15	27023.83
454.34	26092.29
454.52	26548.70
454.70	26862.33
454.89	27065.96
455.07	26920.84
455.26	27541.08
455.44	28439.85
455.62	29310.53
455.81	28954.77
455.99	28704.33
456.17	29069.45
456.36	29308.19
456.54	30003.33
456.73	29088.18
456.91	29762.25
457.09	29869.92
457.28	30960.61
457.46	29123.29
457.64	28971.15
457.83	28381.34
458.01	28119.20
458.19	28830.72
458.38	29848.85
458.56	29874.60
458.74	29607.78
458.93	29109.24
459.11	28638.80
459.29	28367.29
459.48	29240.31
459.66	28716.03
459.84	29223.93
460.03	29649.91
460.21	29455.64
460.39	30635.27
460.57	30412.92
460.76	30375.47
460.94	30340.36
461.12	30429.30
461.31	30483.14
461.49	30941.88
461.67	30668.04
461.85	31295.30
462.04	30972.31
462.22	30899.75
462.40	30808.47
462.59	30684.42
462.77	30485.48
462.95	30700.81
463.13	30466.75
463.32	29954.18
463.50	30267.81
463.68	30057.16
463.86	30539.31
464.05	29675.65
464.23	28655.18
464.41	29137.33
464.59	28842.42
464.78	30373.13
464.96	29947.15
465.14	29586.71
465.32	30639.95
465.50	31510.63
465.69	32208.11
465.87	30953.58
466.05	29834.81
466.23	28503.04
466.41	28166.01
466.60	29120.95
466.78	29116.26
466.96	29556.28
467.14	30246.74
467.32	30169.51
467.51	30300.58
467.69	28779.23
467.87	29443.94
468.05	30092.27
468.23	30171.85
468.41	30066.52
468.60	30143.76
468.78	31194.66
468.96	30576.76
469.14	30792.09
469.32	30761.66
469.50	29614.80
469.69	30272.49
469.87	29479.05
470.05	29308.19
470.23	29277.76
470.41	29930.77
470.59	30181.21
470.77	30134.40
470.95	30799.11
471.14	31281.26
471.32	31660.43
471.50	32327.48
471.68	33053.05
471.86	33001.55
472.04	32465.57
472.22	33275.40
472.40	31662.77
472.58	31311.69
472.77	31019.12
472.95	31847.67
473.13	32753.46
473.31	31861.71
473.49	31344.45
473.67	32325.14
473.85	32950.06
474.03	34185.86
474.21	34265.44
474.39	34279.49
474.57	33944.79
474.75	34497.16
474.93	33886.28
475.12	33453.28
475.30	33429.87
475.48	33193.48
475.66	32811.97
475.84	32720.69
476.02	32741.75
476.20	32517.06
476.38	33486.04
476.56	34061.82
476.74	35208.68
476.92	35306.98
477.10	35676.79
477.28	36009.14
477.46	36531.08
477.64	37024.93
477.82	37083.45
478.00	37134.94
478.18	35510.61
478.36	35901.48
478.54	36364.90
478.72	36765.14
478.90	38756.93
479.08	39756.34
479.26	39573.78
479.44	39569.10
479.62	38213.93
479.80	39786.77
479.98	39728.25
480.16	39840.60
480.34	38763.95
480.52	40591.91
480.70	40708.94
480.88	39908.47
481.06	40727.66
481.24	40858.73
481.41	41329.18
481.59	42838.83
481.77	41483.66
481.95	40676.17
482.13	40360.20
482.31	41546.85
482.49	41853.46
482.67	41757.50
482.85	41553.87
483.03	42129.64
483.21	42892.66
483.39	42401.14
483.57	41579.62
483.74	42068.79
483.92	42738.18
484.10	42384.76
484.28	42609.45
484.46	42452.64
484.64	44744.02
484.82	43421.62
485.00	42328.59
485.18	41883.89
485.35	39445.05
485.53	35660.40
485.71	33305.82
485.89	33900.32
486.07	35978.72
486.25	38974.60
486.43	41111.51
486.61	40744.05
486.78	41160.66
486.96	42265.39
487.14	43721.21
487.32	44083.99
487.50	45172.34
487.68	46471.34
487.85	47407.55
488.03	46548.57
488.21	45867.48
488.39	45837.05
488.57	44493.58
488.75	44165.91
488.92	46380.06
489.10	48308.66
489.28	49602.97
489.46	51100.92
489.64	50368.33
489.81	50845.80
489.99	49366.58
490.17	49635.74
490.35	50005.55
490.53	49275.30
490.70	48917.20
490.88	48968.69
491.06	50787.28
491.24	50880.91
491.41	48762.72
491.59	47145.41
491.77	47655.65
491.95	49017.84
492.13	50468.97
492.30	51269.43
492.48	51983.30
492.66	52273.52
492.84	52250.12
493.01	51508.17
493.19	51271.78
493.37	50976.87
493.54	51461.36
493.72	52329.70
493.90	52554.39
494.08	53041.22
494.25	53488.26
494.43	53621.67
494.61	54424.48
494.79	54389.37
494.96	54555.55
495.14	54270.00
495.32	52381.19
495.49	52882.06
495.67	53787.85
495.85	54646.83
496.02	55246.00
496.20	54822.37
496.38	54618.74
496.55	54588.31
496.73	55374.73
496.91	55084.51
497.09	55014.29
497.26	55241.32
497.44	55009.61
497.62	54143.61
497.79	53059.94
497.97	52126.07
498.14	53123.14
498.32	54616.40
498.50	54501.71
498.67	54482.99
498.85	55011.95
499.03	55458.99
499.20	56055.83
499.38	55173.45
499.56	54724.07
499.73	54405.75
499.91	54316.81
500.08	53703.59
500.26	53322.08
500.44	53883.81
500.61	54466.61
500.79	54115.53
500.97	54192.76
501.14	53186.33
501.32	52748.65
501.49	53237.83
501.67	53801.89
501.84	53984.46
502.02	54796.62
502.20	55182.81
502.37	55688.37
502.55	55547.93
502.72	55901.36
502.90	56418.61
503.07	56240.73
503.25	54908.97
503.43	53996.16
503.60	53279.96
503.78	53258.89
503.95	53820.62
504.13	55119.62
504.30	55686.03
504.48	55363.03
504.65	55154.72
504.83	55351.33
505.01	56039.45
505.18	56530.96
505.36	56886.72
505.53	57043.54
505.71	57036.51
505.88	57116.09
506.06	56718.20
506.23	55976.25
506.41	56123.71
506.58	56406.91
506.76	56327.33
506.93	55742.20
507.11	55629.85
507.28	55767.94
507.46	55229.62
507.63	55379.42
507.81	54375.33
507.98	55304.52
508.16	56633.94
508.33	56458.40
508.50	56690.12
508.68	57153.54
508.85	57343.12
509.03	57703.57
509.20	57027.15
509.38	55765.60
509.55	55803.05
509.73	56027.74
509.90	56161.15
510.08	56378.82
510.25	55650.92
510.42	55976.25
510.60	56659.69
510.77	56793.10
510.95	56961.62
511.12	57256.53
511.30	57579.52
511.47	57839.32
511.64	57869.75
511.82	57818.25
511.99	56533.30
512.17	56938.21
512.34	56231.37
512.51	56343.72
512.69	56762.67
512.86	56399.89
513.04	56692.46
513.21	56343.72
513.38	55421.55
513.56	55222.60
513.73	54581.29
513.90	55262.39
514.08	55763.26
514.25	55133.66
514.43	55929.44
514.60	56329.67
514.77	56374.14
514.95	56559.05
515.12	56273.50
515.29	56856.29
515.47	57361.85
515.64	57048.22
515.81	56898.42
515.99	55753.90
516.16	53616.99
516.33	51171.13
516.51	51189.86
516.68	49593.61
516.85	48423.34
517.03	51047.08
517.20	53755.08
517.37	55763.26
517.54	56622.24
517.72	55201.53
517.89	51672.01
518.06	50850.48
518.24	52095.64
518.41	54152.97
518.58	54915.99
518.75	55150.04
518.93	54934.71
519.10	54431.50
519.27	55906.04
519.45	56088.60
519.62	56669.05
519.79	56507.55
519.96	56268.82
520.14	55875.61
520.31	54607.04
520.48	55178.13
520.65	55957.53
520.83	56882.04
521.00	56858.63
521.17	56329.67
521.34	56306.27
521.52	57059.92
521.69	56966.30
521.86	57436.75
522.03	57661.44
522.20	55587.72
522.38	55157.06
522.55	55938.80
522.72	56507.55
522.89	55749.22
523.07	56058.17
523.24	56842.25
523.41	57932.94
523.58	58277.00
523.75	58370.62
523.92	57996.13
524.10	57783.15
524.27	57275.25
524.44	57247.16
524.61	57024.81
524.78	57406.32
524.96	57310.36
525.13	57411.00
525.30	57773.78
525.47	57937.62
525.64	57738.68
525.81	56877.36
525.98	55238.98
526.16	53872.11
526.33	54019.56
526.50	53277.61
526.67	53319.74
526.84	54171.70
527.01	55025.99
527.18	55508.14
527.36	56823.53
527.53	57530.37
527.70	56694.80
527.87	55501.12
528.04	56739.27
528.21	57190.99
528.38	57647.39
528.55	58564.88
528.72	58389.34
528.89	57757.40
529.07	57712.93
529.24	56271.16
529.41	56257.12
529.58	56243.07
529.75	57057.58
529.92	57261.21
530.09	57387.60
530.26	57743.36
530.43	58756.81
530.60	57607.61
530.77	58075.71
530.94	58309.77
531.11	57656.76
531.28	58071.03
531.46	58061.67
531.63	57605.26
531.80	56975.66
531.97	56285.20
532.14	56509.89
532.31	54773.22
532.48	54670.23
532.65	54749.81
532.82	55304.52
532.99	56853.95
533.16	57270.57
533.33	57092.69
533.50	57572.50
533.67	57581.86
533.84	56402.23
534.01	57020.13
534.18	57256.53
534.35	56835.23
534.52	56140.09
534.69	56938.21
534.86	57492.92
535.03	57457.81
535.20	57542.07
535.37	58344.87
535.54	58410.41
535.71	58255.93
535.88	58660.85
536.05	57125.46
536.22	56308.61
536.38	56062.85
536.55	55070.46
536.72	55042.38
536.89	55716.45
537.06	56130.73
537.23	56802.46
537.40	57003.75
537.57	56598.83
537.74	57153.54
537.91	56825.87
538.08	56659.69
538.25	56629.26
538.42	57263.55
538.59	56530.96
538.75	55407.50
538.92	55189.83
539.09	55384.10
539.26	55468.36
539.43	55496.44
539.60	55664.96
539.77	56385.85
539.94	55831.14
540.11	55084.51
540.28	54794.28
540.44	54169.36
540.61	54480.65
540.78	55152.38
540.95	55847.52
541.12	55950.51
541.29	56708.84
541.46	56856.29
541.62	56858.63
541.79	55922.42
541.96	54990.89
542.13	55288.13
542.30	55480.06
542.47	56025.40
542.63	55669.64
542.80	55643.90
542.97	55288.13
543.14	54878.54
543.31	55021.31
543.48	56561.39
543.64	56650.33
543.81	57977.41
543.98	57642.71
544.15	55550.27
544.32	56324.99
544.48	55957.53
544.65	55969.23
544.82	56566.07
544.99	55121.96
545.16	54590.66
545.32	54976.84
545.49	56032.42
545.66	55688.37
545.83	55789.01
546.00	56233.71
546.16	56144.77
546.33	56245.41
546.50	55945.83
546.67	56540.32
546.83	55606.45
547.00	56336.69
547.17	54834.07
547.34	53839.34
547.50	54609.38
547.67	55646.24
547.84	56371.80
548.00	55889.65
548.17	55753.90
548.34	56046.47
548.51	56273.50
548.67	56837.57
548.84	56355.42
549.01	56605.86
549.18	55561.98
549.34	55807.73
549.51	55887.31
549.68	55765.60
549.84	55723.47
550.01	55047.06
550.18	54777.90
550.34	54838.75
550.51	55554.96
550.68	55992.64
550.84	55580.70
551.01	54967.48
551.18	54571.93
551.34	54085.10
551.51	55498.78
551.68	55187.49
551.84	55332.60
552.01	55496.44
552.18	54644.49
552.34	54059.35
552.51	54162.34
552.68	53799.55
552.84	54333.20
553.01	54232.55
553.18	55613.47
553.34	55686.03
553.51	55433.25
553.67	55189.83
553.84	54670.23
554.01	55370.05
554.17	54679.60
554.34	55100.89
554.51	55288.13
554.67	54443.20
554.84	54387.03
555.00	54267.66
555.17	54501.71
555.33	53928.28
555.50	53511.67
555.67	54368.30
555.83	54272.34
556.00	53918.92
556.16	53804.24
556.33	53169.95
556.50	53970.41
556.66	54066.38
556.83	53563.16
556.99	53270.59
557.16	53724.66
557.32	53687.21
557.49	53925.94
557.65	53371.24
557.82	54064.03
557.98	54712.36
558.15	53235.48
558.32	51992.66
558.48	51405.19
558.65	51721.16
558.81	52149.48
558.98	52966.32
559.14	53291.66
559.31	52945.26
559.47	52477.15
559.64	51973.94
559.80	51676.69
559.97	52467.79
560.13	53722.32
560.30	54611.72
560.46	55018.97
560.63	55512.83
560.79	54990.89
560.96	54223.19
561.12	52903.13
561.29	52186.92
561.45	52247.78
561.61	54216.17
561.78	53071.65
561.94	54110.85
562.11	53848.71
562.27	52788.44
562.44	53364.21
562.60	54092.12
562.77	54220.85
562.93	52648.01
563.10	52832.91
563.26	52900.79
563.42	53546.78
563.59	52736.95
563.75	52502.90
563.92	52790.78
564.08	51957.55
564.24	52931.22
564.41	52404.59
564.57	53186.33
564.74	52825.89
564.90	51707.12
565.07	52163.52
565.23	51124.32
565.39	50803.67
565.56	51388.80
565.72	51363.06
565.88	49799.58
566.05	52594.18
566.21	53085.69
566.38	52456.09
566.54	52210.33
566.70	52999.09
566.87	52643.33
567.03	51742.22
567.19	53130.16
567.36	53495.28
567.52	52027.77
567.68	51716.48
567.85	50506.42
568.01	50934.74
568.17	51313.90
568.34	51985.64
568.50	51398.16
568.66	51641.58
568.83	50817.71
568.99	50244.28
569.15	50794.31
569.32	51213.26
569.48	50590.68
569.64	50087.46
569.81	50539.19
569.97	50026.61
570.13	49404.03
570.30	49036.56
570.46	48425.68
570.62	47775.02
570.78	48130.78
570.95	49453.18
571.11	48746.34
571.27	48591.86
571.43	48711.23
571.60	48371.85
571.76	50700.68
571.92	50136.62
572.09	51117.30
572.25	51203.90
572.41	51920.10
572.57	51491.79
572.74	51587.75
572.90	52186.92
573.06	50899.63
573.22	51536.26
573.38	51143.05
573.55	52622.26
573.71	50890.27
573.87	51437.95
574.03	51164.11
574.20	50459.61
574.36	50438.54
574.52	49516.37
574.68	49647.44
574.84	48800.17
575.01	48758.04
575.17	49399.35
575.33	49666.17
575.49	49748.09
575.65	48872.73
575.82	49570.21
575.98	49052.95
576.14	50052.36
576.30	50562.59
576.46	48573.14
576.62	49340.83
576.79	49240.19
576.95	49287.00
577.11	49436.80
577.27	49425.09
577.43	49886.18
577.59	48374.19
577.75	47056.47
577.92	47435.64
578.08	47662.67
578.24	49118.48
578.40	48165.88
578.56	47578.41
578.72	47536.28
578.88	47756.29
579.04	48348.45
579.21	47494.15
579.37	48048.86
579.53	48875.07
579.69	47697.78
579.85	47885.02
580.01	48238.44
580.17	47863.96
580.33	48704.21
580.49	48648.03
580.65	46979.23
580.82	47676.71
580.98	48882.09
581.14	49223.81
581.30	49158.27
581.46	48090.99
581.62	48624.63
581.78	49148.91
581.94	49102.10
582.10	49935.33
582.26	49769.15
582.42	49233.17
582.58	47510.53
582.74	47543.30
582.90	47597.13
583.06	48037.16
583.22	48411.64
583.38	48105.03
583.54	48736.98
583.70	48933.58
583.86	48318.02
584.02	48453.77
584.18	47744.59
584.34	46932.42
584.50	46511.13
584.66	47119.66
584.82	47512.88
584.98	47360.74
585.14	47033.07
585.30	47145.41
