SpectraSuite Data File
++++++++++++++++++++++++++++++++++++
Date: Mon Oct 07 14:53:38 GMT-05:00 2013
User: price-jones
Dark Spectrum Present: No
Reference Spectrum Present: No
Number of Sampled Component Spectra: 1
Spectrometers: USB2+H05261
Integration Time (usec): 100000 (USB2+H05261)
Spectra Averaged: 1 (USB2+H05261)
Boxcar Smoothing: 0 (USB2+H05261)
Correct for Electrical Dark: No (USB2+H05261)
Strobe/Lamp Enabled: No (USB2+H05261)
Correct for Detector Non-linearity: No (USB2+H05261)
Correct for Stray Light: No (USB2+H05261)
Number of Pixels in Processed Spectrum: 2048
>>>>>Begin Processed Spectral Data<<<<<
365.73	0.00
365.92	0.00
366.12	0.00
366.32	0.00
366.52	0.00
366.72	0.00
366.91	0.00
367.11	0.00
367.31	0.00
367.51	0.00
367.70	0.00
367.90	0.00
368.10	0.00
368.30	0.00
368.49	0.00
368.69	0.00
368.89	0.00
369.09	0.00
369.28	0.00
369.48	0.00
369.68	0.00
369.87	0.00
370.07	0.00
370.27	0.00
370.47	528.96
370.66	2724.38
370.86	3346.97
371.06	3749.54
371.25	3630.17
371.45	3330.58
371.65	3007.59
371.84	2719.70
372.04	2923.33
372.24	3276.75
372.44	3349.31
372.63	3454.63
372.83	3183.13
373.03	2874.18
373.22	2551.18
373.42	2640.12
373.62	3049.72
373.81	3342.28
374.01	3461.65
374.21	3066.10
374.40	2757.15
374.60	2885.88
374.79	3155.04
374.99	3899.33
375.19	4135.73
375.38	4119.34
375.58	3817.41
375.78	3803.37
375.97	3922.74
376.17	4102.96
376.37	4072.53
376.56	4189.56
376.76	4425.95
376.95	4734.90
377.15	4903.42
377.35	5144.50
377.54	5371.53
377.74	5572.82
377.93	5654.73
378.13	5495.58
378.33	5144.50
378.52	4676.39
378.72	4339.35
378.91	4557.02
379.11	4418.93
379.31	4283.18
379.50	4257.43
379.70	4512.55
379.89	5013.43
380.09	5404.30
380.28	5392.59
380.48	5624.31
380.68	5373.87
380.87	5146.84
381.07	4983.00
381.26	4587.45
381.46	4353.40
381.65	4044.45
381.85	4102.96
382.04	3805.71
382.24	3566.98
382.43	3344.63
382.63	3222.92
382.83	3384.41
383.02	3325.90
383.22	3258.03
383.41	3171.43
383.61	3646.55
383.80	3981.25
384.00	4674.05
384.19	5100.03
384.39	5537.71
384.58	5418.34
384.78	5385.57
384.97	5296.63
385.17	5116.41
385.36	4901.08
385.56	4482.13
385.75	4692.77
385.95	5224.08
386.14	5547.07
386.34	5628.99
386.53	5483.88
386.72	4992.36
386.92	5135.14
387.11	5284.93
387.31	5753.04
387.50	5502.60
387.70	5369.19
387.89	5350.46
388.09	5322.38
388.28	5317.70
388.48	5329.40
388.67	5809.21
388.86	6413.07
389.06	6995.86
389.25	7344.60
389.45	7407.80
389.64	7225.23
389.84	7164.38
390.03	7080.12
390.22	7129.27
390.42	7337.58
390.61	7810.37
390.81	8367.42
391.00	8456.36
391.19	8559.34
391.39	8205.92
391.58	7742.49
391.78	7260.34
391.97	7082.46
392.16	6675.21
392.36	5994.11
392.55	4924.49
392.75	3775.28
392.94	3171.43
393.13	3087.17
393.33	3417.18
393.52	4540.64
393.71	5645.37
393.91	6462.22
394.10	6998.20
394.29	7712.07
394.49	8119.32
394.68	8858.93
394.88	9118.73
395.07	9324.69
395.26	9123.41
395.46	8952.55
395.65	8243.37
395.84	7440.56
396.04	6392.00
396.23	5132.79
396.42	4161.47
396.62	4112.32
396.81	4746.61
397.00	5970.71
397.19	7590.36
397.39	8863.61
397.58	10003.45
397.77	10637.73
397.97	11410.11
398.16	11257.98
398.35	11634.80
398.55	11852.47
398.74	12594.42
398.93	12798.05
399.12	12233.98
399.32	12039.72
399.51	12336.96
399.70	13149.13
399.90	13018.06
400.09	13130.41
400.28	12961.89
400.47	13130.41
400.67	13664.05
400.86	13944.91
401.05	14162.58
401.24	14139.18
401.44	14153.22
401.63	14455.15
401.82	14427.06
402.01	14497.28
402.21	14539.41
402.40	14890.49
402.59	14148.54
402.78	13598.51
402.97	13373.82
403.17	13699.16
403.36	14637.71
403.55	15183.06
403.74	15796.28
403.93	14581.54
404.13	13614.90
404.32	13476.80
404.51	13865.33
404.70	15126.88
404.89	15096.46
405.09	14705.59
405.28	14265.57
405.47	14403.66
405.66	14281.95
405.85	14113.43
406.05	13507.23
406.24	13715.54
406.43	14129.81
406.62	14780.48
406.81	15007.52
407.00	14530.05
407.20	14310.04
407.39	14223.44
407.58	14862.40
407.77	15473.28
407.96	15840.75
408.15	16217.57
408.34	16067.78
408.54	16865.90
408.73	16919.73
408.92	16847.18
409.11	16409.50
409.30	15653.50
409.49	14806.23
409.68	13668.73
409.87	13205.30
410.07	14120.45
410.26	15147.95
410.45	15772.87
410.64	16526.52
410.83	17015.69
411.02	17474.44
411.21	17827.86
411.40	17790.41
411.59	18082.98
411.78	17830.20
411.98	17661.68
412.17	18075.96
412.36	17802.11
412.55	17668.70
412.74	17401.88
412.93	16685.68
413.12	16865.90
413.31	18499.59
413.50	18698.54
413.69	19166.65
413.88	18518.32
414.07	17696.79
414.26	18024.47
414.45	18448.10
414.64	18712.58
414.83	18876.42
415.02	18497.25
415.22	18541.72
415.41	18911.53
415.60	19543.47
415.79	20233.93
415.98	20505.43
416.17	20767.57
416.36	20224.57
416.55	20013.92
416.74	19262.61
416.93	18764.07
417.12	18808.54
417.31	18796.84
417.50	19178.35
417.69	20072.43
417.88	19772.85
418.07	19836.04
418.26	19220.48
418.45	19534.11
418.64	20091.16
418.83	20929.07
419.02	20631.82
419.21	20718.42
419.39	19356.23
419.58	18242.14
419.77	18707.90
419.96	19634.75
420.15	20739.49
420.34	21181.85
420.53	21965.93
420.72	22375.52
420.91	22235.09
421.10	21965.93
421.29	21799.75
421.48	21074.18
421.67	21949.54
421.86	21436.97
422.05	20388.41
422.24	18118.09
422.43	17767.01
422.61	19419.42
422.80	21074.18
422.99	21441.65
423.18	20688.00
423.37	20245.63
423.56	19864.13
423.75	20428.20
423.94	20697.36
424.13	19700.29
424.32	19810.29
424.50	20163.72
424.69	19812.63
424.88	20093.50
425.07	19843.06
425.26	19669.86
425.45	19840.72
425.64	19124.52
425.83	19173.67
426.01	20163.72
426.20	20868.22
426.39	20489.05
426.58	19152.60
426.77	17640.62
426.96	17074.21
427.15	17659.34
427.33	19311.76
427.52	19700.29
427.71	20060.73
427.90	19878.17
428.09	19920.30
428.28	18981.74
428.46	18864.72
428.65	18466.83
428.84	18958.34
429.03	19171.33
429.22	18195.32
429.40	17238.05
429.59	15627.76
429.78	13818.52
429.97	13738.94
430.16	13987.04
430.34	14036.19
430.53	14111.09
430.72	14281.95
430.91	15735.42
431.10	18572.15
431.28	21926.14
431.47	23655.79
431.66	23894.53
431.85	22150.83
432.03	20156.69
432.22	19208.78
432.41	20006.90
432.60	22115.72
432.79	23206.41
432.97	23517.70
433.16	23044.91
433.35	21486.12
433.54	18974.72
433.72	17516.57
433.91	18338.10
434.10	20554.58
434.28	21989.33
434.47	23026.19
434.66	22721.92
434.85	22277.22
435.03	21947.20
435.22	22789.80
435.41	24304.12
435.59	24191.78
435.78	24505.41
435.97	24732.44
436.16	25305.87
436.34	25053.09
436.53	24521.79
436.72	24453.92
436.90	23412.38
437.09	22991.08
437.28	22436.38
437.46	23304.71
437.65	23414.72
437.84	21905.07
438.02	20130.95
438.21	19742.42
438.40	20912.69
438.58	22817.88
438.77	23405.36
438.96	23489.62
439.14	24465.62
439.33	25158.42
439.52	25642.91
439.70	25043.73
439.89	24652.86
440.08	23328.12
440.26	23770.48
440.45	24194.12
440.63	25694.40
440.82	27346.82
441.01	27349.16
441.19	26920.84
441.38	27276.60
441.57	28023.23
441.75	28900.94
441.94	29132.65
442.12	28807.31
442.31	28943.06
442.50	29275.42
442.68	28954.77
442.87	28332.18
443.05	27709.60
443.24	28540.49
443.43	29233.29
443.61	29986.94
443.80	30061.84
443.98	28273.67
444.17	27688.54
444.35	29596.07
444.54	30171.85
444.73	29895.66
444.91	28741.78
445.10	27653.43
445.28	26515.93
445.47	26089.95
445.65	26539.33
445.84	27428.74
446.02	27934.29
446.21	28418.78
446.39	28308.78
446.58	28797.95
446.77	29329.25
446.95	29692.04
447.14	30672.72
447.32	30944.22
447.51	30328.66
447.69	28903.28
447.88	28362.61
448.06	28875.19
448.25	29935.45
448.43	30094.61
448.62	29373.72
448.80	29261.38
448.99	29607.78
449.17	29905.02
449.36	29546.92
449.54	30611.87
449.73	31381.90
449.91	31534.04
450.10	32886.87
450.28	32917.29
450.46	32563.87
450.65	32678.56
450.83	32716.01
451.02	32039.59
451.20	31477.86
451.39	31943.63
451.57	31309.35
451.76	31632.34
451.94	31346.79
452.13	31056.57
452.31	29457.98
452.49	27749.39
452.68	28479.64
452.86	28676.24
453.05	28627.09
453.23	29755.23
453.42	30373.13
453.60	31402.97
453.78	31133.81
453.97	31257.85
454.15	31037.84
454.34	30277.17
454.52	30948.90
454.70	29610.12
454.89	30047.80
455.07	30511.22
455.26	30513.56
455.44	32264.28
455.62	32474.93
455.81	32891.55
455.99	32180.03
456.17	32261.94
456.36	32313.44
456.54	33273.06
456.73	32826.01
456.91	33689.67
457.09	33675.63
457.28	34602.48
457.46	33060.07
457.64	33221.56
457.83	31559.78
458.01	31131.47
458.19	32173.00
458.38	31990.44
458.56	33029.64
458.74	33139.65
458.93	32559.19
459.11	32601.32
459.29	32325.14
459.48	32294.71
459.66	32208.11
459.84	32690.26
460.03	33046.02
460.21	32910.27
460.39	33572.64
460.57	33706.05
460.76	33900.32
460.94	33996.28
461.12	33673.29
461.31	33689.67
461.49	33748.18
461.67	33596.05
461.85	34934.84
462.04	34656.31
462.22	35323.36
462.40	34110.97
462.59	34778.02
462.77	34937.18
462.95	34543.97
463.13	34061.82
463.32	34136.71
463.50	33399.44
463.68	33668.61
463.86	33647.54
464.05	33455.62
464.23	32491.32
464.41	32746.44
464.59	32070.02
464.78	33596.05
464.96	33830.10
465.14	32769.84
465.32	33872.23
465.50	34670.36
465.69	35260.17
465.87	34384.81
466.05	33755.21
466.23	32058.32
466.41	31257.85
466.60	32098.11
466.78	32187.05
466.96	32879.85
467.14	33057.73
467.32	33930.75
467.51	34298.21
467.69	32154.28
467.87	32818.99
468.05	33476.68
468.23	33848.83
468.41	33673.29
468.60	33649.88
468.78	33785.63
468.96	33443.91
469.14	34455.03
469.32	34220.97
469.50	33106.88
469.69	33350.29
469.87	32816.65
470.05	32465.57
470.23	32582.60
470.41	32716.01
470.59	33462.64
470.77	33579.67
470.95	34384.81
471.14	34366.09
471.32	34529.92
471.50	36327.45
471.68	36367.24
471.86	36563.85
472.04	36872.80
472.22	37148.98
472.40	35742.32
472.58	34719.51
472.77	34279.49
472.95	35222.72
473.13	36261.92
473.31	35030.80
473.49	35262.51
473.67	36081.70
473.85	36423.42
474.03	37427.51
474.21	37570.28
474.39	37610.07
474.57	37780.93
474.75	38078.18
474.93	37408.78
475.12	36163.62
475.30	36526.40
475.48	36975.78
475.66	37783.27
475.84	37048.34
476.02	36570.87
476.20	36004.46
476.38	36788.54
476.56	38164.78
476.74	38740.55
476.92	38759.27
477.10	39171.21
477.28	40779.15
477.46	40172.96
477.64	41060.02
477.82	40699.58
478.00	41006.19
478.18	40524.04
478.36	40587.23
478.54	40088.70
478.72	40509.99
478.90	41626.43
479.08	42562.64
479.26	42803.72
479.44	42981.60
479.62	42777.97
479.80	42822.44
479.98	43105.65
480.16	43456.73
480.34	42927.77
480.52	43117.35
480.70	43639.29
480.88	43407.58
481.06	44371.88
481.24	44275.91
481.41	45392.35
481.59	45947.06
481.77	45607.68
481.95	45436.82
482.13	44938.29
482.31	45324.47
482.49	45668.53
482.67	45474.27
482.85	45848.75
483.03	45820.67
483.21	46911.36
483.39	46487.72
483.57	46368.35
483.74	46101.53
483.92	46211.54
484.10	46464.32
484.28	47049.45
484.46	47590.11
484.64	48053.54
484.82	47133.71
485.00	46660.92
485.18	45553.85
485.35	44624.65
485.53	41486.00
485.71	38038.39
485.89	36744.07
486.07	39091.63
486.25	41972.83
486.43	45041.27
486.61	45846.41
486.78	45991.53
486.96	45804.28
487.14	47753.95
487.32	48311.00
487.50	48985.07
487.68	50075.76
487.85	50553.23
488.03	50351.94
488.21	50113.21
488.39	49460.20
488.57	49013.16
488.75	48540.37
488.92	49918.95
489.10	51770.31
489.28	53233.14
489.46	53984.46
489.64	53654.44
489.81	53696.57
489.99	53506.99
490.17	53279.96
490.35	53743.38
490.53	53474.22
490.70	53027.18
490.88	52961.64
491.06	53741.04
491.24	53879.13
491.41	52898.45
491.59	51178.15
491.77	49715.32
491.95	51227.31
492.13	52652.69
492.30	53771.47
492.48	54843.43
492.66	55210.90
492.84	55234.30
493.01	54934.71
493.19	54358.94
493.37	54281.70
493.54	53804.24
493.72	54260.64
493.90	55627.51
494.08	56151.79
494.25	56512.23
494.43	56701.82
494.61	56800.12
494.79	57247.16
494.96	56809.48
495.14	56460.74
495.32	55482.40
495.49	54794.28
495.67	55725.81
495.85	57104.39
496.02	57406.32
496.20	57453.13
496.38	56779.06
496.55	56933.53
496.73	56956.94
496.91	57434.41
497.09	58010.18
497.26	58333.17
497.44	57499.94
497.62	57066.94
497.79	56566.07
497.97	55199.19
498.14	55248.35
498.32	56294.56
498.50	57354.83
498.67	58052.31
498.85	57680.16
499.03	57748.04
499.20	58089.76
499.38	58157.63
499.56	57928.26
499.73	57392.28
499.91	57235.46
500.08	56699.48
500.26	55882.63
500.44	56516.92
500.61	57169.93
500.79	56978.00
500.97	56563.73
501.14	56472.45
501.32	56357.76
501.49	56182.22
501.67	56554.36
501.84	56727.56
502.02	57195.67
502.20	57492.92
502.37	57542.07
502.55	57736.34
502.72	58410.41
502.90	58440.84
503.07	58213.80
503.25	58075.71
503.43	57254.18
503.60	56671.39
503.78	56126.05
503.95	56327.33
504.13	57811.23
504.30	58616.38
504.48	58333.17
504.65	57874.43
504.83	58131.89
505.01	58658.51
505.18	58887.88
505.36	59512.80
505.53	59667.28
505.71	59786.64
505.88	59749.20
506.06	59203.85
506.23	59023.63
506.41	58377.64
506.58	58862.13
506.76	58726.38
506.93	58717.02
507.11	58539.14
507.28	58609.35
507.46	58192.74
507.63	57736.34
507.81	57389.94
507.98	57715.27
508.16	58401.05
508.33	58993.20
508.50	59084.48
508.68	59451.95
508.85	59889.63
509.03	60039.42
509.20	59896.65
509.38	59355.99
509.55	58307.43
509.73	58485.31
509.90	59103.21
510.08	59178.10
510.25	59370.03
510.42	58974.48
510.60	58794.26
510.77	59093.85
510.95	59585.36
511.12	59786.64
511.30	59969.21
511.47	60404.55
511.64	60296.88
511.82	60074.53
511.99	59054.06
512.17	58859.79
512.34	58504.03
512.51	58534.46
512.69	58740.42
512.86	58796.60
513.04	59454.29
513.21	59526.84
513.38	58995.54
513.56	58445.52
513.73	57890.81
513.90	58178.70
514.08	58113.16
514.25	58515.73
514.43	58702.98
514.60	58803.62
514.77	58897.24
514.95	59096.19
515.12	58820.00
515.29	59047.04
515.47	59573.66
515.64	59941.12
515.81	59447.27
515.99	58930.01
516.16	57675.48
516.33	55201.53
516.51	53729.34
516.68	52949.94
516.85	52828.23
517.03	52823.55
517.20	55622.83
517.37	58042.95
517.54	59243.64
517.72	58539.14
517.89	56406.91
518.06	54010.20
518.24	54218.51
518.41	56189.24
518.58	57642.71
518.75	57923.58
518.93	57961.03
519.10	57755.06
519.27	58459.56
519.45	58705.32
519.62	59351.30
519.79	59468.33
519.96	59309.18
520.14	59168.74
520.31	58059.33
520.48	58213.80
520.65	58590.63
520.83	59480.03
521.00	59952.82
521.17	59533.87
521.34	59267.05
521.52	59309.18
521.69	60004.31
521.86	60303.90
522.03	60161.13
522.20	59007.25
522.38	57930.60
522.55	57893.15
522.72	58300.40
522.89	58817.66
523.07	58576.59
523.24	59185.13
523.41	59997.29
523.58	60133.04
523.75	60598.81
523.92	60509.87
524.10	60224.32
524.27	60313.26
524.44	60093.25
524.61	60030.06
524.78	59765.58
524.96	59686.00
525.13	59688.34
525.30	59929.42
525.47	60364.76
525.64	60493.49
525.81	59870.90
525.98	58527.44
526.16	57020.13
526.33	56275.84
526.50	56217.33
526.67	55653.26
526.84	56420.95
527.01	57345.47
527.18	57986.77
527.36	58915.96
527.53	59709.41
527.70	59994.95
527.87	59487.06
528.04	59082.14
528.21	59344.28
528.38	59980.91
528.55	60755.63
528.72	60896.06
528.89	61024.79
529.07	60734.56
529.24	60027.72
529.41	59571.32
529.58	59047.04
529.75	59135.98
529.92	59552.59
530.09	59856.86
530.26	60301.56
530.43	60544.98
530.60	60736.90
530.77	60830.52
530.94	61013.08
531.11	60493.49
531.28	60126.02
531.46	59962.18
531.63	60264.11
531.80	60018.36
531.97	59882.61
532.14	58953.41
532.31	57954.00
532.48	57380.57
532.65	57478.88
532.82	58131.89
532.99	59386.41
533.16	59545.57
533.33	60062.83
533.50	60001.97
533.67	59372.37
533.84	59040.01
534.01	59187.47
534.18	59339.60
534.35	59688.34
534.52	59290.45
534.69	59606.42
534.86	59840.48
535.03	60142.41
535.20	60580.09
535.37	60858.61
535.54	60975.64
535.71	60753.29
535.88	60374.12
536.05	59767.92
536.22	59384.07
536.38	59131.29
536.55	58597.65
536.72	58152.95
536.89	57928.26
537.06	58915.96
537.23	59854.52
537.40	59835.80
537.57	59896.65
537.74	59564.29
537.91	59524.50
538.08	59531.53
538.25	59550.25
538.42	60013.68
538.59	59662.60
538.75	58925.33
538.92	58728.72
539.09	58632.76
539.26	58417.43
539.43	58405.73
539.60	58419.77
539.77	58805.96
539.94	58475.94
540.11	57818.25
540.28	56952.26
540.44	57190.99
540.61	57584.20
540.78	57944.64
540.95	58099.12
541.12	58754.47
541.29	58922.99
541.46	59058.74
541.62	59208.53
541.79	59107.89
541.96	58377.64
542.13	58234.87
542.30	58915.96
542.47	58862.13
542.63	58773.19
542.80	58330.83
542.97	58677.23
543.14	58323.81
543.31	58330.83
543.48	59063.42
543.64	59737.49
543.81	60001.97
543.98	59653.23
544.15	59140.66
544.32	58478.28
544.48	58728.72
544.65	59063.42
544.82	59711.75
544.99	59194.49
545.16	58901.92
545.32	58609.35
545.49	59447.27
545.66	59742.17
545.83	59281.09
546.00	58925.33
546.16	58789.58
546.33	58660.85
546.50	58864.47
546.67	59182.79
546.83	58766.17
547.00	58791.92
547.17	58333.17
547.34	57729.31
547.50	57504.62
547.67	57907.19
547.84	58199.76
548.00	58464.24
548.17	58890.22
548.34	58712.34
548.51	58672.55
548.67	58784.90
548.84	58775.53
549.01	58852.77
549.18	58688.93
549.34	58829.37
549.51	58632.76
549.68	58749.79
549.84	58342.53
550.01	58162.31
550.18	58108.48
550.34	58232.53
550.51	58372.96
550.68	58382.32
550.84	58054.65
551.01	57993.79
551.18	57930.60
551.34	58213.80
551.51	58562.54
551.68	58852.77
551.84	58899.58
552.01	58702.98
552.18	58611.70
552.34	57771.44
552.51	57375.89
552.68	57240.14
552.84	58103.80
553.01	58159.97
553.18	58005.50
553.34	58225.51
553.51	58136.57
553.67	58279.34
553.84	58548.50
554.01	58684.25
554.17	58122.52
554.34	58291.04
554.51	58426.79
554.67	58756.81
554.84	58466.58
555.00	58230.19
555.17	57836.98
555.33	57972.73
555.50	57918.90
555.67	57921.24
555.83	57750.38
556.00	57563.14
556.16	57457.81
556.33	57190.99
556.50	57169.93
556.66	57134.82
556.83	57073.96
556.99	57022.47
557.16	56914.81
557.32	57368.87
557.49	57710.59
557.65	57425.04
557.82	57495.26
557.98	57256.53
558.15	56963.96
558.32	56285.20
558.48	55327.92
558.65	55550.27
558.81	55980.93
558.98	55854.54
559.14	56364.78
559.31	56404.57
559.47	56430.32
559.64	56133.07
559.80	55676.66
559.97	55714.11
560.13	56044.13
560.30	57099.71
560.46	57539.73
560.63	57794.85
560.79	57757.40
560.96	57691.86
561.12	56376.48
561.29	55657.94
561.45	55655.60
561.61	56079.24
561.78	56694.80
561.94	56385.85
562.11	56346.06
562.27	56034.77
562.44	56334.35
562.60	56783.74
562.77	57066.94
562.93	56807.14
563.10	56633.94
563.26	56397.55
563.42	56261.80
563.59	55861.57
563.75	55962.21
563.92	56310.95
564.08	55973.91
564.24	56449.04
564.41	56465.42
564.57	56341.38
564.74	56210.31
564.90	56247.75
565.07	55861.57
565.23	55557.30
565.39	55178.13
565.56	54960.46
565.72	54461.93
565.88	55063.44
566.05	54801.30
566.21	55253.03
566.38	55482.40
566.54	55482.40
566.70	55824.12
566.87	55884.97
567.03	56114.34
567.19	56367.12
567.36	55899.01
567.52	55927.10
567.68	55920.08
567.85	55042.38
568.01	54836.41
568.17	54457.24
568.34	54686.62
568.50	54298.09
568.66	54431.50
568.83	54644.49
568.99	54644.49
569.15	55248.35
569.32	55222.60
569.48	54731.09
569.64	54597.68
569.81	54251.28
569.97	54230.21
570.13	54080.42
570.30	53902.54
570.46	53408.68
570.62	52971.00
570.78	52648.01
570.95	52844.62
571.11	53797.21
571.27	53869.77
571.43	54335.54
571.60	54314.47
571.76	54487.67
571.92	54527.46
572.09	54979.18
572.25	54913.65
572.41	54848.11
572.57	54995.57
572.74	54831.73
572.90	54209.15
573.06	54277.02
573.22	54459.58
573.38	54398.73
573.55	54368.30
573.71	54653.85
573.87	54354.26
574.03	54426.82
574.20	54096.80
574.36	54031.27
574.52	54134.25
574.68	53778.49
574.84	53244.85
575.01	52914.83
575.17	52741.63
575.33	52680.78
575.49	53432.09
575.65	53624.01
575.82	53359.53
575.98	52704.18
576.14	53235.48
576.30	53378.26
576.46	53708.27
576.62	53392.30
576.79	53408.68
576.95	53207.40
577.11	53073.99
577.27	53109.10
577.43	53268.25
577.59	52971.00
577.75	52495.88
577.92	51786.69
578.08	51704.77
578.24	51770.31
578.40	51950.53
578.56	52257.14
578.72	52442.04
578.88	52549.71
579.04	52865.68
579.21	52800.15
579.37	52835.25
579.53	53036.54
579.69	53050.58
579.85	52940.58
580.01	52538.01
580.17	52409.28
580.33	52495.88
580.49	51849.89
580.65	52505.24
580.82	52832.91
580.98	52832.91
581.14	52435.02
581.30	52861.00
581.46	52643.33
581.62	53076.33
581.78	52954.62
581.94	53371.24
582.10	52832.91
582.26	53008.45
582.42	52713.55
582.58	53345.49
582.74	52865.68
582.90	52945.26
583.06	53092.71
583.22	53036.54
583.38	52776.74
583.54	52774.40
583.70	52406.94
583.86	52430.34
584.02	52463.11
584.18	52580.13
584.34	52271.18
584.50	52353.10
584.66	52090.96
584.82	51882.66
584.98	51646.26
585.14	51437.95
585.30	50679.62
