SpectraSuite Data File
++++++++++++++++++++++++++++++++++++
Date: Mon Oct 07 14:53:04 GMT-05:00 2013
User: price-jones
Dark Spectrum Present: No
Reference Spectrum Present: No
Number of Sampled Component Spectra: 1
Spectrometers: USB2+H05261
Integration Time (usec): 100000 (USB2+H05261)
Spectra Averaged: 1 (USB2+H05261)
Boxcar Smoothing: 0 (USB2+H05261)
Correct for Electrical Dark: No (USB2+H05261)
Strobe/Lamp Enabled: No (USB2+H05261)
Correct for Detector Non-linearity: No (USB2+H05261)
Correct for Stray Light: No (USB2+H05261)
Number of Pixels in Processed Spectrum: 2048
>>>>>Begin Processed Spectral Data<<<<<
365.73	0.00
365.92	0.00
366.12	0.00
366.32	0.00
366.52	0.00
366.72	0.00
366.91	0.00
367.11	0.00
367.31	0.00
367.51	0.00
367.70	0.00
367.90	0.00
368.10	0.00
368.30	0.00
368.49	0.00
368.69	0.00
368.89	0.00
369.09	0.00
369.28	0.00
369.48	0.00
369.68	0.00
369.87	0.00
370.07	0.00
370.27	0.00
370.47	395.55
370.66	2574.59
370.86	3028.65
371.06	3358.67
371.25	3227.60
371.45	2860.13
371.65	2722.04
371.84	2518.42
372.04	2647.15
372.24	2890.56
372.44	2949.08
372.63	3028.65
372.83	2771.19
373.03	2424.80
373.22	2368.62
373.42	2312.45
373.62	2794.60
373.81	3066.10
374.01	3056.74
374.21	2689.28
374.40	2401.39
374.60	2612.04
374.79	2923.33
374.99	3548.25
375.19	3672.30
375.38	3789.33
375.58	3421.86
375.78	3489.74
375.97	3485.06
376.17	3613.79
376.37	3730.81
376.56	3679.32
376.76	3950.82
376.95	4161.47
377.15	4500.85
377.35	4648.30
377.54	4737.24
377.74	5001.72
377.93	5214.71
378.13	4791.08
378.33	4643.62
378.52	4182.54
378.72	4086.58
378.91	4004.66
379.11	3955.51
379.31	3632.51
379.50	3644.21
379.70	4007.00
379.89	4482.13
380.09	4798.10
380.28	4823.84
380.48	4793.42
380.68	4720.86
380.87	4557.02
381.07	4353.40
381.26	3861.88
381.46	3595.06
381.65	3693.37
381.85	3501.44
382.04	3412.50
382.24	3178.45
382.43	2944.39
382.63	2803.96
382.83	2928.01
383.02	2974.82
383.22	2993.55
383.41	2913.97
383.61	3204.19
383.80	3611.45
384.00	4007.00
384.19	4461.06
384.39	4805.12
384.58	4954.91
384.78	4671.71
384.97	4685.75
385.17	4489.15
385.36	4191.90
385.56	4196.58
385.75	4219.99
385.95	4575.75
386.14	5043.85
386.34	4968.96
386.53	4725.54
386.72	4531.28
386.92	4517.23
387.11	4723.20
387.31	4908.10
387.50	4807.46
387.70	4559.36
387.89	4725.54
388.09	4784.06
388.28	4676.39
388.48	4758.31
388.67	5305.99
388.86	5839.64
389.06	6085.39
389.25	6331.15
389.45	6438.81
389.64	6469.24
389.84	6420.09
390.03	6319.45
390.22	6523.07
390.42	6539.46
390.61	6808.62
390.81	7370.35
391.00	7599.72
391.19	7517.80
391.39	7241.62
391.58	6745.42
391.78	6289.02
391.97	6099.44
392.16	5769.42
392.36	5179.61
392.55	3988.27
392.75	3295.47
392.94	2724.38
393.13	2700.98
393.33	3126.96
393.52	4105.30
393.71	5160.88
393.91	5607.92
394.10	6202.42
394.29	6754.79
394.49	7276.73
394.68	7920.37
394.88	7786.96
395.07	8093.57
395.26	7995.27
395.46	7740.15
395.65	7375.03
395.84	6471.58
396.04	5523.66
396.23	4397.87
396.42	3627.83
396.62	3566.98
396.81	4292.54
397.00	5301.31
397.19	6614.35
397.39	7992.93
397.58	8837.86
397.77	9423.00
397.97	9811.53
398.16	10012.81
398.35	10293.68
398.55	10593.26
398.74	11059.03
398.93	11152.65
399.12	11145.63
399.32	10759.44
399.51	10841.36
399.70	11672.25
399.90	11592.67
400.09	11620.76
400.28	11269.68
400.47	11372.66
400.67	12065.46
400.86	12271.43
401.05	12320.58
401.24	12325.26
401.44	12575.70
401.63	12575.70
401.82	12514.84
402.01	12596.76
402.21	12725.49
402.40	12716.13
402.59	12287.81
402.78	11838.43
402.97	11744.81
403.17	12212.92
403.36	12781.67
403.55	13401.91
403.74	13437.02
403.93	12786.35
404.13	12018.65
404.32	11405.43
404.51	12163.76
404.70	12936.14
404.89	13135.09
405.09	12758.26
405.28	12465.69
405.47	12425.90
405.66	12482.08
405.85	12222.28
406.05	11796.30
406.24	12123.98
406.43	12638.89
406.62	12849.54
406.81	13083.59
407.00	12594.42
407.20	12334.62
407.39	12437.61
407.58	12568.68
407.77	13209.98
407.96	14064.28
408.15	14288.97
408.34	14429.40
408.54	14736.01
408.73	14672.82
408.92	14429.40
409.11	14415.36
409.30	13322.33
409.49	12688.04
409.68	11985.88
409.87	11367.98
410.07	12416.54
410.26	13287.22
410.45	13973.00
410.64	14403.66
410.83	14857.72
411.02	15140.93
411.21	15754.15
411.40	15494.35
411.59	15374.98
411.78	15496.69
411.98	15269.66
412.17	15311.78
412.36	15391.36
412.55	15344.55
412.74	14963.04
412.93	14733.67
413.12	14988.79
413.31	16187.14
413.50	16458.65
413.69	16519.50
413.88	16030.33
414.07	15377.32
414.26	15714.36
414.45	16032.67
414.64	16311.19
414.83	16416.52
415.02	15861.81
415.22	16030.33
415.41	16404.81
415.60	17249.75
415.79	17844.24
415.98	18216.39
416.17	17930.84
416.36	17593.81
416.55	17186.55
416.74	16704.40
416.93	16128.63
417.12	16500.78
417.31	16477.37
417.50	16460.99
417.69	17177.19
417.88	17467.42
418.07	16975.91
418.26	16552.27
418.45	17130.38
418.64	17748.28
418.83	18401.29
419.02	17841.90
419.21	17884.03
419.39	16982.93
419.58	16203.53
419.77	16531.20
419.96	17149.11
420.15	17921.48
420.34	18415.34
420.53	19110.47
420.72	19510.71
420.91	19573.90
421.10	19075.37
421.29	18860.04
421.48	18012.76
421.67	19105.79
421.86	18539.38
422.05	17284.86
422.24	15723.72
422.43	15353.91
422.61	17062.51
422.80	18384.91
422.99	18494.91
423.18	17727.22
423.37	17355.07
423.56	17476.78
423.75	17806.80
423.94	18094.68
424.13	17160.81
424.32	17427.63
424.50	17411.25
424.69	16886.97
424.88	17205.28
425.07	17212.30
425.26	17448.69
425.45	17003.99
425.64	16886.97
425.83	16959.52
426.01	18036.17
426.20	17874.67
426.39	17947.23
426.58	16507.80
426.77	15440.51
426.96	14867.08
427.15	15632.44
427.33	16739.51
427.52	17706.15
427.71	17245.07
427.90	17387.84
428.09	17085.91
428.28	16425.88
428.46	16114.59
428.65	16037.35
428.84	16414.18
429.03	16751.21
429.22	15646.48
429.40	14956.02
429.59	13715.54
429.78	11887.58
429.97	12098.23
430.16	12231.64
430.34	12332.28
430.53	11997.59
430.72	12327.60
430.91	13898.10
431.10	16350.98
431.28	18892.80
431.47	20603.74
431.66	20910.35
431.85	18544.06
432.03	17345.71
432.22	16552.27
432.41	17659.34
432.60	19241.54
432.79	19793.91
432.97	20472.67
433.16	19761.14
433.35	18251.50
433.54	16599.08
433.72	15374.98
433.91	16121.61
434.10	18029.15
434.28	19136.22
434.47	20058.39
434.66	19667.52
434.85	19257.93
435.03	19122.18
435.22	19737.74
435.41	21020.35
435.59	21109.29
435.78	21371.43
435.97	21752.94
436.16	22118.06
436.34	21523.57
436.53	20994.61
436.72	21067.16
436.90	19878.17
437.09	19960.09
437.28	19618.37
437.46	20493.73
437.65	20306.49
437.84	18820.25
438.02	17338.69
438.21	17078.89
438.40	18457.46
438.58	19852.42
438.77	20372.02
438.96	20475.01
439.14	21544.63
439.33	22068.91
439.52	22352.12
439.70	22017.42
439.89	20863.54
440.08	20755.87
440.26	20535.86
440.45	21128.02
440.63	22682.13
440.82	23871.12
441.01	23440.47
441.19	23480.25
441.38	23838.36
441.57	24702.01
441.75	25078.84
441.94	25125.65
442.12	24837.76
442.31	24849.47
442.50	25127.99
442.68	24828.40
442.87	24474.98
443.05	24273.70
443.24	24837.76
443.43	25516.52
443.61	25783.34
443.80	26118.04
443.98	24514.77
444.17	24147.31
444.35	25923.77
444.54	26532.31
444.73	25947.18
444.91	24898.62
445.10	23653.45
445.28	22951.29
445.47	22757.03
445.65	22583.83
445.84	23496.64
446.02	24278.38
446.21	24856.49
446.39	24629.46
446.58	25228.63
446.77	25376.09
446.95	25797.38
447.14	26478.48
447.32	26925.52
447.51	26293.58
447.69	25158.42
447.88	24929.05
448.06	25366.73
448.25	26185.91
448.43	26057.18
448.62	25329.28
448.80	25589.08
448.99	25745.89
449.17	25649.93
449.36	26045.48
449.54	26525.29
449.73	27419.38
449.91	27239.15
450.10	27943.66
450.28	28601.35
450.46	28610.71
450.65	28268.99
450.83	28056.00
451.02	27702.58
451.20	27630.02
451.39	27358.52
451.57	27332.78
451.76	27260.22
451.94	26981.70
452.13	26574.44
452.31	25242.68
452.49	24219.86
452.68	24484.34
452.86	24594.35
453.05	24641.16
453.23	25692.06
453.42	26225.70
453.60	27075.32
453.78	27136.17
453.97	26974.67
454.15	27112.77
454.34	26375.50
454.52	26808.50
454.70	25778.66
454.89	26188.25
455.07	26284.22
455.26	26958.29
455.44	27953.02
455.62	28311.12
455.81	28369.63
455.99	28034.94
456.17	27480.23
456.36	27931.95
456.54	28652.84
456.73	28926.68
456.91	28954.77
457.09	29181.80
457.28	29986.94
457.46	28809.65
457.64	28477.30
457.83	27728.33
458.01	26859.99
458.19	27606.62
458.38	28048.98
458.56	28634.11
458.74	28577.94
458.93	28163.67
459.11	28315.80
459.29	27756.41
459.48	27901.53
459.66	28081.75
459.84	28386.02
460.03	28699.65
460.21	28540.49
460.39	29560.97
460.57	29457.98
460.76	29633.52
460.94	29252.02
461.12	29294.14
461.31	29177.12
461.49	29156.05
461.67	29291.80
461.85	30080.56
462.04	30199.93
462.22	30745.28
462.40	30050.14
462.59	30216.32
462.77	30059.50
462.95	29956.52
463.13	29603.10
463.32	29010.94
463.50	29139.67
463.68	29132.65
463.86	29362.02
464.05	28940.72
464.23	28240.90
464.41	28189.41
464.59	27798.54
464.78	29195.84
464.96	28875.19
465.14	28793.27
465.32	29656.93
465.50	30513.56
465.69	30459.73
465.87	29975.24
466.05	28975.83
466.23	27812.59
466.41	27133.83
466.60	28184.73
466.78	28210.48
466.96	28622.41
467.14	28903.28
467.32	29486.07
467.51	29397.13
467.69	27931.95
467.87	28795.61
468.05	29434.58
468.23	28919.66
468.41	29301.17
468.60	29401.81
468.78	29685.01
468.96	29184.14
469.14	29607.78
469.32	29958.86
469.50	28519.43
469.69	28954.77
469.87	28341.55
470.05	28182.39
470.23	28559.22
470.41	28634.11
470.59	28692.63
470.77	28943.06
470.95	29750.55
471.14	29631.18
471.32	29830.13
471.50	31674.47
471.68	31620.64
471.86	32165.98
472.04	32133.21
472.22	32329.82
472.40	30586.12
472.58	30040.78
472.77	29685.01
472.95	30560.37
473.13	31704.90
473.31	30485.48
473.49	30768.68
473.67	31386.58
473.85	31854.69
474.03	32182.37
474.21	32128.53
474.39	32769.84
474.57	32657.49
474.75	32706.65
474.93	32811.97
475.12	31711.92
475.30	32189.39
475.48	32039.59
475.66	32542.81
475.84	31718.94
476.02	31784.48
476.20	31321.05
476.38	32004.49
476.56	32861.12
476.74	33696.69
476.92	33392.42
477.10	34569.71
477.28	34829.51
477.46	35150.17
477.64	35629.98
477.82	35400.60
478.00	35983.40
478.18	34953.56
478.36	34850.58
478.54	34766.32
478.72	35281.24
478.90	36388.31
479.08	37163.03
479.26	37806.67
479.44	37577.30
479.62	37242.60
479.80	37378.36
479.98	37425.17
480.16	38061.79
480.34	37713.05
480.52	37682.62
480.70	38202.22
480.88	37603.05
481.06	38635.22
481.24	39229.72
481.41	40025.50
481.59	40147.21
481.77	39913.16
481.95	39449.73
482.13	39393.56
482.31	39393.56
482.49	39817.19
482.67	40170.61
482.85	40360.20
483.03	40933.63
483.21	41500.04
483.39	41165.34
483.57	40533.40
483.74	40179.98
483.92	40245.51
484.10	40849.37
484.28	41460.25
484.46	41965.81
484.64	42483.06
484.82	41429.82
485.00	41001.50
485.18	40348.50
485.35	39358.45
485.53	35948.29
485.71	32926.66
485.89	32889.21
486.07	34183.52
486.25	37509.43
486.43	39131.42
486.61	40271.26
486.78	40032.52
486.96	40076.99
487.14	41624.09
487.32	42904.36
487.50	43758.66
487.68	44718.28
487.85	45352.56
488.03	45268.30
488.21	44751.04
488.39	43810.15
488.57	43346.72
488.75	42939.47
488.92	44715.93
489.10	47096.26
489.28	48381.21
489.46	49041.24
489.64	48807.19
489.81	48964.01
489.99	48652.72
490.17	48608.25
490.35	49205.08
490.53	48629.31
490.70	48107.37
490.88	48044.18
491.06	49413.39
491.24	49038.90
491.41	47622.88
491.59	45600.66
491.77	45256.60
491.95	46616.45
492.13	47838.21
492.30	49123.16
492.48	50031.29
492.66	50890.27
492.84	50803.67
493.01	50562.59
493.19	50014.91
493.37	49509.35
493.54	49141.89
493.72	50075.76
493.90	51187.52
494.08	51980.96
494.25	52376.51
494.43	52856.32
494.61	53043.56
494.79	53179.31
494.96	52811.85
495.14	52065.22
495.32	50979.21
495.49	50504.08
495.67	51751.59
495.85	53282.30
496.02	53462.52
496.20	53008.45
496.38	52959.30
496.55	52718.23
496.73	53474.22
496.91	53560.82
497.09	54136.59
497.26	54363.62
497.44	53673.16
497.62	52938.24
497.79	52472.47
497.97	50368.33
498.14	51035.38
498.32	52406.94
498.50	53535.07
498.67	54167.02
498.85	53851.05
499.03	54171.70
499.20	54363.62
499.38	54361.28
499.56	54047.65
499.73	53516.35
499.91	53092.71
500.08	52530.98
500.26	51810.10
500.44	52538.01
500.61	53258.89
500.79	52774.40
500.97	52484.17
501.14	52278.21
501.32	51885.00
501.49	52392.89
501.67	52477.15
501.84	53031.86
502.02	53340.81
502.20	53687.21
502.37	53942.33
502.55	53792.53
502.72	54431.50
502.90	54967.48
503.07	54607.04
503.25	54150.63
503.43	53294.00
503.60	52495.88
503.78	51681.37
503.95	52645.67
504.13	53963.39
504.30	54972.16
504.48	54452.56
504.65	54026.59
504.83	54042.97
505.01	55044.72
505.18	55295.16
505.36	55856.88
505.53	56039.45
505.71	56231.37
505.88	56184.56
506.06	55529.21
506.23	55229.62
506.41	54747.47
506.58	55255.37
506.76	55028.34
506.93	54836.41
507.11	54880.88
507.28	55047.06
507.46	54490.01
507.63	53860.41
507.81	53698.91
507.98	53872.11
508.16	54763.85
508.33	55341.97
508.50	55774.97
508.68	55662.62
508.85	56257.12
509.03	56458.40
509.20	56383.51
509.38	55559.64
509.55	54646.83
509.73	54864.50
509.90	55379.42
510.08	55571.34
510.25	55594.74
510.42	55271.75
510.60	55356.01
510.77	55491.76
510.95	55936.46
511.12	56287.54
511.30	56530.96
511.47	56989.70
511.64	56912.47
511.82	56402.23
511.99	55442.61
512.17	55100.89
512.34	54487.67
512.51	55030.68
512.69	55126.64
512.86	55353.67
513.04	55760.92
513.21	55435.59
513.38	55440.27
513.56	54768.54
513.73	54129.57
513.90	54431.50
514.08	54408.09
514.25	54581.29
514.43	55063.44
514.60	55075.15
514.77	55208.56
514.95	55421.55
515.12	55145.36
515.29	55538.57
515.47	56088.60
515.64	56224.35
515.81	55999.66
515.99	55128.98
516.16	53621.67
516.33	50976.87
516.51	49446.16
516.68	48495.90
516.85	47941.19
517.03	48512.28
517.20	51796.06
517.37	54506.40
517.54	55365.37
517.72	54588.31
517.89	51962.23
518.06	49404.03
518.24	49972.78
518.41	52360.12
518.58	53914.24
518.75	54005.52
518.93	53996.16
519.10	53897.86
519.27	54667.89
519.45	54876.20
519.62	55903.70
519.79	56072.21
519.96	55842.84
520.14	55276.43
520.31	54291.07
520.48	54529.80
520.65	54829.39
520.83	55847.52
521.00	56231.37
521.17	55810.07
521.34	55480.06
521.52	55784.33
521.69	56292.22
521.86	56900.76
522.03	56376.48
522.20	55171.11
522.38	54218.51
522.55	54270.00
522.72	54899.61
522.89	54892.58
523.07	55145.36
523.24	55627.51
523.41	56353.08
523.58	56697.14
523.75	57130.14
523.92	56975.66
524.10	57008.43
524.27	57165.24
524.44	56802.46
524.61	56540.32
524.78	56589.47
524.96	56266.48
525.13	56395.21
525.30	56753.31
525.47	57148.86
525.64	57097.37
525.81	56020.72
525.98	54532.14
526.16	53099.73
526.33	52292.25
526.50	52317.99
526.67	51604.13
526.84	52617.58
527.01	53453.15
527.18	54429.16
527.36	55533.89
527.53	56310.95
527.70	56240.73
527.87	56039.45
528.04	55398.14
528.21	55924.76
528.38	56685.43
528.55	57134.82
528.72	57492.92
528.89	57572.50
529.07	57090.35
529.24	56624.58
529.41	55899.01
529.58	55297.50
529.75	55374.73
529.92	55999.66
530.09	56332.01
530.26	57031.83
530.43	57303.34
530.60	57279.93
530.77	57462.49
530.94	57584.20
531.11	57235.46
531.28	56931.19
531.46	56708.84
531.63	56559.05
531.80	56526.28
531.97	56175.20
532.14	55255.37
532.31	54246.60
532.48	53638.06
532.65	53724.66
532.82	54738.11
532.99	55758.58
533.16	56109.66
533.33	56486.49
533.50	56395.21
533.67	55833.48
533.84	55327.92
534.01	55751.56
534.18	55796.03
534.35	56081.58
534.52	55908.38
534.69	56402.23
534.86	56535.64
535.03	56713.52
535.20	57277.59
535.37	57609.95
535.54	57684.84
535.71	57041.20
535.88	56814.16
536.05	56072.21
536.22	55997.32
536.38	55489.42
536.55	54810.67
536.72	54403.41
536.89	54478.31
537.06	55496.44
537.23	56355.42
537.40	56449.04
537.57	56322.65
537.74	56287.54
537.91	56163.50
538.08	56177.54
538.25	56149.45
538.42	56310.95
538.59	56161.15
538.75	55536.23
538.92	55363.03
539.09	55107.91
539.26	54990.89
539.43	54763.85
539.60	54969.82
539.77	55299.84
539.94	54864.50
540.11	54021.90
540.28	53624.01
540.44	53804.24
540.61	54094.46
540.78	54094.46
540.95	54866.84
541.12	54876.20
541.29	55344.31
541.46	55592.40
541.62	55828.80
541.79	55587.72
541.96	54901.95
542.13	54986.21
542.30	55021.31
542.47	55152.38
542.63	55061.10
542.80	54787.26
542.97	54990.89
543.14	54784.92
543.31	55098.55
543.48	55686.03
543.64	56198.60
543.81	56664.37
543.98	56317.97
544.15	55517.51
544.32	55178.13
544.48	55421.55
544.65	55791.35
544.82	55732.84
544.99	55571.34
545.16	54972.16
545.32	54981.52
545.49	55983.27
545.66	56186.90
545.83	55791.35
546.00	55660.28
546.16	55089.19
546.33	55159.41
546.50	55358.35
546.67	55746.88
546.83	55517.51
547.00	55278.77
547.17	54445.54
547.34	54164.68
547.50	53970.41
547.67	54436.18
547.84	54368.30
548.00	55009.61
548.17	55519.85
548.34	55196.85
548.51	55150.04
548.67	55393.46
548.84	55508.14
549.01	55187.49
549.18	55040.04
549.34	55096.21
549.51	55297.50
549.68	55079.83
549.84	54712.36
550.01	54674.91
550.18	54585.97
550.34	54574.27
550.51	54738.11
550.68	54965.14
550.84	54328.52
551.01	54424.48
551.18	54335.54
551.34	54525.12
551.51	55084.51
551.68	55426.23
551.84	55159.41
552.01	55061.10
552.18	54859.82
552.34	53909.56
552.51	53698.91
552.68	53602.95
552.84	54461.93
553.01	54550.87
553.18	54272.34
553.34	54497.03
553.51	54759.17
553.67	55105.57
553.84	55065.78
554.01	54724.07
554.17	54791.94
554.34	54684.28
554.51	54972.16
554.67	55395.80
554.84	55119.62
555.00	54845.77
555.17	54309.79
555.33	54457.24
555.50	54344.90
555.67	54527.46
555.83	54410.43
556.00	53834.66
556.16	54005.52
556.33	53462.52
556.50	53584.22
556.66	53551.46
556.83	52755.68
556.99	53347.83
557.16	53691.89
557.32	53656.78
557.49	54160.00
557.65	53834.66
557.82	53993.82
557.98	53827.64
558.15	53085.69
558.32	52069.90
558.48	51454.34
558.65	51812.44
558.81	52245.44
558.98	52140.11
559.14	52753.33
559.31	52549.71
559.47	52428.00
559.64	52161.18
559.80	51826.48
559.97	52320.34
560.13	52362.46
560.30	53600.61
560.46	54302.77
560.63	54174.04
560.79	54405.75
560.96	53876.79
561.12	52690.14
561.29	51559.66
561.45	51990.32
561.61	52409.28
561.78	52790.78
561.94	52446.72
562.11	52781.42
562.27	52619.92
562.44	52919.51
562.60	53354.85
562.77	53600.61
562.93	53162.93
563.10	53169.95
563.26	52493.54
563.42	52711.20
563.59	52626.95
563.75	52423.32
563.92	52289.91
564.08	52289.91
564.24	52762.70
564.41	52617.58
564.57	52790.78
564.74	52222.03
564.90	52236.08
565.07	52090.96
565.23	51723.50
565.39	51536.26
565.56	50908.99
565.72	50864.52
565.88	51079.85
566.05	50946.44
566.21	51657.96
566.38	51831.16
566.54	51578.39
566.70	52123.73
566.87	52334.38
567.03	52355.44
567.19	52486.51
567.36	52310.97
567.52	51849.89
567.68	51634.56
567.85	51065.81
568.01	50775.58
568.17	50050.02
568.34	50351.94
568.50	50277.05
568.66	50223.22
568.83	50862.18
568.99	51161.77
569.15	50965.17
569.32	51234.33
569.48	50773.24
569.64	50571.96
569.81	50078.10
569.97	50185.77
570.13	49944.69
570.30	49670.85
570.46	49382.96
570.62	48329.72
570.78	48205.67
570.95	48655.06
571.11	49347.86
571.27	49940.01
571.43	49961.08
571.60	50705.37
571.76	50843.46
571.92	51217.94
572.09	51227.31
572.25	50969.85
572.41	50763.88
572.57	50651.53
572.74	50576.64
572.90	50211.51
573.06	50167.04
573.22	50300.45
573.38	50557.91
573.55	50293.43
573.71	50461.95
573.87	50178.75
574.03	50511.10
574.20	49787.88
574.36	49734.04
574.52	49888.52
574.68	49668.51
574.84	48856.34
575.01	48133.12
575.17	48486.54
575.33	49006.14
575.49	49120.82
575.65	49174.66
575.82	48914.86
575.98	48828.26
576.14	48711.23
576.30	49588.93
576.46	49481.27
576.62	49359.56
576.79	49481.27
576.95	49289.34
577.11	49029.54
577.27	48999.12
577.43	49275.30
577.59	48212.70
577.75	48006.73
577.92	47145.41
578.08	46887.95
578.24	47035.41
578.40	47856.93
578.56	48156.52
578.72	47639.26
578.88	48341.42
579.04	48406.96
579.21	48208.01
579.37	48495.90
579.53	48666.76
579.69	48650.38
579.85	48446.75
580.01	48367.17
580.17	47882.68
580.33	48100.35
580.49	47910.77
580.65	48327.38
580.82	48430.36
580.98	48271.21
581.14	48334.40
581.30	48325.04
581.46	48397.60
581.62	48397.60
581.78	48751.02
581.94	48835.28
582.10	48985.07
582.26	48830.60
582.42	48959.33
582.58	48708.89
582.74	48505.26
582.90	48708.89
583.06	48926.56
583.22	48329.72
583.38	48273.55
583.54	48680.80
583.70	48364.83
583.86	48626.97
584.02	48336.74
584.18	48327.38
584.34	47999.71
584.50	48357.81
584.66	47538.62
584.82	47342.02
584.98	47578.41
585.14	47234.35
585.30	46000.89
