SpectraSuite Data File
++++++++++++++++++++++++++++++++++++
Date: Mon Oct 07 14:53:41 GMT-05:00 2013
User: price-jones
Dark Spectrum Present: No
Reference Spectrum Present: No
Number of Sampled Component Spectra: 1
Spectrometers: USB2+H05261
Integration Time (usec): 100000 (USB2+H05261)
Spectra Averaged: 1 (USB2+H05261)
Boxcar Smoothing: 0 (USB2+H05261)
Correct for Electrical Dark: No (USB2+H05261)
Strobe/Lamp Enabled: No (USB2+H05261)
Correct for Detector Non-linearity: No (USB2+H05261)
Correct for Stray Light: No (USB2+H05261)
Number of Pixels in Processed Spectrum: 2048
>>>>>Begin Processed Spectral Data<<<<<
365.73	0.00
365.92	0.00
366.12	0.00
366.32	0.00
366.52	0.00
366.72	0.00
366.91	0.00
367.11	0.00
367.31	0.00
367.51	0.00
367.70	0.00
367.90	0.00
368.10	0.00
368.30	0.00
368.49	0.00
368.69	0.00
368.89	0.00
369.09	0.00
369.28	0.00
369.48	0.00
369.68	0.00
369.87	0.00
370.07	0.00
370.27	0.00
370.47	468.11
370.66	2616.72
370.86	3176.11
371.06	3566.98
371.25	3517.83
371.45	3267.39
371.65	2878.86
371.84	2619.06
372.04	2801.62
372.24	3187.81
372.44	3265.05
372.63	3276.75
372.83	2998.23
373.03	2719.70
373.22	2459.90
373.42	2581.61
373.62	3103.55
373.81	3283.77
374.01	3300.16
374.21	2993.55
374.40	2696.30
374.60	2895.24
374.79	3297.81
374.99	3602.08
375.19	4205.94
375.38	4187.22
375.58	3815.07
375.78	3805.71
375.97	3836.14
376.17	4009.34
376.37	4004.66
376.56	4208.28
376.76	4212.96
376.95	4592.13
377.15	4856.61
377.35	5245.14
377.54	5338.76
377.74	5453.45
377.93	5423.02
378.13	5458.13
378.33	4994.70
378.52	4622.56
378.72	4491.49
378.91	4386.16
379.11	4238.71
379.31	4025.72
379.50	3957.85
379.70	4533.62
379.89	4905.76
380.09	5198.33
380.28	5327.06
380.48	5273.23
380.68	5453.45
380.87	5268.55
381.07	4753.63
381.26	4325.31
381.46	4131.05
381.65	4049.13
381.85	3920.40
382.04	3660.60
382.24	3597.40
382.43	3332.92
382.63	3349.31
382.83	3141.00
383.02	3173.77
383.22	3330.58
383.41	3234.62
383.61	3494.42
383.80	3901.67
384.00	4699.80
384.19	5142.16
384.39	5210.03
384.58	5404.30
384.78	5247.48
384.97	5282.59
385.17	4882.36
385.36	4734.90
385.56	4388.50
385.75	4657.67
385.95	4973.64
386.14	5533.03
386.34	5500.26
386.53	5226.42
386.72	4919.81
386.92	5071.94
387.11	5100.03
387.31	5547.07
387.50	5465.15
387.70	5284.93
387.89	5158.54
388.09	5139.82
388.28	5214.71
388.48	5268.55
388.67	5666.44
388.86	6228.17
389.06	6841.39
389.25	7258.00
389.45	7166.72
389.64	7080.12
389.84	6979.48
390.03	6869.47
390.22	6817.98
390.42	7208.85
390.61	7613.76
390.81	8341.67
391.00	8353.37
391.19	8116.98
391.39	8032.72
391.58	7375.03
391.78	6906.92
391.97	7002.88
392.16	6476.26
392.36	5858.36
392.55	4697.46
392.75	3751.88
392.94	3045.04
393.13	3009.93
393.33	3323.56
393.52	4533.62
393.71	5614.95
393.91	6314.77
394.10	6956.07
394.29	7412.48
394.49	8032.72
394.68	8786.37
394.88	8758.28
395.07	9100.00
395.26	8858.93
395.46	8650.62
395.65	8205.92
395.84	7159.70
396.04	6104.12
396.23	4931.51
396.42	4063.17
396.62	3969.55
396.81	4573.41
397.00	5923.90
397.19	7269.70
397.39	8655.30
397.58	9907.49
397.77	10579.22
397.97	10904.56
398.16	11049.67
398.35	11580.97
398.55	11852.47
398.74	12287.81
398.93	12421.22
399.12	12283.13
399.32	11969.50
399.51	12177.81
399.70	12987.63
399.90	12690.38
400.09	12769.96
400.28	12437.61
400.47	12755.92
400.67	13343.39
400.86	13923.85
401.05	13795.12
401.24	13720.22
401.44	14073.64
401.63	14078.32
401.82	14307.69
402.01	14319.40
402.21	14038.53
402.40	14366.21
402.59	13865.33
402.78	13114.02
402.97	12891.67
403.17	13371.48
403.36	14087.68
403.55	14984.11
403.74	15061.35
403.93	14380.25
404.13	13362.12
404.32	13123.38
404.51	13748.31
404.70	14803.89
404.89	14492.60
405.09	14452.81
405.28	13832.57
405.47	14148.54
405.66	14017.47
405.85	13619.58
406.05	13219.35
406.24	13455.74
406.43	14120.45
406.62	14415.36
406.81	14572.18
407.00	14209.39
407.20	13834.91
407.39	14003.43
407.58	14455.15
407.77	15218.16
407.96	15592.65
408.15	15501.37
408.34	15751.81
408.54	16657.59
408.73	16439.92
408.92	16643.55
409.11	16002.24
409.30	15157.31
409.49	14211.73
409.68	13387.86
409.87	13008.70
410.07	13905.12
410.26	14902.19
410.45	15962.45
410.64	16051.39
410.83	16620.14
411.02	16975.91
411.21	17668.70
411.40	17568.06
411.59	17469.76
411.78	17406.56
411.98	17041.44
412.17	17745.94
412.36	17235.70
412.55	17076.55
412.74	16938.46
412.93	16503.12
413.12	16744.19
413.31	17965.95
413.50	18693.86
413.69	18691.52
413.88	17869.99
414.07	17507.21
414.26	17839.56
414.45	18480.87
414.64	18764.07
414.83	18434.06
415.02	17954.25
415.22	18218.73
415.41	18452.78
415.60	19103.45
415.79	19824.34
415.98	20582.67
416.17	20554.58
416.36	19978.81
416.55	19644.12
416.74	19030.90
416.93	18429.38
417.12	18487.89
417.31	18501.93
417.50	18864.72
417.69	19611.35
417.88	19508.37
418.07	19051.96
418.26	18878.76
418.45	18970.04
418.64	19814.98
418.83	20390.75
419.02	20311.17
419.21	20294.79
419.39	19227.50
419.58	18164.90
419.77	18153.20
419.96	19033.24
420.15	20325.21
420.34	20570.97
420.53	21385.47
420.72	21809.11
420.91	21750.60
421.10	21626.55
421.29	21331.64
421.48	20348.62
421.67	21530.59
421.86	20926.73
422.05	19501.34
422.24	17422.95
422.43	17186.55
422.61	19288.35
422.80	20915.03
422.99	20805.02
423.18	20255.00
423.37	19590.28
423.56	19672.20
423.75	20013.92
423.94	20528.84
424.13	19564.54
424.32	19580.92
424.50	19431.13
424.69	19445.17
424.88	19704.97
425.07	19611.35
425.26	19213.46
425.45	19339.85
425.64	18867.06
425.83	18864.72
426.01	19737.74
426.20	20772.25
426.39	20236.27
426.58	19014.51
426.77	17441.67
426.96	16753.55
427.15	17376.14
427.33	18757.05
427.52	19639.44
427.71	19522.41
427.90	19611.35
428.09	19700.29
428.28	18602.58
428.46	18188.30
428.65	17853.61
428.84	18523.00
429.03	18892.80
429.22	17797.43
429.40	16992.29
429.59	15012.20
429.78	13472.12
429.97	13465.10
430.16	13652.34
430.34	13935.55
430.53	13673.41
430.72	14010.45
430.91	15686.27
431.10	18078.30
431.28	21256.75
431.47	23323.44
431.66	23800.91
431.85	21708.47
432.03	19880.51
432.22	18771.10
432.41	19627.73
432.60	21694.43
432.79	22740.64
432.97	22780.43
433.16	22855.33
433.35	21043.76
433.54	18581.51
433.72	17722.54
433.91	18068.94
434.10	19985.83
434.28	21673.36
434.47	22661.07
434.66	22443.40
434.85	21888.69
435.03	21659.32
435.22	22089.98
435.41	23817.29
435.59	23403.02
435.78	24294.76
435.97	24545.20
436.16	24690.31
436.34	24624.78
436.53	23726.01
436.72	23763.46
436.90	22654.05
437.09	22838.95
437.28	22335.73
437.46	22874.06
437.65	22682.13
437.84	21607.83
438.02	19901.58
438.21	19321.12
438.40	20355.64
438.58	21961.25
438.77	23009.81
438.96	22923.21
439.14	24201.14
439.33	24622.44
439.52	25125.65
439.70	24390.72
439.89	23665.16
440.08	23276.63
440.26	23112.79
440.45	24217.52
440.63	25694.40
440.82	27119.79
441.01	26438.69
441.19	26417.63
441.38	26740.62
441.57	27498.95
441.75	28048.98
441.94	28140.26
442.12	28011.53
442.31	28535.81
442.50	28411.76
442.68	28353.25
442.87	27901.53
443.05	27414.69
443.24	28079.41
443.43	28699.65
443.61	29111.58
443.80	29324.57
443.98	27782.16
444.17	27665.13
444.35	29525.86
444.54	29886.30
444.73	29666.29
444.91	28556.88
445.10	27075.32
445.28	25921.43
445.47	25472.05
445.65	25750.57
445.84	26101.65
446.02	27288.31
446.21	27791.52
446.39	27641.73
446.58	28353.25
446.77	28517.09
446.95	28987.53
447.14	29816.08
447.32	30122.69
447.51	29764.59
447.69	28336.87
447.88	27997.49
448.06	28697.31
448.25	28774.55
448.43	29359.68
448.62	28430.49
448.80	28624.75
448.99	28973.49
449.17	29312.87
449.36	29167.76
449.54	30089.93
449.73	30841.24
449.91	30675.06
450.10	31852.35
450.28	32175.34
450.46	32126.19
450.65	32245.56
450.83	31908.52
451.02	31094.02
451.20	30991.03
451.39	30998.06
451.57	30675.06
451.76	31033.16
451.94	30766.34
452.13	30066.52
452.31	29125.63
452.49	27262.56
452.68	27693.22
452.86	27985.79
453.05	28367.29
453.23	28886.89
453.42	29546.92
453.60	30223.34
453.78	30761.66
453.97	30286.53
454.15	30366.11
454.34	29579.69
454.52	29689.70
454.70	29326.91
454.89	29649.91
455.07	29537.56
455.26	30202.27
455.44	31519.99
455.62	31988.10
455.81	32259.60
455.99	31786.82
456.17	31379.56
456.36	31211.04
456.54	32184.71
456.73	32334.50
456.91	32994.53
457.09	32940.70
457.28	33591.37
457.46	32610.68
457.64	32048.96
457.83	31285.94
458.01	30644.63
458.19	31278.92
458.38	31594.89
458.56	33027.30
458.74	32439.82
458.93	31913.20
459.11	31674.47
459.29	31529.36
459.48	32025.55
459.66	31445.10
459.84	31971.72
460.03	32641.11
460.21	32058.32
460.39	32994.53
460.57	33085.81
460.76	33504.77
460.94	33708.40
461.12	33680.31
461.31	33064.75
461.49	33378.38
461.67	32790.91
461.85	34352.04
462.04	33869.89
462.22	34106.29
462.40	34080.54
462.59	34110.97
462.77	33895.64
462.95	34094.58
463.13	33750.52
463.32	33340.93
463.50	33149.01
463.68	33277.74
463.86	33251.99
464.05	32858.78
464.23	32077.04
464.41	32119.17
464.59	31552.76
464.78	32613.02
464.96	32589.62
465.14	32498.34
465.32	33680.31
465.50	34513.54
465.69	34497.16
465.87	33579.67
466.05	32613.02
466.23	31316.37
466.41	30864.64
466.60	31550.42
466.78	31721.28
466.96	32283.01
467.14	32573.24
467.32	33001.55
467.51	33125.60
467.69	31548.08
467.87	32404.72
468.05	33535.20
468.23	32917.29
468.41	33137.30
468.60	33170.07
468.78	33383.06
468.96	32701.96
469.14	33502.43
469.32	33551.58
469.50	32123.85
469.69	32488.98
469.87	31613.62
470.05	32060.66
470.23	32173.00
470.41	31798.52
470.59	32264.28
470.77	32664.52
470.95	33240.29
471.14	33500.09
471.32	33570.30
471.50	35463.80
471.68	35702.53
471.86	36409.37
472.04	36182.34
472.22	35779.77
472.40	34455.03
472.58	34024.37
472.77	33975.22
472.95	34742.91
473.13	35817.22
473.31	34398.85
473.49	34656.31
473.67	35136.12
473.85	35800.83
474.03	36472.57
474.21	36790.88
474.39	37233.24
474.57	37031.96
474.75	37338.57
474.93	36641.09
475.12	35948.29
475.30	36067.66
475.48	36180.00
475.66	36980.46
475.84	36105.10
476.02	35864.03
476.20	35314.00
476.38	36142.55
476.56	37200.47
476.74	37666.24
476.92	37689.65
477.10	38691.40
477.28	39594.84
477.46	39718.89
477.64	39749.32
477.82	40154.23
478.00	40687.87
478.18	39660.38
478.36	39152.48
478.54	39239.08
478.72	39374.83
478.90	40725.32
479.08	41799.63
479.26	42129.64
479.44	42230.29
479.62	41633.45
479.80	42040.70
479.98	42323.91
480.16	42321.57
480.34	41940.06
480.52	42295.82
480.70	42319.23
480.88	42359.02
481.06	43564.39
481.24	43557.37
481.41	44907.86
481.59	45104.46
481.77	44945.31
481.95	44641.04
482.13	44250.17
482.31	44261.87
482.49	44825.94
482.67	44776.79
482.85	45106.80
483.03	45710.66
483.21	46174.09
483.39	45846.41
483.57	45050.63
483.74	44905.52
483.92	45214.47
484.10	45137.23
484.28	46389.42
484.46	46686.67
484.64	47217.97
484.82	46052.38
485.00	46033.66
485.18	44856.37
485.35	44027.82
485.53	40687.87
485.71	36840.03
485.89	36598.96
486.07	38022.00
486.25	41502.38
486.43	44032.50
486.61	44701.89
486.78	44854.03
486.96	45013.18
487.14	46625.81
487.32	47320.95
487.50	48753.36
487.68	49270.62
487.85	50127.25
488.03	49804.26
488.21	49202.74
488.39	48811.87
488.57	48175.25
488.75	47957.58
488.92	48729.95
489.10	50972.19
489.28	52207.99
489.46	53048.24
489.64	53272.93
489.81	53338.47
489.99	53151.23
490.17	52982.71
490.35	53172.29
490.53	52722.91
490.70	52233.74
490.88	52210.33
491.06	53301.02
491.24	53057.60
491.41	52306.29
491.59	50394.07
491.77	49734.04
491.95	50710.05
492.13	52205.65
492.30	53247.19
492.48	54178.72
492.66	54698.32
492.84	54618.74
493.01	54277.02
493.19	53675.51
493.37	53815.94
493.54	53373.58
493.72	53687.21
493.90	54801.30
494.08	55676.66
494.25	55936.46
494.43	56144.77
494.61	56472.45
494.79	56610.54
494.96	56243.07
495.14	55643.90
495.32	54869.18
495.49	54049.99
495.67	55236.64
495.85	56650.33
496.02	57010.77
496.20	56891.40
496.38	56306.27
496.55	56310.95
496.73	56622.24
496.91	56832.89
497.09	57322.06
497.26	57595.90
497.44	57120.77
497.62	56655.01
497.79	55880.29
497.97	54625.76
498.14	54703.00
498.32	55547.93
498.50	56706.50
498.67	57406.32
498.85	57186.31
499.03	57411.00
499.20	57499.94
499.38	57453.13
499.56	57291.63
499.73	56956.94
499.91	56624.58
500.08	56135.41
500.26	55489.42
500.44	56018.38
500.61	56381.16
500.79	56362.44
500.97	55739.86
501.14	55863.91
501.32	55594.74
501.49	55826.46
501.67	55749.22
501.84	56299.25
502.02	56676.07
502.20	57013.11
502.37	57076.30
502.55	57113.75
502.72	57661.44
502.90	58056.99
503.07	58080.39
503.25	57558.45
503.43	56610.54
503.60	56217.33
503.78	55412.18
503.95	55920.08
504.13	57263.55
504.30	58028.90
504.48	57900.17
504.65	57471.85
504.83	57289.29
505.01	58230.19
505.18	58426.79
505.36	58953.41
505.53	59025.97
505.71	59304.49
505.88	59267.05
506.06	58614.04
506.23	58422.11
506.41	58061.67
506.58	58415.09
506.76	58342.53
506.93	58363.60
507.11	57858.04
507.28	58127.20
507.46	57783.15
507.63	57202.69
507.81	56879.70
507.98	57106.73
508.16	57785.49
508.33	58197.42
508.50	58630.42
508.68	59004.91
508.85	59407.48
509.03	59442.59
509.20	59124.27
509.38	58555.52
509.55	57832.30
509.73	57925.92
509.90	58382.32
510.08	58787.24
510.25	58527.44
510.42	58529.78
510.60	58492.33
510.77	58592.97
510.95	59131.29
511.12	59121.93
511.30	59416.84
511.47	59842.82
511.64	59774.94
511.82	59627.49
511.99	58583.61
512.17	58398.71
512.34	57921.24
512.51	58021.88
512.69	58155.29
512.86	58361.26
513.04	58794.26
513.21	58838.73
513.38	58557.86
513.56	57841.66
513.73	57471.85
513.90	57521.01
514.08	57752.72
514.25	58052.31
514.43	58028.90
514.60	58387.00
514.77	58269.98
514.95	58705.32
515.12	58445.52
515.29	58564.88
515.47	59150.02
515.64	59290.45
515.81	59030.65
515.99	58197.42
516.16	57066.94
516.33	54880.88
516.51	53495.28
516.68	52591.84
516.85	51805.42
517.03	52545.03
517.20	54988.55
517.37	57511.64
517.54	58616.38
517.72	58096.78
517.89	55779.65
518.06	53331.45
518.24	53261.23
518.41	55597.09
518.58	56982.68
518.75	57572.50
518.93	57609.95
519.10	57305.68
519.27	57684.84
519.45	57984.43
519.62	58906.60
519.79	59121.93
519.96	58908.94
520.14	58269.98
520.31	57626.33
520.48	57481.22
520.65	58014.86
520.83	58869.15
521.00	59334.92
521.17	58979.16
521.34	58702.98
521.52	58869.15
521.69	59419.18
521.86	59817.07
522.03	59465.99
522.20	58457.22
522.38	57158.22
522.55	57434.41
522.72	57954.00
522.89	58014.86
523.07	58134.23
523.24	58623.40
523.41	59334.92
523.58	59590.04
523.75	60121.34
523.92	60030.06
524.10	59973.89
524.27	59826.43
524.44	59580.68
524.61	59524.50
524.78	59365.35
524.96	59264.70
525.13	59231.94
525.30	59519.82
525.47	60172.83
525.64	59786.64
525.81	59262.36
525.98	57687.18
526.16	56315.63
526.33	55845.18
526.50	55648.58
526.67	54698.32
526.84	55875.61
527.01	56722.88
527.18	57434.41
527.36	58197.42
527.53	59084.48
527.70	59339.60
527.87	58976.82
528.04	58485.31
528.21	58974.48
528.38	59377.05
528.55	60158.79
528.72	60243.05
528.89	60680.73
529.07	60392.84
529.24	59821.75
529.41	58915.96
529.58	58639.78
529.75	58646.80
529.92	58913.62
530.09	59519.82
530.26	59770.26
530.43	60086.23
530.60	60144.75
530.77	60360.08
530.94	60460.72
531.11	59971.55
531.28	59512.80
531.46	59391.09
531.63	59489.40
531.80	59704.73
531.97	59089.16
532.14	58284.02
532.31	57546.75
532.48	56952.26
532.65	56718.20
532.82	57577.18
532.99	58684.25
533.16	59334.92
533.33	59578.34
533.50	59311.52
533.67	58913.62
533.84	58363.60
534.01	58635.10
534.18	58775.53
534.35	59143.00
534.52	58920.65
534.69	59037.67
534.86	59515.14
535.03	59671.96
535.20	60030.06
535.37	60268.79
535.54	60500.51
535.71	60053.47
535.88	59948.14
536.05	59255.34
536.22	58642.12
536.38	58543.82
536.55	58024.22
536.72	57785.49
536.89	57483.56
537.06	58508.71
537.23	59147.68
537.40	59355.99
537.57	59508.12
537.74	59145.34
537.91	59274.07
538.08	59171.08
538.25	59224.92
538.42	59306.83
538.59	59009.59
538.75	58471.26
538.92	58267.64
539.09	58225.51
539.26	57949.32
539.43	57921.24
539.60	57848.68
539.77	58159.97
539.94	57972.73
540.11	57228.44
540.28	56823.53
540.44	56830.55
540.61	57048.22
540.78	57148.86
540.95	57598.24
541.12	57958.69
541.29	58234.87
541.46	58637.44
541.62	58791.92
541.79	58511.05
541.96	57860.38
542.13	57841.66
542.30	58298.06
542.47	58429.13
542.63	58141.25
542.80	57825.28
542.97	58124.86
543.14	57954.00
543.31	58085.07
543.48	58482.97
543.64	59133.63
543.81	59653.23
543.98	59334.92
544.15	58759.15
544.32	58073.37
544.48	57982.09
544.65	58508.71
544.82	59032.99
544.99	58742.77
545.16	58438.50
545.32	57874.43
545.49	58827.02
545.66	59072.78
545.83	58930.01
546.00	58529.78
546.16	57951.66
546.33	58279.34
546.50	58171.67
546.67	58585.95
546.83	58220.83
547.00	58394.03
547.17	57638.03
547.34	57354.83
547.50	56750.97
547.67	57476.54
547.84	57506.96
548.00	57736.34
548.17	58195.08
548.34	58284.02
548.51	58255.93
548.67	58195.08
548.84	58621.06
549.01	58316.79
549.18	58056.99
549.34	58127.20
549.51	58192.74
549.68	58103.80
549.84	57855.70
550.01	57790.17
550.18	57378.23
550.34	57815.91
550.51	57916.56
550.68	58026.56
550.84	57265.89
551.01	57539.73
551.18	57567.82
551.34	57846.34
551.51	57935.28
551.68	58251.25
551.84	58267.64
552.01	58082.73
552.18	57844.00
552.34	57298.65
552.51	56779.06
552.68	56722.88
552.84	57411.00
553.01	57532.71
553.18	57490.58
553.34	57525.69
553.51	57528.03
553.67	57874.43
553.84	57904.85
554.01	57991.45
554.17	57769.10
554.34	57621.65
554.51	58117.84
554.67	58094.44
554.84	58134.23
555.00	57544.41
555.17	57457.81
555.33	57469.51
555.50	57303.34
555.67	57474.20
555.83	57471.85
556.00	57151.20
556.16	56711.18
556.33	56605.86
556.50	56605.86
556.66	56516.92
556.83	56245.41
556.99	56479.47
557.16	56514.58
557.32	56858.63
557.49	56968.64
557.65	56982.68
557.82	56952.26
557.98	56846.93
558.15	56247.75
558.32	55477.72
558.48	54777.90
558.65	54625.76
558.81	55360.69
558.98	55742.20
559.14	56046.47
559.31	55664.96
559.47	55868.59
559.64	55496.44
559.80	55264.73
559.97	55337.29
560.13	55686.03
560.30	56701.82
560.46	57195.67
560.63	57352.49
560.79	57315.04
560.96	56823.53
561.12	55779.65
561.29	54873.86
561.45	55189.83
561.61	55714.11
561.78	55985.61
561.94	55744.54
562.11	55824.12
562.27	55793.69
562.44	56025.40
562.60	56322.65
562.77	56439.68
562.93	56266.48
563.10	56322.65
563.26	55571.34
563.42	55522.19
563.59	55449.63
563.75	55627.51
563.92	55746.88
564.08	55433.25
564.24	55831.14
564.41	55796.03
564.57	55522.19
564.74	55433.25
564.90	55643.90
565.07	55194.51
565.23	54745.13
565.39	54356.60
565.56	54110.85
565.72	53982.12
565.88	54518.10
566.05	54344.90
566.21	54604.70
566.38	54864.50
566.54	54798.96
566.70	55227.28
566.87	55718.79
567.03	55505.80
567.19	55826.46
567.36	55491.76
567.52	55264.73
567.68	55152.38
567.85	54522.78
568.01	53900.20
568.17	53755.08
568.34	53972.75
568.50	53572.52
568.66	53642.74
568.83	54253.62
568.99	54225.53
569.15	54574.27
569.32	54447.88
569.48	53963.39
569.64	53991.48
569.81	53532.73
569.97	53698.91
570.13	53504.65
570.30	53176.97
570.46	52769.72
570.62	52233.74
570.78	51728.18
570.95	52500.56
571.11	52914.83
571.27	53258.89
571.43	53605.29
571.60	53794.87
571.76	53834.66
571.92	54232.55
572.09	54539.16
572.25	54405.75
572.41	54426.82
572.57	54026.59
572.74	54340.22
572.90	53514.01
573.06	53764.45
573.22	53893.18
573.38	53858.07
573.55	53619.33
573.71	54005.52
573.87	53738.70
574.03	53387.62
574.20	53790.19
574.36	53165.27
574.52	53198.04
574.68	53022.50
574.84	52589.50
575.01	52179.90
575.17	52062.88
575.33	52509.92
575.49	52575.45
575.65	52591.84
575.82	52191.61
575.98	52062.88
576.14	52640.99
576.30	52818.87
576.46	52893.77
576.62	52952.28
576.79	52971.00
576.95	52530.98
577.11	52390.55
577.27	52493.54
577.43	52484.17
577.59	52229.05
577.75	51892.02
577.92	51100.92
578.08	50983.89
578.24	50834.10
578.40	51395.82
578.56	51580.73
578.72	51515.19
578.88	51833.50
579.04	51999.68
579.21	52137.77
579.37	52154.16
579.53	52205.65
579.69	52154.16
579.85	52460.77
580.01	52402.25
580.17	51859.25
580.33	51526.89
580.49	51875.63
580.65	52002.02
580.82	52095.64
580.98	52116.71
581.14	52144.80
581.30	52086.28
581.46	52126.07
581.62	52086.28
581.78	52404.59
581.94	52420.98
582.10	52123.73
582.26	52254.80
582.42	52282.89
582.58	52451.41
582.74	52273.52
582.90	52423.32
583.06	52577.79
583.22	52149.48
583.38	51873.29
583.54	52133.09
583.70	51770.31
583.86	52271.18
584.02	51805.42
584.18	52048.83
584.34	51749.24
584.50	51840.53
584.66	51358.38
584.82	51236.67
584.98	51224.96
585.14	50862.18
585.30	50057.04
