SpectraSuite Data File
++++++++++++++++++++++++++++++++++++
Date: Mon Oct 07 14:54:57 GMT-05:00 2013
User: price-jones
Dark Spectrum Present: No
Reference Spectrum Present: No
Number of Sampled Component Spectra: 1
Spectrometers: USB2+H05261
Integration Time (usec): 10000 (USB2+H05261)
Spectra Averaged: 1 (USB2+H05261)
Boxcar Smoothing: 0 (USB2+H05261)
Correct for Electrical Dark: No (USB2+H05261)
Strobe/Lamp Enabled: No (USB2+H05261)
Correct for Detector Non-linearity: No (USB2+H05261)
Correct for Stray Light: No (USB2+H05261)
Number of Pixels in Processed Spectrum: 2048
>>>>>Begin Processed Spectral Data<<<<<
365.73	0.00
365.92	0.00
366.12	0.00
366.32	0.00
366.52	0.00
366.72	0.00
366.91	0.00
367.11	0.00
367.31	0.00
367.51	0.00
367.70	0.00
367.90	0.00
368.10	0.00
368.30	0.00
368.49	0.00
368.69	0.00
368.89	0.00
369.09	0.00
369.28	0.00
369.48	0.00
369.68	0.00
369.87	0.00
370.07	0.00
370.27	0.00
370.47	901.11
370.66	4198.92
370.86	4919.81
371.06	5425.36
371.25	5121.09
371.45	4744.27
371.65	4191.90
371.84	4093.60
372.04	4236.37
372.24	4931.51
372.44	5013.43
372.63	4894.06
372.83	4390.84
373.03	3955.51
373.22	3798.69
373.42	4093.60
373.62	4528.94
373.81	4919.81
374.01	4823.84
374.21	4147.43
374.40	4079.55
374.60	4194.24
374.79	4863.63
374.99	5844.32
375.19	6108.80
375.38	5947.30
375.58	5678.14
375.78	5675.80
375.97	5881.77
376.17	5713.25
376.37	5987.09
376.56	6059.65
376.76	6455.20
376.95	6801.60
377.15	7435.88
377.35	7517.80
377.54	8060.80
377.74	8102.93
377.93	8154.43
378.13	7672.28
378.33	7536.52
378.52	6693.93
378.72	6457.54
378.91	6602.65
379.11	6347.53
379.31	6146.25
379.50	6179.01
379.70	6649.46
379.89	7468.65
380.09	7845.48
380.28	7981.23
380.48	8107.62
380.68	7639.51
380.87	7566.95
381.07	7066.08
381.26	6661.16
381.46	6094.76
381.65	5991.77
381.85	5806.87
382.04	5348.12
382.24	5160.88
382.43	4889.38
382.63	4849.59
382.83	4922.15
383.02	4910.44
383.22	4847.25
383.41	5139.82
383.61	5362.17
383.80	6122.84
384.00	7089.48
384.19	7939.10
384.39	8093.57
384.58	8028.04
384.78	7992.93
384.97	7939.10
385.17	7632.49
385.36	7014.59
385.56	6595.63
385.75	7052.03
385.95	7864.20
386.14	8498.49
386.34	8351.03
386.53	7887.61
386.72	7419.50
386.92	7700.36
387.11	8035.06
387.31	8439.97
387.50	8098.25
387.70	7941.44
387.89	7878.24
388.09	8060.80
388.28	8046.76
388.48	8280.82
388.67	8879.99
388.86	10010.47
389.06	10457.51
389.25	10902.22
389.45	11035.63
389.64	10714.97
389.84	10595.61
390.03	10476.24
390.22	10810.93
390.42	11274.36
390.61	11836.09
390.81	12720.81
391.00	12769.96
391.19	12791.03
391.39	12126.32
391.58	11475.65
391.78	10717.31
391.97	10693.91
392.16	9437.04
392.36	8716.16
392.55	6813.30
392.75	5521.32
392.94	4585.11
393.13	4753.63
393.33	5776.44
393.52	7363.33
393.71	8884.67
393.91	9872.38
394.10	10712.63
394.29	11929.71
394.49	12896.35
394.68	13764.69
394.88	13696.82
395.07	14129.81
395.26	14019.81
395.46	13472.12
395.65	12793.37
395.84	10717.31
396.04	8805.10
396.23	7346.94
396.42	6071.35
396.62	6298.38
396.81	7541.21
397.00	9832.59
397.19	12231.64
397.39	14242.16
397.58	16142.67
397.77	16765.26
397.97	16947.82
398.16	17558.70
398.35	18298.31
398.55	18904.51
398.74	19381.98
398.93	19515.39
399.12	19520.07
399.32	18462.15
399.51	19424.11
399.70	20627.14
399.90	20292.44
400.09	20154.35
400.28	20184.78
400.47	20563.95
400.67	21497.82
400.86	21671.02
401.05	21968.27
401.24	22036.14
401.44	22239.77
401.63	22637.66
401.82	22689.15
402.01	22558.08
402.21	23089.38
402.40	22640.00
402.59	21874.65
402.78	21116.31
402.97	20634.16
403.17	21928.48
403.36	23311.74
403.55	24051.34
403.74	24067.73
403.93	22457.44
404.13	21062.48
404.32	21170.15
404.51	22455.10
404.70	23960.06
404.89	23166.62
405.09	22780.43
405.28	22331.05
405.47	22452.76
405.66	22352.12
405.85	21804.43
406.05	21364.41
406.24	21680.38
406.43	22995.76
406.62	23180.67
406.81	23880.49
407.00	22494.89
407.20	21951.88
407.39	22698.52
407.58	23735.37
407.77	24222.20
407.96	25205.23
408.15	25336.30
408.34	25827.81
408.54	26822.54
408.73	26888.07
408.92	26359.11
409.11	25579.71
409.30	24098.16
409.49	22778.09
409.68	21223.98
409.87	21434.63
410.07	22913.84
410.26	24872.87
410.45	25891.01
410.64	26441.03
410.83	27339.80
411.02	28123.88
411.21	28744.12
411.40	28360.27
411.59	28318.14
411.78	28460.91
411.98	28268.99
412.17	28701.99
412.36	27995.15
412.55	28402.40
412.74	26995.74
412.93	26773.39
413.12	27674.49
413.31	29937.79
413.50	30258.45
413.69	30532.29
413.88	28931.36
414.07	28627.09
414.26	29607.78
414.45	30167.16
414.64	29933.11
414.83	30866.98
415.02	29586.71
415.22	29898.00
415.41	30803.79
415.60	32046.62
415.79	33188.80
415.98	34199.91
416.17	33766.91
416.36	32109.81
416.55	31840.65
416.74	31283.60
416.93	30225.68
417.12	30504.20
417.31	30892.73
417.50	31894.48
417.69	32570.90
417.88	32065.34
418.07	32332.16
418.26	31232.11
418.45	31920.23
418.64	32891.55
418.83	34300.55
419.02	33214.54
419.21	32765.16
419.39	31466.16
419.58	30412.92
419.77	30394.20
419.96	32088.74
420.15	34024.37
420.34	34972.28
420.53	36121.49
420.72	36282.98
420.91	35852.33
421.10	35789.13
421.29	35309.32
421.48	34082.88
421.67	36107.44
421.86	34546.31
422.05	32290.03
422.24	29352.66
422.43	29654.59
422.61	32968.79
422.80	35119.74
422.99	34281.83
423.18	33149.01
423.37	33027.30
423.56	33926.07
423.75	34653.97
423.94	35637.00
424.13	33167.73
424.32	33097.52
424.50	33254.33
424.69	32671.54
424.88	32973.47
425.07	33514.13
425.26	33200.50
425.45	31964.70
425.64	31550.42
425.83	32320.46
426.01	34588.44
426.20	34335.66
426.39	33986.92
426.58	31831.29
426.77	28776.89
426.96	28409.42
427.15	30712.51
427.33	32451.53
427.52	33322.21
427.71	33329.23
427.90	33277.74
428.09	32744.09
428.28	32180.03
428.46	31229.77
428.65	30817.83
428.84	31990.44
429.03	32215.13
429.22	30218.66
429.40	28732.42
429.59	25448.64
429.78	23281.31
429.97	23850.06
430.16	23700.26
430.34	22862.35
430.53	23297.69
430.72	24318.17
430.91	28048.98
431.10	32624.73
431.28	37656.88
431.47	39990.39
431.66	39789.11
431.85	35426.35
432.03	32627.07
432.22	32641.11
432.41	35433.37
432.60	37708.37
432.79	39597.18
432.97	39976.35
433.16	38593.09
433.35	35218.04
433.54	31314.03
433.72	30497.18
433.91	31887.46
434.10	35590.19
434.28	38038.39
434.47	39203.97
434.66	37614.75
434.85	37310.48
435.03	37312.82
435.22	38284.14
435.41	40322.75
435.59	40641.06
435.78	40942.99
435.97	41748.14
436.16	42021.98
436.34	41825.37
436.53	40788.52
436.72	40973.42
436.90	39431.01
437.09	38759.27
437.28	38429.26
437.46	40416.37
437.65	39613.57
437.84	36573.21
438.02	33532.86
438.21	34534.60
438.40	36201.07
438.58	39194.61
438.77	40467.86
438.96	40879.80
439.14	42127.30
439.33	42904.36
439.52	43768.02
439.70	42595.41
439.89	41263.64
440.08	40540.42
440.26	40594.25
440.45	42162.41
440.63	45226.17
440.82	46892.63
441.01	46141.32
441.19	46253.67
441.38	47234.35
441.57	48210.35
441.75	48093.33
441.94	47903.74
442.12	48062.90
442.31	49434.45
442.50	49378.28
442.68	48676.12
442.87	48023.11
443.05	47515.22
443.24	49052.95
443.43	49193.38
443.61	49233.17
443.80	49570.21
443.98	47552.66
444.17	48069.92
444.35	49890.86
444.54	50267.69
444.73	50108.53
444.91	47606.50
445.10	46291.12
445.28	45097.44
445.47	44322.72
445.65	44926.58
445.84	46794.33
446.02	47150.09
446.21	48156.52
446.39	47973.96
446.58	48575.48
446.77	49373.60
446.95	49705.96
447.14	50630.47
447.32	51138.36
447.51	50019.59
447.69	48638.67
447.88	48587.18
448.06	48818.89
448.25	49687.23
448.43	49890.86
448.62	49558.50
448.80	49184.02
448.99	49134.87
449.17	49483.61
449.36	50181.09
449.54	51489.45
449.73	51847.55
449.91	52245.44
450.10	53453.15
450.28	53546.78
450.46	53155.91
450.65	53631.04
450.83	53020.16
451.02	51901.38
451.20	52383.53
451.39	52121.39
451.57	52142.45
451.76	51798.40
451.94	51833.50
452.13	50703.03
452.31	49148.91
452.49	47309.25
452.68	48612.93
452.86	48568.46
453.05	49118.48
453.23	51136.02
453.42	51772.65
453.60	51660.30
453.78	52039.47
453.97	51648.60
454.15	51714.14
454.34	51384.12
454.52	51187.52
454.70	50398.76
454.89	51288.16
455.07	50815.37
455.26	52170.54
455.44	53017.82
455.62	53347.83
455.81	53312.72
455.99	52743.97
456.17	52514.60
456.36	53073.99
456.54	53811.26
456.73	53928.28
456.91	54681.94
457.09	54660.87
457.28	55489.42
457.46	54281.70
457.64	53488.26
457.83	52940.58
458.01	52041.81
458.19	53167.61
458.38	53790.19
458.56	53815.94
458.74	53535.07
458.93	53406.34
459.11	53057.60
459.29	53193.36
459.48	53347.83
459.66	53329.11
459.84	53434.43
460.03	53371.24
460.21	53600.61
460.39	54829.39
460.57	54452.56
460.76	55236.64
460.94	55002.59
461.12	54651.51
461.31	55157.06
461.49	54890.24
461.67	54431.50
461.85	55604.11
462.04	55281.11
462.22	55543.25
462.40	55756.24
462.59	55428.57
462.77	55302.18
462.95	55618.15
463.13	55379.42
463.32	54695.98
463.50	55210.90
463.68	55107.91
463.86	54803.64
464.05	54684.28
464.23	53963.39
464.41	53558.48
464.59	53310.38
464.78	54789.60
464.96	54770.88
465.14	54277.02
465.32	55224.94
465.50	55927.10
465.69	55854.54
465.87	55379.42
466.05	54497.03
466.23	53223.78
466.41	53055.26
466.60	54227.87
466.78	54117.87
466.96	54466.61
467.14	54885.56
467.32	55093.87
467.51	55508.14
467.69	54349.58
467.87	54539.16
468.05	54901.95
468.23	55288.13
468.41	55192.17
468.60	55501.12
468.78	55842.84
468.96	55882.63
469.14	56200.94
469.32	55674.32
469.50	54651.51
469.69	54518.10
469.87	53680.19
470.05	53998.50
470.23	53825.30
470.41	54040.63
470.59	54827.05
470.77	54965.14
470.95	55332.60
471.14	55969.23
471.32	56252.44
471.50	57588.88
471.68	57123.11
471.86	57504.62
472.04	58333.17
472.22	57965.71
472.40	56027.74
472.58	56116.68
472.77	56392.87
472.95	56685.43
473.13	57024.81
473.31	56339.04
473.49	56781.40
473.67	57378.23
473.85	57586.54
474.03	57848.68
474.21	58185.72
474.39	58628.08
474.57	58749.79
474.75	58784.90
474.93	58887.88
475.12	57488.24
475.30	57897.83
475.48	57963.37
475.66	58351.90
475.84	58099.12
476.02	57488.24
476.20	57371.21
476.38	57958.69
476.56	58705.32
476.74	59105.55
476.92	59028.31
477.10	59730.47
477.28	60544.98
477.46	60367.10
477.64	60444.33
477.82	60486.46
478.00	60683.07
478.18	60676.05
478.36	59824.09
478.54	60406.89
478.72	60587.11
478.90	61015.43
479.08	61553.75
479.26	61900.15
479.44	61881.42
479.62	61638.01
479.80	61406.30
479.98	62033.56
480.16	62291.02
480.34	62281.66
480.52	62190.37
480.70	62082.71
480.88	62276.97
481.06	62805.94
481.24	62663.16
481.41	63491.71
481.59	63487.03
481.77	63213.19
481.95	63107.86
482.13	63447.24
482.31	63519.80
482.49	63758.53
482.67	64011.31
482.85	63959.82
483.03	63957.48
483.21	64364.73
483.39	64369.41
483.57	63749.17
483.74	64149.40
483.92	64088.55
484.10	63920.03
484.28	64629.21
484.46	65228.39
484.64	65506.91
484.82	64877.31
485.00	63920.03
485.18	63154.68
485.35	63098.50
485.53	60224.32
485.71	58087.42
485.89	58712.34
486.07	60264.11
486.25	62012.49
486.43	63716.40
486.61	63980.88
486.78	63849.81
486.96	64530.91
487.14	65495.21
487.32	65535.00
487.50	65535.00
487.68	65535.00
487.85	65535.00
488.03	65535.00
488.21	65535.00
488.39	65535.00
488.57	65535.00
488.75	65535.00
488.92	65535.00
489.10	65535.00
489.28	65535.00
489.46	65535.00
489.64	65535.00
489.81	65535.00
489.99	65535.00
490.17	65535.00
490.35	65535.00
490.53	65535.00
490.70	65535.00
490.88	65535.00
491.06	65535.00
491.24	65535.00
491.41	65535.00
491.59	65535.00
491.77	65535.00
491.95	65535.00
492.13	65535.00
492.30	65535.00
492.48	65535.00
492.66	65535.00
492.84	65535.00
493.01	65535.00
493.19	65535.00
493.37	65535.00
493.54	65535.00
493.72	65535.00
493.90	65535.00
494.08	65535.00
494.25	65535.00
494.43	65535.00
494.61	65535.00
494.79	65535.00
494.96	65535.00
495.14	65535.00
495.32	65535.00
495.49	65535.00
495.67	65535.00
495.85	65535.00
496.02	65535.00
496.20	65535.00
496.38	65535.00
496.55	65535.00
496.73	65535.00
496.91	65535.00
497.09	65535.00
497.26	65535.00
497.44	65535.00
497.62	65535.00
497.79	65535.00
497.97	65535.00
498.14	65535.00
498.32	65535.00
498.50	65535.00
498.67	65535.00
498.85	65535.00
499.03	65535.00
499.20	65535.00
499.38	65535.00
499.56	65535.00
499.73	65535.00
499.91	65535.00
500.08	65535.00
500.26	65535.00
500.44	65535.00
500.61	65535.00
500.79	65535.00
500.97	65535.00
501.14	65535.00
501.32	65535.00
501.49	65535.00
501.67	65535.00
501.84	65535.00
502.02	65535.00
502.20	65535.00
502.37	65535.00
502.55	65535.00
502.72	65535.00
502.90	65535.00
503.07	65535.00
503.25	65535.00
503.43	65535.00
503.60	65535.00
503.78	65535.00
503.95	65535.00
504.13	65535.00
504.30	65535.00
504.48	65535.00
504.65	65535.00
504.83	65535.00
505.01	65535.00
505.18	65535.00
505.36	65535.00
505.53	65535.00
505.71	65535.00
505.88	65535.00
506.06	65535.00
506.23	65535.00
506.41	65535.00
506.58	65535.00
506.76	65535.00
506.93	65535.00
507.11	65535.00
507.28	65535.00
507.46	65535.00
507.63	65535.00
507.81	65535.00
507.98	65535.00
508.16	65535.00
508.33	65535.00
508.50	65535.00
508.68	65535.00
508.85	65535.00
509.03	65535.00
509.20	65535.00
509.38	65535.00
509.55	65535.00
509.73	65535.00
509.90	65535.00
510.08	65535.00
510.25	65535.00
510.42	65535.00
510.60	65535.00
510.77	65535.00
510.95	65535.00
511.12	65535.00
511.30	65535.00
511.47	65535.00
511.64	65535.00
511.82	65535.00
511.99	65535.00
512.17	65535.00
512.34	65535.00
512.51	65535.00
512.69	65535.00
512.86	65535.00
513.04	65535.00
513.21	65535.00
513.38	65535.00
513.56	65535.00
513.73	65535.00
513.90	65535.00
514.08	65535.00
514.25	65535.00
514.43	65535.00
514.60	65535.00
514.77	65535.00
514.95	65535.00
515.12	65535.00
515.29	65535.00
515.47	65535.00
515.64	65535.00
515.81	65535.00
515.99	65535.00
516.16	65535.00
516.33	65535.00
516.51	65535.00
516.68	65535.00
516.85	65535.00
517.03	65535.00
517.20	65535.00
517.37	65535.00
517.54	65535.00
517.72	65535.00
517.89	65535.00
518.06	65535.00
518.24	65535.00
518.41	65535.00
518.58	65535.00
518.75	65535.00
518.93	65535.00
519.10	65535.00
519.27	65535.00
519.45	65535.00
519.62	65535.00
519.79	65535.00
519.96	65535.00
520.14	65535.00
520.31	65535.00
520.48	65535.00
520.65	65535.00
520.83	65535.00
521.00	65535.00
521.17	65535.00
521.34	65535.00
521.52	65535.00
521.69	65535.00
521.86	65535.00
522.03	65535.00
522.20	65535.00
522.38	65535.00
522.55	65535.00
522.72	65535.00
522.89	65535.00
523.07	65535.00
523.24	65535.00
523.41	65535.00
523.58	65535.00
523.75	65535.00
523.92	65535.00
524.10	65535.00
524.27	65535.00
524.44	65535.00
524.61	65535.00
524.78	65535.00
524.96	65535.00
525.13	65535.00
525.30	65535.00
525.47	65535.00
525.64	65535.00
525.81	65535.00
525.98	65535.00
526.16	65535.00
526.33	65535.00
526.50	65535.00
526.67	65535.00
526.84	65535.00
527.01	65535.00
527.18	65535.00
527.36	65535.00
527.53	65535.00
527.70	65535.00
527.87	65535.00
528.04	65535.00
528.21	65535.00
528.38	65535.00
528.55	65535.00
528.72	65535.00
528.89	65535.00
529.07	65535.00
529.24	65535.00
529.41	65535.00
529.58	65535.00
529.75	65535.00
529.92	65535.00
530.09	65535.00
530.26	65535.00
530.43	65535.00
530.60	65535.00
530.77	65535.00
530.94	65535.00
531.11	65535.00
531.28	65535.00
531.46	65535.00
531.63	65535.00
531.80	65535.00
531.97	65535.00
532.14	65535.00
532.31	65535.00
532.48	65535.00
532.65	65535.00
532.82	65535.00
532.99	65535.00
533.16	65535.00
533.33	65535.00
533.50	65535.00
533.67	65535.00
533.84	65535.00
534.01	65535.00
534.18	65535.00
534.35	65535.00
534.52	65535.00
534.69	65535.00
534.86	65535.00
535.03	65535.00
535.20	65535.00
535.37	65535.00
535.54	65535.00
535.71	65535.00
535.88	65535.00
536.05	65535.00
536.22	65535.00
536.38	65535.00
536.55	65535.00
536.72	65535.00
536.89	65535.00
537.06	65535.00
537.23	65535.00
537.40	65535.00
537.57	65535.00
537.74	65535.00
537.91	65535.00
538.08	65535.00
538.25	65535.00
538.42	65535.00
538.59	65535.00
538.75	65535.00
538.92	65535.00
539.09	65535.00
539.26	65535.00
539.43	65535.00
539.60	65535.00
539.77	65535.00
539.94	65535.00
540.11	65535.00
540.28	65535.00
540.44	65535.00
540.61	65535.00
540.78	65535.00
540.95	65535.00
541.12	65535.00
541.29	65535.00
541.46	65535.00
541.62	65535.00
541.79	65535.00
541.96	65535.00
542.13	65535.00
542.30	65535.00
542.47	65535.00
542.63	65535.00
542.80	65535.00
542.97	65535.00
543.14	65535.00
543.31	65535.00
543.48	65535.00
543.64	65535.00
543.81	65535.00
543.98	65535.00
544.15	65535.00
544.32	65535.00
544.48	65535.00
544.65	65535.00
544.82	65535.00
544.99	65535.00
545.16	65535.00
545.32	65535.00
545.49	65535.00
545.66	65535.00
545.83	65535.00
546.00	65535.00
546.16	65535.00
546.33	65535.00
546.50	65535.00
546.67	65535.00
546.83	65535.00
547.00	65535.00
547.17	65535.00
547.34	65535.00
547.50	65535.00
547.67	65535.00
547.84	65535.00
548.00	65535.00
548.17	65535.00
548.34	65535.00
548.51	65535.00
548.67	65535.00
548.84	65535.00
549.01	65535.00
549.18	65535.00
549.34	65535.00
549.51	65535.00
549.68	65535.00
549.84	65535.00
550.01	65535.00
550.18	65535.00
550.34	65535.00
550.51	65535.00
550.68	65535.00
550.84	65535.00
551.01	65535.00
551.18	65535.00
551.34	65535.00
551.51	65535.00
551.68	65535.00
551.84	65535.00
552.01	65535.00
552.18	65535.00
552.34	65535.00
552.51	65535.00
552.68	65535.00
552.84	65535.00
553.01	65535.00
553.18	65535.00
553.34	65535.00
553.51	65535.00
553.67	65535.00
553.84	65535.00
554.01	65535.00
554.17	65535.00
554.34	65535.00
554.51	65535.00
554.67	65535.00
554.84	65535.00
555.00	65535.00
555.17	65535.00
555.33	65535.00
555.50	65535.00
555.67	65535.00
555.83	65535.00
556.00	65535.00
556.16	65535.00
556.33	65535.00
556.50	65535.00
556.66	65535.00
556.83	65535.00
556.99	65535.00
557.16	65535.00
557.32	65535.00
557.49	65535.00
557.65	65535.00
557.82	65535.00
557.98	65535.00
558.15	65535.00
558.32	65535.00
558.48	65535.00
558.65	65535.00
558.81	65535.00
558.98	65535.00
559.14	65535.00
559.31	65535.00
559.47	65535.00
559.64	65535.00
559.80	65535.00
559.97	65535.00
560.13	65535.00
560.30	65535.00
560.46	65535.00
560.63	65535.00
560.79	65535.00
560.96	65535.00
561.12	65535.00
561.29	65535.00
561.45	65535.00
561.61	65535.00
561.78	65535.00
561.94	65535.00
562.11	65535.00
562.27	65535.00
562.44	65535.00
562.60	65535.00
562.77	65535.00
562.93	65535.00
563.10	65535.00
563.26	65535.00
563.42	65535.00
563.59	65535.00
563.75	65535.00
563.92	65535.00
564.08	65535.00
564.24	65535.00
564.41	65535.00
564.57	65535.00
564.74	65535.00
564.90	65535.00
565.07	65535.00
565.23	65535.00
565.39	65535.00
565.56	65535.00
565.72	65535.00
565.88	65535.00
566.05	65535.00
566.21	65535.00
566.38	65535.00
566.54	65535.00
566.70	65535.00
566.87	65535.00
567.03	65535.00
567.19	65535.00
567.36	65535.00
567.52	65535.00
567.68	65535.00
567.85	65535.00
568.01	65535.00
568.17	65535.00
568.34	65535.00
568.50	65535.00
568.66	65535.00
568.83	65535.00
568.99	65535.00
569.15	65535.00
569.32	65535.00
569.48	65535.00
569.64	65535.00
569.81	65535.00
569.97	65535.00
570.13	65535.00
570.30	65535.00
570.46	65535.00
570.62	65535.00
570.78	65535.00
570.95	65535.00
571.11	65535.00
571.27	65535.00
571.43	65535.00
571.60	65535.00
571.76	65535.00
571.92	65535.00
572.09	65535.00
572.25	65535.00
572.41	65535.00
572.57	65535.00
572.74	65535.00
572.90	65535.00
573.06	65535.00
573.22	65535.00
573.38	65535.00
573.55	65535.00
573.71	65535.00
573.87	65535.00
574.03	65535.00
574.20	65535.00
574.36	65535.00
574.52	65535.00
574.68	65535.00
574.84	65535.00
575.01	65535.00
575.17	65535.00
575.33	65535.00
575.49	65535.00
575.65	65535.00
575.82	65535.00
575.98	65535.00
576.14	65535.00
576.30	65535.00
576.46	65535.00
576.62	65535.00
576.79	65535.00
576.95	65535.00
577.11	65535.00
577.27	65535.00
577.43	65535.00
577.59	65535.00
577.75	65535.00
577.92	65535.00
578.08	65535.00
578.24	65535.00
578.40	65535.00
578.56	65535.00
578.72	65535.00
578.88	65535.00
579.04	65535.00
579.21	65535.00
579.37	65535.00
579.53	65535.00
579.69	65535.00
579.85	65535.00
580.01	65535.00
580.17	65535.00
580.33	65535.00
580.49	65535.00
580.65	65535.00
580.82	65535.00
580.98	65535.00
581.14	65535.00
581.30	65535.00
581.46	65535.00
581.62	65535.00
581.78	65535.00
581.94	65535.00
582.10	65535.00
582.26	65535.00
582.42	65535.00
582.58	65535.00
582.74	65535.00
582.90	65535.00
583.06	65535.00
583.22	65535.00
583.38	65535.00
583.54	65535.00
583.70	65535.00
583.86	65535.00
584.02	65535.00
584.18	65535.00
584.34	65535.00
584.50	65535.00
584.66	65535.00
584.82	65535.00
584.98	65535.00
