SpectraSuite Data File
++++++++++++++++++++++++++++++++++++
Date: Mon Oct 07 14:55:00 GMT-05:00 2013
User: price-jones
Dark Spectrum Present: No
Reference Spectrum Present: No
Number of Sampled Component Spectra: 1
Spectrometers: USB2+H05261
Integration Time (usec): 10000 (USB2+H05261)
Spectra Averaged: 1 (USB2+H05261)
Boxcar Smoothing: 0 (USB2+H05261)
Correct for Electrical Dark: No (USB2+H05261)
Strobe/Lamp Enabled: No (USB2+H05261)
Correct for Detector Non-linearity: No (USB2+H05261)
Correct for Stray Light: No (USB2+H05261)
Number of Pixels in Processed Spectrum: 2048
>>>>>Begin Processed Spectral Data<<<<<
365.73	0.00
365.92	0.00
366.12	0.00
366.32	0.00
366.52	0.00
366.72	0.00
366.91	0.00
367.11	0.00
367.31	0.00
367.51	0.00
367.70	0.00
367.90	0.00
368.10	0.00
368.30	0.00
368.49	0.00
368.69	0.00
368.89	0.00
369.09	0.00
369.28	0.00
369.48	0.00
369.68	0.00
369.87	0.00
370.07	0.00
370.27	0.00
370.47	259.80
370.66	2296.07
370.86	2670.55
371.06	2822.69
371.25	2822.69
371.45	2544.16
371.65	2286.70
371.84	2207.13
372.04	2459.90
372.24	2590.97
372.44	2827.37
372.63	2649.49
372.83	2335.85
373.03	2038.61
373.22	1984.77
373.42	2221.17
373.62	2633.10
373.81	2595.65
374.01	2537.14
374.21	2307.77
374.40	2129.89
374.60	2389.69
374.79	2841.41
374.99	3314.20
375.19	3225.26
375.38	3232.28
375.58	3014.61
375.78	3084.83
375.97	3009.93
376.17	3155.04
376.37	3150.36
376.56	3356.33
376.76	3440.59
376.95	3761.24
377.15	4023.38
377.35	4210.62
377.54	4269.14
377.74	4407.23
377.93	4430.63
378.13	4273.82
378.33	3941.46
378.52	3602.08
378.72	3602.08
378.91	3487.40
379.11	3463.99
379.31	3267.39
379.50	3300.16
379.70	3644.21
379.89	4212.96
380.09	4159.13
380.28	4341.69
380.48	4521.92
380.68	4346.37
380.87	4091.26
381.07	3740.18
381.26	3550.59
381.46	3211.22
381.65	3323.56
381.85	3066.10
382.04	2956.10
382.24	2768.85
382.43	2565.23
382.63	2654.17
382.83	2576.93
383.02	2551.18
383.22	2581.61
383.41	2642.46
383.61	2930.35
383.80	3346.97
384.00	3817.41
384.19	4271.48
384.39	4535.96
384.58	4250.41
384.78	4166.15
384.97	4241.05
385.17	3803.37
385.36	3873.59
385.56	3684.00
385.75	3960.19
385.95	4102.96
386.14	4564.04
386.34	4503.19
386.53	4341.69
386.72	3889.97
386.92	4189.56
387.11	4428.29
387.31	4468.08
387.50	4259.78
387.70	4297.22
387.89	4166.15
388.09	4273.82
388.28	4236.37
388.48	4440.00
388.67	4844.91
388.86	5221.74
389.06	5706.23
389.25	5998.79
389.45	6069.01
389.64	5668.78
389.84	5788.14
390.03	5600.90
390.22	5762.40
390.42	6010.50
390.61	6366.26
390.81	6904.58
391.00	6707.98
391.19	6754.79
391.39	6628.40
391.58	6129.86
391.78	5849.00
391.97	5715.59
392.16	5172.58
392.36	4526.60
392.55	3609.11
392.75	2935.03
392.94	2480.97
393.13	2462.24
393.33	3185.47
393.52	3992.95
393.71	4837.89
393.91	5268.55
394.10	5891.13
394.29	6602.65
394.49	6792.23
394.68	7262.68
394.88	7372.69
395.07	7613.76
395.26	7482.69
395.46	7316.51
395.65	6637.76
395.84	5834.96
396.04	4770.01
396.23	3810.39
396.42	3197.17
396.62	3482.72
396.81	4121.68
397.00	5226.42
397.19	6509.03
397.39	7843.14
397.58	8479.76
397.77	9137.45
397.97	9338.74
398.16	9287.25
398.35	9717.90
398.55	9886.42
398.74	10300.70
398.93	10438.79
399.12	10457.51
399.32	10087.71
399.51	10150.90
399.70	10892.85
399.90	10600.29
400.09	10752.42
400.28	10445.81
400.47	10836.68
400.67	11473.31
400.86	11571.61
401.05	11625.44
401.24	11716.72
401.44	12028.01
401.63	11922.69
401.82	11964.82
402.01	12023.33
402.21	12002.27
402.40	12009.29
402.59	11639.48
402.78	11124.57
402.97	11007.54
403.17	11227.55
403.36	12299.52
403.55	12659.96
403.74	12545.27
403.93	11903.96
404.13	10766.46
404.32	11035.63
404.51	11672.25
404.70	12615.49
404.89	12107.59
405.09	12079.50
405.28	11866.52
405.47	11957.80
405.66	12028.01
405.85	11286.06
406.05	11309.47
406.24	11700.34
406.43	12123.98
406.62	12217.60
406.81	12531.23
407.00	12128.66
407.20	11873.54
407.39	11808.00
407.58	12613.15
407.77	12999.34
407.96	13397.23
408.15	13575.11
408.34	13624.26
408.54	14239.82
408.73	14195.35
408.92	13870.01
409.11	13071.89
409.30	12903.37
409.49	11936.73
409.68	11192.44
409.87	10974.77
410.07	11995.25
410.26	12575.70
410.45	13558.72
410.64	13916.83
410.83	14272.59
411.02	14618.99
411.21	14977.09
411.40	15056.67
411.59	15117.52
411.78	15098.80
411.98	15082.41
412.17	15063.69
412.36	14787.50
412.55	14911.55
412.74	14480.89
412.93	14164.92
413.12	14801.55
413.31	16002.24
413.50	16020.97
413.69	16140.33
413.88	15257.95
414.07	15082.41
414.26	15578.61
414.45	15934.37
414.64	15597.33
414.83	15791.59
415.02	15487.32
415.22	15824.36
415.41	16348.64
415.60	16798.02
415.79	17479.12
415.98	17481.46
416.17	17542.32
416.36	17273.15
416.55	16699.72
416.74	16243.32
416.93	15683.93
417.12	15882.88
417.31	16123.95
417.50	16439.92
417.69	16851.86
417.88	16837.81
418.07	16580.36
418.26	16486.73
418.45	16734.83
418.64	17516.57
418.83	18106.38
419.02	17525.93
419.21	17132.72
419.39	16477.37
419.58	16140.33
419.77	16365.03
419.96	17209.96
420.15	17956.59
420.34	18354.48
420.53	18995.79
420.72	18836.63
420.91	18920.89
421.10	18511.30
421.29	18434.06
421.48	17982.34
421.67	19255.59
421.86	17980.00
422.05	16248.00
422.24	15358.60
422.43	15716.70
422.61	17139.74
422.80	18333.42
422.99	17682.75
423.18	17308.26
423.37	17479.12
423.56	17214.64
423.75	17694.45
423.94	18295.97
424.13	17114.00
424.32	16940.80
424.50	17095.27
424.69	17282.52
424.88	17352.73
425.07	17050.80
425.26	17308.26
425.45	16610.78
425.64	16449.28
425.83	16526.52
426.01	17682.75
426.20	18080.64
426.39	17858.29
426.58	16283.11
426.77	15225.18
426.96	15040.28
427.15	16093.52
427.33	17219.32
427.52	17429.97
427.71	17481.46
427.90	17221.66
428.09	16922.07
428.28	16578.01
428.46	15817.34
428.65	15627.76
428.84	16533.54
429.03	16442.26
429.22	15690.95
429.40	14394.29
429.59	13165.51
429.78	11772.89
429.97	12138.02
430.16	12416.54
430.34	12009.29
430.53	12367.39
430.72	12781.67
430.91	14520.68
431.10	17287.20
431.28	19714.33
431.47	20716.08
431.66	20723.10
431.85	18090.00
432.03	17036.76
432.22	17013.35
432.41	18200.01
432.60	19711.99
432.79	20393.09
432.97	20599.05
433.16	19576.24
433.35	17649.98
433.54	16023.31
433.72	15730.74
433.91	16589.72
434.10	18291.29
434.28	19580.92
434.47	20271.38
434.66	19520.07
434.85	19365.59
435.03	19679.22
435.22	20030.30
435.41	20903.32
435.59	21462.71
435.78	21441.65
435.97	21778.68
436.16	21752.94
436.34	21675.70
436.53	21034.39
436.72	21198.23
436.90	20140.31
437.09	19955.41
437.28	19943.70
437.46	20769.91
437.65	19871.15
437.84	18352.14
438.02	17626.57
438.21	17561.04
438.40	18424.70
438.58	19894.55
438.77	20699.70
438.96	20788.64
439.14	22045.51
439.33	21832.52
439.52	21839.54
439.70	21825.50
439.89	20872.90
440.08	20723.10
440.26	21125.68
440.45	21792.73
440.63	23112.79
440.82	23995.17
441.01	23061.30
441.19	23798.57
441.38	24694.99
441.57	25228.63
441.75	25020.33
441.94	25158.42
442.12	24961.81
442.31	25717.81
442.50	25820.79
442.68	25177.14
442.87	25062.46
443.05	24496.05
443.24	25202.89
443.43	25469.71
443.61	26162.51
443.80	26274.85
443.98	25289.49
444.17	25010.96
444.35	26389.54
444.54	26342.73
444.73	25769.30
444.91	24517.11
445.10	23889.85
445.28	23166.62
445.47	23063.64
445.65	22967.68
445.84	23981.13
446.02	24301.78
446.21	24987.56
446.39	25027.35
446.58	25233.32
446.77	26335.71
446.95	26017.40
447.14	27229.79
447.32	27487.25
447.51	26792.11
447.69	25528.22
447.88	25773.98
448.06	26387.20
448.25	26286.56
448.43	25982.29
448.62	26005.69
448.80	25839.51
448.99	25834.83
449.17	26003.35
449.36	26185.91
449.54	27426.40
449.73	27807.90
449.91	28446.87
450.10	29078.82
450.28	29369.04
450.46	28959.45
450.65	28746.46
450.83	28510.07
451.02	28215.16
451.20	28528.79
451.39	28173.03
451.57	28173.03
451.76	28311.12
451.94	27761.09
452.13	26644.66
452.31	25553.97
452.49	24156.67
452.68	25205.23
452.86	25460.35
453.05	25731.85
453.23	26874.03
453.42	27173.62
453.60	27873.44
453.78	27920.25
453.97	27545.76
454.15	27674.49
454.34	26625.93
454.52	26604.87
454.70	26309.96
454.89	27255.54
455.07	26937.23
455.26	27618.32
455.44	28027.92
455.62	28652.84
455.81	28563.90
455.99	28772.21
456.17	28507.72
456.36	29102.22
456.54	28936.04
456.73	29294.14
456.91	29853.53
457.09	29556.28
457.28	30558.03
457.46	28837.74
457.64	28680.92
457.83	28032.60
458.01	27924.93
458.19	28933.70
458.38	29345.64
458.56	30078.22
458.74	29219.25
458.93	28559.22
459.11	28409.42
459.29	28350.91
459.48	29027.32
459.66	28613.05
459.84	28776.89
460.03	28875.19
460.21	29687.36
460.39	30300.58
460.57	29790.34
460.76	30127.38
460.94	30134.40
461.12	30562.72
461.31	30033.75
461.49	30637.61
461.67	30522.93
461.85	31239.13
462.04	31314.03
462.22	30338.02
462.40	30408.24
462.59	30525.27
462.77	30752.30
462.95	30668.04
463.13	30829.54
463.32	29743.53
463.50	30036.09
463.68	30260.79
463.86	30195.25
464.05	29284.78
464.23	28652.84
464.41	29102.22
464.59	28465.60
464.78	29692.04
464.96	28917.32
465.14	28765.18
465.32	30513.56
465.50	31519.99
465.69	32037.25
465.87	30749.96
466.05	29837.15
466.23	28793.27
466.41	27967.06
466.60	29064.77
466.78	28430.49
466.96	29027.32
467.14	29495.43
467.32	30022.05
467.51	29598.41
467.69	28177.71
467.87	29635.86
468.05	30087.59
468.23	30087.59
468.41	29799.70
468.60	30277.17
468.78	30546.33
468.96	30459.73
469.14	31232.11
469.32	31302.32
469.50	29235.63
469.69	29895.66
469.87	29027.32
470.05	28739.44
470.23	28966.47
470.41	29301.17
470.59	29193.50
470.77	29865.24
470.95	30244.40
471.14	30476.12
471.32	30817.83
471.50	32690.26
471.68	32573.24
471.86	33046.02
472.04	32826.01
472.22	33013.26
472.40	30644.63
472.58	31133.81
472.77	30703.15
472.95	31548.08
473.13	32407.06
473.31	31377.22
473.49	32432.80
473.67	32353.23
473.85	33006.23
474.03	33909.68
474.21	34272.46
474.39	33837.12
474.57	33560.94
474.75	34373.11
474.93	33301.14
475.12	32748.78
475.30	32980.49
475.48	32451.53
475.66	33675.63
475.84	32818.99
476.02	33448.60
476.20	32130.87
476.38	32989.85
476.56	34024.37
476.74	34623.54
476.92	35033.14
477.10	35009.73
477.28	36505.34
477.46	36524.06
477.64	36723.01
477.82	36823.65
478.00	36446.82
478.18	36547.47
478.36	35775.09
478.54	36404.69
478.72	37067.06
478.90	37787.95
479.08	39098.65
479.26	39271.85
479.44	39641.65
479.62	39047.16
479.80	39225.04
479.98	38890.34
480.16	39093.97
480.34	38792.04
480.52	39686.12
480.70	38930.13
480.88	39431.01
481.06	39889.75
481.24	40165.93
481.41	41383.01
481.59	42232.63
481.77	40884.48
481.95	40552.12
482.13	40744.05
482.31	41567.91
482.49	42227.95
482.67	41436.84
482.85	41413.44
483.03	41825.37
483.21	42579.03
483.39	43023.73
483.57	42057.09
483.74	41745.80
483.92	41528.13
484.10	41876.86
484.28	42288.80
484.46	42693.71
484.64	44179.95
484.82	42857.55
485.00	42494.77
485.18	41715.37
485.35	39985.71
485.53	34998.03
485.71	32332.16
485.89	33516.47
486.07	36414.05
486.25	38572.03
486.43	40605.95
486.61	41137.26
486.78	40884.48
486.96	42433.91
487.14	43246.08
487.32	45003.82
487.50	45347.88
487.68	46188.13
487.85	46979.23
488.03	46504.10
488.21	45390.01
488.39	44809.56
488.57	43707.16
488.75	44273.57
488.92	45698.96
489.10	48168.22
489.28	48608.25
489.46	49984.48
489.64	49879.16
489.81	50197.47
489.99	49780.85
490.17	49584.25
490.35	49958.73
490.53	49523.40
490.70	49308.07
490.88	49066.99
491.06	50862.18
491.24	51168.79
491.41	49514.03
491.59	47718.84
491.77	46768.58
491.95	48325.04
492.13	50218.53
492.30	51054.11
492.48	52025.43
492.66	51978.62
492.84	51334.97
493.01	51573.70
493.19	51409.87
493.37	50525.14
493.54	50873.88
493.72	52067.56
493.90	52980.37
494.08	53495.28
494.25	53511.67
494.43	53869.77
494.61	54160.00
494.79	54295.75
494.96	54286.39
495.14	53937.65
495.32	52271.18
495.49	52439.70
495.67	53364.21
495.85	54295.75
496.02	55049.40
496.20	54188.08
496.38	53668.48
496.55	53815.94
496.73	54686.62
496.91	55192.17
497.09	55348.99
497.26	56004.34
497.44	54915.99
497.62	53947.01
497.79	53626.35
497.97	52425.66
498.14	52931.22
498.32	54262.98
498.50	54670.23
498.67	54644.49
498.85	54459.58
499.03	54937.05
499.20	55213.24
499.38	54742.79
499.56	53879.13
499.73	53984.46
499.91	54096.80
500.08	53022.50
500.26	52739.29
500.44	53666.14
500.61	54452.56
500.79	53862.75
500.97	53722.32
501.14	53036.54
501.32	52353.10
501.49	52528.64
501.67	53457.84
501.84	54085.10
502.02	54382.35
502.20	55035.36
502.37	54904.29
502.55	55388.78
502.72	56104.98
502.90	56329.67
503.07	55735.18
503.25	54801.30
503.43	53689.55
503.60	53612.31
503.78	53354.85
503.95	53797.21
504.13	55077.49
504.30	56119.02
504.48	55559.64
504.65	55458.99
504.83	55508.14
505.01	56317.97
505.18	56308.61
505.36	57162.90
505.53	57034.17
505.71	56736.93
505.88	57200.35
506.06	56832.89
506.23	56158.81
506.41	55849.86
506.58	56175.20
506.76	56175.20
506.93	55721.13
507.11	55646.24
507.28	55842.84
507.46	54894.92
507.63	55009.61
507.81	54504.06
507.98	55056.42
508.16	56196.26
508.33	56577.77
508.50	56430.32
508.68	56935.87
508.85	57354.83
509.03	57616.97
509.20	57235.46
509.38	56350.74
509.55	56552.02
509.73	56456.06
509.90	56596.49
510.08	56516.92
510.25	56254.78
510.42	55899.01
510.60	56207.97
510.77	56856.29
510.95	56797.78
511.12	57125.46
511.30	58108.48
511.47	58447.86
511.64	57897.83
511.82	57869.75
511.99	56357.76
512.17	56474.79
512.34	56046.47
512.51	56355.42
512.69	56535.64
512.86	55992.64
513.04	56418.61
513.21	56060.51
513.38	55346.65
513.56	55128.98
513.73	54803.64
513.90	55980.93
514.08	55821.78
514.25	55554.96
514.43	56184.56
514.60	55875.61
514.77	56409.25
514.95	56678.41
515.12	56549.68
515.29	56844.59
515.47	57694.21
515.64	57303.34
515.81	56933.53
515.99	55772.63
516.16	53698.91
516.33	51391.14
516.51	51140.71
516.68	49757.45
516.85	48680.80
517.03	50251.30
517.20	53336.13
517.37	55774.97
517.54	56605.86
517.72	55253.03
517.89	52156.50
518.06	50539.19
518.24	51880.31
518.41	53825.30
518.58	55587.72
518.75	55458.99
518.93	55011.95
519.10	54597.68
519.27	55739.86
519.45	56289.88
519.62	57361.85
519.79	56893.74
519.96	56371.80
520.14	56568.41
520.31	55264.73
520.48	55337.29
520.65	56065.19
520.83	57345.47
521.00	56678.41
521.17	56165.84
521.34	56406.91
521.52	57638.03
521.69	57387.60
521.86	57621.65
522.03	57296.31
522.20	55524.53
522.38	55058.76
522.55	55159.41
522.72	55636.87
522.89	55288.13
523.07	56324.99
523.24	56919.49
523.41	57446.11
523.58	57874.43
523.75	57869.75
523.92	58220.83
524.10	57635.69
524.27	57027.15
524.44	56575.43
524.61	56212.65
524.78	56615.22
524.96	56968.64
525.13	57031.83
525.30	58145.93
525.47	58209.12
525.64	58080.39
525.81	56783.74
525.98	54953.44
526.16	53579.54
526.33	53584.22
526.50	52889.09
526.67	53113.78
526.84	54190.42
527.01	54974.50
527.18	55723.47
527.36	56175.20
527.53	57116.09
527.70	56793.10
527.87	55377.08
528.04	56212.65
528.21	56851.61
528.38	57509.30
528.55	58714.68
528.72	58202.10
528.89	57705.91
529.07	57649.74
529.24	56170.52
529.41	56378.82
529.58	56332.01
529.75	56896.08
529.92	57492.92
530.09	57432.07
530.26	57792.51
530.43	58515.73
530.60	57818.25
530.77	58251.25
530.94	58623.40
531.11	57572.50
531.28	57392.28
531.46	57588.88
531.63	57509.30
531.80	57064.60
531.97	56825.87
532.14	56566.07
532.31	55220.26
532.48	54298.09
532.65	54569.59
532.82	55370.05
532.99	57329.08
533.16	57528.03
533.33	57764.42
533.50	57581.86
533.67	56910.13
533.84	56821.19
534.01	57174.61
534.18	57043.54
534.35	56797.78
534.52	56247.75
534.69	56720.54
534.86	57329.08
535.03	57867.40
535.20	58335.51
535.37	58585.95
535.54	58885.54
535.71	57907.19
535.88	57759.74
536.05	56786.08
536.22	56334.35
536.38	56397.55
536.55	55882.63
536.72	55196.85
536.89	56088.60
537.06	56296.91
537.23	56472.45
537.40	56402.23
537.57	56411.59
537.74	56626.92
537.91	56537.98
538.08	56453.72
538.25	57118.43
538.42	57577.18
538.59	56985.02
538.75	56369.46
538.92	55407.50
539.09	55859.23
539.26	55803.05
539.43	55817.10
539.60	55093.87
539.77	56142.43
539.94	55676.66
540.11	55077.49
540.28	54805.98
540.44	54754.49
540.61	54733.43
540.78	54798.96
540.95	55168.77
541.12	55828.80
541.29	56477.13
541.46	55983.27
541.62	56324.99
541.79	55608.79
541.96	55278.77
542.13	55831.14
542.30	55746.88
542.47	55976.25
542.63	55643.90
542.80	55576.02
542.97	54621.08
543.14	55105.57
543.31	55725.81
543.48	56348.40
543.64	56760.33
543.81	57495.26
543.98	57380.57
544.15	56584.79
544.32	56711.18
544.48	56065.19
544.65	55835.82
544.82	56633.94
544.99	55356.01
545.16	54883.22
545.32	55393.46
545.49	56149.45
545.66	56266.48
545.83	56142.43
546.00	56376.48
546.16	55824.12
546.33	55250.69
546.50	55618.15
546.67	56381.16
546.83	56247.75
547.00	56184.56
547.17	54717.04
547.34	54143.61
547.50	53956.37
547.67	54838.75
547.84	55718.79
548.00	56264.14
548.17	55753.90
548.34	56243.07
548.51	56385.85
548.67	55866.25
548.84	55831.14
549.01	56135.41
549.18	55662.62
549.34	55688.37
549.51	56147.11
549.68	56472.45
549.84	55550.27
550.01	54897.27
550.18	54937.05
550.34	55145.36
550.51	55138.34
550.68	55498.78
550.84	56214.99
551.01	54906.63
551.18	54974.50
551.34	55042.38
551.51	55655.60
551.68	55948.17
551.84	56690.12
552.01	55470.70
552.18	55217.92
552.34	54553.21
552.51	54078.08
552.68	54080.42
552.84	55037.70
553.01	54803.64
553.18	54915.99
553.34	54920.67
553.51	55119.62
553.67	55505.80
553.84	55550.27
554.01	55899.01
554.17	55229.62
554.34	55241.32
554.51	54953.44
554.67	54600.02
554.84	54712.36
555.00	54057.01
555.17	54700.66
555.33	54391.71
555.50	53785.51
555.67	54578.95
555.83	54344.90
556.00	53930.62
556.16	53860.41
556.33	53895.52
556.50	54260.64
556.66	53942.33
556.83	53485.92
556.99	53317.40
557.16	53872.11
557.32	53380.60
557.49	54417.46
557.65	53958.71
557.82	54698.32
557.98	54602.36
558.15	53270.59
558.32	53071.65
558.48	52076.92
558.65	51784.35
558.81	52222.03
558.98	53354.85
559.14	53183.99
559.31	53535.07
559.47	52851.64
559.64	52861.00
559.80	52287.57
559.97	53001.43
560.13	53624.01
560.30	54801.30
560.46	54983.86
560.63	55302.18
560.79	55175.79
560.96	54244.26
561.12	53497.62
561.29	53076.33
561.45	53195.70
561.61	54412.77
561.78	53256.55
561.94	53436.77
562.11	53116.12
562.27	52481.83
562.44	53787.85
562.60	53989.14
562.77	54120.21
562.93	53759.76
563.10	53837.00
563.26	53481.24
563.42	53785.51
563.59	53399.32
563.75	53214.42
563.92	52954.62
564.08	53118.46
564.24	54010.20
564.41	52222.03
564.57	54279.36
564.74	53492.94
564.90	52919.51
565.07	52097.98
565.23	51484.76
565.39	51089.21
565.56	51236.67
565.72	52016.07
565.88	51416.89
566.05	53006.11
566.21	52538.01
566.38	52521.62
566.54	53497.62
566.70	53949.35
566.87	53464.86
567.03	53195.70
567.19	54490.01
567.36	54543.84
567.52	52949.94
567.68	51971.60
567.85	51627.54
568.01	51632.22
568.17	51503.49
568.34	52172.88
568.50	51452.00
568.66	51220.28
568.83	50946.44
568.99	50731.11
569.15	50958.14
569.32	51023.68
569.48	51297.52
569.64	51166.45
569.81	50808.35
569.97	50698.34
570.13	49694.25
570.30	49247.21
570.46	48910.17
570.62	48364.83
570.78	49340.83
570.95	49287.00
571.11	50167.04
571.27	49780.85
571.43	50211.51
571.60	50344.92
571.76	50951.12
571.92	51171.13
572.09	51634.56
572.25	50738.13
572.41	50775.58
572.57	51054.11
572.74	51938.83
572.90	52093.30
573.06	52126.07
573.22	52182.24
573.38	52287.57
573.55	53015.47
573.71	51709.46
573.87	51257.73
574.03	51423.91
574.20	50426.84
574.36	50075.76
574.52	50188.11
574.68	50234.92
574.84	49120.82
575.01	49041.24
575.17	48858.68
575.33	49942.35
575.49	49670.85
575.65	48739.32
575.82	49298.70
575.98	49673.19
576.14	50696.00
576.30	50873.88
576.46	49710.64
576.62	50042.99
576.79	49769.15
576.95	50351.94
577.11	50230.24
577.27	49345.51
577.43	50279.39
577.59	49420.41
577.75	48633.99
577.92	48577.82
578.08	48694.85
578.24	48512.28
578.40	48458.45
578.56	47533.94
578.72	47882.68
578.88	48329.72
579.04	48364.83
579.21	48158.86
579.37	48451.43
579.53	48767.40
579.69	48065.24
579.85	48116.73
580.01	48437.39
580.17	48011.41
580.33	49333.81
580.49	49284.66
580.65	48020.77
580.82	48877.41
580.98	49120.82
581.14	48760.38
581.30	48065.24
581.46	47866.30
581.62	48734.63
581.78	49549.14
581.94	49666.17
582.10	49661.49
582.26	49270.62
582.42	49780.85
582.58	48409.30
582.74	48456.11
582.90	48198.65
583.06	49399.35
583.22	49008.48
583.38	49244.87
583.54	49036.56
583.70	49254.23
583.86	49525.74
584.02	47863.96
584.18	48020.77
584.34	47938.85
584.50	47356.06
584.66	48041.84
584.82	47573.73
584.98	48027.79
585.14	47056.47
585.30	46635.17
