SpectraSuite Data File
++++++++++++++++++++++++++++++++++++
Date: Mon Oct 07 14:53:43 GMT-05:00 2013
User: price-jones
Dark Spectrum Present: No
Reference Spectrum Present: No
Number of Sampled Component Spectra: 1
Spectrometers: USB2+H05261
Integration Time (usec): 100000 (USB2+H05261)
Spectra Averaged: 1 (USB2+H05261)
Boxcar Smoothing: 0 (USB2+H05261)
Correct for Electrical Dark: No (USB2+H05261)
Strobe/Lamp Enabled: No (USB2+H05261)
Correct for Detector Non-linearity: No (USB2+H05261)
Correct for Stray Light: No (USB2+H05261)
Number of Pixels in Processed Spectrum: 2048
>>>>>Begin Processed Spectral Data<<<<<
365.73	0.00
365.92	0.00
366.12	0.00
366.32	0.00
366.52	0.00
366.72	0.00
366.91	0.00
367.11	0.00
367.31	0.00
367.51	0.00
367.70	0.00
367.90	0.00
368.10	0.00
368.30	0.00
368.49	0.00
368.69	0.00
368.89	0.00
369.09	0.00
369.28	0.00
369.48	0.00
369.68	0.00
369.87	0.00
370.07	0.00
370.27	0.00
370.47	830.89
370.66	3758.90
370.86	4168.49
371.06	4622.56
371.25	4578.09
371.45	4121.68
371.65	3728.47
371.84	3527.19
372.04	3742.52
372.24	4334.67
372.44	4351.06
372.63	4393.19
372.83	4079.55
373.03	3552.93
373.22	3246.32
373.42	3440.59
373.62	3927.42
373.81	4379.14
374.01	4388.50
374.21	3873.59
374.40	3620.81
374.60	3686.34
374.79	4262.12
374.99	4983.00
375.19	5322.38
375.38	5256.84
375.58	4954.91
375.78	4905.76
375.97	4957.25
376.17	5174.92
376.37	5158.54
376.56	5476.85
376.76	5788.14
376.95	5937.94
377.15	6324.13
377.35	6539.46
377.54	6810.96
377.74	7052.03
377.93	6892.88
378.13	6967.77
378.33	6626.06
378.52	6118.16
378.72	5921.56
378.91	5757.72
379.11	5568.13
379.31	5315.36
379.50	5397.28
379.70	5874.74
379.89	6434.13
380.09	6806.28
380.28	6991.18
380.48	6958.41
380.68	6825.00
380.87	6764.15
381.07	6237.53
381.26	5715.59
381.46	5413.66
381.65	5254.50
381.85	5032.15
382.04	4716.18
382.24	4573.41
382.43	4294.88
382.63	4154.45
382.83	4358.08
383.02	4161.47
383.22	4269.14
383.41	4262.12
383.61	4535.96
383.80	5093.01
384.00	5792.83
384.19	6682.23
384.39	7098.84
384.58	6890.54
384.78	6911.60
384.97	6752.45
385.17	6413.07
385.36	6122.84
385.56	5860.70
385.75	6008.16
385.95	6539.46
386.14	7061.40
386.34	7225.23
386.53	6740.74
386.72	6431.79
386.92	6394.34
387.11	6883.52
387.31	7183.10
387.50	6956.07
387.70	6860.11
387.89	6693.93
388.09	6642.44
388.28	6906.92
388.48	6799.26
388.67	7332.90
388.86	8035.06
389.06	8655.30
389.25	9107.02
389.45	9334.06
389.64	9121.07
389.84	9097.66
390.03	8961.91
390.22	9006.38
390.42	9296.61
390.61	9643.01
390.81	10597.95
391.00	10691.57
391.19	10532.41
391.39	10251.55
391.58	9774.08
391.78	9046.17
391.97	8833.18
392.16	8327.63
392.36	7552.91
392.55	6181.35
392.75	4730.22
392.94	3859.54
393.13	3925.08
393.33	4458.72
393.52	5743.67
393.71	7314.17
393.91	8257.41
394.10	8667.00
394.29	9745.99
394.49	10370.91
394.68	11162.01
394.88	11243.93
395.07	11667.57
395.26	11534.16
395.46	11339.90
395.65	10607.31
395.84	9345.76
396.04	7730.79
396.23	6279.66
396.42	5406.64
396.62	5156.20
396.81	5905.17
397.00	7541.21
397.19	9397.25
397.39	11293.08
397.58	12774.64
397.77	13561.06
397.97	13949.59
398.16	14253.86
398.35	14703.25
398.55	15234.55
398.74	15941.39
398.93	16224.59
399.12	15791.59
399.32	15440.51
399.51	15543.50
399.70	16596.74
399.90	16720.79
400.09	16308.85
400.28	16285.45
400.47	16500.78
400.67	17406.56
400.86	17701.47
401.05	17687.43
401.24	17928.50
401.44	17987.02
401.63	18298.31
401.82	18361.50
402.01	18242.14
402.21	18450.44
402.40	18396.61
402.59	17996.38
402.78	17579.76
402.97	16538.23
403.17	17261.45
403.36	18434.06
403.55	19367.93
403.74	19564.54
403.93	18579.17
404.13	17067.19
404.32	16519.50
404.51	17605.51
404.70	18902.17
404.89	19030.90
405.09	18452.78
405.28	18169.58
405.47	17867.65
405.66	18038.51
405.85	17706.15
406.05	17233.36
406.24	17069.53
406.43	18071.28
406.62	18658.75
406.81	18958.34
407.00	18169.58
407.20	17605.51
407.39	17963.61
407.58	18686.84
407.77	19377.30
407.96	20006.90
408.15	20273.72
408.34	20365.00
408.54	21406.54
408.73	21418.24
408.92	20957.16
409.11	20416.49
409.30	19711.99
409.49	18658.75
409.68	17247.41
409.87	16194.17
410.07	17860.63
410.26	19014.51
410.45	20187.12
410.64	20737.15
410.83	21266.11
411.02	21713.15
411.21	22946.61
411.40	22288.92
411.59	22710.22
411.78	22518.29
411.98	22094.66
412.17	22890.44
412.36	21923.80
412.55	22178.92
412.74	21965.93
412.93	21109.29
413.12	21678.04
413.31	23527.06
413.50	23817.29
413.69	24065.39
413.88	23056.62
414.07	22558.08
414.26	22939.59
414.45	23616.01
414.64	23875.80
414.83	23594.94
415.02	23105.77
415.22	23126.83
415.41	24156.67
415.60	24723.08
415.79	25359.70
415.98	26001.01
416.17	26129.74
416.36	25647.59
416.55	25099.90
416.74	24573.28
416.93	23262.58
417.12	23747.08
417.31	23950.70
417.50	24254.97
417.69	25289.49
417.88	25092.88
418.07	24655.20
418.26	24341.57
418.45	24400.08
418.64	25439.28
418.83	26527.63
419.02	25752.91
419.21	25755.26
419.39	24479.66
419.58	23428.76
419.77	23449.83
419.96	24891.60
420.15	25661.63
420.34	26782.75
420.53	27498.95
420.72	28198.77
420.91	27798.54
421.10	27220.43
421.29	27077.66
421.48	26272.51
421.67	27587.89
421.86	27372.57
422.05	25156.08
422.24	22696.17
422.43	22022.10
422.61	24730.10
422.80	26565.08
422.99	27051.91
423.18	26045.48
423.37	24943.09
423.56	25181.82
423.75	25582.06
423.94	26134.42
424.13	25057.78
424.32	24863.51
424.50	25315.23
424.69	24435.19
424.88	25032.03
425.07	25123.31
425.26	24737.12
425.45	24599.03
425.64	24025.60
425.83	23711.97
426.01	25235.66
426.20	26300.60
426.39	26029.10
426.58	24233.91
426.77	22265.52
426.96	21371.43
427.15	22057.21
427.33	24184.76
427.52	25315.23
427.71	25233.32
427.90	24889.26
428.09	24931.39
428.28	24205.82
428.46	23154.92
428.65	22970.02
428.84	23578.56
429.03	23777.50
429.22	22672.77
429.40	21647.61
429.59	19583.26
429.78	17146.76
429.97	17298.90
430.16	17788.07
430.34	17881.69
430.53	17603.17
430.72	17951.91
430.91	19644.12
431.10	22768.73
431.28	27688.54
431.47	29750.55
431.66	30134.40
431.85	27173.62
432.03	25221.61
432.22	24149.65
432.41	24980.54
432.60	27899.19
432.79	28898.59
432.97	29670.97
433.16	28879.87
433.35	26307.62
433.54	23885.17
433.72	22216.36
433.91	23009.81
434.10	26120.38
434.28	27534.06
434.47	28837.74
434.66	28610.71
434.85	27927.27
435.03	27721.30
435.22	28371.97
435.41	30338.02
435.59	30295.89
435.78	30246.74
435.97	31098.70
436.16	31793.84
436.34	31077.63
436.53	30445.69
436.72	30609.53
436.90	29039.03
437.09	28835.40
437.28	28194.09
437.46	28814.34
437.65	29385.43
437.84	27379.59
438.02	24994.58
438.21	24861.17
438.40	26178.89
438.58	28531.13
438.77	29097.54
438.96	29457.98
439.14	30499.52
439.33	31639.36
439.52	31723.62
439.70	31405.31
439.89	30497.18
440.08	30008.01
440.26	29465.00
440.45	30749.96
440.63	32381.31
440.82	33867.55
441.01	33897.98
441.19	33551.58
441.38	33820.74
441.57	35433.37
441.75	35667.42
441.94	35988.08
442.12	35503.59
442.31	36460.87
442.50	36453.84
442.68	35709.55
442.87	35014.41
443.05	34925.47
443.24	35257.83
443.43	36231.49
443.61	36818.97
443.80	37177.07
443.98	35026.12
444.17	34848.24
444.35	37170.05
444.54	37745.82
444.73	37291.76
444.91	35845.30
445.10	34230.33
445.28	32758.14
445.47	32886.87
445.65	32645.79
445.84	33343.27
446.02	34415.24
446.21	35164.21
446.39	35594.87
446.58	36058.29
446.77	35798.49
446.95	36603.64
447.14	37675.60
447.32	38185.84
447.51	37432.19
447.69	36385.97
447.88	35534.01
448.06	36151.91
448.25	36996.85
448.43	37689.65
448.62	36362.56
448.80	36123.83
448.99	37090.47
449.17	36989.83
449.36	36739.39
449.54	38398.83
449.73	38845.87
449.91	39028.43
450.10	40327.43
450.28	40697.24
450.46	40521.69
450.65	40390.62
450.83	40229.13
451.02	39126.74
451.20	39154.82
451.39	38990.98
451.57	39154.82
451.76	38857.57
451.94	38862.26
452.13	38148.39
452.31	36580.23
452.49	34925.47
452.68	35260.17
452.86	35145.48
453.05	35555.08
453.23	36793.22
453.42	37574.96
453.60	38354.36
453.78	39047.16
453.97	38181.16
454.15	38541.60
454.34	37460.27
454.52	38026.68
454.70	37558.58
454.89	37448.57
455.07	37219.20
455.26	38157.75
455.44	39765.70
455.62	39952.94
455.81	40484.25
455.99	40172.96
456.17	39178.23
456.36	39636.97
456.54	40914.90
456.73	40914.90
456.91	41221.52
457.09	41911.97
457.28	42457.32
457.46	41041.29
457.64	40662.13
457.83	39676.76
458.01	38511.17
458.19	39611.23
458.38	40109.76
458.56	40622.34
458.74	40914.90
458.93	40446.80
459.11	40076.99
459.29	40076.99
459.48	40093.38
459.66	39402.92
459.84	40498.29
460.03	40865.75
460.21	40671.49
460.39	41808.99
460.57	41893.25
460.76	41839.42
460.94	42113.26
461.12	41598.34
461.31	41514.08
461.49	42012.62
461.67	41759.84
461.85	43196.93
462.04	42569.66
462.22	42876.27
462.40	42490.09
462.59	42445.62
462.77	42150.71
462.95	42450.30
463.13	41989.21
463.32	42270.08
463.50	41600.68
463.68	41675.58
463.86	41724.73
464.05	40999.16
464.23	40423.39
464.41	39924.86
464.59	39810.17
464.78	41268.33
464.96	41333.86
465.14	40648.08
465.32	41986.87
465.50	42803.72
465.69	43744.61
465.87	42387.10
466.05	41280.03
466.23	39821.87
466.41	38684.37
466.60	39587.82
466.78	39824.22
466.96	40589.57
467.14	40706.60
467.32	41851.12
467.51	41867.50
467.69	39966.99
467.87	40861.07
468.05	41366.63
468.23	41092.79
468.41	41907.29
468.60	41528.13
468.78	41687.28
468.96	41439.18
469.14	41813.67
469.32	42450.30
469.50	40526.38
469.69	41020.23
469.87	40407.01
470.05	40105.08
470.23	40187.00
470.41	40184.66
470.59	40648.08
470.77	41043.63
470.95	41680.26
471.14	42550.94
471.32	42307.52
471.50	44261.87
471.68	44533.37
471.86	44741.68
472.04	45675.55
472.22	45275.32
472.40	43143.09
472.58	43002.66
472.77	42387.10
472.95	43349.06
473.13	44374.22
473.31	43061.18
473.49	43665.03
473.67	43868.66
473.85	44519.33
474.03	45460.23
474.21	45778.54
474.39	46153.02
474.57	45682.58
474.75	46134.30
474.93	45923.65
475.12	44968.71
475.30	45050.63
475.48	45219.15
475.66	45722.37
475.84	45277.66
476.02	44807.22
476.20	44282.94
476.38	45055.31
476.56	46146.00
476.74	47061.15
476.92	46845.82
477.10	47667.35
477.28	48692.50
477.46	48849.32
477.64	49015.50
477.82	48884.43
478.00	49413.39
478.18	48858.68
478.36	48985.07
478.54	48563.78
478.72	48502.92
478.90	49815.96
479.08	50555.57
479.26	50986.23
479.44	50997.93
479.62	51105.60
479.80	50646.85
479.98	50876.22
480.16	51297.52
480.34	50986.23
480.52	51220.28
480.70	51353.69
480.88	51313.90
481.06	52210.33
481.24	52238.42
481.41	53193.36
481.59	53373.58
481.77	53378.26
481.95	52809.51
482.13	52631.63
482.31	52921.85
482.49	53432.09
482.67	53076.33
482.85	53450.81
483.03	53932.96
483.21	54190.42
483.39	54047.65
483.57	53396.98
483.74	53296.34
483.92	53450.81
484.10	53631.04
484.28	54461.93
484.46	54611.72
484.64	54836.41
484.82	54475.97
485.00	54052.33
485.18	53179.31
485.35	52243.10
485.53	49595.95
485.71	46227.92
485.89	45516.40
486.07	47613.52
486.25	50475.99
486.43	52460.77
486.61	53155.91
486.78	53052.92
486.96	53186.33
487.14	54237.23
487.32	55070.46
487.50	55763.26
487.68	56657.35
487.85	56942.89
488.03	57027.15
488.21	56371.80
488.39	56072.21
488.57	55503.46
488.75	55150.04
488.92	56226.69
489.10	57687.18
489.28	59028.31
489.46	59360.67
489.64	59220.23
489.81	59503.44
489.99	59096.19
490.17	59341.94
490.35	59372.37
490.53	59215.55
490.70	58745.11
490.88	58578.93
491.06	59594.72
491.24	59508.12
491.41	58501.69
491.59	57338.44
491.77	56655.01
491.95	57616.97
492.13	58583.61
492.30	59458.97
492.48	60264.11
492.66	60739.24
492.84	60559.02
493.01	60308.58
493.19	60001.97
493.37	59824.09
493.54	59618.13
493.72	59990.27
493.90	60769.67
494.08	61443.74
494.25	61572.47
494.43	61893.13
494.61	62314.42
494.79	62150.59
494.96	62230.16
495.14	61570.13
495.32	60919.46
495.49	60322.63
495.67	61235.44
495.85	62143.56
496.02	62599.97
496.20	62564.86
496.38	62078.03
496.55	61860.36
496.73	62370.60
496.91	62585.92
497.09	63100.84
497.26	63288.09
497.44	62649.12
497.62	62475.92
497.79	61748.01
497.97	60631.58
498.14	60673.71
498.32	61490.55
498.50	62340.17
498.67	62962.75
498.85	62887.85
499.03	62974.45
499.20	63135.95
499.38	63231.91
499.56	62958.07
499.73	62688.91
499.91	62307.40
500.08	61902.49
500.26	61254.16
500.44	61694.18
500.61	62216.12
500.79	62173.99
500.97	61731.63
501.14	61380.55
501.32	61446.08
501.49	61471.83
501.67	61740.99
501.84	62251.23
502.02	62337.83
502.20	62702.95
502.37	62899.56
502.55	62801.25
502.72	63339.58
502.90	63669.59
503.07	63386.39
503.25	63178.08
503.43	62438.47
503.60	61619.28
503.78	61228.41
503.95	61574.81
504.13	62911.26
504.30	63472.99
504.48	63281.06
504.65	63035.31
504.83	63075.10
505.01	63681.30
505.18	63931.73
505.36	64432.61
505.53	64423.25
505.71	64694.75
505.88	64842.20
506.06	64243.02
506.23	63978.54
506.41	63561.93
506.58	63889.60
506.76	63737.47
506.93	63943.44
507.11	63487.03
507.28	63674.27
507.46	63229.57
507.63	62709.97
507.81	62688.91
507.98	62815.30
508.16	63379.37
508.33	63941.10
508.50	64285.15
508.68	64420.90
508.85	64870.29
509.03	64905.40
509.20	64811.77
509.38	64142.38
509.55	63337.24
509.73	63554.91
509.90	64240.68
510.08	64353.03
510.25	64144.72
510.42	64062.80
510.60	63898.97
510.77	64259.41
510.95	64577.72
511.12	64680.70
511.30	64999.02
511.47	65130.09
511.64	65183.92
511.82	65015.40
511.99	64257.07
512.17	63821.73
512.34	63510.44
512.51	63636.83
512.69	63770.24
512.86	63784.28
513.04	64221.96
513.21	64324.94
513.38	63852.15
513.56	63407.45
513.73	62941.69
513.90	63110.20
514.08	63290.43
514.25	63632.14
514.43	63648.53
514.60	63756.19
514.77	63793.64
514.95	63835.77
515.12	63817.05
515.29	64163.45
515.47	64570.70
515.64	64664.32
515.81	64402.18
515.99	63655.55
516.16	62731.04
516.33	60706.47
516.51	59608.76
516.68	58918.31
516.85	58588.29
517.03	58695.95
517.20	60814.14
517.37	63098.50
517.54	64001.95
517.72	63597.04
517.89	61574.81
518.06	59407.48
518.24	59767.92
518.41	61586.52
518.58	62721.68
518.75	62997.86
518.93	62953.39
519.10	62834.02
519.27	63192.12
519.45	63571.29
519.62	64163.45
519.79	64369.41
519.96	64336.65
520.14	63908.33
520.31	63201.49
520.48	63140.63
520.65	63550.23
520.83	64331.96
521.00	64631.55
521.17	64367.07
521.34	64006.63
521.52	64069.82
521.69	64842.20
521.86	65193.28
522.03	64912.42
522.20	63831.09
522.38	62939.35
522.55	62932.32
522.72	63409.79
522.89	63636.83
523.07	63845.13
523.24	63966.84
523.41	64690.07
523.58	65031.78
523.75	65424.99
523.92	65071.57
524.10	65240.09
524.27	65261.16
524.44	65146.47
524.61	64807.09
524.78	64725.17
524.96	64650.28
525.13	64821.14
525.30	64886.67
525.47	65359.46
525.64	65410.95
525.81	64800.07
525.98	63402.77
526.16	61972.70
526.33	61511.62
526.50	61448.42
526.67	60917.12
526.84	61523.32
527.01	62328.47
527.18	63075.10
527.36	63711.72
527.53	64587.08
527.70	65024.76
527.87	64303.88
528.04	64051.10
528.21	64472.40
528.38	64980.29
528.55	65499.89
528.72	65535.00
528.89	65535.00
529.07	65535.00
529.24	65151.15
529.41	64547.29
529.58	63880.24
529.75	64165.79
529.92	64486.44
530.09	64633.89
530.26	65340.74
530.43	65413.29
530.60	65464.78
530.77	65535.00
530.94	65535.00
531.11	65462.44
531.28	65045.83
531.46	64898.37
531.63	65010.72
531.80	64818.80
531.97	64566.02
532.14	63828.75
532.31	62960.41
532.48	62489.96
532.65	62405.70
532.82	63260.00
532.99	64247.71
533.16	64437.29
533.33	65055.19
533.50	64767.30
533.67	64278.13
533.84	63835.77
534.01	64039.40
534.18	64168.13
534.35	64460.69
534.52	64406.86
534.69	64601.13
534.86	64814.12
535.03	64886.67
535.20	65481.17
535.37	65535.00
535.54	65535.00
535.71	65460.10
535.88	65146.47
536.05	64573.04
536.22	64247.71
536.38	63917.69
536.55	63512.78
536.72	63255.32
536.89	62953.39
537.06	63870.88
537.23	64540.27
537.40	64741.56
537.57	64659.64
537.74	64308.56
537.91	64254.73
538.08	64338.99
538.25	64481.76
538.42	64926.46
538.59	64659.64
538.75	63889.60
538.92	63674.27
539.09	63753.85
539.26	63334.90
539.43	63182.76
539.60	63346.60
539.77	63590.01
539.94	63426.18
540.11	62866.79
540.28	62269.95
540.44	62419.75
540.61	62614.01
540.78	62784.87
540.95	63217.87
541.12	63468.31
541.29	63749.17
541.46	64088.55
541.62	64301.54
541.79	63990.25
541.96	63547.89
542.13	63407.45
542.30	63604.06
542.47	63795.98
542.63	63660.23
542.80	63393.41
542.97	63529.16
543.14	63297.45
543.31	63344.26
543.48	63793.64
543.64	64399.84
543.81	64865.61
543.98	64704.11
544.15	64030.04
544.32	63566.61
544.48	63465.97
544.65	63980.88
544.82	64404.52
544.99	64004.29
545.16	63718.74
545.32	63374.69
545.49	63978.54
545.66	64329.62
545.83	64158.76
546.00	63880.24
546.16	63456.60
546.33	63575.97
546.50	63707.04
546.67	63997.27
546.83	63604.06
547.00	63765.56
547.17	63243.62
547.34	62553.16
547.50	62536.77
547.67	62885.51
547.84	62920.62
548.00	63339.58
548.17	63760.87
548.34	63669.59
548.51	63711.72
548.67	63585.33
548.84	63838.11
549.01	63723.43
549.18	63779.60
549.34	63477.67
549.51	63674.27
549.68	63487.03
549.84	63402.77
550.01	62972.11
550.18	62925.30
550.34	63023.61
550.51	63063.39
550.68	63341.92
550.84	62925.30
551.01	63075.10
551.18	62965.09
551.34	63231.91
551.51	63290.43
551.68	63552.57
551.84	63821.73
552.01	63442.56
552.18	63412.13
552.34	62773.17
552.51	62452.51
552.68	62361.23
552.84	62873.81
553.01	62990.84
553.18	62901.90
553.34	63004.88
553.51	63032.97
553.67	63332.56
553.84	63590.01
554.01	63271.70
554.17	63009.56
554.34	63175.74
554.51	63421.50
554.67	63723.43
554.84	63281.06
555.00	63145.31
555.17	63042.33
555.33	63037.65
555.50	62829.34
555.67	63044.67
555.83	62719.34
556.00	62508.69
556.16	62438.47
556.33	62087.39
556.50	62197.40
556.66	62061.64
556.83	61818.23
556.99	61970.36
557.16	62162.29
557.32	62269.95
557.49	62597.63
557.65	62312.08
557.82	62550.82
557.98	62227.82
558.15	62049.94
558.32	61148.84
558.48	60523.91
558.65	60631.58
558.81	60903.08
558.98	61195.65
559.14	61628.65
559.31	61361.82
559.47	61504.60
559.64	61111.39
559.80	60746.26
559.97	60851.59
560.13	61322.04
560.30	62052.28
560.46	62485.28
560.63	62424.43
560.79	62770.83
560.96	62410.38
561.12	61588.86
561.29	60692.43
561.45	60776.69
561.61	61109.05
561.78	61623.96
561.94	61673.12
562.11	61434.38
562.27	61169.90
562.44	61439.06
562.60	61834.61
562.77	62094.41
562.93	61909.51
563.10	61738.65
563.26	61408.64
563.42	61387.57
563.59	61219.05
563.75	61336.08
563.92	61242.46
564.08	61230.75
564.24	61441.40
564.41	61572.47
564.57	61324.38
564.74	61242.46
564.90	61249.48
565.07	61146.50
565.23	60774.35
565.39	60177.51
565.56	60074.53
565.72	59707.07
565.88	60172.83
566.05	60271.14
566.21	60371.78
566.38	60659.66
566.54	60701.79
566.70	60994.36
566.87	61336.08
567.03	61104.37
567.19	61300.97
567.36	60952.23
567.52	61111.39
567.68	60994.36
567.85	60191.56
568.01	59686.00
568.17	59475.35
568.34	59751.54
568.50	59568.97
568.66	59662.60
568.83	60163.47
568.99	60238.37
569.15	60395.18
569.32	60250.07
569.48	59889.63
569.64	59938.78
569.81	59613.44
569.97	59646.21
570.13	59604.08
570.30	59117.25
570.46	58787.24
570.62	58438.50
570.78	58286.36
570.95	58340.19
571.11	59154.70
571.27	59306.83
571.43	59526.84
571.60	59704.73
571.76	59674.30
571.92	60177.51
572.09	60067.51
572.25	60163.47
572.41	60027.72
572.57	59976.23
572.74	59941.12
572.90	59800.69
573.06	59695.36
573.22	59704.73
573.38	59725.79
573.55	59566.63
573.71	59884.95
573.87	59777.28
574.03	59576.00
574.20	59533.87
574.36	59159.38
574.52	59208.53
574.68	59037.67
574.84	58770.85
575.01	58227.85
575.17	58225.51
575.33	58611.70
575.49	58721.70
575.65	58756.81
575.82	58604.67
575.98	58415.09
576.14	58766.17
576.30	59227.26
576.46	58922.99
576.62	59049.38
576.79	58890.22
576.95	58651.48
577.11	58614.04
577.27	58679.57
577.43	58831.71
577.59	58375.30
577.75	58103.80
577.92	57595.90
578.08	57382.91
578.24	57544.41
578.40	57886.13
578.56	57769.10
578.72	57759.74
578.88	58122.52
579.04	57968.05
579.21	58174.02
579.37	58174.02
579.53	58475.94
579.69	58225.51
579.85	58607.01
580.01	58379.98
580.17	58089.76
580.33	58246.57
580.49	57893.15
580.65	58354.24
580.82	58403.39
580.98	58347.21
581.14	58108.48
581.30	58314.45
581.46	58068.69
581.62	58237.21
581.78	58300.40
581.94	58630.42
582.10	58333.17
582.26	58607.01
582.42	58396.37
582.58	58471.26
582.74	58361.26
582.90	58637.44
583.06	58639.78
583.22	58288.70
583.38	58054.65
583.54	58026.56
583.70	57963.37
583.86	58232.53
584.02	57979.75
584.18	58145.93
584.34	58017.20
584.50	57808.89
584.66	57757.40
584.82	57506.96
584.98	57598.24
585.14	57153.54
