SpectraSuite Data File
++++++++++++++++++++++++++++++++++++
Date: Mon Oct 07 14:53:35 GMT-05:00 2013
User: price-jones
Dark Spectrum Present: No
Reference Spectrum Present: No
Number of Sampled Component Spectra: 1
Spectrometers: USB2+H05261
Integration Time (usec): 100000 (USB2+H05261)
Spectra Averaged: 1 (USB2+H05261)
Boxcar Smoothing: 0 (USB2+H05261)
Correct for Electrical Dark: No (USB2+H05261)
Strobe/Lamp Enabled: No (USB2+H05261)
Correct for Detector Non-linearity: No (USB2+H05261)
Correct for Stray Light: No (USB2+H05261)
Number of Pixels in Processed Spectrum: 2048
>>>>>Begin Processed Spectral Data<<<<<
365.73	0.00
365.92	0.00
366.12	0.00
366.32	0.00
366.52	0.00
366.72	0.00
366.91	0.00
367.11	0.00
367.31	0.00
367.51	0.00
367.70	0.00
367.90	0.00
368.10	0.00
368.30	0.00
368.49	0.00
368.69	0.00
368.89	0.00
369.09	0.00
369.28	0.00
369.48	0.00
369.68	0.00
369.87	0.00
370.07	0.00
370.27	0.00
370.47	667.05
370.66	3503.78
370.86	4032.74
371.06	4475.10
371.25	4475.10
371.45	4086.58
371.65	3796.35
371.84	3368.03
372.04	3508.46
372.24	3953.16
372.44	4227.01
372.63	4039.76
372.83	3838.48
373.03	3386.76
373.22	3166.74
373.42	3363.35
373.62	3864.22
373.81	4152.11
374.01	4159.13
374.21	3730.81
374.40	3447.61
374.60	3541.23
374.79	3960.19
374.99	4634.26
375.19	5025.13
375.38	5142.16
375.58	4873.00
375.78	4718.52
375.97	4826.18
376.17	4908.10
376.37	4954.91
376.56	5011.09
376.76	5446.43
376.95	5888.79
377.15	6153.27
377.35	6162.63
377.54	6668.19
377.74	6771.17
377.93	6729.04
378.13	6675.21
378.33	6483.28
378.52	5905.17
378.72	5689.84
378.91	5643.03
379.11	5327.06
379.31	5142.16
379.50	5067.26
379.70	5652.39
379.89	6167.31
380.09	6590.95
380.28	6792.23
380.48	6663.51
380.68	6619.04
380.87	6373.28
381.07	5907.51
381.26	5542.39
381.46	5029.81
381.65	5057.90
381.85	4812.14
382.04	4643.62
382.24	4418.93
382.43	4060.83
382.63	4124.02
382.83	4063.17
383.02	3934.44
383.22	4102.96
383.41	4039.76
383.61	4442.34
383.80	5046.20
384.00	5614.95
384.19	6319.45
384.39	6803.94
384.58	6459.88
384.78	6387.32
384.97	6499.67
385.17	6029.22
385.36	5820.91
385.56	5577.50
385.75	5902.83
385.95	6324.13
386.14	6803.94
386.34	6925.65
386.53	6478.60
386.72	6153.27
386.92	6328.81
387.11	6363.92
387.31	6932.67
387.50	6656.48
387.70	6469.24
387.89	6291.36
388.09	6490.31
388.28	6321.79
388.48	6654.14
388.67	7129.27
388.86	7803.35
389.06	8416.57
389.25	8938.51
389.45	8959.57
389.64	8697.43
389.84	8772.33
390.03	8645.94
390.22	8755.94
390.42	8835.52
390.61	9551.73
390.81	10209.42
391.00	10342.83
391.19	9956.64
391.39	9790.46
391.58	9373.85
391.78	8938.51
391.97	8545.30
392.16	7866.54
392.36	7438.22
392.55	5954.32
392.75	4671.71
392.94	3808.05
393.13	3698.05
393.33	4411.91
393.52	5643.03
393.71	6726.70
393.91	7744.83
394.10	8503.17
394.29	9153.84
394.49	10033.88
394.68	10913.92
394.88	10782.85
395.07	11215.85
395.26	11124.57
395.46	10836.68
395.65	10197.71
395.84	9027.45
396.04	7548.23
396.23	6019.86
396.42	5233.44
396.62	4975.98
396.81	5767.08
397.00	7304.81
397.19	9186.60
397.39	10895.19
397.58	12379.09
397.77	13011.04
397.97	13591.49
398.16	13778.73
398.35	14326.42
398.55	14682.18
398.74	15225.18
398.93	15555.20
399.12	15037.94
399.32	14609.62
399.51	15122.20
399.70	16248.00
399.90	16098.20
400.09	15836.06
400.28	15639.46
400.47	15920.32
400.67	16552.27
400.86	16889.31
401.05	17212.30
401.24	17310.60
401.44	17226.34
401.63	17448.69
401.82	17296.56
402.01	17537.63
402.21	17792.75
402.40	17898.08
402.59	17432.31
402.78	16381.41
402.97	16269.06
403.17	16744.19
403.36	17750.62
403.55	18366.18
403.74	18855.36
403.93	17869.99
404.13	16393.11
404.32	16051.39
404.51	16917.39
404.70	17869.99
404.89	18492.57
405.09	18164.90
405.28	17343.37
405.47	17458.06
405.66	17397.20
405.85	16912.71
406.05	16477.37
406.24	16655.25
406.43	17202.94
406.62	17860.63
406.81	18017.44
407.00	17582.10
407.20	17310.60
407.39	17158.47
407.58	18286.61
407.77	18546.40
407.96	19262.61
408.15	19396.02
408.34	19503.68
408.54	20563.95
408.73	20451.60
408.92	20294.79
409.11	19784.55
409.30	18871.74
409.49	17713.17
409.68	16486.73
409.87	15765.85
410.07	17083.57
410.26	18302.99
410.45	19592.62
410.64	20231.59
410.83	20638.84
411.02	20999.29
411.21	21984.65
411.40	21926.14
411.59	21809.11
411.78	21603.14
411.98	21301.22
412.17	22054.87
412.36	21331.64
412.55	21458.03
412.74	20835.45
412.93	20336.91
413.12	20606.08
413.31	22366.16
413.50	22689.15
413.69	23215.77
413.88	22244.45
414.07	21699.11
414.26	21834.86
414.45	22775.75
414.64	22754.69
414.83	23152.58
415.02	22476.16
415.22	22705.54
415.41	22934.91
415.60	23538.77
415.79	24526.47
415.98	25165.44
416.17	25413.54
416.36	24662.22
416.55	24467.96
416.74	23388.97
416.93	22757.03
417.12	22689.15
417.31	22946.61
417.50	23147.90
417.69	24013.90
417.88	23782.18
418.07	23534.09
418.26	23538.77
418.45	23484.94
418.64	24151.99
418.83	25261.40
419.02	24809.68
419.21	24821.38
419.39	24011.56
419.58	23042.57
419.77	22717.24
419.96	23583.24
420.15	24971.18
420.34	25549.29
420.53	26663.38
420.72	27197.02
420.91	26670.40
421.10	26614.23
421.29	26181.23
421.48	25319.92
421.67	26628.27
421.86	26204.64
422.05	23969.43
422.24	21579.74
422.43	21516.54
422.61	23564.51
422.80	25553.97
422.99	25813.77
423.18	24737.12
423.37	24243.27
423.56	24559.24
423.75	24709.04
423.94	25336.30
424.13	24004.53
424.32	23964.75
424.50	24093.47
424.69	23943.68
424.88	23981.13
425.07	23824.31
425.26	24304.12
425.45	23580.90
425.64	22843.63
425.83	23204.07
426.01	24580.31
426.20	25310.55
426.39	25003.94
426.58	23335.14
426.77	21509.52
426.96	20840.13
427.15	21392.50
427.33	22920.87
427.52	24147.31
427.71	24142.63
427.90	23903.89
428.09	23906.23
428.28	22920.87
428.46	22640.00
428.65	22024.44
428.84	22539.36
429.03	23087.04
429.22	21785.71
429.40	20893.96
429.59	18576.83
429.78	16589.72
429.97	16720.79
430.16	16985.27
430.34	17057.82
430.53	17008.67
430.72	17708.49
430.91	18993.45
431.10	22434.03
431.28	26553.38
431.47	28800.29
431.66	29340.96
431.85	26555.72
432.03	24372.00
432.22	23110.45
432.41	24142.63
432.60	26778.07
432.79	27931.95
432.97	28528.79
433.16	27847.69
433.35	25568.01
433.54	23037.89
433.72	21355.05
433.91	22118.06
434.10	24622.44
434.28	26522.95
434.47	28290.06
434.66	27524.70
434.85	26726.58
435.03	26558.06
435.22	27201.71
435.41	29355.00
435.59	28896.25
435.78	29385.43
435.97	29984.60
436.16	30471.43
436.34	30064.18
436.53	29053.07
436.72	29504.79
436.90	27948.34
437.09	27777.48
437.28	27213.41
437.46	28088.77
437.65	27920.25
437.84	26511.25
438.02	24142.63
438.21	23740.05
438.40	25039.05
438.58	27601.94
438.77	28004.51
438.96	28512.41
439.14	29666.29
439.33	30258.45
439.52	30450.37
439.70	30099.29
439.89	29373.72
440.08	28641.14
440.26	28374.31
440.45	29371.38
440.63	31314.03
440.82	33354.97
441.01	32292.37
441.19	32348.54
441.38	32907.93
441.57	34061.82
441.75	34614.18
441.94	34684.40
442.12	34321.62
442.31	35108.04
442.50	34799.08
442.68	34670.36
442.87	34019.69
443.05	34073.52
443.24	34433.96
443.43	35072.93
443.61	35646.36
443.80	35983.40
443.98	34120.33
444.17	34012.66
444.35	35716.58
444.54	36526.40
444.73	35983.40
444.91	35021.44
445.10	33537.54
445.28	31854.69
445.47	31409.99
445.65	31847.67
445.84	32769.84
446.02	33460.30
446.21	34120.33
446.39	34230.33
446.58	34705.46
446.77	35234.42
446.95	35220.38
447.14	36275.96
447.32	36849.39
447.51	36615.34
447.69	34902.07
447.88	34909.09
448.06	35051.86
448.25	36060.63
448.43	36421.08
448.62	35299.96
448.80	35042.50
448.99	35384.22
449.17	35704.87
449.36	35674.45
449.54	37102.17
449.73	37347.93
449.91	38068.81
450.10	39016.73
450.28	39475.48
450.46	38923.11
450.65	39714.21
450.83	38897.36
451.02	37989.24
451.20	37949.45
451.39	38017.32
451.57	37364.31
451.76	38094.56
451.94	37975.19
452.13	37097.49
452.31	35391.24
452.49	33802.02
452.68	34260.76
452.86	34380.13
453.05	34759.30
453.23	35576.14
453.42	36556.83
453.60	37479.00
453.78	37406.44
453.97	37280.05
454.15	37329.20
454.34	35969.35
454.52	36779.18
454.70	35730.62
454.89	36002.12
455.07	36521.72
455.26	37006.21
455.44	38249.03
455.62	38941.83
455.81	39236.74
455.99	38845.87
456.17	38279.46
456.36	38607.14
456.54	39880.39
456.73	39716.55
456.91	40378.92
457.09	40069.97
457.28	41036.61
457.46	39772.72
457.64	39346.75
457.83	38300.53
458.01	37614.75
458.19	38335.63
458.38	37825.40
458.56	39562.08
458.74	39749.32
458.93	38583.73
459.11	38649.27
459.29	38522.88
459.48	39129.08
459.66	38632.88
459.84	39332.70
460.03	39438.03
460.21	39555.05
460.39	40425.73
460.57	40456.16
460.76	40828.30
460.94	40893.84
461.12	40196.36
461.31	40573.19
461.49	40620.00
461.67	40524.04
461.85	41689.62
462.04	41027.25
462.22	41820.69
462.40	41560.89
462.59	41415.78
462.77	41525.78
462.95	41535.15
463.13	40938.31
463.32	40374.24
463.50	40491.27
463.68	40505.31
463.86	40463.18
464.05	40343.81
464.23	39372.49
464.41	38698.42
464.59	38298.19
464.78	40495.95
464.96	40098.06
465.14	39585.48
465.32	40961.72
465.50	41720.05
465.69	41858.14
465.87	41216.83
466.05	40233.81
466.23	38302.87
466.41	37312.82
466.60	38335.63
466.78	38333.29
466.96	39618.25
467.14	39564.42
467.32	40875.12
467.51	40634.04
467.69	38721.82
467.87	39445.05
468.05	40320.41
468.23	40156.57
468.41	40563.82
468.60	40278.28
468.78	40725.32
468.96	39793.79
469.14	41015.55
469.32	41401.74
469.50	39618.25
469.69	39812.51
469.87	38890.34
470.05	38752.25
470.23	39164.18
470.41	39222.70
470.59	39878.05
470.77	39798.47
470.95	40320.41
471.14	41490.68
471.32	40863.41
471.50	42995.64
471.68	43435.66
471.86	44009.09
472.04	44179.95
472.22	44203.36
472.40	42129.64
472.58	41380.67
472.77	41045.97
472.95	41984.53
473.13	43150.12
473.31	41673.24
473.49	42094.53
473.67	43019.05
473.85	43377.15
474.03	44121.44
474.21	44301.66
474.39	44865.73
474.57	44872.75
474.75	45134.89
474.93	44617.63
475.12	43636.95
475.30	43962.28
475.48	44060.58
475.66	44666.78
475.84	43990.37
476.02	43531.62
476.20	43363.11
476.38	44023.14
476.56	45177.02
476.74	45647.47
476.92	45659.17
477.10	46754.54
477.28	47510.53
477.46	47627.56
477.64	48016.09
477.82	47786.72
478.00	48460.79
478.18	47634.58
478.36	47276.48
478.54	47374.78
478.72	48034.81
478.90	48648.03
479.08	49610.00
479.26	50349.60
479.44	50326.20
479.62	49696.59
479.80	49860.43
479.98	50050.02
480.16	50213.85
480.34	49645.10
480.52	49869.79
480.70	50284.07
480.88	50281.73
481.06	51121.98
481.24	51405.19
481.41	52182.24
481.59	52390.55
481.77	52289.91
481.95	51782.01
482.13	51639.24
482.31	51943.51
482.49	52418.64
482.67	52289.91
482.85	52430.34
483.03	52856.32
483.21	53059.94
483.39	53326.77
483.57	52643.33
483.74	52416.30
483.92	52367.15
484.10	52549.71
484.28	53448.47
484.46	53734.02
484.64	54049.99
484.82	53394.64
485.00	53088.03
485.18	52563.75
485.35	51440.29
485.53	48704.21
485.71	44973.39
485.89	44212.72
486.07	46026.63
486.25	49270.62
486.43	51491.79
486.61	51896.70
486.78	52105.01
486.96	52266.50
487.14	53506.99
487.32	54241.92
487.50	55002.59
487.68	55887.31
487.85	56322.65
488.03	56205.62
488.21	55735.18
488.39	55206.22
488.57	54972.16
488.75	54583.63
488.92	55318.56
489.10	57148.86
489.28	58246.57
489.46	58892.56
489.64	58721.70
489.81	59002.56
489.99	58295.72
490.17	58232.53
490.35	58820.00
490.53	58431.47
490.70	58092.10
490.88	57832.30
491.06	58822.34
491.24	59056.40
491.41	57874.43
491.59	56486.49
491.77	55962.21
491.95	56928.85
492.13	57743.36
492.30	58656.17
492.48	59416.84
492.66	60158.79
492.84	59941.12
493.01	59716.43
493.19	59386.41
493.37	59014.27
493.54	58658.51
493.72	59267.05
493.90	60179.85
494.08	60720.52
494.25	61029.47
494.43	61069.26
494.61	61666.09
494.79	61614.60
494.96	61413.32
495.14	60718.18
495.32	59990.27
495.49	59557.27
495.67	60481.78
495.85	61567.79
496.02	61949.30
496.20	61886.10
496.38	61570.13
496.55	61406.30
496.73	61633.33
496.91	61680.14
497.09	62251.23
497.26	62522.73
497.44	61949.30
497.62	61635.67
497.79	60992.02
497.97	59990.27
498.14	59898.99
498.32	60940.53
498.50	61691.84
498.67	62293.36
498.85	62218.46
499.03	62195.06
499.20	62609.33
499.38	62590.61
499.56	62300.38
499.73	62071.01
499.91	61710.56
500.08	61422.68
500.26	60530.93
500.44	60975.64
500.61	61537.36
500.79	61478.85
500.97	61226.07
501.14	60954.57
501.32	60816.48
501.49	60774.35
501.67	61160.54
501.84	61495.24
502.02	61773.76
502.20	61909.51
502.37	62141.22
502.55	62085.05
502.72	62651.46
502.90	63023.61
503.07	62693.59
503.25	62389.32
503.43	61813.55
503.60	61357.14
503.78	60699.45
503.95	61050.53
504.13	62171.65
504.30	62918.28
504.48	62677.21
504.65	62504.01
504.83	62450.17
505.01	62981.48
505.18	63135.95
505.36	63917.69
505.53	63891.94
505.71	64020.67
505.88	63976.20
506.06	63669.59
506.23	63257.66
506.41	62824.66
506.58	63182.76
506.76	63131.27
506.93	63152.33
507.11	62871.47
507.28	63070.42
507.46	62595.29
507.63	62148.24
507.81	61953.98
507.98	62127.18
508.16	62848.06
508.33	63117.23
508.50	63437.88
508.68	63505.76
508.85	64182.17
509.03	64254.73
509.20	64126.00
509.38	63444.90
509.55	62787.21
509.73	62873.81
509.90	63419.16
510.08	63522.14
510.25	63442.56
510.42	63353.62
510.60	63107.86
510.77	63475.33
510.95	64126.00
511.12	64011.31
511.30	64287.49
511.47	64636.23
511.64	64451.33
511.82	64448.99
511.99	63554.91
512.17	63171.06
512.34	62773.17
512.51	62976.79
512.69	63288.09
512.86	63379.37
513.04	63582.99
513.21	63653.21
513.38	63238.93
513.56	62981.48
513.73	62513.37
513.90	62614.01
514.08	62702.95
514.25	62665.50
514.43	63119.57
514.60	63149.99
514.77	63096.16
514.95	63465.97
515.12	63316.17
515.29	63435.54
515.47	63980.88
515.64	64018.33
515.81	63756.19
515.99	63285.75
516.16	62157.61
516.33	59863.88
516.51	58831.71
516.68	58059.33
516.85	57736.34
517.03	58087.42
517.20	60236.03
517.37	62522.73
517.54	63494.05
517.72	63054.03
517.89	60970.96
518.06	58763.83
518.24	58986.18
518.41	60811.80
518.58	62227.82
518.75	62267.61
518.93	62475.92
519.10	62365.91
519.27	62686.57
519.45	62894.88
519.62	63409.79
519.79	64011.31
519.96	63681.30
520.14	63393.41
520.31	62567.20
520.48	62560.18
520.65	62810.62
520.83	63819.39
521.00	63945.78
521.17	63840.45
521.34	63526.82
521.52	63559.59
521.69	64008.97
521.86	64474.74
522.03	64299.20
522.20	63149.99
522.38	62262.93
522.55	62162.29
522.72	62836.36
522.89	62918.28
523.07	63110.20
523.24	63503.42
523.41	64191.53
523.58	64533.25
523.75	64889.01
523.92	64559.00
524.10	64699.43
524.27	64713.47
524.44	64615.17
524.61	64268.77
524.78	64142.38
524.96	64126.00
525.13	64177.49
525.30	64292.18
525.47	64762.62
525.64	64612.83
525.81	63896.62
525.98	62789.55
526.16	61542.05
526.33	61038.83
526.50	60669.03
526.67	60289.86
526.84	60903.08
527.01	61778.44
527.18	62333.15
527.36	63049.35
527.53	63884.92
527.70	64217.28
527.87	63536.18
528.04	63201.49
528.21	63833.43
528.38	64341.33
528.55	64907.74
528.72	65132.43
528.89	65237.75
529.07	65013.06
529.24	64346.01
529.41	63821.73
529.58	63323.19
529.75	63381.71
529.92	63870.88
530.09	64097.91
530.26	64638.57
530.43	64940.50
530.60	64786.03
530.77	65031.78
530.94	65326.69
531.11	64694.75
531.28	64217.28
531.46	64226.64
531.63	64425.59
531.80	64158.76
531.97	63957.48
532.14	63199.15
532.31	62113.14
532.48	61834.61
532.65	61815.89
532.82	62609.33
532.99	63646.19
533.16	63934.07
533.33	64399.84
533.50	64292.18
533.67	63599.38
533.84	63309.15
534.01	63470.65
534.18	63648.53
534.35	63950.46
534.52	63770.24
534.69	63847.47
534.86	64126.00
535.03	64327.28
535.20	64809.43
535.37	65001.36
535.54	65251.80
535.71	64832.84
535.88	64633.89
536.05	63894.28
536.22	63615.76
536.38	63248.30
536.55	62929.98
536.72	62482.94
536.89	62459.54
537.06	63175.74
537.23	63824.07
537.40	64027.70
537.57	64212.60
537.74	63896.62
537.91	63934.07
538.08	63728.11
538.25	63777.26
538.42	64168.13
538.59	63763.21
538.75	63215.53
538.92	62967.43
539.09	62876.15
539.26	62908.92
539.43	62569.54
539.60	62707.63
539.77	62843.38
539.94	62803.59
540.11	62166.97
540.28	61834.61
540.44	61785.46
540.61	61984.41
540.78	62199.74
540.95	62515.71
541.12	62887.85
541.29	63238.93
541.46	63281.06
541.62	63430.86
541.79	63344.26
541.96	62698.27
542.13	62838.70
542.30	63201.49
542.47	63461.29
542.63	62958.07
542.80	62822.32
542.97	62880.83
543.14	62717.00
543.31	62869.13
543.48	63323.19
543.64	63955.14
543.81	64301.54
543.98	64072.17
544.15	63433.20
544.32	62866.79
544.48	62981.48
544.65	63306.81
544.82	63571.29
544.99	63435.54
545.16	63037.65
545.32	63004.88
545.49	63496.39
545.66	64072.17
545.83	63571.29
546.00	63199.15
546.16	62866.79
546.33	62918.28
546.50	63061.05
546.67	63327.87
546.83	63238.93
547.00	63075.10
547.17	62475.92
547.34	61935.26
547.50	61881.42
547.67	62300.38
547.84	62398.68
548.00	62651.46
548.17	63171.06
548.34	63105.52
548.51	63154.68
548.67	63032.97
548.84	63098.50
549.01	63058.71
549.18	62915.94
549.34	63131.27
549.51	63042.33
549.68	62890.19
549.84	62695.93
550.01	62705.29
550.18	62522.73
550.34	62550.82
550.51	62606.99
550.68	62714.65
550.84	62183.35
551.01	62276.97
551.18	62377.62
551.34	62606.99
551.51	62845.72
551.68	62969.77
551.84	63145.31
552.01	62855.09
552.18	62913.60
552.34	62056.96
552.51	61738.65
552.68	61783.12
552.84	62094.41
553.01	62482.94
553.18	62321.44
553.34	62504.01
553.51	62644.44
553.67	62829.34
553.84	62798.91
554.01	62670.18
554.17	62562.52
554.34	62667.84
554.51	62803.59
554.67	62901.90
554.84	62873.81
555.00	62623.37
555.17	62361.23
555.33	62363.57
555.50	62485.28
555.67	62239.53
555.83	62089.73
556.00	62068.67
556.16	61886.10
556.33	61663.75
556.50	61516.30
556.66	61528.00
556.83	61193.31
556.99	61167.56
557.16	61588.86
557.32	61607.58
557.49	62108.46
557.65	61895.47
557.82	61932.92
557.98	61623.96
558.15	61464.81
558.32	60725.20
558.48	60001.97
558.65	59920.05
558.81	60402.21
558.98	60554.34
559.14	60807.12
559.31	60912.44
559.47	60874.99
559.64	60748.60
559.80	60434.97
559.97	60212.62
560.13	60816.48
560.30	61560.77
560.46	62075.69
560.63	62206.76
560.79	62166.97
560.96	61928.23
561.12	60860.95
561.29	60004.31
561.45	60280.50
561.61	60636.26
561.78	61041.17
561.94	61085.64
562.11	60804.78
562.27	60622.22
562.44	61137.13
562.60	61219.05
562.77	61649.71
562.93	61343.10
563.10	61148.84
563.26	60584.77
563.42	60823.50
563.59	60587.11
563.75	60685.41
563.92	60631.58
564.08	60612.85
564.24	60903.08
564.41	60879.67
564.57	60846.91
564.74	60671.37
564.90	60762.65
565.07	60392.84
565.23	60034.74
565.39	59786.64
565.56	59339.60
565.72	59316.20
565.88	59725.79
566.05	59526.84
566.21	59976.23
566.38	60023.04
566.54	60023.04
566.70	60207.94
566.87	60594.13
567.03	60570.72
567.19	60732.22
567.36	60526.25
567.52	60369.44
567.68	60317.95
567.85	59723.45
568.01	59695.36
568.17	58997.88
568.34	58995.54
568.50	58934.69
568.66	59042.35
568.83	59597.06
568.99	59552.59
569.15	59746.86
569.32	59622.81
569.48	59388.75
569.64	59346.62
569.81	59100.87
569.97	58913.62
570.13	59032.99
570.30	58515.73
570.46	58223.17
570.62	57724.63
570.78	57771.44
570.95	58075.71
571.11	58454.88
571.27	58791.92
571.43	58918.31
571.60	59007.25
571.76	59227.26
571.92	59426.20
572.09	59625.15
572.25	59477.69
572.41	59568.97
572.57	59363.01
572.74	59435.56
572.90	59070.44
573.06	58920.65
573.22	59171.08
573.38	59089.16
573.55	59004.91
573.71	59264.70
573.87	59049.38
574.03	58979.16
574.20	58988.52
574.36	58742.77
574.52	58576.59
574.68	58480.63
574.84	58183.38
575.01	57787.83
575.17	57832.30
575.33	58059.33
575.49	58108.48
575.65	58375.30
575.82	58085.07
575.98	57780.81
576.14	58190.40
576.30	58529.78
576.46	58415.09
576.62	58258.27
576.79	58452.54
576.95	58000.82
577.11	57961.03
577.27	58106.14
577.43	58071.03
577.59	57710.59
577.75	57563.14
577.92	57015.45
578.08	56860.97
578.24	56938.21
578.40	57078.64
578.56	57209.71
578.72	57326.74
578.88	57469.51
579.04	57607.61
579.21	57719.95
579.37	57745.70
579.53	57780.81
579.69	57755.06
579.85	57804.21
580.01	57951.66
580.17	57509.30
580.33	57326.74
580.49	57439.09
580.65	57532.71
580.82	57705.91
580.98	57722.29
581.14	57549.09
581.30	57787.83
581.46	57506.96
581.62	57710.59
581.78	57757.40
581.94	58035.92
582.10	57614.63
582.26	57874.43
582.42	58049.97
582.58	58003.16
582.74	57790.17
582.90	57799.53
583.06	58007.84
583.22	57741.02
583.38	57710.59
583.54	57612.29
583.70	57649.74
583.86	57698.89
584.02	57450.79
584.18	57677.82
584.34	57570.16
584.50	57338.44
584.66	57209.71
584.82	56924.17
584.98	57088.01
585.14	56790.76
