SpectraSuite Data File
++++++++++++++++++++++++++++++++++++
Date: Mon Oct 07 14:53:40 GMT-05:00 2013
User: price-jones
Dark Spectrum Present: No
Reference Spectrum Present: No
Number of Sampled Component Spectra: 1
Spectrometers: USB2+H05261
Integration Time (usec): 100000 (USB2+H05261)
Spectra Averaged: 1 (USB2+H05261)
Boxcar Smoothing: 0 (USB2+H05261)
Correct for Electrical Dark: No (USB2+H05261)
Strobe/Lamp Enabled: No (USB2+H05261)
Correct for Detector Non-linearity: No (USB2+H05261)
Correct for Stray Light: No (USB2+H05261)
Number of Pixels in Processed Spectrum: 2048
>>>>>Begin Processed Spectral Data<<<<<
365.73	0.00
365.92	0.00
366.12	0.00
366.32	0.00
366.52	0.00
366.72	0.00
366.91	0.00
367.11	0.00
367.31	0.00
367.51	0.00
367.70	0.00
367.90	0.00
368.10	0.00
368.30	0.00
368.49	0.00
368.69	0.00
368.89	0.00
369.09	0.00
369.28	0.00
369.48	0.00
369.68	0.00
369.87	0.00
370.07	0.00
370.27	0.00
370.47	308.95
370.66	2008.18
370.86	2441.18
371.06	2766.51
371.25	2698.64
371.45	2473.95
371.65	2162.66
371.84	2146.27
372.04	2186.06
372.24	2354.58
372.44	2616.72
372.63	2504.37
372.83	2251.60
373.03	2120.53
373.22	1851.36
373.42	1991.80
373.62	2314.79
373.81	2502.03
374.01	2541.82
374.21	2237.55
374.40	2108.82
374.60	2099.46
374.79	2349.90
374.99	2867.16
375.19	3049.72
375.38	3108.23
375.58	2946.73
375.78	2916.31
375.97	2885.88
376.17	3068.44
376.37	3089.51
376.56	3162.06
376.76	3251.00
376.95	3459.31
377.15	3789.33
377.35	3990.61
377.54	3992.95
377.74	4098.28
377.93	4238.71
378.13	4037.42
378.33	3850.18
378.52	3473.36
378.72	3309.52
378.91	3452.29
379.11	3236.96
379.31	3126.96
379.50	3129.30
379.70	3330.58
379.89	3803.37
380.09	3997.64
380.28	4166.15
380.48	4009.34
380.68	4021.04
380.87	3843.16
381.07	3548.25
381.26	3459.31
381.46	3159.72
381.65	3075.46
381.85	2928.01
382.04	2705.66
382.24	2766.51
382.43	2593.31
382.63	2502.03
382.83	2572.25
383.02	2516.08
383.22	2459.90
383.41	2511.39
383.61	2525.44
383.80	3115.25
384.00	3548.25
384.19	3803.37
384.39	4056.15
384.58	3995.29
384.78	4014.02
384.97	3960.19
385.17	3831.46
385.36	3559.95
385.56	3321.22
385.75	3424.20
385.95	3920.40
386.14	4308.93
386.34	4313.61
386.53	4100.62
386.72	3662.94
386.92	3733.15
387.11	3934.44
387.31	4245.73
387.50	4114.66
387.70	4007.00
387.89	3838.48
388.09	3892.31
388.28	4070.19
388.48	4086.58
388.67	4524.26
388.86	4865.97
389.06	5102.37
389.25	5406.64
389.45	5490.90
389.64	5526.00
389.84	5390.25
390.03	5198.33
390.22	5350.46
390.42	5486.22
390.61	5914.53
390.81	6204.76
391.00	6188.38
391.19	6218.80
391.39	5968.37
391.58	5919.21
391.78	5380.89
391.97	5364.51
392.16	4887.04
392.36	4566.39
392.55	3744.86
392.75	2822.69
392.94	2387.35
393.13	2307.77
393.33	2663.53
393.52	3412.50
393.71	4269.14
393.91	4915.12
394.10	5111.73
394.29	5891.13
394.49	6179.01
394.68	6726.70
394.88	6640.10
395.07	6949.05
395.26	6846.07
395.46	6768.83
395.65	6312.42
395.84	5572.82
396.04	4650.64
396.23	3646.55
396.42	3002.91
396.62	2930.35
396.81	3447.61
397.00	4454.04
397.19	5497.92
397.39	6663.51
397.58	7585.68
397.77	8067.83
397.97	8430.61
398.16	8395.50
398.35	8683.39
398.55	8997.02
398.74	9287.25
398.93	9661.73
399.12	9434.70
399.32	9071.92
399.51	9415.98
399.70	9923.87
399.90	9980.04
400.09	9853.66
400.28	9717.90
400.47	9729.61
400.67	10452.83
400.86	10621.35
401.05	10719.65
401.24	10429.43
401.44	10761.78
401.63	10757.10
401.82	11035.63
402.01	11028.60
402.21	10853.06
402.40	11052.01
402.59	10523.05
402.78	10314.74
402.97	9762.37
403.17	10368.57
403.36	10951.37
403.55	11604.38
403.74	11541.18
403.93	11468.62
404.13	10085.37
404.32	9848.97
404.51	10391.98
404.70	11091.80
404.89	11325.85
405.09	11199.46
405.28	10649.44
405.47	10640.08
405.66	10719.65
405.85	10408.36
406.05	10228.14
406.24	10345.17
406.43	10806.25
406.62	11365.64
406.81	11169.04
407.00	10560.50
407.20	10366.23
407.39	10909.24
407.58	11082.44
407.77	11644.17
407.96	11829.07
408.15	12276.11
408.34	12004.61
408.54	12741.88
408.73	12716.13
408.92	12837.84
409.11	12271.43
409.30	11712.04
409.49	10827.32
409.68	10466.88
409.87	10047.92
410.07	10691.57
410.26	11501.39
410.45	11901.62
410.64	12453.99
410.83	12678.68
411.02	13062.53
411.21	13586.81
411.40	13490.85
411.59	13422.97
411.78	13392.55
411.98	13111.68
412.17	13699.16
412.36	13224.03
412.55	13699.16
412.74	13076.57
412.93	12678.68
413.12	12954.87
413.31	14139.18
413.50	14349.82
413.69	14221.10
413.88	13954.27
414.07	13439.36
414.26	13760.01
414.45	14038.53
414.64	14284.29
414.83	14129.81
415.02	13956.61
415.22	13694.47
415.41	14310.04
415.60	14597.92
415.79	15466.26
415.98	15800.96
416.17	15674.57
416.36	15199.44
416.55	15108.16
416.74	14635.37
416.93	13902.78
417.12	13893.42
417.31	14200.03
417.50	14651.75
417.69	14897.51
417.88	15070.71
418.07	14925.60
418.26	14506.64
418.45	14721.97
418.64	15529.45
418.83	15761.17
419.02	15779.89
419.21	15712.02
419.39	14857.72
419.58	14078.32
419.77	13919.17
419.96	14752.40
420.15	15590.31
420.34	15964.79
420.53	16643.55
420.72	17060.16
420.91	16711.42
421.10	16870.58
421.29	16549.93
421.48	15674.57
421.67	16552.27
421.86	16334.60
422.05	15215.82
422.24	13823.20
422.43	13373.82
422.61	14733.67
422.80	15763.51
422.99	16095.86
423.18	15543.50
423.37	15133.90
423.56	15161.99
423.75	15805.64
423.94	15772.87
424.13	14871.76
424.32	15241.57
424.50	15246.25
424.69	15070.71
424.88	14953.68
425.07	15063.69
425.26	14775.80
425.45	14787.50
425.64	14373.23
425.83	14434.08
426.01	15377.32
426.20	15719.04
426.39	15524.77
426.58	14588.56
426.77	13523.62
426.96	12968.91
427.15	13415.95
427.33	14384.93
427.52	15342.21
427.71	15047.30
427.90	15117.52
428.09	15049.64
428.28	14644.73
428.46	14132.15
428.65	13858.31
428.84	13949.59
429.03	14448.13
429.22	13678.09
429.40	13062.53
429.59	11639.48
429.78	10499.64
429.97	10452.83
430.16	10822.64
430.34	10562.84
430.53	10881.15
430.72	10970.09
430.91	12105.25
431.10	14148.54
431.28	16519.50
431.47	17900.42
431.66	18195.32
431.85	16739.51
432.03	15283.70
432.22	14476.21
432.41	15279.02
432.60	16985.27
432.79	17460.40
432.97	18232.77
433.16	17617.21
433.35	15969.48
433.54	14211.73
433.72	13415.95
433.91	13720.22
434.10	15431.15
434.28	16482.05
434.47	17359.75
434.66	17518.91
434.85	16842.50
435.03	16739.51
435.22	17226.34
435.41	18221.07
435.59	18017.44
435.78	18534.70
435.97	18831.95
436.16	19129.20
436.34	18796.84
436.53	18642.37
436.72	18740.67
436.90	17406.56
437.09	17565.72
437.28	17013.35
437.46	17895.74
437.65	17802.11
437.84	16470.35
438.02	15037.94
438.21	15075.39
438.40	16175.44
438.58	17149.11
438.77	17642.96
438.96	17987.02
439.14	18644.71
439.33	19005.15
439.52	19585.60
439.70	18810.89
439.89	18506.62
440.08	17898.08
440.26	17729.56
440.45	18562.79
440.63	19630.07
440.82	21378.45
441.01	20446.92
441.19	20395.43
441.38	20577.99
441.57	21537.61
441.75	21872.31
441.94	21713.15
442.12	21898.05
442.31	22328.71
442.50	22242.11
442.68	21748.26
442.87	21598.46
443.05	21137.38
443.24	21820.81
443.43	22211.68
443.61	22581.49
443.80	22852.99
443.98	21383.13
444.17	21390.16
444.35	22560.42
444.54	23285.99
444.73	22801.50
444.91	21958.91
445.10	20830.77
445.28	20093.50
445.47	19681.56
445.65	19950.73
445.84	20575.65
446.02	21034.39
446.21	21331.64
446.39	21680.38
446.58	21994.01
446.77	22251.47
446.95	22434.03
447.14	23283.65
447.32	23508.34
447.51	22981.72
447.69	21979.97
447.88	21806.77
448.06	22092.32
448.25	22944.27
448.43	22785.12
448.62	22387.22
448.80	22412.97
448.99	22436.38
449.17	22682.13
449.36	22349.78
449.54	23728.35
449.73	23927.30
449.91	23981.13
450.10	24739.46
450.28	25156.08
450.46	25062.46
450.65	24823.72
450.83	24645.84
451.02	24238.59
451.20	23955.38
451.39	24123.90
451.57	23515.36
451.76	23798.57
451.94	24020.92
452.13	23541.11
452.31	22232.75
452.49	21195.89
452.68	21614.85
452.86	21675.70
453.05	21558.67
453.23	22719.58
453.42	23403.02
453.60	23627.71
453.78	24016.24
453.97	23601.96
454.15	23597.28
454.34	23197.05
454.52	23410.04
454.70	22663.41
454.89	23087.04
455.07	22689.15
455.26	23283.65
455.44	24428.17
455.62	24786.27
455.81	24795.64
455.99	24671.59
456.17	24194.12
456.36	24662.22
456.54	24893.94
456.73	25301.19
456.91	25680.36
457.09	25750.57
457.28	26225.70
457.46	25516.52
457.64	25062.46
457.83	24400.08
458.01	23587.92
458.19	24500.73
458.38	24636.48
458.56	25399.49
458.74	25291.83
458.93	24673.93
459.11	24882.24
459.29	24524.13
459.48	24573.28
459.66	24379.02
459.84	24893.94
460.03	25130.33
460.21	25282.47
460.39	25518.86
460.57	25720.15
460.76	26001.01
460.94	26370.82
461.12	25633.55
461.31	25771.64
461.49	25542.27
461.67	26089.95
461.85	26717.22
462.04	26316.98
462.22	27496.61
462.40	26738.28
462.59	26555.72
462.77	26302.94
462.95	26462.10
463.13	26111.02
463.32	25991.65
463.50	25703.76
463.68	25991.65
463.86	25956.54
464.05	25406.52
464.23	25001.60
464.41	24737.12
464.59	24261.99
464.78	25628.87
464.96	25268.42
465.14	25116.29
465.32	25797.38
465.50	26511.25
465.69	26593.17
465.87	26239.75
466.05	25390.13
466.23	24725.42
466.41	23733.03
466.60	24601.37
466.78	24690.31
466.96	24809.68
467.14	25137.35
467.32	25788.02
467.51	25605.46
467.69	24566.26
467.87	24882.24
468.05	25654.61
468.23	25797.38
468.41	25783.34
468.60	25996.33
468.78	25886.32
468.96	25376.09
469.14	26309.96
469.32	26286.56
469.50	25113.95
469.69	25333.96
469.87	24985.22
470.05	24741.80
470.23	24823.72
470.41	25003.94
470.59	25584.40
470.77	25345.66
470.95	25834.83
471.14	26169.53
471.32	26015.05
471.50	27679.18
471.68	27803.22
471.86	27962.38
472.04	28119.20
472.22	28217.50
472.40	26817.86
472.58	26513.59
472.77	26436.35
472.95	26677.43
473.13	27590.24
473.31	26911.48
473.49	26986.38
473.67	27513.00
473.85	27709.60
474.03	28430.49
474.21	28346.23
474.39	28788.59
474.57	28599.01
474.75	28868.17
474.93	28765.18
475.12	28088.77
475.30	27978.76
475.48	28137.92
475.66	28835.40
475.84	28465.60
476.02	28098.13
476.20	27910.89
476.38	28091.11
476.56	28898.59
476.74	29097.54
476.92	29586.71
477.10	29792.68
477.28	30934.86
477.46	30852.94
477.64	31246.15
477.82	31456.80
478.00	31686.17
478.18	31105.72
478.36	30958.27
478.54	31110.40
478.72	31290.62
478.90	31449.78
479.08	32978.15
479.26	33214.54
479.44	33039.00
479.62	32716.01
479.80	33062.41
479.98	33057.73
480.16	32833.04
480.34	32606.00
480.52	33317.53
480.70	33357.32
480.88	33289.44
481.06	33979.90
481.24	34565.03
481.41	35086.97
481.59	35669.76
481.77	35105.70
481.95	34817.81
482.13	34471.41
482.31	34691.42
482.49	35428.69
482.67	35498.91
482.85	35435.71
483.03	36353.20
483.21	36397.67
483.39	36608.32
483.57	35761.05
483.74	35571.46
483.92	35751.68
484.10	35744.66
484.28	37146.64
484.46	37258.99
484.64	37682.62
484.82	36418.74
485.00	36233.83
485.18	35388.90
485.35	34319.28
485.53	31637.02
485.71	28910.30
485.89	28701.99
486.07	29881.62
486.25	32631.75
486.43	34352.04
486.61	35587.85
486.78	35316.34
486.96	35269.53
487.14	36943.02
487.32	37598.37
487.50	38871.62
487.68	39639.31
487.85	40992.14
488.03	40205.72
488.21	39868.69
488.39	38916.09
488.57	38433.94
488.75	37860.51
488.92	39423.98
489.10	41668.56
489.28	43278.85
489.46	43913.13
489.64	43746.95
489.81	44126.12
489.99	43580.78
490.17	44006.75
490.35	44196.34
490.53	43526.94
490.70	43030.75
490.88	42773.29
491.06	44320.38
491.24	44109.74
491.41	42822.44
491.59	40921.93
491.77	39833.58
491.95	41315.14
492.13	42766.27
492.30	44477.20
492.48	45261.28
492.66	46286.43
492.84	46202.18
493.01	45947.06
493.19	44760.40
493.37	44669.12
493.54	44348.47
493.72	45219.15
493.90	46230.26
494.08	47334.99
494.25	47622.88
494.43	48322.70
494.61	48343.77
494.79	48729.95
494.96	48215.04
495.14	47798.42
495.32	46171.75
495.49	45890.88
495.67	46918.38
495.85	48966.35
496.02	48971.03
496.20	49071.67
496.38	48718.25
496.55	48505.26
496.73	48994.43
496.91	49109.12
497.09	49680.21
497.26	50265.34
497.44	49179.34
497.62	48636.33
497.79	47985.66
497.97	45984.51
498.14	46050.04
498.32	47440.32
498.50	48905.49
498.67	49808.94
498.85	49617.02
499.03	49595.95
499.20	50073.42
499.38	50365.99
499.56	49808.94
499.73	49071.67
499.91	48488.88
500.08	48254.82
500.26	47086.90
500.44	47716.50
500.61	48734.63
500.79	48509.94
500.97	48074.60
501.14	47826.51
501.32	47480.11
501.49	47203.92
501.67	47885.02
501.84	48835.28
502.02	48683.14
502.20	49303.38
502.37	49729.36
502.55	49799.58
502.72	50274.71
502.90	50639.83
503.07	50363.65
503.25	49668.51
503.43	48893.79
503.60	48016.09
503.78	46703.05
503.95	47555.00
504.13	49853.41
504.30	50770.90
504.48	50749.84
504.65	50272.37
504.83	50209.17
505.01	50527.48
505.18	51009.64
505.36	52121.39
505.53	52044.15
505.71	52467.79
505.88	52605.88
506.06	51774.99
506.23	51334.97
506.41	50829.41
506.58	51253.05
506.76	51145.39
506.93	51030.70
507.11	50541.53
507.28	50775.58
507.46	50506.42
507.63	49237.85
507.81	49066.99
507.98	49797.24
508.16	50468.97
508.33	51030.70
508.50	51341.99
508.68	51910.74
508.85	52666.73
509.03	52535.66
509.20	52367.15
509.38	51667.33
509.55	50976.87
509.73	50726.43
509.90	51152.41
510.08	51597.11
510.25	51484.76
510.42	51494.13
510.60	51100.92
510.77	51971.60
510.95	52303.95
511.12	52390.55
511.30	52809.51
511.47	53310.38
511.64	53169.95
511.82	52577.79
511.99	51562.00
512.17	51217.94
512.34	50660.90
512.51	50679.62
512.69	51026.02
512.86	51480.08
513.04	51824.14
513.21	51777.33
513.38	51573.70
513.56	50651.53
513.73	50059.38
513.90	50134.28
514.08	50387.05
514.25	50583.66
514.43	51313.90
514.60	51206.24
514.77	51093.89
514.95	50887.93
515.12	51419.23
515.29	51243.69
515.47	52245.44
515.64	52573.11
515.81	51973.94
515.99	50925.38
516.16	49389.98
516.33	46440.91
516.51	44376.56
516.68	43611.20
516.85	42974.58
517.03	43269.48
517.20	46890.29
517.37	50068.74
517.54	51337.31
517.72	51119.64
517.89	47597.13
518.06	44439.75
518.24	44692.53
518.41	47618.20
518.58	49478.92
518.75	50209.17
518.93	49925.97
519.10	49872.14
519.27	50501.74
519.45	51145.39
519.62	51749.24
519.79	52123.73
519.96	52095.64
520.14	51585.41
520.31	50281.73
520.48	50136.62
520.65	50717.07
520.83	51990.32
521.00	52610.56
521.17	52102.67
521.34	51639.24
521.52	51667.33
521.69	52423.32
521.86	53111.44
522.03	52523.96
522.20	51590.09
522.38	49691.91
522.55	49769.15
522.72	50756.86
522.89	51215.60
523.07	50925.38
523.24	51473.06
523.41	52561.41
523.58	53144.20
523.75	53329.11
523.92	53022.50
524.10	53132.50
524.27	53296.34
524.44	52884.40
524.61	52610.56
524.78	52357.78
524.96	52552.05
525.13	52369.49
525.30	52669.08
525.47	53429.75
525.64	53010.79
525.81	52308.63
525.98	50691.32
526.16	48652.72
526.33	47878.00
526.50	47423.93
526.67	46677.30
526.84	47433.30
527.01	49258.91
527.18	50113.21
527.36	51019.00
527.53	52154.16
527.70	52612.90
527.87	51849.89
528.04	51201.56
528.21	51770.31
528.38	52839.93
528.55	53478.90
528.72	53626.35
528.89	54068.72
529.07	53577.20
529.24	52795.46
529.41	52339.06
529.58	51360.72
529.75	51648.60
529.92	52156.50
530.09	52533.32
530.26	53158.25
530.43	53717.64
530.60	53525.71
530.77	53897.86
530.94	53986.80
531.11	53223.78
531.28	53045.90
531.46	52790.78
531.63	52877.38
531.80	52619.92
531.97	52037.13
532.14	51470.72
532.31	49698.94
532.48	49434.45
532.65	49514.03
532.82	50468.97
532.99	51859.25
533.16	52243.10
533.33	53216.76
533.50	52638.65
533.67	52119.05
533.84	51306.88
534.01	51454.34
534.18	51636.90
534.35	52278.21
534.52	51880.31
534.69	52088.62
534.86	52793.12
535.03	52896.11
535.20	53242.51
535.37	53776.15
535.54	53902.54
535.71	53867.43
535.88	53258.89
536.05	52435.02
536.22	51660.30
536.38	51304.54
536.55	51264.75
536.72	50108.53
536.89	49830.01
537.06	51082.19
537.23	52278.21
537.40	52451.41
537.57	52776.74
537.74	52303.95
537.91	52060.54
538.08	52189.27
538.25	52348.42
538.42	52680.78
538.59	52500.56
538.75	51435.61
538.92	51625.20
539.09	51250.71
539.26	50595.36
539.43	50567.27
539.60	50562.59
539.77	50948.78
539.94	50979.21
540.11	49954.05
540.28	49476.58
540.44	49233.17
540.61	49523.40
540.78	50122.57
540.95	50520.46
541.12	50941.76
541.29	51180.49
541.46	51704.77
541.62	51569.02
541.79	51349.01
541.96	50611.74
542.13	50483.01
542.30	51063.47
542.47	51557.32
542.63	51236.67
542.80	50972.19
542.97	50955.80
543.14	50380.03
543.31	50937.08
543.48	51210.92
543.64	52680.78
543.81	52853.98
543.98	52491.19
544.15	51758.61
544.32	50808.35
544.48	50960.48
544.65	51255.39
544.82	52287.57
544.99	51662.64
545.16	51267.09
545.32	50752.18
545.49	51882.66
545.66	52729.93
545.83	51978.62
546.00	51641.58
546.16	51334.97
546.33	51236.67
546.50	51339.65
546.67	51840.53
546.83	50829.41
547.00	51117.30
547.17	50574.30
547.34	49808.94
547.50	49443.82
547.67	50117.89
547.84	50211.51
548.00	50920.70
548.17	51524.55
548.34	51344.33
548.51	51334.97
548.67	51236.67
548.84	51360.72
549.01	51461.36
549.18	51068.15
549.34	51044.74
549.51	51222.62
549.68	51121.98
549.84	50642.17
550.01	50506.42
550.18	50450.25
550.34	50714.73
550.51	50548.55
550.68	50578.98
550.84	49752.77
551.01	50541.53
551.18	50251.30
551.34	50518.12
551.51	50911.33
551.68	51110.28
551.84	51302.20
552.01	51140.71
552.18	50923.04
552.34	49883.84
552.51	49265.94
552.68	49123.16
552.84	49911.92
553.01	50457.27
553.18	50223.22
553.34	50347.26
553.51	50719.41
553.67	50731.11
553.84	50920.70
554.01	50621.11
554.17	50688.98
554.34	50335.56
554.51	50646.85
554.67	51267.09
554.84	50969.85
555.00	50546.21
555.17	50174.06
555.33	50057.04
555.50	49989.16
555.67	50209.17
555.83	49785.54
556.00	49631.06
556.16	49602.97
556.33	48816.55
556.50	48762.72
556.66	48664.42
556.83	48205.67
556.99	48811.87
557.16	48879.75
557.32	49200.40
557.49	49549.14
557.65	49127.84
557.82	49450.84
557.98	49076.35
558.15	48612.93
558.32	48058.22
558.48	46834.12
558.65	46642.20
558.81	47402.87
558.98	47288.18
559.14	47878.00
559.31	48083.97
559.47	48327.38
559.64	47393.51
559.80	46894.97
559.97	47271.80
560.13	47805.44
560.30	49165.29
560.46	49556.16
560.63	49897.88
560.79	50003.20
560.96	49357.22
561.12	47819.49
561.29	46775.61
561.45	46988.60
561.61	48020.77
561.78	48081.63
561.94	47793.74
562.11	47767.99
562.27	47407.55
562.44	47789.06
562.60	48722.93
562.77	48645.69
562.93	48449.09
563.10	48598.88
563.26	47559.69
563.42	47952.90
563.59	47302.23
563.75	47236.69
563.92	47648.63
564.08	47604.16
564.24	47880.34
564.41	48112.05
564.57	47929.49
564.74	47828.85
564.90	47683.73
565.07	47445.00
565.23	46494.74
565.39	45942.38
565.56	46258.35
565.72	45390.01
565.88	45979.82
566.05	46227.92
566.21	46628.15
566.38	46658.58
566.54	46836.46
566.70	46962.85
566.87	47484.79
567.03	47547.98
567.19	47618.20
567.36	47222.65
567.52	47695.44
567.68	46593.04
567.85	45794.92
568.01	45689.60
568.17	45265.96
568.34	44790.83
568.50	45347.88
568.66	45338.52
568.83	45855.78
568.99	46064.08
569.15	46452.61
569.32	46038.34
569.48	45490.65
569.64	45411.07
569.81	44940.63
569.97	44924.24
570.13	44837.64
570.30	43971.64
570.46	43449.70
570.62	43026.07
570.78	43171.18
570.95	43566.73
571.11	44154.21
571.27	44638.70
571.43	44341.45
571.60	45411.07
571.76	45050.63
571.92	45404.05
572.09	45897.91
572.25	46351.97
572.41	45975.14
572.57	45621.72
572.74	45720.02
572.90	45312.77
573.06	45223.83
573.22	45415.76
573.38	45202.77
573.55	45041.27
573.71	45509.38
573.87	44917.22
574.03	45083.40
574.20	44865.73
574.36	44514.65
574.52	44535.71
574.68	44168.25
574.84	43435.66
575.01	42944.15
575.17	42532.22
575.33	43115.01
575.49	43704.82
575.65	43496.52
575.82	43445.02
575.98	43381.83
576.14	43859.30
576.30	43875.68
576.46	44091.01
576.62	43852.28
576.79	43735.25
576.95	43594.82
577.11	43693.12
577.27	43679.08
577.43	44011.43
577.59	43356.08
577.75	42897.34
577.92	42103.90
578.08	41336.20
578.24	41703.67
578.40	42216.24
578.56	42366.04
578.72	42146.03
578.88	42773.29
579.04	43150.12
579.21	43470.77
579.37	43000.32
579.53	43559.71
579.69	43241.40
579.85	43559.71
580.01	43505.88
580.17	42593.07
580.33	42529.87
580.49	42962.87
580.65	43206.29
580.82	43405.23
580.98	43105.65
581.14	42733.50
581.30	43622.90
581.46	42916.06
581.62	42979.26
581.78	43241.40
581.94	43349.06
582.10	43449.70
582.26	43367.79
582.42	43363.11
582.58	43672.06
582.74	43295.23
582.90	43454.39
583.06	43866.32
583.22	43147.78
583.38	43246.08
583.54	43316.29
583.70	42808.40
583.86	43360.76
584.02	42965.21
584.18	42476.04
584.34	42433.91
584.50	42897.34
584.66	42466.68
584.82	41717.71
584.98	42408.17
585.14	41174.70
585.30	40781.49
585.46	40577.87
