SpectraSuite Data File
++++++++++++++++++++++++++++++++++++
Date: Mon Oct 07 14:55:00 GMT-05:00 2013
User: price-jones
Dark Spectrum Present: No
Reference Spectrum Present: No
Number of Sampled Component Spectra: 1
Spectrometers: USB2+H05261
Integration Time (usec): 10000 (USB2+H05261)
Spectra Averaged: 1 (USB2+H05261)
Boxcar Smoothing: 0 (USB2+H05261)
Correct for Electrical Dark: No (USB2+H05261)
Strobe/Lamp Enabled: No (USB2+H05261)
Correct for Detector Non-linearity: No (USB2+H05261)
Correct for Stray Light: No (USB2+H05261)
Number of Pixels in Processed Spectrum: 2048
>>>>>Begin Processed Spectral Data<<<<<
365.73	0.00
365.92	0.00
366.12	0.00
366.32	0.00
366.52	0.00
366.72	0.00
366.91	0.00
367.11	0.00
367.31	0.00
367.51	0.00
367.70	0.00
367.90	0.00
368.10	0.00
368.30	0.00
368.49	0.00
368.69	0.00
368.89	0.00
369.09	0.00
369.28	0.00
369.48	0.00
369.68	0.00
369.87	0.00
370.07	0.00
370.27	0.00
370.47	325.33
370.66	2001.16
370.86	2516.08
371.06	2640.12
371.25	2605.02
371.45	2305.43
371.65	2097.12
371.84	2054.99
372.04	2029.24
372.24	2345.22
372.44	2445.86
372.63	2399.05
372.83	2183.72
373.03	1874.77
373.22	1834.98
373.42	2071.37
373.62	2427.14
373.81	2548.84
374.01	2431.82
374.21	2167.34
374.40	2054.99
374.60	2122.87
374.79	2459.90
374.99	2885.88
375.19	3133.98
375.38	2862.48
375.58	2799.28
375.78	2792.26
375.97	2949.08
376.17	3070.78
376.37	3007.59
376.56	3028.65
376.76	3365.69
376.95	3389.10
377.15	3801.03
377.35	3920.40
377.54	3932.10
377.74	4212.96
377.93	4140.41
378.13	3995.29
378.33	3648.90
378.52	3543.57
378.72	3351.65
378.91	3384.41
379.11	3169.09
379.31	2970.14
379.50	3119.93
379.70	3456.97
379.89	3719.11
380.09	4056.15
380.28	4156.79
380.48	4091.26
380.68	4037.42
380.87	3817.41
381.07	3349.31
381.26	3293.13
381.46	2984.18
381.65	2920.99
381.85	2942.05
382.04	2750.13
382.24	2516.08
382.43	2441.18
382.63	2459.90
382.83	2480.97
383.02	2342.88
383.22	2396.71
383.41	2490.33
383.61	2722.04
383.80	3159.72
384.00	3520.17
384.19	3978.91
384.39	4018.70
384.58	3913.38
384.78	3964.87
384.97	3964.87
385.17	3562.30
385.36	3618.47
385.56	3463.99
385.75	3754.22
385.95	3887.63
386.14	4393.19
386.34	4180.20
386.53	4007.00
386.72	3873.59
386.92	3997.64
387.11	3971.89
387.31	4154.45
387.50	4147.43
387.70	4025.72
387.89	4173.18
388.09	4072.53
388.28	3833.80
388.48	4072.53
388.67	4493.83
388.86	5008.75
389.06	5186.63
389.25	5462.81
389.45	5474.51
389.64	5607.92
389.84	5444.09
390.03	5579.84
390.22	5408.98
390.42	5743.67
390.61	6174.33
390.81	6366.26
391.00	6630.74
391.19	6466.90
391.39	6104.12
391.58	5699.20
391.78	5383.23
391.97	5221.74
392.16	4905.76
392.36	4304.25
392.55	3323.56
392.75	2647.15
392.94	2225.85
393.13	2230.53
393.33	2951.42
393.52	3737.84
393.71	4423.61
393.91	5170.24
394.10	5533.03
394.29	5914.53
394.49	6670.53
394.68	6967.77
394.88	6881.18
395.07	7180.76
395.26	6906.92
395.46	6609.67
395.65	6153.27
395.84	5467.49
396.04	4608.51
396.23	3695.71
396.42	3108.23
396.62	3052.06
396.81	3798.69
397.00	5034.49
397.19	6167.31
397.39	7164.38
397.58	8046.76
397.77	8325.29
397.97	8882.33
398.16	8917.44
398.35	9170.22
398.55	9490.87
398.74	9736.63
398.93	10050.26
399.12	9856.00
399.32	9507.26
399.51	9741.31
399.70	10230.48
399.90	10085.37
400.09	10120.48
400.28	10286.65
400.47	10459.85
400.67	10848.38
400.86	11183.08
401.05	10937.32
401.24	11033.29
401.44	11255.64
401.63	11082.44
401.82	11485.01
402.01	11290.74
402.21	11597.35
402.40	11290.74
402.59	10829.66
402.78	10532.41
402.97	10640.08
403.17	10909.24
403.36	11468.62
403.55	11903.96
403.74	12065.46
403.93	11265.00
404.13	10590.92
404.32	10473.90
404.51	11152.65
404.70	11751.83
404.89	11506.07
405.09	11229.89
405.28	11162.01
405.47	11349.26
405.66	11220.53
405.85	10897.53
406.05	10789.87
406.24	10787.53
406.43	11253.30
406.62	11634.80
406.81	11580.97
407.00	11260.32
407.20	11176.06
407.39	11262.66
407.58	12025.67
407.77	12180.15
407.96	12692.73
408.15	12753.58
408.34	12718.47
408.54	13523.62
408.73	13179.56
408.92	13231.05
409.11	12849.54
409.30	12030.35
409.49	11178.40
409.68	10853.06
409.87	10560.50
410.07	11557.57
410.26	12123.98
410.45	13008.70
410.64	13165.51
410.83	13818.52
411.02	14197.69
411.21	14469.19
411.40	14230.46
411.59	14504.30
411.78	14150.88
411.98	13977.68
412.17	14239.82
412.36	13930.87
412.55	14153.22
412.74	13673.41
412.93	13554.04
413.12	13855.97
413.31	15115.18
413.50	15131.56
413.69	15234.55
413.88	14494.94
414.07	14555.79
414.26	14628.35
414.45	15096.46
414.64	15124.54
414.83	14855.38
415.02	14698.56
415.22	14698.56
415.41	15061.35
415.60	15836.06
415.79	16379.07
415.98	16685.68
416.17	16664.61
416.36	16257.36
416.55	15927.35
416.74	15248.59
416.93	15183.06
417.12	15365.62
417.31	15412.43
417.50	15620.74
417.69	15892.24
417.88	16217.57
418.07	15831.38
418.26	15370.30
418.45	15882.88
418.64	16248.00
418.83	16912.71
419.02	16666.95
419.21	16395.45
419.39	15822.02
419.58	14892.83
419.77	15382.00
419.96	16119.27
420.15	16908.03
420.34	17504.87
420.53	17774.03
420.72	18097.02
420.91	17980.00
421.10	17591.47
421.29	17507.21
421.48	17366.78
421.67	18284.26
421.86	17261.45
422.05	15779.89
422.24	14441.11
422.43	14941.98
422.61	16460.99
422.80	17446.35
422.99	17036.76
423.18	16435.24
423.37	16453.97
423.56	16395.45
423.75	16634.19
423.94	17202.94
424.13	16423.54
424.32	16137.99
424.50	16367.37
424.69	16695.04
424.88	16191.83
425.07	16484.39
425.26	16142.67
425.45	15927.35
425.64	15644.14
425.83	15744.78
426.01	17029.74
426.20	16727.81
426.39	16638.87
426.58	15316.47
426.77	14473.87
426.96	13930.87
427.15	14986.45
427.33	16100.55
427.52	16561.63
427.71	16781.64
427.90	16526.52
428.09	16285.45
428.28	15843.09
428.46	15534.14
428.65	15129.22
428.84	15920.32
429.03	15777.55
429.22	14876.44
429.40	13731.92
429.59	12662.30
429.78	11386.71
429.97	11653.53
430.16	11578.63
430.34	11159.67
430.53	11716.72
430.72	12119.29
430.91	13935.55
431.10	16196.51
431.28	18546.40
431.47	19756.46
431.66	19389.00
431.85	17238.05
432.03	16140.33
432.22	16004.58
432.41	17245.07
432.60	18403.63
432.79	19026.21
432.97	19571.56
433.16	19136.22
433.35	16945.48
433.54	15646.48
433.72	14909.21
433.91	15939.05
434.10	17348.05
434.28	18471.51
434.47	19438.15
434.66	18780.46
434.85	18181.28
435.03	18640.03
435.22	18595.56
435.41	20243.29
435.59	20465.64
435.78	20706.72
435.97	21383.13
436.16	21289.51
436.34	20603.74
436.53	20013.92
436.72	20355.64
436.90	19145.58
437.09	19126.86
437.28	18794.50
437.46	19761.14
437.65	19332.82
437.84	17612.53
438.02	16460.99
438.21	16711.42
438.40	17862.97
438.58	19147.92
438.77	19950.73
438.96	19889.87
439.14	20774.60
439.33	21298.88
439.52	21249.72
439.70	20526.50
439.89	20243.29
440.08	19847.74
440.26	19800.93
440.45	20994.61
440.63	22597.87
440.82	22867.03
441.01	22347.44
441.19	22742.99
441.38	23623.03
441.57	24173.05
441.75	23749.42
441.94	24217.52
442.12	24027.94
442.31	25020.33
442.50	24734.78
442.68	24100.50
442.87	23964.75
443.05	23466.21
443.24	24442.21
443.43	24854.15
443.61	24900.96
443.80	25233.32
443.98	24126.24
444.17	24400.08
444.35	25439.28
444.54	25284.81
444.73	25556.31
444.91	23957.72
445.10	23138.54
445.28	22705.54
445.47	22270.20
445.65	22225.73
445.84	22780.43
446.02	23674.52
446.21	24056.03
446.39	24163.69
446.58	24498.39
446.77	24802.66
446.95	25338.64
447.14	25951.86
447.32	26415.29
447.51	25462.69
447.69	24592.01
447.88	24465.62
448.06	25118.63
448.25	25317.57
448.43	25343.32
448.62	24519.45
448.80	24716.06
448.99	25497.80
449.17	25420.56
449.36	25575.03
449.54	26132.08
449.73	26405.92
449.91	27374.91
450.10	27826.63
450.28	27611.30
450.46	27873.44
450.65	27803.22
450.83	27725.99
451.02	27756.41
451.20	27047.23
451.39	27234.47
451.57	27274.26
451.76	26988.72
451.94	26382.52
452.13	26270.17
452.31	24409.45
452.49	23707.29
452.68	24629.46
452.86	24451.58
453.05	24435.19
453.23	25525.88
453.42	25858.24
453.60	26520.61
453.78	26988.72
453.97	26295.92
454.15	26075.91
454.34	25539.93
454.52	25593.76
454.70	25415.88
454.89	25462.69
455.07	25937.82
455.26	26293.58
455.44	27140.85
455.62	27819.61
455.81	27716.62
455.99	27962.38
456.17	27601.94
456.36	27997.49
456.54	28652.84
456.73	28458.57
456.91	29039.03
457.09	28711.35
457.28	29933.11
457.46	27936.63
457.64	27571.51
457.83	27094.04
458.01	26862.33
458.19	27580.87
458.38	28009.19
458.56	28996.90
458.74	28627.09
458.93	27920.25
459.11	27744.71
459.29	27131.49
459.48	27728.33
459.66	27592.58
459.84	27538.74
460.03	28247.93
460.21	28299.42
460.39	29352.66
460.57	28484.32
460.76	29172.44
460.94	29450.96
461.12	29270.74
461.31	29205.20
461.49	28971.15
461.67	28833.06
461.85	30644.63
462.04	30354.41
462.22	29926.09
462.40	29834.81
462.59	29834.81
462.77	29886.30
462.95	29914.39
463.13	29216.91
463.32	28800.29
463.50	28811.99
463.68	29303.51
463.86	29624.16
464.05	28573.26
464.23	27648.75
464.41	27725.99
464.59	28018.55
464.78	29156.05
464.96	28528.79
465.14	28158.99
465.32	29450.96
465.50	30113.33
465.69	30260.79
465.87	29411.17
466.05	28367.29
466.23	27601.94
466.41	27145.53
466.60	28418.78
466.78	28390.70
466.96	28231.54
467.14	28940.72
467.32	29134.99
467.51	29654.59
467.69	28065.36
467.87	28746.46
468.05	28929.02
468.23	29172.44
468.41	29319.89
468.60	29764.59
468.78	29539.90
468.96	29556.28
469.14	29977.58
469.32	29607.78
469.50	28144.94
469.69	28739.44
469.87	28243.24
470.05	27875.78
470.23	28311.12
470.41	28474.96
470.59	28793.27
470.77	29036.69
470.95	29263.72
471.14	29919.07
471.32	30143.76
471.50	32011.51
471.68	31681.49
471.86	31999.80
472.04	31805.54
472.22	32018.53
472.40	30040.78
472.58	30754.64
472.77	31033.16
472.95	31292.96
473.13	31608.93
473.31	30756.98
473.49	31363.18
473.67	31068.27
473.85	31899.16
474.03	32496.00
474.21	33462.64
474.39	33425.19
474.57	33156.03
474.75	32957.08
474.93	32196.41
475.12	31295.30
475.30	32165.98
475.48	32411.74
475.66	33062.41
475.84	32350.88
476.02	31960.02
476.20	31398.29
476.38	32734.73
476.56	33544.56
476.74	33518.81
476.92	33654.56
477.10	34398.85
477.28	35178.25
477.46	34836.53
477.64	36137.87
477.82	35854.67
478.00	35676.79
478.18	35075.27
478.36	35208.68
478.54	35086.97
478.72	35791.47
478.90	36825.99
479.08	36938.33
479.26	37420.48
479.44	38377.76
479.62	37352.61
479.80	37659.22
479.98	38022.00
480.16	37509.43
480.34	36737.05
480.52	38150.73
480.70	38841.19
480.88	38476.07
481.06	39201.63
481.24	39232.06
481.41	39711.87
481.59	40121.46
481.77	39440.37
481.95	38864.60
482.13	39674.42
482.31	39702.51
482.49	41553.87
482.67	40751.07
482.85	41401.74
483.03	41273.01
483.21	42089.85
483.39	41670.90
483.57	41038.95
483.74	41603.02
483.92	41324.50
484.10	41708.35
484.28	42330.93
484.46	42768.61
484.64	43002.66
484.82	42216.24
485.00	41397.06
485.18	40430.41
485.35	39009.71
485.53	34761.64
485.71	32147.26
485.89	33359.66
486.07	35864.03
486.25	38162.43
486.43	40762.77
486.61	40952.35
486.78	40566.16
486.96	41139.60
487.14	42969.90
487.32	42731.16
487.50	44493.58
487.68	45801.94
487.85	45783.22
488.03	45240.21
488.21	44830.62
488.39	44760.40
488.57	43199.27
488.75	43243.74
488.92	45432.14
489.10	47510.53
489.28	47547.98
489.46	49518.71
489.64	48439.73
489.81	49048.27
489.99	48839.96
490.17	49207.42
490.35	49549.14
490.53	49127.84
490.70	49031.88
490.88	49041.24
491.06	50616.43
491.24	49605.31
491.41	48116.73
491.59	46515.81
491.77	45523.42
491.95	48051.20
492.13	48793.15
492.30	49511.69
492.48	51400.50
492.66	51278.80
492.84	50838.78
493.01	50059.38
493.19	50815.37
493.37	49434.45
493.54	49727.02
493.72	51339.65
493.90	52266.50
494.08	52523.96
494.25	53474.22
494.43	53380.60
494.61	53478.90
494.79	53212.08
494.96	53595.93
495.14	52846.96
495.32	51494.13
495.49	51388.80
495.67	52863.34
495.85	53670.82
496.02	54457.24
496.20	53822.96
496.38	53436.77
496.55	52907.81
496.73	54005.52
496.91	54089.78
497.09	54478.31
497.26	55529.21
497.44	54309.79
497.62	53380.60
497.79	52353.10
497.97	51428.59
498.14	52336.72
498.32	53530.39
498.50	53815.94
498.67	53701.25
498.85	54251.28
499.03	54092.12
499.20	54260.64
499.38	54365.96
499.56	53961.05
499.73	53764.45
499.91	53317.40
500.08	52711.20
500.26	52526.30
500.44	52746.31
500.61	53474.22
500.79	53329.11
500.97	52722.91
501.14	52762.70
501.32	51917.76
501.49	52493.54
501.67	53029.52
501.84	53179.31
502.02	53619.33
502.20	53965.73
502.37	54284.04
502.55	54815.35
502.72	55372.39
502.90	55812.41
503.07	55189.83
503.25	54237.23
503.43	53193.36
503.60	52523.96
503.78	52835.25
503.95	53736.36
504.13	55105.57
504.30	55650.92
504.48	54859.82
504.65	54597.68
504.83	55185.15
505.01	55526.87
505.18	55498.78
505.36	56259.46
505.53	56324.99
505.71	56109.66
505.88	56760.33
506.06	56121.37
506.23	55487.08
506.41	55140.68
506.58	55189.83
506.76	55234.30
506.93	55262.39
507.11	54923.01
507.28	55192.17
507.46	54478.31
507.63	54497.03
507.81	53977.43
507.98	54616.40
508.16	55536.23
508.33	55948.17
508.50	55994.98
508.68	56622.24
508.85	57450.79
509.03	57446.11
509.20	56619.90
509.38	55501.12
509.55	55821.78
509.73	55753.90
509.90	55545.59
510.08	56409.25
510.25	55529.21
510.42	55058.76
510.60	55538.57
510.77	56252.44
510.95	56250.09
511.12	57137.16
511.30	57602.92
511.47	57441.43
511.64	57399.30
511.82	57389.94
511.99	56090.94
512.17	55948.17
512.34	55767.94
512.51	56130.73
512.69	55824.12
512.86	55594.74
513.04	56093.28
513.21	55597.09
513.38	55508.14
513.56	54429.16
513.73	54415.11
513.90	55339.63
514.08	55250.69
514.25	55075.15
514.43	55945.83
514.60	55812.41
514.77	55868.59
514.95	56818.84
515.12	56757.99
515.29	56868.00
515.47	56970.98
515.64	56540.32
515.81	57041.20
515.99	55758.58
516.16	53286.98
516.33	50578.98
516.51	50590.68
516.68	49083.37
516.85	48002.05
517.03	50155.34
517.20	53343.15
517.37	55571.34
517.54	56207.97
517.72	55150.04
517.89	51880.31
518.06	50007.89
518.24	51517.53
518.41	54049.99
518.58	55903.70
518.75	54333.20
518.93	54761.51
519.10	54901.95
519.27	55531.55
519.45	55781.99
519.62	56821.19
519.79	56868.00
519.96	56355.42
520.14	55962.21
520.31	54911.31
520.48	55058.76
520.65	55597.09
520.83	56498.19
521.00	55828.80
521.17	55870.93
521.34	56423.29
521.52	56245.41
521.69	56832.89
521.86	57247.16
522.03	56884.38
522.20	55646.24
522.38	54986.21
522.55	55262.39
522.72	55360.69
522.89	55470.70
523.07	56423.29
523.24	56811.82
523.41	57071.62
523.58	57413.34
523.75	57755.06
523.92	57485.90
524.10	57741.02
524.27	57254.18
524.44	56849.27
524.61	56196.26
524.78	56577.77
524.96	56563.73
525.13	57729.31
525.30	57623.99
525.47	58188.06
525.64	58087.42
525.81	56781.40
525.98	55377.08
526.16	53418.05
526.33	53003.77
526.50	52081.60
526.67	52750.99
526.84	53764.45
527.01	54539.16
527.18	54789.60
527.36	55613.47
527.53	56676.07
527.70	56186.90
527.87	55309.20
528.04	55812.41
528.21	56273.50
528.38	56942.89
528.55	57506.96
528.72	57523.35
528.89	57261.21
529.07	57677.82
529.24	56313.29
529.41	56233.71
529.58	56123.71
529.75	56797.78
529.92	57071.62
530.09	57668.46
530.26	57855.70
530.43	58213.80
530.60	58127.20
530.77	58117.84
530.94	57879.11
531.11	57256.53
531.28	57083.33
531.46	57282.27
531.63	57399.30
531.80	57083.33
531.97	57090.35
532.14	56306.27
532.31	54934.71
532.48	53542.10
532.65	54677.25
532.82	54993.23
532.99	56814.16
533.16	57031.83
533.33	57209.71
533.50	57247.16
533.67	56444.36
533.84	55934.12
534.01	56905.44
534.18	56662.03
534.35	56406.91
534.52	55447.29
534.69	56835.23
534.86	57013.11
535.03	57485.90
535.20	57043.54
535.37	58155.29
535.54	58347.21
535.71	57352.49
535.88	57623.99
536.05	56999.07
536.22	56034.77
536.38	55707.09
536.55	55732.84
536.72	55292.82
536.89	55987.95
537.06	56128.39
537.23	56978.00
537.40	56463.08
537.57	56734.59
537.74	56842.25
537.91	56697.14
538.08	56502.87
538.25	57581.86
538.42	57755.06
538.59	56765.01
538.75	56055.83
538.92	55664.96
539.09	55386.44
539.26	55543.25
539.43	55316.22
539.60	54993.23
539.77	55814.76
539.94	55004.93
540.11	53968.07
540.28	53965.73
540.44	54106.16
540.61	54653.85
540.78	55442.61
540.95	55941.14
541.12	55838.16
541.29	55952.85
541.46	56404.57
541.62	57195.67
541.79	55664.96
541.96	55021.31
542.13	55941.14
542.30	56069.87
542.47	55746.88
542.63	56229.03
542.80	55639.22
542.97	55821.78
543.14	55945.83
543.31	55421.55
543.48	56659.69
543.64	57289.29
543.81	57521.01
543.98	57385.25
544.15	55798.37
544.32	55702.41
544.48	55363.03
544.65	55899.01
544.82	56521.60
544.99	55767.94
545.16	55271.75
545.32	55217.92
545.49	56474.79
545.66	56622.24
545.83	56388.19
546.00	56025.40
546.16	55807.73
546.33	55622.83
546.50	55304.52
546.67	56140.09
546.83	55753.90
547.00	56126.05
547.17	54335.54
547.34	54817.69
547.50	54363.62
547.67	54705.34
547.84	55075.15
548.00	55997.32
548.17	56493.51
548.34	56219.67
548.51	56011.36
548.67	55311.54
548.84	55847.52
549.01	56175.20
549.18	55643.90
549.34	55899.01
549.51	56521.60
549.68	55875.61
549.84	55049.40
550.01	54738.11
550.18	54782.58
550.34	55398.14
550.51	55662.62
550.68	55669.64
550.84	55484.74
551.01	54995.57
551.18	54946.42
551.34	55936.46
551.51	56439.68
551.68	56484.15
551.84	57439.09
552.01	56006.68
552.18	55178.13
552.34	54431.50
552.51	54213.83
552.68	54265.32
552.84	54546.18
553.01	54976.84
553.18	54796.62
553.34	55051.74
553.51	55505.80
553.67	55311.54
553.84	55723.47
554.01	56390.53
554.17	55297.50
554.34	55379.42
554.51	55636.87
554.67	55311.54
554.84	55444.95
555.00	54609.38
555.17	54609.38
555.33	55470.70
555.50	55337.29
555.67	55110.25
555.83	56058.17
556.00	54328.52
556.16	54080.42
556.33	53722.32
556.50	53677.85
556.66	53656.78
556.83	53200.38
556.99	53825.30
557.16	54485.33
557.32	53956.37
557.49	54766.20
557.65	55004.93
557.82	54574.27
557.98	54520.44
558.15	54567.25
558.32	53621.67
558.48	52758.02
558.65	52652.69
558.81	52835.25
558.98	53495.28
559.14	53212.08
559.31	52842.27
559.47	52781.42
559.64	52891.43
559.80	52420.98
559.97	52910.15
560.13	53471.88
560.30	54705.34
560.46	55042.38
560.63	55590.06
560.79	55847.52
560.96	54424.48
561.12	53268.25
561.29	52633.97
561.45	52966.32
561.61	54047.65
561.78	53017.82
561.94	53523.37
562.11	53020.16
562.27	52577.79
562.44	53652.10
562.60	54532.14
562.77	54265.32
562.93	53296.34
563.10	53467.20
563.26	54185.74
563.42	54049.99
563.59	54244.26
563.75	53186.33
563.92	53097.39
564.08	53427.41
564.24	54340.22
564.41	53338.47
564.57	55018.97
564.74	53689.55
564.90	54174.04
565.07	52963.98
565.23	52069.90
565.39	51192.20
565.56	51906.06
565.72	51976.28
565.88	51686.05
566.05	53066.97
566.21	52816.53
566.38	52542.69
566.54	53205.06
566.70	53925.94
566.87	53998.50
567.03	53443.79
567.19	54057.01
567.36	53846.36
567.52	53408.68
567.68	52308.63
567.85	52500.56
568.01	52186.92
568.17	52023.09
568.34	52163.52
568.50	51594.77
568.66	51217.94
568.83	51442.63
568.99	50983.89
569.15	52009.04
569.32	50494.72
569.48	51456.68
569.64	51297.52
569.81	52287.57
569.97	51229.65
570.13	50885.59
570.30	49041.24
570.46	49514.03
570.62	48549.73
570.78	48975.71
570.95	50337.90
571.11	50927.72
571.27	49626.38
571.43	50520.46
571.60	50665.58
571.76	51529.23
571.92	52130.75
572.09	52219.69
572.25	52100.32
572.41	51646.26
572.57	51175.81
572.74	51828.82
572.90	52114.37
573.06	52285.23
573.22	52301.61
573.38	51917.76
573.55	52924.19
573.71	50859.84
573.87	51035.38
574.03	51281.14
574.20	51072.83
574.36	50218.53
574.52	49888.52
574.68	50284.07
574.84	50356.63
575.01	49640.42
575.17	48430.36
575.33	48500.58
575.49	49509.35
575.65	49511.69
575.82	49556.16
575.98	48720.59
576.14	49729.36
576.30	51297.52
576.46	49705.96
576.62	50108.53
576.79	50099.17
576.95	49949.37
577.11	50237.26
577.27	50124.91
577.43	49961.08
577.59	49897.88
577.75	49392.33
577.92	49059.97
578.08	48886.77
578.24	48851.66
578.40	48945.28
578.56	48016.09
578.72	49572.55
578.88	49638.08
579.04	49504.67
579.21	49137.21
579.37	49607.65
579.53	49958.73
579.69	49364.24
579.85	49254.23
580.01	48694.85
580.17	47945.87
580.33	48964.01
580.49	49605.31
580.65	49095.08
580.82	49265.94
580.98	49317.43
581.14	49752.77
581.30	49378.28
581.46	48289.93
581.62	49169.97
581.78	49336.15
581.94	49301.04
582.10	49565.52
582.26	49633.40
582.42	49106.78
582.58	50000.86
582.74	49127.84
582.90	48989.75
583.06	50064.06
583.22	50211.51
583.38	49874.48
583.54	49528.08
583.70	48704.21
583.86	49226.15
584.02	48474.84
584.18	48362.49
584.34	48266.53
584.50	48203.33
584.66	48161.20
584.82	48573.14
584.98	48392.92
585.14	46958.17
585.30	47248.39
