SpectraSuite Data File
++++++++++++++++++++++++++++++++++++
Date: Mon Oct 07 14:53:05 GMT-05:00 2013
User: price-jones
Dark Spectrum Present: No
Reference Spectrum Present: No
Number of Sampled Component Spectra: 1
Spectrometers: USB2+H05261
Integration Time (usec): 100000 (USB2+H05261)
Spectra Averaged: 1 (USB2+H05261)
Boxcar Smoothing: 0 (USB2+H05261)
Correct for Electrical Dark: No (USB2+H05261)
Strobe/Lamp Enabled: No (USB2+H05261)
Correct for Detector Non-linearity: No (USB2+H05261)
Correct for Stray Light: No (USB2+H05261)
Number of Pixels in Processed Spectrum: 2048
>>>>>Begin Processed Spectral Data<<<<<
365.73	0.00
365.92	0.00
366.12	0.00
366.32	0.00
366.52	0.00
366.72	0.00
366.91	0.00
367.11	0.00
367.31	0.00
367.51	0.00
367.70	0.00
367.90	0.00
368.10	0.00
368.30	0.00
368.49	0.00
368.69	0.00
368.89	0.00
369.09	0.00
369.28	0.00
369.48	0.00
369.68	0.00
369.87	0.00
370.07	0.00
370.27	0.00
370.47	592.16
370.66	2918.65
370.86	3548.25
371.06	3885.29
371.25	3728.47
371.45	3363.35
371.65	3129.30
371.84	3000.57
372.04	3094.19
372.24	3466.33
372.44	3733.15
372.63	3531.87
372.83	3314.20
373.03	2825.03
373.22	2647.15
373.42	2857.79
373.62	3407.82
373.81	3513.14
374.01	3492.08
374.21	3232.28
374.40	2825.03
374.60	3141.00
374.79	3445.27
374.99	4086.58
375.19	4355.74
375.38	4376.80
375.58	3997.64
375.78	4039.76
375.97	4093.60
376.17	4187.22
376.37	4227.01
376.56	4423.61
376.76	4711.50
376.95	5025.13
377.15	5364.51
377.35	5411.32
377.54	5654.73
377.74	5834.96
377.93	5874.74
378.13	5696.86
378.33	5322.38
378.52	4931.51
378.72	4713.84
378.91	4748.95
379.11	4617.88
379.31	4421.27
379.50	4369.78
379.70	4732.56
379.89	5275.57
380.09	5540.05
380.28	5689.84
380.48	5605.58
380.68	5685.16
380.87	5542.39
381.07	5006.41
381.26	4615.54
381.46	4437.66
381.65	4198.92
381.85	4030.40
382.04	3894.65
382.24	3555.27
382.43	3534.21
382.63	3276.75
382.83	3407.82
383.02	3487.40
383.22	3414.84
383.41	3405.48
383.61	3595.06
383.80	4173.18
384.00	4889.38
384.19	5334.08
384.39	5614.95
384.58	5530.69
384.78	5479.19
384.97	5458.13
385.17	5146.84
385.36	5064.92
385.56	4587.45
385.75	4983.00
385.95	5359.83
386.14	5874.74
386.34	5865.38
386.53	5661.76
386.72	5240.46
386.92	5280.25
387.11	5397.28
387.31	5809.21
387.50	5748.36
387.70	5441.75
387.89	5451.11
388.09	5514.30
388.28	5619.63
388.48	5664.10
388.67	5975.39
388.86	6670.53
389.06	7084.80
389.25	7559.93
389.45	7578.65
389.64	7627.81
389.84	7468.65
390.03	7391.41
390.22	7365.67
390.42	7552.91
390.61	8177.83
390.81	8542.96
391.00	8959.57
391.19	8709.13
391.39	8353.37
391.58	7939.10
391.78	7510.78
391.97	7164.38
392.16	6630.74
392.36	6143.91
392.55	4882.36
392.75	4046.79
392.94	3169.09
393.13	3183.13
393.33	3765.92
393.52	4814.48
393.71	5947.30
393.91	6630.74
394.10	7152.68
394.29	7875.90
394.49	8454.02
394.68	9228.73
394.88	9284.91
395.07	9474.49
395.26	9486.19
395.46	9228.73
395.65	8552.32
395.84	7489.71
396.04	6459.88
396.23	5186.63
396.42	4477.44
396.62	4189.56
396.81	4926.83
397.00	6415.41
397.19	7873.56
397.39	9415.98
397.58	10492.62
397.77	11166.70
397.97	11569.27
398.16	11880.56
398.35	12205.89
398.55	12348.67
398.74	13001.68
398.93	13006.36
399.12	12877.63
399.32	12439.95
399.51	12716.13
399.70	13722.56
399.90	13291.90
400.09	13455.74
400.28	13158.49
400.47	13509.57
400.67	14127.47
400.86	14565.15
401.05	14204.71
401.24	14239.82
401.44	14841.34
401.63	14860.06
401.82	14944.32
402.01	14937.30
402.21	15122.20
402.40	15056.67
402.59	14516.00
402.78	13858.31
402.97	13523.62
403.17	14005.77
403.36	14984.11
403.55	15892.24
403.74	15833.72
403.93	15070.71
404.13	13797.46
404.32	13706.18
404.51	14494.94
404.70	15833.72
404.89	15325.83
405.09	15145.61
405.28	14792.19
405.47	14590.90
405.66	14670.48
405.85	14300.67
406.05	13825.54
406.24	14300.67
406.43	14883.47
406.62	15194.76
406.81	15297.74
407.00	14712.61
407.20	14633.03
407.39	14513.66
407.58	15190.08
407.77	15941.39
407.96	16280.77
408.15	16549.93
408.34	16718.45
408.54	17130.38
408.73	17479.12
408.92	17226.34
409.11	16833.13
409.30	15927.35
409.49	14864.74
409.68	13778.73
409.87	13547.02
410.07	14408.34
410.26	15475.62
410.45	16489.07
410.64	17146.76
410.83	17481.46
411.02	18108.72
411.21	18569.81
411.40	18469.17
411.59	18427.04
411.78	18270.22
411.98	17898.08
412.17	18445.76
412.36	18085.32
412.55	18183.62
412.74	17612.53
412.93	17446.35
413.12	17610.19
413.31	19108.13
413.50	19307.08
413.69	19742.42
413.88	18890.46
414.07	18038.51
414.26	18686.84
414.45	19419.42
414.64	19683.91
414.83	19229.84
415.02	18838.97
415.22	18838.97
415.41	19344.53
415.60	20152.01
415.79	20898.64
415.98	21404.20
416.17	21448.67
416.36	20865.88
416.55	20568.63
416.74	19716.67
416.93	19077.71
417.12	19204.10
417.31	19550.49
417.50	20081.80
417.69	20460.96
417.88	20552.24
418.07	20423.51
418.26	19843.06
418.45	20140.31
418.64	20800.34
418.83	21593.78
419.02	21146.74
419.21	21003.97
419.39	19864.13
419.58	19379.64
419.77	19166.65
419.96	20032.65
420.15	21221.64
420.34	21942.52
420.53	22560.42
420.72	23239.18
420.91	22801.50
421.10	22740.64
421.29	22188.28
421.48	21722.51
421.67	22740.64
421.86	22162.53
422.05	20362.66
422.24	18422.36
422.43	18263.20
422.61	20379.04
422.80	22031.46
422.99	21769.32
423.18	20936.09
423.37	20407.13
423.56	20816.72
423.75	21013.33
423.94	21678.04
424.13	20346.28
424.32	20666.93
424.50	20648.21
424.69	20276.06
424.88	20477.35
425.07	20311.17
425.26	20294.79
425.45	20063.07
425.64	19763.48
425.83	19807.95
426.01	21041.42
426.20	21296.53
426.39	21308.24
426.58	19866.47
426.77	18221.07
426.96	17893.40
427.15	18115.75
427.33	19866.47
427.52	20587.35
427.71	20718.42
427.90	20418.83
428.09	20182.44
428.28	19859.45
428.46	19482.62
428.65	18892.80
428.84	19384.32
429.03	19566.88
429.22	18539.38
429.40	17774.03
429.59	15866.49
429.78	14029.17
429.97	14303.01
430.16	14391.95
430.34	14466.85
430.53	14602.60
430.72	14885.81
430.91	16416.52
431.10	19571.56
431.28	22511.27
431.47	24594.35
431.66	24638.82
431.85	22312.33
432.03	20676.29
432.22	19826.68
432.41	20812.04
432.60	23122.15
432.79	23836.02
432.97	24472.64
433.16	23782.18
433.35	21500.16
433.54	19316.44
433.72	18300.65
433.91	19192.39
434.10	21156.10
434.28	22780.43
434.47	24032.62
434.66	23679.20
434.85	22871.72
435.03	22860.01
435.22	23594.94
435.41	24596.69
435.59	24961.81
435.78	25209.91
435.97	25715.47
436.16	26064.21
436.34	25331.62
436.53	24877.55
436.72	24978.20
436.90	23969.43
437.09	23875.80
437.28	23616.01
437.46	24006.87
437.65	23896.87
437.84	22115.72
438.02	20599.05
438.21	20807.36
438.40	21722.51
438.58	23704.95
438.77	24355.61
438.96	24362.64
439.14	25359.70
439.33	25895.69
439.52	26604.87
439.70	26089.95
439.89	25032.03
440.08	24327.53
440.26	24472.64
440.45	25294.17
440.63	27087.02
440.82	28395.38
441.01	28208.14
441.19	27683.86
441.38	28175.37
441.57	29535.22
441.75	29347.98
441.94	29663.95
442.12	29418.19
442.31	30342.70
442.50	30022.05
442.68	29682.67
442.87	29282.44
443.05	29294.14
443.24	29261.38
443.43	30228.02
443.61	30492.50
443.80	30951.24
443.98	29102.22
444.17	29078.82
444.35	30780.39
444.54	31295.30
444.73	30635.27
444.91	29780.98
445.10	28599.01
445.28	27838.33
445.47	26602.53
445.65	27175.96
445.84	28360.27
446.02	28893.91
446.21	29219.25
446.39	29252.02
446.58	29514.16
446.77	29846.51
446.95	30284.19
447.14	31515.31
447.32	32114.49
447.51	31082.31
447.69	29979.92
447.88	29710.76
448.06	30143.76
448.25	30941.88
448.43	30895.07
448.62	30129.72
448.80	29914.39
448.99	30607.19
449.17	30707.83
449.36	30721.87
449.54	31868.73
449.73	32266.63
449.91	32879.85
450.10	33589.03
450.28	34251.40
450.46	34043.09
450.65	34043.09
450.83	33722.44
451.02	32711.33
451.20	32830.69
451.39	32671.54
451.57	32154.28
451.76	32484.30
451.94	32135.56
452.13	31847.67
452.31	30286.53
452.49	29064.77
452.68	29563.31
452.86	29645.23
453.05	29596.07
453.23	30712.51
453.42	31140.83
453.60	31683.83
453.78	32491.32
453.97	31779.79
454.15	32016.19
454.34	31124.44
454.52	31630.00
454.70	30906.77
454.89	31489.57
455.07	31033.16
455.26	31730.64
455.44	33024.96
455.62	33394.76
455.81	33729.46
455.99	33560.94
456.17	32994.53
456.36	33338.59
456.54	34338.00
456.73	33741.16
456.91	34588.44
457.09	35297.62
457.28	35512.95
457.46	34387.15
457.64	33907.34
457.83	32940.70
458.01	32100.45
458.19	33266.03
458.38	33472.00
458.56	34052.45
458.74	33848.83
458.93	33462.64
459.11	33397.10
459.29	33132.62
459.48	33156.03
459.66	33317.53
459.84	33497.75
460.03	34352.04
460.21	34396.51
460.39	34881.00
460.57	34747.59
460.76	35573.80
460.94	35028.46
461.12	35299.96
461.31	34845.90
461.49	35054.20
461.67	34796.74
461.85	36299.37
462.04	36037.23
462.22	36477.25
462.40	35915.52
462.59	35304.64
462.77	35716.58
462.95	35826.58
463.13	35637.00
463.32	35072.93
463.50	34857.60
463.68	35065.91
463.86	34829.51
464.05	34642.27
464.23	33689.67
464.41	33923.72
464.59	32968.79
464.78	34738.23
464.96	34668.02
465.14	34426.94
465.32	35335.07
465.50	36177.66
465.69	36416.40
465.87	35702.53
466.05	34735.89
466.23	32814.31
466.41	32165.98
466.60	33677.97
466.78	33546.90
466.96	34026.71
467.14	34911.43
467.32	35339.75
467.51	35124.42
467.69	33785.63
467.87	34277.15
468.05	34859.94
468.23	34953.56
468.41	34731.21
468.60	34333.32
468.78	35285.92
468.96	34445.66
469.14	35517.63
469.32	35679.13
469.50	34019.69
469.69	34260.76
469.87	34298.21
470.05	33422.85
470.23	34026.71
470.41	33825.42
470.59	34312.25
470.77	34595.46
470.95	35470.82
471.14	35267.19
471.32	35852.33
471.50	37504.74
471.68	38113.28
471.86	38052.43
472.04	38382.45
472.22	38611.82
472.40	36435.12
472.58	36112.13
472.77	35587.85
472.95	36767.48
473.13	37413.46
473.31	36308.73
473.49	36753.43
473.67	37422.83
473.85	37572.62
474.03	38356.70
474.21	38766.29
474.39	38630.54
474.57	39138.44
474.75	38976.94
474.93	38684.37
475.12	38094.56
475.30	37883.91
475.48	38286.48
475.66	38876.30
475.84	38178.82
476.02	37893.27
476.20	37153.66
476.38	38206.90
476.56	39548.03
476.74	39536.33
476.92	40020.82
477.10	40797.88
477.28	41610.04
477.46	41876.86
477.64	42319.23
477.82	42241.99
478.00	42454.98
478.18	41879.21
478.36	41390.03
478.54	41677.92
478.72	41963.46
478.90	43070.54
479.08	44154.21
479.26	44591.89
479.44	44966.37
479.62	43943.56
479.80	44378.90
479.98	44416.35
480.16	44414.01
480.34	43997.39
480.52	44524.01
480.70	44844.66
480.88	44947.65
481.06	46026.63
481.24	45705.98
481.41	46962.85
481.59	47835.87
481.77	47147.75
481.95	46649.22
482.13	46651.56
482.31	46618.79
482.49	47288.18
482.67	47093.92
482.85	47552.66
483.03	47531.60
483.21	48149.50
483.39	48208.01
483.57	47777.36
483.74	47264.78
483.92	47503.51
484.10	47920.13
484.28	48526.33
484.46	48605.91
484.64	49469.56
484.82	48657.40
485.00	47639.26
485.18	47414.57
485.35	45801.94
485.53	42892.66
485.71	38829.49
485.89	39529.31
486.07	41254.28
486.25	44198.68
486.43	46178.77
486.61	47222.65
486.78	47227.33
486.96	47349.04
487.14	49235.51
487.32	49544.46
487.50	50375.35
487.68	51414.55
487.85	52149.48
488.03	51973.94
488.21	51522.21
488.39	50714.73
488.57	50092.15
488.75	49890.86
488.92	51276.46
489.10	52996.75
489.28	54148.29
489.46	54901.95
489.64	54649.17
489.81	54759.17
489.99	54536.82
490.17	54501.71
490.35	55007.27
490.53	54518.10
490.70	54384.69
490.88	54000.84
491.06	55098.55
491.24	55065.78
491.41	53813.60
491.59	52615.24
491.77	51938.83
491.95	52924.19
492.13	53956.37
492.30	54958.12
492.48	55906.04
492.66	56310.95
492.84	56224.35
493.01	56128.39
493.19	55512.83
493.37	55353.67
493.54	55274.09
493.72	55894.33
493.90	56748.63
494.08	57223.76
494.25	57469.51
494.43	57801.87
494.61	57961.03
494.79	58078.05
494.96	57902.51
495.14	57572.50
495.32	56540.32
495.49	56165.84
495.67	56921.83
495.85	58141.25
496.02	58658.51
496.20	58461.90
496.38	57963.37
496.55	57984.43
496.73	58342.53
496.91	58365.94
497.09	58922.99
497.26	59159.38
497.44	58557.86
497.62	58192.74
497.79	57329.08
497.97	56348.40
498.14	56568.41
498.32	57649.74
498.50	58349.56
498.67	58908.94
498.85	58667.87
499.03	58965.12
499.20	59299.81
499.38	58988.52
499.56	59084.48
499.73	58461.90
499.91	58169.33
500.08	57558.45
500.26	57181.63
500.44	57785.49
500.61	58450.20
500.79	58010.18
500.97	57748.04
501.14	57595.90
501.32	57244.82
501.49	57483.56
501.67	57652.08
501.84	58096.78
502.02	58361.26
502.20	58700.64
502.37	58738.08
502.55	58962.78
502.72	59299.81
502.90	59788.98
503.07	59554.93
503.25	59173.42
503.43	58396.37
503.60	57645.05
503.78	57123.11
503.95	57598.24
504.13	59037.67
504.30	59489.40
504.48	59545.57
504.65	59133.63
504.83	59227.26
505.01	59568.97
505.18	60104.96
505.36	60619.88
505.53	60659.66
505.71	60837.54
505.88	60781.37
506.06	60203.26
506.23	60016.02
506.41	59686.00
506.58	59863.88
506.76	59798.35
506.93	59936.44
507.11	59468.33
507.28	59824.09
507.46	59178.10
507.63	58724.04
507.81	58614.04
507.98	58820.00
508.16	59447.27
508.33	60027.72
508.50	60409.23
508.68	60364.76
508.85	61038.83
509.03	61003.72
509.20	60734.56
509.38	60315.61
509.55	59725.79
509.73	59772.60
509.90	60259.43
510.08	60343.69
510.25	60317.95
510.42	60079.21
510.60	60142.41
510.77	60446.68
510.95	60685.41
511.12	60898.40
511.30	61125.43
511.47	61312.67
511.64	61425.02
511.82	61048.19
511.99	60346.03
512.17	59994.95
512.34	59655.57
512.51	59592.38
512.69	60116.66
512.86	60200.92
513.04	60434.97
513.21	60369.44
513.38	60081.55
513.56	59465.99
513.73	59077.46
513.90	59302.15
514.08	59437.90
514.25	59751.54
514.43	59758.56
514.60	59966.87
514.77	59980.91
514.95	60093.25
515.12	60121.34
515.29	60367.10
515.47	60697.11
515.64	60858.61
515.81	60645.62
515.99	60135.38
516.16	58632.76
516.33	56481.81
516.51	55210.90
516.68	54710.02
516.85	54143.61
517.03	54562.57
517.20	56996.73
517.37	59508.12
517.54	60254.75
517.72	59742.17
517.89	57233.12
518.06	55285.79
518.24	55767.94
518.41	57577.18
518.58	58789.58
518.75	58983.84
518.93	59217.89
519.10	58911.28
519.27	59578.34
519.45	59751.54
519.62	60561.36
519.79	60706.47
519.96	60554.34
520.14	60186.88
520.31	59264.70
520.48	59360.67
520.65	59566.63
520.83	60701.79
521.00	60928.83
521.17	60722.86
521.34	60210.28
521.52	60669.03
521.69	61109.05
521.86	61549.07
522.03	61109.05
522.20	60037.08
522.38	59154.70
522.55	59082.14
522.72	59629.83
522.89	59980.91
523.07	59898.99
523.24	60313.26
523.41	61188.63
523.58	61448.42
523.75	61628.65
523.92	61743.33
524.10	61633.33
524.27	61544.39
524.44	61361.82
524.61	61265.86
524.78	60980.32
524.96	61062.24
525.13	60942.87
525.30	61247.14
525.47	61701.20
525.64	61518.64
525.81	60903.08
525.98	59395.77
526.16	58152.95
526.33	57558.45
526.50	57605.26
526.67	57057.58
526.84	57846.34
527.01	58553.18
527.18	59107.89
527.36	60231.35
527.53	61090.32
527.70	61263.52
527.87	60470.08
528.04	60179.85
528.21	60933.51
528.38	61186.28
528.55	61740.99
528.72	62028.88
528.89	62117.82
529.07	61965.68
529.24	61279.91
529.41	60711.16
529.58	60095.60
529.75	60346.03
529.92	60769.67
530.09	61169.90
530.26	61462.47
530.43	61787.80
530.60	61914.19
530.77	62014.83
530.94	62195.06
531.11	61794.82
531.28	61427.36
531.46	61247.14
531.63	61361.82
531.80	61127.77
531.97	60860.95
532.14	60214.96
532.31	59210.87
532.48	58590.63
532.65	58665.53
532.82	59725.79
532.99	60535.62
533.16	60802.44
533.33	61368.85
533.50	61317.35
533.67	60619.88
533.84	60257.09
534.01	60301.56
534.18	60547.32
534.35	60851.59
534.52	60582.43
534.69	61085.64
534.86	61172.24
535.03	61532.68
535.20	61918.87
535.37	62101.43
535.54	62012.49
535.71	61790.14
535.88	61460.13
536.05	60870.31
536.22	60619.88
536.38	60395.18
536.55	59962.18
536.72	59423.86
536.89	59409.82
537.06	60111.98
537.23	61120.75
537.40	61116.07
537.57	61064.58
537.74	60992.02
537.91	61010.74
538.08	60837.54
538.25	60804.78
538.42	61303.31
538.59	60900.74
538.75	60053.47
538.92	59973.89
539.09	59971.55
539.26	59847.50
539.43	59671.96
539.60	59777.28
539.77	59978.57
539.94	59648.55
540.11	59098.53
540.28	58707.66
540.44	58702.98
540.61	58768.51
540.78	59255.34
540.95	59756.22
541.12	59821.75
541.29	60097.94
541.46	60355.39
541.62	60622.22
541.79	60170.49
541.96	59798.35
542.13	59922.40
542.30	60212.62
542.47	59983.25
542.63	59842.82
542.80	59660.26
542.97	59997.29
543.14	59812.39
543.31	59948.14
543.48	60200.92
543.64	61020.11
543.81	61188.63
543.98	61059.90
544.15	60214.96
544.32	59805.37
544.48	60060.49
544.65	60544.98
544.82	60900.74
544.99	60383.48
545.16	59948.14
545.32	59922.40
545.49	60839.89
545.66	60940.53
545.83	60343.69
546.00	60163.47
546.16	59943.46
546.33	60032.40
546.50	60102.62
546.67	60554.34
546.83	60186.88
547.00	60048.78
547.17	59566.63
547.34	58894.90
547.50	58941.71
547.67	59416.84
547.84	59374.71
548.00	59882.61
548.17	60313.26
548.34	59941.12
548.51	60158.79
548.67	60193.90
548.84	60140.07
549.01	60303.90
549.18	59983.25
549.34	59924.74
549.51	60156.45
549.68	60079.21
549.84	59688.34
550.01	59671.96
550.18	59557.27
550.34	59788.98
550.51	59686.00
550.68	59636.85
550.84	59231.94
551.01	59552.59
551.18	59487.06
551.34	59540.89
551.51	59831.11
551.68	60130.70
551.84	60154.11
552.01	60161.13
552.18	59732.81
552.34	59168.74
552.51	58948.73
552.68	58810.64
552.84	59229.60
553.01	59377.05
553.18	59255.34
553.34	59489.40
553.51	59494.08
553.67	59938.78
553.84	59922.40
554.01	59880.27
554.17	59533.87
554.34	59622.81
554.51	59845.16
554.67	60217.30
554.84	59898.99
555.00	59714.09
555.17	59707.07
555.33	59503.44
555.50	59285.77
555.67	59290.45
555.83	59288.11
556.00	58908.94
556.16	59185.13
556.33	58738.08
556.50	58527.44
556.66	58555.52
556.83	58302.74
556.99	58417.43
557.16	58553.18
557.32	58960.44
557.49	59182.79
557.65	58897.24
557.82	58791.92
557.98	58791.92
558.15	58298.06
558.32	57560.79
558.48	56959.28
558.65	56954.60
558.81	57476.54
558.98	57937.62
559.14	57832.30
559.31	58241.89
559.47	57975.07
559.64	57558.45
559.80	57361.85
559.97	57556.11
560.13	57694.21
560.30	58532.12
560.46	59021.29
560.63	59388.75
560.79	59283.43
560.96	59014.27
561.12	57776.12
561.29	56968.64
561.45	57219.08
561.61	57722.29
561.78	58122.52
561.94	57977.41
562.11	57935.28
562.27	57783.15
562.44	58040.60
562.60	58223.17
562.77	58660.85
562.93	58328.49
563.10	58218.49
563.26	57719.95
563.42	58005.50
563.59	57673.14
563.75	57710.59
563.92	57815.91
564.08	57682.50
564.24	58024.22
564.41	57820.59
564.57	57914.22
564.74	57698.89
564.90	57694.21
565.07	57499.94
565.23	57069.28
565.39	56856.29
565.56	56596.49
565.72	56243.07
565.88	56671.39
566.05	56825.87
566.21	56935.87
566.38	57233.12
566.54	57169.93
566.70	57364.19
566.87	57865.06
567.03	57766.76
567.19	57984.43
567.36	57457.81
567.52	57525.69
567.68	56872.68
567.85	56570.75
568.01	56512.23
568.17	55952.85
568.34	56121.37
568.50	56135.41
568.66	56294.56
568.83	56406.91
568.99	56563.73
569.15	56540.32
569.32	56612.88
569.48	56502.87
569.64	56245.41
569.81	56039.45
569.97	55976.25
570.13	55882.63
570.30	55302.18
570.46	55351.33
570.62	54576.61
570.78	54384.69
570.95	54658.53
571.11	55440.27
571.27	55505.80
571.43	56060.51
571.60	56348.40
571.76	56097.96
571.92	56526.28
572.09	56566.07
572.25	56566.07
572.41	56554.36
572.57	56617.56
572.74	56460.74
572.90	56062.85
573.06	56062.85
573.22	55913.06
573.38	56072.21
573.55	56186.90
573.71	56044.13
573.87	56062.85
574.03	56097.96
574.20	56086.26
574.36	55611.13
574.52	55526.87
574.68	55236.64
574.84	55077.49
575.01	54529.80
575.17	54532.14
575.33	54948.76
575.49	55037.70
575.65	55117.28
575.82	54939.39
575.98	54726.41
576.14	54925.35
576.30	55255.37
576.46	55435.59
576.62	55346.65
576.79	55297.50
576.95	55128.98
577.11	54883.22
577.27	54958.12
577.43	55313.88
577.59	54564.91
577.75	54424.48
577.92	53815.94
578.08	53546.78
578.24	53745.72
578.40	53848.71
578.56	54167.02
578.72	54199.79
578.88	54859.82
579.04	54604.70
579.21	54637.47
579.37	54506.40
579.53	54721.72
579.69	54672.57
579.85	54820.03
580.01	54389.37
580.17	54447.88
580.33	54160.00
580.49	54176.38
580.65	54681.94
580.82	54899.61
580.98	54695.98
581.14	54232.55
581.30	54649.17
581.46	54370.64
581.62	54602.36
581.78	54686.62
581.94	54981.52
582.10	54941.74
582.26	54941.74
582.42	54983.86
582.58	54859.82
582.74	54801.30
582.90	54684.28
583.06	54710.02
583.22	54761.51
583.38	54480.65
583.54	54707.68
583.70	54351.92
583.86	54487.67
584.02	54148.29
584.18	54450.22
584.34	54405.75
584.50	54293.41
584.66	54176.38
584.82	54031.27
584.98	53914.24
585.14	53588.91
585.30	52568.43
