SpectraSuite Data File
++++++++++++++++++++++++++++++++++++
Date: Mon Oct 07 14:53:36 GMT-05:00 2013
User: price-jones
Dark Spectrum Present: No
Reference Spectrum Present: No
Number of Sampled Component Spectra: 1
Spectrometers: USB2+H05261
Integration Time (usec): 100000 (USB2+H05261)
Spectra Averaged: 1 (USB2+H05261)
Boxcar Smoothing: 0 (USB2+H05261)
Correct for Electrical Dark: No (USB2+H05261)
Strobe/Lamp Enabled: No (USB2+H05261)
Correct for Detector Non-linearity: No (USB2+H05261)
Correct for Stray Light: No (USB2+H05261)
Number of Pixels in Processed Spectrum: 2048
>>>>>Begin Processed Spectral Data<<<<<
365.73	0.00
365.92	0.00
366.12	0.00
366.32	0.00
366.52	0.00
366.72	0.00
366.91	0.00
367.11	0.00
367.31	0.00
367.51	0.00
367.70	0.00
367.90	0.00
368.10	0.00
368.30	0.00
368.49	0.00
368.69	0.00
368.89	0.00
369.09	0.00
369.28	0.00
369.48	0.00
369.68	0.00
369.87	0.00
370.07	0.00
370.27	0.00
370.47	566.41
370.66	3405.48
370.86	4067.85
371.06	4704.48
371.25	4442.34
371.45	4351.06
371.65	3712.09
371.84	3480.38
372.04	3566.98
372.24	3967.21
372.44	4327.65
372.63	4224.67
372.83	3847.84
373.03	3475.70
373.22	3279.09
373.42	3286.11
373.62	3829.12
373.81	4194.24
374.01	4201.26
374.21	3852.52
374.40	3569.32
374.60	3639.53
374.79	4189.56
374.99	4837.89
375.19	5149.18
375.38	5343.44
375.58	4971.30
375.78	4901.08
375.97	4784.06
376.17	5195.99
376.37	5004.07
376.56	5235.78
376.76	5514.30
376.95	5741.33
377.15	6256.25
377.35	6509.03
377.54	6850.75
377.74	7033.31
377.93	6890.54
378.13	6661.16
378.33	6352.21
378.52	5984.75
378.72	5731.97
378.91	5713.25
379.11	5294.29
379.31	5320.04
379.50	5160.88
379.70	5760.06
379.89	6155.61
380.09	6724.36
380.28	7052.03
380.48	6801.60
380.68	6567.54
380.87	6502.01
381.07	5968.37
381.26	5596.22
381.46	5121.09
381.65	5088.32
381.85	5001.72
382.04	4720.86
382.24	4482.13
382.43	4159.13
382.63	4095.94
382.83	4161.47
383.02	4009.34
383.22	3983.59
383.41	4112.32
383.61	4559.36
383.80	5034.49
384.00	5647.71
384.19	6581.59
384.39	6736.06
384.58	6740.74
384.78	6689.25
384.97	6656.48
385.17	6326.47
385.36	6052.63
385.56	5605.58
385.75	5678.14
385.95	6272.64
386.14	6913.94
386.34	6984.16
386.53	6579.25
386.72	6221.14
386.92	6328.81
387.11	6623.72
387.31	7232.26
387.50	7103.53
387.70	6558.18
387.89	6663.51
388.09	6743.08
388.28	6534.78
388.48	6806.28
388.67	7222.89
388.86	7903.99
389.06	8435.29
389.25	8858.93
389.45	9153.84
389.64	9116.39
389.84	9011.06
390.03	8816.80
390.22	8840.20
390.42	9011.06
390.61	9846.63
390.81	10174.31
391.00	10593.26
391.19	10387.30
391.39	10211.76
391.58	9593.86
391.78	8994.68
391.97	8772.33
392.16	8205.92
392.36	7456.95
392.55	5942.62
392.75	4744.27
392.94	3864.22
393.13	3723.79
393.33	4414.25
393.52	5710.91
393.71	7138.63
393.91	8011.65
394.10	8748.92
394.29	9430.02
394.49	10471.56
394.68	10986.47
394.88	10902.22
395.07	11566.93
395.26	11234.57
395.46	11087.12
395.65	10319.42
395.84	9179.58
396.04	7588.02
396.23	6363.92
396.42	5132.79
396.62	5093.01
396.81	5837.30
397.00	7513.12
397.19	9233.41
397.39	11021.58
397.58	12578.04
397.77	13399.57
397.97	13532.98
398.16	14132.15
398.35	14551.11
398.55	14794.53
398.74	15349.23
398.93	15754.15
399.12	15412.43
399.32	14750.06
399.51	15337.53
399.70	16685.68
399.90	16116.93
400.09	16287.79
400.28	15892.24
400.47	16222.25
400.67	16936.12
400.86	17177.19
401.05	17397.20
401.24	17432.31
401.44	17600.83
401.63	17767.01
401.82	17673.39
402.01	17799.77
402.21	17851.27
402.40	18195.32
402.59	17692.11
402.78	16718.45
402.97	16255.02
403.17	16776.96
403.36	17914.46
403.55	18747.69
403.74	18979.40
403.93	18031.49
404.13	16889.31
404.32	16411.84
404.51	17074.21
404.70	18272.56
404.89	18302.99
405.09	18312.35
405.28	17762.33
405.47	17565.72
405.66	17628.92
405.85	17383.16
406.05	16500.78
406.24	16795.68
406.43	17912.12
406.62	18192.98
406.81	18394.27
407.00	17851.27
407.20	17076.55
407.39	17575.08
407.58	18455.12
407.77	18773.44
407.96	19690.93
408.15	19857.10
408.34	19929.66
408.54	20781.62
408.73	20800.34
408.92	20545.22
409.11	19990.52
409.30	19164.31
409.49	17666.36
409.68	16987.61
409.87	16030.33
410.07	16989.95
410.26	18586.19
410.45	19939.02
410.64	20369.68
410.83	20662.25
411.02	21273.13
411.21	22326.37
411.40	21844.22
411.59	22174.24
411.78	22050.19
411.98	21591.44
412.17	22181.26
412.36	21619.53
412.55	21598.46
412.74	21167.80
412.93	20709.06
413.12	21125.68
413.31	22946.61
413.50	22789.80
413.69	23183.01
413.88	22476.16
414.07	21961.25
414.26	22359.14
414.45	23161.94
414.64	23108.11
414.83	23253.22
415.02	22689.15
415.22	22724.26
415.41	23208.75
415.60	24203.48
415.79	24491.37
415.98	25479.07
416.17	25546.95
416.36	24900.96
416.55	24968.84
416.74	23527.06
416.93	23058.96
417.12	22815.54
417.31	23335.14
417.50	23534.09
417.69	24725.42
417.88	24664.57
418.07	24009.22
418.26	23728.35
418.45	23758.78
418.64	24760.53
418.83	25937.82
419.02	25427.58
419.21	25137.35
419.39	24266.67
419.58	22661.07
419.77	23360.89
419.96	24119.22
420.15	25200.55
420.34	26073.57
420.53	27056.59
420.72	27300.01
420.91	27269.58
421.10	26775.73
421.29	26618.91
421.48	25521.20
421.67	27030.85
421.86	26352.09
422.05	24687.97
422.24	22394.25
422.43	21759.96
422.61	24264.33
422.80	26251.45
422.99	26078.25
423.18	25392.47
423.37	24435.19
423.56	24821.38
423.75	24985.22
423.94	25792.70
424.13	24074.75
424.32	24936.07
424.50	24870.53
424.69	24142.63
424.88	24467.96
425.07	23845.38
425.26	24203.48
425.45	24077.09
425.64	23482.59
425.83	23452.17
426.01	24936.07
426.20	25551.63
426.39	25486.09
426.58	23758.78
426.77	21645.27
426.96	21050.78
427.15	21584.42
427.33	23777.50
427.52	24467.96
427.71	24816.70
427.90	24376.68
428.09	23861.76
428.28	23901.55
428.46	23021.51
428.65	22497.23
428.84	23124.49
429.03	23573.88
429.22	22071.25
429.40	21371.43
429.59	19051.96
429.78	17057.82
429.97	16835.47
430.16	17036.76
430.34	17427.63
430.53	17062.51
430.72	17474.44
430.91	19431.13
431.10	23012.15
431.28	26927.86
431.47	28971.15
431.66	29406.49
431.85	26824.88
432.03	24933.73
432.22	23786.86
432.41	24493.71
432.60	26993.40
432.79	28238.56
432.97	28783.91
433.16	28306.44
433.35	26249.11
433.54	23356.21
433.72	21942.52
433.91	22366.16
434.10	25071.82
434.28	27082.34
434.47	28203.46
434.66	27861.74
434.85	26979.36
435.03	27037.87
435.22	27852.38
435.41	29156.05
435.59	29741.19
435.78	29701.40
435.97	30689.10
436.16	31042.53
436.34	30319.30
436.53	29692.04
436.72	30000.99
436.90	28407.08
437.09	28299.42
437.28	26998.08
437.46	28524.11
437.65	28669.22
437.84	27058.93
438.02	24540.52
438.21	24182.42
438.40	25666.31
438.58	27981.10
438.77	28568.58
438.96	29099.88
439.14	30031.41
439.33	30759.32
439.52	31246.15
439.70	30974.65
439.89	30057.16
440.08	29336.27
440.26	28723.05
440.45	30183.55
440.63	32055.98
440.82	33282.42
441.01	33251.99
441.19	33048.36
441.38	33310.50
441.57	34611.84
441.75	35405.28
441.94	35093.99
442.12	35089.31
442.31	35770.41
442.50	35424.01
442.68	35105.70
442.87	34607.16
443.05	34237.36
443.24	34579.07
443.43	35124.42
443.61	36208.09
443.80	36734.71
443.98	35016.75
444.17	34284.17
444.35	36285.33
444.54	36975.78
444.73	36720.66
444.91	35372.52
445.10	33610.09
445.28	32292.37
445.47	31875.76
445.65	32421.10
445.84	32830.69
446.02	34101.61
446.21	34637.59
446.39	35143.14
446.58	35278.89
446.77	35456.78
446.95	36002.12
447.14	37064.72
447.32	37574.96
447.51	36690.24
447.69	35772.75
447.88	34841.21
448.06	35257.83
448.25	36397.67
448.43	36488.95
448.62	35725.94
448.80	35292.94
448.99	35952.97
449.17	35852.33
449.36	36046.59
449.54	37675.60
449.73	38169.46
449.91	38480.75
450.10	39482.50
450.28	39871.03
450.46	39503.56
450.65	39871.03
450.83	39669.74
451.02	38532.24
451.20	38742.89
451.39	38707.78
451.57	38405.85
451.76	38513.52
451.94	38204.56
452.13	37352.61
452.31	35721.26
452.49	33965.85
452.68	34593.12
452.86	34820.15
453.05	35145.48
453.23	35852.33
453.42	36900.89
453.60	37612.41
453.78	38480.75
453.97	38169.46
454.15	37762.20
454.34	36737.05
454.52	37024.93
454.70	36236.17
454.89	36706.62
455.07	37118.56
455.26	36982.80
455.44	38572.03
455.62	39974.01
455.81	39793.79
455.99	39234.40
456.17	39288.23
456.36	38927.79
456.54	40086.36
456.73	40182.32
456.91	40875.12
457.09	41181.73
457.28	42003.25
457.46	39943.58
457.64	39765.70
457.83	38721.82
458.01	38094.56
458.19	38990.98
458.38	38845.87
458.56	40442.12
458.74	39835.92
458.93	39402.92
459.11	39541.01
459.29	39168.87
459.48	39152.48
459.66	39040.14
459.84	39433.35
460.03	40240.83
460.21	39826.56
460.39	40825.96
460.57	41163.00
460.76	41038.95
460.94	41607.70
461.12	41001.50
461.31	40781.49
461.49	41120.87
461.67	40898.52
461.85	42471.36
462.04	42267.73
462.22	42511.15
462.40	42068.79
462.59	41577.28
462.77	42036.02
462.95	42185.82
463.13	41596.00
463.32	41420.46
463.50	41198.11
463.68	41006.19
463.86	41289.39
464.05	40605.95
464.23	39615.91
464.41	39398.24
464.59	39196.95
464.78	41125.55
464.96	40687.87
465.14	40107.42
465.32	41331.52
465.50	41860.48
465.69	42827.12
465.87	41844.10
466.05	40540.42
466.23	38843.53
466.41	37909.66
466.60	39100.99
466.78	38909.07
466.96	39679.10
467.14	40390.62
467.32	41214.49
467.51	40952.35
467.69	39168.87
467.87	40275.94
468.05	40666.81
468.23	40720.64
468.41	40708.94
468.60	41069.38
468.78	41490.68
468.96	40502.97
469.14	41343.22
469.32	41605.36
469.50	39798.47
469.69	40294.66
469.87	39985.71
470.05	39255.46
470.23	39269.51
470.41	39777.40
470.59	40229.13
470.77	40617.66
470.95	41263.64
471.14	41322.16
471.32	41556.21
471.50	43798.44
471.68	43356.08
471.86	43997.39
472.04	44273.57
472.22	44802.53
472.40	42789.67
472.58	42548.60
472.77	41820.69
472.95	42525.19
473.13	43625.25
473.31	42518.17
473.49	42632.86
473.67	43878.02
473.85	43697.80
474.03	45212.13
474.21	45413.41
474.39	45212.13
474.57	45368.94
474.75	45680.24
474.93	45048.29
475.12	44172.93
475.30	43983.35
475.48	44294.64
475.66	45242.56
475.84	44753.38
476.02	43791.42
476.20	43861.64
476.38	44072.29
476.56	45717.68
476.74	45752.79
476.92	46443.25
477.10	47037.75
477.28	48088.65
477.46	48247.80
477.64	48531.01
477.82	48514.62
478.00	48823.58
478.18	47997.37
478.36	47760.97
478.54	47711.82
478.72	48336.74
478.90	49621.70
479.08	49588.93
479.26	50756.86
479.44	50328.54
479.62	50422.16
479.80	50035.97
479.98	50237.26
480.16	50686.64
480.34	50431.52
480.52	50768.56
480.70	50918.35
480.88	51058.79
481.06	51922.44
481.24	51763.29
481.41	52519.28
481.59	52736.95
481.77	52893.77
481.95	52374.17
482.13	52294.59
482.31	52395.23
482.49	53041.22
482.67	52828.23
482.85	52727.59
483.03	53478.90
483.21	53443.79
483.39	53738.70
483.57	52921.85
483.74	52603.54
483.92	52963.98
484.10	53230.80
484.28	53993.82
484.46	54262.98
484.64	54461.93
484.82	53949.35
485.00	53354.85
485.18	52804.83
485.35	51995.00
485.53	49270.62
485.71	45610.02
485.89	44961.69
486.07	47021.36
486.25	49977.46
486.43	52353.10
486.61	52818.87
486.78	52821.21
486.96	52844.62
487.14	54138.93
487.32	54754.49
487.50	55533.89
487.68	56193.92
487.85	56741.61
488.03	56275.84
488.21	56203.28
488.39	55798.37
488.57	55058.76
488.75	54862.16
488.92	55657.94
489.10	57382.91
489.28	58475.94
489.46	58986.18
489.64	58948.73
489.81	59238.96
489.99	58993.20
490.17	58887.88
490.35	59096.19
490.53	58667.87
490.70	58457.22
490.88	58159.97
491.06	59250.66
491.24	59135.98
491.41	58314.45
491.59	57193.33
491.77	56474.79
491.95	57291.63
492.13	58174.02
492.30	59065.76
492.48	60004.31
492.66	60339.01
492.84	60509.87
493.01	60200.92
493.19	59763.24
493.37	59480.03
493.54	59171.08
493.72	59962.18
493.90	60577.75
494.08	61205.01
494.25	61441.40
494.43	61509.28
494.61	61989.09
494.79	62108.46
494.96	61851.00
495.14	61265.86
495.32	60523.91
495.49	59936.44
495.67	60786.05
495.85	62138.88
496.02	62202.08
496.20	62183.35
496.38	61862.70
496.55	61607.58
496.73	62099.09
496.91	62138.88
497.09	62784.87
497.26	62922.96
497.44	62389.32
497.62	61946.96
497.79	61537.36
497.97	60154.11
498.14	60355.39
498.32	61209.69
498.50	61989.09
498.67	62628.05
498.85	62358.89
499.03	62606.99
499.20	62974.45
499.38	62855.09
499.56	62745.08
499.73	62351.87
499.91	62155.27
500.08	61659.07
500.26	60907.76
500.44	61256.50
500.61	61811.21
500.79	61804.19
500.97	61446.08
501.14	61394.59
501.32	61205.01
501.49	61235.44
501.67	61340.76
501.84	61911.85
502.02	61900.15
502.20	62429.11
502.37	62485.28
502.55	62642.10
502.72	63103.18
502.90	63440.22
503.07	63238.93
503.25	62939.35
503.43	62162.29
503.60	61558.43
503.78	60987.34
503.95	61413.32
504.13	62496.98
504.30	63274.04
504.48	63171.06
504.65	62747.42
504.83	62798.91
505.01	63290.43
505.18	63501.07
505.36	64278.13
505.53	64285.15
505.71	64458.35
505.88	64444.31
506.06	63934.07
506.23	63697.68
506.41	63271.70
506.58	63536.18
506.76	63468.31
506.93	63468.31
507.11	63278.72
507.28	63391.07
507.46	62983.82
507.63	62379.96
507.81	62265.27
507.98	62424.43
508.16	63089.14
508.33	63526.82
508.50	63905.99
508.68	64055.78
508.85	64547.29
509.03	64530.91
509.20	64481.76
509.38	63875.56
509.55	62983.82
509.73	63192.12
509.90	63760.87
510.08	63803.00
510.25	63854.50
510.42	63657.89
510.60	63678.96
510.77	63882.58
510.95	64315.58
511.12	64488.78
511.30	64701.77
511.47	65066.89
511.64	64872.63
511.82	64563.68
511.99	63934.07
512.17	63704.70
512.34	63187.44
512.51	63477.67
512.69	63547.89
512.86	63496.39
513.04	64015.99
513.21	63945.78
513.38	63721.08
513.56	63318.51
513.73	62553.16
513.90	62864.45
514.08	62906.58
514.25	63196.80
514.43	63416.82
514.60	63351.28
514.77	63669.59
514.95	63653.21
515.12	63536.18
515.29	63868.54
515.47	64301.54
515.64	64439.63
515.81	64313.24
515.99	63461.29
516.16	62321.44
516.33	60327.31
516.51	58990.86
516.68	58754.47
516.85	58295.72
517.03	58618.72
517.20	60498.17
517.37	62845.72
517.54	63767.90
517.72	63355.96
517.89	61322.04
518.06	59040.01
518.24	59449.61
518.41	61347.78
518.58	62688.91
518.75	62740.40
518.93	62986.16
519.10	62724.02
519.27	63070.42
519.45	63362.98
519.62	64062.80
519.79	64135.36
519.96	64137.70
520.14	63817.05
520.31	62901.90
520.48	62831.68
520.65	63250.64
520.83	64044.08
521.00	64348.35
521.17	64072.17
521.34	63606.40
521.52	63936.41
521.69	64547.29
521.86	64856.24
522.03	64638.57
522.20	63580.65
522.38	62518.05
522.55	62742.74
522.72	63217.87
522.89	63285.75
523.07	63522.14
523.24	63711.72
523.41	64640.92
523.58	64905.40
523.75	65188.60
523.92	64928.80
524.10	65008.38
524.27	64961.57
524.44	64739.22
524.61	64467.72
524.78	64533.25
524.96	64432.61
525.13	64470.06
525.30	64690.07
525.47	65066.89
525.64	64963.91
525.81	64336.65
525.98	63215.53
526.16	61755.03
526.33	61233.10
526.50	60989.68
526.67	60610.51
526.84	61006.06
527.01	62019.52
527.18	62862.11
527.36	63524.48
527.53	64285.15
527.70	64521.55
527.87	64182.17
528.04	63838.11
528.21	64006.63
528.38	64664.32
528.55	65237.75
528.72	65359.46
528.89	65535.00
529.07	65387.55
529.24	64863.27
529.41	64179.83
529.58	63597.04
529.75	63758.53
529.92	64287.49
530.09	64289.84
530.26	65034.13
530.43	65293.92
530.60	65172.22
530.77	65378.18
530.94	65511.59
531.11	65059.87
531.28	64881.99
531.46	64512.19
531.63	64874.97
531.80	64601.13
531.97	64147.06
532.14	63636.83
532.31	62899.56
532.48	62071.01
532.65	62178.67
532.82	62941.69
532.99	63941.10
533.16	64149.40
533.33	64685.39
533.50	64540.27
533.67	64062.80
533.84	63519.80
534.01	63697.68
534.18	63943.44
534.35	64207.92
534.52	63994.93
534.69	64252.39
534.86	64587.08
535.03	64669.00
535.20	65118.38
535.37	65368.82
535.54	65525.64
535.71	65307.97
535.88	65010.72
536.05	64261.75
536.22	64065.14
536.38	63749.17
536.55	63407.45
536.72	62829.34
536.89	62791.89
537.06	63494.05
537.23	64378.78
537.40	64427.93
537.57	64439.63
537.74	64198.55
537.91	64271.11
538.08	64081.53
538.25	64175.15
538.42	64343.67
538.59	64306.22
538.75	63718.74
538.92	63491.71
539.09	63262.34
539.26	63276.38
539.43	62967.43
539.60	63210.85
539.77	63313.83
539.94	63147.65
540.11	62459.54
540.28	62066.33
540.44	62056.96
540.61	62122.50
540.78	62452.51
540.95	63056.37
541.12	63217.87
541.29	63377.03
541.46	63840.45
541.62	63877.90
541.79	63667.25
541.96	63157.02
542.13	62948.71
542.30	63384.05
542.47	63606.40
542.63	63234.25
542.80	63107.86
542.97	63264.68
543.14	63166.38
543.31	63035.31
543.48	63742.15
543.64	64360.05
543.81	64617.51
543.98	64430.27
544.15	63821.73
544.32	63297.45
544.48	63384.05
544.65	63688.32
544.82	64179.83
544.99	63779.60
545.16	63683.64
545.32	63262.34
545.49	63922.37
545.66	64343.67
545.83	63840.45
546.00	63529.16
546.16	63252.98
546.33	63276.38
546.50	63323.19
546.67	63758.53
546.83	63348.94
547.00	63519.80
547.17	62885.51
547.34	62258.25
547.50	62134.20
547.67	62511.03
547.84	62681.89
548.00	62951.05
548.17	63421.50
548.34	63454.26
548.51	63339.58
548.67	63334.90
548.84	63456.60
549.01	63377.03
549.18	63255.32
549.34	63325.53
549.51	63203.83
549.68	63173.40
549.84	63196.80
550.01	62925.30
550.18	62761.47
550.34	62869.13
550.51	62827.00
550.68	63105.52
550.84	62628.05
551.01	62621.03
551.18	62557.84
551.34	62794.23
551.51	63112.55
551.68	63480.01
551.84	63564.27
552.01	63407.45
552.18	63161.70
552.34	62539.11
552.51	62173.99
552.68	61930.58
552.84	62525.07
553.01	62625.71
553.18	62672.52
553.34	62843.38
553.51	62775.51
553.67	63171.06
553.84	63140.63
554.01	63149.99
554.17	63025.95
554.34	63054.03
554.51	63096.16
554.67	63430.86
554.84	63196.80
555.00	63002.54
555.17	62878.49
555.33	62700.61
555.50	62726.36
555.67	62714.65
555.83	62564.86
556.00	62307.40
556.16	62265.27
556.33	61834.61
556.50	61848.66
556.66	61832.27
556.83	61738.65
556.99	61663.75
557.16	61759.72
557.32	62293.36
557.49	62276.97
557.65	62328.47
557.82	62260.59
557.98	62033.56
558.15	61696.52
558.32	60807.12
558.48	60186.88
558.65	60397.52
558.81	60797.76
558.98	61008.40
559.14	61087.98
559.31	61286.93
559.47	61249.48
559.64	60938.19
559.80	60736.90
559.97	60673.71
560.13	61095.00
560.30	61726.95
560.46	62255.91
560.63	62539.11
560.79	62489.96
560.96	62237.19
561.12	61282.25
561.29	60488.80
561.45	60601.15
561.61	60849.25
561.78	61324.38
561.94	61300.97
562.11	61319.70
562.27	60996.70
562.44	61392.25
562.60	61619.28
562.77	61914.19
562.93	61726.95
563.10	61621.62
563.26	60992.02
563.42	61148.84
563.59	60907.76
563.75	60945.21
563.92	61078.62
564.08	61003.72
564.24	61272.88
564.41	61263.52
564.57	61162.88
564.74	61118.41
564.90	61048.19
565.07	60605.83
565.23	60449.02
565.39	60037.08
565.56	60032.40
565.72	59667.28
565.88	60011.34
566.05	60088.57
566.21	60392.84
566.38	60310.92
566.54	60458.38
566.70	60736.90
566.87	61010.74
567.03	60872.65
567.19	61347.78
567.36	60963.93
567.52	60804.78
567.68	60622.22
567.85	60177.51
568.01	59803.03
568.17	59405.14
568.34	59540.89
568.50	59463.65
568.66	59477.69
568.83	59821.75
568.99	59891.97
569.15	60023.04
569.32	59861.54
569.48	59821.75
569.64	59615.79
569.81	59337.26
569.97	59318.54
570.13	59419.18
570.30	58747.45
570.46	58599.99
570.62	58075.71
570.78	58010.18
570.95	58281.68
571.11	58798.94
571.27	59068.10
571.43	59161.72
571.60	59391.09
571.76	59522.16
571.92	59873.24
572.09	60086.23
572.25	59732.81
572.41	60018.36
572.57	59711.75
572.74	59779.62
572.90	59327.90
573.06	59231.94
573.22	59487.06
573.38	59508.12
573.55	59477.69
573.71	59529.19
573.87	59510.46
574.03	59114.91
574.20	59323.22
574.36	59051.72
574.52	59047.04
574.68	58539.14
574.84	58457.22
575.01	58225.51
575.17	57944.64
575.33	58410.41
575.49	58501.69
575.65	58464.24
575.82	58417.43
575.98	58244.23
576.14	58592.97
576.30	58831.71
576.46	58742.77
576.62	58756.81
576.79	58677.23
576.95	58382.32
577.11	58134.23
577.27	58319.13
577.43	58459.56
577.59	58188.06
577.75	57876.77
577.92	57251.84
578.08	57392.28
578.24	57071.62
578.40	57411.00
578.56	57851.02
578.72	57708.25
578.88	57813.57
579.04	58288.70
579.21	58085.07
579.37	58162.31
579.53	58089.76
579.69	58159.97
579.85	58269.98
580.01	58305.09
580.17	57935.28
580.33	57694.21
580.49	57951.66
580.65	58007.84
580.82	58096.78
580.98	58307.43
581.14	58038.26
581.30	58195.08
581.46	58028.90
581.62	58281.68
581.78	58145.93
581.94	58422.11
582.10	58108.48
582.26	58443.18
582.42	58349.56
582.58	58504.03
582.74	58138.91
582.90	58225.51
583.06	58237.21
583.22	57858.04
583.38	58108.48
583.54	57822.93
583.70	57593.56
583.86	58003.16
584.02	57968.05
584.18	57733.99
584.34	57846.34
584.50	57710.59
584.66	57652.08
584.82	57219.08
584.98	57408.66
585.14	57099.71
