SpectraSuite Data File
++++++++++++++++++++++++++++++++++++
Date: Mon Oct 07 14:53:15 GMT-05:00 2013
User: price-jones
Dark Spectrum Present: No
Reference Spectrum Present: No
Number of Sampled Component Spectra: 1
Spectrometers: USB2+H05261
Integration Time (usec): 100000 (USB2+H05261)
Spectra Averaged: 1 (USB2+H05261)
Boxcar Smoothing: 0 (USB2+H05261)
Correct for Electrical Dark: No (USB2+H05261)
Strobe/Lamp Enabled: No (USB2+H05261)
Correct for Detector Non-linearity: No (USB2+H05261)
Correct for Stray Light: No (USB2+H05261)
Number of Pixels in Processed Spectrum: 2048
>>>>>Begin Processed Spectral Data<<<<<
365.73	0.00
365.92	0.00
366.12	0.00
366.32	0.00
366.52	0.00
366.72	0.00
366.91	0.00
367.11	0.00
367.31	0.00
367.51	0.00
367.70	0.00
367.90	0.00
368.10	0.00
368.30	0.00
368.49	0.00
368.69	0.00
368.89	0.00
369.09	0.00
369.28	0.00
369.48	0.00
369.68	0.00
369.87	0.00
370.07	49.15
370.27	49.15
370.47	3353.99
370.66	13699.16
370.86	15173.69
371.06	16081.82
371.25	15714.36
371.45	14274.93
371.65	12952.52
371.84	12517.18
372.04	13642.98
372.24	14829.63
372.44	14939.64
372.63	14260.88
372.83	13200.62
373.03	11674.59
373.22	11323.51
373.42	12332.28
373.62	13951.93
373.81	14525.36
374.01	14019.81
374.21	12865.92
374.40	12180.15
374.60	13284.88
374.79	15321.15
374.99	17207.62
375.19	17935.53
375.38	17572.74
375.58	16524.18
375.78	16402.47
375.97	16783.98
376.17	17451.03
376.37	17638.28
376.56	18146.17
376.76	19030.90
376.95	20336.91
377.15	21364.41
377.35	22363.82
377.54	23463.87
377.74	24084.11
377.93	23534.09
378.13	22492.55
378.33	21310.58
378.52	20060.73
378.72	19318.78
378.91	18956.00
379.11	18265.54
379.31	17661.68
379.50	18169.58
379.70	19948.39
379.89	21610.17
380.09	22771.07
380.28	23342.16
380.48	23307.05
380.68	22906.82
380.87	21956.57
381.07	20006.90
381.26	18991.11
381.46	17565.72
381.65	17195.92
381.85	17027.40
382.04	15646.48
382.24	14658.78
382.43	14434.08
382.63	14181.31
382.83	13994.06
383.02	14211.73
383.22	14209.39
383.41	14462.17
383.61	15428.81
383.80	18082.98
384.00	20570.97
384.19	22228.07
384.39	23028.53
384.58	23358.55
384.78	22499.57
384.97	21977.63
385.17	20931.41
385.36	19756.46
385.56	19255.59
385.75	20659.91
385.95	22239.77
386.14	23580.90
386.34	23061.30
386.53	22375.52
386.72	21170.15
386.92	22066.57
387.11	22955.97
387.31	23819.63
387.50	22981.72
387.70	22302.96
387.89	22675.11
388.09	22843.63
388.28	22328.71
388.48	23255.56
388.67	24844.79
388.86	27775.14
389.06	29041.37
389.25	30752.30
389.45	30319.30
389.64	30000.99
389.84	29694.38
390.03	29429.90
390.22	30305.26
390.42	31524.68
390.61	33518.81
390.81	34714.83
391.00	35690.83
391.19	34712.49
391.39	34176.50
391.58	31426.37
391.78	29769.27
391.97	29095.20
392.16	26635.30
392.36	23321.10
392.55	18855.36
392.75	14960.70
392.94	12821.45
393.13	13614.90
393.33	16769.94
393.52	21015.67
393.71	25120.97
393.91	27770.46
394.10	29900.34
394.29	33221.56
394.49	35150.17
394.68	37757.52
394.88	37296.44
395.07	38361.38
395.26	38199.88
395.46	37102.17
395.65	34040.75
395.84	29362.02
396.04	24063.05
396.23	19461.55
396.42	17322.30
396.62	17687.43
396.81	21551.65
397.00	27302.35
397.19	33673.29
397.39	38567.35
397.58	42667.97
397.77	44587.21
397.97	45764.49
398.16	46234.94
398.35	47892.04
398.55	49050.61
398.74	49670.85
398.93	50567.27
399.12	49785.54
399.32	49169.97
399.51	49535.10
399.70	52112.03
399.90	51295.18
400.09	51070.49
400.28	51269.43
400.47	51503.49
400.67	52729.93
400.86	53422.73
401.05	53331.45
401.24	53544.44
401.44	53977.43
401.63	54284.04
401.82	54522.78
402.01	54316.81
402.21	54539.16
402.40	54663.21
402.59	53584.22
402.78	52381.19
402.97	52439.70
403.17	53640.40
403.36	55299.84
403.55	55980.93
403.74	56095.62
403.93	54319.15
404.13	52002.02
404.32	52240.76
404.51	54099.14
404.70	55454.31
404.89	55412.18
405.09	54791.94
405.28	54452.56
405.47	54370.64
405.66	53790.19
405.85	52793.12
406.05	52446.72
406.24	53312.72
406.43	54677.25
406.62	55276.43
406.81	55231.96
407.00	54094.46
407.20	53261.23
407.39	53937.65
407.58	55618.15
407.77	56191.58
407.96	56910.13
408.15	57275.25
408.34	57565.48
408.54	58267.64
408.73	58569.57
408.92	57867.40
409.11	57048.22
409.30	56343.72
409.49	53928.28
409.68	52875.04
409.87	51934.15
410.07	54225.53
410.26	56081.58
410.45	57602.92
410.64	58440.84
410.83	59091.51
411.02	59456.63
411.21	60126.02
411.40	59744.51
411.59	60027.72
411.78	59997.29
411.98	59985.59
412.17	60257.09
412.36	59875.58
412.55	59601.74
412.74	58913.62
412.93	58557.86
413.12	59222.58
413.31	61483.53
413.50	61464.81
413.69	61675.46
413.88	60563.70
414.07	60170.49
414.26	60757.97
414.45	61158.20
414.64	61017.77
414.83	60933.51
415.02	61010.74
415.22	61183.94
415.41	62019.52
415.60	62667.84
415.79	63463.63
415.98	63458.94
416.17	63316.17
416.36	62824.66
416.55	62546.14
416.74	61745.67
416.93	60949.89
417.12	61378.21
417.31	61848.66
417.50	61914.19
417.69	62511.03
417.88	62618.69
418.07	62679.55
418.26	61968.02
418.45	62415.07
418.64	63440.22
418.83	63889.60
419.02	63601.72
419.21	63182.76
419.39	62087.39
419.58	61640.35
419.77	61813.55
419.96	62871.47
420.15	64008.97
420.34	64493.46
420.53	65052.85
420.72	65420.31
420.91	65249.45
421.10	65029.44
421.29	64711.13
421.48	64243.02
421.67	64914.76
421.86	63898.97
422.05	62127.18
422.24	60189.22
422.43	60947.55
422.61	63142.97
422.80	64467.72
422.99	64451.33
423.18	63465.97
423.37	62997.86
423.56	63194.46
423.75	63398.09
423.94	64116.64
424.13	62653.80
424.32	62897.22
424.50	62887.85
424.69	62841.04
424.88	62946.37
425.07	62857.43
425.26	62831.68
425.45	62410.38
425.64	62085.05
425.83	62913.60
426.01	63693.00
426.20	63987.91
426.39	63538.52
426.58	61525.66
426.77	60200.92
426.96	59674.30
427.15	60982.66
427.33	63037.65
427.52	62995.52
427.71	62939.35
427.90	62667.84
428.09	62487.62
428.28	62007.81
428.46	61240.12
428.65	61609.92
428.84	61963.34
429.03	61893.13
429.22	60140.07
429.40	58536.80
429.59	56552.02
429.78	53574.86
429.97	53951.69
430.16	54040.63
430.34	54422.14
430.53	54550.87
430.72	56034.77
430.91	59161.72
431.10	62592.95
431.28	65535.00
431.47	65535.00
431.66	65535.00
431.85	64858.59
432.03	62951.05
432.22	62658.48
432.41	63744.49
432.60	65535.00
432.79	65535.00
432.97	65535.00
433.16	65535.00
433.35	63634.48
433.54	61415.66
433.72	60690.09
433.91	61932.92
434.10	64116.64
434.28	65535.00
434.47	65535.00
434.66	65535.00
434.85	65535.00
435.03	65535.00
435.22	65535.00
435.41	65535.00
435.59	65535.00
435.78	65535.00
435.97	65535.00
436.16	65535.00
436.34	65535.00
436.53	65535.00
436.72	65535.00
436.90	65535.00
437.09	65535.00
437.28	65535.00
437.46	65535.00
437.65	65535.00
437.84	64823.48
438.02	63671.93
438.21	63697.68
438.40	64678.36
438.58	65535.00
438.77	65535.00
438.96	65535.00
439.14	65535.00
439.33	65535.00
439.52	65535.00
439.70	65535.00
439.89	65535.00
440.08	65535.00
440.26	65535.00
440.45	65535.00
440.63	65535.00
440.82	65535.00
441.01	65535.00
441.19	65535.00
441.38	65535.00
441.57	65535.00
441.75	65535.00
441.94	65535.00
442.12	65535.00
442.31	65535.00
442.50	65535.00
442.68	65535.00
442.87	65535.00
443.05	65535.00
443.24	65535.00
443.43	65535.00
443.61	65535.00
443.80	65535.00
443.98	65535.00
444.17	65535.00
444.35	65535.00
444.54	65535.00
444.73	65535.00
444.91	65535.00
445.10	65535.00
445.28	65535.00
445.47	65535.00
445.65	65535.00
445.84	65535.00
446.02	65535.00
446.21	65535.00
446.39	65535.00
446.58	65535.00
446.77	65535.00
446.95	65535.00
447.14	65535.00
447.32	65535.00
447.51	65535.00
447.69	65535.00
447.88	65535.00
448.06	65535.00
448.25	65535.00
448.43	65535.00
448.62	65535.00
448.80	65535.00
448.99	65535.00
449.17	65535.00
449.36	65535.00
449.54	65535.00
449.73	65535.00
449.91	65535.00
450.10	65535.00
450.28	65535.00
450.46	65535.00
450.65	65535.00
450.83	65535.00
451.02	65535.00
451.20	65535.00
451.39	65535.00
451.57	65535.00
451.76	65535.00
451.94	65535.00
452.13	65535.00
452.31	65535.00
452.49	65535.00
452.68	65535.00
452.86	65535.00
453.05	65535.00
453.23	65535.00
453.42	65535.00
453.60	65535.00
453.78	65535.00
453.97	65535.00
454.15	65535.00
454.34	65535.00
454.52	65535.00
454.70	65535.00
454.89	65535.00
455.07	65535.00
455.26	65535.00
455.44	65535.00
455.62	65535.00
455.81	65535.00
455.99	65535.00
456.17	65535.00
456.36	65535.00
456.54	65535.00
456.73	65535.00
456.91	65535.00
457.09	65535.00
457.28	65535.00
457.46	65535.00
457.64	65535.00
457.83	65535.00
458.01	65535.00
458.19	65535.00
458.38	65535.00
458.56	65535.00
458.74	65535.00
458.93	65535.00
459.11	65535.00
459.29	65535.00
459.48	65535.00
459.66	65535.00
459.84	65535.00
460.03	65535.00
460.21	65535.00
460.39	65535.00
460.57	65535.00
460.76	65535.00
460.94	65535.00
461.12	65535.00
461.31	65535.00
461.49	65535.00
461.67	65535.00
461.85	65535.00
462.04	65535.00
462.22	65535.00
462.40	65535.00
462.59	65535.00
462.77	65535.00
462.95	65535.00
463.13	65535.00
463.32	65535.00
463.50	65535.00
463.68	65535.00
463.86	65535.00
464.05	65535.00
464.23	65535.00
464.41	65535.00
464.59	65535.00
464.78	65535.00
464.96	65535.00
465.14	65535.00
465.32	65535.00
465.50	65535.00
465.69	65535.00
465.87	65535.00
466.05	65535.00
466.23	65535.00
466.41	65535.00
466.60	65535.00
466.78	65535.00
466.96	65535.00
467.14	65535.00
467.32	65535.00
467.51	65535.00
467.69	65535.00
467.87	65535.00
468.05	65535.00
468.23	65535.00
468.41	65535.00
468.60	65535.00
468.78	65535.00
468.96	65535.00
469.14	65535.00
469.32	65535.00
469.50	65535.00
469.69	65535.00
469.87	65535.00
470.05	65535.00
470.23	65535.00
470.41	65535.00
470.59	65535.00
470.77	65535.00
470.95	65535.00
471.14	65535.00
471.32	65535.00
471.50	65535.00
471.68	65535.00
471.86	65535.00
472.04	65535.00
472.22	65535.00
472.40	65535.00
472.58	65535.00
472.77	65535.00
472.95	65535.00
473.13	65535.00
473.31	65535.00
473.49	65535.00
473.67	65535.00
473.85	65535.00
474.03	65535.00
474.21	65535.00
474.39	65535.00
474.57	65535.00
474.75	65535.00
474.93	65535.00
475.12	65535.00
475.30	65535.00
475.48	65535.00
475.66	65535.00
475.84	65535.00
476.02	65535.00
476.20	65535.00
476.38	65535.00
476.56	65535.00
476.74	65535.00
476.92	65535.00
477.10	65535.00
477.28	65535.00
477.46	65535.00
477.64	65535.00
477.82	65535.00
478.00	65535.00
478.18	65535.00
478.36	65535.00
478.54	65535.00
478.72	65535.00
478.90	65535.00
479.08	65535.00
479.26	65535.00
479.44	65535.00
479.62	65535.00
479.80	65535.00
479.98	65535.00
480.16	65535.00
480.34	65535.00
480.52	65535.00
480.70	65535.00
480.88	65535.00
481.06	65535.00
481.24	65535.00
481.41	65535.00
481.59	65535.00
481.77	65535.00
481.95	65535.00
482.13	65535.00
482.31	65535.00
482.49	65535.00
482.67	65535.00
482.85	65535.00
483.03	65535.00
483.21	65535.00
483.39	65535.00
483.57	65535.00
483.74	65535.00
483.92	65535.00
484.10	65535.00
484.28	65535.00
484.46	65535.00
484.64	65535.00
484.82	65535.00
485.00	65535.00
485.18	65535.00
485.35	65535.00
485.53	65535.00
485.71	65535.00
485.89	65535.00
486.07	65535.00
486.25	65535.00
486.43	65535.00
486.61	65535.00
486.78	65535.00
486.96	65535.00
487.14	65535.00
487.32	65535.00
487.50	65535.00
487.68	65535.00
487.85	65535.00
488.03	65535.00
488.21	65535.00
488.39	65535.00
488.57	65535.00
488.75	65535.00
488.92	65535.00
489.10	65535.00
489.28	65535.00
489.46	65535.00
489.64	65535.00
489.81	65535.00
489.99	65535.00
490.17	65535.00
490.35	65535.00
490.53	65535.00
490.70	65535.00
490.88	65535.00
491.06	65535.00
491.24	65535.00
491.41	65535.00
491.59	65535.00
491.77	65535.00
491.95	65535.00
492.13	65535.00
492.30	65535.00
492.48	65535.00
492.66	65535.00
492.84	65535.00
493.01	65535.00
493.19	65535.00
493.37	65535.00
493.54	65535.00
493.72	65535.00
493.90	65535.00
494.08	65535.00
494.25	65535.00
494.43	65535.00
494.61	65535.00
494.79	65535.00
494.96	65535.00
495.14	65535.00
495.32	65535.00
495.49	65535.00
495.67	65535.00
495.85	65535.00
496.02	65535.00
496.20	65535.00
496.38	65535.00
496.55	65535.00
496.73	65535.00
496.91	65535.00
497.09	65535.00
497.26	65535.00
497.44	65535.00
497.62	65535.00
497.79	65535.00
497.97	65535.00
498.14	65535.00
498.32	65535.00
498.50	65535.00
498.67	65535.00
498.85	65535.00
499.03	65535.00
499.20	65535.00
499.38	65535.00
499.56	65535.00
499.73	65535.00
499.91	65535.00
500.08	65535.00
500.26	65535.00
500.44	65535.00
500.61	65535.00
500.79	65535.00
500.97	65535.00
501.14	65535.00
501.32	65535.00
501.49	65535.00
501.67	65535.00
501.84	65535.00
502.02	65535.00
502.20	65535.00
502.37	65535.00
502.55	65535.00
502.72	65535.00
502.90	65535.00
503.07	65535.00
503.25	65535.00
503.43	65535.00
503.60	65535.00
503.78	65535.00
503.95	65535.00
504.13	65535.00
504.30	65535.00
504.48	65535.00
504.65	65535.00
504.83	65535.00
505.01	65535.00
505.18	65535.00
505.36	65535.00
505.53	65535.00
505.71	65535.00
505.88	65535.00
506.06	65535.00
506.23	65535.00
506.41	65535.00
506.58	65535.00
506.76	65535.00
506.93	65535.00
507.11	65535.00
507.28	65535.00
507.46	65535.00
507.63	65535.00
507.81	65535.00
507.98	65535.00
508.16	65535.00
508.33	65535.00
508.50	65535.00
508.68	65535.00
508.85	65535.00
509.03	65535.00
509.20	65535.00
509.38	65535.00
509.55	65535.00
509.73	65535.00
509.90	65535.00
510.08	65535.00
510.25	65535.00
510.42	65535.00
510.60	65535.00
510.77	65535.00
510.95	65535.00
511.12	65535.00
511.30	65535.00
511.47	65535.00
511.64	65535.00
511.82	65535.00
511.99	65535.00
512.17	65535.00
512.34	65535.00
512.51	65535.00
512.69	65535.00
512.86	65535.00
513.04	65535.00
513.21	65535.00
513.38	65535.00
513.56	65535.00
513.73	65535.00
513.90	65535.00
514.08	65535.00
514.25	65535.00
514.43	65535.00
514.60	65535.00
514.77	65535.00
514.95	65535.00
515.12	65535.00
515.29	65535.00
515.47	65535.00
515.64	65535.00
515.81	65535.00
515.99	65535.00
516.16	65535.00
516.33	65535.00
516.51	65535.00
516.68	65535.00
516.85	65535.00
517.03	65535.00
517.20	65535.00
517.37	65535.00
517.54	65535.00
517.72	65535.00
517.89	65535.00
518.06	65535.00
518.24	65535.00
518.41	65535.00
518.58	65535.00
518.75	65535.00
518.93	65535.00
519.10	65535.00
519.27	65535.00
519.45	65535.00
519.62	65535.00
519.79	65535.00
519.96	65535.00
520.14	65535.00
520.31	65535.00
520.48	65535.00
520.65	65535.00
520.83	65535.00
521.00	65535.00
521.17	65535.00
521.34	65535.00
521.52	65535.00
521.69	65535.00
521.86	65535.00
522.03	65535.00
522.20	65535.00
522.38	65535.00
522.55	65535.00
522.72	65535.00
522.89	65535.00
523.07	65535.00
523.24	65535.00
523.41	65535.00
523.58	65535.00
523.75	65535.00
523.92	65535.00
524.10	65535.00
524.27	65535.00
524.44	65535.00
524.61	65535.00
524.78	65535.00
524.96	65535.00
525.13	65535.00
525.30	65535.00
525.47	65535.00
525.64	65535.00
525.81	65535.00
525.98	65535.00
526.16	65535.00
526.33	65535.00
526.50	65535.00
526.67	65535.00
526.84	65535.00
527.01	65535.00
527.18	65535.00
527.36	65535.00
527.53	65535.00
527.70	65535.00
527.87	65535.00
528.04	65535.00
528.21	65535.00
528.38	65535.00
528.55	65535.00
528.72	65535.00
528.89	65535.00
529.07	65535.00
529.24	65535.00
529.41	65535.00
529.58	65535.00
529.75	65535.00
529.92	65535.00
530.09	65535.00
530.26	65535.00
530.43	65535.00
530.60	65535.00
530.77	65535.00
530.94	65535.00
531.11	65535.00
531.28	65535.00
531.46	65535.00
531.63	65535.00
531.80	65535.00
531.97	65535.00
532.14	65535.00
532.31	65535.00
532.48	65535.00
532.65	65535.00
532.82	65535.00
532.99	65535.00
533.16	65535.00
533.33	65535.00
533.50	65535.00
533.67	65535.00
533.84	65535.00
534.01	65535.00
534.18	65535.00
534.35	65535.00
534.52	65535.00
534.69	65535.00
534.86	65535.00
535.03	65535.00
535.20	65535.00
535.37	65535.00
535.54	65535.00
535.71	65535.00
535.88	65535.00
536.05	65535.00
536.22	65535.00
536.38	65535.00
536.55	65535.00
536.72	65535.00
536.89	65535.00
537.06	65535.00
537.23	65535.00
537.40	65535.00
537.57	65535.00
537.74	65535.00
537.91	65535.00
538.08	65535.00
538.25	65535.00
538.42	65535.00
538.59	65535.00
538.75	65535.00
538.92	65535.00
539.09	65535.00
539.26	65535.00
539.43	65535.00
539.60	65535.00
539.77	65535.00
539.94	65535.00
540.11	65535.00
540.28	65535.00
540.44	65535.00
540.61	65535.00
540.78	65535.00
540.95	65535.00
541.12	65535.00
541.29	65535.00
541.46	65535.00
541.62	65535.00
541.79	65535.00
541.96	65535.00
542.13	65535.00
542.30	65535.00
542.47	65535.00
542.63	65535.00
542.80	65535.00
542.97	65535.00
543.14	65535.00
543.31	65535.00
543.48	65535.00
543.64	65535.00
543.81	65535.00
543.98	65535.00
544.15	65535.00
544.32	65535.00
544.48	65535.00
544.65	65535.00
544.82	65535.00
544.99	65535.00
545.16	65535.00
545.32	65535.00
545.49	65535.00
545.66	65535.00
545.83	65535.00
546.00	65535.00
546.16	65535.00
546.33	65535.00
546.50	65535.00
546.67	65535.00
546.83	65535.00
547.00	65535.00
547.17	65535.00
547.34	65535.00
547.50	65535.00
547.67	65535.00
547.84	65535.00
548.00	65535.00
548.17	65535.00
548.34	65535.00
548.51	65535.00
548.67	65535.00
548.84	65535.00
549.01	65535.00
549.18	65535.00
549.34	65535.00
549.51	65535.00
549.68	65535.00
549.84	65535.00
550.01	65535.00
550.18	65535.00
550.34	65535.00
550.51	65535.00
550.68	65535.00
550.84	65535.00
551.01	65535.00
551.18	65535.00
551.34	65535.00
551.51	65535.00
551.68	65535.00
551.84	65535.00
552.01	65535.00
552.18	65535.00
552.34	65535.00
552.51	65535.00
552.68	65535.00
552.84	65535.00
553.01	65535.00
553.18	65535.00
553.34	65535.00
553.51	65535.00
553.67	65535.00
553.84	65535.00
554.01	65535.00
554.17	65535.00
554.34	65535.00
554.51	65535.00
554.67	65535.00
554.84	65535.00
555.00	65535.00
555.17	65535.00
555.33	65535.00
555.50	65535.00
555.67	65535.00
555.83	65535.00
556.00	65535.00
556.16	65535.00
556.33	65535.00
556.50	65535.00
556.66	65535.00
556.83	65535.00
556.99	65535.00
557.16	65535.00
557.32	65535.00
557.49	65535.00
557.65	65535.00
557.82	65535.00
557.98	65535.00
558.15	65535.00
558.32	65535.00
558.48	65535.00
558.65	65535.00
558.81	65535.00
558.98	65535.00
559.14	65535.00
559.31	65535.00
559.47	65535.00
559.64	65535.00
559.80	65535.00
559.97	65535.00
560.13	65535.00
560.30	65535.00
560.46	65535.00
560.63	65535.00
560.79	65535.00
560.96	65535.00
561.12	65535.00
561.29	65535.00
561.45	65535.00
561.61	65535.00
561.78	65535.00
561.94	65535.00
562.11	65535.00
562.27	65535.00
562.44	65535.00
562.60	65535.00
562.77	65535.00
562.93	65535.00
563.10	65535.00
563.26	65535.00
563.42	65535.00
563.59	65535.00
563.75	65535.00
563.92	65535.00
564.08	65535.00
564.24	65535.00
564.41	65535.00
564.57	65535.00
564.74	65535.00
564.90	65535.00
565.07	65535.00
565.23	65535.00
565.39	65535.00
565.56	65535.00
565.72	65535.00
565.88	65535.00
566.05	65535.00
566.21	65535.00
566.38	65535.00
566.54	65535.00
566.70	65535.00
566.87	65535.00
567.03	65535.00
567.19	65535.00
567.36	65535.00
567.52	65535.00
567.68	65535.00
567.85	65535.00
568.01	65535.00
568.17	65535.00
568.34	65535.00
568.50	65535.00
568.66	65535.00
568.83	65535.00
568.99	65535.00
569.15	65535.00
569.32	65535.00
569.48	65535.00
569.64	65535.00
569.81	65535.00
569.97	65535.00
570.13	65535.00
570.30	65535.00
570.46	65535.00
570.62	65535.00
570.78	65535.00
570.95	65535.00
571.11	65535.00
571.27	65535.00
571.43	65535.00
571.60	65535.00
571.76	65535.00
571.92	65535.00
572.09	65535.00
572.25	65535.00
572.41	65535.00
572.57	65535.00
572.74	65535.00
572.90	65535.00
573.06	65535.00
573.22	65535.00
573.38	65535.00
573.55	65535.00
573.71	65535.00
573.87	65535.00
574.03	65535.00
574.20	65535.00
574.36	65535.00
574.52	65535.00
574.68	65535.00
574.84	65535.00
575.01	65535.00
575.17	65535.00
575.33	65535.00
575.49	65535.00
575.65	65535.00
575.82	65535.00
575.98	65535.00
576.14	65535.00
576.30	65535.00
576.46	65535.00
576.62	65535.00
576.79	65535.00
576.95	65535.00
577.11	65535.00
577.27	65535.00
577.43	65535.00
577.59	65535.00
577.75	65535.00
577.92	65535.00
578.08	65535.00
578.24	65535.00
578.40	65535.00
578.56	65535.00
578.72	65535.00
578.88	65535.00
579.04	65535.00
579.21	65535.00
579.37	65535.00
579.53	65535.00
579.69	65535.00
579.85	65535.00
580.01	65535.00
580.17	65535.00
580.33	65535.00
580.49	65535.00
580.65	65535.00
580.82	65535.00
580.98	65535.00
581.14	65535.00
581.30	65535.00
581.46	65535.00
581.62	65535.00
581.78	65535.00
581.94	65535.00
582.10	65535.00
582.26	65535.00
582.42	65535.00
582.58	65535.00
582.74	65535.00
582.90	65535.00
583.06	65535.00
583.22	65535.00
583.38	65535.00
583.54	65535.00
583.70	65535.00
583.86	65535.00
