SpectraSuite Data File
++++++++++++++++++++++++++++++++++++
Date: Mon Oct 07 14:55:03 GMT-05:00 2013
User: price-jones
Dark Spectrum Present: No
Reference Spectrum Present: No
Number of Sampled Component Spectra: 1
Spectrometers: USB2+H05261
Integration Time (usec): 10000 (USB2+H05261)
Spectra Averaged: 1 (USB2+H05261)
Boxcar Smoothing: 0 (USB2+H05261)
Correct for Electrical Dark: No (USB2+H05261)
Strobe/Lamp Enabled: No (USB2+H05261)
Correct for Detector Non-linearity: No (USB2+H05261)
Correct for Stray Light: No (USB2+H05261)
Number of Pixels in Processed Spectrum: 2048
>>>>>Begin Processed Spectral Data<<<<<
365.73	0.00
365.92	0.00
366.12	0.00
366.32	0.00
366.52	0.00
366.72	0.00
366.91	0.00
367.11	0.00
367.31	0.00
367.51	0.00
367.70	0.00
367.90	0.00
368.10	0.00
368.30	0.00
368.49	0.00
368.69	0.00
368.89	0.00
369.09	0.00
369.28	0.00
369.48	0.00
369.68	0.00
369.87	0.00
370.07	0.00
370.27	0.00
370.47	479.81
370.66	2715.02
370.86	3105.89
371.06	3330.58
371.25	3330.58
371.45	2935.03
371.65	2626.08
371.84	2693.96
372.04	2995.89
372.24	3054.40
372.44	3194.83
372.63	3056.74
372.83	2909.29
373.03	2476.29
373.22	2387.35
373.42	2579.27
373.62	2932.69
373.81	3194.83
374.01	3019.29
374.21	2656.51
374.40	2630.76
374.60	2881.20
374.79	3150.36
374.99	3742.52
375.19	3777.62
375.38	3777.62
375.58	3611.45
375.78	3513.14
375.97	3716.77
376.17	3735.50
376.37	3761.24
376.56	3803.37
376.76	4091.26
376.95	4592.13
377.15	4697.46
377.35	4954.91
377.54	5219.39
377.74	5184.29
377.93	5273.23
378.13	4997.04
378.33	4720.86
378.52	4325.31
378.72	4063.17
378.91	4234.03
379.11	4107.64
379.31	4032.74
379.50	3922.74
379.70	4374.46
379.89	4758.31
380.09	5093.01
380.28	5219.39
380.48	5111.73
380.68	4968.96
380.87	4936.19
381.07	4388.50
381.26	4124.02
381.46	3936.78
381.65	3815.07
381.85	3693.37
382.04	3375.05
382.24	3150.36
382.43	3274.41
382.63	3145.68
382.83	3054.40
383.02	2970.14
383.22	3152.70
383.41	3269.73
383.61	3236.96
383.80	3985.93
384.00	4339.35
384.19	4926.83
384.39	5137.48
384.58	5212.37
384.78	4870.65
384.97	5034.49
385.17	4688.09
385.36	4351.06
385.56	4187.22
385.75	4512.55
385.95	5057.90
386.14	5282.59
386.34	5224.08
386.53	5088.32
386.72	4711.50
386.92	4716.18
387.11	5128.11
387.31	5277.91
387.50	5207.69
387.70	4999.38
387.89	4877.68
388.09	5069.60
388.28	5001.72
388.48	5069.60
388.67	5661.76
388.86	6183.70
389.06	6705.63
389.25	7007.56
389.45	6815.64
389.64	6864.79
389.84	6621.38
390.03	6616.69
390.22	6918.62
390.42	7124.59
390.61	7403.11
390.81	8236.35
391.00	8152.09
391.19	7971.86
391.39	7740.15
391.58	7035.65
391.78	6825.00
391.97	6661.16
392.16	6127.52
392.36	5416.00
392.55	4339.35
392.75	3361.01
392.94	2829.71
393.13	3112.91
393.33	3801.03
393.52	4875.34
393.71	5710.91
393.91	6504.35
394.10	6733.72
394.29	7611.42
394.49	8245.71
394.68	8758.28
394.88	8437.63
395.07	8990.00
395.26	8795.73
395.46	8573.38
395.65	7667.60
395.84	6672.87
396.04	5493.24
396.23	4472.76
396.42	3786.99
396.62	3962.53
396.81	4774.69
397.00	6164.97
397.19	7896.97
397.39	9050.85
397.58	9977.70
397.77	10408.36
397.97	10904.56
398.16	11047.33
398.35	11339.90
398.55	11817.36
398.74	12416.54
398.93	12681.02
399.12	12018.65
399.32	11850.13
399.51	12287.81
399.70	12917.42
399.90	12400.16
400.09	12596.76
400.28	12388.46
400.47	12772.30
400.67	13432.33
400.86	13479.15
401.05	13811.50
401.24	13926.19
401.44	13912.14
401.63	14083.00
401.82	13895.76
402.01	13942.57
402.21	14260.88
402.40	14052.58
402.59	13504.89
402.78	12987.63
402.97	13001.68
403.17	13561.06
403.36	14185.99
403.55	14738.35
403.74	14810.91
403.93	14054.92
404.13	13006.36
404.32	13025.08
404.51	13958.96
404.70	14471.53
404.89	14518.34
405.09	14310.04
405.28	14129.81
405.47	13858.31
405.66	14120.45
405.85	13497.87
406.05	13298.92
406.24	13497.87
406.43	14134.50
406.62	14398.98
406.81	14560.47
407.00	14436.42
407.20	13919.17
407.39	13923.85
407.58	14724.31
407.77	15279.02
407.96	15927.35
408.15	16130.97
408.34	16329.92
408.54	16795.68
408.73	16746.53
408.92	16107.57
409.11	15932.03
409.30	15059.01
409.49	13879.38
409.68	13142.11
409.87	13085.94
410.07	14424.72
410.26	15321.15
410.45	15934.37
410.64	16601.42
410.83	17266.13
411.02	17376.14
411.21	17811.48
411.40	17427.63
411.59	17783.39
411.78	17926.16
411.98	17603.17
412.17	17727.22
412.36	17434.65
412.55	17741.26
412.74	17364.43
412.93	17083.57
413.12	17462.74
413.31	19309.42
413.50	19005.15
413.69	18946.64
413.88	18429.38
414.07	17893.40
414.26	18132.13
414.45	18754.71
414.64	18431.72
414.83	18515.98
415.02	18178.94
415.22	18600.24
415.41	19000.47
415.60	19784.55
415.79	20498.41
415.98	20680.97
416.17	20599.05
416.36	19908.60
416.55	19936.68
416.74	19229.84
416.93	18986.43
417.12	18967.70
417.31	18974.72
417.50	19342.19
417.69	20147.33
417.88	19880.51
418.07	19339.85
418.26	19494.32
418.45	20056.05
418.64	20631.82
418.83	21160.78
419.02	20996.95
419.21	20271.38
419.39	19541.13
419.58	18932.59
419.77	19302.40
419.96	20006.90
420.15	21076.52
420.34	21694.43
420.53	22363.82
420.72	22544.04
420.91	22141.47
421.10	21715.49
421.29	21834.86
421.48	20884.60
421.67	22511.27
421.86	21177.17
422.05	19501.34
422.24	17809.14
422.43	18637.69
422.61	20702.04
422.80	21530.59
422.99	20959.50
423.18	20425.86
423.37	20641.18
423.56	20805.02
423.75	21333.98
423.94	20982.90
424.13	20526.50
424.32	20212.87
424.50	20339.26
424.69	20496.07
424.88	20631.82
425.07	20886.94
425.26	20709.06
425.45	19646.46
425.64	19421.77
425.83	19800.93
426.01	20802.68
426.20	21202.91
426.39	20861.19
426.58	19489.64
426.77	18118.09
426.96	18242.14
427.15	18930.25
427.33	20325.21
427.52	20528.84
427.71	20704.38
427.90	20491.39
428.09	19995.20
428.28	19894.55
428.46	18885.78
428.65	18668.11
428.84	19550.49
429.03	19520.07
429.22	18459.81
429.40	17055.48
429.59	15545.84
429.78	14347.48
429.97	14668.14
430.16	14656.43
430.34	14429.40
430.53	14508.98
430.72	15363.28
430.91	17160.81
431.10	20201.16
431.28	23012.15
431.47	24643.50
431.66	24020.92
431.85	21802.09
432.03	20437.56
432.22	20376.70
432.41	21816.13
432.60	23377.27
432.79	23770.48
432.97	24208.16
433.16	23267.27
433.35	21010.99
433.54	19241.54
433.72	18340.44
433.91	19719.01
434.10	22038.48
434.28	22995.76
434.47	24088.79
434.66	23152.58
434.85	22838.95
435.03	23323.44
435.22	23564.51
435.41	24823.72
435.59	25401.83
435.78	25577.37
435.97	26265.49
436.16	25589.08
436.34	25551.63
436.53	24982.88
436.72	25443.96
436.90	23976.45
437.09	23648.77
437.28	23335.14
437.46	24386.04
437.65	23356.21
437.84	21823.16
438.02	20805.02
438.21	21125.68
438.40	22169.55
438.58	23627.71
438.77	24746.48
438.96	24919.68
439.14	25706.10
439.33	26132.08
439.52	26036.12
439.70	25607.80
439.89	25032.03
440.08	24723.08
440.26	25200.55
440.45	26403.58
440.63	28002.17
440.82	27943.66
441.01	27585.55
441.19	28086.43
441.38	29060.09
441.57	29055.41
441.75	29542.24
441.94	29675.65
442.12	29408.83
442.31	30698.47
442.50	30710.17
442.68	29759.91
442.87	29528.20
443.05	28964.13
443.24	29993.97
443.43	30712.51
443.61	30897.41
443.80	30984.01
443.98	30328.66
444.17	29673.31
444.35	30820.17
444.54	31669.79
444.73	30871.67
444.91	29720.12
445.10	28624.75
445.28	27749.39
445.47	27599.60
445.65	27634.71
445.84	27901.53
446.02	28732.42
446.21	29544.58
446.39	29771.61
446.58	30398.88
446.77	30991.03
446.95	30902.09
447.14	32123.85
447.32	32657.49
447.51	31821.92
447.69	30499.52
447.88	30132.06
448.06	31189.98
448.25	31431.05
448.43	30965.29
448.62	30539.31
448.80	30813.15
448.99	31412.33
449.17	31374.88
449.36	31747.03
449.54	32685.58
449.73	33362.00
449.91	33266.03
450.10	34494.82
450.28	34239.70
450.46	34749.93
450.65	34738.23
450.83	33874.57
451.02	33385.40
451.20	33326.89
451.39	33411.15
451.57	33654.56
451.76	33322.21
451.94	32385.99
452.13	31667.45
452.31	30293.55
452.49	28865.83
452.68	30157.80
452.86	30221.00
453.05	30298.23
453.23	31718.94
453.42	32074.70
453.60	32987.51
453.78	32980.49
453.97	33289.44
454.15	31990.44
454.34	31377.22
454.52	31634.68
454.70	31424.03
454.89	31850.01
455.07	31929.59
455.26	32627.07
455.44	33797.34
455.62	33844.15
455.81	34249.06
455.99	34511.20
456.17	33818.40
456.36	34384.81
456.54	34899.73
456.73	34672.70
456.91	35416.99
457.09	35337.41
457.28	36229.15
457.46	34508.86
457.64	34286.51
457.83	33120.92
458.01	32931.34
458.19	34513.54
458.38	34693.76
458.56	35695.51
458.74	35257.83
458.93	34274.80
459.11	33603.07
459.29	34185.86
459.48	34763.98
459.66	34099.26
459.84	33933.09
460.03	34628.23
460.21	34991.01
460.39	36189.36
460.57	35288.26
460.76	35342.09
460.94	35929.56
461.12	35580.82
461.31	36062.97
461.49	36517.04
461.67	35943.61
461.85	37373.67
462.04	36964.08
462.22	37120.90
462.40	36917.27
462.59	36325.11
462.77	36748.75
462.95	36528.74
463.13	36189.36
463.32	35079.95
463.50	35351.45
463.68	35393.58
463.86	36027.87
464.05	34934.84
464.23	34398.85
464.41	34555.67
464.59	34307.57
464.78	35721.26
464.96	34948.88
465.14	34485.45
465.32	36294.69
465.50	37677.94
465.69	37488.36
465.87	36545.12
466.05	35377.20
466.23	34246.72
466.41	33406.47
466.60	34731.21
466.78	34375.45
466.96	34536.94
467.14	35278.89
467.32	35419.33
467.51	35985.74
467.69	33818.40
467.87	35416.99
468.05	35672.10
468.23	35667.42
468.41	35665.08
468.60	36114.47
468.78	36442.14
468.96	35669.76
469.14	36786.20
469.32	36304.05
469.50	34635.25
469.69	35122.08
469.87	34543.97
470.05	34550.99
470.23	34635.25
470.41	34916.11
470.59	35400.60
470.77	35484.86
470.95	35964.67
471.14	36355.54
471.32	36823.65
471.50	39250.78
471.68	38576.71
471.86	38831.83
472.04	38565.01
472.22	38972.26
472.40	37572.62
472.58	37612.41
472.77	37357.29
472.95	37766.88
473.13	38986.30
473.31	37404.10
473.49	38321.59
473.67	38452.66
473.85	39367.81
474.03	40414.03
474.21	40744.05
474.39	41148.96
474.57	40521.69
474.75	40825.96
474.93	39847.62
475.12	39086.95
475.30	39103.33
475.48	39005.03
475.66	40226.79
475.84	39009.71
476.02	39412.28
476.20	39007.37
476.38	39606.55
476.56	40910.22
476.74	41085.76
476.92	41514.08
477.10	41722.39
477.28	42763.93
477.46	43601.84
477.64	44112.08
477.82	43840.57
478.00	43690.78
478.18	43157.14
478.36	42499.45
478.54	42869.25
478.72	43611.20
478.90	45141.91
479.08	45949.40
479.26	45593.64
479.44	46756.88
479.62	45954.08
479.80	46710.07
479.98	46005.57
480.16	46583.68
480.34	45359.58
480.52	46590.70
480.70	46375.37
480.88	46225.58
481.06	47096.26
481.24	47377.12
481.41	48547.39
481.59	49043.59
481.77	47491.81
481.95	47899.06
482.13	47880.34
482.31	48325.04
482.49	49050.61
482.67	48509.94
482.85	48540.37
483.03	49198.06
483.21	49514.03
483.39	49661.49
483.57	49109.12
483.74	49184.02
483.92	48788.47
484.10	49050.61
484.28	49717.66
484.46	49865.11
484.64	50913.67
484.82	49860.43
485.00	49144.23
485.18	49020.18
485.35	46604.75
485.53	41883.89
485.71	38899.70
485.89	40315.73
486.07	43210.97
486.25	45474.27
486.43	47894.38
486.61	48470.15
486.78	48102.69
486.96	49198.06
487.14	50003.20
487.32	51236.67
487.50	51805.42
487.68	53155.91
487.85	53418.05
488.03	52800.15
488.21	52266.50
488.39	51894.36
488.57	50375.35
488.75	50625.79
488.92	52250.12
489.10	54073.40
489.28	54857.48
489.46	55896.67
489.64	55466.02
489.81	55915.40
489.99	55257.71
490.17	55274.09
490.35	55770.28
490.53	55419.20
490.70	55299.84
490.88	54965.14
491.06	56196.26
491.24	56554.36
491.41	55114.94
491.59	53895.52
491.77	53148.88
491.95	54658.53
492.13	55922.42
492.30	56435.00
492.48	57249.50
492.66	57476.54
492.84	56921.83
493.01	56708.84
493.19	56547.34
493.37	56266.48
493.54	56369.46
493.72	57415.68
493.90	58047.63
494.08	58361.26
494.25	58614.04
494.43	59138.32
494.61	59091.51
494.79	58962.78
494.96	59196.83
495.14	58707.66
495.32	57268.23
495.49	57448.45
495.67	58759.15
495.85	59348.96
496.02	60069.85
496.20	59281.09
496.38	58775.53
496.55	58983.84
496.73	59501.10
496.91	59821.75
497.09	60093.25
497.26	60797.76
497.44	59664.94
497.62	58932.35
497.79	58553.18
497.97	57528.03
498.14	58307.43
498.32	59161.72
498.50	59515.14
498.67	59447.27
498.85	59587.70
499.03	59894.31
499.20	59955.16
499.38	59587.70
499.56	58841.07
499.73	59117.25
499.91	58834.05
500.08	58274.66
500.26	57844.00
500.44	58588.29
500.61	59171.08
500.79	58908.94
500.97	58805.96
501.14	58312.11
501.32	57535.05
501.49	58192.74
501.67	58997.88
501.84	58824.68
502.02	59185.13
502.20	59564.29
502.37	59625.15
502.55	59976.23
502.72	60860.95
502.90	61174.58
503.07	60694.77
503.25	59618.13
503.43	58960.44
503.60	58569.57
503.78	58646.80
503.95	59182.79
504.13	60245.39
504.30	60832.86
504.48	60079.21
504.65	60371.78
504.83	60203.26
505.01	60992.02
505.18	61127.77
505.36	61740.99
505.53	61509.28
505.71	61127.77
505.88	61818.23
506.06	61357.14
506.23	61013.08
506.41	60748.60
506.58	60739.24
506.76	60584.77
506.93	60198.58
507.11	60470.08
507.28	60552.00
507.46	59756.22
507.63	60135.38
507.81	59742.17
507.98	60016.02
508.16	60907.76
508.33	61118.41
508.50	61148.84
508.68	61677.80
508.85	61977.39
509.03	62138.88
509.20	61670.78
509.38	60921.80
509.55	61146.50
509.73	61202.67
509.90	61137.13
510.08	61148.84
510.25	60914.78
510.42	60465.40
510.60	60961.59
510.77	61338.42
510.95	61432.04
511.12	62188.03
511.30	62700.61
511.47	63014.24
511.64	62361.23
511.82	62361.23
511.99	61577.15
512.17	61144.16
512.34	60772.01
512.51	61305.65
512.69	61516.30
512.86	60664.35
513.04	61125.43
513.21	60718.18
513.38	60322.63
513.56	59978.57
513.73	59594.72
513.90	60624.56
514.08	60406.89
514.25	60589.45
514.43	60800.10
514.60	60867.97
514.77	61368.85
514.95	61427.36
515.12	61155.86
515.29	61787.80
515.47	62199.74
515.64	61977.39
515.81	61640.35
515.99	60561.36
516.16	59168.74
516.33	56680.75
516.51	56793.10
516.68	55599.43
516.85	54532.14
517.03	56067.53
517.20	58574.25
517.37	60495.83
517.54	61111.39
517.72	60406.89
517.89	57703.57
518.06	55910.72
518.24	57029.49
518.41	59114.91
518.58	60339.01
518.75	60165.81
518.93	60027.72
519.10	59746.86
519.27	60828.18
519.45	61233.10
519.62	61670.78
519.79	61900.15
519.96	61169.90
520.14	61244.80
520.31	60282.84
520.48	60097.94
520.65	61139.47
520.83	61991.43
521.00	61511.62
521.17	61095.00
521.34	61254.16
521.52	61764.40
521.69	62152.93
521.86	62494.64
522.03	61890.79
522.20	60528.59
522.38	59796.01
522.55	60521.57
522.72	60409.23
522.89	60104.96
523.07	61132.45
523.24	61806.53
523.41	62335.49
523.58	62485.28
523.75	62410.38
523.92	62672.52
524.10	62401.02
524.27	62075.69
524.44	61769.08
524.61	61001.38
524.78	61623.96
524.96	61717.59
525.13	61787.80
525.30	62328.47
525.47	62812.96
525.64	62761.47
525.81	61502.26
525.98	60058.15
526.16	58829.37
526.33	58829.37
526.50	58351.90
526.67	58384.66
526.84	59131.29
527.01	59999.63
527.18	60502.85
527.36	60896.06
527.53	61794.82
527.70	61584.18
527.87	60540.30
528.04	61113.73
528.21	61457.79
528.38	62012.49
528.55	63068.08
528.72	62817.64
528.89	62408.04
529.07	62557.84
529.24	61382.89
529.41	61130.11
529.58	61364.17
529.75	61970.36
529.92	62216.12
530.09	62251.23
530.26	62864.45
530.43	63313.83
530.60	62532.09
530.77	63161.70
530.94	63103.18
531.11	62246.55
531.28	62066.33
531.46	62047.60
531.63	62162.29
531.80	61958.66
531.97	61712.91
532.14	61588.86
532.31	59969.21
532.48	59365.35
532.65	59962.18
532.82	60207.94
532.99	62291.02
533.16	62227.82
533.33	62143.56
533.50	62429.11
533.67	61656.73
533.84	61549.07
534.01	61776.10
534.18	61623.96
534.35	61502.26
534.52	60992.02
534.69	61701.20
534.86	62007.81
535.03	62534.43
535.20	62560.18
535.37	63147.65
535.54	63250.64
535.71	62632.74
535.88	62733.38
536.05	61574.81
536.22	61055.21
536.38	61106.71
536.55	60821.16
536.72	60388.16
536.89	60903.08
537.06	60947.55
537.23	61460.13
537.40	61132.45
537.57	61258.84
537.74	61432.04
537.91	61890.79
538.08	61462.47
538.25	61893.13
538.42	62581.24
538.59	61984.41
538.75	61263.52
538.92	60205.60
539.09	61013.08
539.26	60699.45
539.43	60673.71
539.60	60154.11
539.77	61104.37
539.94	60633.92
540.11	60107.30
540.28	59627.49
540.44	59742.17
540.61	59950.48
540.78	60287.52
540.95	60575.40
541.12	60697.11
541.29	61099.68
541.46	60973.30
541.62	61530.34
541.79	60591.79
541.96	60324.97
542.13	60816.48
542.30	60617.53
542.47	60718.18
542.63	60989.68
542.80	60776.69
542.97	60292.20
543.14	60481.78
543.31	61043.51
543.48	61429.70
543.64	61736.31
543.81	62073.35
543.98	62293.36
544.15	61130.11
544.32	61284.59
544.48	61024.79
544.65	60992.02
544.82	61565.45
544.99	60537.96
545.16	60221.98
545.32	60488.80
545.49	61141.81
545.66	61270.54
545.83	60933.51
546.00	61268.20
546.16	60804.78
546.33	60598.81
546.50	60624.56
546.67	61429.70
546.83	60989.68
547.00	61127.77
547.17	59983.25
547.34	59339.60
547.50	59257.68
547.67	59994.95
547.84	60837.54
548.00	61188.63
548.17	60856.27
548.34	61066.92
548.51	60903.08
548.67	60500.51
548.84	60727.54
549.01	60996.70
549.18	60727.54
549.34	60842.23
549.51	61109.05
549.68	61345.44
549.84	60495.83
550.01	59676.64
550.18	60037.08
550.34	60271.14
550.51	60320.29
550.68	60732.22
550.84	61062.24
551.01	59985.59
551.18	59838.14
551.34	60317.95
551.51	60870.31
551.68	60987.34
551.84	61797.16
552.01	60926.49
552.18	60392.84
552.34	59718.77
552.51	59288.11
552.68	59238.96
552.84	59777.28
553.01	59810.05
553.18	59856.86
553.34	60102.62
553.51	60411.57
553.67	60484.12
553.84	60603.49
554.01	61083.30
554.17	60467.74
554.34	60491.15
554.51	60446.68
554.67	59735.15
554.84	60226.66
555.00	59625.15
555.17	59358.33
555.33	59599.40
555.50	59536.21
555.67	59723.45
555.83	60142.41
556.00	59491.74
556.16	59189.81
556.33	59093.85
556.50	59639.19
556.66	59276.41
556.83	58756.81
556.99	58752.13
557.16	59465.99
557.32	59037.67
557.49	59711.75
557.65	59480.03
557.82	59615.79
557.98	59910.69
558.15	59054.06
558.32	58475.94
558.48	57743.36
558.65	57684.84
558.81	57787.83
558.98	58951.07
559.14	58850.43
559.31	58623.40
559.47	58508.71
559.64	58635.10
559.80	57822.93
559.97	58466.58
560.13	58899.58
560.30	59700.04
560.46	60191.56
560.63	60502.85
560.79	60350.71
560.96	59377.05
561.12	58775.53
561.29	58527.44
561.45	58574.25
561.61	59341.94
561.78	58499.35
561.94	58812.98
562.11	58571.91
562.27	58085.07
562.44	59253.00
562.60	59501.10
562.77	59363.01
562.93	58997.88
563.10	58794.26
563.26	59084.48
563.42	59143.00
563.59	58878.52
563.75	58651.48
563.92	58131.89
564.08	58159.97
564.24	59110.23
564.41	58326.15
564.57	59550.25
564.74	59044.69
564.90	58384.66
565.07	57979.75
565.23	57284.61
565.39	56732.25
565.56	57038.86
565.72	57691.86
565.88	57080.98
566.05	58506.37
566.21	58073.37
566.38	57944.64
566.54	58815.32
566.70	59318.54
566.87	58885.54
567.03	58667.87
567.19	59515.14
567.36	59393.43
567.52	58272.32
567.68	57726.97
567.85	57476.54
568.01	57717.61
568.17	57448.45
568.34	57741.02
568.50	57083.33
568.66	56924.17
568.83	56746.29
568.99	56891.40
569.15	56790.76
569.32	56664.37
569.48	57078.64
569.64	57186.31
569.81	56825.87
569.97	56699.48
570.13	55999.66
570.30	55173.45
570.46	54983.86
570.62	54583.63
570.78	55084.51
570.95	55653.26
571.11	56189.24
571.27	55735.18
571.43	56418.61
571.60	56376.48
571.76	56970.98
571.92	57097.37
572.09	57471.85
572.25	56832.89
572.41	56933.53
572.57	56825.87
572.74	57492.92
572.90	58003.16
573.06	57991.45
573.22	58066.35
573.38	57687.18
573.55	58518.07
573.71	57324.40
573.87	56961.62
574.03	57097.37
574.20	56645.65
574.36	56058.17
574.52	55821.78
574.68	56140.09
574.84	55391.12
575.01	55327.92
575.17	55040.04
575.33	55990.30
575.49	55880.29
575.65	55077.49
575.82	54955.78
575.98	55620.49
576.14	56210.31
576.30	57205.03
576.46	55908.38
576.62	55770.28
576.79	56163.50
576.95	56184.56
577.11	56275.84
577.27	55920.08
577.43	56097.96
577.59	55896.67
577.75	55297.50
577.92	54976.84
578.08	55175.79
578.24	55206.22
578.40	55171.11
578.56	54508.74
578.72	54908.97
578.88	55009.61
579.04	55395.80
579.21	54927.69
579.37	54880.88
579.53	55276.43
579.69	55058.76
579.85	54616.40
580.01	54717.04
580.17	54188.08
580.33	55330.26
580.49	55468.36
580.65	54803.64
580.82	55494.10
580.98	55241.32
581.14	55290.48
581.30	55133.66
581.46	54569.59
581.62	55367.71
581.78	55749.22
581.94	55880.29
582.10	55774.97
582.26	55683.69
582.42	55702.41
582.58	55089.19
582.74	54997.91
582.90	55236.64
583.06	55756.24
583.22	55451.97
583.38	55054.08
583.54	55732.84
583.70	55737.52
583.86	55763.26
584.02	54733.43
584.18	54859.82
584.34	54342.56
584.50	54267.66
584.66	54429.16
584.82	54459.58
584.98	54611.72
585.14	53799.55
585.30	53586.57
