SpectraSuite Data File
++++++++++++++++++++++++++++++++++++
Date: Mon Oct 07 14:53:48 GMT-05:00 2013
User: price-jones
Dark Spectrum Present: No
Reference Spectrum Present: No
Number of Sampled Component Spectra: 1
Spectrometers: USB2+H05261
Integration Time (usec): 100000 (USB2+H05261)
Spectra Averaged: 1 (USB2+H05261)
Boxcar Smoothing: 0 (USB2+H05261)
Correct for Electrical Dark: No (USB2+H05261)
Strobe/Lamp Enabled: No (USB2+H05261)
Correct for Detector Non-linearity: No (USB2+H05261)
Correct for Stray Light: No (USB2+H05261)
Number of Pixels in Processed Spectrum: 2048
>>>>>Begin Processed Spectral Data<<<<<
365.73	0.00
365.92	0.00
366.12	0.00
366.32	0.00
366.52	0.00
366.72	0.00
366.91	0.00
367.11	0.00
367.31	0.00
367.51	0.00
367.70	0.00
367.90	0.00
368.10	0.00
368.30	0.00
368.49	0.00
368.69	0.00
368.89	0.00
369.09	0.00
369.28	0.00
369.48	0.00
369.68	0.00
369.87	0.00
370.07	0.00
370.27	0.00
370.47	521.94
370.66	2867.16
370.86	3335.26
371.06	3672.30
371.25	3847.84
371.45	3290.79
371.65	3101.21
371.84	2822.69
372.04	2862.48
372.24	3342.28
372.44	3522.51
372.63	3433.57
372.83	3211.22
373.03	2773.53
373.22	2658.85
373.42	2813.32
373.62	3159.72
373.81	3459.31
374.01	3534.21
374.21	3141.00
374.40	2890.56
374.60	2986.52
374.79	3370.37
374.99	3885.29
375.19	4351.06
375.38	4290.20
375.58	3925.08
375.78	3850.18
375.97	4028.06
376.17	4117.00
376.37	4091.26
376.56	4217.65
376.76	4451.70
376.95	4833.21
377.15	5057.90
377.35	5254.50
377.54	5434.72
377.74	5561.11
377.93	5696.86
378.13	5605.58
378.33	5455.79
378.52	4821.50
378.72	4533.62
378.91	4702.14
379.11	4510.21
379.31	4100.62
379.50	4269.14
379.70	4662.35
379.89	5158.54
380.09	5303.65
380.28	5549.41
380.48	5511.96
380.68	5411.32
380.87	5397.28
381.07	4922.15
381.26	4465.74
381.46	4315.95
381.65	4175.52
381.85	4074.87
382.04	3812.73
382.24	3588.04
382.43	3424.20
382.63	3260.37
382.83	3351.65
383.02	3379.73
383.22	3372.71
383.41	3421.86
383.61	3660.60
383.80	4126.36
384.00	4748.95
384.19	5296.63
384.39	5535.37
384.58	5614.95
384.78	5448.77
384.97	5507.28
385.17	5195.99
385.36	4683.41
385.56	4461.06
385.75	4786.40
385.95	5273.23
386.14	5650.05
386.34	5668.78
386.53	5392.59
386.72	5137.48
386.92	5160.88
387.11	5448.77
387.31	5692.18
387.50	5755.38
387.70	5408.98
387.89	5205.35
388.09	5399.62
388.28	5441.75
388.48	5385.57
388.67	6024.54
388.86	6640.10
389.06	7159.70
389.25	7358.64
389.45	7473.33
389.64	7276.73
389.84	7314.17
390.03	7183.10
390.22	7194.81
390.42	7321.20
390.61	7763.56
390.81	8526.57
391.00	8367.42
391.19	8318.26
391.39	8287.84
391.58	7843.14
391.78	7190.13
391.97	7084.80
392.16	6504.35
392.36	5984.75
392.55	4882.36
392.75	3911.04
392.94	3098.87
393.13	3052.06
393.33	3662.94
393.52	4578.09
393.71	5785.80
393.91	6626.06
394.10	6960.75
394.29	7644.19
394.49	8355.71
394.68	9097.66
394.88	8982.98
395.07	9280.22
395.26	9231.07
395.46	8847.22
395.65	8549.98
395.84	7318.86
396.04	6352.21
396.23	5015.77
396.42	4315.95
396.62	4049.13
396.81	4858.95
397.00	6099.44
397.19	7702.70
397.39	9245.12
397.58	10061.96
397.77	11042.65
397.97	11190.10
398.16	11559.91
398.35	11880.56
398.55	12241.00
398.74	12482.08
398.93	13036.78
399.12	12720.81
399.32	12107.59
399.51	12308.88
399.70	13177.22
399.90	13153.81
400.09	13228.71
400.28	13132.75
400.47	13137.43
400.67	13926.19
400.86	14349.82
401.05	13919.17
401.24	14026.83
401.44	14628.35
401.63	14728.99
401.82	14691.54
402.01	14574.52
402.21	14745.38
402.40	14572.18
402.59	14394.29
402.78	13862.99
402.97	13146.79
403.17	13549.36
403.36	14455.15
403.55	15176.03
403.74	15669.89
403.93	14607.28
404.13	13855.97
404.32	13331.69
404.51	14015.13
404.70	15150.29
404.89	14817.93
405.09	14668.14
405.28	14174.28
405.47	14338.12
405.66	14139.18
405.85	13895.76
406.05	13706.18
406.24	13460.42
406.43	14391.95
406.62	14930.28
406.81	14988.79
407.00	14511.32
407.20	13944.91
407.39	14368.55
407.58	14677.50
407.77	15274.34
407.96	15864.15
408.15	16233.96
408.34	16168.42
408.54	17235.70
408.73	16999.31
408.92	16908.03
409.11	16395.45
409.30	15426.47
409.49	14665.80
409.68	13675.75
409.87	13095.30
410.07	14068.96
410.26	15211.14
410.45	16091.18
410.64	16374.39
410.83	16922.07
411.02	17589.13
411.21	17858.29
411.40	17811.48
411.59	17832.54
411.78	17830.20
411.98	17907.44
412.17	18197.67
412.36	17614.87
412.55	17769.35
412.74	17067.19
412.93	17083.57
413.12	17013.35
413.31	18553.43
413.50	19000.47
413.69	19180.69
413.88	18394.27
414.07	17989.36
414.26	18090.00
414.45	18808.54
414.64	18752.37
414.83	18953.66
415.02	18373.21
415.22	18352.14
415.41	19157.28
415.60	19536.45
415.79	20519.48
415.98	20650.55
416.17	20744.17
416.36	20269.04
416.55	20269.04
416.74	19159.63
416.93	18466.83
417.12	18527.68
417.31	18951.32
417.50	19150.26
417.69	19667.52
417.88	19922.64
418.07	19735.40
418.26	19400.70
418.45	19372.61
418.64	20053.71
418.83	21125.68
419.02	20800.34
419.21	20435.22
419.39	19644.12
419.58	18703.22
419.77	18541.72
419.96	19454.53
420.15	20573.31
420.34	21205.25
420.53	21921.46
420.72	22288.92
420.91	22012.74
421.10	22085.30
421.29	21759.96
421.48	21055.46
421.67	21893.37
421.86	21226.32
422.05	19775.19
422.24	18132.13
422.43	17640.62
422.61	19524.75
422.80	21139.72
422.99	21095.25
423.18	20533.52
423.37	20119.24
423.56	20187.12
423.75	20486.71
423.94	20802.68
424.13	19868.81
424.32	19775.19
424.50	19728.38
424.69	19613.69
424.88	19939.02
425.07	19735.40
425.26	19880.51
425.45	19683.91
425.64	19353.89
425.83	19063.66
426.01	20617.78
426.20	20807.36
426.39	20755.87
426.58	19157.28
426.77	17497.84
426.96	16975.91
427.15	17743.60
427.33	19101.11
427.52	19969.45
427.71	19751.78
427.90	19761.14
428.09	19704.97
428.28	19360.91
428.46	18551.09
428.65	18078.30
428.84	18621.30
429.03	19061.32
429.22	18024.47
429.40	17064.85
429.59	15503.71
429.78	13579.79
429.97	13951.93
430.16	14010.45
430.34	13694.47
430.53	13973.00
430.72	14356.85
430.91	15646.48
431.10	18511.30
431.28	21860.60
431.47	23716.65
431.66	23812.61
431.85	22017.42
432.03	19988.18
432.22	19061.32
432.41	19723.69
432.60	22195.30
432.79	22939.59
432.97	23669.84
433.16	22728.94
433.35	21326.96
433.54	19035.58
433.72	17715.51
433.91	18321.71
434.10	20278.40
434.28	21582.08
434.47	22829.59
434.66	22771.07
434.85	22064.23
435.03	21774.00
435.22	22427.01
435.41	23920.28
435.59	24032.62
435.78	24100.50
435.97	25127.99
436.16	25284.81
436.34	24503.07
436.53	23840.70
436.72	24446.90
436.90	22862.35
437.09	22719.58
437.28	22375.52
437.46	23154.92
437.65	23136.20
437.84	21771.66
438.02	19662.84
438.21	19754.12
438.40	20929.07
438.58	22644.68
438.77	23103.43
438.96	23482.59
439.14	24254.97
439.33	25015.65
439.52	25617.16
439.70	24980.54
439.89	24135.60
440.08	23452.17
440.26	23534.09
440.45	23988.15
440.63	25825.47
440.82	27182.98
441.01	26780.41
441.19	26705.51
441.38	27042.55
441.57	28070.04
441.75	28212.82
441.94	28701.99
442.12	28322.82
442.31	29083.50
442.50	28470.28
442.68	28313.46
442.87	28254.95
443.05	27503.64
443.24	28140.26
443.43	28650.50
443.61	29474.37
443.80	29415.85
443.98	28056.00
444.17	27922.59
444.35	29443.94
444.54	30031.41
444.73	29713.10
444.91	28704.33
445.10	27410.01
445.28	26171.87
445.47	25893.35
445.65	26148.46
445.84	26927.86
446.02	27564.49
446.21	28093.45
446.39	28379.00
446.58	28685.61
446.77	28617.73
446.95	29020.30
447.14	29577.35
447.32	30668.04
447.51	29448.62
447.69	28711.35
447.88	28304.10
448.06	29153.71
448.25	29343.30
448.43	29610.12
448.62	28734.76
448.80	28699.65
448.99	29069.45
449.17	29284.78
449.36	29240.31
449.54	30216.32
449.73	31089.34
449.91	31168.91
450.10	32278.33
450.28	32561.53
450.46	32339.18
450.65	32336.84
450.83	31974.06
451.02	31583.19
451.20	31323.39
451.39	31065.93
451.57	31089.34
451.76	30773.36
451.94	30684.42
452.13	30274.83
452.31	29027.32
452.49	27421.72
452.68	28032.60
452.86	28060.68
453.05	28474.96
453.23	29118.60
453.42	29963.54
453.60	30536.97
453.78	30698.47
453.97	30756.98
454.15	30649.32
454.34	29919.07
454.52	30024.39
454.70	29570.33
454.89	29799.70
455.07	29366.70
455.26	30232.70
455.44	31477.86
455.62	31962.36
455.81	31964.70
455.99	32130.87
456.17	31524.68
456.36	31630.00
456.54	32491.32
456.73	32196.41
456.91	33099.86
457.09	33376.04
457.28	33933.09
457.46	32348.54
457.64	32322.80
457.83	31466.16
458.01	30485.48
458.19	31468.50
458.38	31597.23
458.56	32676.22
458.74	32802.61
458.93	31927.25
459.11	31634.68
459.29	31400.63
459.48	31875.76
459.66	31548.08
459.84	31894.48
460.03	32254.92
460.21	32374.29
460.39	33184.12
460.57	33006.23
460.76	33710.74
460.94	33832.44
461.12	32947.72
461.31	33399.44
461.49	33394.76
461.67	33039.00
461.85	34541.63
462.04	33979.90
462.22	34136.71
462.40	33991.60
462.59	33787.97
462.77	33865.21
462.95	34181.18
463.13	33542.22
463.32	33481.36
463.50	33130.28
463.68	33214.54
463.86	33170.07
464.05	32573.24
464.23	32105.13
464.41	32058.32
464.59	31388.92
464.78	32811.97
464.96	33212.20
465.14	32498.34
465.32	33181.77
465.50	33813.72
465.69	34588.44
465.87	33748.18
466.05	32723.03
466.23	31527.02
466.41	30558.03
466.60	31587.87
466.78	31550.42
466.96	32074.70
467.14	32692.60
467.32	33261.35
467.51	32706.65
467.69	31386.58
467.87	32484.30
468.05	32900.91
468.23	32271.31
468.41	32940.70
468.60	33041.34
468.78	33195.82
468.96	32472.59
469.14	33345.61
469.32	33766.91
469.50	32226.84
469.69	32348.54
469.87	31868.73
470.05	31601.91
470.23	31484.89
470.41	32271.31
470.59	32797.93
470.77	32818.99
470.95	33294.12
471.14	33523.49
471.32	33603.07
471.50	35470.82
471.68	35517.63
471.86	35833.60
472.04	35990.42
472.22	35866.37
472.40	34532.26
472.58	34274.80
472.77	33434.55
472.95	34763.98
473.13	35433.37
473.31	34202.25
473.49	34354.38
473.67	35409.96
473.85	35412.31
474.03	36484.27
474.21	36486.61
474.39	36804.92
474.57	37226.22
474.75	37057.70
474.93	36594.28
475.12	35864.03
475.30	35700.19
475.48	35943.61
475.66	36128.51
475.84	36074.68
476.02	36046.59
476.20	35412.31
476.38	35882.75
476.56	37170.05
476.74	37532.83
476.92	37654.54
477.10	38527.56
477.28	39526.97
477.46	39531.65
477.64	40229.13
477.82	39358.45
478.00	40020.82
478.18	39754.00
478.36	39180.57
478.54	39161.84
478.72	39861.66
478.90	40512.33
479.08	41603.02
479.26	42174.11
479.44	41958.78
479.62	41738.77
479.80	41504.72
479.98	41986.87
480.16	42440.93
480.34	41724.73
480.52	42131.98
480.70	42068.79
480.88	41823.03
481.06	43412.26
481.24	43196.93
481.41	44484.22
481.59	44856.37
481.77	44465.50
481.95	44055.90
482.13	44306.34
482.31	44327.41
482.49	44861.05
482.67	44816.58
482.85	44395.28
483.03	45591.30
483.21	45757.47
483.39	45886.20
483.57	45071.70
483.74	44807.22
483.92	45186.38
484.10	45155.96
484.28	46230.26
484.46	46436.23
484.64	46824.76
484.82	46054.72
485.00	45764.49
485.18	44465.50
485.35	43461.41
485.53	40451.48
485.71	37076.43
485.89	35997.44
486.07	38169.46
486.25	41411.10
486.43	43863.98
486.61	43856.96
486.78	44577.84
486.96	44680.83
487.14	46333.24
487.32	46983.91
487.50	48299.30
487.68	49001.46
487.85	50026.61
488.03	49619.36
488.21	49441.48
488.39	47945.87
488.57	48048.86
488.75	47255.42
488.92	48577.82
489.10	50740.47
489.28	52062.88
489.46	52938.24
489.64	52552.05
489.81	52839.93
489.99	52547.37
490.17	52374.17
490.35	53062.29
490.53	52369.49
490.70	51962.23
490.88	51650.94
491.06	52907.81
491.24	52975.69
491.41	51896.70
491.59	50220.87
491.77	49294.02
491.95	50721.75
492.13	51849.89
492.30	52963.98
492.48	54071.06
492.66	54375.33
492.84	54382.35
493.01	53975.09
493.19	53530.39
493.37	53125.48
493.54	52926.53
493.72	53689.55
493.90	54501.71
494.08	55547.93
494.25	55861.57
494.43	56041.79
494.61	56123.71
494.79	56259.46
494.96	56175.20
495.14	55489.42
495.32	54658.53
495.49	53794.87
495.67	55192.17
495.85	56322.65
496.02	56671.39
496.20	56491.17
496.38	56163.50
496.55	55945.83
496.73	56530.96
496.91	56786.08
497.09	57205.03
497.26	57174.61
497.44	56875.02
497.62	56413.93
497.79	55484.74
497.97	54358.94
498.14	54326.17
498.32	55456.65
498.50	56336.69
498.67	56956.94
498.85	56673.73
499.03	56907.79
499.20	57331.42
499.38	57221.42
499.56	57001.41
499.73	56598.83
499.91	56474.79
500.08	55861.57
500.26	55079.83
500.44	55496.44
500.61	56067.53
500.79	55821.78
500.97	55569.00
501.14	55559.64
501.32	55201.53
501.49	55257.71
501.67	55437.93
501.84	56013.70
502.02	56287.54
502.20	56842.25
502.37	56800.12
502.55	57006.09
502.72	57219.08
502.90	57841.66
503.07	57787.83
503.25	57153.54
503.43	56100.30
503.60	55791.35
503.78	55025.99
503.95	55643.90
504.13	56851.61
504.30	57640.37
504.48	57502.28
504.65	57382.91
504.83	57172.27
505.01	57577.18
505.18	58113.16
505.36	58721.70
505.53	58614.04
505.71	58805.96
505.88	59110.23
506.06	58454.88
506.23	58101.46
506.41	57450.79
506.58	57661.44
506.76	57815.91
506.93	57968.05
507.11	57621.65
507.28	57776.12
507.46	57155.88
507.63	56720.54
507.81	56528.62
507.98	56863.32
508.16	57265.89
508.33	57862.72
508.50	58389.34
508.68	58464.24
508.85	59238.96
509.03	59011.93
509.20	58829.37
509.38	58260.62
509.55	57373.55
509.73	57687.18
509.90	58356.58
510.08	58623.40
510.25	58206.78
510.42	58012.52
510.60	57991.45
510.77	58225.51
510.95	58738.08
511.12	59068.10
511.30	59330.24
511.47	59473.01
511.64	59253.00
511.82	59082.14
511.99	58286.36
512.17	57979.75
512.34	57621.65
512.51	57577.18
512.69	57923.58
512.86	57855.70
513.04	58349.56
513.21	58422.11
513.38	58012.52
513.56	57598.24
513.73	56774.37
513.90	57102.05
514.08	57083.33
514.25	57649.74
514.43	57694.21
514.60	57764.42
514.77	57881.45
514.95	58136.57
515.12	57970.39
515.29	58312.11
515.47	58560.20
515.64	58955.75
515.81	58562.54
515.99	58024.22
516.16	56364.78
516.33	54281.70
516.51	52542.69
516.68	51643.92
516.85	51639.24
517.03	51835.84
517.20	54768.54
517.37	57244.82
517.54	58199.76
517.72	57682.50
517.89	55278.77
518.06	52622.26
518.24	53038.88
518.41	55360.69
518.58	56582.45
518.75	56905.44
518.93	57043.54
519.10	56877.36
519.27	57436.75
519.45	57607.61
519.62	58436.16
519.79	58693.61
519.96	58546.16
520.14	57925.92
520.31	57169.93
520.48	57050.56
520.65	57467.17
520.83	58361.26
521.00	58829.37
521.17	58143.59
521.34	58096.78
521.52	58433.81
521.69	58625.74
521.86	59468.33
522.03	59119.59
522.20	57752.72
522.38	56821.19
522.55	56713.52
522.72	57357.17
522.89	57764.42
523.07	57724.63
523.24	57799.53
523.41	58894.90
523.58	59313.86
523.75	59550.25
523.92	59409.82
524.10	59304.49
524.27	59435.56
524.44	59096.19
524.61	59023.63
524.78	58934.69
524.96	58915.96
525.13	58707.66
525.30	58993.20
525.47	59428.54
525.64	59260.02
525.81	58550.84
525.98	57457.81
526.16	55756.24
526.33	55295.16
526.50	54646.83
526.67	54438.52
526.84	55077.49
527.01	56126.05
527.18	57029.49
527.36	57797.19
527.53	58665.53
527.70	59021.29
527.87	58326.15
528.04	57986.77
528.21	58464.24
528.38	59206.19
528.55	59550.25
528.72	59922.40
528.89	59891.97
529.07	59683.66
529.24	59152.36
529.41	58379.98
529.58	57984.43
529.75	57975.07
529.92	58557.86
530.09	58878.52
530.26	59433.22
530.43	59435.56
530.60	59838.14
530.77	59807.71
530.94	60030.06
531.11	59578.34
531.28	59274.07
531.46	59044.69
531.63	59168.74
531.80	58983.84
531.97	58618.72
532.14	58031.24
532.31	56748.63
532.48	56465.42
532.65	56245.41
532.82	56914.81
532.99	58265.30
533.16	58562.54
533.33	59117.25
533.50	58953.41
533.67	58312.11
533.84	57759.74
534.01	58061.67
534.18	58096.78
534.35	58438.50
534.52	58344.87
534.69	58417.43
534.86	58887.88
535.03	59023.63
535.20	59344.28
535.37	59814.73
535.54	59941.12
535.71	59545.57
535.88	59309.18
536.05	58688.93
536.22	58185.72
536.38	57984.43
536.55	57607.61
536.72	57240.14
536.89	56917.15
537.06	57766.76
537.23	58368.28
537.40	58920.65
537.57	58796.60
537.74	58733.40
537.91	58387.00
538.08	58419.77
538.25	58433.81
538.42	58761.49
538.59	58564.88
538.75	57804.21
538.92	57797.19
539.09	57553.77
539.26	57261.21
539.43	57291.63
539.60	57139.50
539.77	57336.10
539.94	57572.50
540.11	56673.73
540.28	56191.58
540.44	56140.09
540.61	56582.45
540.78	56687.78
540.95	57031.83
541.12	57453.13
541.29	57743.36
541.46	58129.54
541.62	58082.73
541.79	57836.98
541.96	57141.84
542.13	57382.91
542.30	57579.52
542.47	57886.13
542.63	57228.44
542.80	57172.27
542.97	57614.63
543.14	57263.55
543.31	57242.48
543.48	57797.19
543.64	58621.06
543.81	58899.58
543.98	58742.77
544.15	57916.56
544.32	57443.77
544.48	57387.60
544.65	57918.90
544.82	58277.00
544.99	57745.70
545.16	57420.36
545.32	57240.14
545.49	58080.39
545.66	58721.70
545.83	58190.40
546.00	57839.32
546.16	57656.76
546.33	57729.31
546.50	57616.97
546.67	57949.32
546.83	57530.37
547.00	57750.38
547.17	56954.60
547.34	56378.82
547.50	56231.37
547.67	56891.40
547.84	56842.25
548.00	57296.31
548.17	57733.99
548.34	57457.81
548.51	57333.76
548.67	57642.71
548.84	57717.61
549.01	57733.99
549.18	57612.29
549.34	57469.51
549.51	57373.55
549.68	57427.38
549.84	57305.68
550.01	57144.18
550.18	56720.54
550.34	57123.11
550.51	57027.15
550.68	57183.97
550.84	56591.81
551.01	56687.78
551.18	56715.86
551.34	56877.36
551.51	57406.32
551.68	57635.69
551.84	57628.67
552.01	57425.04
552.18	57291.63
552.34	56451.38
552.51	55894.33
552.68	56093.28
552.84	56577.77
553.01	56748.63
553.18	56594.15
553.34	56842.25
553.51	56856.29
553.67	57088.01
553.84	57279.93
554.01	56928.85
554.17	56872.68
554.34	57024.81
554.51	57298.65
554.67	57443.77
554.84	57038.86
555.00	56985.02
555.17	56774.37
555.33	56750.97
555.50	56722.88
555.67	56839.91
555.83	56275.84
556.00	56212.65
556.16	56126.05
556.33	55805.39
556.50	55576.02
556.66	55796.03
556.83	55416.86
556.99	55533.89
557.16	55648.58
557.32	55894.33
557.49	56207.97
557.65	56184.56
557.82	56109.66
557.98	55824.12
558.15	55477.72
558.32	54581.29
558.48	53731.68
558.65	54223.19
558.81	54457.24
558.98	54841.09
559.14	54974.50
559.31	55009.61
559.47	55070.46
559.64	54693.64
559.80	54368.30
559.97	54478.31
560.13	54920.67
560.30	55793.69
560.46	56151.79
560.63	56629.26
560.79	56418.61
560.96	56060.51
561.12	54857.48
561.29	54204.47
561.45	53893.18
561.61	54618.74
561.78	55231.96
561.94	54801.30
562.11	54808.32
562.27	54810.67
562.44	55011.95
562.60	55311.54
562.77	55545.59
562.93	55353.67
563.10	55217.92
563.26	54756.83
563.42	55110.25
563.59	54539.16
563.75	54857.48
563.92	54672.57
564.08	54527.46
564.24	54801.30
564.41	54960.46
564.57	54960.46
564.74	54607.04
564.90	54693.64
565.07	54536.82
565.23	54218.51
565.39	53425.07
565.56	53296.34
565.72	52807.17
565.88	53385.28
566.05	53474.22
566.21	53710.61
566.38	53963.39
566.54	53984.46
566.70	54309.79
566.87	54616.40
567.03	54459.58
567.19	54646.83
567.36	54527.46
567.52	54349.58
567.68	54120.21
567.85	53315.06
568.01	53090.37
568.17	52987.39
568.34	52931.22
568.50	52800.15
568.66	52853.98
568.83	53359.53
568.99	53282.30
569.15	53420.39
569.32	53619.33
569.48	53214.42
569.64	53024.84
569.81	52474.81
569.97	52814.19
570.13	52741.63
570.30	52275.87
570.46	51646.26
570.62	51189.86
570.78	50955.80
570.95	51501.15
571.11	51655.62
571.27	52360.12
571.43	52765.04
571.60	52769.72
571.76	52884.40
571.92	52959.30
572.09	53270.59
572.25	53169.95
572.41	53453.15
572.57	53310.38
572.74	52947.60
572.90	52428.00
573.06	52598.86
573.22	52790.78
573.38	52755.68
573.55	52610.56
573.71	52612.90
573.87	52664.39
574.03	52507.58
574.20	52432.68
574.36	52151.82
574.52	52144.80
574.68	51920.10
574.84	51667.33
575.01	51009.64
575.17	51044.74
575.33	51374.76
575.49	51517.53
575.65	51653.28
575.82	51320.93
575.98	51339.65
576.14	51377.10
576.30	51805.42
576.46	51847.55
576.62	51828.82
576.79	51510.51
576.95	51234.33
577.11	51475.40
577.27	51444.98
577.43	51407.53
577.59	51189.86
577.75	50857.50
577.92	50234.92
578.08	49787.88
578.24	49602.97
578.40	50115.55
578.56	50307.47
578.72	50688.98
578.88	50710.05
579.04	50679.62
579.21	50965.17
579.37	50890.27
579.53	51068.15
579.69	50834.10
579.85	51157.09
580.01	51229.65
580.17	50595.36
580.33	50810.69
580.49	50478.33
580.65	50600.04
580.82	50796.65
580.98	50878.57
581.14	50885.59
581.30	50932.40
581.46	50628.13
581.62	51047.08
581.78	50803.67
581.94	51360.72
582.10	51121.98
582.26	51248.37
582.42	51185.18
582.58	51299.86
582.74	51112.62
582.90	51136.02
583.06	51168.79
583.22	50712.39
583.38	50866.86
583.54	50656.21
583.70	50719.41
583.86	50731.11
584.02	50562.59
584.18	50672.60
584.34	50733.45
584.50	50440.89
584.66	49921.29
584.82	49703.62
584.98	49830.01
585.14	49308.07
585.30	48685.48
