SpectraSuite Data File
++++++++++++++++++++++++++++++++++++
Date: Mon Oct 07 14:53:51 GMT-05:00 2013
User: price-jones
Dark Spectrum Present: No
Reference Spectrum Present: No
Number of Sampled Component Spectra: 1
Spectrometers: USB2+H05261
Integration Time (usec): 100000 (USB2+H05261)
Spectra Averaged: 1 (USB2+H05261)
Boxcar Smoothing: 0 (USB2+H05261)
Correct for Electrical Dark: No (USB2+H05261)
Strobe/Lamp Enabled: No (USB2+H05261)
Correct for Detector Non-linearity: No (USB2+H05261)
Correct for Stray Light: No (USB2+H05261)
Number of Pixels in Processed Spectrum: 2048
>>>>>Begin Processed Spectral Data<<<<<
365.73	0.00
365.92	0.00
366.12	0.00
366.32	0.00
366.52	0.00
366.72	0.00
366.91	0.00
367.11	0.00
367.31	0.00
367.51	0.00
367.70	0.00
367.90	0.00
368.10	0.00
368.30	0.00
368.49	0.00
368.69	0.00
368.89	0.00
369.09	0.00
369.28	0.00
369.48	0.00
369.68	0.00
369.87	0.00
370.07	0.00
370.27	0.00
370.47	496.19
370.66	3026.31
370.86	3548.25
371.06	3843.16
371.25	3866.56
371.45	3435.91
371.65	3190.15
371.84	2937.37
372.04	3054.40
372.24	3339.94
372.44	3684.00
372.63	3602.08
372.83	3379.73
373.03	2890.56
373.22	2733.75
373.42	2794.60
373.62	3251.00
373.81	3482.72
374.01	3433.57
374.21	3199.51
374.40	2801.62
374.60	2942.05
374.79	3473.36
374.99	4060.83
375.19	4533.62
375.38	4395.53
375.58	4138.07
375.78	3950.82
375.97	4100.62
376.17	4379.14
376.37	4170.83
376.56	4227.01
376.76	4566.39
376.95	4929.17
377.15	5329.40
377.35	5392.59
377.54	5675.80
377.74	5860.70
377.93	5781.12
378.13	5701.54
378.33	5418.34
378.52	4933.85
378.72	4723.20
378.91	4608.51
379.11	4444.68
379.31	4404.89
379.50	4219.99
379.70	4816.82
379.89	5261.52
380.09	5582.18
380.28	5659.42
380.48	5720.27
380.68	5535.37
380.87	5526.00
381.07	5090.67
381.26	4683.41
381.46	4325.31
381.65	4311.27
381.85	4177.86
382.04	3889.97
382.24	3684.00
382.43	3522.51
382.63	3400.80
382.83	3356.33
383.02	3489.74
383.22	3435.91
383.41	3506.12
383.61	3730.81
383.80	4271.48
384.00	4674.05
384.19	5343.44
384.39	5645.37
384.58	5767.08
384.78	5521.32
384.97	5518.98
385.17	5256.84
385.36	4814.48
385.56	4784.06
385.75	4959.60
385.95	5315.36
386.14	5914.53
386.34	5692.18
386.53	5657.07
386.72	5238.12
386.92	5240.46
387.11	5575.16
387.31	5741.33
387.50	5675.80
387.70	5481.53
387.89	5270.89
388.09	5495.58
388.28	5586.86
388.48	5659.42
388.67	6141.57
388.86	6609.67
389.06	7206.51
389.25	7616.10
389.45	7662.91
389.64	7454.61
389.84	7564.61
390.03	7375.03
390.22	7372.69
390.42	7588.02
390.61	7852.50
390.81	8557.00
391.00	8669.34
391.19	8823.82
391.39	8329.97
391.58	7922.71
391.78	7543.55
391.97	7087.14
392.16	6792.23
392.36	6164.97
392.55	4901.08
392.75	3953.16
392.94	3204.19
393.13	3056.74
393.33	3651.24
393.52	4669.37
393.71	5844.32
393.91	6665.85
394.10	7033.31
394.29	7709.72
394.49	8496.14
394.68	9151.49
394.88	9142.13
395.07	9430.02
395.26	9406.61
395.46	9027.45
395.65	8617.85
395.84	7478.01
396.04	6452.86
396.23	5247.48
396.42	4255.09
396.62	4109.98
396.81	4802.78
397.00	6160.29
397.19	7627.81
397.39	9090.64
397.58	10239.84
397.77	11077.76
397.97	11297.77
398.16	11559.91
398.35	11880.56
398.55	12313.56
398.74	12624.85
398.93	12943.16
399.12	12620.17
399.32	12327.60
399.51	12655.28
399.70	13654.69
399.90	13226.37
400.09	13305.95
400.28	13221.69
400.47	13163.17
400.67	13919.17
400.86	14413.02
401.05	14530.05
401.24	14321.74
401.44	14719.63
401.63	14677.50
401.82	14834.32
402.01	14820.27
402.21	14750.06
402.40	15082.41
402.59	14335.78
402.78	14099.39
402.97	13397.23
403.17	14214.07
403.36	15138.58
403.55	15452.22
403.74	15700.31
403.93	14965.39
404.13	13933.21
404.32	13764.69
404.51	14281.95
404.70	15304.76
404.89	15288.38
405.09	14920.92
405.28	14541.75
405.47	14565.15
405.66	14483.24
405.85	14459.83
406.05	13638.30
406.24	13991.72
406.43	14506.64
406.62	15342.21
406.81	15496.69
407.00	14544.09
407.20	14253.86
407.39	14258.54
407.58	14902.19
407.77	15419.45
407.96	16379.07
408.15	16482.05
408.34	16196.51
408.54	17165.49
408.73	17420.61
408.92	16987.61
409.11	16449.28
409.30	15744.78
409.49	14651.75
409.68	14033.85
409.87	13224.03
410.07	14272.59
410.26	15461.58
410.45	16449.28
410.64	16545.25
410.83	17383.16
411.02	17722.54
411.21	18328.74
411.40	18057.23
411.59	18506.62
411.78	18171.92
411.98	17912.12
412.17	18436.40
412.36	17757.64
412.55	17926.16
412.74	17392.52
412.93	16809.73
413.12	17319.96
413.31	18724.29
413.50	19056.64
413.69	19208.78
413.88	18780.46
414.07	18204.69
414.26	18293.63
414.45	19260.27
414.64	19037.92
414.83	18967.70
415.02	18677.48
415.22	18452.78
415.41	19140.90
415.60	19531.77
415.79	20577.99
415.98	20954.82
416.17	20863.54
416.36	20524.16
416.55	20198.82
416.74	19564.54
416.93	18663.43
417.12	18927.91
417.31	19091.75
417.50	19094.09
417.69	20011.58
417.88	20140.31
418.07	19894.55
418.26	19690.93
418.45	19646.46
418.64	20194.14
418.83	21102.27
419.02	20992.26
419.21	20900.98
419.39	19932.00
419.58	18743.01
419.77	18948.98
419.96	19316.44
420.15	20617.78
420.34	21245.04
420.53	22260.84
420.72	22572.13
420.91	22134.45
421.10	22001.04
421.29	21795.07
421.48	21039.08
421.67	22061.89
421.86	21778.68
422.05	20233.93
422.24	18132.13
422.43	17694.45
422.61	19674.54
422.80	21624.21
422.99	21352.71
423.18	20339.26
423.37	20128.61
423.56	20505.43
423.75	20393.09
423.94	20872.90
424.13	19829.02
424.32	20020.94
424.50	20388.41
424.69	19880.51
424.88	19943.70
425.07	20173.08
425.26	20098.18
425.45	19936.68
425.64	18986.43
425.83	19033.24
426.01	20329.89
426.20	20938.43
426.39	20746.51
426.58	19339.85
426.77	17851.27
426.96	17390.18
427.15	17991.70
427.33	19520.07
427.52	20020.94
427.71	19906.26
427.90	19829.02
428.09	19681.56
428.28	19286.01
428.46	18712.58
428.65	18382.57
428.84	18707.90
429.03	19330.48
429.22	17991.70
429.40	16982.93
429.59	15646.48
429.78	13823.20
429.97	13848.95
430.16	14005.77
430.34	14003.43
430.53	14005.77
430.72	14317.06
430.91	15992.88
431.10	18747.69
431.28	22223.39
431.47	23681.54
431.66	24259.65
431.85	21884.01
432.03	20271.38
432.22	18822.59
432.41	20060.73
432.60	22068.91
432.79	22792.14
432.97	23850.06
433.16	23091.73
433.35	21378.45
433.54	19089.41
433.72	17781.05
433.91	18431.72
434.10	20470.33
434.28	22059.55
434.47	23089.38
434.66	22796.82
434.85	22333.39
435.03	22134.45
435.22	22649.36
435.41	24372.00
435.59	23955.38
435.78	24542.86
435.97	24526.47
436.16	24954.79
436.34	24807.34
436.53	24147.31
436.72	24383.70
436.90	23204.07
437.09	22920.87
437.28	22309.99
437.46	23194.71
437.65	23005.13
437.84	21687.40
438.02	20102.86
438.21	19967.11
438.40	21160.78
438.58	22530.00
438.77	23225.14
438.96	23407.70
439.14	24362.64
439.33	24849.47
439.52	25568.01
439.70	24531.15
439.89	24210.50
440.08	23674.52
440.26	23866.44
440.45	24320.51
440.63	25937.82
440.82	27234.47
441.01	27264.90
441.19	26567.42
441.38	27365.54
441.57	27882.80
441.75	28772.21
441.94	28980.51
442.12	28205.80
442.31	28865.83
442.50	28669.22
442.68	28573.26
442.87	28093.45
443.05	27812.59
443.24	28287.71
443.43	28858.81
443.61	29406.49
443.80	30000.99
443.98	28208.14
444.17	27864.08
444.35	29715.44
444.54	30082.91
444.73	29734.17
444.91	28699.65
445.10	27414.69
445.28	26312.30
445.47	25514.18
445.65	25949.52
445.84	26724.24
446.02	27758.75
446.21	28032.60
446.39	28493.68
446.58	28439.85
446.77	28957.11
446.95	29287.12
447.14	30075.88
447.32	30586.12
447.51	29951.84
447.69	28664.54
447.88	28315.80
448.06	29046.05
448.25	29223.93
448.43	29546.92
448.62	29099.88
448.80	28772.21
448.99	29237.97
449.17	29305.85
449.36	29610.12
449.54	30450.37
449.73	31047.21
449.91	31510.63
450.10	32201.09
450.28	32631.75
450.46	32170.66
450.65	32301.73
450.83	32121.51
451.02	31288.28
451.20	31168.91
451.39	31037.84
451.57	30902.09
451.76	30941.88
451.94	30714.85
452.13	30445.69
452.31	29200.52
452.49	27931.95
452.68	27737.69
452.86	27679.18
453.05	28283.03
453.23	29113.92
453.42	30012.69
453.60	30419.94
453.78	30911.46
453.97	30515.90
454.15	30485.48
454.34	29961.20
454.52	30354.41
454.70	29350.32
454.89	30071.20
455.07	29738.85
455.26	30651.66
455.44	31173.60
455.62	31969.38
455.81	32313.44
455.99	32240.88
456.17	31742.35
456.36	32081.72
456.54	32673.88
456.73	32488.98
456.91	32795.59
457.09	33226.24
457.28	33895.64
457.46	32348.54
457.64	32285.35
457.83	31496.59
458.01	30724.21
458.19	31559.78
458.38	31527.02
458.56	32217.47
458.74	32577.92
458.93	31639.36
459.11	31660.43
459.29	31381.90
459.48	31597.23
459.66	31122.10
459.84	32409.40
460.03	32360.25
460.21	32400.04
460.39	33191.14
460.57	33074.11
460.76	33376.04
460.94	33371.36
461.12	33071.77
461.31	33039.00
461.49	32929.00
461.67	33041.34
461.85	34260.76
462.04	33839.47
462.22	33951.81
462.40	33670.95
462.59	33738.82
462.77	33467.32
462.95	34080.54
463.13	33523.49
463.32	33340.93
463.50	32886.87
463.68	33043.68
463.86	33191.14
464.05	32645.79
464.23	32229.18
464.41	31859.37
464.59	31269.56
464.78	32863.46
464.96	32720.69
465.14	32371.95
465.32	33558.60
465.50	33675.63
465.69	34094.58
465.87	33567.96
466.05	33076.45
466.23	31395.95
466.41	30375.47
466.60	31213.38
466.78	31852.35
466.96	32079.38
467.14	32636.43
467.32	33191.14
467.51	33029.64
467.69	31489.57
467.87	32149.60
468.05	32807.29
468.23	32699.62
468.41	32964.10
468.60	33106.88
468.78	33200.50
468.96	32355.57
469.14	33692.01
469.32	33596.05
469.50	32299.39
469.69	32608.34
469.87	31854.69
470.05	31580.85
470.23	31756.39
470.41	32222.16
470.59	32816.65
470.77	32474.93
470.95	32950.06
471.14	33727.12
471.32	33888.62
471.50	35026.12
471.68	35438.05
471.86	35494.22
472.04	36236.17
472.22	36364.90
472.40	34010.32
472.58	33921.38
472.77	33275.40
472.95	34110.97
473.13	35337.41
473.31	34286.51
473.49	34766.32
473.67	35459.12
473.85	35339.75
474.03	36343.84
474.21	36388.31
474.39	37001.53
474.57	36797.90
474.75	36641.09
474.93	36659.81
475.12	35402.94
475.30	35847.64
475.48	35967.01
475.66	36617.68
475.84	35945.95
476.02	35505.93
476.20	35379.54
476.38	35763.39
476.56	36914.93
476.74	37486.02
476.92	37734.12
477.10	38419.89
477.28	38993.32
477.46	39271.85
477.64	39732.93
477.82	39690.80
478.00	39842.94
478.18	39440.37
478.36	39580.80
478.54	39051.84
478.72	39700.17
478.90	40123.80
479.08	41462.59
479.26	42003.25
479.44	41530.47
479.62	41397.06
479.80	41500.04
479.98	41301.09
480.16	42040.70
480.34	41167.68
480.52	41804.31
480.70	42396.46
480.88	42567.32
481.06	43091.60
481.24	43320.98
481.41	44252.51
481.59	44868.07
481.77	44739.34
481.95	43901.43
482.13	43782.06
482.31	43812.49
482.49	44683.17
482.67	44308.68
482.85	44643.38
483.03	45270.64
483.21	45647.47
483.39	44968.71
483.57	44364.85
483.74	44547.42
483.92	44566.14
484.10	44753.38
484.28	46021.95
484.46	46150.68
484.64	46745.18
484.82	45652.15
485.00	45301.07
485.18	44327.41
485.35	42920.74
485.53	40194.02
485.71	36659.81
485.89	35948.29
486.07	38071.15
486.25	41081.08
486.43	43543.33
486.61	44519.33
486.78	43903.77
486.96	44500.61
487.14	46176.43
487.32	46546.23
487.50	48025.45
487.68	48818.89
487.85	49446.16
488.03	49588.93
488.21	48818.89
488.39	48280.57
488.57	47784.38
488.75	46897.31
488.92	48154.18
489.10	50759.20
489.28	52212.67
489.46	52563.75
489.64	52655.03
489.81	52605.88
489.99	52086.28
490.17	52315.65
490.35	52743.97
490.53	52315.65
490.70	51880.31
490.88	51569.02
491.06	52746.31
491.24	52725.25
491.41	51714.14
491.59	49876.82
491.77	48865.70
491.95	50155.34
492.13	51463.70
492.30	52739.29
492.48	53715.29
492.66	54101.48
492.84	54122.55
493.01	53558.48
493.19	53230.80
493.37	52952.28
493.54	52671.42
493.72	53174.63
493.90	54431.50
494.08	54990.89
494.25	55606.45
494.43	55531.55
494.61	55831.14
494.79	56278.18
494.96	55934.12
495.14	55278.77
495.32	54199.79
495.49	53605.29
495.67	54604.70
495.85	55962.21
496.02	56250.09
496.20	56537.98
496.38	55737.52
496.55	55908.38
496.73	56135.41
496.91	56273.50
497.09	57015.45
497.26	57116.09
497.44	56666.71
497.62	56266.48
497.79	55337.29
497.97	54171.70
498.14	54082.76
498.32	55379.42
498.50	56261.80
498.67	56860.97
498.85	56591.81
499.03	56701.82
499.20	56903.10
499.38	57291.63
499.56	57038.86
499.73	56399.89
499.91	55941.14
500.08	55540.91
500.26	54859.82
500.44	55243.66
500.61	55891.99
500.79	55861.57
500.97	55416.86
501.14	55306.86
501.32	55110.25
501.49	55091.53
501.67	55056.42
501.84	55777.31
502.02	56346.06
502.20	56437.34
502.37	56514.58
502.55	56619.90
502.72	57055.24
502.90	57558.45
503.07	57338.44
503.25	56678.41
503.43	56067.53
503.60	55550.27
503.78	54642.15
503.95	55152.38
504.13	56584.79
504.30	57422.70
504.48	57167.58
504.65	56797.78
504.83	56844.59
505.01	57626.33
505.18	57820.59
505.36	58300.40
505.53	58295.72
505.71	58670.21
505.88	58770.85
506.06	57954.00
506.23	57815.91
506.41	57394.62
506.58	57682.50
506.76	57565.48
506.93	57797.19
507.11	57329.08
507.28	57670.80
507.46	56985.02
507.63	56334.35
507.81	56306.27
507.98	56568.41
508.16	57310.36
508.33	57745.70
508.50	57923.58
508.68	58536.80
508.85	58735.74
509.03	58880.86
509.20	58562.54
509.38	57996.13
509.55	57172.27
509.73	57235.46
509.90	57872.09
510.08	58183.38
510.25	57949.32
510.42	57799.53
510.60	57785.49
510.77	57918.90
510.95	58686.59
511.12	58485.31
511.30	58695.95
511.47	59199.17
511.64	59140.66
511.82	58941.71
511.99	58094.44
512.17	57605.26
512.34	57249.50
512.51	57614.63
512.69	57612.29
512.86	57687.18
513.04	58101.46
513.21	58061.67
513.38	57944.64
513.56	57223.76
513.73	56722.88
513.90	56779.06
514.08	57008.43
514.25	57284.61
514.43	57460.15
514.60	57413.34
514.77	57719.95
514.95	57977.41
515.12	57626.33
515.29	57958.69
515.47	58358.92
515.64	58576.59
515.81	58209.12
515.99	57813.57
516.16	56310.95
516.33	53921.26
516.51	51934.15
516.68	51861.59
516.85	50995.59
517.03	51437.95
517.20	54424.48
517.37	56903.10
517.54	57523.35
517.72	57401.64
517.89	55119.62
518.06	51880.31
518.24	52811.85
518.41	54724.07
518.58	56257.12
518.75	56633.94
518.93	56713.52
519.10	56310.95
519.27	56884.38
519.45	57139.50
519.62	57886.13
519.79	58433.81
519.96	58204.44
520.14	57841.66
520.31	56921.83
520.48	56760.33
520.65	57172.27
520.83	58122.52
521.00	58494.67
521.17	58293.38
521.34	57799.53
521.52	58223.17
521.69	58672.55
521.86	58951.07
522.03	58742.77
522.20	57488.24
522.38	56470.11
522.55	56458.40
522.72	57041.20
522.89	57240.14
523.07	57418.02
523.24	57654.42
523.41	58649.14
523.58	58700.64
523.75	59199.17
523.92	59224.92
524.10	58951.07
524.27	59133.63
524.44	58810.64
524.61	58745.11
524.78	58316.79
524.96	58466.58
525.13	58513.39
525.30	58653.82
525.47	59194.49
525.64	59018.95
525.81	58094.44
525.98	56928.85
526.16	55323.24
526.33	54927.69
526.50	54574.27
526.67	53944.67
526.84	54824.71
527.01	55849.86
527.18	56486.49
527.36	57411.00
527.53	58429.13
527.70	58550.84
527.87	57970.39
528.04	57546.75
528.21	58108.48
528.38	58768.51
528.55	59360.67
528.72	59433.22
528.89	59580.68
529.07	59419.18
529.24	58859.79
529.41	58033.58
529.58	57513.98
529.75	57724.63
529.92	58038.26
530.09	58504.03
530.26	58979.16
530.43	59175.76
530.60	59168.74
530.77	59585.36
530.94	59557.27
531.11	59091.51
531.28	58609.35
531.46	58775.53
531.63	58761.49
531.80	58508.71
531.97	58181.04
532.14	57249.50
532.31	56315.63
532.48	55941.14
532.65	55753.90
532.82	56570.75
532.99	57609.95
533.16	58234.87
533.33	58583.61
533.50	58513.39
533.67	57577.18
533.84	57474.20
534.01	57680.16
534.18	57769.10
534.35	58059.33
534.52	57890.81
534.69	58134.23
534.86	58445.52
535.03	58543.82
535.20	59077.46
535.37	59611.10
535.54	59597.06
535.71	59061.08
535.88	59054.06
536.05	58204.44
536.22	58010.18
536.38	57467.17
536.55	57357.17
536.72	56563.73
536.89	56530.96
537.06	57364.19
537.23	58199.76
537.40	58405.73
537.57	58438.50
537.74	58145.93
537.91	57972.73
538.08	58134.23
538.25	58106.14
538.42	58319.13
538.59	58078.05
538.75	57628.67
538.92	57237.80
539.09	56919.49
539.26	57106.73
539.43	56603.52
539.60	56940.55
539.77	57027.15
539.94	57064.60
540.11	56067.53
540.28	55564.32
540.44	55597.09
540.61	56023.06
540.78	56252.44
540.95	56912.47
541.12	56973.32
541.29	57415.68
541.46	57420.36
541.62	57764.42
541.79	57572.50
541.96	56800.12
542.13	56896.08
542.30	56956.94
542.47	57366.53
542.63	57043.54
542.80	56633.94
542.97	56870.34
543.14	56757.99
543.31	56748.63
543.48	57394.62
543.64	58326.15
543.81	58529.78
543.98	58398.71
544.15	57296.31
544.32	56963.96
544.48	57066.94
544.65	57427.38
544.82	57652.08
544.99	57366.53
545.16	57080.98
545.32	56893.74
545.49	57759.74
545.66	58178.70
545.83	57567.82
546.00	57434.41
546.16	57127.80
546.33	57183.97
546.50	57382.91
546.67	57602.92
546.83	56968.64
547.00	57092.69
547.17	56598.83
547.34	55877.95
547.50	56002.00
547.67	56348.40
547.84	56397.55
548.00	56582.45
548.17	57186.31
548.34	57043.54
548.51	57212.06
548.67	57120.77
548.84	57188.65
549.01	57214.40
549.18	56919.49
549.34	57132.48
549.51	57041.20
549.68	56989.70
549.84	56776.72
550.01	56671.39
550.18	56327.33
550.34	56481.81
550.51	56692.46
550.68	56514.58
550.84	56346.06
551.01	56179.88
551.18	56086.26
551.34	56554.36
551.51	56774.37
551.68	57095.03
551.84	57055.24
552.01	56865.66
552.18	56659.69
552.34	56004.34
552.51	55456.65
552.68	55601.77
552.84	55906.04
553.01	56395.21
553.18	56268.82
553.34	56334.35
553.51	56383.51
553.67	56633.94
553.84	56776.72
554.01	56783.74
554.17	56278.18
554.34	56594.15
554.51	56687.78
554.67	56860.97
554.84	56956.94
555.00	56495.85
555.17	56151.79
555.33	56053.49
555.50	55969.23
555.67	56086.26
555.83	55854.54
556.00	55566.66
556.16	55683.69
556.33	55222.60
556.50	54981.52
556.66	55241.32
556.83	54733.43
556.99	54876.20
557.16	55124.30
557.32	55405.16
557.49	55777.31
557.65	55629.85
557.82	55517.51
557.98	55386.44
558.15	55133.66
558.32	54131.91
558.48	53279.96
558.65	53528.05
558.81	53727.00
558.98	54103.82
559.14	54368.30
559.31	54497.03
559.47	54560.23
559.64	54082.76
559.80	53675.51
559.97	53745.72
560.13	54148.29
560.30	55229.62
560.46	55540.91
560.63	55999.66
560.79	55737.52
560.96	55433.25
561.12	54272.34
561.29	53647.42
561.45	53499.97
561.61	54019.56
561.78	54585.97
561.94	54501.71
562.11	54480.65
562.27	54150.63
562.44	54677.25
562.60	54925.35
562.77	55276.43
562.93	55054.08
563.10	54768.54
563.26	54234.89
563.42	54129.57
563.59	53984.46
563.75	54202.13
563.92	53930.62
564.08	53949.35
564.24	54363.62
564.41	54426.82
564.57	54195.10
564.74	53956.37
564.90	54096.80
565.07	53670.82
565.23	53495.28
565.39	52814.19
565.56	52268.84
565.72	52310.97
565.88	53102.07
566.05	52694.82
566.21	52776.74
566.38	53460.18
566.54	53387.62
566.70	53806.58
566.87	53963.39
567.03	53902.54
567.19	54340.22
567.36	53808.92
567.52	53729.34
567.68	53499.97
567.85	53027.18
568.01	52198.63
568.17	51777.33
568.34	52002.02
568.50	52327.36
568.66	52259.48
568.83	52465.45
568.99	52640.99
569.15	52727.59
569.32	52758.02
569.48	52514.60
569.64	52268.84
569.81	52116.71
569.97	51732.86
570.13	51758.61
570.30	51339.65
570.46	50869.20
570.62	50263.00
570.78	50145.98
570.95	50569.61
571.11	51250.71
571.27	51501.15
571.43	51812.44
571.60	52041.81
571.76	52369.49
571.92	52533.32
572.09	52687.80
572.25	52484.17
572.41	52264.16
572.57	52376.51
572.74	52519.28
572.90	52053.51
573.06	51849.89
573.22	52051.17
573.38	52170.54
573.55	51929.47
573.71	52165.86
573.87	52016.07
574.03	51969.26
574.20	51910.74
574.36	51349.01
574.52	51454.34
574.68	51004.95
574.84	50630.47
575.01	50225.56
575.17	49925.97
575.33	50452.59
575.49	50656.21
575.65	50838.78
575.82	50595.36
575.98	50499.40
576.14	50885.59
576.30	51030.70
576.46	51187.52
576.62	50894.95
576.79	50831.75
576.95	50321.52
577.11	50412.80
577.27	50679.62
577.43	50831.75
577.59	50197.47
577.75	49862.77
577.92	49153.59
578.08	49104.44
578.24	48942.94
578.40	49492.97
578.56	49364.24
578.72	49528.08
578.88	49883.84
579.04	50054.70
579.21	50092.15
579.37	50260.66
579.53	50274.71
579.69	50124.91
579.85	50443.23
580.01	50401.10
580.17	49911.92
580.33	49593.61
580.49	49579.57
580.65	50291.09
580.82	49991.50
580.98	50089.80
581.14	49792.56
581.30	50120.23
581.46	49759.79
581.62	50178.75
581.78	49958.73
581.94	50354.29
582.10	50279.39
582.26	50562.59
582.42	50204.49
582.58	50735.79
582.74	50169.38
582.90	50117.89
583.06	50288.75
583.22	49890.86
583.38	49993.84
583.54	49858.09
583.70	49844.05
583.86	49691.91
584.02	49874.48
584.18	49982.14
584.34	49916.61
584.50	49511.69
584.66	49333.81
584.82	49256.57
584.98	49059.97
585.14	48699.53
585.30	47826.51
