SpectraSuite Data File
++++++++++++++++++++++++++++++++++++
Date: Mon Oct 07 14:53:45 GMT-05:00 2013
User: price-jones
Dark Spectrum Present: No
Reference Spectrum Present: No
Number of Sampled Component Spectra: 1
Spectrometers: USB2+H05261
Integration Time (usec): 100000 (USB2+H05261)
Spectra Averaged: 1 (USB2+H05261)
Boxcar Smoothing: 0 (USB2+H05261)
Correct for Electrical Dark: No (USB2+H05261)
Strobe/Lamp Enabled: No (USB2+H05261)
Correct for Detector Non-linearity: No (USB2+H05261)
Correct for Stray Light: No (USB2+H05261)
Number of Pixels in Processed Spectrum: 2048
>>>>>Begin Processed Spectral Data<<<<<
365.73	0.00
365.92	0.00
366.12	0.00
366.32	0.00
366.52	0.00
366.72	0.00
366.91	0.00
367.11	0.00
367.31	0.00
367.51	0.00
367.70	0.00
367.90	0.00
368.10	0.00
368.30	0.00
368.49	0.00
368.69	0.00
368.89	0.00
369.09	0.00
369.28	0.00
369.48	0.00
369.68	0.00
369.87	0.00
370.07	0.00
370.27	0.00
370.47	514.92
370.66	3129.30
370.86	3693.37
371.06	4112.32
371.25	4102.96
371.45	3728.47
371.65	3316.54
371.84	3108.23
372.04	3269.73
372.24	3770.60
372.44	3932.10
372.63	3803.37
372.83	3478.04
373.03	3105.89
373.22	2862.48
373.42	3063.76
373.62	3445.27
373.81	3878.27
374.01	3871.25
374.21	3538.89
374.40	3173.77
374.60	3243.98
374.79	3740.18
374.99	4313.61
375.19	4732.56
375.38	4770.01
375.58	4437.66
375.78	4418.93
375.97	4374.46
376.17	4617.88
376.37	4610.86
376.56	4657.67
376.76	4950.23
376.95	5256.84
377.15	5600.90
377.35	6071.35
377.54	6054.97
377.74	6408.39
377.93	6534.78
378.13	6050.28
378.33	5865.38
378.52	5404.30
378.72	5130.45
378.91	5008.75
379.11	5067.26
379.31	4671.71
379.50	4664.69
379.70	5062.58
379.89	5710.91
380.09	5928.58
380.28	6193.06
380.48	6162.63
380.68	6038.58
380.87	5914.53
381.07	5458.13
381.26	5039.17
381.46	4760.65
381.65	4674.05
381.85	4688.09
382.04	4299.56
382.24	3992.95
382.43	3747.20
382.63	3779.97
382.83	3726.13
383.02	3634.85
383.22	3791.67
383.41	3646.55
383.61	4025.72
383.80	4685.75
384.00	5266.21
384.19	5701.54
384.39	6141.57
384.58	6134.54
384.78	6047.94
384.97	5987.09
385.17	5640.69
385.36	5401.96
385.56	5170.24
385.75	5181.95
385.95	5699.20
386.14	6380.30
386.34	6338.17
386.53	6146.25
386.72	5600.90
386.92	5717.93
387.11	5987.09
387.31	6228.17
387.50	6057.31
387.70	5970.71
387.89	6113.48
388.09	5963.68
388.28	6150.93
388.48	6017.52
388.67	6534.78
388.86	7173.74
389.06	7709.72
389.25	8149.75
389.45	8273.79
389.64	8280.82
389.84	8166.13
390.03	8016.33
390.22	8028.04
390.42	8114.64
390.61	8664.66
390.81	9305.97
391.00	9530.66
391.19	9469.81
391.39	9221.71
391.58	8578.06
391.78	8102.93
391.97	7779.94
392.16	7297.79
392.36	6841.39
392.55	5561.11
392.75	4245.73
392.94	3536.55
393.13	3307.18
393.33	3976.57
393.52	5165.56
393.71	6382.64
393.91	7246.30
394.10	7843.14
394.29	8573.38
394.49	9359.80
394.68	10209.42
394.88	10064.30
395.07	10377.94
395.26	10197.71
395.46	10097.07
395.65	9322.35
395.84	8383.80
396.04	7005.22
396.23	5696.86
396.42	4868.31
396.62	4440.00
396.81	5198.33
397.00	6757.13
397.19	8463.38
397.39	9961.32
397.58	11286.06
397.77	11934.39
397.97	12531.23
398.16	12664.64
398.35	13181.90
398.55	13455.74
398.74	13708.52
398.93	14193.01
399.12	14047.90
399.32	13408.93
399.51	13865.33
399.70	14956.02
399.90	14707.93
400.09	14633.03
400.28	14417.70
400.47	14801.55
400.67	15339.87
400.86	16016.29
401.05	15578.61
401.24	15817.34
401.44	15978.84
401.63	16180.12
401.82	16348.64
402.01	16269.06
402.21	16531.20
402.40	16435.24
402.59	15955.43
402.78	15440.51
402.97	14855.38
403.17	15311.78
403.36	16191.83
403.55	16957.18
403.74	17289.54
403.93	16601.42
404.13	15204.12
404.32	14974.75
404.51	15246.25
404.70	17118.68
404.89	16769.94
405.09	16486.73
405.28	16147.36
405.47	16133.31
405.66	16264.38
405.85	15620.74
406.05	15215.82
406.24	15470.94
406.43	16077.14
406.62	16690.36
406.81	16929.09
407.00	16329.92
407.20	15782.23
407.39	15726.06
407.58	16610.78
407.77	17352.73
407.96	17561.04
408.15	17963.61
408.34	18228.09
408.54	19164.31
408.73	18796.84
408.92	18473.85
409.11	18038.51
409.30	17523.59
409.49	16409.50
409.68	15140.93
409.87	14595.58
410.07	15852.45
410.26	17102.29
410.45	18015.10
410.64	18602.58
410.83	19044.94
411.02	19412.40
411.21	20365.00
411.40	19976.47
411.59	20177.76
411.78	19960.09
411.98	19356.23
412.17	20030.30
412.36	19562.20
412.55	19976.47
412.74	18967.70
412.93	18934.93
413.12	19136.22
413.31	20940.77
413.50	20847.15
413.69	21350.37
413.88	20610.76
414.07	19927.32
414.26	20463.30
414.45	21041.42
414.64	21214.62
414.83	21186.53
415.02	20793.32
415.22	20905.66
415.41	21212.28
415.60	21764.64
415.79	22710.22
415.98	23204.07
416.17	22960.66
416.36	22452.76
416.55	22209.34
416.74	21816.13
416.93	21001.63
417.12	20807.36
417.31	21118.65
417.50	21369.09
417.69	22218.71
417.88	22272.54
418.07	21759.96
418.26	21832.52
418.45	21989.33
418.64	22431.69
418.83	23723.67
419.02	23073.00
419.21	22675.11
419.39	22099.34
419.58	20758.21
419.77	20879.92
419.96	21736.56
420.15	23236.84
420.34	23761.12
420.53	24603.71
420.72	25153.74
420.91	24692.65
421.10	24444.56
421.29	24596.69
421.48	23438.12
421.67	24191.78
421.86	23936.66
422.05	22328.71
422.24	20243.29
422.43	19374.95
422.61	21638.25
422.80	23721.33
422.99	23957.72
423.18	22918.53
423.37	22431.69
423.56	22331.05
423.75	22721.92
423.94	23372.59
424.13	21783.37
424.32	22288.92
424.50	22588.51
424.69	21738.90
424.88	22066.57
425.07	21813.79
425.26	22146.15
425.45	21738.90
425.64	21408.88
425.83	21287.17
426.01	22752.35
426.20	23293.01
426.39	23522.38
426.58	21493.14
426.77	20086.48
426.96	18916.21
427.15	19744.76
427.33	21610.17
427.52	22370.84
427.71	22333.39
427.90	22277.22
428.09	22052.53
428.28	21671.02
428.46	21034.39
428.65	20325.21
428.84	20961.84
429.03	21102.27
429.22	20276.06
429.40	19082.39
429.59	17518.91
429.78	15087.09
429.97	15822.02
430.16	15524.77
430.34	15644.14
430.53	15585.63
430.72	16018.63
430.91	17584.44
431.10	20751.19
431.28	24545.20
431.47	26345.07
431.66	26764.03
431.85	24411.79
432.03	22380.20
432.22	21362.07
432.41	22146.15
432.60	25146.72
432.79	25844.20
432.97	26473.80
433.16	26005.69
433.35	23700.26
433.54	21537.61
433.72	19805.61
433.91	20276.06
434.10	22890.44
434.28	24474.98
434.47	26103.99
434.66	25855.90
434.85	24905.64
435.03	24910.32
435.22	25181.82
435.41	26977.01
435.59	27089.36
435.78	27459.16
435.97	28161.33
436.16	28219.84
436.34	27374.91
436.53	27047.23
436.72	26881.05
436.90	25645.25
437.09	25715.47
437.28	25605.46
437.46	26309.96
437.65	25961.22
437.84	24215.18
438.02	22403.61
438.21	21961.25
438.40	23145.56
438.58	25490.77
438.77	25984.63
438.96	26038.46
439.14	27288.31
439.33	28048.98
439.52	28423.47
439.70	28016.21
439.89	27204.05
440.08	26857.65
440.26	26256.13
440.45	27094.04
440.63	29226.27
440.82	30497.18
441.01	30036.09
441.19	29710.76
441.38	30548.67
441.57	31585.53
441.75	31835.97
441.94	32105.13
442.12	31655.75
442.31	32512.38
442.50	32254.92
442.68	31995.12
442.87	31075.29
443.05	31307.01
443.24	31770.43
443.43	32165.98
443.61	32830.69
443.80	33558.60
443.98	31372.54
444.17	31103.38
444.35	33160.71
444.54	33619.46
444.73	33315.19
444.91	31920.23
445.10	30831.88
445.28	29465.00
445.47	28987.53
445.65	29064.77
445.84	30361.43
446.02	31346.79
446.21	31419.35
446.39	31285.94
446.58	31868.73
446.77	32210.45
446.95	32521.74
447.14	33844.15
447.32	33874.57
447.51	33326.89
447.69	32308.76
447.88	31519.99
448.06	32292.37
448.25	33067.09
448.43	33179.43
448.62	32247.90
448.80	32481.95
448.99	32907.93
449.17	32769.84
449.36	33212.20
449.54	34031.39
449.73	34726.53
449.91	35281.24
450.10	35758.70
450.28	36671.51
450.46	36320.43
450.65	35957.65
450.83	36044.25
451.02	35309.32
451.20	35292.94
451.39	35363.15
451.57	34459.71
451.76	34775.68
451.94	34866.96
452.13	33937.77
452.31	32465.57
452.49	30738.26
452.68	31274.24
452.86	31711.92
453.05	32107.47
453.23	32652.81
453.42	33441.57
453.60	34113.31
453.78	34752.27
453.97	34726.53
454.15	34597.80
454.34	34064.16
454.52	34277.15
454.70	33020.28
454.89	33706.05
455.07	33858.19
455.26	33745.84
455.44	35117.40
455.62	35995.10
455.81	36465.55
455.99	35941.27
456.17	35854.67
456.36	35573.80
456.54	36259.58
456.73	36776.84
456.91	36891.52
457.09	37153.66
457.28	38256.06
457.46	36533.42
457.64	36903.23
457.83	35260.17
458.01	34787.38
458.19	35384.22
458.38	35683.81
458.56	36376.61
458.74	36563.85
458.93	36055.95
459.11	35676.79
459.29	35599.55
459.48	35669.76
459.66	35447.41
459.84	36151.91
460.03	36364.90
460.21	36311.07
460.39	37156.00
460.57	37081.11
460.76	37521.13
460.94	38082.86
461.12	37584.32
461.31	37357.29
461.49	37322.18
461.67	37221.54
461.85	38785.02
462.04	38153.07
462.22	38452.66
462.40	38667.99
462.59	37874.55
462.77	38396.49
462.95	38319.25
463.13	37340.91
463.32	37755.18
463.50	37881.57
463.68	37457.93
463.86	37652.20
464.05	36840.03
464.23	36196.38
464.41	36093.40
464.59	35180.59
464.78	37113.87
464.96	37116.22
465.14	36844.71
465.32	37837.10
465.50	38366.06
465.69	38873.96
465.87	38176.48
466.05	37111.53
466.23	35363.15
466.41	34607.16
466.60	35452.09
466.78	35936.59
466.96	36203.41
467.14	36891.52
467.32	37467.30
467.51	37640.50
467.69	35695.51
467.87	36638.75
468.05	37200.47
468.23	37240.26
468.41	37179.41
468.60	37338.57
468.78	37832.42
468.96	37031.96
469.14	37713.05
469.32	37998.60
469.50	36374.27
469.69	36498.31
469.87	36154.26
470.05	35810.20
470.23	36116.81
470.41	36297.03
470.59	36388.31
470.77	36617.68
470.95	37366.65
471.14	37876.89
471.32	38153.07
471.50	39828.90
471.68	40339.13
471.86	40985.12
472.04	40517.01
472.22	40687.87
472.40	38859.91
472.58	38309.89
472.77	38071.15
472.95	38651.61
473.13	39899.11
473.31	38920.77
473.49	39339.72
473.67	39910.82
473.85	40013.80
474.03	40809.58
474.21	41347.90
474.39	41251.94
474.57	41926.02
474.75	41624.09
474.93	41411.10
475.12	40374.24
475.30	40505.31
475.48	40732.34
475.66	41298.75
475.84	40779.15
476.02	40519.35
476.20	39910.82
476.38	40374.24
476.56	41972.83
476.74	42204.54
476.92	42639.88
477.10	43159.48
477.28	44179.95
477.46	44547.42
477.64	44914.88
477.82	45134.89
478.00	44926.58
478.18	44154.21
478.36	43929.51
478.54	44484.22
478.72	44559.12
478.90	45315.11
479.08	46452.61
479.26	47468.40
479.44	46543.89
479.62	46705.39
479.80	46557.94
479.98	46810.71
480.16	47267.12
480.34	46529.85
480.52	47267.12
480.70	47798.42
480.88	47342.02
481.06	47564.37
481.24	48521.65
481.41	49195.72
481.59	49607.65
481.77	49453.18
481.95	48891.45
482.13	48837.62
482.31	48666.76
482.49	49645.10
482.67	49411.05
482.85	49734.04
483.03	50342.58
483.21	50459.61
483.39	50499.40
483.57	49839.37
483.74	49471.90
483.92	49741.06
484.10	50017.25
484.28	50740.47
484.46	51009.64
484.64	51622.86
484.82	51014.32
485.00	50206.83
485.18	49631.06
485.35	48119.07
485.53	45521.08
485.71	41811.33
485.89	40591.91
486.07	43140.75
486.25	46024.29
486.43	48507.60
486.61	49216.78
486.78	49556.16
486.96	49654.47
487.14	50791.97
487.32	51657.96
487.50	52479.49
487.68	53336.13
487.85	53794.87
488.03	53600.61
488.21	53322.08
488.39	52626.95
488.57	52069.90
488.75	51922.44
488.92	53090.37
489.10	54798.96
489.28	55913.06
489.46	56608.20
489.64	56037.11
489.81	56783.74
489.99	56355.42
490.17	56289.88
490.35	56633.94
490.53	56317.97
490.70	55777.31
490.88	55744.54
491.06	56633.94
491.24	56605.86
491.41	55728.16
491.59	54298.09
491.77	53549.12
491.95	54564.91
492.13	55676.66
492.30	56619.90
492.48	57490.58
492.66	57773.78
492.84	57738.68
493.01	57598.24
493.19	57263.55
493.37	57116.09
493.54	56692.46
493.72	57209.71
493.90	57951.66
494.08	58932.35
494.25	59082.14
494.43	59096.19
494.61	59236.62
494.79	59391.09
494.96	59407.48
495.14	58897.24
495.32	58192.74
495.49	57432.07
495.67	58265.30
495.85	59620.47
496.02	60060.49
496.20	59611.10
496.38	59253.00
496.55	59269.39
496.73	59870.90
496.91	59917.71
497.09	60350.71
497.26	60432.63
497.44	60102.62
497.62	59594.72
497.79	58906.60
497.97	57869.75
498.14	57806.55
498.32	58915.96
498.50	59739.83
498.67	60257.09
498.85	60135.38
499.03	60102.62
499.20	60367.10
499.38	60336.67
499.56	60247.73
499.73	60051.12
499.91	59554.93
500.08	59194.49
500.26	58536.80
500.44	59021.29
500.61	59241.30
500.79	59274.07
500.97	58892.56
501.14	58988.52
501.32	58604.67
501.49	58827.02
501.67	58672.55
501.84	59475.35
502.02	59786.64
502.20	59955.16
502.37	60109.64
502.55	60128.36
502.72	60638.60
502.90	61069.26
503.07	60858.61
503.25	60357.74
503.43	59636.85
503.60	59210.87
503.78	58253.59
503.95	58843.41
504.13	60149.43
504.30	60907.76
504.48	60629.24
504.65	60395.18
504.83	60308.58
505.01	60830.52
505.18	61254.16
505.36	61778.44
505.53	61818.23
505.71	61984.41
505.88	62171.65
506.06	61506.94
506.23	61338.42
506.41	60837.54
506.58	61165.22
506.76	61155.86
506.93	61188.63
507.11	60809.46
507.28	61109.05
507.46	60521.57
507.63	60053.47
507.81	59873.24
507.98	59969.21
508.16	60762.65
508.33	61394.59
508.50	61588.86
508.68	61701.20
508.85	62239.53
509.03	62166.97
509.20	62045.26
509.38	61413.32
509.55	60748.60
509.73	60720.52
509.90	61293.95
510.08	61558.43
510.25	61602.90
510.42	61127.77
510.60	61120.75
510.77	61408.64
510.95	61932.92
511.12	62209.10
511.30	62330.81
511.47	62578.90
511.64	62452.51
511.82	62253.57
511.99	61607.58
512.17	61312.67
512.34	60896.06
512.51	60985.00
512.69	60849.25
512.86	61359.48
513.04	61460.13
513.21	61787.80
513.38	61249.48
513.56	60811.80
513.73	60254.75
513.90	60587.11
514.08	60598.81
514.25	60809.46
514.43	60966.27
514.60	61022.45
514.77	61153.52
514.95	61474.17
515.12	61099.68
515.29	61504.60
515.47	61998.45
515.64	62106.12
515.81	61743.33
515.99	61343.10
516.16	59807.71
516.33	57911.88
516.51	56451.38
516.68	55730.50
516.85	55482.40
517.03	55803.05
517.20	58232.53
517.37	60430.29
517.54	61490.55
517.72	60767.33
517.89	58754.47
518.06	56718.20
518.24	56896.08
518.41	58827.02
518.58	59824.09
518.75	60399.86
518.93	60470.08
519.10	60104.96
519.27	60587.11
519.45	60804.78
519.62	61282.25
519.79	61972.70
519.96	61846.32
520.14	61258.84
520.31	60388.16
520.48	60236.03
520.65	60924.14
520.83	61659.07
521.00	62075.69
521.17	61656.73
521.34	61277.57
521.52	61565.45
521.69	62171.65
521.86	62670.18
522.03	62031.22
522.20	61155.86
522.38	60100.28
522.55	60229.01
522.72	60821.16
522.89	60734.56
523.07	61050.53
523.24	61312.67
523.41	62087.39
523.58	62351.87
523.75	62822.32
523.92	62621.03
524.10	62681.89
524.27	62351.87
524.44	62295.70
524.61	62265.27
524.78	62115.48
524.96	62157.61
525.13	62248.89
525.30	62220.80
525.47	62667.84
525.64	62625.71
525.81	61914.19
525.98	60711.16
526.16	59386.41
526.33	58908.94
526.50	58316.79
526.67	58131.89
526.84	58607.01
527.01	59580.68
527.18	60149.43
527.36	61146.50
527.53	61942.28
527.70	62031.22
527.87	61724.61
528.04	61146.50
528.21	61640.35
528.38	62101.43
528.55	62908.92
528.72	63142.97
528.89	63107.86
529.07	63182.76
529.24	62440.81
529.41	61797.16
529.58	61298.63
529.75	61317.35
529.92	61750.35
530.09	62014.83
530.26	62660.82
530.43	62834.02
530.60	62712.31
530.77	63032.97
530.94	63103.18
531.11	62639.76
531.28	62358.89
531.46	62408.04
531.63	62302.72
531.80	62298.04
531.97	61900.15
532.14	61207.35
532.31	60205.60
532.48	59671.96
532.65	59730.47
532.82	60575.40
532.99	61502.26
533.16	61853.34
533.33	62349.53
533.50	62326.13
533.67	61647.37
533.84	61291.61
534.01	61415.66
534.18	61425.02
534.35	61717.59
534.52	61689.50
534.69	61867.38
534.86	62052.28
535.03	62232.50
535.20	62695.93
535.37	62974.45
535.54	63037.65
535.71	62908.92
535.88	62550.82
536.05	61930.58
536.22	61518.64
536.38	61460.13
536.55	60973.30
536.72	60453.70
536.89	60278.16
537.06	60961.59
537.23	61930.58
537.40	62199.74
537.57	62232.50
537.74	61909.51
537.91	61834.61
538.08	61694.18
538.25	61628.65
538.42	61855.68
538.59	61848.66
538.75	61373.53
538.92	61202.67
539.09	60832.86
539.26	60858.61
539.43	60547.32
539.60	60631.58
539.77	60713.50
539.94	60774.35
540.11	60016.02
540.28	59531.53
540.44	59880.27
540.61	59765.58
540.78	60060.49
540.95	60434.97
541.12	60711.16
541.29	61139.47
541.46	61151.18
541.62	61523.32
541.79	61247.14
541.96	60942.87
542.13	60669.03
542.30	60886.70
542.47	61254.16
542.63	60856.27
542.80	60533.28
542.97	60680.73
543.14	60537.96
543.31	60760.31
543.48	61237.78
543.64	61975.05
543.81	61930.58
543.98	61799.50
544.15	61329.06
544.32	60629.24
544.48	60821.16
544.65	61420.34
544.82	61602.90
544.99	61432.04
545.16	60853.93
545.32	60657.32
545.49	61289.27
545.66	61776.10
545.83	61462.47
546.00	61099.68
546.16	60832.86
546.33	60992.02
546.50	60949.89
546.67	61336.08
546.83	60940.53
547.00	60992.02
547.17	60395.18
547.34	59868.56
547.50	59800.69
547.67	60282.84
547.84	60233.69
548.00	60739.24
548.17	61050.53
548.34	60926.49
548.51	60919.46
548.67	61024.79
548.84	60898.40
549.01	61076.28
549.18	61001.38
549.34	60945.21
549.51	60905.42
549.68	60652.64
549.84	60420.93
550.01	60601.15
550.18	60416.25
550.34	60416.25
550.51	60654.98
550.68	60701.79
550.84	60121.34
551.01	60346.03
551.18	60245.39
551.34	60556.68
551.51	60732.22
551.68	60807.12
551.84	60956.91
552.01	60781.37
552.18	60636.26
552.34	59859.20
552.51	59655.57
552.68	59440.24
552.84	60013.68
553.01	60320.29
553.18	60205.60
553.34	60324.97
553.51	60317.95
553.67	60633.92
553.84	60683.07
554.01	60652.64
554.17	60444.33
554.34	60486.46
554.51	60374.12
554.67	60776.69
554.84	60643.28
555.00	60523.91
555.17	60278.16
555.33	60175.17
555.50	60102.62
555.67	60254.75
555.83	60095.60
556.00	59798.35
556.16	59735.15
556.33	59339.60
556.50	59330.24
556.66	59264.70
556.83	59194.49
556.99	59199.17
557.16	59199.17
557.32	59543.23
557.49	59807.71
557.65	59622.81
557.82	59779.62
557.98	59482.37
558.15	59192.15
558.32	58546.16
558.48	57560.79
558.65	57921.24
558.81	58143.59
558.98	58646.80
559.14	58710.00
559.31	58604.67
559.47	58880.86
559.64	58408.07
559.80	58089.76
559.97	57965.71
560.13	58628.08
560.30	59533.87
560.46	59824.09
560.63	60109.64
560.79	60037.08
560.96	59798.35
561.12	58714.68
561.29	57815.91
561.45	57792.51
561.61	58539.14
561.78	58843.41
561.94	58724.04
562.11	58731.06
562.27	58515.73
562.44	58752.13
562.60	58838.73
562.77	59262.36
562.93	59203.85
563.10	58997.88
563.26	58347.21
563.42	58679.57
563.59	58314.45
563.75	58293.38
563.92	58567.23
564.08	58286.36
564.24	58752.13
564.41	58693.61
564.57	58618.72
564.74	58518.07
564.90	58274.66
565.07	58293.38
565.23	57748.04
565.39	57392.28
565.56	57195.67
565.72	57123.11
565.88	57254.18
566.05	57464.83
566.21	57666.12
566.38	57832.30
566.54	57986.77
566.70	58384.66
566.87	58274.66
567.03	58417.43
567.19	58625.74
567.36	58319.13
567.52	58045.29
567.68	57923.58
567.85	57317.38
568.01	56973.32
568.17	56772.03
568.34	57013.11
568.50	56655.01
568.66	56762.67
568.83	57303.34
568.99	57289.29
569.15	57502.28
569.32	57350.15
569.48	57205.03
569.64	56973.32
569.81	56488.83
569.97	56530.96
570.13	56615.22
570.30	56196.26
570.46	55700.07
570.62	55271.75
570.78	55290.48
570.95	55400.48
571.11	56154.13
571.27	56343.72
571.43	56425.64
571.60	56676.07
571.76	56994.39
571.92	57071.62
572.09	57525.69
572.25	57146.52
572.41	57195.67
572.57	57109.07
572.74	57172.27
572.90	56514.58
573.06	56882.04
573.22	56886.72
573.38	56905.44
573.55	56732.25
573.71	56882.04
573.87	56664.37
574.03	56596.49
574.20	56664.37
574.36	56353.08
574.52	56184.56
574.68	55987.95
574.84	55835.82
575.01	55323.24
575.17	55325.58
575.33	55281.11
575.49	55639.22
575.65	55936.46
575.82	55707.09
575.98	55435.59
576.14	55686.03
576.30	55894.33
576.46	55983.27
576.62	55910.72
576.79	55889.65
576.95	55690.71
577.11	55653.26
577.27	55615.81
577.43	55819.44
577.59	55400.48
577.75	55295.16
577.92	54403.41
578.08	54223.19
578.24	54600.02
578.40	54707.68
578.56	54712.36
578.72	55117.28
578.88	55253.03
579.04	55004.93
579.21	55313.88
579.37	55388.78
579.53	55311.54
579.69	55238.98
579.85	55824.12
580.01	55557.30
580.17	55126.64
580.33	54857.48
580.49	55194.51
580.65	55189.83
580.82	55683.69
580.98	55339.63
581.14	55030.68
581.30	55187.49
581.46	55128.98
581.62	55372.39
581.78	55253.03
581.94	55594.74
582.10	55421.55
582.26	55449.63
582.42	55482.40
582.58	55421.55
582.74	55341.97
582.90	55540.91
583.06	55391.12
583.22	55152.38
583.38	55079.83
583.54	55133.66
583.70	54859.82
583.86	55269.41
584.02	55011.95
584.18	55084.51
584.34	55037.70
584.50	54918.33
584.66	54749.81
584.82	54492.35
584.98	54375.33
585.14	54164.68
