SpectraSuite Data File
++++++++++++++++++++++++++++++++++++
Date: Mon Oct 07 14:52:59 GMT-05:00 2013
User: price-jones
Dark Spectrum Present: No
Reference Spectrum Present: No
Number of Sampled Component Spectra: 1
Spectrometers: USB2+H05261
Integration Time (usec): 100000 (USB2+H05261)
Spectra Averaged: 1 (USB2+H05261)
Boxcar Smoothing: 0 (USB2+H05261)
Correct for Electrical Dark: No (USB2+H05261)
Strobe/Lamp Enabled: No (USB2+H05261)
Correct for Detector Non-linearity: No (USB2+H05261)
Correct for Stray Light: No (USB2+H05261)
Number of Pixels in Processed Spectrum: 2048
>>>>>Begin Processed Spectral Data<<<<<
365.73	0.00
365.92	0.00
366.12	0.00
366.32	0.00
366.52	0.00
366.72	0.00
366.91	0.00
367.11	0.00
367.31	0.00
367.51	0.00
367.70	0.00
367.90	0.00
368.10	0.00
368.30	0.00
368.49	0.00
368.69	0.00
368.89	0.00
369.09	0.00
369.28	0.00
369.48	0.00
369.68	0.00
369.87	0.00
370.07	0.00
370.27	0.00
370.47	545.34
370.66	2712.68
370.86	3335.26
371.06	3571.66
371.25	3676.98
371.45	3056.74
371.65	2846.09
371.84	2731.41
372.04	2827.37
372.24	3253.34
372.44	3332.92
372.63	3337.60
372.83	2993.55
373.03	2672.89
373.22	2527.78
373.42	2712.68
373.62	2928.01
373.81	3063.76
374.01	3180.79
374.21	3002.91
374.40	2813.32
374.60	2862.48
374.79	3274.41
374.99	3651.24
375.19	4072.53
375.38	4124.02
375.58	3688.68
375.78	3789.33
375.97	3684.00
376.17	3885.29
376.37	4028.06
376.56	4051.47
376.76	4259.78
376.95	4514.89
377.15	4877.68
377.35	5121.09
377.54	5308.34
377.74	5352.81
377.93	5210.03
378.13	5100.03
378.33	4858.95
378.52	4585.11
378.72	4374.46
378.91	4222.33
379.11	4201.26
379.31	4049.13
379.50	4072.53
379.70	4393.19
379.89	4844.91
380.09	5139.82
380.28	5224.08
380.48	5378.55
380.68	5217.05
380.87	5116.41
381.07	4685.75
381.26	4447.02
381.46	4039.76
381.65	3927.42
381.85	3901.67
382.04	3646.55
382.24	3375.05
382.43	3190.15
382.63	3178.45
382.83	3141.00
383.02	3194.83
383.22	3243.98
383.41	3246.32
383.61	3463.99
383.80	3889.97
384.00	4402.55
384.19	5090.67
384.39	5198.33
384.58	5188.97
384.78	5039.17
384.97	5055.56
385.17	4814.48
385.36	4519.57
385.56	4430.63
385.75	4440.00
385.95	5015.77
386.14	5287.27
386.34	5451.11
386.53	5107.05
386.72	4748.95
386.92	4868.31
387.11	5170.24
387.31	5245.14
387.50	5338.76
387.70	5097.69
387.89	5083.64
388.09	5114.07
388.28	5317.70
388.48	5207.69
388.67	5549.41
388.86	6071.35
389.06	6569.88
389.25	6869.47
389.45	7129.27
389.64	6991.18
389.84	6885.86
390.03	6647.12
390.22	6932.67
390.42	6920.96
390.61	7524.82
390.81	7875.90
391.00	8119.32
391.19	8163.79
391.39	7868.88
391.58	7295.45
391.78	6927.99
391.97	6511.37
392.16	6251.57
392.36	5518.98
392.55	4411.91
392.75	3564.64
392.94	2979.50
393.13	2991.20
393.33	3515.48
393.52	4507.87
393.71	5486.22
393.91	6202.42
394.10	6700.95
394.29	7297.79
394.49	7861.86
394.68	8514.87
394.88	8510.19
395.07	8882.33
395.26	8760.63
395.46	8521.89
395.65	7948.46
395.84	6972.46
396.04	5914.53
396.23	4915.12
396.42	3997.64
396.62	3894.65
396.81	4533.62
397.00	5949.64
397.19	7325.88
397.39	8697.43
397.58	9657.05
397.77	10410.70
397.97	10464.54
398.16	10668.16
398.35	11375.00
398.55	11543.52
398.74	11887.58
398.93	12114.61
399.12	11887.58
399.32	11438.20
399.51	11826.73
399.70	12531.23
399.90	12341.64
400.09	12432.93
400.28	12299.52
400.47	12428.24
400.67	13099.98
400.86	13359.78
401.05	13123.38
401.24	13296.58
401.44	13806.82
401.63	13893.42
401.82	13701.50
402.01	13327.01
402.21	13989.38
402.40	14143.86
402.59	13523.62
402.78	12975.93
402.97	12554.63
403.17	13095.30
403.36	13912.14
403.55	14352.16
403.74	14670.48
403.93	13862.99
404.13	12830.82
404.32	12547.61
404.51	13270.84
404.70	14401.32
404.89	14256.20
405.09	14008.11
405.28	13586.81
405.47	13767.03
405.66	13671.07
405.85	13350.42
406.05	12748.90
406.24	12996.99
406.43	13671.07
406.62	14258.54
406.81	14188.33
407.00	13673.41
407.20	13652.34
407.39	13706.18
407.58	14251.52
407.77	14658.78
407.96	15087.09
408.15	15164.33
408.34	15365.62
408.54	15948.41
408.73	16269.06
408.92	15494.35
409.11	15651.16
409.30	14792.19
409.49	13692.13
409.68	12791.03
409.87	12760.60
410.07	13486.17
410.26	14139.18
410.45	15480.30
410.64	15833.72
410.83	16210.55
411.02	16645.89
411.21	17422.95
411.40	16779.30
411.59	17301.24
411.78	17214.64
411.98	16659.93
412.17	17174.85
412.36	16585.04
412.55	16762.92
412.74	16161.40
412.93	16233.96
413.12	16252.68
413.31	17898.08
413.50	17720.20
413.69	18258.52
413.88	17556.36
414.07	16910.37
414.26	17385.50
414.45	17759.98
414.64	18045.53
414.83	17886.37
415.02	17561.04
415.22	17759.98
415.41	18167.24
415.60	18773.44
415.79	19267.29
415.98	20027.96
416.17	19431.13
416.36	19276.65
416.55	18881.10
416.74	18249.16
416.93	17919.14
417.12	17727.22
417.31	17933.18
417.50	18618.96
417.69	19000.47
417.88	19075.37
418.07	18633.00
418.26	18581.51
418.45	18223.41
418.64	19140.90
418.83	19852.42
419.02	19164.31
419.21	19594.96
419.39	18651.73
419.58	17841.90
419.77	17790.41
419.96	18906.85
420.15	19719.01
420.34	19915.62
420.53	20751.19
420.72	21032.05
420.91	21156.10
421.10	20758.21
421.29	20680.97
421.48	20063.07
421.67	21083.55
421.86	20243.29
422.05	18848.33
422.24	17036.76
422.43	16945.48
422.61	18527.68
422.80	20250.32
422.99	20243.29
423.18	19470.92
423.37	19063.66
423.56	19180.69
423.75	19590.28
423.94	20137.97
424.13	18735.99
424.32	18759.39
424.50	19054.30
424.69	18661.09
424.88	18670.45
425.07	18916.21
425.26	18951.32
425.45	18508.96
425.64	18401.29
425.83	18391.93
426.01	19154.94
426.20	20074.77
426.39	19538.79
426.58	18295.97
426.77	16870.58
426.96	16257.36
427.15	17078.89
427.33	18464.49
427.52	19143.24
427.71	19218.14
427.90	18951.32
428.09	18696.20
428.28	18305.33
428.46	17724.88
428.65	17528.27
428.84	17930.84
429.03	18129.79
429.22	17088.25
429.40	16570.99
429.59	14736.01
429.78	13198.28
429.97	13057.85
430.16	13406.59
430.34	13413.61
430.53	13095.30
430.72	13760.01
430.91	15054.33
431.10	17797.43
431.28	21085.89
431.47	22911.50
431.66	22918.53
431.85	20580.33
432.03	19358.57
432.22	18391.93
432.41	19229.84
432.60	21048.44
432.79	21572.72
432.97	22469.14
433.16	21764.64
433.35	19843.06
433.54	17933.18
433.72	16919.73
433.91	17472.10
434.10	19679.22
434.28	21048.44
434.47	21986.99
434.66	21598.46
434.85	21366.75
435.03	21078.86
435.22	21659.32
435.41	22717.24
435.59	23103.43
435.78	23391.31
435.97	23726.01
436.16	23906.23
436.34	23314.08
436.53	22925.55
436.72	23232.16
436.90	21720.17
437.09	21874.65
437.28	21649.96
437.46	22043.17
437.65	21986.99
437.84	20800.34
438.02	19161.97
438.21	18946.64
438.40	20049.03
438.58	21591.44
438.77	22143.81
438.96	22457.44
439.14	23555.15
439.33	24039.64
439.52	24379.02
439.70	23667.50
439.89	23410.04
440.08	22862.35
440.26	22525.32
440.45	23342.16
440.63	24800.32
440.82	26094.63
441.01	25982.29
441.19	25544.61
441.38	26043.14
441.57	27089.36
441.75	27314.05
441.94	27374.91
442.12	27143.19
442.31	27559.81
442.50	28037.28
442.68	27503.64
442.87	26785.09
443.05	26518.27
443.24	27047.23
443.43	27777.48
443.61	28229.20
443.80	28348.57
443.98	27016.80
444.17	26859.99
444.35	28247.93
444.54	29146.69
444.73	28379.00
444.91	27161.92
445.10	26375.50
445.28	25549.29
445.47	25025.01
445.65	25174.80
445.84	25769.30
446.02	26977.01
446.21	26857.65
446.39	27307.03
446.58	27578.53
446.77	27527.04
446.95	28133.24
447.14	29149.03
447.32	29539.90
447.51	28926.68
447.69	27466.19
447.88	27569.17
448.06	27655.77
448.25	28362.61
448.43	28369.63
448.62	28126.22
448.80	27725.99
448.99	28168.35
449.17	28456.23
449.36	28245.58
449.54	29305.85
449.73	29846.51
449.91	30321.64
450.10	31220.41
450.28	31459.14
450.46	31152.53
450.65	31243.81
450.83	30714.85
451.02	30277.17
451.20	30008.01
451.39	30462.07
451.57	30078.22
451.76	30277.17
451.94	29893.32
452.13	29305.85
452.31	28149.62
452.49	26902.12
452.68	26843.60
452.86	27208.73
453.05	27157.24
453.23	28339.21
453.42	28748.80
453.60	29647.57
453.78	29961.20
453.97	29680.33
454.15	29275.42
454.34	29027.32
454.52	29268.40
454.70	28498.36
454.89	28500.70
455.07	29123.29
455.26	29380.74
455.44	30735.92
455.62	31253.17
455.81	31030.82
455.99	30841.24
456.17	30579.10
456.36	30691.44
456.54	31543.40
456.73	31470.84
456.91	31873.42
457.09	31999.80
457.28	32744.09
457.46	31690.85
457.64	30993.37
457.83	30157.80
458.01	29642.88
458.19	30412.92
458.38	30675.06
458.56	31761.07
458.74	31208.70
458.93	30862.30
459.11	31026.14
459.29	30771.02
459.48	31028.48
459.66	30630.59
459.84	31299.98
460.03	31229.77
460.21	31611.28
460.39	32177.68
460.57	32350.88
460.76	32673.88
460.94	32547.49
461.12	32397.70
461.31	32226.84
461.49	32074.70
461.67	32313.44
461.85	33284.76
462.04	33247.31
462.22	34211.61
462.40	33118.58
462.59	32945.38
462.77	33378.38
462.95	33354.97
463.13	32376.63
463.32	32311.10
463.50	32364.93
463.68	32264.28
463.86	32065.34
464.05	31639.36
464.23	31234.45
464.41	31002.74
464.59	30410.58
464.78	32610.68
464.96	31681.49
465.14	31587.87
465.32	32549.83
465.50	33263.69
465.69	33462.64
465.87	32879.85
466.05	31915.54
466.23	30412.92
466.41	29633.52
466.60	30810.81
466.78	30862.30
466.96	31412.33
467.14	31957.67
467.32	32521.74
467.51	32549.83
467.69	30766.34
467.87	31690.85
468.05	32655.15
468.23	31908.52
468.41	32203.43
468.60	32180.03
468.78	32491.32
468.96	32041.93
469.14	32772.18
469.32	32779.20
469.50	31480.21
469.69	31498.93
469.87	31459.14
470.05	31051.89
470.23	31363.18
470.41	31515.31
470.59	31564.46
470.77	31971.72
470.95	32615.37
471.14	32947.72
471.32	32985.17
471.50	34752.27
471.68	34962.92
471.86	35494.22
472.04	35178.25
472.22	35447.41
472.40	33832.44
472.58	32943.04
472.77	32889.21
472.95	33701.37
473.13	34642.27
473.31	33467.32
473.49	33717.76
473.67	34419.92
473.85	35391.24
474.03	35686.15
474.21	35604.23
474.39	36224.47
474.57	36168.30
474.75	36172.98
474.93	35768.07
475.12	35119.74
475.30	35526.99
475.48	35424.01
475.66	35651.04
475.84	35632.32
476.02	35201.66
476.20	34808.45
476.38	35454.44
476.56	36374.27
476.74	36825.99
476.92	36814.29
477.10	37336.23
477.28	38667.99
477.46	38653.95
477.64	39325.68
477.82	38845.87
478.00	39491.86
478.18	38913.75
478.36	38279.46
478.54	38333.29
478.72	39028.43
478.90	39704.85
479.08	40926.61
479.26	41258.96
479.44	41277.69
479.62	40957.03
479.80	40907.88
479.98	41614.72
480.16	41053.00
480.34	40802.56
480.52	41659.20
480.70	41628.77
480.88	41741.11
481.06	42452.64
481.24	42841.17
481.41	43655.67
481.59	44219.74
481.77	43824.19
481.95	43166.50
482.13	43100.97
482.31	43213.31
482.49	43807.81
482.67	43863.98
482.85	44577.84
483.03	44823.60
483.21	45195.74
483.39	45296.39
483.57	44275.91
483.74	43770.36
483.92	44685.51
484.10	44683.17
484.28	45778.54
484.46	45869.82
484.64	46206.86
484.82	45249.58
485.00	45020.20
485.18	44566.14
485.35	43313.95
485.53	39697.83
485.71	36144.89
485.89	35941.27
486.07	38000.94
486.25	41399.40
486.43	43063.52
486.61	44018.46
486.78	43943.56
486.96	44533.37
487.14	45888.54
487.32	46595.38
487.50	47629.90
487.68	48655.06
487.85	48928.90
488.03	49106.78
488.21	48601.22
488.39	48032.47
488.57	47019.02
488.75	46983.91
488.92	48308.66
489.10	50450.25
489.28	52126.07
489.46	52601.20
489.64	52413.96
489.81	52460.77
489.99	52116.71
490.17	52341.40
490.35	52530.98
490.53	52119.05
490.70	51657.96
490.88	51611.15
491.06	52339.06
491.24	52481.83
491.41	51124.32
491.59	49862.77
491.77	49184.02
491.95	49989.16
492.13	51510.51
492.30	52804.83
492.48	53680.19
492.66	53932.96
492.84	53963.39
493.01	53829.98
493.19	53027.18
493.37	52708.86
493.54	52685.46
493.72	53305.70
493.90	54447.88
494.08	54894.92
494.25	55295.16
494.43	55374.73
494.61	55781.99
494.79	56041.79
494.96	55800.71
495.14	55236.64
495.32	54216.17
495.49	53834.66
495.67	54813.01
495.85	56065.19
496.02	56357.76
496.20	56198.60
496.38	55819.44
496.55	55781.99
496.73	56086.26
496.91	56516.92
497.09	57088.01
497.26	57080.98
497.44	56545.00
497.62	55845.18
497.79	55341.97
497.97	54061.69
498.14	54085.10
498.32	55250.69
498.50	56355.42
498.67	56652.67
498.85	56769.69
499.03	56779.06
499.20	57127.80
499.38	57251.84
499.56	56942.89
499.73	56226.69
499.91	56002.00
500.08	55503.46
500.26	54920.67
500.44	55416.86
500.61	55950.51
500.79	55756.24
500.97	55480.06
501.14	55414.52
501.32	55224.94
501.49	55009.61
501.67	55393.46
501.84	55833.48
502.02	56287.54
502.20	56374.14
502.37	56713.52
502.55	56725.22
502.72	57382.91
502.90	57544.41
503.07	57455.47
503.25	56970.98
503.43	55929.44
503.60	55309.20
503.78	54798.96
503.95	55271.75
504.13	56795.44
504.30	57574.84
504.48	57345.47
504.65	56884.38
504.83	57176.95
505.01	57757.40
505.18	57930.60
505.36	58609.35
505.53	58756.81
505.71	58731.06
505.88	58855.11
506.06	58166.99
506.23	57986.77
506.41	57708.25
506.58	57935.28
506.76	57710.59
506.93	57797.19
507.11	57315.04
507.28	57612.29
507.46	57387.60
507.63	56601.18
507.81	56442.02
507.98	56954.60
508.16	57448.45
508.33	57783.15
508.50	58171.67
508.68	58384.66
508.85	59091.51
509.03	58906.60
509.20	58660.85
509.38	58155.29
509.55	57478.88
509.73	57687.18
509.90	58087.42
510.08	58148.27
510.25	58176.36
510.42	58223.17
510.60	58049.97
510.77	58513.39
510.95	58712.34
511.12	58904.26
511.30	58983.84
511.47	59456.63
511.64	59138.32
511.82	58787.24
511.99	58234.87
512.17	57942.30
512.34	57537.39
512.51	57729.31
512.69	57778.46
512.86	58000.82
513.04	58291.04
513.21	58349.56
513.38	57867.40
513.56	57464.83
513.73	56877.36
513.90	57296.31
514.08	57373.55
514.25	57708.25
514.43	57642.71
514.60	57918.90
514.77	58061.67
514.95	58094.44
515.12	58047.63
515.29	58265.30
515.47	58663.19
515.64	58946.39
515.81	58564.88
515.99	57851.02
516.16	56479.47
516.33	54328.52
516.51	52568.43
516.68	51636.90
516.85	51281.14
517.03	52081.60
517.20	54981.52
517.37	57172.27
517.54	58145.93
517.72	57408.66
517.89	54876.20
518.06	52645.67
518.24	53401.66
518.41	55339.63
518.58	56554.36
518.75	56996.73
518.93	57022.47
519.10	57200.35
519.27	57279.93
519.45	57757.40
519.62	58431.47
519.79	58777.87
519.96	58307.43
520.14	57951.66
520.31	57212.06
520.48	57333.76
520.65	57820.59
520.83	58604.67
521.00	58944.05
521.17	58335.51
521.34	58204.44
521.52	58361.26
521.69	58894.90
521.86	59545.57
522.03	59035.33
522.20	57708.25
522.38	56945.23
522.55	57059.92
522.72	57609.95
522.89	57572.50
523.07	57841.66
523.24	58169.33
523.41	58850.43
523.58	59470.67
523.75	59821.75
523.92	59629.83
524.10	59662.60
524.27	59608.76
524.44	59189.81
524.61	59210.87
524.78	59049.38
524.96	58740.42
525.13	58983.84
525.30	59112.57
525.47	59627.49
525.64	59599.40
525.81	58745.11
525.98	57195.67
526.16	55924.76
526.33	55679.00
526.50	55171.11
526.67	54705.34
526.84	55686.03
527.01	56247.75
527.18	57095.03
527.36	58005.50
527.53	58808.30
527.70	59150.02
527.87	58431.47
528.04	58230.19
528.21	58660.85
528.38	59292.79
528.55	59718.77
528.72	59877.93
528.89	60310.92
529.07	60004.31
529.24	59117.25
529.41	58660.85
529.58	58082.73
529.75	58206.78
529.92	58653.82
530.09	58981.50
530.26	59487.06
530.43	59880.27
530.60	59927.08
530.77	59875.58
530.94	60226.66
531.11	59625.15
531.28	59379.39
531.46	59107.89
531.63	59248.32
531.80	59187.47
531.97	58782.55
532.14	57869.75
532.31	56952.26
532.48	56327.33
532.65	56404.57
532.82	57429.72
532.99	58529.78
533.16	58770.85
533.33	59449.61
533.50	59093.85
533.67	58695.95
533.84	57846.34
534.01	58349.56
534.18	58464.24
534.35	58660.85
534.52	58492.33
534.69	58768.51
534.86	59054.06
535.03	59384.07
535.20	59903.67
535.37	60107.30
535.54	60018.36
535.71	59793.67
535.88	59440.24
536.05	58946.39
536.22	58527.44
536.38	58223.17
536.55	57752.72
536.72	57132.48
536.89	57254.18
537.06	57942.30
537.23	58791.92
537.40	59042.35
537.57	59168.74
537.74	58831.71
537.91	58672.55
538.08	58899.58
538.25	58883.20
538.42	59042.35
538.59	58812.98
538.75	58080.39
538.92	57916.56
539.09	58049.97
539.26	57771.44
539.43	57614.63
539.60	57633.35
539.77	57680.16
539.94	57801.87
540.11	56790.76
540.28	56341.38
540.44	56533.30
540.61	56952.26
540.78	57165.24
540.95	57176.95
541.12	57921.24
541.29	58124.86
541.46	58288.70
541.62	58321.47
541.79	58145.93
541.96	57464.83
542.13	57666.12
542.30	58010.18
542.47	58052.31
542.63	58014.86
542.80	57691.86
542.97	57647.39
543.14	57680.16
543.31	57710.59
543.48	58035.92
543.64	58829.37
543.81	59072.78
543.98	58946.39
544.15	58377.64
544.32	57956.35
544.48	57818.25
544.65	58370.62
544.82	58637.44
544.99	58166.99
545.16	58134.23
545.32	57851.02
545.49	58499.35
545.66	58733.40
545.83	58433.81
546.00	58113.16
546.16	57726.97
546.33	57851.02
546.50	58010.18
546.67	58314.45
546.83	57858.04
547.00	57932.94
547.17	57439.09
547.34	56769.69
547.50	56818.84
547.67	57155.88
547.84	57272.91
548.00	57586.54
548.17	58117.84
548.34	57946.98
548.51	57921.24
548.67	58040.60
548.84	58244.23
549.01	57907.19
549.18	57780.81
549.34	57762.08
549.51	57895.49
549.68	57858.04
549.84	57408.66
550.01	57553.77
550.18	57427.38
550.34	57347.81
550.51	57560.79
550.68	57619.31
550.84	57165.24
551.01	57186.31
551.18	57102.05
551.34	57427.38
551.51	57542.07
551.68	58014.86
551.84	58110.82
552.01	57836.98
552.18	57694.21
552.34	56842.25
552.51	56699.48
552.68	56423.29
552.84	56884.38
553.01	57212.06
553.18	57172.27
553.34	57233.12
553.51	57593.56
553.67	57675.48
553.84	57804.21
554.01	57563.14
554.17	57579.52
554.34	57614.63
554.51	57733.99
554.67	58045.29
554.84	57797.19
555.00	57354.83
555.17	57127.80
555.33	57155.88
555.50	57207.37
555.67	57179.29
555.83	57006.09
556.00	56582.45
556.16	56882.04
556.33	56193.92
556.50	56439.68
556.66	56154.13
556.83	56018.38
556.99	56289.88
557.16	56444.36
557.32	56694.80
557.49	57006.09
557.65	56559.05
557.82	56704.16
557.98	56545.00
558.15	55924.76
558.32	55164.09
558.48	54754.49
558.65	54829.39
558.81	54836.41
558.98	55222.60
559.14	55590.06
559.31	55704.75
559.47	55576.02
559.64	55412.18
559.80	54801.30
559.97	55128.98
560.13	55690.71
560.30	56299.25
560.46	56912.47
560.63	57141.84
560.79	57013.11
560.96	56573.09
561.12	55400.48
561.29	54880.88
561.45	54742.79
561.61	55379.42
561.78	55686.03
561.94	55526.87
562.11	55367.71
562.27	55723.47
562.44	55721.13
562.60	56217.33
562.77	56575.43
562.93	55987.95
563.10	56081.58
563.26	55508.14
563.42	55463.67
563.59	55494.10
563.75	55594.74
563.92	55079.83
564.08	55454.31
564.24	55700.07
564.41	55793.69
564.57	55515.17
564.74	55428.57
564.90	55454.31
565.07	55075.15
565.23	54588.31
565.39	54281.70
565.56	54003.18
565.72	53642.74
565.88	54003.18
566.05	54288.73
566.21	54595.34
566.38	54649.17
566.54	54574.27
566.70	55054.08
566.87	55255.37
567.03	55367.71
567.19	55557.30
567.36	55306.86
567.52	54962.80
567.68	54738.11
567.85	54143.61
568.01	54078.08
568.17	53570.18
568.34	53509.33
568.50	53530.39
568.66	53450.81
568.83	54038.29
568.99	53867.43
569.15	54152.97
569.32	54251.28
569.48	54054.67
569.64	53900.20
569.81	53628.69
569.97	53509.33
570.13	53357.19
570.30	52498.22
570.46	52325.02
570.62	52055.85
570.78	51672.01
570.95	52362.46
571.11	52933.56
571.27	52971.00
571.43	53251.87
571.60	53605.29
571.76	53729.34
571.92	54265.32
572.09	54157.66
572.25	54258.30
572.41	54024.25
572.57	54101.48
572.74	53979.78
572.90	53820.62
573.06	53492.94
573.22	53591.25
573.38	53490.60
573.55	53457.84
573.71	53848.71
573.87	53797.21
574.03	53626.35
574.20	53429.75
574.36	53165.27
574.52	52823.55
574.68	52753.33
574.84	52369.49
575.01	52048.83
575.17	52158.84
575.33	52540.35
575.49	52495.88
575.65	52671.42
575.82	52458.43
575.98	52046.49
576.14	52580.13
576.30	52811.85
576.46	52762.70
576.62	52828.23
576.79	52851.64
576.95	52573.11
577.11	52339.06
577.27	52451.41
577.43	52509.92
577.59	51978.62
577.75	51594.77
577.92	50979.21
578.08	50677.28
578.24	50808.35
578.40	50843.46
578.56	51522.21
578.72	51484.76
578.88	51704.77
579.04	51941.17
579.21	52081.60
579.37	52018.41
579.53	51849.89
579.69	52210.33
579.85	52332.04
580.01	51971.60
580.17	51381.78
580.33	51377.10
580.49	51709.46
580.65	51793.71
580.82	51934.15
580.98	51875.63
581.14	51922.44
581.30	52320.34
581.46	51562.00
581.62	52332.04
581.78	52107.35
581.94	52397.57
582.10	52238.42
582.26	52278.21
582.42	52027.77
582.58	52144.80
582.74	51863.93
582.90	52413.96
583.06	52577.79
583.22	52009.04
583.38	51913.08
583.54	51763.29
583.70	51913.08
583.86	52112.03
584.02	51798.40
584.18	51894.36
584.34	51580.73
584.50	51798.40
584.66	51459.02
584.82	50897.29
584.98	51105.60
585.14	50593.02
585.30	50183.43
