SpectraSuite Data File
++++++++++++++++++++++++++++++++++++
Date: Mon Oct 07 14:54:01 GMT-05:00 2013
User: price-jones
Dark Spectrum Present: No
Reference Spectrum Present: No
Number of Sampled Component Spectra: 1
Spectrometers: USB2+H05261
Integration Time (usec): 100000 (USB2+H05261)
Spectra Averaged: 1 (USB2+H05261)
Boxcar Smoothing: 0 (USB2+H05261)
Correct for Electrical Dark: No (USB2+H05261)
Strobe/Lamp Enabled: No (USB2+H05261)
Correct for Detector Non-linearity: No (USB2+H05261)
Correct for Stray Light: No (USB2+H05261)
Number of Pixels in Processed Spectrum: 2048
>>>>>Begin Processed Spectral Data<<<<<
365.73	0.00
365.92	0.00
366.12	0.00
366.32	0.00
366.52	0.00
366.72	0.00
366.91	0.00
367.11	0.00
367.31	0.00
367.51	0.00
367.70	0.00
367.90	0.00
368.10	0.00
368.30	0.00
368.49	0.00
368.69	0.00
368.89	0.00
369.09	0.00
369.28	0.00
369.48	0.00
369.68	0.00
369.87	0.00
370.07	0.00
370.27	0.00
370.47	706.84
370.66	3435.91
370.86	3990.61
371.06	4470.42
371.25	4245.73
371.45	4018.70
371.65	3520.17
371.84	3426.54
372.04	3475.70
372.24	3882.95
372.44	4107.64
372.63	4032.74
372.83	3894.65
373.03	3386.76
373.22	3101.21
373.42	3103.55
373.62	3618.47
373.81	3983.59
374.01	4124.02
374.21	3646.55
374.40	3400.80
374.60	3449.95
374.79	3918.06
374.99	4491.49
375.19	5085.98
375.38	4828.53
375.58	4652.98
375.78	4510.21
375.97	4730.22
376.17	4865.97
376.37	4645.96
376.56	4945.55
376.76	5088.32
376.95	5540.05
377.15	5851.34
377.35	6115.82
377.54	6389.66
377.74	6476.26
377.93	6511.37
378.13	6349.87
378.33	6141.57
378.52	5446.43
378.72	5469.83
378.91	5132.79
379.11	5132.79
379.31	5039.17
379.50	4882.36
379.70	5224.08
379.89	5968.37
380.09	6223.48
380.28	6401.37
380.48	6282.00
380.68	6246.89
380.87	6043.26
381.07	5682.82
381.26	5139.82
381.46	4880.02
381.65	4812.14
381.85	4641.28
382.04	4634.26
382.24	4198.92
382.43	3997.64
382.63	3868.91
382.83	3906.35
383.02	3829.12
383.22	3873.59
383.41	3948.48
383.61	4351.06
383.80	4753.63
384.00	5423.02
384.19	6015.18
384.39	6326.47
384.58	6331.15
384.78	6392.00
384.97	6225.82
385.17	5825.59
385.36	5579.84
385.56	5343.44
385.75	5479.19
385.95	5860.70
386.14	6490.31
386.34	6434.13
386.53	6277.32
386.72	5760.06
386.92	5989.43
387.11	6230.51
387.31	6518.39
387.50	6272.64
387.70	6225.82
387.89	6246.89
388.09	6370.94
388.28	6122.84
388.48	6340.51
388.67	6827.34
388.86	7578.65
389.06	7957.82
389.25	8226.98
389.45	8374.44
389.64	8348.69
389.84	8301.88
390.03	8180.17
390.22	8079.53
390.42	8425.93
390.61	8929.14
390.81	9483.85
391.00	9776.42
391.19	9834.93
391.39	9364.48
391.58	8875.31
391.78	8290.18
391.97	8100.59
392.16	7604.40
392.36	6918.62
392.55	5540.05
392.75	4402.55
392.94	3595.06
393.13	3520.17
393.33	4128.70
393.52	5226.42
393.71	6642.44
393.91	7581.00
394.10	8079.53
394.29	8826.16
394.49	9432.36
394.68	10022.17
394.88	10216.44
395.07	10717.31
395.26	10789.87
395.46	9933.23
395.65	9722.59
395.84	8397.84
396.04	7070.76
396.23	5809.21
396.42	4863.63
396.62	4641.28
396.81	5458.13
397.00	6832.02
397.19	8451.67
397.39	10232.82
397.58	11449.90
397.77	12353.35
397.97	12842.52
398.16	12685.70
398.35	13614.90
398.55	13668.73
398.74	14122.79
398.93	14590.90
399.12	13982.36
399.32	13942.57
399.51	13776.39
399.70	15068.37
399.90	14471.53
400.09	15213.48
400.28	14675.16
400.47	14817.93
400.67	15936.71
400.86	16147.36
401.05	16065.44
401.24	16065.44
401.44	16545.25
401.63	16259.70
401.82	16484.39
402.01	16439.92
402.21	16407.16
402.40	16741.85
402.59	16262.04
402.78	15414.77
402.97	14960.70
403.17	15669.89
403.36	16493.76
403.55	17469.76
403.74	17631.26
403.93	16561.63
404.13	15452.22
404.32	14986.45
404.51	15590.31
404.70	16929.09
404.89	16889.31
405.09	16910.37
405.28	15976.50
405.47	16329.92
405.66	16173.10
405.85	15798.62
406.05	15351.57
406.24	15634.78
406.43	16376.73
406.62	17034.42
406.81	16854.20
407.00	16259.70
407.20	15957.77
407.39	16049.05
407.58	16793.34
407.77	17404.22
407.96	18115.75
408.15	18090.00
408.34	18345.12
408.54	18977.06
408.73	18967.70
408.92	18855.36
409.11	18197.67
409.30	17561.04
409.49	16765.26
409.68	15569.24
409.87	14944.32
410.07	16032.67
410.26	17092.93
410.45	18274.90
410.64	18841.31
410.83	18960.68
411.02	19686.25
411.21	19990.52
411.40	20250.32
411.59	20257.34
411.78	19957.75
411.98	19723.69
412.17	20051.37
412.36	19491.98
412.55	19592.62
412.74	19531.77
412.93	19028.56
413.12	18951.32
413.31	20882.26
413.50	20978.22
413.69	21724.85
413.88	20482.03
414.07	20173.08
414.26	20535.86
414.45	21116.31
414.64	21233.34
414.83	21231.00
415.02	20332.23
415.22	20580.33
415.41	20989.92
415.60	21912.10
415.79	22651.70
415.98	23040.23
416.17	23421.74
416.36	22401.27
416.55	22288.92
416.74	21661.66
416.93	20622.46
417.12	21067.16
417.31	21275.47
417.50	21455.69
417.69	22295.94
417.88	21961.25
418.07	21841.88
418.26	21216.96
418.45	21994.01
418.64	22415.31
418.83	23360.89
419.02	23264.92
419.21	22726.60
419.39	21802.09
419.58	20809.70
419.77	21034.39
419.96	21891.03
420.15	23040.23
420.34	23599.62
420.53	24407.11
420.72	24570.94
420.91	24858.83
421.10	24217.52
421.29	24336.89
421.48	23410.04
421.67	24769.89
421.86	23821.97
422.05	22525.32
422.24	19800.93
422.43	19866.47
422.61	21755.28
422.80	23735.37
422.99	23381.95
423.18	22934.91
423.37	22319.35
423.56	22513.61
423.75	22719.58
423.94	23414.72
424.13	21848.90
424.32	22022.10
424.50	22370.84
424.69	21900.39
424.88	22148.49
425.07	22031.46
425.26	22164.87
425.45	21673.36
425.64	21123.33
425.83	21415.90
426.01	22576.81
426.20	23047.26
426.39	22972.36
426.58	21172.49
426.77	19620.71
426.96	19154.94
427.15	19527.09
427.33	21315.26
427.52	22134.45
427.71	22218.71
427.90	21722.51
428.09	21961.25
428.28	21600.80
428.46	20915.03
428.65	20128.61
428.84	20538.20
429.03	21132.70
429.22	20116.90
429.40	19030.90
429.59	17401.88
429.78	15087.09
429.97	15384.34
430.16	15276.68
430.34	15913.30
430.53	15548.18
430.72	15880.53
430.91	17635.94
431.10	20547.56
431.28	24004.53
431.47	26265.49
431.66	26483.16
431.85	24290.08
432.03	22097.00
432.22	21151.42
432.41	21727.19
432.60	24507.75
432.79	25223.95
432.97	25666.31
433.16	25411.20
433.35	23342.16
433.54	20884.60
433.72	19349.21
433.91	20278.40
434.10	22597.87
434.28	24053.69
434.47	25490.77
434.66	25085.86
434.85	24760.53
435.03	24283.06
435.22	24762.87
435.41	26759.34
435.59	25928.45
435.78	26532.31
435.97	27597.26
436.16	27782.16
436.34	27101.06
436.53	26527.63
436.72	26874.03
436.90	25289.49
437.09	25326.94
437.28	24865.85
437.46	25483.75
437.65	25682.70
437.84	23985.81
438.02	22125.08
438.21	21776.34
438.40	22466.80
438.58	24685.63
438.77	25766.96
438.96	26125.06
439.14	26820.20
439.33	27477.89
439.52	27894.50
439.70	27379.59
439.89	26518.27
440.08	25816.11
440.26	25806.75
440.45	26677.43
440.63	28659.86
440.82	29935.45
441.01	29738.85
441.19	29364.36
441.38	29785.66
441.57	30932.52
441.75	31161.89
441.94	31473.18
442.12	31115.08
442.31	31744.69
442.50	31363.18
442.68	31297.64
442.87	30918.48
443.05	30286.53
443.24	30876.35
443.43	31304.67
443.61	32329.82
443.80	32650.47
443.98	30698.47
444.17	30911.46
444.35	32645.79
444.54	33268.37
444.73	32547.49
444.91	31185.30
445.10	29944.81
445.28	28622.41
445.47	28224.52
445.65	28395.38
445.84	29139.67
446.02	30309.94
446.21	30707.83
446.39	30878.69
446.58	31220.41
446.77	31819.58
446.95	32128.53
447.14	33067.09
447.32	33429.87
447.51	32383.65
447.69	31358.50
447.88	31269.56
448.06	31470.84
448.25	32194.07
448.43	32479.61
448.62	31974.06
448.80	31538.72
448.99	31459.14
449.17	31990.44
449.36	32334.50
449.54	33645.20
449.73	33745.84
449.91	33989.26
450.10	35131.44
450.28	35508.27
450.46	35477.84
450.65	35393.58
450.83	34951.22
451.02	34038.41
451.20	34253.74
451.39	34361.40
451.57	33879.25
451.76	33923.72
451.94	33333.91
452.13	33104.54
452.31	31637.02
452.49	30043.12
452.68	30703.15
452.86	30611.87
453.05	30733.57
453.23	32158.96
453.42	32608.34
453.60	33053.05
453.78	33722.44
453.97	33450.94
454.15	33701.37
454.34	32456.21
454.52	32959.42
454.70	31718.94
454.89	32360.25
455.07	32208.11
455.26	33237.95
455.44	34071.18
455.62	35168.89
455.81	35412.31
455.99	34698.44
456.17	34607.16
456.36	34448.00
456.54	35356.13
456.73	35651.04
456.91	36151.91
457.09	36023.19
457.28	36786.20
457.46	35276.55
457.64	35241.45
457.83	34237.36
458.01	33450.94
458.19	34330.98
458.38	34408.22
458.56	35370.18
458.74	35615.93
458.93	34801.43
459.11	35002.71
459.29	34347.36
459.48	34506.52
459.66	34115.65
459.84	34778.02
460.03	35147.82
460.21	35136.12
460.39	36011.48
460.57	35627.63
460.76	36870.46
460.94	36278.30
461.12	35747.00
461.31	36095.74
461.49	35861.69
461.67	36053.61
461.85	36928.97
462.04	37055.36
462.22	37340.91
462.40	36889.18
462.59	36414.05
462.77	37043.66
462.95	36870.46
463.13	36503.00
463.32	36339.16
463.50	35957.65
463.68	36037.23
463.86	36231.49
464.05	35402.94
464.23	34939.52
464.41	34604.82
464.59	33750.52
464.78	36095.74
464.96	35749.34
465.14	35379.54
465.32	36161.28
465.50	36692.58
465.69	37237.92
465.87	37008.55
466.05	35536.35
466.23	33780.95
466.41	32910.27
466.60	34153.10
466.78	34321.62
466.96	34918.45
467.14	35185.27
467.32	35304.64
467.51	35821.90
467.69	34312.25
467.87	34665.67
468.05	35421.67
468.23	35889.77
468.41	35597.21
468.60	35648.70
468.78	35641.68
468.96	35583.16
469.14	36474.91
469.32	36484.27
469.50	34714.83
469.69	35491.88
469.87	35093.99
470.05	34272.46
470.23	34733.55
470.41	34567.37
470.59	35419.33
470.77	35283.58
470.95	36151.91
471.14	36374.27
471.32	36788.54
471.50	38824.81
471.68	38667.99
471.86	38663.31
472.04	39009.71
472.22	38951.20
472.40	37141.96
472.58	36652.79
472.77	35920.20
472.95	37352.61
473.13	37755.18
473.31	36856.42
473.49	37043.66
473.67	37897.95
473.85	38234.99
474.03	39386.54
474.21	39313.98
474.39	39232.06
474.57	40285.30
474.75	40046.57
474.93	39606.55
475.12	38735.87
475.30	38768.63
475.48	38794.38
475.66	39203.97
475.84	39072.90
476.02	38595.43
476.20	38487.77
476.38	39016.73
476.56	39667.40
476.74	40383.60
476.92	40832.99
477.10	41146.62
477.28	42515.83
477.46	42249.01
477.64	42623.50
477.82	42899.68
478.00	43201.61
478.18	42389.44
478.36	42021.98
478.54	41834.74
478.72	42363.70
478.90	43721.21
479.08	44460.82
479.26	45181.70
479.44	44842.32
479.62	44737.00
479.80	44666.78
479.98	44912.54
480.16	45312.77
480.34	44444.43
480.52	45099.78
480.70	45139.57
480.88	45216.81
481.06	46363.67
481.24	46279.41
481.41	47061.15
481.59	47697.78
481.77	47550.32
481.95	47145.41
482.13	46656.24
482.31	47068.17
482.49	47995.03
482.67	47540.96
482.85	47358.40
483.03	48453.77
483.21	48638.67
483.39	48622.29
483.57	47767.99
483.74	47409.89
483.92	47901.40
484.10	48046.52
484.28	48917.20
484.46	48884.43
484.64	49560.84
484.82	48589.52
485.00	48322.70
485.18	47400.53
485.35	46511.13
485.53	43220.33
485.71	39688.46
485.89	39014.39
486.07	41067.04
486.25	44149.53
486.43	46698.37
486.61	47114.98
486.78	46789.65
486.96	47597.13
487.14	49350.20
487.32	49914.26
487.50	50817.71
487.68	51718.82
487.85	52086.28
488.03	52130.75
488.21	51962.23
488.39	51178.15
488.57	50141.30
488.75	50141.30
488.92	50710.05
489.10	53073.99
489.28	54234.89
489.46	54951.10
489.64	54513.42
489.81	54770.88
489.99	54855.14
490.17	54731.09
490.35	54939.39
490.53	54695.98
490.70	54281.70
490.88	54368.30
491.06	55124.30
491.24	55030.68
491.41	54274.68
491.59	52465.45
491.77	51627.54
491.95	52484.17
492.13	53703.59
492.30	55086.85
492.48	55847.52
492.66	56322.65
492.84	56285.20
493.01	56037.11
493.19	55669.64
493.37	55203.88
493.54	54822.37
493.72	55608.79
493.90	56516.92
494.08	57364.19
494.25	57443.77
494.43	57715.27
494.61	57801.87
494.79	58155.29
494.96	57717.61
495.14	57127.80
495.32	56219.67
495.49	55723.47
495.67	56711.18
495.85	58190.40
496.02	58770.85
496.20	58284.02
496.38	57778.46
496.55	57794.85
496.73	58211.46
496.91	58255.93
497.09	58597.65
497.26	59044.69
497.44	58436.16
497.62	58073.37
497.79	57380.57
497.97	56144.77
498.14	56278.18
498.32	57310.36
498.50	58078.05
498.67	58693.61
498.85	58656.17
499.03	58848.09
499.20	58864.47
499.38	58974.48
499.56	58749.79
499.73	58237.21
499.91	57977.41
500.08	57544.41
500.26	56783.74
500.44	57214.40
500.61	58007.84
500.79	57752.72
500.97	57305.68
501.14	57249.50
501.32	57385.25
501.49	57088.01
501.67	57310.36
501.84	57783.15
502.02	58115.50
502.20	58244.23
502.37	58309.77
502.55	58482.97
502.72	58918.31
502.90	59395.77
503.07	59103.21
503.25	58803.62
503.43	57818.25
503.60	57357.17
503.78	56603.52
503.95	56905.44
504.13	58475.94
504.30	59264.70
504.48	59274.07
504.65	58644.46
504.83	58878.52
505.01	59220.23
505.18	59655.57
505.36	60170.49
505.53	60170.49
505.71	60568.38
505.88	60385.82
506.06	59824.09
506.23	59667.28
506.41	59267.05
506.58	59370.03
506.76	59557.27
506.93	59327.90
507.11	59388.75
507.28	59220.23
507.46	58855.11
507.63	58344.87
507.81	58136.57
507.98	58452.54
508.16	59131.29
508.33	59379.39
508.50	59854.52
508.68	60060.49
508.85	60446.68
509.03	60783.71
509.20	60357.74
509.38	59772.60
509.55	59107.89
509.73	58962.78
509.90	59547.91
510.08	59842.82
510.25	59765.58
510.42	59550.25
510.60	59480.03
510.77	59636.85
510.95	60268.79
511.12	60273.48
511.30	60659.66
511.47	60818.82
511.64	60959.25
511.82	60441.99
511.99	59976.23
512.17	59430.88
512.34	59096.19
512.51	59384.07
512.69	59175.76
512.86	59449.61
513.04	60114.32
513.21	60013.68
513.38	59501.10
513.56	58937.03
513.73	58520.41
513.90	58595.31
514.08	58719.36
514.25	59040.01
514.43	59070.44
514.60	59203.85
514.77	59245.98
514.95	59564.29
515.12	59437.90
515.29	59433.22
515.47	60030.06
515.64	60186.88
515.81	59798.35
515.99	59334.92
516.16	58094.44
516.33	55744.54
516.51	54501.71
516.68	53628.69
516.85	53413.37
517.03	53701.25
517.20	56219.67
517.37	58419.77
517.54	59540.89
517.72	59079.80
517.89	56933.53
518.06	54438.52
518.24	54688.96
518.41	56809.48
518.58	58155.29
518.75	58440.84
518.93	58401.05
519.10	58415.09
519.27	58635.10
519.45	59014.27
519.62	59625.15
519.79	60016.02
519.96	59791.33
520.14	59229.60
520.31	58436.16
520.48	58583.61
520.65	58841.07
520.83	59704.73
521.00	60097.94
521.17	59856.86
521.34	59512.80
521.52	59693.02
521.69	60467.74
521.86	60591.79
522.03	60439.65
522.20	59250.66
522.38	58075.71
522.55	58120.18
522.72	58691.27
522.89	59072.78
523.07	59098.53
523.24	59526.84
523.41	60083.89
523.58	60603.49
523.75	60938.19
523.92	60507.53
524.10	60720.52
524.27	60816.48
524.44	60481.78
524.61	60369.44
524.78	60058.15
524.96	60226.66
525.13	60200.92
525.30	60444.33
525.47	60757.97
525.64	60750.94
525.81	59987.93
525.98	58665.53
526.16	57345.47
526.33	56636.28
526.50	56509.89
526.67	56301.59
526.84	56573.09
527.01	57502.28
527.18	58384.66
527.36	58974.48
527.53	60086.23
527.70	60100.28
527.87	59543.23
528.04	59215.55
528.21	59566.63
528.38	60378.80
528.55	60865.63
528.72	60989.68
528.89	61233.10
529.07	60933.51
529.24	60303.90
529.41	59786.64
529.58	59147.68
529.75	59269.39
529.92	59615.79
530.09	60175.17
530.26	60427.95
530.43	60837.54
530.60	60982.66
530.77	60980.32
530.94	61076.28
531.11	60596.47
531.28	60390.50
531.46	60048.78
531.63	60285.18
531.80	60317.95
531.97	59688.34
532.14	59241.30
532.31	58012.52
532.48	57570.16
532.65	57495.26
532.82	58459.56
532.99	59398.12
533.16	59784.30
533.33	60315.61
533.50	60065.17
533.67	59470.67
533.84	59011.93
534.01	59318.54
534.18	59227.26
534.35	59606.42
534.52	59519.82
534.69	59812.39
534.86	59880.27
535.03	60282.84
535.20	60528.59
535.37	61085.64
535.54	61071.60
535.71	60692.43
535.88	60313.26
536.05	60013.68
536.22	59388.75
536.38	59159.38
536.55	58831.71
536.72	58211.46
536.89	58131.89
537.06	59004.91
537.23	59721.11
537.40	59903.67
537.57	59812.39
537.74	59667.28
537.91	59669.62
538.08	59484.72
538.25	59889.63
538.42	59756.22
538.59	59835.80
538.75	59133.63
538.92	58904.26
539.09	58562.54
539.26	58534.46
539.43	58169.33
539.60	58571.91
539.77	58555.52
539.94	58688.93
540.11	57638.03
540.28	57483.56
540.44	57312.70
540.61	57764.42
540.78	57579.52
540.95	58267.64
541.12	58702.98
541.29	58894.90
541.46	59206.19
541.62	59098.53
541.79	59021.29
541.96	58588.29
542.13	58260.62
542.30	58482.97
542.47	58796.60
542.63	58543.82
542.80	58487.65
542.97	58452.54
543.14	58342.53
543.31	58349.56
543.48	58892.56
543.64	59742.17
543.81	60100.28
543.98	59622.81
544.15	59068.10
544.32	58443.18
544.48	58632.76
544.65	59145.34
544.82	59311.52
544.99	58972.14
545.16	58457.22
545.32	58468.92
545.49	59082.14
545.66	59653.23
545.83	59337.26
546.00	58894.90
546.16	58731.06
546.33	58798.94
546.50	58735.74
546.67	59161.72
546.83	58702.98
547.00	58604.67
547.17	57986.77
547.34	57790.17
547.50	57392.28
547.67	57939.96
547.84	58162.31
548.00	58489.99
548.17	58656.17
548.34	58658.51
548.51	58637.44
548.67	58784.90
548.84	58637.44
549.01	58487.65
549.18	58485.31
549.34	58478.28
549.51	58644.46
549.68	58178.70
549.84	58169.33
550.01	58131.89
550.18	58010.18
550.34	58047.63
550.51	58166.99
550.68	58181.04
550.84	57490.58
551.01	57848.68
551.18	57818.25
551.34	57663.78
551.51	58227.85
551.68	58492.33
551.84	58485.31
552.01	58337.85
552.18	58101.46
552.34	57535.05
552.51	57176.95
552.68	57235.46
552.84	57523.35
553.01	57741.02
553.18	57886.13
553.34	57687.18
553.51	57757.40
553.67	58021.88
553.84	58337.85
554.01	58211.46
554.17	58138.91
554.34	57876.77
554.51	58248.91
554.67	58501.69
554.84	58295.72
555.00	57893.15
555.17	57766.76
555.33	57804.21
555.50	57731.65
555.67	57710.59
555.83	57272.91
556.00	57427.38
556.16	57275.25
556.33	56697.14
556.50	56580.11
556.66	56598.83
556.83	56509.89
556.99	56725.22
557.16	56706.50
557.32	57209.71
557.49	57240.14
557.65	57193.33
557.82	57111.41
557.98	56900.76
558.15	56521.60
558.32	55683.69
558.48	55082.17
558.65	55105.57
558.81	55615.81
558.98	55650.92
559.14	56196.26
559.31	56177.54
559.47	56030.08
559.64	55805.39
559.80	55388.78
559.97	55583.04
560.13	55756.24
560.30	56900.76
560.46	57190.99
560.63	57450.79
560.79	57485.90
560.96	57123.11
561.12	55807.73
561.29	55161.75
561.45	55100.89
561.61	55707.09
561.78	56184.56
561.94	56034.77
562.11	55660.28
562.27	55702.41
562.44	55973.91
562.60	56362.44
562.77	56322.65
562.93	56247.75
563.10	56411.59
563.26	55655.60
563.42	55810.07
563.59	55796.03
563.75	55508.14
563.92	55704.75
564.08	55718.79
564.24	55718.79
564.41	55992.64
564.57	55934.12
564.74	55643.90
564.90	55791.35
565.07	55442.61
565.23	55018.97
565.39	54396.39
565.56	54487.67
565.72	54185.74
565.88	54319.15
566.05	54410.43
566.21	54803.64
566.38	54831.73
566.54	54693.64
566.70	55238.98
566.87	55629.85
567.03	55613.47
567.19	55810.07
567.36	55517.51
567.52	55323.24
567.68	54983.86
567.85	54443.20
568.01	54244.26
568.17	54040.63
568.34	53841.68
568.50	53822.96
568.66	53661.46
568.83	54307.45
568.99	54150.63
569.15	54370.64
569.32	54499.37
569.48	54270.00
569.64	54005.52
569.81	53663.80
569.97	53645.08
570.13	53659.12
570.30	53111.44
570.46	52933.56
570.62	52053.51
570.78	51824.14
570.95	52229.05
571.11	53050.58
571.27	53125.48
571.43	53301.02
571.60	53797.21
571.76	53703.59
571.92	54302.77
572.09	54295.75
572.25	54183.40
572.41	54213.83
572.57	54085.10
572.74	53799.55
572.90	53471.88
573.06	53511.67
573.22	53727.00
573.38	53808.92
573.55	53394.64
573.71	53825.30
573.87	53712.95
574.03	53628.69
574.20	53404.00
574.36	53057.60
574.52	53029.52
574.68	52896.11
574.84	52573.11
575.01	51990.32
575.17	51969.26
575.33	52425.66
575.49	52303.95
575.65	52257.14
575.82	52250.12
575.98	52163.52
576.14	52650.35
576.30	52509.92
576.46	52776.74
576.62	52662.05
576.79	52715.89
576.95	52360.12
577.11	52023.09
577.27	52413.96
577.43	52893.77
577.59	51920.10
577.75	51667.33
577.92	50712.39
578.08	50459.61
578.24	50707.71
578.40	50920.70
578.56	51543.28
578.72	51196.88
578.88	51618.17
579.04	51580.73
579.21	51978.62
579.37	52196.29
579.53	51793.71
579.69	51716.48
579.85	52041.81
580.01	52009.04
580.17	51201.56
580.33	51107.94
580.49	51414.55
580.65	51770.31
580.82	51957.55
580.98	51938.83
581.14	51770.31
581.30	51770.31
581.46	51536.26
581.62	51880.31
581.78	51615.83
581.94	52435.02
582.10	51796.06
582.26	52107.35
582.42	51772.65
582.58	52088.62
582.74	52006.70
582.90	51868.61
583.06	52041.81
583.22	51723.50
583.38	51704.77
583.54	51468.38
583.70	51524.55
583.86	51594.77
584.02	51407.53
584.18	51531.57
584.34	51327.95
584.50	51430.93
584.66	51222.62
584.82	50848.14
584.98	50754.52
585.14	50258.32
