SpectraSuite Data File
++++++++++++++++++++++++++++++++++++
Date: Mon Oct 07 14:53:19 GMT-05:00 2013
User: price-jones
Dark Spectrum Present: No
Reference Spectrum Present: No
Number of Sampled Component Spectra: 1
Spectrometers: USB2+H05261
Integration Time (usec): 100000 (USB2+H05261)
Spectra Averaged: 1 (USB2+H05261)
Boxcar Smoothing: 0 (USB2+H05261)
Correct for Electrical Dark: No (USB2+H05261)
Strobe/Lamp Enabled: No (USB2+H05261)
Correct for Detector Non-linearity: No (USB2+H05261)
Correct for Stray Light: No (USB2+H05261)
Number of Pixels in Processed Spectrum: 2048
>>>>>Begin Processed Spectral Data<<<<<
365.73	0.00
365.92	0.00
366.12	0.00
366.32	0.00
366.52	0.00
366.72	0.00
366.91	0.00
367.11	0.00
367.31	0.00
367.51	0.00
367.70	0.00
367.90	0.00
368.10	0.00
368.30	0.00
368.49	0.00
368.69	0.00
368.89	0.00
369.09	0.00
369.28	0.00
369.48	0.00
369.68	0.00
369.87	0.00
370.07	0.00
370.27	0.00
370.47	915.15
370.66	4182.54
370.86	5165.56
371.06	5551.75
371.25	5359.83
371.45	5036.83
371.65	4449.36
371.84	4208.28
372.04	4325.31
372.24	4781.71
372.44	5114.07
372.63	4861.29
372.83	4475.10
373.03	4182.54
373.22	3772.94
373.42	4154.45
373.62	4641.28
373.81	5048.54
374.01	4704.48
374.21	4496.17
374.40	4140.41
374.60	4259.78
374.79	4875.34
374.99	5736.65
375.19	6019.86
375.38	5937.94
375.58	5617.29
375.78	5523.66
375.97	5706.23
376.17	5832.62
376.37	5888.79
376.56	5865.38
376.76	6310.08
376.95	6700.95
377.15	7513.12
377.35	7569.29
377.54	7676.96
377.74	8156.77
377.93	7836.11
378.13	7852.50
378.33	7190.13
378.52	6733.72
378.72	6469.24
378.91	6548.82
379.11	6370.94
379.31	6150.93
379.50	6078.37
379.70	6668.19
379.89	7243.96
380.09	7454.61
380.28	8030.38
380.48	7772.92
380.68	7597.38
380.87	7548.23
381.07	7026.29
381.26	6366.26
381.46	6115.82
381.65	5696.86
381.85	5837.30
382.04	5427.70
382.24	5022.79
382.43	4819.16
382.63	4704.48
382.83	4650.64
383.02	4777.03
383.22	4585.11
383.41	4589.79
383.61	5132.79
383.80	5781.12
384.00	6462.22
384.19	7403.11
384.39	7838.45
384.58	7660.57
384.78	7522.48
384.97	7396.09
385.17	7096.50
385.36	6689.25
385.56	6452.86
385.75	6642.44
385.95	7279.07
386.14	7742.49
386.34	7913.35
386.53	7424.18
386.72	7089.48
386.92	7129.27
387.11	7555.25
387.31	7899.31
387.50	7597.38
387.70	7480.35
387.89	7391.41
388.09	7382.05
388.28	7541.21
388.48	7784.62
388.67	8182.51
388.86	9102.34
389.06	9579.81
389.25	10108.77
389.45	10274.95
389.64	10169.63
389.84	9982.38
390.03	9926.21
390.22	9804.50
390.42	10520.71
390.61	11035.63
390.81	11562.25
391.00	11786.94
391.19	11758.85
391.39	11110.52
391.58	10537.09
391.78	10153.24
391.97	9867.70
392.16	8917.44
392.36	8184.85
392.55	6572.22
392.75	5432.38
392.94	4189.56
393.13	4379.14
393.33	5142.16
393.52	6621.38
393.71	7974.21
393.91	9095.32
394.10	9820.89
394.29	10441.13
394.49	11473.31
394.68	12329.94
394.88	12304.20
395.07	12746.56
395.26	12727.83
395.46	12060.78
395.65	11431.18
395.84	9989.41
396.04	8538.27
396.23	6930.33
396.42	5753.04
396.62	5551.75
396.81	6619.04
397.00	8580.40
397.19	10600.29
397.39	12571.02
397.58	13991.72
397.77	14555.79
397.97	15349.23
398.16	15754.15
398.35	16130.97
398.55	16751.21
398.74	17462.74
398.93	17593.81
399.12	17165.49
399.32	16425.88
399.51	17160.81
399.70	18434.06
399.90	17809.14
400.09	18221.07
400.28	17654.66
400.47	17811.48
400.67	19042.60
400.86	19339.85
401.05	19073.03
401.24	19426.45
401.44	19740.08
401.63	19637.09
401.82	19936.68
402.01	20098.18
402.21	19782.21
402.40	20306.49
402.59	19173.67
402.78	18766.42
402.97	18078.30
403.17	18984.09
403.36	20098.18
403.55	20760.55
403.74	21146.74
403.93	20114.56
404.13	18525.34
404.32	18031.49
404.51	19007.49
404.70	20510.11
404.89	20706.72
405.09	19922.64
405.28	19578.58
405.47	19623.05
405.66	19779.87
405.85	19229.84
406.05	18553.43
406.24	19241.54
406.43	19737.74
406.62	20453.94
406.81	20517.14
407.00	19566.88
407.20	19442.83
407.39	19356.23
407.58	20463.30
407.77	21109.29
407.96	21731.87
408.15	21961.25
408.34	22129.77
408.54	23180.67
408.73	23215.77
408.92	22775.75
409.11	22408.29
409.30	21095.25
409.49	19894.55
409.68	18429.38
409.87	18080.64
410.07	19349.21
410.26	20697.36
410.45	21937.84
410.64	22267.86
410.83	23108.11
411.02	23491.96
411.21	24730.10
411.40	24203.48
411.59	24283.06
411.78	24056.03
411.98	24219.86
412.17	24407.11
412.36	23756.44
412.55	24376.68
412.74	23498.98
412.93	22934.91
413.12	23248.54
413.31	25495.46
413.50	25530.56
413.69	25954.20
413.88	24973.52
414.07	24280.72
414.26	24959.47
414.45	25392.47
414.64	25888.67
414.83	25759.94
415.02	25156.08
415.22	24865.85
415.41	25982.29
415.60	26455.08
415.79	27410.01
415.98	28088.77
416.17	28224.52
416.36	27445.12
416.55	27154.90
416.74	26022.08
416.93	25102.25
417.12	25708.44
417.31	25876.96
417.50	26239.75
417.69	26871.69
417.88	26855.31
418.07	26768.71
418.26	26375.50
418.45	26686.79
418.64	27676.83
418.83	28240.90
419.02	27950.68
419.21	27688.54
419.39	26464.44
419.58	25539.93
419.77	25706.10
419.96	26492.52
420.15	28500.70
420.34	28854.12
420.53	29848.85
420.72	30586.12
420.91	30092.27
421.10	29766.93
421.29	29895.66
421.48	28318.14
421.67	29752.89
421.86	29249.67
422.05	27117.45
422.24	23927.30
422.43	24219.86
422.61	26644.66
422.80	28582.62
422.99	28563.90
423.18	27735.35
423.37	27328.10
423.56	27000.42
423.75	28217.50
423.94	28573.26
424.13	26696.15
424.32	27351.50
424.50	27323.41
424.69	26735.94
424.88	26906.80
425.07	26871.69
425.26	26897.44
425.45	26499.55
425.64	25914.41
425.83	26335.71
426.01	27520.02
426.20	28226.86
426.39	28542.83
426.58	25965.90
426.77	23953.04
426.96	23049.60
427.15	24166.03
427.33	26164.85
427.52	27145.53
427.71	27414.69
427.90	27140.85
428.09	26572.10
428.28	26309.96
428.46	25401.83
428.65	25130.33
428.84	25633.55
429.03	25919.09
429.22	24194.12
429.40	23075.34
429.59	21207.59
429.78	18658.75
429.97	18871.74
430.16	19002.81
430.34	19171.33
430.53	19145.58
430.72	19646.46
430.91	21619.53
431.10	25612.48
431.28	30263.13
431.47	32130.87
431.66	32769.84
431.85	29439.26
432.03	27311.71
432.22	25907.39
432.41	27328.10
432.60	29919.07
432.79	31353.82
432.97	32156.62
433.16	31138.49
433.35	28631.77
433.54	25703.76
433.72	24336.89
433.91	25008.62
434.10	28329.84
434.28	30134.40
434.47	31356.16
434.66	31131.47
434.85	29771.61
435.03	29811.40
435.22	30396.54
435.41	32598.98
435.59	32435.14
435.78	32882.19
435.97	33780.95
436.16	34071.18
436.34	33567.96
436.53	32854.10
436.72	32903.25
436.90	31274.24
437.09	31058.91
437.28	30785.07
437.46	31882.78
437.65	31791.50
437.84	29378.40
438.02	26962.97
438.21	27047.23
438.40	28645.82
438.58	30682.08
438.77	31274.24
438.96	31725.96
439.14	33324.55
439.33	33977.56
439.52	34375.45
439.70	33844.15
439.89	32985.17
440.08	31997.46
440.26	31810.22
440.45	32844.74
440.63	35325.71
440.82	37303.46
441.01	36751.09
441.19	36292.35
441.38	36793.22
441.57	37855.82
441.75	38588.41
441.94	39056.52
442.12	38284.14
442.31	39365.47
442.50	39264.83
442.68	38806.08
442.87	38113.28
443.05	37191.11
443.24	38242.01
443.43	38934.81
443.61	39742.30
443.80	39899.11
443.98	37729.44
444.17	38094.56
444.35	40238.49
444.54	40751.07
444.73	40425.73
444.91	38988.64
445.10	37258.99
445.28	35814.88
445.47	35409.96
445.65	35770.41
445.84	36327.45
446.02	37453.25
446.21	38174.14
446.39	38167.12
446.58	38766.29
446.77	39297.59
446.95	39845.28
447.14	40648.08
447.32	41518.76
447.51	40725.32
447.69	39086.95
447.88	38127.33
448.06	38899.70
448.25	40320.41
448.43	40369.56
448.62	39552.71
448.80	39084.61
448.99	39739.96
449.17	40226.79
449.36	40002.10
449.54	41263.64
449.73	42043.04
449.91	42532.22
450.10	43861.64
450.28	44332.09
450.46	43786.74
450.65	43721.21
450.83	43480.13
451.02	42059.43
451.20	42555.62
451.39	42092.19
451.57	42031.34
451.76	42000.91
451.94	42054.75
452.13	41581.96
452.31	39086.95
452.49	37214.52
452.68	38129.67
452.86	38326.27
453.05	38895.02
453.23	39681.44
453.42	40968.74
453.60	41776.22
453.78	42272.42
453.97	41619.41
454.15	41645.15
454.34	40807.24
454.52	41008.53
454.70	40219.77
454.89	40786.18
455.07	40825.96
455.26	41581.96
455.44	42777.97
455.62	43716.53
455.81	43880.36
455.99	43318.64
456.17	42787.33
456.36	43154.80
456.54	44240.81
456.73	43913.13
456.91	44793.17
457.09	44886.79
457.28	45839.39
457.46	44252.51
457.64	43470.77
457.83	42932.45
458.01	41455.57
458.19	42880.95
458.38	43276.51
458.56	44493.58
458.74	43995.05
458.93	43405.23
459.11	43449.70
459.29	43124.37
459.48	43276.51
459.66	43143.09
459.84	43496.52
460.03	44423.37
460.21	44275.91
460.39	44856.37
460.57	44882.11
460.76	45895.56
460.94	45663.85
461.12	44821.26
461.31	45387.67
461.49	44935.95
461.67	44856.37
461.85	46136.64
462.04	45986.85
462.22	46398.78
462.40	46028.98
462.59	46141.32
462.77	45769.18
462.95	46314.52
463.13	45413.41
463.32	45315.11
463.50	44945.31
463.68	45230.85
463.86	45031.91
464.05	44456.14
464.23	43920.15
464.41	44065.27
464.59	42518.17
464.78	45146.59
464.96	44622.31
465.14	44062.93
465.32	45240.21
465.50	46155.36
465.69	46983.91
465.87	45214.47
466.05	44390.60
466.23	42967.55
466.41	41553.87
466.60	43145.44
466.78	43487.15
466.96	43931.86
467.14	44877.43
467.32	45113.83
467.51	45202.77
467.69	43201.61
467.87	43889.73
468.05	44938.29
468.23	44837.64
468.41	44858.71
468.60	45055.31
468.78	45153.62
468.96	44460.82
469.14	45556.19
469.32	45694.28
469.50	43758.66
469.69	44191.65
469.87	43929.51
470.05	43571.41
470.23	43536.30
470.41	43402.89
470.59	44308.68
470.77	44325.07
470.95	45109.14
471.14	46005.57
471.32	45586.61
471.50	48179.93
471.68	47959.92
471.86	48294.61
472.04	48540.37
472.22	48582.50
472.40	46579.00
472.58	46534.53
472.77	45570.23
472.95	46511.13
473.13	47833.53
473.31	46642.20
473.49	47012.00
473.67	47550.32
473.85	47969.28
474.03	48800.17
474.21	48956.99
474.39	49081.03
474.57	49446.16
474.75	49584.25
474.93	49343.17
475.12	48278.23
475.30	48341.42
475.48	48292.27
475.66	48694.85
475.84	48402.28
476.02	48430.36
476.20	47381.80
476.38	48772.08
476.56	49338.49
476.74	50227.90
476.92	50468.97
477.10	50953.46
477.28	51611.15
477.46	51632.22
477.64	52041.81
477.82	52296.93
478.00	52348.42
478.18	51798.40
478.36	51545.62
478.54	51931.81
478.72	52109.69
478.90	52732.27
479.08	53439.11
479.26	53806.58
479.44	53813.60
479.62	53787.85
479.80	53588.91
479.98	53626.35
480.16	53862.75
480.34	53485.92
480.52	53939.99
480.70	54368.30
480.88	54356.60
481.06	54904.29
481.24	54948.76
481.41	55529.21
481.59	56095.62
481.77	55611.13
481.95	55257.71
482.13	55309.20
482.31	55332.60
482.49	55618.15
482.67	55456.65
482.85	55884.97
483.03	56268.82
483.21	56671.39
483.39	56289.88
483.57	56069.87
483.74	55716.45
483.92	56170.52
484.10	56207.97
484.28	56851.61
484.46	57055.24
484.64	57291.63
484.82	56617.56
485.00	56477.13
485.18	55845.18
485.35	55044.72
485.53	52720.57
485.71	49378.28
485.89	48903.15
486.07	50953.46
486.25	53291.66
486.43	55269.41
486.61	55634.53
486.78	55611.13
486.96	55791.35
487.14	56940.55
487.32	57579.52
487.50	58309.77
487.68	58829.37
487.85	59330.24
488.03	59185.13
488.21	59035.33
488.39	58155.29
488.57	57930.60
488.75	57684.84
488.92	58707.66
489.10	60095.60
489.28	61158.20
489.46	61495.24
489.64	61652.05
489.81	61588.86
489.99	61422.68
490.17	61385.23
490.35	61523.32
490.53	61155.86
490.70	61099.68
490.88	60956.91
491.06	61652.05
491.24	61556.09
491.41	60734.56
491.59	59594.72
491.77	59114.91
491.95	59992.61
492.13	60790.73
492.30	61694.18
492.48	62389.32
492.66	62644.44
492.84	62864.45
493.01	62555.50
493.19	62276.97
493.37	61862.70
493.54	61635.67
493.72	62276.97
493.90	63243.62
494.08	63889.60
494.25	63791.30
494.43	64074.51
494.61	64418.56
494.79	64477.08
494.96	64331.96
495.14	63568.95
495.32	63072.76
495.49	62415.07
495.67	63522.14
495.85	64542.61
496.02	64807.09
496.20	64704.11
496.38	64250.05
496.55	64128.34
496.73	64420.90
496.91	64720.49
497.09	65148.81
497.26	65186.26
497.44	64907.74
497.62	64324.94
497.79	63662.57
497.97	62763.81
498.14	62808.28
498.32	63826.41
498.50	64406.86
498.67	64931.14
498.85	64940.50
499.03	65176.90
499.20	65204.98
499.38	65340.74
499.56	65113.70
499.73	64460.69
499.91	64537.93
500.08	64097.91
500.26	63252.98
500.44	63924.71
500.61	64521.55
500.79	64355.37
500.97	63992.59
501.14	63817.05
501.32	63557.25
501.49	63718.74
501.67	63877.90
501.84	64348.35
502.02	64458.35
502.20	64907.74
502.37	64830.50
502.55	64860.93
502.72	65455.42
502.90	65535.00
503.07	65535.00
503.25	65247.11
503.43	64324.94
503.60	63917.69
503.78	63449.58
503.95	63966.84
504.13	64977.95
504.30	65535.00
504.48	65535.00
504.65	65202.64
504.83	65242.43
505.01	65535.00
505.18	65535.00
505.36	65535.00
505.53	65535.00
505.71	65535.00
505.88	65535.00
506.06	65535.00
506.23	65535.00
506.41	65535.00
506.58	65535.00
506.76	65535.00
506.93	65535.00
507.11	65535.00
507.28	65535.00
507.46	65513.94
507.63	64856.24
507.81	64807.09
507.98	65181.58
508.16	65535.00
508.33	65535.00
508.50	65535.00
508.68	65535.00
508.85	65535.00
509.03	65535.00
509.20	65535.00
509.38	65535.00
509.55	65535.00
509.73	65535.00
509.90	65535.00
510.08	65535.00
510.25	65535.00
510.42	65535.00
510.60	65535.00
510.77	65535.00
510.95	65535.00
511.12	65535.00
511.30	65535.00
511.47	65535.00
511.64	65535.00
511.82	65535.00
511.99	65535.00
512.17	65535.00
512.34	65535.00
512.51	65535.00
512.69	65535.00
512.86	65535.00
513.04	65535.00
513.21	65535.00
513.38	65535.00
513.56	65535.00
513.73	65186.26
513.90	65408.61
514.08	65366.48
514.25	65535.00
514.43	65535.00
514.60	65535.00
514.77	65535.00
514.95	65535.00
515.12	65535.00
515.29	65535.00
515.47	65535.00
515.64	65535.00
515.81	65535.00
515.99	65535.00
516.16	65022.42
516.33	63035.31
516.51	61797.16
516.68	61113.73
516.85	60856.27
517.03	61406.30
517.20	63402.77
517.37	65535.00
517.54	65535.00
517.72	65535.00
517.89	63798.32
518.06	61951.64
518.24	62199.74
518.41	63875.56
518.58	64935.82
518.75	65226.05
518.93	65434.36
519.10	65307.97
519.27	65535.00
519.45	65535.00
519.62	65535.00
519.79	65535.00
519.96	65535.00
520.14	65535.00
520.31	65535.00
520.48	65434.36
520.65	65535.00
520.83	65535.00
521.00	65535.00
521.17	65535.00
521.34	65535.00
521.52	65535.00
521.69	65535.00
521.86	65535.00
522.03	65535.00
522.20	65535.00
522.38	65448.40
522.55	65197.96
522.72	65535.00
522.89	65535.00
523.07	65535.00
523.24	65535.00
523.41	65535.00
523.58	65535.00
523.75	65535.00
523.92	65535.00
524.10	65535.00
524.27	65535.00
524.44	65535.00
524.61	65535.00
524.78	65535.00
524.96	65535.00
525.13	65535.00
525.30	65535.00
525.47	65535.00
525.64	65535.00
525.81	65535.00
525.98	65535.00
526.16	64746.24
526.33	63948.12
526.50	63634.48
526.67	63362.98
526.84	63833.43
527.01	64554.32
527.18	65296.27
527.36	65535.00
527.53	65535.00
527.70	65535.00
527.87	65535.00
528.04	65535.00
528.21	65535.00
528.38	65535.00
528.55	65535.00
528.72	65535.00
528.89	65535.00
529.07	65535.00
529.24	65535.00
529.41	65535.00
529.58	65535.00
529.75	65535.00
529.92	65535.00
530.09	65535.00
530.26	65535.00
530.43	65535.00
530.60	65535.00
530.77	65535.00
530.94	65535.00
531.11	65535.00
531.28	65535.00
531.46	65535.00
531.63	65535.00
531.80	65535.00
531.97	65535.00
532.14	65535.00
532.31	65535.00
532.48	64718.15
532.65	64725.17
532.82	65506.91
532.99	65535.00
533.16	65535.00
533.33	65535.00
533.50	65535.00
533.67	65535.00
533.84	65535.00
534.01	65535.00
534.18	65535.00
534.35	65535.00
534.52	65535.00
534.69	65535.00
534.86	65535.00
535.03	65535.00
535.20	65535.00
535.37	65535.00
535.54	65535.00
535.71	65535.00
535.88	65535.00
536.05	65535.00
536.22	65535.00
536.38	65535.00
536.55	65535.00
536.72	65535.00
536.89	65478.83
537.06	65535.00
537.23	65535.00
537.40	65535.00
537.57	65535.00
537.74	65535.00
537.91	65535.00
538.08	65535.00
538.25	65535.00
538.42	65535.00
538.59	65535.00
538.75	65535.00
538.92	65535.00
539.09	65535.00
539.26	65535.00
539.43	65535.00
539.60	65535.00
539.77	65535.00
539.94	65535.00
540.11	64926.46
540.28	64617.51
540.44	64741.56
540.61	64844.54
540.78	65228.39
540.95	65434.36
541.12	65535.00
541.29	65535.00
541.46	65535.00
541.62	65535.00
541.79	65535.00
541.96	65535.00
542.13	65535.00
542.30	65535.00
542.47	65535.00
542.63	65535.00
542.80	65535.00
542.97	65535.00
543.14	65535.00
543.31	65535.00
543.48	65535.00
543.64	65535.00
543.81	65535.00
543.98	65535.00
544.15	65535.00
544.32	65535.00
544.48	65535.00
544.65	65535.00
544.82	65535.00
544.99	65535.00
545.16	65535.00
545.32	65535.00
545.49	65535.00
545.66	65535.00
545.83	65535.00
546.00	65535.00
546.16	65535.00
546.33	65535.00
546.50	65535.00
546.67	65535.00
546.83	65535.00
547.00	65535.00
547.17	65469.46
547.34	64992.00
547.50	64980.29
547.67	65460.10
547.84	65432.02
548.00	65535.00
548.17	65535.00
548.34	65535.00
548.51	65535.00
548.67	65535.00
548.84	65535.00
549.01	65535.00
549.18	65535.00
549.34	65535.00
549.51	65535.00
549.68	65535.00
549.84	65535.00
550.01	65535.00
550.18	65535.00
550.34	65535.00
550.51	65535.00
550.68	65535.00
550.84	65212.01
551.01	65324.35
551.18	65331.37
551.34	65535.00
551.51	65535.00
551.68	65535.00
551.84	65535.00
552.01	65535.00
552.18	65535.00
552.34	65130.09
552.51	64823.48
552.68	64762.62
552.84	65235.41
553.01	65415.63
553.18	65317.33
553.34	65434.36
553.51	65535.00
553.67	65535.00
553.84	65535.00
554.01	65535.00
554.17	65535.00
554.34	65535.00
554.51	65535.00
554.67	65535.00
554.84	65535.00
555.00	65460.10
555.17	65324.35
555.33	65345.42
555.50	65380.52
555.67	65359.46
555.83	65240.09
556.00	65008.38
556.16	65050.51
556.33	64666.66
556.50	64453.67
556.66	64755.60
556.83	64423.25
556.99	64441.97
557.16	64678.36
557.32	64708.79
557.49	64933.48
557.65	64910.08
557.82	64931.14
557.98	64741.56
558.15	64505.16
558.32	63767.90
558.48	63032.97
558.65	63168.72
558.81	63461.29
558.98	63784.28
559.14	63920.03
559.31	64123.66
559.47	64170.47
559.64	63746.83
559.80	63449.58
559.97	63828.75
560.13	63966.84
560.30	64470.06
560.46	65087.96
560.63	65406.27
560.79	65165.20
560.96	65010.72
561.12	64053.44
561.29	63311.49
561.45	63318.51
561.61	63730.45
561.78	64214.94
561.94	64147.06
562.11	63948.12
562.27	63826.41
562.44	64142.38
562.60	64296.86
562.77	64540.27
562.93	64338.99
563.10	64395.16
563.26	63941.10
563.42	63964.50
563.59	63753.85
563.75	63950.46
563.92	63758.53
564.08	63784.28
564.24	64034.72
564.41	64039.40
564.57	63882.58
564.74	63905.99
564.90	63744.49
565.07	63529.16
565.23	63262.34
565.39	62756.78
565.56	62805.94
565.72	62578.90
565.88	62789.55
566.05	62955.73
566.21	63281.06
566.38	63220.21
566.54	63313.83
566.70	63580.65
566.87	63873.22
567.03	63821.73
567.19	64053.44
567.36	63920.03
567.52	63468.31
567.68	63414.47
567.85	62855.09
568.01	62541.45
568.17	62384.64
568.34	62431.45
568.50	62328.47
568.66	62365.91
568.83	62574.22
568.99	62709.97
569.15	62787.21
569.32	62780.19
569.48	62728.70
569.64	62698.27
569.81	62152.93
569.97	62309.74
570.13	62223.14
570.30	61722.27
570.46	61460.13
570.62	61066.92
570.78	61050.53
570.95	61289.27
571.11	61907.17
571.27	61722.27
571.43	62136.54
571.60	62574.22
571.76	62543.80
571.92	62754.44
572.09	63068.08
572.25	62974.45
572.41	62775.51
572.57	62588.27
572.74	62695.93
572.90	62471.24
573.06	62513.37
573.22	62295.70
573.38	62396.34
573.55	62375.28
573.71	62621.03
573.87	62429.11
574.03	62134.20
574.20	62312.08
574.36	62033.56
574.52	61958.66
574.68	61787.80
574.84	61406.30
575.01	60858.61
575.17	61064.58
575.33	61427.36
575.49	61462.47
575.65	61595.88
575.82	61513.96
575.98	61151.18
576.14	61354.80
576.30	61677.80
576.46	61696.52
576.62	61696.52
576.79	61776.10
576.95	61350.12
577.11	61401.61
577.27	61176.92
577.43	61499.92
577.59	61251.82
577.75	60701.79
577.92	60200.92
578.08	60336.67
578.24	60090.91
578.40	60523.91
578.56	60624.56
578.72	60718.18
578.88	60879.67
579.04	60821.16
579.21	61155.86
579.37	61373.53
579.53	61057.56
579.69	61230.75
579.85	61265.86
580.01	61233.10
580.17	60680.73
580.33	60605.83
580.49	60769.67
580.65	60914.78
580.82	61216.71
580.98	60961.59
581.14	60992.02
581.30	61106.71
581.46	61001.38
581.62	61139.47
581.78	61099.68
581.94	61258.84
582.10	61439.06
582.26	61305.65
582.42	61268.20
582.58	61331.40
582.74	61214.37
582.90	61378.21
583.06	61188.63
583.22	61190.97
583.38	60985.00
583.54	60989.68
583.70	61008.40
583.86	60947.55
584.02	61087.98
584.18	61052.87
584.34	60846.91
584.50	60734.56
584.66	60786.05
584.82	60329.65
584.98	60310.92
