SpectraSuite Data File
++++++++++++++++++++++++++++++++++++
Date: Mon Oct 07 14:53:25 GMT-05:00 2013
User: price-jones
Dark Spectrum Present: No
Reference Spectrum Present: No
Number of Sampled Component Spectra: 1
Spectrometers: USB2+H05261
Integration Time (usec): 100000 (USB2+H05261)
Spectra Averaged: 1 (USB2+H05261)
Boxcar Smoothing: 0 (USB2+H05261)
Correct for Electrical Dark: No (USB2+H05261)
Strobe/Lamp Enabled: No (USB2+H05261)
Correct for Detector Non-linearity: No (USB2+H05261)
Correct for Stray Light: No (USB2+H05261)
Number of Pixels in Processed Spectrum: 2048
>>>>>Begin Processed Spectral Data<<<<<
365.73	0.00
365.92	0.00
366.12	0.00
366.32	0.00
366.52	0.00
366.72	0.00
366.91	0.00
367.11	0.00
367.31	0.00
367.51	0.00
367.70	0.00
367.90	0.00
368.10	0.00
368.30	0.00
368.49	0.00
368.69	0.00
368.89	0.00
369.09	0.00
369.28	0.00
369.48	0.00
369.68	0.00
369.87	0.00
370.07	0.00
370.27	0.00
370.47	655.35
370.66	3110.57
370.86	3524.85
371.06	3971.89
371.25	4081.89
371.45	3595.06
371.65	3204.19
371.84	2909.29
372.04	2981.84
372.24	3536.55
372.44	3653.58
372.63	3646.55
372.83	3454.63
373.03	3007.59
373.22	2768.85
373.42	2876.52
373.62	3454.63
373.81	3733.15
374.01	3763.58
374.21	3213.56
374.40	2956.10
374.60	3169.09
374.79	3590.38
374.99	4058.49
375.19	4388.50
375.38	4606.17
375.58	4210.62
375.78	4065.51
375.97	4287.86
376.17	4491.49
376.37	4498.51
376.56	4638.94
376.76	4706.82
376.95	5116.41
377.15	5394.93
377.35	5563.45
377.54	5893.47
377.74	5919.21
377.93	6005.81
378.13	5797.51
378.33	5451.11
378.52	5095.35
378.72	4947.89
378.91	4896.40
379.11	4631.92
379.31	4627.24
379.50	4470.42
379.70	4835.55
379.89	5495.58
380.09	5640.69
380.28	5881.77
380.48	5881.77
380.68	5694.52
380.87	5528.35
381.07	5348.12
381.26	4753.63
381.46	4535.96
381.65	4329.99
381.85	4219.99
382.04	4084.23
382.24	3852.52
382.43	3712.09
382.63	3510.80
382.83	3534.21
383.02	3534.21
383.22	3676.98
383.41	3508.46
383.61	3660.60
383.80	4341.69
384.00	5006.41
384.19	5448.77
384.39	5736.65
384.58	5902.83
384.78	5666.44
384.97	5727.29
385.17	5490.90
385.36	5118.75
385.56	4840.23
385.75	5142.16
385.95	5511.96
386.14	5989.43
386.34	6179.01
386.53	5738.99
386.72	5411.32
386.92	5537.71
387.11	5671.12
387.31	6038.58
387.50	5905.17
387.70	5750.70
387.89	5628.99
388.09	5530.69
388.28	5781.12
388.48	5699.20
388.67	6181.35
388.86	6946.71
389.06	7159.70
389.25	7705.04
389.45	7962.50
389.64	7688.66
389.84	7508.44
390.03	7407.80
390.22	7616.10
390.42	7939.10
390.61	8318.26
390.81	8805.10
391.00	9043.83
391.19	8891.70
391.39	8795.73
391.58	8210.60
391.78	7735.47
391.97	7391.41
392.16	6923.30
392.36	6331.15
392.55	5123.43
392.75	4018.70
392.94	3307.18
393.13	3290.79
393.33	3887.63
393.52	5116.41
393.71	6160.29
393.91	6808.62
394.10	7314.17
394.29	8163.79
394.49	8830.84
394.68	9280.22
394.88	9270.86
395.07	9624.28
395.26	9743.65
395.46	9394.91
395.65	8844.88
395.84	7829.09
396.04	6593.29
396.23	5458.13
396.42	4428.29
396.62	4313.61
396.81	4849.59
397.00	6319.45
397.19	7899.31
397.39	9673.43
397.58	10717.31
397.77	11295.43
397.97	11962.48
398.16	11789.28
398.35	12535.91
398.55	12760.60
398.74	13294.24
398.93	13748.31
399.12	13212.32
399.32	13006.36
399.51	13153.81
399.70	13951.93
399.90	13809.16
400.09	13898.10
400.28	13657.03
400.47	13790.44
400.67	14408.34
400.86	14864.74
401.05	14841.34
401.24	14979.43
401.44	15105.82
401.63	15080.07
401.82	15051.99
402.01	15501.37
402.21	15461.58
402.40	15424.13
402.59	15049.64
402.78	14406.00
402.97	14038.53
403.17	14588.56
403.36	15335.19
403.55	16002.24
403.74	16168.42
403.93	15602.01
404.13	14286.63
404.32	13661.71
404.51	14450.47
404.70	15726.06
404.89	15761.17
405.09	15466.26
405.28	15084.75
405.47	15126.88
405.66	15274.34
405.85	14745.38
406.05	14445.79
406.24	14396.64
406.43	15201.78
406.62	15557.54
406.81	15850.11
407.00	15255.61
407.20	14876.44
407.39	14834.32
407.58	15829.04
407.77	16077.14
407.96	16730.15
408.15	16959.52
408.34	17081.23
408.54	17661.68
408.73	17827.86
408.92	17420.61
409.11	17165.49
409.30	16184.80
409.49	15232.21
409.68	14530.05
409.87	13884.06
410.07	14726.65
410.26	15969.48
410.45	16922.07
410.64	17556.36
410.83	17727.22
411.02	18099.36
411.21	19000.47
411.40	18745.35
411.59	18932.59
411.78	18717.26
411.98	18436.40
412.17	18831.95
412.36	18045.53
412.55	18560.45
412.74	18132.13
412.93	17671.04
413.12	17954.25
413.31	19658.16
413.50	19953.07
413.69	20170.74
413.88	19267.29
414.07	18881.10
414.26	19178.35
414.45	19667.52
414.64	19831.36
414.83	19761.14
415.02	19548.15
415.22	19250.91
415.41	19669.86
415.60	20379.04
415.79	21373.77
415.98	21881.67
416.17	22057.21
416.36	21263.77
416.55	20989.92
416.74	20280.74
416.93	19557.52
417.12	19557.52
417.31	19990.52
417.50	20112.22
417.69	20833.11
417.88	21263.77
418.07	20592.03
418.26	20346.28
418.45	20446.92
418.64	21027.37
418.83	21984.65
419.02	21748.26
419.21	21671.02
419.39	20531.18
419.58	19719.01
419.77	19775.19
419.96	20545.22
420.15	21804.43
420.34	22417.65
420.53	22911.50
420.72	23335.14
420.91	23473.23
421.10	22789.80
421.29	22909.16
421.48	21862.94
421.67	23152.58
421.86	22752.35
422.05	21170.15
422.24	18747.69
422.43	18628.32
422.61	20783.96
422.80	22225.73
422.99	22185.94
423.18	21261.43
423.37	20898.64
423.56	21174.83
423.75	21174.83
423.94	21738.90
424.13	20589.69
424.32	20936.09
424.50	20929.07
424.69	20580.33
424.88	20905.66
425.07	20723.10
425.26	20861.19
425.45	20430.54
425.64	20212.87
425.83	19934.34
426.01	21165.46
426.20	21664.00
426.39	21678.04
426.58	20114.56
426.77	18354.48
426.96	17879.35
427.15	18572.15
427.33	20126.27
427.52	20870.56
427.71	20861.19
427.90	20601.40
428.09	20673.95
428.28	20009.24
428.46	19583.26
428.65	19152.60
428.84	19676.88
429.03	20109.88
429.22	18888.12
429.40	17900.42
429.59	16365.03
429.78	14085.34
429.97	14333.44
430.16	14431.74
430.34	14665.80
430.53	14394.29
430.72	14710.27
430.91	16833.13
431.10	19522.41
431.28	22855.33
431.47	25006.28
431.66	25081.18
431.85	22553.40
432.03	21216.96
432.22	20116.90
432.41	20929.07
432.60	23475.57
432.79	24201.14
432.97	24580.31
433.16	23873.46
433.35	22267.86
433.54	19655.82
433.72	18541.72
433.91	19250.91
434.10	21238.02
434.28	22951.29
434.47	24336.89
434.66	23744.73
434.85	22923.21
435.03	22979.38
435.22	23672.18
435.41	25081.18
435.59	25390.13
435.78	25673.34
435.97	26141.44
436.16	26162.51
436.34	25956.54
436.53	25179.48
436.72	25149.06
436.90	23988.15
437.09	24046.66
437.28	23515.36
437.46	24322.85
437.65	24524.13
437.84	22546.38
438.02	20720.76
438.21	20643.52
438.40	21799.75
438.58	23941.34
438.77	24341.57
438.96	24538.18
439.14	25776.32
439.33	26309.96
439.52	26602.53
439.70	26171.87
439.89	25483.75
440.08	24875.21
440.26	24580.31
440.45	25467.37
440.63	27407.67
440.82	28669.22
441.01	28458.57
441.19	27857.06
441.38	28559.22
441.57	29221.59
441.75	29996.31
441.94	29949.50
442.12	29743.53
442.31	30099.29
442.50	30192.91
442.68	30326.32
442.87	29593.73
443.05	28992.22
443.24	29488.41
443.43	29902.68
443.61	30576.76
443.80	31360.84
443.98	29497.77
444.17	29364.36
444.35	30731.23
444.54	31955.33
444.73	30764.00
444.91	29841.83
445.10	28500.70
445.28	27283.62
445.47	26801.47
445.65	27365.54
445.84	27962.38
446.02	29097.54
446.21	29635.86
446.39	29876.94
446.58	30127.38
446.77	30267.81
446.95	30752.30
447.14	31161.89
447.32	31557.44
447.51	31194.66
447.69	30008.01
447.88	29586.71
448.06	29940.13
448.25	30939.54
448.43	31157.21
448.62	30588.46
448.80	30382.49
448.99	30396.54
449.17	30974.65
449.36	31061.25
449.54	32116.83
449.73	32458.55
449.91	32734.73
450.10	33586.69
450.28	34132.03
450.46	34071.18
450.65	34094.58
450.83	33867.55
451.02	32500.68
451.20	32699.62
451.39	33024.96
451.57	32374.29
451.76	32423.44
451.94	32196.41
452.13	31585.53
452.31	30590.80
452.49	28907.96
452.68	29195.84
452.86	29563.31
453.05	29890.98
453.23	30707.83
453.42	31239.13
453.60	31929.59
453.78	32444.51
453.97	32102.79
454.15	32180.03
454.34	31166.57
454.52	31218.07
454.70	30993.37
454.89	31330.41
455.07	31447.44
455.26	31950.65
455.44	33146.67
455.62	33703.71
455.81	34169.48
455.99	33483.70
456.17	33289.44
456.36	33369.02
456.54	34258.42
456.73	34284.17
456.91	34780.36
457.09	34831.85
457.28	35716.58
457.46	34277.15
457.64	34139.05
457.83	32835.38
458.01	31847.67
458.19	33060.07
458.38	33308.16
458.56	34614.18
458.74	33888.62
458.93	33769.25
459.11	33399.44
459.29	33174.75
459.48	32964.10
459.66	32999.21
459.84	33443.91
460.03	34469.07
460.21	33982.24
460.39	34796.74
460.57	34766.32
460.76	34998.03
460.94	35124.42
461.12	34953.56
461.31	34689.08
461.49	34888.03
461.67	34522.90
461.85	36112.13
462.04	35901.48
462.22	36643.43
462.40	35779.77
462.59	35826.58
462.77	36044.25
462.95	35660.40
463.13	35534.01
463.32	35040.16
463.50	34632.91
463.68	34845.90
463.86	34548.65
464.05	34410.56
464.23	33830.10
464.41	33656.90
464.59	33003.89
464.78	34522.90
464.96	34558.01
465.14	34419.92
465.32	34899.73
465.50	35796.15
465.69	36444.48
465.87	35419.33
466.05	34504.18
466.23	33050.70
466.41	32467.91
466.60	33619.46
466.78	33184.12
466.96	33893.30
467.14	34515.88
467.32	34972.28
467.51	35204.00
467.69	33275.40
467.87	34227.99
468.05	34546.31
468.23	34700.78
468.41	34567.37
468.60	34609.50
468.78	34981.65
468.96	34565.03
469.14	35721.26
469.32	35353.79
469.50	34026.71
469.69	34223.31
469.87	33787.97
470.05	33584.35
470.23	33495.41
470.41	33596.05
470.59	34424.60
470.77	34347.36
470.95	35152.51
471.14	35599.55
471.32	35358.47
471.50	37331.54
471.68	37453.25
471.86	37722.41
472.04	37844.12
472.22	37921.36
472.40	36149.57
472.58	36023.19
472.77	35622.95
472.95	36088.72
473.13	37471.98
473.31	36268.94
473.49	36428.10
473.67	37116.22
473.85	37483.68
474.03	38352.02
474.21	38424.57
474.39	38703.10
474.57	39332.70
474.75	39077.58
474.93	38740.55
475.12	38136.69
475.30	37703.69
475.48	38122.65
475.66	38281.80
475.84	37816.04
476.02	37640.50
476.20	36966.42
476.38	38003.28
476.56	38796.72
476.74	39580.80
476.92	39721.23
477.10	39985.71
477.28	41427.48
477.46	41181.73
477.64	41895.59
477.82	42131.98
478.00	42213.90
478.18	41116.19
478.36	41031.93
478.54	41411.10
478.72	41422.80
478.90	42129.64
479.08	43449.70
479.26	44020.80
479.44	43863.98
479.62	43440.34
479.80	43625.25
479.98	44083.99
480.16	44098.03
480.34	43950.58
480.52	44055.90
480.70	44376.56
480.88	44362.51
481.06	45172.34
481.24	45549.17
481.41	46384.74
481.59	46948.81
481.77	46866.89
481.95	46501.76
482.13	46050.04
482.31	45865.14
482.49	46913.70
482.67	46696.03
482.85	47023.70
483.03	47477.77
483.21	47789.06
483.39	47849.91
483.57	46850.50
483.74	46600.07
483.92	46941.78
484.10	47384.15
484.28	48308.66
484.46	48645.69
484.64	48999.12
484.82	48261.85
485.00	47501.17
485.18	46988.60
485.35	45485.97
485.53	42693.71
485.71	38553.30
485.89	38572.03
486.07	40430.41
486.25	43494.18
486.43	45727.05
486.61	46588.36
486.78	46417.50
486.96	46653.90
487.14	48442.07
487.32	49085.72
487.50	50270.03
487.68	50974.53
487.85	51803.08
488.03	51381.78
488.21	51021.34
488.39	50354.29
488.57	49488.29
488.75	49361.90
488.92	50288.75
489.10	52697.16
489.28	53602.95
489.46	54468.95
489.64	54291.07
489.81	54099.14
489.99	54017.22
490.17	54281.70
490.35	54497.03
490.53	54270.00
490.70	53808.92
490.88	53705.93
491.06	54588.31
491.24	54564.91
491.41	53429.75
491.59	51899.04
491.77	51147.73
491.95	51943.51
492.13	53481.24
492.30	54532.14
492.48	55447.29
492.66	55779.65
492.84	55578.36
493.01	55622.83
493.19	55070.46
493.37	54855.14
493.54	54600.02
493.72	55107.91
493.90	56189.24
494.08	56940.55
494.25	57226.10
494.43	57076.30
494.61	57485.90
494.79	57841.66
494.96	57345.47
495.14	56980.34
495.32	56109.66
495.49	55341.97
495.67	56317.97
495.85	57780.81
496.02	57923.58
496.20	57860.38
496.38	57427.38
496.55	57553.77
496.73	57694.21
496.91	57935.28
497.09	58609.35
497.26	58583.61
497.44	58169.33
497.62	57635.69
497.79	56875.02
497.97	55978.59
498.14	55978.59
498.32	57064.60
498.50	57907.19
498.67	58344.87
498.85	58152.95
499.03	58410.41
499.20	58717.02
499.38	58480.63
499.56	58499.35
499.73	57991.45
499.91	57595.90
500.08	57109.07
500.26	56495.85
500.44	56807.14
500.61	57518.67
500.79	57467.17
500.97	56919.49
501.14	56837.57
501.32	56879.70
501.49	56999.07
501.67	57055.24
501.84	57460.15
502.02	57752.72
502.20	58255.93
502.37	58162.31
502.55	58218.49
502.72	58660.85
502.90	59395.77
503.07	58747.45
503.25	58482.97
503.43	57766.76
503.60	57153.54
503.78	56706.50
503.95	56919.49
504.13	58307.43
504.30	59028.31
504.48	58864.47
504.65	58454.88
504.83	58677.23
505.01	59290.45
505.18	59416.84
505.36	59978.57
505.53	60149.43
505.71	60191.56
505.88	60385.82
506.06	59657.91
506.23	59332.58
506.41	58965.12
506.58	59133.63
506.76	59327.90
506.93	59128.95
507.11	59068.10
507.28	59175.76
507.46	58843.41
507.63	58117.84
507.81	58092.10
507.98	58033.58
508.16	58883.20
508.33	59379.39
508.50	59608.76
508.68	60018.36
508.85	60427.95
509.03	60367.10
509.20	60203.26
509.38	59227.26
509.55	58812.98
509.73	58911.28
509.90	59421.52
510.08	59671.96
510.25	59627.49
510.42	59657.91
510.60	59498.76
510.77	59604.08
510.95	60203.26
511.12	60409.23
511.30	60544.98
511.47	60753.29
511.64	60699.45
511.82	60664.35
511.99	59566.63
512.17	59140.66
512.34	59030.65
512.51	59107.89
512.69	59152.36
512.86	59283.43
513.04	59800.69
513.21	59697.70
513.38	59143.00
513.56	58904.26
513.73	58354.24
513.90	58621.06
514.08	58721.70
514.25	58951.07
514.43	59168.74
514.60	59419.18
514.77	59341.94
514.95	59468.33
515.12	59313.86
515.29	59447.27
515.47	60086.23
515.64	60254.75
515.81	59945.80
515.99	59306.83
516.16	58054.65
516.33	55842.84
516.51	54340.22
516.68	53670.82
516.85	53401.66
517.03	53757.42
517.20	56243.07
517.37	58417.43
517.54	59545.57
517.72	59072.78
517.89	56762.67
518.06	54628.10
518.24	54663.21
518.41	57015.45
518.58	58152.95
518.75	58358.92
518.93	58450.20
519.10	58466.58
519.27	58838.73
519.45	58899.58
519.62	59568.97
519.79	59987.93
519.96	59664.94
520.14	59428.54
520.31	58482.97
520.48	58520.41
520.65	58981.50
520.83	59819.41
521.00	60229.01
521.17	59636.85
521.34	59391.09
521.52	59774.94
521.69	60165.81
521.86	60683.07
522.03	60334.33
522.20	59234.28
522.38	58387.00
522.55	58342.53
522.72	58899.58
522.89	58990.86
523.07	59075.12
523.24	59489.40
523.41	60268.79
523.58	60622.22
523.75	60912.44
523.92	60720.52
524.10	60741.58
524.27	60523.91
524.44	60573.06
524.61	60692.43
524.78	60336.67
524.96	60165.81
525.13	60395.18
525.30	60453.70
525.47	60846.91
525.64	60800.10
525.81	59894.31
525.98	58674.89
526.16	57443.77
526.33	56633.94
526.50	56427.98
526.67	55980.93
526.84	56704.16
527.01	57923.58
527.18	58347.21
527.36	59304.49
527.53	60076.87
527.70	60104.96
527.87	59845.16
528.04	59313.86
528.21	59980.91
528.38	60451.36
528.55	60832.86
528.72	61183.94
528.89	61495.24
529.07	61137.13
529.24	60341.35
529.41	59948.14
529.58	59264.70
529.75	59346.62
529.92	59915.37
530.09	60418.59
530.26	60767.33
530.43	61073.94
530.60	61031.81
530.77	61237.78
530.94	61382.89
531.11	60886.70
531.28	60612.85
531.46	60399.86
531.63	60463.06
531.80	60331.99
531.97	59896.65
532.14	59391.09
532.31	58382.32
532.48	57792.51
532.65	57851.02
532.82	58454.88
532.99	59559.61
533.16	59908.35
533.33	60505.19
533.50	60425.61
533.67	59700.04
533.84	59255.34
534.01	59332.58
534.18	59671.96
534.35	60090.91
534.52	59683.66
534.69	59920.05
534.86	60257.09
535.03	60610.51
535.20	61043.51
535.37	61291.61
535.54	61324.38
535.71	60921.80
535.88	60589.45
536.05	59943.46
536.22	59744.51
536.38	59339.60
536.55	58927.67
536.72	58262.96
536.89	58431.47
537.06	59107.89
537.23	59966.87
537.40	60088.57
537.57	60275.82
537.74	59931.76
537.91	59880.27
538.08	59915.37
538.25	59950.48
538.42	60116.66
538.59	59873.24
538.75	59285.77
538.92	59063.42
539.09	58754.47
539.26	58738.08
539.43	58646.80
539.60	58801.28
539.77	58925.33
539.94	58721.70
540.11	57918.90
540.28	57539.73
540.44	57717.61
540.61	57836.98
540.78	58110.82
540.95	58637.44
541.12	58995.54
541.29	59236.62
541.46	59447.27
541.62	59360.67
541.79	59182.79
541.96	58773.19
542.13	58628.08
542.30	58824.68
542.47	59220.23
542.63	58981.50
542.80	58763.83
542.97	58759.15
543.14	58752.13
543.31	58731.06
543.48	59281.09
543.64	60133.04
543.81	60294.54
543.98	60126.02
544.15	59437.90
544.32	58894.90
544.48	58850.43
544.65	59281.09
544.82	59849.84
544.99	59468.33
545.16	59028.31
545.32	58920.65
545.49	59812.39
545.66	59920.05
545.83	59458.97
546.00	59327.90
546.16	59002.56
546.33	58710.00
546.50	58871.49
546.67	59327.90
546.83	59040.01
547.00	59164.06
547.17	58482.97
547.34	57979.75
547.50	57930.60
547.67	58230.19
547.84	58319.13
548.00	58695.95
548.17	59220.23
548.34	59040.01
548.51	58798.94
548.67	59096.19
548.84	59269.39
549.01	58932.35
549.18	58894.90
549.34	58913.62
549.51	58794.26
549.68	58710.00
549.84	58529.78
550.01	58635.10
550.18	58326.15
550.34	58525.10
550.51	58597.65
550.68	58464.24
550.84	58237.21
551.01	58391.68
551.18	58234.87
551.34	58316.79
551.51	58932.35
551.68	59011.93
551.84	59002.56
552.01	58852.77
552.18	58780.21
552.34	57970.39
552.51	57565.48
552.68	57439.09
552.84	58169.33
553.01	58429.13
553.18	58227.85
553.34	58410.41
553.51	58576.59
553.67	58660.85
553.84	58894.90
554.01	58712.34
554.17	58592.97
554.34	58595.31
554.51	58635.10
554.67	58880.86
554.84	58770.85
555.00	58438.50
555.17	58124.86
555.33	58124.86
555.50	58497.01
555.67	58138.91
555.83	57958.69
556.00	57818.25
556.16	57827.62
556.33	57469.51
556.50	57429.72
556.66	57347.81
556.83	57097.37
556.99	57284.61
557.16	57216.74
557.32	57631.01
557.49	57806.55
557.65	57764.42
557.82	57595.90
557.98	57638.03
558.15	57167.58
558.32	56172.86
558.48	55625.17
558.65	55550.27
558.81	56058.17
558.98	56591.81
559.14	56947.57
559.31	56711.18
559.47	56886.72
559.64	56367.12
559.80	55922.42
559.97	56074.55
560.13	56610.54
560.30	57464.83
560.46	57979.75
560.63	58054.65
560.79	58078.05
560.96	57499.94
561.12	56647.99
561.29	55744.54
561.45	55765.60
561.61	56193.92
561.78	56858.63
561.94	56638.62
562.11	56704.16
562.27	56554.36
562.44	56811.82
562.60	57137.16
562.77	57315.04
562.93	57008.43
563.10	56980.34
563.26	56383.51
563.42	56498.19
563.59	56261.80
563.75	56493.51
563.92	56687.78
564.08	56278.18
564.24	56706.50
564.41	56652.67
564.57	56598.83
564.74	56238.39
564.90	56322.65
565.07	56032.42
565.23	55779.65
565.39	55124.30
565.56	55009.61
565.72	54794.28
565.88	55405.16
566.05	55348.99
566.21	55721.13
566.38	55634.53
566.54	55742.20
566.70	56041.79
566.87	56399.89
567.03	56467.76
567.19	56559.05
567.36	56205.62
567.52	56126.05
567.68	56149.45
567.85	55023.65
568.01	54738.11
568.17	54578.95
568.34	54810.67
568.50	54354.26
568.66	54571.93
568.83	55049.40
568.99	55145.36
569.15	55117.28
569.32	55150.04
569.48	55173.45
569.64	54974.50
569.81	54513.42
569.97	54450.22
570.13	54429.16
570.30	53804.24
570.46	53371.24
570.62	52722.91
570.78	52790.78
570.95	53188.67
571.11	53736.36
571.27	54157.66
571.43	54415.11
571.60	54405.75
571.76	54695.98
571.92	55014.29
572.09	55178.13
572.25	55063.44
572.41	55103.23
572.57	54995.57
572.74	54841.09
572.90	54426.82
573.06	54372.99
573.22	54630.44
573.38	54482.99
573.55	54511.08
573.71	54679.60
573.87	54738.11
574.03	54183.40
574.20	54267.66
574.36	53977.43
574.52	54040.63
574.68	54019.56
574.84	53198.04
575.01	52779.08
575.17	52858.66
575.33	53413.37
575.49	53502.31
575.65	53656.78
575.82	53263.57
575.98	52786.10
576.14	53579.54
576.30	53635.72
576.46	53762.11
576.62	53712.95
576.79	53741.04
576.95	53160.59
577.11	53109.10
577.27	53546.78
577.43	53511.67
577.59	52919.51
577.75	52886.74
577.92	51789.03
578.08	51365.40
578.24	51861.59
578.40	52046.49
578.56	52453.75
578.72	52577.79
578.88	52552.05
579.04	52727.59
579.21	52917.17
579.37	52905.47
579.53	52935.90
579.69	53242.51
579.85	53102.07
580.01	53286.98
580.17	52463.11
580.33	52566.09
580.49	52369.49
580.65	52474.81
580.82	52949.94
580.98	52945.26
581.14	52949.94
581.30	53010.79
581.46	52500.56
581.62	53275.27
581.78	53034.20
581.94	53104.41
582.10	53343.15
582.26	52931.22
582.42	52884.40
582.58	53071.65
582.74	52985.05
582.90	53050.58
583.06	53015.47
583.22	52865.68
583.38	52790.78
583.54	52692.48
583.70	52694.82
583.86	52545.03
584.02	52561.41
584.18	52743.97
584.34	52615.24
584.50	52664.39
584.66	52383.53
584.82	52023.09
584.98	51812.44
585.14	51297.52
585.30	50578.98
