SpectraSuite Data File
++++++++++++++++++++++++++++++++++++
Date: Mon Oct 07 14:53:12 GMT-05:00 2013
User: price-jones
Dark Spectrum Present: No
Reference Spectrum Present: No
Number of Sampled Component Spectra: 1
Spectrometers: USB2+H05261
Integration Time (usec): 100000 (USB2+H05261)
Spectra Averaged: 1 (USB2+H05261)
Boxcar Smoothing: 0 (USB2+H05261)
Correct for Electrical Dark: No (USB2+H05261)
Strobe/Lamp Enabled: No (USB2+H05261)
Correct for Detector Non-linearity: No (USB2+H05261)
Correct for Stray Light: No (USB2+H05261)
Number of Pixels in Processed Spectrum: 2048
>>>>>Begin Processed Spectral Data<<<<<
365.73	0.00
365.92	0.00
366.12	0.00
366.32	0.00
366.52	0.00
366.72	0.00
366.91	0.00
367.11	0.00
367.31	0.00
367.51	0.00
367.70	0.00
367.90	0.00
368.10	0.00
368.30	0.00
368.49	0.00
368.69	0.00
368.89	0.00
369.09	0.00
369.28	0.00
369.48	0.00
369.68	0.00
369.87	0.00
370.07	0.00
370.27	0.00
370.47	1263.89
370.66	5783.46
370.86	6525.41
371.06	7000.54
371.25	7014.59
371.45	6246.89
371.65	5760.06
371.84	5596.22
372.04	5926.24
372.24	6319.45
372.44	6832.02
372.63	6331.15
372.83	5954.32
373.03	5444.09
373.22	4964.28
373.42	5516.64
373.62	6162.63
373.81	6384.98
374.01	6380.30
374.21	5846.66
374.40	5305.99
374.60	5851.34
374.79	6469.24
374.99	7721.43
375.19	7850.16
375.38	7634.83
375.58	7295.45
375.78	7215.87
375.97	7480.35
376.17	7667.60
376.37	7873.56
376.56	8067.83
376.76	8554.66
376.95	8957.23
377.15	9448.74
377.35	10015.15
377.54	10242.18
377.74	10597.95
377.93	10579.22
378.13	10251.55
378.33	9570.45
378.52	8727.86
378.72	8650.62
378.91	8564.02
379.11	8196.56
379.31	8021.02
379.50	8182.51
379.70	8634.24
379.89	9406.61
380.09	9841.95
380.28	10466.88
380.48	10314.74
380.68	10207.08
380.87	9813.87
381.07	8844.88
381.26	8386.14
381.46	7864.20
381.65	7552.91
381.85	7325.88
382.04	7122.25
382.24	6602.65
382.43	6363.92
382.63	6139.23
382.83	6218.80
383.02	6235.19
383.22	6317.11
383.41	6331.15
383.61	6635.42
383.80	7693.34
384.00	8837.86
384.19	9872.38
384.39	10085.37
384.58	9834.93
384.78	9837.27
384.97	9619.60
385.17	9226.39
385.36	8889.35
385.56	8521.89
385.75	8788.71
385.95	9776.42
386.14	10108.77
386.34	10377.94
386.53	9736.63
386.72	9310.65
386.92	9380.87
387.11	9881.74
387.31	10132.18
387.50	10232.82
387.70	9633.64
387.89	9720.24
388.09	9764.72
388.28	10008.13
388.48	10258.57
388.67	11110.52
388.86	11925.03
389.06	12657.62
389.25	13425.31
389.45	13453.40
389.64	13317.65
389.84	13036.78
390.03	12917.42
390.22	13123.38
390.42	13785.76
390.61	14427.06
390.81	15297.74
391.00	15461.58
391.19	15012.20
391.39	14686.86
391.58	14012.79
391.78	12971.25
391.97	12802.73
392.16	11850.13
392.36	10342.83
392.55	8475.08
392.75	6740.74
392.94	5664.10
393.13	5720.27
393.33	7016.93
393.52	8814.46
393.71	10593.26
393.91	11936.73
394.10	12699.75
394.29	14099.39
394.49	15461.58
394.68	16257.36
394.88	16350.98
395.07	16643.55
395.26	16421.20
395.46	16145.02
395.65	14607.28
395.84	13214.66
396.04	10974.77
396.23	8884.67
396.42	7606.74
396.62	7583.34
396.81	9034.47
397.00	11543.52
397.19	13935.55
397.39	16774.62
397.58	18452.78
397.77	19606.67
397.97	20121.59
398.16	20386.07
398.35	21191.21
398.55	21668.68
398.74	22539.36
398.93	22927.89
399.12	22630.64
399.32	21984.65
399.51	22595.53
399.70	24088.79
399.90	23379.61
400.09	23454.51
400.28	23250.88
400.47	23955.38
400.67	24999.26
400.86	25355.02
401.05	25493.12
401.24	24938.41
401.44	25230.98
401.63	25666.31
401.82	25907.39
402.01	25785.68
402.21	26192.94
402.40	26384.86
402.59	25923.77
402.78	24650.52
402.97	23917.93
403.17	24814.36
403.36	26391.88
403.55	26904.46
403.74	27491.93
403.93	25844.20
404.13	23983.47
404.32	23910.91
404.51	25357.36
404.70	26913.82
404.89	26850.63
405.09	26298.26
405.28	25647.59
405.47	25680.36
405.66	25186.50
405.85	24720.74
406.05	24538.18
406.24	24900.96
406.43	26111.02
406.62	26300.60
406.81	26548.70
407.00	26211.66
407.20	24987.56
407.39	25146.72
407.58	26394.22
407.77	27255.54
407.96	28463.25
408.15	28797.95
408.34	28634.11
408.54	30120.35
408.73	30092.27
408.92	29649.91
409.11	28746.46
409.30	27112.77
409.49	25647.59
409.68	23819.63
409.87	23875.80
410.07	25317.57
410.26	27419.38
410.45	28493.68
410.64	29736.51
410.83	30387.18
411.02	30955.93
411.21	32301.73
411.40	31440.42
411.59	31864.05
411.78	31498.93
411.98	31323.39
412.17	31452.12
412.36	30752.30
412.55	31136.15
412.74	30761.66
412.93	29930.77
413.12	30682.08
413.31	33483.70
413.50	33666.27
413.69	33771.59
413.88	31931.93
414.07	31669.79
414.26	32629.41
414.45	33151.35
414.64	33399.44
414.83	33493.07
415.02	32610.68
415.22	32648.13
415.41	33628.82
415.60	34864.62
415.79	36020.84
415.98	36563.85
416.17	36652.79
416.36	35744.66
416.55	35110.38
416.74	33720.10
416.93	32287.69
417.12	32858.78
417.31	33556.26
417.50	33947.13
417.69	34829.51
417.88	34902.07
418.07	35082.29
418.26	33984.58
418.45	34873.98
418.64	35543.38
418.83	37109.19
419.02	36470.23
419.21	35948.29
419.39	34321.62
419.58	32716.01
419.77	33202.84
419.96	34705.46
420.15	36861.10
420.34	37450.91
420.53	38649.27
420.72	39145.46
420.91	38937.15
421.10	38618.84
421.29	38206.90
421.48	36840.03
421.67	38653.95
421.86	37565.60
422.05	34822.49
422.24	31552.76
422.43	31892.14
422.61	35157.19
422.80	37003.87
422.99	37474.32
423.18	36128.51
423.37	35625.29
423.56	35709.55
423.75	36060.63
423.94	37024.93
424.13	34850.58
424.32	35119.74
424.50	35281.24
424.69	35159.53
424.88	35337.41
425.07	34993.35
425.26	34806.11
425.45	34183.52
425.64	34127.35
425.83	34232.68
426.01	36299.37
426.20	36765.14
426.39	36180.00
426.58	33205.18
426.77	30988.69
426.96	30448.03
427.15	31910.86
427.33	34258.42
427.52	35641.68
427.71	35412.31
427.90	34621.20
428.09	34618.86
428.28	33488.38
428.46	32723.03
428.65	32224.50
428.84	33106.88
429.03	33640.52
429.22	31487.23
429.40	29860.55
429.59	27204.05
429.78	24418.81
429.97	24465.62
430.16	24978.20
430.34	24975.86
430.53	25076.50
430.72	26015.05
430.91	28950.09
431.10	33802.02
431.28	39145.46
431.47	41610.04
431.66	41521.10
431.85	37378.36
432.03	34939.52
432.22	34335.66
432.41	35718.92
432.60	39257.81
432.79	40411.69
432.97	41214.49
433.16	40306.37
433.35	36566.19
433.54	33216.88
433.72	31929.59
433.91	32980.49
434.10	36914.93
434.28	39213.34
434.47	40509.99
434.66	39782.09
434.85	39035.45
435.03	39056.52
435.22	39585.48
435.41	41928.36
435.59	41811.33
435.78	42422.21
435.97	43367.79
436.16	43386.51
436.34	42579.03
436.53	42164.75
436.72	42396.46
436.90	39859.32
437.09	40299.34
437.28	39878.05
437.46	41064.70
437.65	40847.03
437.84	37778.59
438.02	35606.57
438.21	35166.55
438.40	37029.62
438.58	40179.98
438.77	40783.83
438.96	41588.98
439.14	43049.47
439.33	43430.98
439.52	43936.54
439.70	43248.42
439.89	41776.22
440.08	40959.38
440.26	41074.06
440.45	43196.93
440.63	45443.84
440.82	47021.36
441.01	46110.89
441.19	46337.93
441.38	47007.32
441.57	48109.71
441.75	48636.33
441.94	48846.98
442.12	48320.36
442.31	48940.60
442.50	48645.69
442.68	48502.92
442.87	48584.84
443.05	47798.42
443.24	48645.69
443.43	49518.71
443.61	49565.52
443.80	50279.39
443.98	48179.93
444.17	47875.66
444.35	50323.86
444.54	50089.80
444.73	50101.51
444.91	48233.76
445.10	46911.36
445.28	46066.42
445.47	45387.67
445.65	45415.76
445.84	46164.73
446.02	47973.96
446.21	48264.19
446.39	48011.41
446.58	49008.48
446.77	49373.60
446.95	49813.62
447.14	50841.12
447.32	50974.53
447.51	50267.69
447.69	48617.61
447.88	48947.62
448.06	49504.67
448.25	49947.03
448.43	50253.64
448.62	49420.41
448.80	49284.66
448.99	49701.28
449.17	49806.60
449.36	50071.08
449.54	50932.40
449.73	51845.21
449.91	51959.89
450.10	52736.95
450.28	53247.19
450.46	52931.22
450.65	52872.70
450.83	52648.01
451.02	52121.39
451.20	52140.11
451.39	52149.48
451.57	52112.03
451.76	51896.70
451.94	51337.31
452.13	50859.84
452.31	49446.16
452.49	47716.50
452.68	48383.55
452.86	48292.27
453.05	48435.05
453.23	49825.32
453.42	50649.19
453.60	51316.25
453.78	51606.47
453.97	51208.58
454.15	51091.55
454.34	50340.24
454.52	51007.29
454.70	49804.26
454.89	50417.48
455.07	50691.32
455.26	51306.88
455.44	52559.07
455.62	53013.13
455.81	53155.91
455.99	52809.51
456.17	52687.80
456.36	52514.60
456.54	53773.81
456.73	53619.33
456.91	53846.36
457.09	54482.99
457.28	54658.53
457.46	52877.38
457.64	52743.97
457.83	52287.57
458.01	51129.00
458.19	52463.11
458.38	52741.63
458.56	53394.64
458.74	53176.97
458.93	53027.18
459.11	52701.84
459.29	52357.78
459.48	52547.37
459.66	52472.47
459.84	52783.76
460.03	52861.00
460.21	53155.91
460.39	54014.88
460.57	54241.92
460.76	54003.18
460.94	54553.21
461.12	54087.44
461.31	53972.75
461.49	54021.90
461.67	54419.80
461.85	55178.13
462.04	54897.27
462.22	55014.29
462.40	54747.47
462.59	54714.70
462.77	54890.24
462.95	55112.59
463.13	54712.36
463.32	53968.07
463.50	53963.39
463.68	54071.06
463.86	54106.16
464.05	53432.09
464.23	53015.47
464.41	52926.53
464.59	52317.99
464.78	54150.63
464.96	53521.03
465.14	53577.20
465.32	54316.81
465.50	54890.24
465.69	54927.69
465.87	54738.11
466.05	53542.10
466.23	52151.82
466.41	51583.07
466.60	52844.62
466.78	52835.25
466.96	53457.84
467.14	53890.83
467.32	54162.34
467.51	54045.31
467.69	52278.21
467.87	53235.48
468.05	53607.63
468.23	54094.46
468.41	53888.49
468.60	54064.03
468.78	54124.89
468.96	53799.55
469.14	54405.75
469.32	54410.43
469.50	52971.00
469.69	53291.66
469.87	52608.22
470.05	52947.60
470.23	52865.68
470.41	53088.03
470.59	53731.68
470.77	53949.35
470.95	54356.60
471.14	54817.69
471.32	54372.99
471.50	56186.90
471.68	56357.76
471.86	56409.25
472.04	56222.01
472.22	56409.25
472.40	54852.80
472.58	55124.30
472.77	54473.63
472.95	55248.35
473.13	55840.50
473.31	55374.73
473.49	55536.23
473.67	55882.63
473.85	56238.39
474.03	56760.33
474.21	57003.75
474.39	56959.28
474.57	57303.34
474.75	57345.47
474.93	56783.74
475.12	56339.04
475.30	56339.04
475.48	56816.50
475.66	56790.76
475.84	56596.49
476.02	56329.67
476.20	55779.65
476.38	56463.08
476.56	57317.38
476.74	57738.68
476.92	57769.10
477.10	58190.40
477.28	58838.73
477.46	58974.48
477.64	58965.12
477.82	59154.70
478.00	59571.32
478.18	58820.00
478.36	59047.04
478.54	58953.41
478.72	59084.48
478.90	59814.73
479.08	60151.77
479.26	60647.96
479.44	60360.08
479.62	60226.66
479.80	60371.78
479.98	60280.50
480.16	60331.99
480.34	60083.89
480.52	60430.29
480.70	60596.47
480.88	60853.93
481.06	61242.46
481.24	61160.54
481.41	61872.06
481.59	62276.97
481.77	61918.87
481.95	61743.33
482.13	61605.24
482.31	61481.19
482.49	62157.61
482.67	61986.75
482.85	62178.67
483.03	62443.15
483.21	62939.35
483.39	62527.41
483.57	62216.12
483.74	62061.64
483.92	62461.88
484.10	62534.43
484.28	62883.17
484.46	63171.06
484.64	63517.46
484.82	62738.06
485.00	62536.77
485.18	61794.82
485.35	61104.37
485.53	59278.75
485.71	56839.91
485.89	57017.79
486.07	58351.90
486.25	60107.30
486.43	61455.45
486.61	61822.91
486.78	62007.81
486.96	62328.47
487.14	63260.00
487.32	63522.14
487.50	64376.43
487.68	64753.26
487.85	64860.93
488.03	64938.16
488.21	64741.56
488.39	64156.42
488.57	64006.63
488.75	63810.03
488.92	64694.75
489.10	65535.00
489.28	65535.00
489.46	65535.00
489.64	65535.00
489.81	65535.00
489.99	65535.00
490.17	65535.00
490.35	65535.00
490.53	65535.00
490.70	65535.00
490.88	65535.00
491.06	65535.00
491.24	65535.00
491.41	65535.00
491.59	65535.00
491.77	65535.00
491.95	65535.00
492.13	65535.00
492.30	65535.00
492.48	65535.00
492.66	65535.00
492.84	65535.00
493.01	65535.00
493.19	65535.00
493.37	65535.00
493.54	65535.00
493.72	65535.00
493.90	65535.00
494.08	65535.00
494.25	65535.00
494.43	65535.00
494.61	65535.00
494.79	65535.00
494.96	65535.00
495.14	65535.00
495.32	65535.00
495.49	65535.00
495.67	65535.00
495.85	65535.00
496.02	65535.00
496.20	65535.00
496.38	65535.00
496.55	65535.00
496.73	65535.00
496.91	65535.00
497.09	65535.00
497.26	65535.00
497.44	65535.00
497.62	65535.00
497.79	65535.00
497.97	65535.00
498.14	65535.00
498.32	65535.00
498.50	65535.00
498.67	65535.00
498.85	65535.00
499.03	65535.00
499.20	65535.00
499.38	65535.00
499.56	65535.00
499.73	65535.00
499.91	65535.00
500.08	65535.00
500.26	65535.00
500.44	65535.00
500.61	65535.00
500.79	65535.00
500.97	65535.00
501.14	65535.00
501.32	65535.00
501.49	65535.00
501.67	65535.00
501.84	65535.00
502.02	65535.00
502.20	65535.00
502.37	65535.00
502.55	65535.00
502.72	65535.00
502.90	65535.00
503.07	65535.00
503.25	65535.00
503.43	65535.00
503.60	65535.00
503.78	65535.00
503.95	65535.00
504.13	65535.00
504.30	65535.00
504.48	65535.00
504.65	65535.00
504.83	65535.00
505.01	65535.00
505.18	65535.00
505.36	65535.00
505.53	65535.00
505.71	65535.00
505.88	65535.00
506.06	65535.00
506.23	65535.00
506.41	65535.00
506.58	65535.00
506.76	65535.00
506.93	65535.00
507.11	65535.00
507.28	65535.00
507.46	65535.00
507.63	65535.00
507.81	65535.00
507.98	65535.00
508.16	65535.00
508.33	65535.00
508.50	65535.00
508.68	65535.00
508.85	65535.00
509.03	65535.00
509.20	65535.00
509.38	65535.00
509.55	65535.00
509.73	65535.00
509.90	65535.00
510.08	65535.00
510.25	65535.00
510.42	65535.00
510.60	65535.00
510.77	65535.00
510.95	65535.00
511.12	65535.00
511.30	65535.00
511.47	65535.00
511.64	65535.00
511.82	65535.00
511.99	65535.00
512.17	65535.00
512.34	65535.00
512.51	65535.00
512.69	65535.00
512.86	65535.00
513.04	65535.00
513.21	65535.00
513.38	65535.00
513.56	65535.00
513.73	65535.00
513.90	65535.00
514.08	65535.00
514.25	65535.00
514.43	65535.00
514.60	65535.00
514.77	65535.00
514.95	65535.00
515.12	65535.00
515.29	65535.00
515.47	65535.00
515.64	65535.00
515.81	65535.00
515.99	65535.00
516.16	65535.00
516.33	65535.00
516.51	65535.00
516.68	65535.00
516.85	65535.00
517.03	65535.00
517.20	65535.00
517.37	65535.00
517.54	65535.00
517.72	65535.00
517.89	65535.00
518.06	65535.00
518.24	65535.00
518.41	65535.00
518.58	65535.00
518.75	65535.00
518.93	65535.00
519.10	65535.00
519.27	65535.00
519.45	65535.00
519.62	65535.00
519.79	65535.00
519.96	65535.00
520.14	65535.00
520.31	65535.00
520.48	65535.00
520.65	65535.00
520.83	65535.00
521.00	65535.00
521.17	65535.00
521.34	65535.00
521.52	65535.00
521.69	65535.00
521.86	65535.00
522.03	65535.00
522.20	65535.00
522.38	65535.00
522.55	65535.00
522.72	65535.00
522.89	65535.00
523.07	65535.00
523.24	65535.00
523.41	65535.00
523.58	65535.00
523.75	65535.00
523.92	65535.00
524.10	65535.00
524.27	65535.00
524.44	65535.00
524.61	65535.00
524.78	65535.00
524.96	65535.00
525.13	65535.00
525.30	65535.00
525.47	65535.00
525.64	65535.00
525.81	65535.00
525.98	65535.00
526.16	65535.00
526.33	65535.00
526.50	65535.00
526.67	65535.00
526.84	65535.00
527.01	65535.00
527.18	65535.00
527.36	65535.00
527.53	65535.00
527.70	65535.00
527.87	65535.00
528.04	65535.00
528.21	65535.00
528.38	65535.00
528.55	65535.00
528.72	65535.00
528.89	65535.00
529.07	65535.00
529.24	65535.00
529.41	65535.00
529.58	65535.00
529.75	65535.00
529.92	65535.00
530.09	65535.00
530.26	65535.00
530.43	65535.00
530.60	65535.00
530.77	65535.00
530.94	65535.00
531.11	65535.00
531.28	65535.00
531.46	65535.00
531.63	65535.00
531.80	65535.00
531.97	65535.00
532.14	65535.00
532.31	65535.00
532.48	65535.00
532.65	65535.00
532.82	65535.00
532.99	65535.00
533.16	65535.00
533.33	65535.00
533.50	65535.00
533.67	65535.00
533.84	65535.00
534.01	65535.00
534.18	65535.00
534.35	65535.00
534.52	65535.00
534.69	65535.00
534.86	65535.00
535.03	65535.00
535.20	65535.00
535.37	65535.00
535.54	65535.00
535.71	65535.00
535.88	65535.00
536.05	65535.00
536.22	65535.00
536.38	65535.00
536.55	65535.00
536.72	65535.00
536.89	65535.00
537.06	65535.00
537.23	65535.00
537.40	65535.00
537.57	65535.00
537.74	65535.00
537.91	65535.00
538.08	65535.00
538.25	65535.00
538.42	65535.00
538.59	65535.00
538.75	65535.00
538.92	65535.00
539.09	65535.00
539.26	65535.00
539.43	65535.00
539.60	65535.00
539.77	65535.00
539.94	65535.00
540.11	65535.00
540.28	65535.00
540.44	65535.00
540.61	65535.00
540.78	65535.00
540.95	65535.00
541.12	65535.00
541.29	65535.00
541.46	65535.00
541.62	65535.00
541.79	65535.00
541.96	65535.00
542.13	65535.00
542.30	65535.00
542.47	65535.00
542.63	65535.00
542.80	65535.00
542.97	65535.00
543.14	65535.00
543.31	65535.00
543.48	65535.00
543.64	65535.00
543.81	65535.00
543.98	65535.00
544.15	65535.00
544.32	65535.00
544.48	65535.00
544.65	65535.00
544.82	65535.00
544.99	65535.00
545.16	65535.00
545.32	65535.00
545.49	65535.00
545.66	65535.00
545.83	65535.00
546.00	65535.00
546.16	65535.00
546.33	65535.00
546.50	65535.00
546.67	65535.00
546.83	65535.00
547.00	65535.00
547.17	65535.00
547.34	65535.00
547.50	65535.00
547.67	65535.00
547.84	65535.00
548.00	65535.00
548.17	65535.00
548.34	65535.00
548.51	65535.00
548.67	65535.00
548.84	65535.00
549.01	65535.00
549.18	65535.00
549.34	65535.00
549.51	65535.00
549.68	65535.00
549.84	65535.00
550.01	65535.00
550.18	65535.00
550.34	65535.00
550.51	65535.00
550.68	65535.00
550.84	65535.00
551.01	65535.00
551.18	65535.00
551.34	65535.00
551.51	65535.00
551.68	65535.00
551.84	65535.00
552.01	65535.00
552.18	65535.00
552.34	65535.00
552.51	65535.00
552.68	65535.00
552.84	65535.00
553.01	65535.00
553.18	65535.00
553.34	65535.00
553.51	65535.00
553.67	65535.00
553.84	65535.00
554.01	65535.00
554.17	65535.00
554.34	65535.00
554.51	65535.00
554.67	65535.00
554.84	65535.00
555.00	65535.00
555.17	65535.00
555.33	65535.00
555.50	65535.00
555.67	65535.00
555.83	65535.00
556.00	65535.00
556.16	65535.00
556.33	65535.00
556.50	65535.00
556.66	65535.00
556.83	65535.00
556.99	65535.00
557.16	65535.00
557.32	65535.00
557.49	65535.00
557.65	65535.00
557.82	65535.00
557.98	65535.00
558.15	65535.00
558.32	65535.00
558.48	65535.00
558.65	65535.00
558.81	65535.00
558.98	65535.00
559.14	65535.00
559.31	65535.00
559.47	65535.00
559.64	65535.00
559.80	65535.00
559.97	65535.00
560.13	65535.00
560.30	65535.00
560.46	65535.00
560.63	65535.00
560.79	65535.00
560.96	65535.00
561.12	65535.00
561.29	65535.00
561.45	65535.00
561.61	65535.00
561.78	65535.00
561.94	65535.00
562.11	65535.00
562.27	65535.00
562.44	65535.00
562.60	65535.00
562.77	65535.00
562.93	65535.00
563.10	65535.00
563.26	65535.00
563.42	65535.00
563.59	65535.00
563.75	65535.00
563.92	65535.00
564.08	65535.00
564.24	65535.00
564.41	65535.00
564.57	65535.00
564.74	65535.00
564.90	65535.00
565.07	65535.00
565.23	65535.00
565.39	65535.00
565.56	65535.00
565.72	65535.00
565.88	65535.00
566.05	65535.00
566.21	65535.00
566.38	65535.00
566.54	65535.00
566.70	65535.00
566.87	65535.00
567.03	65535.00
567.19	65535.00
567.36	65535.00
567.52	65535.00
567.68	65535.00
567.85	65535.00
568.01	65535.00
568.17	65535.00
568.34	65535.00
568.50	65535.00
568.66	65535.00
568.83	65535.00
568.99	65535.00
569.15	65535.00
569.32	65535.00
569.48	65535.00
569.64	65535.00
569.81	65535.00
569.97	65535.00
570.13	65535.00
570.30	65535.00
570.46	65535.00
570.62	65535.00
570.78	65535.00
570.95	65535.00
571.11	65535.00
571.27	65535.00
571.43	65535.00
571.60	65535.00
571.76	65535.00
571.92	65535.00
572.09	65535.00
572.25	65535.00
572.41	65535.00
572.57	65535.00
572.74	65535.00
572.90	65535.00
573.06	65535.00
573.22	65535.00
573.38	65535.00
573.55	65535.00
573.71	65535.00
573.87	65535.00
574.03	65535.00
574.20	65535.00
574.36	65535.00
574.52	65535.00
574.68	65535.00
574.84	65535.00
575.01	65535.00
575.17	65535.00
575.33	65535.00
575.49	65535.00
575.65	65535.00
575.82	65535.00
575.98	65535.00
576.14	65535.00
576.30	65535.00
576.46	65535.00
576.62	65535.00
576.79	65535.00
576.95	65535.00
577.11	65535.00
577.27	65535.00
577.43	65535.00
577.59	65535.00
577.75	65535.00
577.92	65535.00
578.08	65233.07
578.24	65535.00
578.40	65535.00
578.56	65535.00
578.72	65535.00
578.88	65535.00
579.04	65535.00
579.21	65535.00
579.37	65535.00
579.53	65535.00
579.69	65535.00
579.85	65535.00
580.01	65535.00
580.17	65535.00
580.33	65535.00
580.49	65535.00
580.65	65535.00
580.82	65535.00
580.98	65535.00
581.14	65535.00
581.30	65535.00
581.46	65535.00
581.62	65535.00
581.78	65535.00
581.94	65535.00
582.10	65535.00
582.26	65535.00
582.42	65535.00
582.58	65535.00
582.74	65535.00
582.90	65535.00
583.06	65535.00
583.22	65535.00
583.38	65535.00
583.54	65535.00
583.70	65535.00
583.86	65535.00
584.02	65535.00
584.18	65535.00
584.34	65535.00
584.50	65535.00
584.66	65535.00
