SpectraSuite Data File
++++++++++++++++++++++++++++++++++++
Date: Mon Oct 07 14:54:55 GMT-05:00 2013
User: price-jones
Dark Spectrum Present: No
Reference Spectrum Present: No
Number of Sampled Component Spectra: 1
Spectrometers: USB2+H05261
Integration Time (usec): 10000 (USB2+H05261)
Spectra Averaged: 1 (USB2+H05261)
Boxcar Smoothing: 0 (USB2+H05261)
Correct for Electrical Dark: No (USB2+H05261)
Strobe/Lamp Enabled: No (USB2+H05261)
Correct for Detector Non-linearity: No (USB2+H05261)
Correct for Stray Light: No (USB2+H05261)
Number of Pixels in Processed Spectrum: 2048
>>>>>Begin Processed Spectral Data<<<<<
365.73	0.00
365.92	0.00
366.12	0.00
366.32	0.00
366.52	0.00
366.72	0.00
366.91	0.00
367.11	0.00
367.31	0.00
367.51	0.00
367.70	0.00
367.90	0.00
368.10	0.00
368.30	0.00
368.49	0.00
368.69	0.00
368.89	0.00
369.09	0.00
369.28	0.00
369.48	0.00
369.68	0.00
369.87	0.00
370.07	0.00
370.27	0.00
370.47	0.00
370.66	0.00
370.86	0.00
371.06	51.49
371.25	0.00
371.45	7.02
371.65	0.00
371.84	0.00
372.04	0.00
372.24	0.00
372.44	0.00
372.63	32.77
372.83	16.38
373.03	9.36
373.22	46.81
373.42	0.00
373.62	0.00
373.81	25.75
374.01	126.39
374.21	0.00
374.40	56.17
374.60	0.00
374.79	14.04
374.99	46.81
375.19	107.66
375.38	135.75
375.58	91.28
375.78	25.75
375.97	46.81
376.17	133.41
376.37	140.43
376.56	140.43
376.76	173.20
376.95	117.03
377.15	124.05
377.35	191.92
377.54	236.39
377.74	156.82
377.93	203.63
378.13	241.08
378.33	273.84
378.52	93.62
378.72	145.11
378.91	128.73
379.11	124.05
379.31	121.71
379.50	67.88
379.70	86.60
379.89	175.54
380.09	220.01
380.28	168.52
380.48	91.28
380.68	238.73
380.87	168.52
381.07	121.71
381.26	63.19
381.46	102.98
381.65	121.71
381.85	70.22
382.04	7.02
382.24	25.75
382.43	0.00
382.63	77.24
382.83	39.79
383.02	21.06
383.22	42.13
383.41	9.36
383.61	46.81
383.80	95.96
384.00	168.52
384.19	152.13
384.39	271.50
384.58	177.88
384.78	180.22
384.97	173.20
385.17	257.46
385.36	145.11
385.56	84.26
385.75	112.35
385.95	205.97
386.14	215.33
386.34	227.03
386.53	163.84
386.72	138.09
386.92	177.88
387.11	224.69
387.31	173.20
387.50	252.78
387.70	154.48
387.89	250.44
388.09	161.50
388.28	105.32
388.48	182.56
388.67	264.48
388.86	227.03
389.06	344.06
389.25	383.85
389.45	287.89
389.64	346.40
389.84	348.74
390.03	301.93
390.22	294.91
390.42	297.25
390.61	402.57
390.81	472.79
391.00	374.49
391.19	442.36
391.39	468.11
391.58	395.55
391.78	308.95
391.97	297.25
392.16	301.93
392.36	243.42
392.55	161.50
392.75	84.26
392.94	0.00
393.13	18.72
393.33	0.00
393.52	98.30
393.71	168.52
393.91	259.80
394.10	306.61
394.29	416.62
394.49	381.51
394.68	411.93
394.88	411.93
395.07	454.06
395.26	449.38
395.46	477.47
395.65	393.21
395.84	400.23
396.04	257.46
396.23	168.52
396.42	142.77
396.62	21.06
396.81	245.76
397.00	297.25
397.19	346.40
397.39	524.28
397.58	505.56
397.77	622.58
397.97	641.31
398.16	648.33
398.35	798.12
398.55	727.91
398.74	767.70
398.93	816.85
399.12	795.78
399.32	807.48
399.51	786.42
399.70	835.57
399.90	795.78
400.09	725.57
400.28	793.44
400.47	685.78
400.67	826.21
400.86	837.91
401.05	826.21
401.24	809.83
401.44	910.47
401.63	931.53
401.82	828.55
402.01	966.64
402.21	950.26
402.40	924.51
402.59	866.00
402.78	741.95
402.97	851.96
403.17	833.23
403.36	924.51
403.55	891.74
403.74	971.32
403.93	915.15
404.13	835.57
404.32	781.74
404.51	800.46
404.70	896.43
404.89	854.30
405.09	875.36
405.28	807.48
405.47	945.58
405.66	943.24
405.85	844.93
406.05	858.98
406.24	819.19
406.43	964.30
406.62	795.78
406.81	912.81
407.00	912.81
407.20	891.74
407.39	870.68
407.58	929.19
407.77	950.26
407.96	954.94
408.15	1083.67
408.34	994.73
408.54	1057.92
408.73	1100.05
408.92	1081.33
409.11	978.34
409.30	882.38
409.49	966.64
409.68	840.25
409.87	795.78
410.07	868.34
410.26	959.62
410.45	959.62
410.64	1020.47
410.83	1029.84
411.02	1074.31
411.21	1130.48
411.40	1146.86
411.59	1055.58
411.78	1060.26
411.98	1046.22
412.17	1128.14
412.36	1116.44
412.55	1203.04
412.74	1144.52
412.93	1090.69
413.12	1071.97
413.31	1238.14
413.50	1144.52
413.69	1179.63
413.88	1200.69
414.07	1074.31
414.26	1142.18
414.45	1210.06
414.64	1174.95
414.83	1224.10
415.02	1158.57
415.22	1167.93
415.41	1259.21
415.60	1261.55
415.79	1268.57
415.98	1299.00
416.17	1472.20
416.36	1322.40
416.55	1343.47
416.74	1210.06
416.93	1270.91
417.12	1184.31
417.31	1224.10
417.50	1207.72
417.69	1235.80
417.88	1196.01
418.07	1270.91
418.26	1224.10
418.45	1296.66
418.64	1315.38
418.83	1341.13
419.02	1369.21
419.21	1345.81
419.39	1219.42
419.58	1144.52
419.77	1205.38
419.96	1135.16
420.15	1275.59
420.34	1355.17
420.53	1514.33
420.72	1437.09
420.91	1310.70
421.10	1434.75
421.29	1369.21
421.48	1320.06
421.67	1341.13
421.86	1315.38
422.05	1238.14
422.24	1156.22
422.43	1060.26
422.61	1165.59
422.80	1373.89
422.99	1287.29
423.18	1301.34
423.37	1235.80
423.56	1188.99
423.75	1256.87
423.94	1275.59
424.13	1174.95
424.32	1296.66
424.50	1228.78
424.69	1247.51
424.88	1259.21
425.07	1156.22
425.26	1261.55
425.45	1242.82
425.64	1156.22
425.83	1186.65
426.01	1231.12
426.20	1322.40
426.39	1409.00
426.58	1172.61
426.77	1055.58
426.96	926.85
427.15	1055.58
427.33	1188.99
427.52	1214.74
427.71	1252.19
427.90	1203.04
428.09	1259.21
428.28	1184.31
428.46	1121.12
428.65	1088.35
428.84	1090.69
429.03	1167.93
429.22	1095.37
429.40	964.30
429.59	966.64
429.78	730.25
429.97	851.96
430.16	912.81
430.34	880.04
430.53	772.38
430.72	812.17
430.91	931.53
431.10	1191.33
431.28	1364.53
431.47	1565.82
431.66	1488.58
431.85	1418.36
432.03	1221.76
432.22	1139.84
432.41	1369.21
432.60	1331.76
432.79	1535.39
432.97	1547.09
433.16	1490.92
433.35	1357.51
433.54	1146.86
433.72	1172.61
433.91	1102.39
434.10	1245.16
434.28	1366.87
434.47	1348.15
434.66	1306.02
434.85	1397.30
435.03	1252.19
435.22	1287.29
435.41	1600.93
435.59	1502.62
435.78	1427.73
435.97	1547.09
436.16	1554.12
436.34	1455.81
436.53	1458.15
436.72	1549.43
436.90	1439.43
437.09	1371.55
437.28	1327.08
437.46	1472.20
437.65	1394.96
437.84	1394.96
438.02	1210.06
438.21	1181.97
438.40	1313.04
438.58	1406.66
438.77	1336.45
438.96	1523.69
439.14	1575.18
439.33	1575.18
439.52	1671.14
439.70	1472.20
439.89	1404.32
440.08	1540.07
440.26	1507.30
440.45	1558.80
440.63	1764.76
440.82	1771.79
441.01	1748.38
441.19	1762.42
441.38	1837.32
441.57	1818.60
441.75	1785.83
441.94	1776.47
442.12	1764.76
442.31	1893.49
442.50	1755.40
442.68	1891.15
442.87	1764.76
443.05	1703.91
443.24	1856.04
443.43	1790.51
443.61	1856.04
443.80	1837.32
443.98	1823.28
444.17	1769.44
444.35	1769.44
444.54	1856.04
444.73	1785.83
444.91	1837.32
445.10	1715.61
445.28	1629.01
445.47	1624.33
445.65	1680.50
445.84	1650.08
446.02	1757.74
446.21	1682.85
446.39	1732.00
446.58	1823.28
446.77	1898.17
446.95	1795.19
447.14	1832.64
447.32	1973.07
447.51	1942.64
447.69	1806.89
447.88	1710.93
448.06	1753.06
448.25	1811.57
448.43	1811.57
448.62	1923.92
448.80	1734.34
448.99	1816.26
449.17	1809.23
449.36	1895.83
449.54	1860.73
449.73	2001.16
449.91	1895.83
450.10	2033.93
450.28	2204.78
450.46	2019.88
450.65	2083.08
450.83	1970.73
451.02	1994.14
451.20	1959.03
451.39	2045.63
451.57	1909.88
451.76	1919.24
451.94	1975.41
452.13	1849.02
452.31	1853.70
452.49	1678.16
452.68	1694.55
452.86	1757.74
453.05	1771.79
453.23	1902.86
453.42	1820.94
453.60	1959.03
453.78	1961.37
453.97	1912.22
454.15	1902.86
454.34	1809.23
454.52	1998.82
454.70	1806.89
454.89	1788.17
455.07	1928.60
455.26	1893.49
455.44	1916.90
455.62	2012.86
455.81	2003.50
455.99	2005.84
456.17	1982.43
456.36	2036.27
456.54	2172.02
456.73	2080.74
456.91	2111.16
457.09	2033.93
457.28	2108.82
457.46	2050.31
457.64	1975.41
457.83	1900.52
458.01	1856.04
458.19	1923.92
458.38	2047.97
458.56	2057.33
458.74	2162.66
458.93	1898.17
459.11	2015.20
459.29	2036.27
459.48	2033.93
459.66	1952.01
459.84	1933.28
460.03	2120.53
460.21	2036.27
460.39	2139.25
460.57	2031.58
460.76	2153.29
460.94	2087.76
461.12	2033.93
461.31	2122.87
461.49	2139.25
461.67	2174.36
461.85	2174.36
462.04	2092.44
462.22	2207.13
462.40	2176.70
462.59	2040.95
462.77	2174.36
462.95	2031.58
463.13	2148.61
463.32	2064.35
463.50	2003.50
463.68	2087.76
463.86	2043.29
464.05	2022.22
464.23	2064.35
464.41	2036.27
464.59	2029.24
464.78	2010.52
464.96	2101.80
465.14	1994.14
465.32	2022.22
465.50	2092.44
465.69	2186.06
465.87	2059.67
466.05	2036.27
466.23	1902.86
466.41	1977.75
466.60	1825.62
466.78	1806.89
466.96	1921.58
467.14	1982.43
467.32	1998.82
467.51	2017.54
467.69	1994.14
467.87	1973.07
468.05	1937.96
468.23	2022.22
468.41	1935.62
468.60	1961.37
468.78	2186.06
468.96	1996.48
469.14	2057.33
469.32	2047.97
469.50	1956.69
469.69	1952.01
469.87	1959.03
470.05	1863.07
470.23	1909.88
470.41	2069.03
470.59	2059.67
470.77	1963.71
470.95	2026.90
471.14	2106.48
471.32	2064.35
471.50	2115.84
471.68	2101.80
471.86	2267.98
472.04	2272.66
472.22	2169.68
472.40	2118.18
472.58	2097.12
472.77	2026.90
472.95	2092.44
473.13	2097.12
473.31	2069.03
473.49	2228.19
473.67	2146.27
473.85	2195.42
474.03	2333.51
474.21	2300.75
474.39	2260.96
474.57	2293.72
474.75	2310.11
474.93	2293.72
475.12	2221.17
475.30	2265.64
475.48	2097.12
475.66	2291.38
475.84	2186.06
476.02	2115.84
476.20	2223.51
476.38	2207.13
476.56	2190.74
476.74	2260.96
476.92	2382.67
477.10	2377.98
477.28	2368.62
477.46	2399.05
477.64	2476.29
477.82	2562.89
478.00	2600.34
478.18	2464.58
478.36	2513.74
478.54	2345.22
478.72	2338.20
478.90	2595.65
479.08	2635.44
479.26	2626.08
479.44	2445.86
479.62	2569.91
479.80	2602.68
479.98	2609.70
480.16	2595.65
480.34	2637.78
480.52	2729.06
480.70	2583.95
480.88	2630.76
481.06	2607.36
481.24	2647.15
481.41	2635.44
481.59	2801.62
481.77	2850.77
481.95	2778.22
482.13	2691.62
482.31	2642.46
482.49	2750.13
482.67	2703.32
482.85	2733.75
483.03	2843.75
483.21	2876.52
483.39	2794.60
483.57	2846.09
483.74	2771.19
483.92	2860.13
484.10	2846.09
484.28	2935.03
484.46	2951.42
484.64	2932.69
484.82	2878.86
485.00	2850.77
485.18	2799.28
485.35	2724.38
485.53	2441.18
485.71	2291.38
485.89	2190.74
486.07	2349.90
486.25	2513.74
486.43	2743.11
486.61	2841.41
486.78	2703.32
486.96	2782.90
487.14	2986.52
487.32	2925.67
487.50	3190.15
487.68	3129.30
487.85	3183.13
488.03	3166.74
488.21	3049.72
488.39	3061.42
488.57	3070.78
488.75	2876.52
488.92	3101.21
489.10	3361.01
489.28	3379.73
489.46	3515.48
489.64	3545.91
489.81	3426.54
489.99	3459.31
490.17	3342.28
490.35	3421.86
490.53	3405.48
490.70	3307.18
490.88	3412.50
491.06	3414.84
491.24	3398.46
491.41	3368.03
491.59	3255.69
491.77	3199.51
491.95	3199.51
492.13	3363.35
492.30	3613.79
492.48	3555.27
492.66	3632.51
492.84	3716.77
493.01	3660.60
493.19	3529.53
493.37	3538.89
493.54	3557.61
493.72	3571.66
493.90	3756.56
494.08	3843.16
494.25	3829.12
494.43	3861.88
494.61	3836.14
494.79	3843.16
494.96	3889.97
495.14	3817.41
495.32	3733.15
495.49	3691.02
495.67	3735.50
495.85	3836.14
496.02	3889.97
496.20	3906.35
496.38	3786.99
496.55	3904.01
496.73	3997.64
496.91	4051.47
497.09	4170.83
497.26	4072.53
497.44	4079.55
497.62	3854.86
497.79	3829.12
497.97	3606.77
498.14	3695.71
498.32	3772.94
498.50	3871.25
498.67	4049.13
498.85	3957.85
499.03	3995.29
499.20	3971.89
499.38	4011.68
499.56	3995.29
499.73	3918.06
499.91	3960.19
500.08	3791.67
500.26	3808.05
500.44	3765.92
500.61	3819.75
500.79	4107.64
500.97	3852.52
501.14	3702.73
501.32	3761.24
501.49	3730.81
501.67	3709.75
501.84	3861.88
502.02	3840.82
502.20	4011.68
502.37	3894.65
502.55	4070.19
502.72	4135.73
502.90	4170.83
503.07	4070.19
503.25	4065.51
503.43	4070.19
503.60	3761.24
503.78	3625.49
503.95	3761.24
504.13	3838.48
504.30	4093.60
504.48	4025.72
504.65	4154.45
504.83	4077.21
505.01	4067.85
505.18	4084.23
505.36	4147.43
505.53	4187.22
505.71	4369.78
505.88	4163.81
506.06	4180.20
506.23	4117.00
506.41	4140.41
506.58	4021.04
506.76	4098.28
506.93	4018.70
507.11	3990.61
507.28	4163.81
507.46	3997.64
507.63	3901.67
507.81	3950.82
507.98	4021.04
508.16	4107.64
508.33	4107.64
508.50	4184.88
508.68	4142.75
508.85	4351.06
509.03	4227.01
509.20	4381.48
509.38	4044.45
509.55	3889.97
509.73	4023.38
509.90	4184.88
510.08	4259.78
510.25	4156.79
510.42	4060.83
510.60	4030.40
510.77	4114.66
510.95	4219.99
511.12	4339.35
511.30	4395.53
511.47	4367.44
511.64	4278.50
511.82	4229.35
511.99	4224.67
512.17	3964.87
512.34	4016.36
512.51	4086.58
512.69	4135.73
512.86	4142.75
513.04	4156.79
513.21	4219.99
513.38	4287.86
513.56	4119.34
513.73	4088.92
513.90	4018.70
514.08	3948.48
514.25	4021.04
514.43	4109.98
514.60	4025.72
514.77	4072.53
514.95	4056.15
515.12	4105.30
515.29	4163.81
515.47	4257.43
515.64	4156.79
515.81	4236.37
515.99	4060.83
516.16	3801.03
516.33	3370.37
516.51	3361.01
516.68	3220.58
516.85	3293.13
517.03	3311.86
517.20	3501.44
517.37	3960.19
517.54	4091.26
517.72	4011.68
517.89	3775.28
518.06	3417.18
518.24	3300.16
518.41	3672.30
518.58	3911.04
518.75	3763.58
518.93	3920.40
519.10	3957.85
519.27	3908.69
519.45	4053.81
519.62	4091.26
519.79	4210.62
519.96	4161.47
520.14	4086.58
520.31	3962.53
520.48	3723.79
520.65	3875.93
520.83	4016.36
521.00	4229.35
521.17	4119.34
521.34	4128.70
521.52	4051.47
521.69	4297.22
521.86	4297.22
522.03	4315.95
522.20	3960.19
522.38	3847.84
522.55	3756.56
522.72	3969.55
522.89	4081.89
523.07	3976.57
523.24	4060.83
523.41	4191.90
523.58	4208.28
523.75	4329.99
523.92	4290.20
524.10	4182.54
524.27	4182.54
524.44	4243.39
524.61	4177.86
524.78	4098.28
524.96	4072.53
525.13	4198.92
525.30	4133.39
525.47	4381.48
525.64	4325.31
525.81	4138.07
525.98	3934.44
526.16	3627.83
526.33	3534.21
526.50	3574.00
526.67	3520.17
526.84	3576.34
527.01	3847.84
527.18	3819.75
527.36	3960.19
527.53	4077.21
527.70	4208.28
527.87	4039.76
528.04	4070.19
528.21	4037.42
528.38	4236.37
528.55	4344.03
528.72	4332.33
528.89	4315.95
529.07	4241.05
529.24	4395.53
529.41	4227.01
529.58	4032.74
529.75	4093.60
529.92	4149.77
530.09	4203.60
530.26	4229.35
530.43	4278.50
530.60	4374.46
530.77	4259.78
530.94	4358.08
531.11	4255.09
531.28	4208.28
531.46	4154.45
531.63	4194.24
531.80	4227.01
531.97	4168.49
532.14	3971.89
532.31	3747.20
532.48	3728.47
532.65	3700.39
532.82	3808.05
532.99	4093.60
533.16	4037.42
533.33	4217.65
533.50	4201.26
533.67	4070.19
533.84	3974.23
534.01	3920.40
534.18	4117.00
534.35	4201.26
534.52	4060.83
534.69	4121.68
534.86	4152.11
535.03	4175.52
535.20	4208.28
535.37	4346.37
535.54	4372.12
535.71	4234.03
535.88	4170.83
536.05	4184.88
536.22	3967.21
536.38	4081.89
536.55	3946.14
536.72	3840.82
536.89	3857.20
537.06	3978.91
537.23	4114.66
537.40	4046.79
537.57	4084.23
537.74	4009.34
537.91	4098.28
538.08	3953.16
538.25	4077.21
538.42	4046.79
538.59	4145.09
538.75	4009.34
538.92	3969.55
539.09	3836.14
539.26	3873.59
539.43	3705.07
539.60	3845.50
539.77	3999.98
539.94	3974.23
540.11	3803.37
540.28	3756.56
540.44	3740.18
540.61	3646.55
540.78	3838.48
540.95	3878.27
541.12	3831.46
541.29	4152.11
541.46	4056.15
541.62	4056.15
541.79	3934.44
541.96	3875.93
542.13	3882.95
542.30	3864.22
542.47	3985.93
542.63	3920.40
542.80	3953.16
542.97	3880.61
543.14	3693.37
543.31	3791.67
543.48	3988.27
543.64	4067.85
543.81	4131.05
543.98	4203.60
544.15	3988.27
544.32	3878.27
544.48	3922.74
544.65	3950.82
544.82	4152.11
544.99	3943.80
545.16	3880.61
545.32	3695.71
545.49	3999.98
545.66	4058.49
545.83	3920.40
546.00	3988.27
546.16	3927.42
546.33	3946.14
546.50	3798.69
546.67	3875.93
546.83	3859.54
547.00	3908.69
547.17	3684.00
547.34	3742.52
547.50	3817.41
547.67	3763.58
547.84	3908.69
548.00	3808.05
548.17	3932.10
548.34	3817.41
548.51	3805.71
548.67	3829.12
548.84	3831.46
549.01	3716.77
549.18	3871.25
549.34	3791.67
549.51	4004.66
549.68	3761.24
549.84	3733.15
550.01	3779.97
550.18	3667.62
550.34	3826.78
550.51	3840.82
550.68	3789.33
550.84	3688.68
551.01	3768.26
551.18	3609.11
551.34	3733.15
551.51	3864.22
551.68	3896.99
551.84	3852.52
552.01	3864.22
552.18	3901.67
552.34	3700.39
552.51	3588.04
552.68	3637.19
552.84	3735.50
553.01	3803.37
553.18	3616.13
553.34	3761.24
553.51	3772.94
553.67	3740.18
553.84	3847.84
554.01	3728.47
554.17	3899.33
554.34	3873.59
554.51	3740.18
554.67	3833.80
554.84	3786.99
555.00	3756.56
555.17	3665.28
555.33	3637.19
555.50	3702.73
555.67	3707.41
555.83	3630.17
556.00	3616.13
556.16	3644.21
556.33	3555.27
556.50	3569.32
556.66	3433.57
556.83	3370.37
556.99	3609.11
557.16	3515.48
557.32	3534.21
557.49	3672.30
557.65	3620.81
557.82	3700.39
557.98	3555.27
558.15	3564.64
558.32	3487.40
558.48	3260.37
558.65	3318.88
558.81	3332.92
558.98	3370.37
559.14	3351.65
559.31	3452.29
559.47	3382.07
559.64	3393.78
559.80	3435.91
559.97	3258.03
560.13	3489.74
560.30	3529.53
560.46	3801.03
560.63	3658.26
560.79	3684.00
560.96	3627.83
561.12	3531.87
561.29	3241.64
561.45	3475.70
561.61	3349.31
561.78	3449.95
561.94	3531.87
562.11	3496.76
562.27	3337.60
562.44	3522.51
562.60	3562.30
562.77	3475.70
562.93	3548.25
563.10	3440.59
563.26	3466.33
563.42	3445.27
563.59	3389.10
563.75	3372.71
563.92	3377.39
564.08	3400.80
564.24	3414.84
564.41	3461.65
564.57	3459.31
564.74	3468.67
564.90	3428.88
565.07	3454.63
565.23	3286.11
565.39	3262.71
565.56	3119.93
565.72	3143.34
565.88	3424.20
566.05	3185.47
566.21	3215.90
566.38	3417.18
566.54	3414.84
566.70	3361.01
566.87	3342.28
567.03	3379.73
567.19	3522.51
567.36	3344.63
567.52	3384.41
567.68	3368.03
567.85	3246.32
568.01	3225.26
568.17	3138.66
568.34	3171.43
568.50	3145.68
568.66	3141.00
568.83	3183.13
568.99	3148.02
569.15	3199.51
569.32	3176.11
569.48	3218.24
569.64	3218.24
569.81	3255.69
569.97	3096.53
570.13	3159.72
570.30	2967.80
570.46	3091.85
570.62	2963.12
570.78	3052.06
570.95	2972.48
571.11	3222.92
571.27	3169.09
571.43	3108.23
571.60	3073.12
571.76	3208.87
571.92	3009.93
572.09	3262.71
572.25	3288.45
572.41	3281.43
572.57	3222.92
572.74	3316.54
572.90	3089.51
573.06	3251.00
573.22	3295.47
573.38	3077.80
573.55	3225.26
573.71	3117.59
573.87	3171.43
574.03	3204.19
574.20	3176.11
574.36	3145.68
574.52	3103.55
574.68	3077.80
574.84	3019.29
575.01	2909.29
575.17	3035.67
575.33	3066.10
575.49	2904.60
575.65	3028.65
575.82	2958.44
575.98	3141.00
576.14	2918.65
576.30	2958.44
576.46	3073.12
576.62	3070.78
576.79	3047.38
576.95	3014.61
577.11	2951.42
577.27	3063.76
577.43	3033.33
577.59	2974.82
577.75	2953.76
577.92	2855.45
578.08	2871.84
578.24	2977.16
578.40	2857.79
578.56	2888.22
578.72	3023.97
578.88	2988.86
579.04	2928.01
579.21	2956.10
579.37	3005.25
579.53	2951.42
579.69	2979.50
579.85	2928.01
580.01	2916.31
580.17	2799.28
580.33	2972.48
580.49	3009.93
580.65	2993.55
580.82	2956.10
580.98	2918.65
581.14	2988.86
581.30	2979.50
581.46	2953.76
581.62	2895.24
581.78	3007.59
581.94	2881.20
582.10	2991.20
582.26	2960.78
582.42	2981.84
582.58	3066.10
582.74	3014.61
582.90	3059.08
583.06	2888.22
583.22	2888.22
583.38	2958.44
583.54	2855.45
583.70	2897.58
583.86	2906.95
584.02	2939.71
584.18	2867.16
584.34	2995.89
584.50	2876.52
584.66	2846.09
584.82	2902.26
584.98	2825.03
585.14	2789.92
585.30	2895.24
585.46	2722.04
585.62	2647.15
585.78	2738.43
585.94	2895.24
586.10	2778.22
586.26	2708.00
586.42	2813.32
586.58	2848.43
586.74	2752.47
586.90	2850.77
587.06	2703.32
587.22	2857.79
587.38	2899.92
587.54	2836.73
587.70	2679.91
587.86	2729.06
588.02	2766.51
588.18	2637.78
588.34	2562.89
588.49	2326.49
588.65	2328.83
588.81	2237.55
588.97	2239.89
589.13	2363.94
589.29	2317.13
589.45	2436.50
589.61	2415.43
589.77	2495.01
589.93	2539.48
590.08	2640.12
590.24	2590.97
590.40	2684.59
590.56	2523.10
590.72	2630.76
590.88	2593.31
591.04	2588.63
591.20	2583.95
591.35	2595.65
591.51	2473.95
591.67	2572.25
591.83	2492.67
591.99	2558.21
592.15	2602.68
592.31	2654.17
592.46	2581.61
592.62	2502.03
592.78	2614.38
592.94	2497.35
593.10	2607.36
593.26	2548.84
593.41	2686.94
593.57	2574.59
593.73	2518.42
593.89	2553.52
594.05	2555.86
594.20	2385.01
594.36	2480.97
594.52	2448.20
594.68	2544.16
594.84	2410.75
594.99	2464.58
595.15	2448.20
595.31	2436.50
595.47	2518.42
595.62	2672.89
595.78	2609.70
595.94	2621.40
596.10	2626.08
596.25	2387.35
596.41	2476.29
596.57	2523.10
596.73	2520.76
596.88	2520.76
597.04	2569.91
597.20	2473.95
597.36	2462.24
597.51	2476.29
597.67	2420.11
597.83	2527.78
597.99	2450.54
598.14	2480.97
598.30	2380.32
598.46	2385.01
598.61	2321.81
598.77	2480.97
598.93	2480.97
599.09	2537.14
599.24	2495.01
599.40	2485.65
