SpectraSuite Data File
++++++++++++++++++++++++++++++++++++
Date: Mon Oct 07 14:53:56 GMT-05:00 2013
User: price-jones
Dark Spectrum Present: No
Reference Spectrum Present: No
Number of Sampled Component Spectra: 1
Spectrometers: USB2+H05261
Integration Time (usec): 100000 (USB2+H05261)
Spectra Averaged: 1 (USB2+H05261)
Boxcar Smoothing: 0 (USB2+H05261)
Correct for Electrical Dark: No (USB2+H05261)
Strobe/Lamp Enabled: No (USB2+H05261)
Correct for Detector Non-linearity: No (USB2+H05261)
Correct for Stray Light: No (USB2+H05261)
Number of Pixels in Processed Spectrum: 2048
>>>>>Begin Processed Spectral Data<<<<<
365.73	0.00
365.92	0.00
366.12	0.00
366.32	0.00
366.52	0.00
366.72	0.00
366.91	0.00
367.11	0.00
367.31	0.00
367.51	0.00
367.70	0.00
367.90	0.00
368.10	0.00
368.30	0.00
368.49	0.00
368.69	0.00
368.89	0.00
369.09	0.00
369.28	0.00
369.48	0.00
369.68	0.00
369.87	0.00
370.07	0.00
370.27	0.00
370.47	564.07
370.66	2665.87
370.86	3201.85
371.06	3424.20
371.25	3672.30
371.45	3269.73
371.65	2963.12
371.84	2757.15
372.04	2899.92
372.24	3225.26
372.44	3293.13
372.63	3325.90
372.83	2974.82
373.03	2750.13
373.22	2562.89
373.42	2628.42
373.62	3028.65
373.81	3386.76
374.01	3283.77
374.21	2991.20
374.40	2663.53
374.60	2843.75
374.79	3176.11
374.99	3803.37
375.19	4201.26
375.38	4077.21
375.58	3845.50
375.78	3754.22
375.97	3648.90
376.17	4004.66
376.37	3927.42
376.56	4077.21
376.76	4299.56
376.95	4449.36
377.15	4854.27
377.35	4945.55
377.54	5357.49
377.74	5460.47
377.93	5338.76
378.13	5266.21
378.33	5001.72
378.52	4676.39
378.72	4550.00
378.91	4458.72
379.11	4219.99
379.31	4042.11
379.50	4107.64
379.70	4285.52
379.89	4975.98
380.09	5128.11
380.28	5366.85
380.48	5287.27
380.68	5121.09
380.87	4954.91
381.07	4566.39
381.26	4404.89
381.46	4177.86
381.65	4109.98
381.85	3887.63
382.04	3606.77
382.24	3337.60
382.43	3225.26
382.63	3190.15
382.83	3239.30
383.02	3243.98
383.22	3241.64
383.41	3239.30
383.61	3421.86
383.80	3969.55
384.00	4477.44
384.19	4905.76
384.39	5259.18
384.58	5282.59
384.78	4983.00
384.97	5069.60
385.17	4798.10
385.36	4613.20
385.56	4432.97
385.75	4484.47
385.95	4992.36
386.14	5313.02
386.34	5444.09
386.53	5149.18
386.72	4863.63
386.92	4924.49
387.11	5217.05
387.31	5348.12
387.50	5441.75
387.70	5149.18
387.89	5221.74
388.09	5121.09
388.28	5245.14
388.48	5114.07
388.67	5526.00
388.86	6291.36
389.06	6684.57
389.25	7096.50
389.45	6944.37
389.64	6836.70
389.84	6780.53
390.03	6895.22
390.22	6825.00
390.42	6946.71
390.61	7510.78
390.81	8004.63
391.00	8234.00
391.19	7985.91
391.39	7824.41
391.58	7428.86
391.78	6864.79
391.97	6677.55
392.16	6396.68
392.36	5729.63
392.55	4737.24
392.75	3604.42
392.94	2892.90
393.13	2963.12
393.33	3482.72
393.52	4468.08
393.71	5408.98
393.91	6059.65
394.10	6740.74
394.29	7386.73
394.49	7831.43
394.68	8456.36
394.88	8531.25
395.07	8664.66
395.26	8617.85
395.46	8573.38
395.65	7985.91
395.84	6967.77
396.04	5942.62
396.23	4767.67
396.42	3922.74
396.62	3768.26
396.81	4465.74
397.00	5755.38
397.19	7260.34
397.39	8585.08
397.58	9518.96
397.77	10029.20
397.97	10668.16
398.16	10787.53
398.35	11035.63
398.55	11477.99
398.74	11892.26
398.93	12142.70
399.12	11906.31
399.32	11461.60
399.51	11810.34
399.70	12486.76
399.90	12067.80
400.09	12421.22
400.28	12287.81
400.47	12657.62
400.67	12819.11
400.86	13343.39
401.05	13310.63
401.24	13338.71
401.44	13530.64
401.63	13729.58
401.82	13743.63
402.01	13717.88
402.21	13977.68
402.40	13898.10
402.59	13612.56
402.78	12905.71
402.97	12414.20
403.17	13123.38
403.36	13879.38
403.55	14244.50
403.74	14675.16
403.93	13867.67
404.13	12751.24
404.32	12423.56
404.51	13149.13
404.70	14153.22
404.89	14293.65
405.09	13914.48
405.28	13483.83
405.47	13525.96
405.66	13565.74
405.85	13078.91
406.05	13067.21
406.24	13151.47
406.43	13324.67
406.62	13954.27
406.81	14120.45
407.00	13481.49
407.20	13319.99
407.39	13362.12
407.58	13991.72
407.77	14310.04
407.96	15187.74
408.15	14899.85
408.34	15302.42
408.54	15803.30
408.73	15925.00
408.92	15882.88
409.11	15419.45
409.30	14651.75
409.49	13912.14
409.68	12915.08
409.87	12320.58
410.07	13392.55
410.26	14090.02
410.45	15157.31
410.64	15578.61
410.83	15950.75
411.02	16491.41
411.21	17209.96
411.40	16755.90
411.59	17078.89
411.78	16519.50
411.98	16617.80
412.17	16842.50
412.36	16512.48
412.55	16311.19
412.74	16203.53
412.93	16081.82
413.12	16184.80
413.31	17558.70
413.50	17668.70
413.69	18125.11
413.88	17123.36
414.07	16650.57
414.26	17099.95
414.45	17532.95
414.64	17607.85
414.83	17603.17
415.02	17544.66
415.22	17446.35
415.41	18073.62
415.60	18396.61
415.79	18890.46
415.98	19487.30
416.17	19639.44
416.36	18984.09
416.55	18789.82
416.74	18188.30
416.93	17570.40
417.12	17446.35
417.31	17680.41
417.50	18324.05
417.69	18684.50
417.88	18611.94
418.07	18546.40
418.26	18085.32
418.45	18218.73
418.64	18951.32
418.83	19627.73
419.02	19524.75
419.21	19197.07
419.39	18242.14
419.58	17481.46
419.77	17350.39
419.96	18420.02
420.15	19164.31
420.34	20004.56
420.53	20414.15
420.72	20982.90
420.91	20737.15
421.10	20428.20
421.29	20484.37
421.48	19606.67
421.67	20718.42
421.86	20166.06
422.05	19014.51
422.24	16622.48
422.43	16374.39
422.61	18207.03
422.80	19953.07
422.99	19658.16
423.18	19117.50
423.37	18838.97
423.56	18843.65
423.75	19105.79
423.94	19428.79
424.13	18396.61
424.32	18478.53
424.50	18581.51
424.69	18253.84
424.88	18551.09
425.07	18513.64
425.26	18389.59
425.45	18015.10
425.64	17792.75
425.83	17671.04
426.01	19040.26
426.20	19421.77
426.39	19243.88
426.58	17666.36
426.77	16519.50
426.96	15899.26
427.15	16479.71
427.33	17902.76
427.52	18728.97
427.71	18569.81
427.90	18216.39
428.09	18111.07
428.28	18141.49
428.46	17298.90
428.65	17160.81
428.84	17472.10
429.03	17596.15
429.22	16769.94
429.40	15957.77
429.59	14675.16
429.78	12837.84
429.97	13025.08
430.16	13083.59
430.34	12964.23
430.53	12905.71
430.72	13263.82
430.91	14630.69
431.10	17341.03
431.28	20236.27
431.47	21720.17
431.66	22441.06
431.85	20180.10
432.03	18394.27
432.22	17759.98
432.41	18698.54
432.60	20545.22
432.79	21352.71
432.97	21701.45
433.16	21380.79
433.35	19391.34
433.54	17479.12
433.72	16290.13
433.91	17298.90
434.10	18759.39
434.28	20290.10
434.47	21305.90
434.66	21392.50
434.85	20442.24
435.03	20372.02
435.22	20685.65
435.41	22363.82
435.59	22377.86
435.78	22738.30
435.97	23028.53
436.16	23173.64
436.34	22925.55
436.53	22518.29
436.72	22480.85
436.90	21497.82
437.09	21418.24
437.28	20772.25
437.46	21813.79
437.65	21823.16
437.84	20327.55
438.02	18352.14
438.21	18087.66
438.40	19110.47
438.58	21008.65
438.77	21500.16
438.96	21781.03
439.14	22597.87
439.33	23314.08
439.52	23599.62
439.70	22862.35
439.89	21989.33
440.08	21858.26
440.26	21867.63
440.45	22590.85
440.63	24041.98
440.82	25104.59
441.01	25074.16
441.19	24479.66
441.38	25006.28
441.57	25895.69
441.75	26331.03
441.94	26733.60
442.12	25682.70
442.31	26611.89
442.50	26665.72
442.68	26019.74
442.87	25979.95
443.05	25649.93
443.24	26022.08
443.43	26595.51
443.61	27328.10
443.80	27229.79
443.98	26087.61
444.17	25933.14
444.35	27332.78
444.54	27885.14
444.73	27805.56
444.91	26188.25
445.10	25104.59
445.28	24212.84
445.47	23726.01
445.65	24285.40
445.84	24503.07
446.02	25652.27
446.21	25954.20
446.39	26015.05
446.58	26621.25
446.77	27021.48
446.95	26984.04
447.14	27735.35
447.32	28222.18
447.51	27515.34
447.69	26394.22
447.88	26370.82
448.06	26520.61
448.25	27180.64
448.43	27339.80
448.62	27077.66
448.80	26691.47
448.99	26778.07
449.17	27496.61
449.36	26993.40
449.54	27826.63
449.73	28505.38
449.91	28816.68
450.10	29675.65
450.28	29970.56
450.46	29614.80
450.65	29841.83
450.83	29694.38
451.02	28978.17
451.20	29146.69
451.39	29165.42
451.57	28748.80
451.76	28657.52
451.94	28713.69
452.13	27789.18
452.31	26698.49
452.49	25406.52
452.68	25635.89
452.86	25827.81
453.05	26244.43
453.23	27016.80
453.42	27452.14
453.60	28301.76
453.78	28533.47
453.97	28130.90
454.15	27992.81
454.34	27510.66
454.52	28004.51
454.70	26857.65
454.89	27630.02
455.07	27578.53
455.26	28154.30
455.44	28938.38
455.62	29476.71
455.81	29923.75
455.99	29586.71
456.17	28779.23
456.36	29247.33
456.54	30068.86
456.73	30162.48
456.91	30368.45
457.09	30754.64
457.28	30902.09
457.46	29977.58
457.64	29825.45
457.83	29015.62
458.01	28013.87
458.19	28652.84
458.38	29074.13
458.56	30029.07
458.74	29919.07
458.93	29670.97
459.11	29326.91
459.29	29039.03
459.48	29303.51
459.66	28952.43
459.84	29596.07
460.03	29851.19
460.21	29607.78
460.39	30618.89
460.57	30668.04
460.76	31126.78
460.94	30955.93
461.12	30696.13
461.31	30565.06
461.49	30490.16
461.67	30574.42
461.85	31569.15
462.04	31311.69
462.22	32137.90
462.40	31515.31
462.59	31370.20
462.77	31608.93
462.95	31447.44
463.13	30895.07
463.32	30356.75
463.50	30555.69
463.68	30525.27
463.86	30525.27
464.05	30120.35
464.23	29425.22
464.41	29385.43
464.59	28922.00
464.78	30494.84
464.96	30265.47
465.14	30314.62
465.32	30522.93
465.50	31426.37
465.69	31393.61
465.87	31208.70
466.05	30450.37
466.23	29088.18
466.41	28514.75
466.60	29193.50
466.78	29146.69
466.96	29476.71
467.14	29972.90
467.32	30401.22
467.51	30466.75
467.69	28821.36
467.87	29834.81
468.05	30089.93
468.23	30632.93
468.41	30178.87
468.60	30213.98
468.78	30661.02
468.96	30075.88
469.14	30984.01
469.32	30991.03
469.50	29685.01
469.69	29729.48
469.87	29385.43
470.05	28858.81
470.23	29347.98
470.41	29371.38
470.59	29792.68
470.77	29799.70
470.95	30766.34
471.14	30707.83
471.32	30988.69
471.50	32786.22
471.68	32587.28
471.86	33191.14
472.04	33127.94
472.22	33427.53
472.40	31475.52
472.58	31377.22
472.77	30960.61
472.95	31576.17
473.13	32339.18
473.31	31960.02
473.49	31704.90
473.67	32149.60
473.85	32252.58
474.03	33490.73
474.21	33675.63
474.39	33830.10
474.57	33919.04
474.75	34103.95
474.93	33902.66
475.12	33219.22
475.30	32837.72
475.48	33001.55
475.66	33900.32
475.84	33008.58
476.02	33081.13
476.20	32315.78
476.38	32996.87
476.56	33986.92
476.74	34789.72
476.92	34590.78
477.10	34981.65
477.28	36144.89
477.46	36311.07
477.64	36556.83
477.82	36474.91
478.00	36877.48
478.18	36301.71
478.36	36130.85
478.54	36107.44
478.72	36402.35
478.90	37305.80
479.08	38188.18
479.26	38471.39
479.44	38230.31
479.62	38288.82
479.80	38403.51
479.98	38195.20
480.16	38827.15
480.34	37858.17
480.52	39140.78
480.70	38719.48
480.88	38902.04
481.06	39697.83
481.24	39702.51
481.41	40730.00
481.59	41764.52
481.77	40708.94
481.95	40273.60
482.13	40072.31
482.31	40760.43
482.49	41193.43
482.67	41219.17
482.85	41111.51
483.03	42124.96
483.21	42103.90
483.39	42054.75
483.57	41474.29
483.74	41139.60
483.92	41354.93
484.10	41481.31
484.28	42511.15
484.46	42932.45
484.64	43239.06
484.82	42335.61
485.00	42307.52
485.18	41155.98
485.35	39854.64
485.53	36926.63
485.71	33710.74
485.89	33191.14
486.07	34670.36
486.25	37825.40
486.43	40376.58
486.61	40800.22
486.78	41214.49
486.96	41258.96
487.14	42277.10
487.32	43442.68
487.50	44701.89
487.68	45525.76
487.85	46543.89
488.03	46307.50
488.21	45682.58
488.39	45090.42
488.57	44451.45
488.75	43473.11
488.92	44835.30
489.10	47531.60
489.28	49038.90
489.46	49806.60
489.64	49834.69
489.81	49645.10
489.99	49198.06
490.17	49476.58
490.35	49825.32
490.53	49418.07
490.70	48617.61
490.88	48835.28
491.06	49867.45
491.24	50019.59
491.41	48825.92
491.59	46569.64
491.77	45586.61
491.95	46897.31
492.13	48610.59
492.30	49848.73
492.48	51077.51
492.66	51512.85
492.84	51250.71
493.01	51086.87
493.19	50295.77
493.37	49914.26
493.54	49991.50
493.72	50382.37
493.90	51622.86
494.08	52612.90
494.25	52949.94
494.43	53027.18
494.61	53331.45
494.79	53532.73
494.96	53027.18
495.14	52624.60
495.32	51288.16
495.49	51105.60
495.67	52133.09
495.85	53247.19
496.02	53942.33
496.20	53743.38
496.38	53247.19
496.55	53310.38
496.73	53790.19
496.91	53879.13
497.09	54349.58
497.26	54756.83
497.44	53947.01
497.62	53464.86
497.79	52615.24
497.97	51281.14
498.14	51384.12
498.32	52727.59
498.50	53593.59
498.67	54190.42
498.85	54155.32
499.03	54349.58
499.20	54536.82
499.38	54529.80
499.56	54452.56
499.73	53961.05
499.91	53343.15
500.08	53043.56
500.26	51840.53
500.44	52556.73
500.61	53317.40
500.79	53069.31
500.97	52992.07
501.14	52453.75
501.32	52399.91
501.49	52350.76
501.67	52561.41
501.84	53165.27
502.02	53736.36
502.20	53883.81
502.37	54255.96
502.55	53897.86
502.72	54534.48
502.90	55131.32
503.07	54817.69
503.25	54639.81
503.43	53734.02
503.60	53069.31
503.78	52177.56
503.95	52495.88
504.13	54405.75
504.30	54883.22
504.48	54412.77
504.65	54174.04
504.83	54511.08
505.01	55004.93
505.18	55377.08
505.36	56086.26
505.53	56177.54
505.71	56392.87
505.88	56329.67
506.06	55718.79
506.23	55201.53
506.41	54899.61
506.58	55140.68
506.76	55290.48
506.93	55365.37
507.11	54930.03
507.28	55075.15
507.46	54576.61
507.63	53792.53
507.81	53565.50
507.98	53944.67
508.16	54614.06
508.33	55306.86
508.50	55688.37
508.68	56285.20
508.85	56535.64
509.03	56561.39
509.20	56343.72
509.38	55489.42
509.55	54990.89
509.73	54756.83
509.90	55283.45
510.08	55896.67
510.25	55491.76
510.42	55473.04
510.60	55370.05
510.77	55463.67
510.95	56170.52
511.12	56554.36
511.30	56727.56
511.47	56912.47
511.64	56975.66
511.82	56577.77
511.99	55662.62
512.17	55126.64
512.34	54866.84
512.51	54831.73
512.69	55054.08
512.86	55203.88
513.04	55667.30
513.21	55873.27
513.38	55271.75
513.56	54635.13
513.73	54300.43
513.90	54415.11
514.08	54321.49
514.25	54637.47
514.43	54939.39
514.60	55021.31
514.77	55288.13
514.95	55496.44
515.12	55341.97
515.29	55384.10
515.47	56090.94
515.64	56299.25
515.81	55889.65
515.99	55025.99
516.16	53565.50
516.33	51117.30
516.51	49282.32
516.68	48629.31
516.85	47714.16
517.03	48587.18
517.20	51171.13
517.37	54260.64
517.54	55430.91
517.72	54824.71
517.89	52126.07
518.06	49209.76
518.24	49359.56
518.41	52411.62
518.58	53464.86
518.75	53829.98
518.93	54019.56
519.10	54031.27
519.27	54618.74
519.45	54843.43
519.62	55430.91
519.79	55997.32
519.96	55807.73
520.14	55285.79
520.31	54267.66
520.48	54234.89
520.65	54766.20
520.83	55573.68
521.00	55999.66
521.17	55686.03
521.34	55159.41
521.52	55428.57
521.69	56114.34
521.86	56629.26
522.03	56456.06
522.20	55056.42
522.38	54014.88
522.55	53869.77
522.72	54497.03
522.89	54789.60
523.07	54927.69
523.24	55238.98
523.41	56020.72
523.58	56362.44
523.75	56942.89
523.92	56917.15
524.10	56701.82
524.27	56673.73
524.44	56442.02
524.61	56238.39
524.78	56339.04
524.96	56121.37
525.13	56006.68
525.30	56186.90
525.47	56910.13
525.64	56699.48
525.81	55955.19
525.98	54340.22
526.16	52739.29
526.33	52074.58
526.50	51655.62
526.67	51173.47
526.84	51826.48
527.01	53200.38
527.18	53923.60
527.36	55033.02
527.53	55906.04
527.70	56046.47
527.87	55529.21
528.04	55238.98
528.21	55547.93
528.38	56254.78
528.55	56858.63
528.72	57291.63
528.89	57265.89
529.07	57132.48
529.24	56591.81
529.41	55660.28
529.58	55182.81
529.75	55215.58
529.92	55763.26
530.09	56079.24
530.26	56542.66
530.43	57015.45
530.60	56736.93
530.77	56935.87
530.94	57205.03
531.11	56666.71
531.28	56175.20
531.46	56086.26
531.63	56353.08
531.80	56060.51
531.97	55838.16
532.14	54815.35
532.31	53832.32
532.48	52999.09
532.65	53099.73
532.82	54361.28
532.99	55370.05
533.16	55908.38
533.33	56065.19
533.50	55927.10
533.67	55381.76
533.84	55007.27
534.01	55269.41
534.18	55360.69
534.35	55587.72
534.52	55323.24
534.69	55739.86
534.86	55973.91
535.03	56191.58
535.20	56856.29
535.37	57198.01
535.54	57258.87
535.71	56697.14
535.88	56687.78
536.05	55847.52
536.22	55458.99
536.38	54932.37
536.55	54398.73
536.72	53771.47
536.89	53876.79
537.06	54721.72
537.23	55667.30
537.40	55938.80
537.57	55976.25
537.74	55468.36
537.91	55458.99
538.08	55470.70
538.25	55524.53
538.42	55875.61
538.59	55592.40
538.75	55077.49
538.92	54525.12
539.09	54445.54
539.26	54199.79
539.43	54237.23
539.60	54096.80
539.77	54382.35
539.94	54068.72
540.11	53579.54
540.28	52963.98
540.44	52877.38
540.61	52807.17
540.78	53549.12
540.95	54244.26
541.12	54251.28
541.29	54742.79
541.46	55075.15
541.62	54906.63
541.79	55082.17
541.96	54155.32
542.13	54185.74
542.30	54663.21
542.47	54569.59
542.63	54433.84
542.80	54052.33
542.97	54230.21
543.14	54110.85
543.31	54316.81
543.48	54759.17
543.64	55697.73
543.81	56058.17
543.98	55655.60
544.15	55124.30
544.32	54241.92
544.48	54319.15
544.65	54997.91
544.82	55288.13
544.99	55091.53
545.16	54330.86
545.32	54279.36
545.49	55276.43
545.66	55519.85
545.83	55042.38
546.00	54780.24
546.16	54403.41
546.33	54391.71
546.50	54618.74
546.67	54941.74
546.83	54660.87
547.00	54553.21
547.17	53918.92
547.34	53497.62
547.50	52949.94
547.67	53717.64
547.84	53860.41
548.00	54258.30
548.17	54607.04
548.34	54347.24
548.51	54475.97
548.67	54518.10
548.84	54447.88
549.01	54597.68
549.18	54277.02
549.34	54293.41
549.51	54375.33
549.68	54485.33
549.84	53939.99
550.01	53865.09
550.18	53745.72
550.34	54089.78
550.51	53923.60
550.68	53989.14
550.84	53272.93
551.01	53752.74
551.18	53497.62
551.34	53673.16
551.51	54213.83
551.68	54436.18
551.84	54412.77
552.01	54356.60
552.18	53947.01
552.34	53064.63
552.51	52868.02
552.68	52612.90
552.84	53392.30
553.01	53715.29
553.18	53336.13
553.34	53485.92
553.51	53722.32
553.67	53666.14
553.84	54274.68
554.01	54005.52
554.17	53530.39
554.34	53907.22
554.51	53757.42
554.67	54429.16
554.84	54005.52
555.00	53439.11
555.17	53628.69
555.33	53228.46
555.50	53565.50
555.67	53113.78
555.83	53205.06
556.00	52849.30
556.16	53048.24
556.33	52303.95
556.50	52229.05
556.66	52273.52
556.83	51870.95
556.99	52133.09
557.16	52280.55
557.32	52706.52
557.49	52727.59
557.65	52729.93
557.82	52680.78
557.98	52568.43
558.15	51903.72
558.32	51140.71
558.48	50213.85
558.65	50019.59
558.81	50618.77
558.98	51033.04
559.14	51332.63
559.31	51522.21
559.47	51419.23
559.64	50976.87
559.80	50908.99
559.97	50808.35
560.13	50997.93
560.30	52205.65
560.46	52746.31
560.63	53125.48
560.79	53188.67
560.96	52790.78
561.12	51594.77
561.29	50471.31
561.45	50384.71
561.61	51114.96
561.78	51590.09
561.94	51365.40
562.11	51131.34
562.27	50937.08
562.44	51814.78
562.60	51679.03
562.77	51959.89
562.93	52076.92
563.10	51756.27
563.26	51136.02
563.42	51276.46
563.59	50815.37
563.75	51171.13
563.92	51040.06
564.08	51009.64
564.24	51210.92
564.41	51468.38
564.57	51096.24
564.74	50700.68
564.90	50965.17
565.07	50955.80
565.23	49940.01
565.39	49254.23
565.56	48961.67
565.72	48907.83
565.88	49422.75
566.05	49308.07
566.21	49977.46
566.38	49846.39
566.54	50155.34
566.70	50686.64
566.87	50813.03
567.03	50887.93
567.19	51100.92
567.36	50651.53
567.52	50965.17
567.68	50328.54
567.85	49610.00
568.01	49137.21
568.17	48797.83
568.34	48390.58
568.50	48800.17
568.66	48858.68
568.83	49137.21
568.99	49165.29
569.15	49642.76
569.32	49731.70
569.48	49272.96
569.64	48961.67
569.81	48823.58
569.97	48114.39
570.13	48362.49
570.30	47866.30
570.46	47419.25
570.62	46567.30
570.78	46206.86
570.95	46909.02
571.11	47494.15
571.27	47746.93
571.43	48172.91
571.60	48367.17
571.76	48896.13
571.92	48882.09
572.09	49303.38
572.25	48933.58
572.41	49296.36
572.57	48828.26
572.74	48896.13
572.90	48481.86
573.06	48538.03
573.22	48823.58
573.38	48619.95
573.55	48563.78
573.71	48751.02
573.87	48598.88
574.03	48444.41
574.20	48020.77
574.36	47887.36
574.52	47842.89
574.68	47622.88
574.84	47126.69
575.01	46813.05
575.17	46487.72
575.33	47021.36
575.49	47122.01
575.65	47147.75
575.82	47033.07
575.98	46796.67
576.14	47136.05
576.30	47585.43
576.46	47475.43
576.62	47278.82
576.79	47143.07
576.95	46630.49
577.11	46459.63
577.27	47234.35
577.43	46740.50
577.59	46644.54
577.75	46244.30
577.92	45298.73
578.08	44861.05
578.24	45303.41
578.40	45553.85
578.56	45785.56
578.72	45904.93
578.88	46256.01
579.04	46602.41
579.21	46274.73
579.37	46553.26
579.53	46539.21
579.69	46394.10
579.85	46768.58
580.01	46237.28
580.17	46075.79
580.33	46033.66
580.49	46136.64
580.65	46164.73
580.82	46995.62
580.98	46506.44
581.14	46567.30
581.30	46520.49
581.46	46110.89
581.62	46653.90
581.78	46623.47
581.94	46848.16
582.10	46433.89
582.26	46562.62
582.42	46770.93
582.58	46740.50
582.74	46974.55
582.90	46621.13
583.06	46642.20
583.22	46312.18
583.38	46476.02
583.54	46005.57
583.70	46099.19
583.86	46183.45
584.02	45883.86
584.18	45895.56
584.34	46014.93
584.50	45827.69
584.66	45446.18
584.82	45174.68
584.98	45343.20
585.14	44797.85
585.30	43629.93
