SpectraSuite Data File
++++++++++++++++++++++++++++++++++++
Date: Mon Oct 07 14:54:55 GMT-05:00 2013
User: price-jones
Dark Spectrum Present: No
Reference Spectrum Present: No
Number of Sampled Component Spectra: 1
Spectrometers: USB2+H05261
Integration Time (usec): 10000 (USB2+H05261)
Spectra Averaged: 1 (USB2+H05261)
Boxcar Smoothing: 0 (USB2+H05261)
Correct for Electrical Dark: No (USB2+H05261)
Strobe/Lamp Enabled: No (USB2+H05261)
Correct for Detector Non-linearity: No (USB2+H05261)
Correct for Stray Light: No (USB2+H05261)
Number of Pixels in Processed Spectrum: 2048
>>>>>Begin Processed Spectral Data<<<<<
365.73	0.00
365.92	0.00
366.12	0.00
366.32	0.00
366.52	0.00
366.72	0.00
366.91	0.00
367.11	0.00
367.31	0.00
367.51	0.00
367.70	0.00
367.90	0.00
368.10	0.00
368.30	0.00
368.49	0.00
368.69	0.00
368.89	0.00
369.09	0.00
369.28	0.00
369.48	0.00
369.68	0.00
369.87	0.00
370.07	0.00
370.27	0.00
370.47	0.00
370.66	0.00
370.86	0.00
371.06	0.00
371.25	0.00
371.45	9.36
371.65	0.00
371.84	0.00
372.04	0.00
372.24	0.00
372.44	70.22
372.63	14.04
372.83	9.36
373.03	0.00
373.22	0.00
373.42	0.00
373.62	0.00
373.81	16.38
374.01	25.75
374.21	0.00
374.40	0.00
374.60	74.90
374.79	0.00
374.99	42.13
375.19	107.66
375.38	154.48
375.58	56.17
375.78	79.58
375.97	79.58
376.17	124.05
376.37	79.58
376.56	131.07
376.76	107.66
376.95	147.45
377.15	110.01
377.35	147.45
377.54	234.05
377.74	201.29
377.93	259.80
378.13	208.31
378.33	208.31
378.52	166.18
378.72	180.22
378.91	53.83
379.11	154.48
379.31	105.32
379.50	74.90
379.70	140.43
379.89	196.60
380.09	156.82
380.28	191.92
380.48	180.22
380.68	184.90
380.87	161.50
381.07	168.52
381.26	110.01
381.46	107.66
381.65	2.34
381.85	147.45
382.04	28.09
382.24	53.83
382.43	98.30
382.63	53.83
382.83	2.34
383.02	0.00
383.22	7.02
383.41	0.00
383.61	0.00
383.80	112.35
384.00	88.94
384.19	168.52
384.39	131.07
384.58	177.88
384.78	187.24
384.97	149.79
385.17	95.96
385.36	243.42
385.56	79.58
385.75	102.98
385.95	159.16
386.14	149.79
386.34	170.86
386.53	135.75
386.72	28.09
386.92	224.69
387.11	177.88
387.31	215.33
387.50	173.20
387.70	145.11
387.89	208.31
388.09	84.26
388.28	201.29
388.48	229.37
388.67	229.37
388.86	173.20
389.06	292.57
389.25	315.97
389.45	290.23
389.64	407.25
389.84	255.12
390.03	379.17
390.22	327.68
390.42	220.01
390.61	299.59
390.81	454.06
391.00	472.79
391.19	425.98
391.39	332.36
391.58	339.38
391.78	367.46
391.97	227.03
392.16	327.68
392.36	173.20
392.55	95.96
392.75	46.81
392.94	44.47
393.13	44.47
393.33	25.75
393.52	119.37
393.71	187.24
393.91	250.44
394.10	341.72
394.29	397.89
394.49	353.42
394.68	564.07
394.88	475.13
395.07	468.11
395.26	430.66
395.46	393.21
395.65	416.62
395.84	395.55
396.04	210.65
396.23	161.50
396.42	35.11
396.62	126.39
396.81	156.82
397.00	238.73
397.19	369.80
397.39	486.83
397.58	554.71
397.77	514.92
397.97	657.69
398.16	650.67
398.35	599.18
398.55	674.07
398.74	755.99
398.93	751.31
399.12	695.14
399.32	676.41
399.51	765.36
399.70	711.52
399.90	741.95
400.09	755.99
400.28	730.25
400.47	805.14
400.67	699.82
400.86	767.70
401.05	861.32
401.24	786.42
401.44	875.36
401.63	849.61
401.82	856.64
402.01	812.17
402.21	826.21
402.40	884.72
402.59	805.14
402.78	758.33
402.97	816.85
403.17	795.78
403.36	931.53
403.55	950.26
403.74	807.48
403.93	856.64
404.13	791.10
404.32	739.61
404.51	847.27
404.70	929.19
404.89	767.70
405.09	866.00
405.28	753.65
405.47	791.10
405.66	863.66
405.85	821.53
406.05	786.42
406.24	840.25
406.43	840.25
406.62	884.72
406.81	1006.43
407.00	812.17
407.20	842.59
407.39	746.63
407.58	821.53
407.77	1001.75
407.96	1004.09
408.15	959.62
408.34	936.21
408.54	994.73
408.73	954.94
408.92	1046.22
409.11	936.21
409.30	880.04
409.49	812.17
409.68	772.38
409.87	730.25
410.07	835.57
410.26	903.45
410.45	922.17
410.64	1076.65
410.83	1018.13
411.02	1027.50
411.21	1137.50
411.40	1111.75
411.59	1102.39
411.78	1090.69
411.98	1018.13
412.17	1137.50
412.36	1111.75
412.55	1025.15
412.74	1055.58
412.93	1043.88
413.12	990.05
413.31	1153.88
413.50	1149.20
413.69	1135.16
413.88	1064.94
414.07	1039.20
414.26	1118.78
414.45	1020.47
414.64	1090.69
414.83	1060.26
415.02	1048.56
415.22	1160.91
415.41	1114.10
415.60	1130.48
415.79	1224.10
415.98	1268.57
416.17	1423.05
416.36	1301.34
416.55	1217.08
416.74	1135.16
416.93	1165.59
417.12	1062.60
417.31	1174.95
417.50	1167.93
417.69	1142.18
417.88	1277.93
418.07	1196.01
418.26	1130.48
418.45	1095.37
418.64	1268.57
418.83	1280.27
419.02	1245.16
419.21	1275.59
419.39	1210.06
419.58	1100.05
419.77	1125.80
419.96	1181.97
420.15	1273.25
420.34	1261.55
420.53	1308.36
420.72	1380.92
420.91	1336.45
421.10	1336.45
421.29	1320.06
421.48	1249.85
421.67	1291.98
421.86	1212.40
422.05	1291.98
422.24	1081.33
422.43	1046.22
422.61	1139.84
422.80	1322.40
422.99	1313.04
423.18	1196.01
423.37	1184.31
423.56	1203.04
423.75	1210.06
423.94	1179.63
424.13	1193.67
424.32	1240.48
424.50	1252.19
424.69	1130.48
424.88	1130.48
425.07	1153.88
425.26	1177.29
425.45	1083.67
425.64	1252.19
425.83	1088.35
426.01	1186.65
426.20	1303.68
426.39	1249.85
426.58	1130.48
426.77	1123.46
426.96	868.34
427.15	1041.54
427.33	1100.05
427.52	1259.21
427.71	1210.06
427.90	1240.48
428.09	1128.14
428.28	1102.39
428.46	1048.56
428.65	1104.73
428.84	1114.10
429.03	1043.88
429.22	1041.54
429.40	961.96
429.59	873.02
429.78	690.46
429.97	699.82
430.16	699.82
430.34	767.70
430.53	835.57
430.72	821.53
430.91	945.58
431.10	987.71
431.28	1352.83
431.47	1366.87
431.66	1455.81
431.85	1348.15
432.03	1214.74
432.22	1029.84
432.41	1196.01
432.60	1310.70
432.79	1385.60
432.97	1441.77
433.16	1350.49
433.35	1306.02
433.54	1188.99
433.72	994.73
433.91	1095.37
434.10	1224.10
434.28	1320.06
434.47	1458.15
434.66	1394.96
434.85	1336.45
435.03	1219.42
435.22	1369.21
435.41	1420.71
435.59	1462.83
435.78	1486.24
435.97	1516.67
436.16	1423.05
436.34	1472.20
436.53	1446.45
436.72	1401.98
436.90	1345.81
437.09	1315.38
437.28	1247.51
437.46	1383.26
437.65	1390.28
437.84	1261.55
438.02	1198.35
438.21	1174.95
438.40	1242.82
438.58	1303.68
438.77	1483.90
438.96	1432.41
439.14	1481.56
439.33	1565.82
439.52	1600.93
439.70	1540.07
439.89	1444.11
440.08	1420.71
440.26	1481.56
440.45	1420.71
440.63	1486.24
440.82	1626.67
441.01	1710.93
441.19	1570.50
441.38	1593.90
441.57	1680.50
441.75	1710.93
441.94	1703.91
442.12	1685.19
442.31	1776.47
442.50	1795.19
442.68	1654.76
442.87	1715.61
443.05	1675.82
443.24	1643.06
443.43	1692.21
443.61	1732.00
443.80	1753.06
443.98	1572.84
444.17	1631.35
444.35	1827.96
444.54	1830.30
444.73	1757.74
444.91	1706.25
445.10	1603.27
445.28	1521.35
445.47	1549.43
445.65	1577.52
445.84	1540.07
446.02	1593.90
446.21	1750.72
446.39	1603.27
446.58	1753.06
446.77	1750.72
446.95	1783.49
447.14	1860.73
447.32	1750.72
447.51	1849.02
447.69	1774.13
447.88	1668.80
448.06	1811.57
448.25	1849.02
448.43	1802.21
448.62	1668.80
448.80	1647.74
448.99	1762.42
449.17	1666.46
449.36	1764.76
449.54	1851.36
449.73	1844.34
449.91	1888.81
450.10	1996.48
450.28	1966.05
450.46	2022.22
450.65	1998.82
450.83	1919.24
451.02	1802.21
451.20	1919.24
451.39	1820.94
451.57	1959.03
451.76	1940.30
451.94	1834.98
452.13	1898.17
452.31	1748.38
452.49	1600.93
452.68	1568.16
452.86	1696.89
453.05	1753.06
453.23	1734.34
453.42	1710.93
453.60	1830.30
453.78	1722.63
453.97	1912.22
454.15	1823.28
454.34	1792.85
454.52	1736.68
454.70	1795.19
454.89	1797.53
455.07	1741.36
455.26	1907.54
455.44	2005.84
455.62	1935.62
455.81	1926.26
455.99	1966.05
456.17	1902.86
456.36	1940.30
456.54	1928.60
456.73	1909.88
456.91	1935.62
457.09	1952.01
457.28	2066.69
457.46	1916.90
457.64	1863.07
457.83	1825.62
458.01	1849.02
458.19	1891.15
458.38	1879.45
458.56	2090.10
458.74	1912.22
458.93	1785.83
459.11	1963.71
459.29	1799.87
459.48	1895.83
459.66	1825.62
459.84	1804.55
460.03	1961.37
460.21	1928.60
460.39	1996.48
460.57	1926.26
460.76	1987.11
460.94	1919.24
461.12	1940.30
461.31	1982.43
461.49	1968.39
461.67	2003.50
461.85	1989.46
462.04	2087.76
462.22	2092.44
462.40	2150.95
462.59	2066.69
462.77	2001.16
462.95	2052.65
463.13	2099.46
463.32	1886.47
463.50	1947.33
463.68	1870.09
463.86	1956.69
464.05	2008.18
464.23	1827.96
464.41	1942.64
464.59	1966.05
464.78	1902.86
464.96	1898.17
465.14	1825.62
465.32	1966.05
465.50	1987.11
465.69	2017.54
465.87	1984.77
466.05	2012.86
466.23	1846.68
466.41	1762.42
466.60	1788.17
466.78	1830.30
466.96	1935.62
467.14	1930.94
467.32	2024.56
467.51	1959.03
467.69	1816.26
467.87	1834.98
468.05	1879.45
468.23	1902.86
468.41	1858.39
468.60	1907.54
468.78	1923.92
468.96	1902.86
469.14	1966.05
469.32	1991.80
469.50	1893.49
469.69	1886.47
469.87	1832.64
470.05	1860.73
470.23	1944.99
470.41	1884.13
470.59	1881.79
470.77	1842.00
470.95	2073.71
471.14	1989.46
471.32	2094.78
471.50	2045.63
471.68	2108.82
471.86	2083.08
472.04	2214.15
472.22	2008.18
472.40	2045.63
472.58	1987.11
472.77	1898.17
472.95	1940.30
473.13	2195.42
473.31	2064.35
473.49	2129.89
473.67	2099.46
473.85	2064.35
474.03	2143.93
474.21	2209.47
474.39	2190.74
474.57	2265.64
474.75	2153.29
474.93	2097.12
475.12	2069.03
475.30	2209.47
475.48	2176.70
475.66	2223.51
475.84	2176.70
476.02	2062.01
476.20	2012.86
476.38	2139.25
476.56	2204.78
476.74	2204.78
476.92	2092.44
477.10	2216.49
477.28	2356.92
477.46	2366.28
477.64	2289.04
477.82	2277.34
478.00	2441.18
478.18	2317.13
478.36	2333.51
478.54	2195.42
478.72	2326.49
478.90	2305.43
479.08	2385.01
479.26	2422.45
479.44	2579.27
479.62	2590.97
479.80	2600.34
479.98	2495.01
480.16	2555.86
480.34	2441.18
480.52	2452.88
480.70	2478.63
480.88	2487.99
481.06	2473.95
481.24	2537.14
481.41	2703.32
481.59	2628.42
481.77	2626.08
481.95	2628.42
482.13	2656.51
482.31	2675.23
482.49	2651.83
482.67	2644.81
482.85	2708.00
483.03	2738.43
483.21	2738.43
483.39	2754.81
483.57	2628.42
483.74	2675.23
483.92	2668.21
484.10	2661.19
484.28	2782.90
484.46	2813.32
484.64	2806.30
484.82	2789.92
485.00	2649.49
485.18	2705.66
485.35	2551.18
485.53	2352.24
485.71	2136.91
485.89	2111.16
486.07	2169.68
486.25	2415.43
486.43	2544.16
486.61	2635.44
486.78	2626.08
486.96	2551.18
487.14	2829.71
487.32	2909.29
487.50	2974.82
487.68	3042.70
487.85	2923.33
488.03	3080.14
488.21	2988.86
488.39	2803.96
488.57	2850.77
488.75	2775.88
488.92	2869.50
489.10	3206.53
489.28	3318.88
489.46	3358.67
489.64	3353.99
489.81	3339.94
489.99	3246.32
490.17	3229.94
490.35	3391.44
490.53	3314.20
490.70	3283.77
490.88	3194.83
491.06	3276.75
491.24	3325.90
491.41	3290.79
491.59	3082.49
491.77	3023.97
491.95	3052.06
492.13	3201.85
492.30	3227.60
492.48	3337.60
492.66	3489.74
492.84	3419.52
493.01	3463.99
493.19	3375.05
493.37	3522.51
493.54	3248.66
493.72	3578.68
493.90	3494.42
494.08	3719.11
494.25	3735.50
494.43	3646.55
494.61	3730.81
494.79	3796.35
494.96	3756.56
495.14	3571.66
495.32	3566.98
495.49	3506.12
495.67	3585.70
495.85	3716.77
496.02	3840.82
496.20	3756.56
496.38	3667.62
496.55	3684.00
496.73	3784.65
496.91	3789.33
497.09	3932.10
497.26	3808.05
497.44	3815.07
497.62	3707.41
497.79	3578.68
497.97	3550.59
498.14	3520.17
498.32	3543.57
498.50	3777.62
498.67	3744.86
498.85	3911.04
499.03	3920.40
499.20	3836.14
499.38	3967.21
499.56	3798.69
499.73	3826.78
499.91	3763.58
500.08	3538.89
500.26	3564.64
500.44	3693.37
500.61	3798.69
500.79	3789.33
500.97	3679.32
501.14	3688.68
501.32	3679.32
501.49	3609.11
501.67	3637.19
501.84	3613.79
502.02	3758.90
502.20	3669.96
502.37	3737.84
502.55	3819.75
502.72	3852.52
502.90	3859.54
503.07	3906.35
503.25	3789.33
503.43	3796.35
503.60	3583.36
503.78	3653.58
503.95	3667.62
504.13	3896.99
504.30	3843.16
504.48	3868.91
504.65	3735.50
504.83	3831.46
505.01	3882.95
505.18	4105.30
505.36	4042.11
505.53	4098.28
505.71	4067.85
505.88	4149.77
506.06	3988.27
506.23	3894.65
506.41	4039.76
506.58	3864.22
506.76	3873.59
506.93	4023.38
507.11	3850.18
507.28	3911.04
507.46	3939.12
507.63	3796.35
507.81	3681.66
507.98	3707.41
508.16	3801.03
508.33	3878.27
508.50	3957.85
508.68	4191.90
508.85	4159.13
509.03	4138.07
509.20	4053.81
509.38	3967.21
509.55	3768.26
509.73	3794.01
509.90	3887.63
510.08	4030.40
510.25	4016.36
510.42	3925.08
510.60	3988.27
510.77	4014.02
510.95	3997.64
511.12	3932.10
511.30	4175.52
511.47	4236.37
511.64	4124.02
511.82	4191.90
511.99	3967.21
512.17	3896.99
512.34	3819.75
512.51	3836.14
512.69	3899.33
512.86	3953.16
513.04	4044.45
513.21	3896.99
513.38	4032.74
513.56	3808.05
513.73	3742.52
513.90	3754.22
514.08	3798.69
514.25	3782.31
514.43	3817.41
514.60	3782.31
514.77	3836.14
514.95	4091.26
515.12	3906.35
515.29	3887.63
515.47	4065.51
515.64	4037.42
515.81	4046.79
515.99	3936.78
516.16	3744.86
516.33	3375.05
516.51	3239.30
516.68	3119.93
516.85	3035.67
517.03	3082.49
517.20	3307.18
517.37	3810.39
517.54	3929.76
517.72	3829.12
517.89	3529.53
518.06	3183.13
518.24	3225.26
518.41	3566.98
518.58	3833.80
518.75	3726.13
518.93	3779.97
519.10	3803.37
519.27	3791.67
519.45	3934.44
519.62	3875.93
519.79	4018.70
519.96	3995.29
520.14	3934.44
520.31	3824.44
520.48	3796.35
520.65	3838.48
520.83	3960.19
521.00	4107.64
521.17	4095.94
521.34	3920.40
521.52	3915.72
521.69	4051.47
521.86	4032.74
522.03	4084.23
522.20	3932.10
522.38	3765.92
522.55	3693.37
522.72	3602.08
522.89	3742.52
523.07	3826.78
523.24	3861.88
523.41	3908.69
523.58	4046.79
523.75	4194.24
523.92	4109.98
524.10	4025.72
524.27	4112.32
524.44	4011.68
524.61	4060.83
524.78	4030.40
524.96	3779.97
525.13	3943.80
525.30	4102.96
525.47	4187.22
525.64	4105.30
525.81	3997.64
525.98	3817.41
526.16	3552.93
526.33	3471.01
526.50	3475.70
526.67	3438.25
526.84	3368.03
527.01	3637.19
527.18	3613.79
527.36	3784.65
527.53	3899.33
527.70	3992.95
527.87	3927.42
528.04	3693.37
528.21	3772.94
528.38	3971.89
528.55	4159.13
528.72	4067.85
528.89	4313.61
529.07	4049.13
529.24	4004.66
529.41	4032.74
529.58	3889.97
529.75	3934.44
529.92	3990.61
530.09	3967.21
530.26	4177.86
530.43	4259.78
530.60	4056.15
530.77	4086.58
530.94	4133.39
531.11	4030.40
531.28	3943.80
531.46	3960.19
531.63	4114.66
531.80	3978.91
531.97	4044.45
532.14	3836.14
532.31	3639.53
532.48	3562.30
532.65	3503.78
532.82	3803.37
532.99	3854.86
533.16	3939.12
533.33	4126.36
533.50	3971.89
533.67	3852.52
533.84	3665.28
534.01	3789.33
534.18	3925.08
534.35	3971.89
534.52	3929.76
534.69	3878.27
534.86	4021.04
535.03	3915.72
535.20	4133.39
535.37	4011.68
535.54	4030.40
535.71	4028.06
535.88	3899.33
536.05	4021.04
536.22	3812.73
536.38	3684.00
536.55	3777.62
536.72	3667.62
536.89	3609.11
537.06	3630.17
537.23	3882.95
537.40	3932.10
537.57	3911.04
537.74	4039.76
537.91	3878.27
538.08	3885.29
538.25	3988.27
538.42	4105.30
538.59	3789.33
538.75	3840.82
538.92	3691.02
539.09	3693.37
539.26	3754.22
539.43	3714.43
539.60	3772.94
539.77	3681.66
539.94	3693.37
540.11	3693.37
540.28	3513.14
540.44	3655.92
540.61	3665.28
540.78	3756.56
540.95	3737.84
541.12	3716.77
541.29	3908.69
541.46	3702.73
541.62	3735.50
541.79	3847.84
541.96	3616.13
542.13	3588.04
542.30	3756.56
542.47	3960.19
542.63	3702.73
542.80	3716.77
542.97	3676.98
543.14	3761.24
543.31	3747.20
543.48	3786.99
543.64	3761.24
543.81	3920.40
543.98	3885.29
544.15	3779.97
544.32	3775.28
544.48	3784.65
544.65	3794.01
544.82	3805.71
544.99	3740.18
545.16	3702.73
545.32	3702.73
545.49	3829.12
545.66	3934.44
545.83	3868.91
546.00	3782.31
546.16	3782.31
546.33	3761.24
546.50	3726.13
546.67	3667.62
546.83	3730.81
547.00	3716.77
547.17	3672.30
547.34	3576.34
547.50	3571.66
547.67	3618.47
547.84	3559.95
548.00	3777.62
548.17	3784.65
548.34	3726.13
548.51	3695.71
548.67	3674.64
548.84	3735.50
549.01	3803.37
549.18	3623.15
549.34	3885.29
549.51	3681.66
549.68	3646.55
549.84	3627.83
550.01	3674.64
550.18	3609.11
550.34	3522.51
550.51	3534.21
550.68	3730.81
550.84	3644.21
551.01	3630.17
551.18	3672.30
551.34	3658.26
551.51	3684.00
551.68	3536.55
551.84	3714.43
552.01	3555.27
552.18	3691.02
552.34	3616.13
552.51	3417.18
552.68	3454.63
552.84	3627.83
553.01	3634.85
553.18	3555.27
553.34	3637.19
553.51	3482.72
553.67	3597.40
553.84	3698.05
554.01	3634.85
554.17	3625.49
554.34	3447.61
554.51	3515.48
554.67	3515.48
554.84	3662.94
555.00	3569.32
555.17	3583.36
555.33	3510.80
555.50	3630.17
555.67	3604.42
555.83	3641.87
556.00	3550.59
556.16	3508.46
556.33	3478.04
556.50	3407.82
556.66	3482.72
556.83	3276.75
556.99	3335.26
557.16	3459.31
557.32	3309.52
557.49	3412.50
557.65	3545.91
557.82	3569.32
557.98	3475.70
558.15	3309.52
558.32	3225.26
558.48	3260.37
558.65	3119.93
558.81	3246.32
558.98	3332.92
559.14	3330.58
559.31	3192.49
559.47	3426.54
559.64	3283.77
559.80	3166.74
559.97	3124.62
560.13	3314.20
560.30	3393.78
560.46	3398.46
560.63	3454.63
560.79	3407.82
560.96	3358.67
561.12	3361.01
561.29	3302.50
561.45	3262.71
561.61	3368.03
561.78	3295.47
561.94	3398.46
562.11	3440.59
562.27	3342.28
562.44	3398.46
562.60	3356.33
562.77	3410.16
562.93	3405.48
563.10	3410.16
563.26	3220.58
563.42	3332.92
563.59	3274.41
563.75	3314.20
563.92	3297.81
564.08	3192.49
564.24	3421.86
564.41	3227.60
564.57	3290.79
564.74	3342.28
564.90	3222.92
565.07	3288.45
565.23	3054.40
565.39	3049.72
565.56	2953.76
565.72	3012.27
565.88	3077.80
566.05	3075.46
566.21	3171.43
566.38	3241.64
566.54	3178.45
566.70	3279.09
566.87	3246.32
567.03	3251.00
567.19	3295.47
567.36	3211.22
567.52	3110.57
567.68	3145.68
567.85	2995.89
568.01	2993.55
568.17	3075.46
568.34	3030.99
568.50	3038.02
568.66	2993.55
568.83	3014.61
568.99	2998.23
569.15	3038.02
569.32	3005.25
569.48	3068.44
569.64	2991.20
569.81	3075.46
569.97	3136.32
570.13	2939.71
570.30	2991.20
570.46	2850.77
570.62	2780.56
570.78	2892.90
570.95	2878.86
571.11	3021.63
571.27	2864.82
571.43	2972.48
571.60	3075.46
571.76	3084.83
571.92	3075.46
572.09	3155.04
572.25	3115.25
572.41	3129.30
572.57	3080.14
572.74	2970.14
572.90	2967.80
573.06	3119.93
573.22	3014.61
573.38	3066.10
573.55	3084.83
573.71	3112.91
573.87	3056.74
574.03	2995.89
574.20	3112.91
574.36	3098.87
574.52	2867.16
574.68	2916.31
574.84	3035.67
575.01	2885.88
575.17	2801.62
575.33	2813.32
575.49	2708.00
575.65	2925.67
575.82	2705.66
575.98	2754.81
576.14	2930.35
576.30	2913.97
576.46	2909.29
576.62	2939.71
576.79	2827.37
576.95	2857.79
577.11	2892.90
577.27	2834.39
577.43	2951.42
577.59	2796.94
577.75	2860.13
577.92	2806.30
578.08	2846.09
578.24	2693.96
578.40	2782.90
578.56	2771.19
578.72	2864.82
578.88	2815.66
579.04	2937.37
579.21	2820.35
579.37	2803.96
579.53	2857.79
579.69	2874.18
579.85	2813.32
580.01	2869.50
580.17	2675.23
580.33	2794.60
580.49	2733.75
580.65	2775.88
580.82	2888.22
580.98	2827.37
581.14	2775.88
581.30	2965.46
581.46	2871.84
581.62	2708.00
581.78	2752.47
581.94	2848.43
582.10	2815.66
582.26	2731.41
582.42	2693.96
582.58	2860.13
582.74	2780.56
582.90	2822.69
583.06	2906.95
583.22	2759.49
583.38	2810.98
583.54	2874.18
583.70	2895.24
583.86	2827.37
584.02	2834.39
584.18	2794.60
584.34	2708.00
584.50	2902.26
584.66	2815.66
584.82	2773.53
584.98	2841.41
585.14	2794.60
585.30	2710.34
585.46	2565.23
585.62	2572.25
585.78	2569.91
585.94	2520.76
586.10	2593.31
586.26	2698.64
586.42	2658.85
586.58	2754.81
586.74	2768.85
586.90	2773.53
587.06	2576.93
587.22	2663.53
587.38	2778.22
587.54	2600.34
587.70	2637.78
587.86	2539.48
588.02	2502.03
588.18	2422.45
588.34	2347.56
588.49	2363.94
588.65	2176.70
588.81	2188.40
588.97	2230.53
589.13	2333.51
589.29	2225.85
589.45	2209.47
589.61	2242.23
589.77	2424.80
589.93	2469.27
590.08	2513.74
590.24	2469.27
590.40	2424.80
590.56	2537.14
590.72	2485.65
590.88	2534.80
591.04	2455.22
591.20	2413.09
591.35	2342.88
591.51	2452.88
591.67	2490.33
591.83	2438.84
591.99	2462.24
592.15	2394.37
592.31	2492.67
592.46	2462.24
592.62	2380.32
592.78	2450.54
592.94	2471.61
593.10	2544.16
593.26	2466.92
593.41	2476.29
593.57	2562.89
593.73	2443.52
593.89	2424.80
594.05	2385.01
594.20	2361.60
594.36	2293.72
594.52	2415.43
594.68	2349.90
594.84	2317.13
594.99	2527.78
595.15	2546.50
595.31	2476.29
595.47	2345.22
595.62	2326.49
595.78	2443.52
595.94	2452.88
596.10	2452.88
596.25	2427.14
596.41	2354.58
596.57	2256.28
596.73	2242.23
596.88	2368.62
597.04	2415.43
597.20	2509.05
597.36	2314.79
597.51	2324.15
597.67	2443.52
597.83	2375.64
597.99	2338.20
598.14	2225.85
598.30	2377.98
598.46	2319.47
598.61	2321.81
598.77	2317.13
598.93	2434.16
599.09	2359.26
599.24	2431.82
599.40	2345.22
599.56	2427.14
