SpectraSuite Data File
++++++++++++++++++++++++++++++++++++
Date: Mon Oct 07 14:54:03 GMT-05:00 2013
User: price-jones
Dark Spectrum Present: No
Reference Spectrum Present: No
Number of Sampled Component Spectra: 1
Spectrometers: USB2+H05261
Integration Time (usec): 100000 (USB2+H05261)
Spectra Averaged: 1 (USB2+H05261)
Boxcar Smoothing: 0 (USB2+H05261)
Correct for Electrical Dark: No (USB2+H05261)
Strobe/Lamp Enabled: No (USB2+H05261)
Correct for Detector Non-linearity: No (USB2+H05261)
Correct for Stray Light: No (USB2+H05261)
Number of Pixels in Processed Spectrum: 2048
>>>>>Begin Processed Spectral Data<<<<<
365.73	0.00
365.92	0.00
366.12	0.00
366.32	0.00
366.52	0.00
366.72	0.00
366.91	0.00
367.11	0.00
367.31	0.00
367.51	0.00
367.70	0.00
367.90	0.00
368.10	0.00
368.30	0.00
368.49	0.00
368.69	0.00
368.89	0.00
369.09	0.00
369.28	0.00
369.48	0.00
369.68	0.00
369.87	0.00
370.07	0.00
370.27	0.00
370.47	636.63
370.66	3297.81
370.86	3730.81
371.06	4212.96
371.25	4322.97
371.45	3936.78
371.65	3536.55
371.84	3115.25
372.04	3494.42
372.24	3742.52
372.44	4074.87
372.63	4114.66
372.83	3763.58
373.03	3330.58
373.22	2951.42
373.42	3054.40
373.62	3524.85
373.81	3894.65
374.01	3831.46
374.21	3588.04
374.40	3391.44
374.60	3440.59
374.79	3602.08
374.99	4421.27
375.19	4889.38
375.38	4856.61
375.58	4575.75
375.78	4552.34
375.97	4634.26
376.17	4777.03
376.37	4844.91
376.56	4912.78
376.76	5170.24
376.95	5357.49
377.15	6010.50
377.35	6099.44
377.54	6204.76
377.74	6490.31
377.93	6380.30
378.13	6307.74
378.33	6179.01
378.52	5430.04
378.72	5266.21
378.91	5188.97
379.11	5004.07
379.31	4847.25
379.50	4863.63
379.70	5303.65
379.89	5966.03
380.09	6164.97
380.28	6490.31
380.48	6338.17
380.68	6202.42
380.87	6104.12
381.07	5682.82
381.26	5261.52
381.46	4947.89
381.65	4781.71
381.85	4582.77
382.04	4334.67
382.24	4107.64
382.43	3843.16
382.63	3782.31
382.83	3833.80
383.02	3859.54
383.22	3988.27
383.41	3892.31
383.61	4152.11
383.80	4711.50
384.00	5338.76
384.19	5942.62
384.39	6312.42
384.58	6174.33
384.78	6118.16
384.97	6132.20
385.17	5750.70
385.36	5458.13
385.56	5252.16
385.75	5469.83
385.95	5891.13
386.14	6658.82
386.34	6525.41
386.53	5982.41
386.72	5701.54
386.92	5888.79
387.11	6071.35
387.31	6384.98
387.50	6263.27
387.70	6179.01
387.89	6029.22
388.09	6003.47
388.28	6195.40
388.48	6230.51
388.67	6527.75
388.86	7283.75
389.06	7999.95
389.25	8252.73
389.45	8332.31
389.64	8163.79
389.84	8131.02
390.03	8145.06
390.22	8063.15
390.42	8442.31
390.61	8950.21
390.81	9600.88
391.00	9909.83
391.19	9706.20
391.39	9373.85
391.58	8730.20
391.78	8168.47
391.97	7887.61
392.16	7529.50
392.36	6878.83
392.55	5479.19
392.75	4493.83
392.94	3545.91
393.13	3599.74
393.33	4117.00
393.52	5313.02
393.71	6380.30
393.91	7339.92
394.10	7868.88
394.29	8741.90
394.49	9514.28
394.68	9994.09
394.88	10160.27
395.07	10478.58
395.26	10501.98
395.46	10101.75
395.65	9418.32
395.84	8472.74
396.04	7150.34
396.23	5722.61
396.42	4739.58
396.62	4568.73
396.81	5397.28
397.00	6855.43
397.19	8608.49
397.39	10078.35
397.58	11393.73
397.77	12407.18
397.97	12650.60
398.16	12947.84
398.35	13123.38
398.55	13806.82
398.74	14010.45
398.93	14567.49
399.12	14031.51
399.32	13799.80
399.51	13858.31
399.70	14937.30
399.90	14700.90
400.09	15061.35
400.28	14508.98
400.47	14684.52
400.67	15719.04
400.86	15742.44
401.05	15861.81
401.24	15889.90
401.44	16336.94
401.63	16290.13
401.82	16519.50
402.01	16196.51
402.21	16299.49
402.40	16851.86
402.59	16046.71
402.78	15384.34
402.97	14899.85
403.17	15503.71
403.36	16332.26
403.55	17163.15
403.74	17198.26
403.93	16257.36
404.13	15353.91
404.32	14808.57
404.51	15431.15
404.70	16809.73
404.89	16793.34
405.09	16493.76
405.28	16074.80
405.47	15873.51
405.66	16065.44
405.85	15688.61
406.05	15293.06
406.24	15236.89
406.43	16414.18
406.62	16741.85
406.81	16835.47
407.00	16166.08
407.20	15716.70
407.39	16030.33
407.58	16659.93
407.77	17013.35
407.96	17893.40
408.15	18040.85
408.34	17998.72
408.54	18820.25
408.73	18827.27
408.92	18848.33
409.11	18253.84
409.30	16945.48
409.49	16472.69
409.68	15225.18
409.87	14998.15
410.07	15716.70
410.26	16968.88
410.45	18003.40
410.64	18726.63
410.83	18485.55
411.02	19094.09
411.21	19976.47
411.40	19831.36
411.59	19946.05
411.78	19939.02
411.98	19517.73
412.17	20180.10
412.36	19185.37
412.55	19470.92
412.74	19030.90
412.93	18963.02
413.12	19133.88
413.31	20893.96
413.50	20959.50
413.69	21160.78
413.88	20404.79
414.07	19927.32
414.26	20128.61
414.45	20767.57
414.64	21029.71
414.83	20999.29
415.02	20629.48
415.22	20402.45
415.41	20844.81
415.60	21750.60
415.79	22412.97
415.98	23337.48
416.17	22794.48
416.36	22391.91
416.55	22136.79
416.74	21350.37
416.93	20365.00
417.12	20355.64
417.31	21252.06
417.50	21369.09
417.69	22050.19
417.88	21970.61
418.07	21872.31
418.26	21010.99
418.45	21509.52
418.64	22321.69
418.83	23173.64
419.02	22707.88
419.21	22801.50
419.39	21628.89
419.58	20334.57
419.77	20568.63
419.96	21259.09
420.15	22773.41
420.34	23653.45
420.53	24479.66
420.72	24599.03
420.91	24592.01
421.10	24065.39
421.29	24311.14
421.48	23028.53
421.67	24549.88
421.86	23812.61
422.05	21827.84
422.24	19646.46
422.43	19405.38
422.61	21539.95
422.80	23424.08
422.99	23208.75
423.18	22342.75
423.37	22466.80
423.56	22192.96
423.75	22546.38
423.94	22883.42
424.13	21977.63
424.32	22106.36
424.50	22022.10
424.69	21914.44
424.88	21720.17
425.07	21586.76
425.26	21734.21
425.45	21509.52
425.64	21120.99
425.83	21163.12
426.01	22155.51
426.20	22600.21
426.39	22742.99
426.58	21186.53
426.77	19311.76
426.96	18696.20
427.15	19534.11
427.33	21055.46
427.52	21947.20
427.71	22099.34
427.90	21635.91
428.09	21699.11
428.28	21144.40
428.46	20386.07
428.65	20161.37
428.84	20624.80
429.03	20613.10
429.22	19590.28
429.40	18834.29
429.59	17392.52
429.78	14927.94
429.97	15035.60
430.16	15246.25
430.34	15461.58
430.53	15173.69
430.72	15704.99
430.91	17444.01
431.10	20130.95
431.28	23789.20
431.47	25944.84
431.66	26256.13
431.85	23594.94
432.03	22185.94
432.22	20725.44
432.41	21750.60
432.60	24161.35
432.79	25188.85
432.97	25905.05
433.16	25240.34
433.35	23215.77
433.54	20856.51
433.72	19480.28
433.91	19878.17
434.10	22515.95
434.28	24006.87
434.47	25013.31
434.66	25036.71
434.85	24189.44
435.03	24208.16
435.22	24734.78
435.41	26190.59
435.59	26127.40
435.78	26623.59
435.97	27096.38
436.16	27337.46
436.34	26998.08
436.53	26354.43
436.72	26218.68
436.90	25032.03
437.09	24783.93
437.28	24397.74
437.46	25214.59
437.65	25298.85
437.84	23508.34
438.02	21177.17
438.21	21392.50
438.40	22689.15
438.58	24514.77
438.77	25207.57
438.96	25174.80
439.14	26501.89
439.33	27192.34
439.52	27800.88
439.70	26771.05
439.89	26663.38
440.08	25446.30
440.26	25572.69
440.45	26185.91
440.63	28519.43
440.82	29727.14
441.01	29301.17
441.19	28620.07
441.38	29729.48
441.57	30415.26
441.75	30934.86
441.94	31047.21
442.12	31023.80
442.31	31534.04
442.50	31606.59
442.68	30714.85
442.87	30738.26
443.05	30113.33
443.24	30902.09
443.43	30586.12
443.61	31793.84
443.80	32161.30
443.98	30473.78
444.17	30141.42
444.35	32573.24
444.54	32524.08
444.73	32535.79
444.91	30724.21
445.10	29521.18
445.28	28510.07
445.47	27999.83
445.65	28173.03
445.84	28842.42
446.02	29954.18
446.21	30476.12
446.39	30548.67
446.58	30906.77
446.77	31180.62
446.95	31676.81
447.14	32657.49
447.32	33256.67
447.51	32451.53
447.69	30984.01
447.88	30396.54
448.06	31257.85
448.25	31754.05
448.43	32367.27
448.62	31447.44
448.80	31295.30
448.99	31737.66
449.17	31449.78
449.36	31749.37
449.54	32842.40
449.73	33673.29
449.91	33720.10
450.10	34714.83
450.28	35377.20
450.46	34998.03
450.65	34609.50
450.83	35000.37
451.02	33989.26
451.20	33792.65
451.39	33816.06
451.57	33390.08
451.76	33514.13
451.94	33626.48
452.13	32921.98
452.31	31431.05
452.49	29972.90
452.68	29846.51
452.86	30052.48
453.05	30958.27
453.23	31824.26
453.42	32224.50
453.60	32905.59
453.78	33294.12
453.97	32973.47
454.15	32954.74
454.34	32430.46
454.52	31978.74
454.70	31857.03
454.89	32240.88
455.07	32271.31
455.26	32685.58
455.44	33930.75
455.62	34525.24
455.81	34490.13
455.99	34691.42
456.17	34050.11
456.36	33958.83
456.54	35173.57
456.73	35367.84
456.91	35662.74
457.09	35665.08
457.28	36704.28
457.46	34979.31
457.64	34892.71
457.83	33982.24
458.01	32872.82
458.19	34206.93
458.38	33727.12
458.56	35290.60
458.74	34998.03
458.93	34265.44
459.11	34321.62
459.29	34204.59
459.48	34272.46
459.66	33640.52
459.84	34478.43
460.03	34745.25
460.21	34925.47
460.39	36257.24
460.57	35840.62
460.76	36385.97
460.94	35885.09
461.12	35356.13
461.31	36039.57
461.49	35747.00
461.67	35744.66
461.85	36912.59
462.04	36392.99
462.22	37701.35
462.40	36856.42
462.59	36783.86
462.77	36231.49
462.95	36622.36
463.13	36397.67
463.32	35644.02
463.50	35531.67
463.68	35304.64
463.86	35871.05
464.05	35299.96
464.23	34417.58
464.41	34068.84
464.59	33926.07
464.78	35349.11
464.96	35416.99
465.14	34925.47
465.32	35779.77
465.50	36910.25
465.69	36655.13
465.87	35854.67
466.05	35253.15
466.23	33883.94
466.41	32730.05
466.60	33706.05
466.78	33790.31
466.96	34855.26
467.14	35033.14
467.32	35196.98
467.51	35491.88
467.69	34178.84
467.87	34546.31
468.05	35559.76
468.23	35651.04
468.41	35358.47
468.60	35384.22
468.78	35386.56
468.96	35049.52
469.14	35779.77
469.32	36109.78
469.50	34653.97
469.69	34506.52
469.87	34230.33
470.05	34110.97
470.23	34244.38
470.41	34452.69
470.59	34733.55
470.77	34934.84
470.95	35875.73
471.14	36044.25
471.32	35924.88
471.50	38129.67
471.68	38347.34
471.86	38256.06
472.04	38689.06
472.22	38349.68
472.40	36549.81
472.58	36573.21
472.77	36016.16
472.95	36891.52
473.13	37516.45
473.31	36676.19
473.49	36879.82
473.67	37486.02
473.85	37748.16
474.03	38780.34
474.21	38354.36
474.39	39072.90
474.57	39309.30
474.75	39725.91
474.93	39311.64
475.12	38178.82
475.30	38075.84
475.48	38260.74
475.66	38824.81
475.84	38494.79
476.02	38174.14
476.20	37792.63
476.38	38256.06
476.56	39519.95
476.74	40105.08
476.92	40453.82
477.10	41055.34
477.28	41661.54
477.46	41818.35
477.64	42300.50
477.82	42199.86
478.00	42185.82
478.18	41965.81
478.36	41755.16
478.54	41331.52
478.72	42080.49
478.90	43192.25
479.08	44463.16
479.26	44664.44
479.44	44524.01
479.62	43927.17
479.80	43936.54
479.98	44891.48
480.16	44374.22
480.34	43903.77
480.52	44545.08
480.70	44500.61
480.88	44870.41
481.06	45230.85
481.24	45652.15
481.41	46667.94
481.59	47271.80
481.77	47208.61
481.95	46422.19
482.13	46288.77
482.31	46518.15
482.49	47384.15
482.67	47283.50
482.85	47346.70
483.03	47849.91
483.21	48268.87
483.39	48294.61
483.57	47140.73
483.74	47145.41
483.92	47306.91
484.10	47777.36
484.28	48472.49
484.46	49092.74
484.64	49331.47
484.82	48186.95
485.00	47831.19
485.18	47089.24
485.35	45918.97
485.53	42698.39
485.71	39086.95
485.89	38424.57
486.07	40343.81
486.25	43559.71
486.43	45872.16
486.61	46878.59
486.78	46864.55
486.96	47105.62
487.14	48498.24
487.32	49455.52
487.50	50007.89
487.68	51194.54
487.85	51391.14
488.03	51856.91
488.21	51192.20
488.39	50862.18
488.57	49818.30
488.75	49773.83
488.92	50490.04
489.10	52837.59
489.28	53937.65
489.46	54780.24
489.64	54419.80
489.81	54642.15
489.99	54216.17
490.17	54061.69
490.35	54831.73
490.53	54426.82
490.70	53762.11
490.88	53511.67
491.06	54752.15
491.24	54717.04
491.41	53820.62
491.59	52369.49
491.77	50993.25
491.95	52348.42
492.13	53710.61
492.30	54756.83
492.48	55634.53
492.66	56114.34
492.84	55774.97
493.01	55796.03
493.19	55178.13
493.37	54946.42
493.54	54845.77
493.72	55323.24
493.90	56371.80
494.08	56900.76
494.25	57221.42
494.43	57172.27
494.61	57724.63
494.79	57654.42
494.96	57455.47
495.14	56825.87
495.32	56177.54
495.49	55587.72
495.67	56596.49
495.85	57673.14
496.02	58094.44
496.20	57984.43
496.38	57535.05
496.55	57308.02
496.73	57748.04
496.91	57998.48
497.09	58574.25
497.26	58855.11
497.44	58155.29
497.62	57549.09
497.79	56823.53
497.97	55917.74
498.14	56219.67
498.32	57071.62
498.50	57593.56
498.67	58492.33
498.85	58291.04
499.03	58298.06
499.20	58541.48
499.38	58457.22
499.56	58529.78
499.73	57916.56
499.91	57670.80
500.08	57141.84
500.26	56432.66
500.44	56860.97
500.61	57588.88
500.79	57308.02
500.97	57169.93
501.14	57034.17
501.32	56720.54
501.49	56786.08
501.67	56994.39
501.84	57354.83
502.02	57797.19
502.20	57996.13
502.37	58152.95
502.55	58145.93
502.72	58780.21
502.90	59140.66
503.07	58880.86
503.25	58459.56
503.43	57701.23
503.60	56956.94
503.78	56432.66
503.95	56741.61
504.13	58085.07
504.30	58981.50
504.48	58906.60
504.65	58628.08
504.83	58511.05
505.01	58962.78
505.18	59182.79
505.36	59807.71
505.53	59934.10
505.71	60259.43
505.88	60294.54
506.06	59583.02
506.23	59241.30
506.41	58885.54
506.58	59035.33
506.76	59054.06
506.93	58976.82
507.11	58740.42
507.28	59147.68
507.46	58562.54
507.63	58110.82
507.81	57694.21
507.98	58014.86
508.16	58700.64
508.33	59040.01
508.50	59531.53
508.68	59903.67
508.85	60320.29
509.03	60282.84
509.20	60027.72
509.38	59323.22
509.55	58497.01
509.73	58862.13
509.90	59245.98
510.08	59601.74
510.25	59299.81
510.42	59355.99
510.60	59164.06
510.77	59449.61
510.95	59973.89
511.12	59969.21
511.30	60257.09
511.47	60596.47
511.64	60544.98
511.82	60250.07
511.99	59571.32
512.17	59323.22
512.34	58602.33
512.51	58972.14
512.69	59047.04
512.86	59238.96
513.04	59564.29
513.21	59458.97
513.38	59161.72
513.56	58717.02
513.73	58056.99
513.90	58433.81
514.08	58220.83
514.25	58719.36
514.43	58836.39
514.60	59117.25
514.77	59220.23
514.95	59313.86
515.12	59243.64
515.29	59400.46
515.47	59765.58
515.64	59987.93
515.81	59742.17
515.99	58885.54
516.16	57815.91
516.33	55592.40
516.51	54101.48
516.68	53301.02
516.85	52989.73
517.03	53375.92
517.20	55693.05
517.37	58138.91
517.54	59405.14
517.72	58702.98
517.89	56341.38
518.06	54124.89
518.24	54255.96
518.41	56491.17
518.58	57942.30
518.75	57900.17
518.93	58171.67
519.10	57968.05
519.27	58323.81
519.45	58599.99
519.62	59302.15
519.79	59700.04
519.96	59288.11
520.14	59110.23
520.31	58239.55
520.48	58150.61
520.65	58553.18
520.83	59510.46
521.00	59882.61
521.17	59421.52
521.34	59077.46
521.52	59341.94
521.69	60069.85
521.86	60339.01
522.03	60081.55
522.20	58939.37
522.38	57970.39
522.55	57808.89
522.72	58410.41
522.89	58656.17
523.07	58894.90
523.24	59157.04
523.41	59810.05
523.58	60179.85
523.75	60472.42
523.92	60362.42
524.10	60467.74
524.27	60341.35
524.44	60151.77
524.61	60081.55
524.78	59887.29
524.96	59746.86
525.13	59725.79
525.30	60097.94
525.47	60530.93
525.64	60341.35
525.81	59585.36
525.98	58403.39
526.16	56926.51
526.33	56104.98
526.50	55994.98
526.67	55634.53
526.84	56294.56
527.01	57111.41
527.18	57726.97
527.36	58721.70
527.53	59702.38
527.70	59788.98
527.87	59386.41
528.04	58850.43
528.21	59168.74
528.38	59969.21
528.55	60254.75
528.72	60692.43
528.89	60697.11
529.07	60659.66
529.24	60161.13
529.41	59435.56
529.58	58763.83
529.75	58983.84
529.92	59430.88
530.09	59898.99
530.26	60308.58
530.43	60523.91
530.60	60458.38
530.77	60788.39
530.94	60872.65
531.11	60334.33
531.28	60048.78
531.46	59826.43
531.63	60013.68
531.80	59887.29
531.97	59587.70
532.14	58688.93
532.31	57855.70
532.48	57352.49
532.65	57345.47
532.82	58094.44
532.99	59025.97
533.16	59601.74
533.33	60006.65
533.50	59723.45
533.67	59138.32
533.84	58770.85
534.01	58827.02
534.18	59014.27
534.35	59353.65
534.52	58969.80
534.69	59180.45
534.86	59833.46
535.03	59774.94
535.20	60186.88
535.37	60647.96
535.54	60629.24
535.71	60591.79
535.88	60102.62
536.05	59519.82
536.22	59192.15
536.38	58838.73
536.55	58302.74
536.72	57815.91
536.89	57715.27
537.06	58569.57
537.23	59337.26
537.40	59316.20
537.57	59430.88
537.74	59363.01
537.91	59180.45
538.08	59384.07
538.25	59320.88
538.42	59461.31
538.59	59192.15
538.75	58688.93
538.92	58485.31
539.09	58422.11
539.26	58110.82
539.43	58010.18
539.60	58071.03
539.77	58178.70
539.94	58096.78
540.11	57317.38
540.28	56926.51
540.44	56907.79
540.61	57310.36
540.78	57556.11
540.95	57958.69
541.12	58068.69
541.29	58607.01
541.46	58651.48
541.62	58721.70
541.79	58632.76
541.96	58005.50
542.13	57961.03
542.30	58564.88
542.47	58506.37
542.63	58204.44
542.80	57935.28
542.97	58440.84
543.14	58042.95
543.31	58026.56
543.48	58782.55
543.64	59299.81
543.81	59702.38
543.98	59365.35
544.15	58693.61
544.32	58262.96
544.48	58464.24
544.65	58614.04
544.82	59175.76
544.99	58710.00
545.16	58349.56
545.32	58038.26
545.49	58681.91
545.66	59283.43
545.83	58986.18
546.00	58410.41
546.16	58269.98
546.33	58223.17
546.50	58113.16
546.67	58745.11
546.83	58162.31
547.00	58347.21
547.17	57668.46
547.34	57319.72
547.50	57146.52
547.67	57556.11
547.84	57708.25
548.00	57731.65
548.17	58333.17
548.34	58211.46
548.51	57956.35
548.67	58246.57
548.84	58333.17
549.01	58164.65
549.18	58190.40
549.34	58005.50
549.51	58080.39
549.68	58094.44
549.84	57733.99
550.01	57911.88
550.18	57336.10
550.34	57673.14
550.51	57733.99
550.68	57757.40
550.84	57169.93
551.01	57476.54
551.18	57230.78
551.34	57694.21
551.51	57851.02
551.68	58265.30
551.84	58302.74
552.01	57932.94
552.18	57918.90
552.34	57038.86
552.51	56647.99
552.68	56701.82
552.84	57202.69
553.01	57521.01
553.18	57373.55
553.34	57357.17
553.51	57455.47
553.67	57895.49
553.84	57923.58
554.01	57687.18
554.17	57642.71
554.34	57719.95
554.51	57787.83
554.67	57956.35
554.84	57963.37
555.00	57504.62
555.17	57205.03
555.33	57387.60
555.50	57202.69
555.67	57308.02
555.83	57240.14
556.00	56924.17
556.16	56706.50
556.33	56376.48
556.50	56411.59
556.66	56425.64
556.83	56222.01
556.99	56135.41
557.16	56163.50
557.32	56610.54
557.49	56914.81
557.65	56552.02
557.82	56577.77
557.98	56603.52
558.15	56013.70
558.32	55348.99
558.48	54494.69
558.65	54658.53
558.81	55114.94
558.98	55379.42
559.14	55667.30
559.31	55849.86
559.47	55639.22
559.64	55365.37
559.80	55182.81
559.97	55009.61
560.13	55456.65
560.30	56303.93
560.46	56678.41
560.63	57097.37
560.79	57221.42
560.96	56746.29
561.12	55784.33
561.29	54710.02
561.45	54670.23
561.61	55306.86
561.78	55412.18
561.94	55550.27
562.11	55456.65
562.27	55356.01
562.44	55725.81
562.60	56147.11
562.77	56329.67
562.93	55985.61
563.10	56020.72
563.26	55381.76
563.42	55735.18
563.59	55271.75
563.75	55313.88
563.92	55320.90
564.08	55470.70
564.24	55550.27
564.41	55700.07
564.57	55407.50
564.74	55386.44
564.90	55145.36
565.07	54923.01
565.23	54843.43
565.39	53897.86
565.56	53904.88
565.72	53506.99
565.88	53965.73
566.05	54255.96
566.21	54422.14
566.38	54396.39
566.54	54681.94
566.70	55178.13
566.87	55285.79
567.03	55018.97
567.19	54941.74
567.36	55194.51
567.52	54880.88
567.68	54780.24
567.85	53808.92
568.01	53633.38
568.17	53286.98
568.34	53109.10
568.50	53202.72
568.66	53366.55
568.83	53879.13
568.99	53832.32
569.15	53858.07
569.32	53766.79
569.48	53684.87
569.64	53813.60
569.81	53237.83
569.97	53076.33
570.13	53095.05
570.30	52690.14
570.46	52156.50
570.62	51510.51
570.78	51728.18
570.95	51885.00
571.11	52444.38
571.27	52708.86
571.43	52954.62
571.60	53188.67
571.76	53209.74
571.92	53680.19
572.09	53815.94
572.25	53968.07
572.41	53799.55
572.57	53539.75
572.74	53518.69
572.90	53113.78
573.06	52980.37
573.22	53167.61
573.38	53237.83
573.55	53174.63
573.71	53441.45
573.87	53331.45
574.03	53242.51
574.20	53041.22
574.36	52708.86
574.52	52451.41
574.68	52481.83
574.84	52097.98
575.01	51662.64
575.17	51323.27
575.33	51807.76
575.49	51852.23
575.65	51999.68
575.82	51810.10
575.98	51669.67
576.14	51679.03
576.30	52226.71
576.46	52456.09
576.62	52245.44
576.79	52236.08
576.95	51695.41
577.11	51533.92
577.27	51674.35
577.43	52055.85
577.59	51292.84
577.75	51098.58
577.92	50564.93
578.08	50436.20
578.24	50340.24
578.40	50302.79
578.56	50761.54
578.72	51168.79
578.88	51346.67
579.04	51531.57
579.21	51267.09
579.37	51498.81
579.53	51657.96
579.69	51473.06
579.85	51501.15
580.01	51861.59
580.17	51320.93
580.33	50759.20
580.49	50906.65
580.65	51409.87
580.82	51517.53
580.98	51601.79
581.14	51100.92
581.30	51529.23
581.46	51339.65
581.62	51760.95
581.78	51231.99
581.94	51695.41
582.10	51571.36
582.26	51363.06
582.42	51405.19
582.58	51580.73
582.74	51395.82
582.90	51531.57
583.06	51447.32
583.22	51384.12
583.38	51220.28
583.54	50906.65
583.70	50815.37
583.86	50958.14
584.02	51068.15
584.18	51054.11
584.34	50841.12
584.50	50628.13
584.66	50787.28
584.82	50356.63
584.98	49865.11
585.14	49897.88
