SpectraSuite Data File
++++++++++++++++++++++++++++++++++++
Date: Mon Oct 07 14:53:22 GMT-05:00 2013
User: price-jones
Dark Spectrum Present: No
Reference Spectrum Present: No
Number of Sampled Component Spectra: 1
Spectrometers: USB2+H05261
Integration Time (usec): 100000 (USB2+H05261)
Spectra Averaged: 1 (USB2+H05261)
Boxcar Smoothing: 0 (USB2+H05261)
Correct for Electrical Dark: No (USB2+H05261)
Strobe/Lamp Enabled: No (USB2+H05261)
Correct for Detector Non-linearity: No (USB2+H05261)
Correct for Stray Light: No (USB2+H05261)
Number of Pixels in Processed Spectrum: 2048
>>>>>Begin Processed Spectral Data<<<<<
365.73	0.00
365.92	0.00
366.12	0.00
366.32	0.00
366.52	0.00
366.72	0.00
366.91	0.00
367.11	0.00
367.31	0.00
367.51	0.00
367.70	0.00
367.90	0.00
368.10	0.00
368.30	0.00
368.49	0.00
368.69	0.00
368.89	0.00
369.09	0.00
369.28	0.00
369.48	0.00
369.68	0.00
369.87	0.00
370.07	0.00
370.27	0.00
370.47	603.86
370.66	3084.83
370.86	3569.32
371.06	3824.44
371.25	3929.76
371.45	3428.88
371.65	3253.34
371.84	3171.43
372.04	3117.59
372.24	3480.38
372.44	3707.41
372.63	3588.04
372.83	3375.05
373.03	2928.01
373.22	2647.15
373.42	2965.46
373.62	3358.67
373.81	3707.41
374.01	3571.66
374.21	3349.31
374.40	2984.18
374.60	3131.64
374.79	3454.63
374.99	4170.83
375.19	4472.76
375.38	4521.92
375.58	4112.32
375.78	4079.55
375.97	4182.54
376.17	4358.08
376.37	4257.43
376.56	4491.49
376.76	4683.41
376.95	5053.22
377.15	5327.06
377.35	5453.45
377.54	5944.96
377.74	5954.32
377.93	5860.70
378.13	5750.70
378.33	5547.07
378.52	5050.88
378.72	4912.78
378.91	4847.25
379.11	4505.53
379.31	4432.97
379.50	4421.27
379.70	4851.93
379.89	5420.68
380.09	5645.37
380.28	5907.51
380.48	5846.66
380.68	5736.65
380.87	5561.11
381.07	5128.11
381.26	4830.87
381.46	4547.66
381.65	4402.55
381.85	4234.03
382.04	3960.19
382.24	3740.18
382.43	3578.68
382.63	3620.81
382.83	3583.36
383.02	3571.66
383.22	3456.97
383.41	3520.17
383.61	3868.91
383.80	4355.74
384.00	4723.20
384.19	5247.48
384.39	5788.14
384.58	5708.57
384.78	5731.97
384.97	5614.95
385.17	5296.63
385.36	5172.58
385.56	4800.44
385.75	4868.31
385.95	5376.21
386.14	5994.11
386.34	5916.87
386.53	5783.46
386.72	5345.78
386.92	5348.12
387.11	5640.69
387.31	5905.17
387.50	5898.15
387.70	5650.05
387.89	5479.19
388.09	5565.79
388.28	5715.59
388.48	5902.83
388.67	6263.27
388.86	6743.08
389.06	7272.04
389.25	7691.00
389.45	7765.90
389.64	7815.05
389.84	7744.83
390.03	7576.31
390.22	7585.68
390.42	7604.40
390.61	8093.57
390.81	8716.16
391.00	8978.30
391.19	8769.99
391.39	8498.49
391.58	8191.88
391.78	7440.56
391.97	7470.99
392.16	6958.41
392.36	6080.71
392.55	5071.94
392.75	4065.51
392.94	3304.84
393.13	3234.62
393.33	3997.64
393.52	4772.35
393.71	6136.88
393.91	6841.39
394.10	7442.90
394.29	8016.33
394.49	8823.82
394.68	9469.81
394.88	9280.22
395.07	9689.82
395.26	9640.67
395.46	9266.18
395.65	8819.14
395.84	7850.16
396.04	6663.51
396.23	5315.36
396.42	4444.68
396.62	4196.58
396.81	5006.41
397.00	6293.70
397.19	7864.20
397.39	9345.76
397.58	10623.69
397.77	11367.98
397.97	11683.95
398.16	11705.02
398.35	12238.66
398.55	12795.71
398.74	13184.24
398.93	13504.89
399.12	12966.57
399.32	12624.85
399.51	12959.55
399.70	14174.28
399.90	13678.09
400.09	13881.72
400.28	13839.59
400.47	13832.57
400.67	14347.48
400.86	14787.50
401.05	14857.72
401.24	14721.97
401.44	15103.48
401.63	15124.54
401.82	15213.48
402.01	15211.14
402.21	15426.47
402.40	15480.30
402.59	15061.35
402.78	14305.35
402.97	14054.92
403.17	14246.84
403.36	15346.89
403.55	15798.62
403.74	16107.57
403.93	15349.23
404.13	14466.85
404.32	14139.18
404.51	14572.18
404.70	15627.76
404.89	15744.78
405.09	15426.47
405.28	15054.33
405.47	15007.52
405.66	15232.21
405.85	14600.26
406.05	14178.97
406.24	14473.87
406.43	15063.69
406.62	15494.35
406.81	15494.35
407.00	15227.53
407.20	14967.73
407.39	14857.72
407.58	15370.30
407.77	16013.95
407.96	16592.06
408.15	16451.63
408.34	16748.87
408.54	17895.74
408.73	17612.53
408.92	17425.29
409.11	16910.37
409.30	16086.50
409.49	15056.67
409.68	14373.23
409.87	13914.48
410.07	14743.03
410.26	15798.62
410.45	16882.28
410.64	17390.18
410.83	17809.14
411.02	18207.03
411.21	18841.31
411.40	18775.78
411.59	18946.64
411.78	18654.07
411.98	18483.21
412.17	18754.71
412.36	18286.61
412.55	18450.44
412.74	18291.29
412.93	17666.36
413.12	17521.25
413.31	19503.68
413.50	19396.02
413.69	20056.05
413.88	19063.66
414.07	18450.44
414.26	19044.94
414.45	19543.47
414.64	19733.06
414.83	19302.40
415.02	19337.51
415.22	19290.70
415.41	19864.13
415.60	20496.07
415.79	21125.68
415.98	21516.54
416.17	21738.90
416.36	20978.22
416.55	20751.19
416.74	19941.36
416.93	19557.52
417.12	19690.93
417.31	19786.89
417.50	19917.96
417.69	20519.48
417.88	20893.96
418.07	20538.20
418.26	20428.20
418.45	20779.28
418.64	20987.58
418.83	21703.79
419.02	21579.74
419.21	21111.63
419.39	20374.36
419.58	19728.38
419.77	19826.68
419.96	20451.60
420.15	21179.51
420.34	22356.80
420.53	22852.99
420.72	23136.20
420.91	22883.42
421.10	22572.13
421.29	22789.80
421.48	21764.64
421.67	22735.96
421.86	22230.41
422.05	20821.41
422.24	18647.05
422.43	18462.15
422.61	20561.61
422.80	21727.19
422.99	21986.99
423.18	21289.51
423.37	20898.64
423.56	21209.93
423.75	21287.17
423.94	22068.91
424.13	20699.70
424.32	20432.88
424.50	21067.16
424.69	20706.72
424.88	20655.23
425.07	20435.22
425.26	20940.77
425.45	20519.48
425.64	20119.24
425.83	19943.70
426.01	21043.76
426.20	21769.32
426.39	21507.18
426.58	19983.49
426.77	18155.54
426.96	17713.17
427.15	18504.28
427.33	20367.34
427.52	20973.54
427.71	20744.17
427.90	20812.04
428.09	20365.00
428.28	20154.35
428.46	19332.82
428.65	19112.81
428.84	19559.86
429.03	19667.52
429.22	18682.16
429.40	18001.06
429.59	16027.99
429.78	14251.52
429.97	14125.13
430.16	14588.56
430.34	14356.85
430.53	14640.05
430.72	15171.35
430.91	16365.03
431.10	19531.77
431.28	22860.01
431.47	25048.41
431.66	24830.74
431.85	22813.20
432.03	20629.48
432.22	19899.23
432.41	20790.98
432.60	23311.74
432.79	23693.24
432.97	24788.61
433.16	24020.92
433.35	21907.41
433.54	20023.28
433.72	18466.83
433.91	18967.70
434.10	21294.19
434.28	22916.19
434.47	24116.88
434.66	23796.23
434.85	23344.50
435.03	22890.44
435.22	23744.73
435.41	24875.21
435.59	24968.84
435.78	25235.66
435.97	26197.62
436.16	26071.23
436.34	25823.13
436.53	25041.39
436.72	24919.68
436.90	24044.32
437.09	24269.01
437.28	23374.93
437.46	24149.65
437.65	24348.59
437.84	22553.40
438.02	20748.85
438.21	20563.95
438.40	21692.08
438.58	23470.89
438.77	24276.04
438.96	24414.13
439.14	25525.88
439.33	26043.14
439.52	26529.97
439.70	26146.12
439.89	25635.89
440.08	24926.71
440.26	24442.21
440.45	25179.48
440.63	27213.41
440.82	28706.67
441.01	28147.28
441.19	27894.50
441.38	28374.31
441.57	29362.02
441.75	29692.04
441.94	29970.56
442.12	29638.20
442.31	30279.51
442.50	30181.21
442.68	29949.50
442.87	29514.16
443.05	29134.99
443.24	29355.00
443.43	29816.08
443.61	30789.75
443.80	30637.61
443.98	29345.64
444.17	29326.91
444.35	30845.92
444.54	31332.75
444.73	30969.97
444.91	29610.12
445.10	28498.36
445.28	27641.73
445.47	26951.27
445.65	27356.18
445.84	27826.63
446.02	28971.15
446.21	29324.57
446.39	29542.24
446.58	29958.86
446.77	30253.76
446.95	30251.42
447.14	31789.16
447.32	31985.76
447.51	31040.18
447.69	29839.49
447.88	29607.78
448.06	30281.85
448.25	30958.27
448.43	30962.95
448.62	30553.35
448.80	30228.02
448.99	30256.11
449.17	30539.31
449.36	30852.94
449.54	31936.61
449.73	32208.11
449.91	32641.11
450.10	34019.69
450.28	34043.09
450.46	33935.43
450.65	33909.68
450.83	33392.42
451.02	32833.04
451.20	32732.39
451.39	32552.17
451.57	32713.67
451.76	32615.37
451.94	32488.98
452.13	31868.73
452.31	30263.13
452.49	29111.58
452.68	29275.42
452.86	29296.49
453.05	29846.51
453.23	30473.78
453.42	31075.29
453.60	32252.58
453.78	32418.76
453.97	32203.43
454.15	32243.22
454.34	31072.95
454.52	31468.50
454.70	30721.87
454.89	31288.28
455.07	31367.86
455.26	31906.18
455.44	32772.18
455.62	33919.04
455.81	33621.80
455.99	33710.74
456.17	32961.76
456.36	33251.99
456.54	34227.99
456.73	33923.72
456.91	34700.78
457.09	34761.64
457.28	35679.13
457.46	34066.50
457.64	34192.89
457.83	32851.76
458.01	32292.37
458.19	32779.20
458.38	33322.21
458.56	34319.28
458.74	33783.29
458.93	33394.76
459.11	33567.96
459.29	32954.74
459.48	33628.82
459.66	33261.35
459.84	33628.82
460.03	33970.54
460.21	33762.23
460.39	34658.65
460.57	34731.21
460.76	35250.81
460.94	35257.83
461.12	34618.86
461.31	34888.03
461.49	34763.98
461.67	34532.26
461.85	36095.74
462.04	35700.19
462.22	36573.21
462.40	35208.68
462.59	35835.94
462.77	35697.85
462.95	35653.38
463.13	35456.78
463.32	35019.10
463.50	34801.43
463.68	34813.13
463.86	34972.28
464.05	34108.63
464.23	33710.74
464.41	33331.57
464.59	32903.25
464.78	34469.07
464.96	34075.86
465.14	33701.37
465.32	35150.17
465.50	36079.36
465.69	36514.70
465.87	35180.59
466.05	34831.85
466.23	32954.74
466.41	32360.25
466.60	33340.93
466.78	33125.60
466.96	33958.83
467.14	34167.14
467.32	34740.57
467.51	34955.90
467.69	33041.34
467.87	34232.68
468.05	34518.22
468.23	34628.23
468.41	34705.46
468.60	34485.45
468.78	34813.13
468.96	34256.08
469.14	35180.59
469.32	35356.13
469.50	33848.83
469.69	33858.19
469.87	33132.62
470.05	33490.73
470.23	33469.66
470.41	33795.00
470.59	34242.04
470.77	34366.09
470.95	35166.55
471.14	34991.01
471.32	35461.46
471.50	37790.29
471.68	37251.97
471.86	37684.97
472.04	38146.05
472.22	37750.50
472.40	36217.45
472.58	35981.06
472.77	35365.49
472.95	36006.80
473.13	37132.60
473.31	36421.08
473.49	36439.80
473.67	37345.59
473.85	37460.27
474.03	38239.67
474.21	38667.99
474.39	38719.48
474.57	38895.02
474.75	38871.62
474.93	38878.64
475.12	37755.18
475.30	37701.35
475.48	38036.05
475.66	38408.19
475.84	38017.32
476.02	37642.84
476.20	36999.19
476.38	37900.29
476.56	38944.17
476.74	39723.57
476.92	39538.67
477.10	40308.71
477.28	41757.50
477.46	41305.77
477.64	41848.78
477.82	41888.57
478.00	42094.53
478.18	41588.98
478.36	40858.73
478.54	41221.52
478.72	41586.64
478.90	42590.73
479.08	43559.71
479.26	43714.19
479.44	43828.87
479.62	43751.63
479.80	43880.36
479.98	43672.06
480.16	44718.28
480.34	43714.19
480.52	44409.32
480.70	44760.40
480.88	44582.52
481.06	44975.73
481.24	45120.85
481.41	46464.32
481.59	47508.19
481.77	46614.11
481.95	46129.62
482.13	46078.13
482.31	45904.93
482.49	46714.75
482.67	46560.28
482.85	46677.30
483.03	47854.59
483.21	47749.27
483.39	48013.75
483.57	46845.82
483.74	46925.40
483.92	46953.49
484.10	47199.24
484.28	48374.19
484.46	48505.26
484.64	48818.89
484.82	48425.68
485.00	47566.71
485.18	46990.94
485.35	46190.47
485.53	42213.90
485.71	38876.30
485.89	38417.55
486.07	40261.90
486.25	43695.46
486.43	45844.07
486.61	46845.82
486.78	46197.49
486.96	46635.17
487.14	48208.01
487.32	49045.93
487.50	49862.77
487.68	51299.86
487.85	51414.55
488.03	51276.46
488.21	51150.07
488.39	50340.24
488.57	49453.18
488.75	49336.15
488.92	50403.44
489.10	52442.04
489.28	53495.28
489.46	54810.67
489.64	54110.85
489.81	54700.66
489.99	54031.27
490.17	54314.47
490.35	54703.00
490.53	54115.53
490.70	53820.62
490.88	53385.28
491.06	54588.31
491.24	54443.20
491.41	53406.34
491.59	51690.73
491.77	51068.15
491.95	52519.28
492.13	53443.79
492.30	54775.56
492.48	55351.33
492.66	55833.48
492.84	55927.10
493.01	55496.44
493.19	54993.23
493.37	54644.49
493.54	54546.18
493.72	55377.08
493.90	56376.48
494.08	56839.91
494.25	57221.42
494.43	57286.95
494.61	57635.69
494.79	57656.76
494.96	57453.13
495.14	56917.15
495.32	55814.76
495.49	55578.36
495.67	56465.42
495.85	57858.04
496.02	57939.96
496.20	58049.97
496.38	57345.47
496.55	57413.34
496.73	57909.53
496.91	57836.98
497.09	58515.73
497.26	58787.24
497.44	58293.38
497.62	57766.76
497.79	57179.29
497.97	55756.24
498.14	56025.40
498.32	57069.28
498.50	57822.93
498.67	58482.97
498.85	58279.34
499.03	58363.60
499.20	58553.18
499.38	58583.61
499.56	58347.21
499.73	57935.28
499.91	57525.69
500.08	57254.18
500.26	56528.62
500.44	57036.51
500.61	57733.99
500.79	57483.56
500.97	56992.04
501.14	57125.46
501.32	56856.29
501.49	56912.47
501.67	56868.00
501.84	57588.88
502.02	57993.79
502.20	58274.66
502.37	58080.39
502.55	58314.45
502.72	58990.86
502.90	59234.28
503.07	58756.81
503.25	58618.72
503.43	57616.97
503.60	57146.52
503.78	56580.11
503.95	57123.11
504.13	58319.13
504.30	59112.57
504.48	59028.31
504.65	58644.46
504.83	58489.99
505.01	59253.00
505.18	59355.99
505.36	60179.85
505.53	60074.53
505.71	60240.71
505.88	60191.56
506.06	59700.04
506.23	59285.77
506.41	59093.85
506.58	59494.08
506.76	59250.66
506.93	59138.32
507.11	59110.23
507.28	59159.38
507.46	58850.43
507.63	58042.95
507.81	58033.58
507.98	58230.19
508.16	58897.24
508.33	59332.58
508.50	59749.20
508.68	59880.27
508.85	60449.02
509.03	60385.82
509.20	60327.31
509.38	59641.53
509.55	59079.80
509.73	58930.01
509.90	59578.34
510.08	59781.96
510.25	59671.96
510.42	59559.61
510.60	59360.67
510.77	59674.30
510.95	60217.30
511.12	60343.69
511.30	60706.47
511.47	60636.26
511.64	60786.05
511.82	60353.05
511.99	59678.98
512.17	59320.88
512.34	59030.65
512.51	59194.49
512.69	59304.49
512.86	59381.73
513.04	59812.39
513.21	60020.70
513.38	59564.29
513.56	58990.86
513.73	58569.57
513.90	58693.61
514.08	58501.69
514.25	59150.02
514.43	59229.60
514.60	59559.61
514.77	59494.08
514.95	59489.40
515.12	59355.99
515.29	59807.71
515.47	60264.11
515.64	60308.58
515.81	59997.29
515.99	59430.88
516.16	58181.04
516.33	55835.82
516.51	54365.96
516.68	53897.86
516.85	53282.30
517.03	54024.25
517.20	56402.23
517.37	58684.25
517.54	59489.40
517.72	58974.48
517.89	56711.18
518.06	54440.86
518.24	54822.37
518.41	57120.77
518.58	58042.95
518.75	58326.15
518.93	58728.72
519.10	58443.18
519.27	58841.07
519.45	59180.45
519.62	59707.07
519.79	59992.61
519.96	59964.52
520.14	59414.50
520.31	58810.64
520.48	58712.34
520.65	59135.98
520.83	59833.46
521.00	60193.90
521.17	59821.75
521.34	59374.71
521.52	59821.75
521.69	60367.10
521.86	60626.90
522.03	60420.93
522.20	59288.11
522.38	58202.10
522.55	58368.28
522.72	58960.44
522.89	59288.11
523.07	59276.41
523.24	59505.78
523.41	60346.03
523.58	60952.23
523.75	61216.71
523.92	61036.49
524.10	60821.16
524.27	60872.65
524.44	60547.32
524.61	60526.25
524.78	60388.16
524.96	60320.29
525.13	60191.56
525.30	60467.74
525.47	60919.46
525.64	60933.51
525.81	60182.19
525.98	58855.11
526.16	57502.28
526.33	56973.32
526.50	56580.11
526.67	56222.01
526.84	56713.52
527.01	57687.18
527.18	58691.27
527.36	59442.59
527.53	60243.05
527.70	60479.44
527.87	59887.29
528.04	59426.20
528.21	59931.76
528.38	60477.10
528.55	61141.81
528.72	61420.34
528.89	61307.99
529.07	61244.80
529.24	60753.29
529.41	59962.18
529.58	59456.63
529.75	59620.47
529.92	60051.12
530.09	60203.26
530.26	61036.49
530.43	60959.25
530.60	61020.11
530.77	61141.81
530.94	61361.82
531.11	60926.49
531.28	60542.64
531.46	60580.09
531.63	60629.24
531.80	60420.93
531.97	59882.61
532.14	59419.18
532.31	58284.02
532.48	57694.21
532.65	57794.85
532.82	58630.42
532.99	59662.60
533.16	59800.69
533.33	60495.83
533.50	60378.80
533.67	59796.01
533.84	59377.05
534.01	59508.12
534.18	59662.60
534.35	59894.31
534.52	59674.30
534.69	59941.12
534.86	60287.52
535.03	60706.47
535.20	61006.06
535.37	61270.54
535.54	61286.93
535.71	60973.30
535.88	60760.31
536.05	60097.94
536.22	59910.69
536.38	59627.49
536.55	59189.81
536.72	58721.70
536.89	58431.47
537.06	59267.05
537.23	60189.22
537.40	60339.01
537.57	60266.45
537.74	60161.13
537.91	59983.25
538.08	59917.71
538.25	60037.08
538.42	60367.10
538.59	59875.58
538.75	59458.97
538.92	59201.51
539.09	59047.04
539.26	58782.55
539.43	58747.45
539.60	58719.36
539.77	59042.35
539.94	58808.30
540.11	58174.02
540.28	57736.34
540.44	57858.04
540.61	57900.17
540.78	58117.84
540.95	58841.07
541.12	58946.39
541.29	59222.58
541.46	59444.93
541.62	59629.83
541.79	59344.28
541.96	58820.00
542.13	58749.79
542.30	59222.58
542.47	59367.69
542.63	58939.37
542.80	58791.92
542.97	59025.97
543.14	58883.20
543.31	58787.24
543.48	59409.82
543.64	60086.23
543.81	60240.71
543.98	60074.53
544.15	59543.23
544.32	59011.93
544.48	59023.63
544.65	59554.93
544.82	59884.95
544.99	59564.29
545.16	59253.00
545.32	59084.48
545.49	59774.94
545.66	60186.88
545.83	59725.79
546.00	59465.99
546.16	59178.10
546.33	58958.09
546.50	59100.87
546.67	59363.01
546.83	59180.45
547.00	59040.01
547.17	58550.84
547.34	57975.07
547.50	57832.30
547.67	58571.91
547.84	58438.50
548.00	58719.36
548.17	59215.55
548.34	59154.70
548.51	59171.08
548.67	59494.08
548.84	59332.58
549.01	59140.66
549.18	59171.08
549.34	58953.41
549.51	59070.44
549.68	58855.11
549.84	58733.40
550.01	58707.66
550.18	58511.05
550.34	58585.95
550.51	58646.80
550.68	58691.27
550.84	58330.83
551.01	58293.38
551.18	58319.13
551.34	58312.11
551.51	58731.06
551.68	59042.35
551.84	58953.41
552.01	58953.41
552.18	58915.96
552.34	58131.89
552.51	57663.78
552.68	57600.58
552.84	58288.70
553.01	58351.90
553.18	58274.66
553.34	58295.72
553.51	58611.70
553.67	58611.70
553.84	58885.54
554.01	58824.68
554.17	58475.94
554.34	58632.76
554.51	58820.00
554.67	59044.69
554.84	58787.24
555.00	58592.97
555.17	58220.83
555.33	58281.68
555.50	58122.52
555.67	58415.09
555.83	58174.02
556.00	58012.52
556.16	57776.12
556.33	57563.14
556.50	57153.54
556.66	57366.53
556.83	57190.99
556.99	57354.83
557.16	57291.63
557.32	57748.04
557.49	58047.63
557.65	57757.40
557.82	57797.19
557.98	57588.88
558.15	57165.24
558.32	56507.55
558.48	55683.69
558.65	55903.70
558.81	56278.18
558.98	56542.66
559.14	56853.95
559.31	56882.04
559.47	56765.01
559.64	56413.93
559.80	56114.34
559.97	56378.82
560.13	56669.05
560.30	57640.37
560.46	57778.46
560.63	58143.59
560.79	58192.74
560.96	57631.01
561.12	56720.54
561.29	56030.08
561.45	56142.43
561.61	56491.17
561.78	56849.27
561.94	56755.65
562.11	56931.19
562.27	56432.66
562.44	56868.00
562.60	57221.42
562.77	57429.72
562.93	57343.12
563.10	56987.36
563.26	56451.38
563.42	56694.80
563.59	56329.67
563.75	56474.79
563.92	56470.11
564.08	56442.02
564.24	56736.93
564.41	56769.69
564.57	56736.93
564.74	56409.25
564.90	56652.67
565.07	56170.52
565.23	55943.48
565.39	55646.24
565.56	55236.64
565.72	54955.78
565.88	55159.41
566.05	55655.60
566.21	55880.29
566.38	55648.58
566.54	55842.84
566.70	56329.67
566.87	56519.26
567.03	56596.49
567.19	56694.80
567.36	56479.47
567.52	56200.94
567.68	56016.04
567.85	55194.51
568.01	55152.38
568.17	54590.66
568.34	54588.31
568.50	54295.75
568.66	54703.00
568.83	55194.51
568.99	54981.52
569.15	55377.08
569.32	55269.41
569.48	54965.14
569.64	54817.69
569.81	54578.95
569.97	54490.01
570.13	54607.04
570.30	54117.87
570.46	53694.23
570.62	53223.78
570.78	52669.08
570.95	53165.27
571.11	54068.72
571.27	54328.52
571.43	54394.05
571.60	54714.70
571.76	54703.00
571.92	55124.30
572.09	55213.24
572.25	55238.98
572.41	55049.40
572.57	54777.90
572.74	54688.96
572.90	54585.97
573.06	54780.24
573.22	54656.19
573.38	54707.68
573.55	54759.17
573.71	54955.78
573.87	54703.00
574.03	54574.27
574.20	54499.37
574.36	54042.97
574.52	54309.79
574.68	53762.11
574.84	53528.05
575.01	53125.48
575.17	53041.22
575.33	53396.98
575.49	53628.69
575.65	53684.87
575.82	53130.16
575.98	53151.23
576.14	53642.74
576.30	53586.57
576.46	53867.43
576.62	53998.50
576.79	53389.96
576.95	53404.00
577.11	53434.43
577.27	53249.53
577.43	53385.28
577.59	53315.06
577.75	52793.12
577.92	52364.81
578.08	52161.18
578.24	51828.82
578.40	52388.21
578.56	52598.86
578.72	52718.23
578.88	52662.05
579.04	52680.78
579.21	53134.84
579.37	53010.79
579.53	53275.27
579.69	53043.56
579.85	53329.11
580.01	52959.30
580.17	52622.26
580.33	52753.33
580.49	52664.39
580.65	52823.55
580.82	53305.70
580.98	53125.48
581.14	52851.64
581.30	52980.37
581.46	53027.18
581.62	53298.68
581.78	53183.99
581.94	53237.83
582.10	53436.77
582.26	53319.74
582.42	53144.20
582.58	53298.68
582.74	53092.71
582.90	53214.42
583.06	53298.68
583.22	53010.79
583.38	52921.85
583.54	52931.22
583.70	52851.64
583.86	53055.26
584.02	52767.38
584.18	53043.56
584.34	52739.29
584.50	52589.50
584.66	52411.62
584.82	52055.85
584.98	52296.93
585.14	51683.71
585.30	51180.49
