SpectraSuite Data File
++++++++++++++++++++++++++++++++++++
Date: Mon Oct 07 14:54:58 GMT-05:00 2013
User: price-jones
Dark Spectrum Present: No
Reference Spectrum Present: No
Number of Sampled Component Spectra: 1
Spectrometers: USB2+H05261
Integration Time (usec): 10000 (USB2+H05261)
Spectra Averaged: 1 (USB2+H05261)
Boxcar Smoothing: 0 (USB2+H05261)
Correct for Electrical Dark: No (USB2+H05261)
Strobe/Lamp Enabled: No (USB2+H05261)
Correct for Detector Non-linearity: No (USB2+H05261)
Correct for Stray Light: No (USB2+H05261)
Number of Pixels in Processed Spectrum: 2048
>>>>>Begin Processed Spectral Data<<<<<
365.73	0.00
365.92	0.00
366.12	0.00
366.32	0.00
366.52	0.00
366.72	0.00
366.91	0.00
367.11	0.00
367.31	0.00
367.51	0.00
367.70	0.00
367.90	0.00
368.10	0.00
368.30	0.00
368.49	0.00
368.69	0.00
368.89	0.00
369.09	0.00
369.28	0.00
369.48	0.00
369.68	0.00
369.87	0.00
370.07	0.00
370.27	0.00
370.47	133.41
370.66	1425.39
370.86	1792.85
371.06	1926.26
371.25	1891.15
371.45	1682.85
371.65	1432.41
371.84	1462.83
372.04	1572.84
372.24	1724.97
372.44	1776.47
372.63	1661.78
372.83	1530.71
373.03	1416.02
373.22	1411.34
373.42	1516.67
373.62	1682.85
373.81	1769.44
374.01	1575.18
374.21	1563.48
374.40	1439.43
374.60	1556.46
374.79	1769.44
374.99	2047.97
375.19	2218.83
375.38	2076.06
375.58	2090.10
375.78	2094.78
375.97	2108.82
376.17	2047.97
376.37	2099.46
376.56	2225.85
376.76	2335.85
376.95	2499.69
377.15	2628.42
377.35	2864.82
377.54	2834.39
377.74	3000.57
377.93	2979.50
378.13	2799.28
378.33	2630.76
378.52	2569.91
378.72	2396.71
378.91	2394.37
379.11	2207.13
379.31	2143.93
379.50	2256.28
379.70	2380.32
379.89	2708.00
380.09	2736.09
380.28	2946.73
380.48	2932.69
380.68	2736.09
380.87	2642.46
381.07	2476.29
381.26	2221.17
381.46	2113.50
381.65	2031.58
381.85	2010.52
382.04	1940.30
382.24	1818.60
382.43	1727.32
382.63	1668.80
382.83	1675.82
383.02	1671.14
383.22	1680.50
383.41	1661.78
383.61	1886.47
383.80	2176.70
384.00	2366.28
384.19	2796.94
384.39	2710.34
384.58	2928.01
384.78	2846.09
384.97	2768.85
385.17	2555.86
385.36	2525.44
385.56	2310.11
385.75	2487.99
385.95	2757.15
386.14	2981.84
386.34	2895.24
386.53	2808.64
386.72	2504.37
386.92	2733.75
387.11	2871.84
387.31	3000.57
387.50	2913.97
387.70	2825.03
387.89	2651.83
388.09	2810.98
388.28	2827.37
388.48	2937.37
388.67	3185.47
388.86	3529.53
389.06	3662.94
389.25	3838.48
389.45	3913.38
389.64	3859.54
389.84	3974.23
390.03	3719.11
390.22	3796.35
390.42	4025.72
390.61	4241.05
390.81	4327.65
391.00	4470.42
391.19	4451.70
391.39	4250.41
391.58	4035.08
391.78	3803.37
391.97	3566.98
392.16	3297.81
392.36	2904.60
392.55	2338.20
392.75	1689.87
392.94	1434.75
393.13	1659.44
393.33	1977.75
393.52	2558.21
393.71	3030.99
393.91	3550.59
394.10	3801.03
394.29	4245.73
394.49	4526.60
394.68	4819.16
394.88	4816.82
395.07	4678.73
395.26	5004.07
395.46	4566.39
395.65	4224.67
395.84	3515.48
396.04	2981.84
396.23	2263.30
396.42	2087.76
396.62	2062.01
396.81	2726.72
397.00	3393.78
397.19	4290.20
397.39	4737.24
397.58	5376.21
397.77	5806.87
397.97	5891.13
398.16	5973.05
398.35	6218.80
398.55	6499.67
398.74	6726.70
398.93	6555.84
399.12	6579.25
399.32	6518.39
399.51	6590.95
399.70	7000.54
399.90	6853.09
400.09	7002.88
400.28	6942.03
400.47	6988.84
400.67	7377.37
400.86	7459.29
401.05	7461.63
401.24	7424.18
401.44	7651.21
401.63	7747.17
401.82	7639.51
402.01	7566.95
402.21	7784.62
402.40	7646.53
402.59	7267.36
402.78	7192.47
402.97	7012.24
403.17	7480.35
403.36	7786.96
403.55	7964.84
403.74	7838.45
403.93	7328.22
404.13	7047.35
404.32	7049.69
404.51	7412.48
404.70	7971.86
404.89	7817.39
405.09	7723.77
405.28	7613.76
405.47	7482.69
405.66	7559.93
405.85	7295.45
406.05	6986.50
406.24	7101.19
406.43	7564.61
406.62	7712.07
406.81	7602.06
407.00	7492.05
407.20	7183.10
407.39	7623.12
407.58	7978.89
407.77	8339.33
407.96	8334.65
408.15	8634.24
408.34	8678.71
408.54	8851.91
408.73	8884.67
408.92	8786.37
409.11	8215.28
409.30	8023.36
409.49	7515.46
409.68	7136.29
409.87	7330.56
410.07	7747.17
410.26	8021.02
410.45	8528.91
410.64	8879.99
410.83	9191.28
411.02	9193.62
411.21	9701.52
411.40	9533.00
411.59	9523.64
411.78	9366.82
411.98	9338.74
412.17	9240.44
412.36	9193.62
412.55	9097.66
412.74	8868.29
412.93	8854.25
413.12	9074.26
413.31	9607.90
413.50	9729.61
413.69	9914.51
413.88	9467.47
414.07	9481.51
414.26	9872.38
414.45	9804.50
414.64	9657.05
414.83	9816.21
415.02	9720.24
415.22	9781.10
415.41	9954.30
415.60	10171.97
415.79	10569.86
415.98	11026.26
416.17	10513.69
416.36	10094.73
416.55	10319.42
416.74	9912.17
416.93	9650.03
417.12	10076.01
417.31	10214.10
417.50	10162.61
417.69	10272.61
417.88	10429.43
418.07	10003.45
418.26	10134.52
418.45	10443.47
418.64	10808.59
418.83	10953.71
419.02	10719.65
419.21	10504.32
419.39	10195.37
419.58	9710.88
419.77	9848.97
419.96	10340.49
420.15	10923.28
420.34	11625.44
420.53	11702.68
420.72	11971.84
420.91	11569.27
421.10	11344.58
421.29	11360.96
421.48	10986.47
421.67	11309.47
421.86	10813.28
422.05	10068.98
422.24	9261.50
422.43	9694.50
422.61	10698.59
422.80	11026.26
422.99	10754.76
423.18	10424.75
423.37	10518.37
423.56	10724.33
423.75	10956.05
423.94	11250.96
424.13	10399.00
424.32	10415.38
424.50	10413.04
424.69	10513.69
424.88	10485.60
425.07	10422.41
425.26	10324.10
425.45	10090.05
425.64	10277.29
425.83	10483.26
426.01	10988.82
426.20	10995.84
426.39	10642.42
426.58	9753.01
426.77	9249.80
426.96	9025.11
427.15	9418.32
427.33	10345.17
427.52	10267.93
427.71	10487.94
427.90	10193.03
428.09	10202.40
428.28	9891.10
428.46	9614.92
428.65	9596.20
428.84	9853.66
429.03	9991.75
429.22	9226.39
429.40	8702.11
429.59	7892.29
429.78	7070.76
429.97	7033.31
430.16	7391.41
430.34	7042.67
430.53	7293.11
430.72	7815.05
430.91	8870.63
431.10	10176.65
431.28	11693.32
431.47	12484.42
431.66	12168.45
431.85	10960.73
432.03	10127.50
432.22	10420.06
432.41	10977.11
432.60	11702.68
432.79	12109.93
432.97	12222.28
433.16	11716.72
433.35	10609.65
433.54	9521.30
433.72	9479.17
433.91	9984.73
434.10	11077.76
434.28	11688.64
434.47	12072.48
434.66	11541.18
434.85	11681.61
435.03	11765.87
435.22	11761.19
435.41	12241.00
435.59	12461.01
435.78	12833.16
435.97	12870.61
436.16	12964.23
436.34	12917.42
436.53	12456.33
436.72	12610.81
436.90	11712.04
437.09	11929.71
437.28	11796.30
437.46	12325.26
437.65	12025.67
437.84	10839.02
438.02	10396.66
438.21	10597.95
438.40	10904.56
438.58	11662.89
438.77	12067.80
438.96	12194.19
439.14	12989.97
439.33	12837.84
439.52	13242.75
439.70	12744.22
439.89	12184.83
440.08	12107.59
440.26	12315.90
440.45	13221.69
440.63	13998.74
440.82	14303.01
441.01	13848.95
441.19	13865.33
441.38	14326.42
441.57	14415.36
441.75	14527.71
441.94	15021.56
442.12	14750.06
442.31	15213.48
442.50	15356.25
442.68	14719.63
442.87	14738.35
443.05	14590.90
443.24	15037.94
443.43	15049.64
443.61	14972.41
443.80	15466.26
443.98	14949.00
444.17	15012.20
444.35	15730.74
444.54	15861.81
444.73	15845.43
444.91	14558.13
445.10	14087.68
445.28	13591.49
445.47	13570.43
445.65	13650.00
445.84	14064.28
446.02	14380.25
446.21	14736.01
446.39	14757.08
446.58	15140.93
446.77	15555.20
446.95	15627.76
447.14	15747.12
447.32	16161.40
447.51	15555.20
447.69	14682.18
447.88	15143.27
448.06	14836.66
448.25	15049.64
448.43	15187.74
448.62	14932.62
448.80	14736.01
448.99	15152.63
449.17	15513.07
449.36	15531.80
449.54	15782.23
449.73	16145.02
449.91	16236.30
450.10	16908.03
450.28	16561.63
450.46	16505.46
450.65	16652.91
450.83	16578.01
451.02	16219.91
451.20	16088.84
451.39	15822.02
451.57	15995.22
451.76	16116.93
451.94	15852.45
452.13	15660.52
452.31	14623.67
452.49	14068.96
452.68	14593.24
452.86	14485.58
453.05	14731.33
453.23	15328.17
453.42	15845.43
453.60	15796.28
453.78	16147.36
453.97	15459.24
454.15	15712.02
454.34	15445.20
454.52	15527.11
454.70	15279.02
454.89	15077.73
455.07	15314.13
455.26	15744.78
455.44	15906.28
455.62	16489.07
455.81	16673.98
455.99	16025.65
456.17	16416.52
456.36	16386.09
456.54	16961.86
456.73	16966.54
456.91	17078.89
457.09	17018.04
457.28	16781.64
457.46	16578.01
457.64	16819.09
457.83	15866.49
458.01	15730.74
458.19	16355.66
458.38	16238.64
458.56	16423.54
458.74	16666.95
458.93	16561.63
459.11	16325.24
459.29	15747.12
459.48	16418.86
459.66	15997.56
459.84	15983.52
460.03	16819.09
460.21	16470.35
460.39	16994.63
460.57	17104.64
460.76	17355.07
460.94	17116.34
461.12	17116.34
461.31	16980.59
461.49	17408.90
461.67	17308.26
461.85	17926.16
462.04	17502.53
462.22	17809.14
462.40	17762.33
462.59	17153.79
462.77	17060.16
462.95	17453.37
463.13	17703.81
463.32	17221.66
463.50	16926.75
463.68	17029.74
463.86	17001.65
464.05	17069.53
464.23	16563.97
464.41	16100.55
464.59	15997.56
464.78	16746.53
464.96	16685.68
465.14	16411.84
465.32	17411.25
465.50	17460.40
465.69	17811.48
465.87	17266.13
466.05	16554.61
466.23	16004.58
466.41	16107.57
466.60	16645.89
466.78	16664.61
466.96	16255.02
467.14	16119.27
467.32	17125.70
467.51	16713.77
467.69	15936.71
467.87	16262.04
468.05	16629.51
468.23	16662.27
468.41	16711.42
468.60	16582.70
468.78	16716.11
468.96	16776.96
469.14	17172.51
469.32	17366.78
469.50	16542.91
469.69	16582.70
469.87	15906.28
470.05	16367.37
470.23	16229.27
470.41	16980.59
470.59	16549.93
470.77	16685.68
470.95	16702.06
471.14	17081.23
471.32	17420.61
471.50	18602.58
471.68	18302.99
471.86	18583.85
472.04	17968.29
472.22	18071.28
472.40	17245.07
472.58	17661.68
472.77	17219.32
472.95	17848.93
473.13	17832.54
473.31	17434.65
473.49	17902.76
473.67	17926.16
473.85	17635.94
474.03	17675.73
474.21	18176.60
474.39	18349.80
474.57	18331.08
474.75	18640.03
474.93	18860.04
475.12	18209.37
475.30	18579.17
475.48	18115.75
475.66	18656.41
475.84	18288.95
476.02	18387.25
476.20	18038.51
476.38	18410.65
476.56	18827.27
476.74	19009.83
476.92	19358.57
477.10	19236.86
477.28	20205.84
477.46	19946.05
477.64	20156.69
477.82	20034.99
478.00	20372.02
478.18	20149.67
478.36	19880.51
478.54	19873.49
478.72	20528.84
478.90	21355.05
479.08	21039.08
479.26	21046.10
479.44	20393.09
479.62	21202.91
479.80	21539.95
479.98	21345.69
480.16	21621.87
480.34	21633.57
480.52	21392.50
480.70	21324.62
480.88	21617.19
481.06	22345.09
481.24	22735.96
481.41	23274.29
481.59	23199.39
481.77	22932.57
481.95	22225.73
482.13	23058.96
482.31	22157.85
482.49	22998.10
482.67	22309.99
482.85	22932.57
483.03	22916.19
483.21	23206.41
483.39	23414.72
483.57	23309.40
483.74	22827.24
483.92	22838.95
484.10	23538.77
484.28	23737.71
484.46	23632.39
484.64	23396.00
484.82	23138.54
485.00	23192.37
485.18	22630.64
485.35	21745.92
485.53	19197.07
485.71	18200.01
485.89	18665.77
486.07	19398.36
486.25	21319.94
486.43	22066.57
486.61	21771.66
486.78	21862.94
486.96	22644.68
487.14	23489.62
487.32	24240.93
487.50	24666.91
487.68	24140.29
487.85	25785.68
488.03	25256.72
488.21	24535.84
488.39	23789.20
488.57	24112.20
488.75	24507.75
488.92	25799.73
489.10	27435.76
489.28	27644.07
489.46	28369.63
489.64	28889.23
489.81	27950.68
489.99	27735.35
490.17	28613.05
490.35	28727.74
490.53	27777.48
490.70	27346.82
490.88	28016.21
491.06	28814.34
491.24	28531.13
491.41	26934.88
491.59	26157.83
491.77	25685.04
491.95	26525.29
492.13	27386.61
492.30	28166.01
492.48	29600.76
492.66	29996.31
492.84	28996.90
493.01	29188.82
493.19	27611.30
493.37	27475.55
493.54	27997.49
493.72	28898.59
493.90	29909.71
494.08	30312.28
494.25	31550.42
494.43	31349.14
494.61	32142.58
494.79	31864.05
494.96	31749.37
495.14	30675.06
495.32	29200.52
495.49	29448.62
495.67	30286.53
495.85	32311.10
496.02	32074.70
496.20	32240.88
496.38	31924.91
496.55	31754.05
496.73	32196.41
496.91	31700.22
497.09	32283.01
497.26	32187.05
497.44	32811.97
497.62	31508.29
497.79	30742.94
497.97	29589.05
498.14	29757.57
498.32	31138.49
498.50	31339.77
498.67	32671.54
498.85	31894.48
499.03	31498.93
499.20	32374.29
499.38	32055.98
499.56	31302.32
499.73	31463.82
499.91	30771.02
500.08	30347.39
500.26	30078.22
500.44	30801.45
500.61	31428.71
500.79	30335.68
500.97	30190.57
501.14	30115.67
501.32	29401.81
501.49	29439.26
501.67	30054.82
501.84	31803.20
502.02	31147.85
502.20	31676.81
502.37	32217.47
502.55	32287.69
502.72	32697.28
502.90	33256.67
503.07	32322.80
503.25	32451.53
503.43	31337.43
503.60	30094.61
503.78	29722.46
503.95	31012.10
504.13	31557.44
504.30	33177.09
504.48	33415.83
504.65	32807.29
504.83	32460.89
505.01	32666.86
505.18	32919.63
505.36	34380.13
505.53	34059.48
505.71	34483.11
505.88	34550.99
506.06	34213.95
506.23	33268.37
506.41	32716.01
506.58	33242.63
506.76	32636.43
506.93	33071.77
507.11	31409.99
507.28	32659.84
507.46	32165.98
507.63	31213.38
507.81	30955.93
507.98	31323.39
508.16	32657.49
508.33	33532.86
508.50	32673.88
508.68	34113.31
508.85	34483.11
509.03	34057.14
509.20	33249.65
509.38	32519.40
509.55	32163.64
509.73	33380.72
509.90	33720.10
510.08	32418.76
510.25	32236.20
510.42	32364.93
510.60	32533.45
510.77	33546.90
510.95	34375.45
511.12	32921.98
511.30	33907.34
511.47	35082.29
511.64	34110.97
511.82	34029.05
511.99	33195.82
512.17	33350.29
512.34	32491.32
512.51	32137.90
512.69	32634.09
512.86	32858.78
513.04	34045.43
513.21	33373.70
513.38	33022.62
513.56	32257.26
513.73	31412.33
513.90	30843.58
514.08	31728.30
514.25	32547.49
514.43	32992.19
514.60	32959.42
514.77	32620.05
514.95	32732.39
515.12	32603.66
515.29	33497.75
515.47	33780.95
515.64	33340.93
515.81	34195.23
515.99	32952.40
516.16	30352.07
516.33	28098.13
516.51	27087.02
516.68	26295.92
516.85	25443.96
517.03	26281.88
517.20	29008.60
517.37	31346.79
517.54	31676.81
517.72	30050.14
517.89	28570.92
518.06	27323.41
518.24	28367.29
518.41	29935.45
518.58	30588.46
518.75	30958.27
518.93	31445.10
519.10	31023.80
519.27	31452.12
519.45	32077.04
519.62	33149.01
519.79	33439.23
519.96	33259.01
520.14	32070.02
520.31	31400.63
520.48	31459.14
520.65	32002.14
520.83	32503.02
521.00	32568.55
521.17	31831.29
521.34	32032.57
521.52	32273.65
521.69	33432.21
521.86	33322.21
522.03	32161.30
522.20	31096.36
522.38	29982.26
522.55	30590.80
522.72	31527.02
522.89	30752.30
523.07	31405.31
523.24	32645.79
523.41	33399.44
523.58	33078.79
523.75	32617.71
523.92	34054.79
524.10	33762.23
524.27	33977.56
524.44	33479.02
524.61	33970.54
524.78	34061.82
524.96	33701.37
525.13	33546.90
525.30	34099.26
525.47	34644.61
525.64	34029.05
525.81	32180.03
525.98	29961.20
526.16	28713.69
526.33	28463.25
526.50	28870.51
526.67	28556.88
526.84	28685.61
527.01	30157.80
527.18	31342.11
527.36	31433.39
527.53	33404.13
527.70	32580.26
527.87	31215.72
528.04	31367.86
528.21	32259.60
528.38	33450.94
528.55	33759.89
528.72	34057.14
528.89	33441.57
529.07	34249.06
529.24	31892.14
529.41	32210.45
529.58	31679.15
529.75	32048.96
529.92	32322.80
530.09	32514.72
530.26	32711.33
530.43	31674.47
530.60	33488.38
530.77	33738.82
530.94	34541.63
531.11	33158.37
531.28	33118.58
531.46	32968.79
531.63	33713.08
531.80	33731.80
531.97	32301.73
532.14	30710.17
532.31	29003.92
532.48	28870.51
532.65	28912.64
532.82	30139.08
532.99	31426.37
533.16	32943.04
533.33	34244.38
533.50	32891.55
533.67	32491.32
533.84	32051.30
534.01	31578.51
534.18	32346.20
534.35	31882.78
534.52	32032.57
534.69	32360.25
534.86	31583.19
535.03	32692.60
535.20	33036.66
535.37	33172.41
535.54	33362.00
535.71	32582.60
535.88	32168.32
536.05	31782.13
536.22	31126.78
536.38	30944.22
536.55	31295.30
536.72	30595.48
536.89	30948.90
537.06	31431.05
537.23	32528.77
537.40	31833.63
537.57	32126.19
537.74	31412.33
537.91	31255.51
538.08	32566.21
538.25	32875.16
538.42	31737.66
538.59	31559.78
538.75	32247.90
538.92	31782.13
539.09	30515.90
539.26	29706.08
539.43	29247.33
539.60	29394.79
539.77	29930.77
539.94	29060.09
540.11	28919.66
540.28	27800.88
540.44	28978.17
540.61	28886.89
540.78	29518.84
540.95	30883.37
541.12	30017.37
541.29	31325.73
541.46	30583.78
541.62	30806.13
541.79	29935.45
541.96	29502.45
542.13	30785.07
542.30	30841.24
542.47	30661.02
542.63	30558.03
542.80	29188.82
542.97	29500.11
543.14	29387.77
543.31	29434.58
543.48	31047.21
543.64	31459.14
543.81	31997.46
543.98	30995.71
544.15	30668.04
544.32	29465.00
544.48	30731.23
544.65	29326.91
544.82	29902.68
544.99	30740.60
545.16	30139.08
545.32	30490.16
545.49	31407.65
545.66	30953.58
545.83	30824.86
546.00	30118.01
546.16	29961.20
546.33	30274.83
546.50	30335.68
546.67	30511.22
546.83	29649.91
547.00	29722.46
547.17	29228.61
547.34	29228.61
547.50	29659.27
547.67	29614.80
547.84	29696.72
548.00	30394.20
548.17	28875.19
548.34	28985.19
548.51	29355.00
548.67	30859.96
548.84	30225.68
549.01	30754.64
549.18	30546.33
549.34	31175.94
549.51	30560.37
549.68	30373.13
549.84	29720.12
550.01	29869.92
550.18	28652.84
550.34	29010.94
550.51	29039.03
550.68	28835.40
550.84	27679.18
551.01	28339.21
551.18	27756.41
551.34	28020.89
551.51	28912.64
551.68	30419.94
551.84	29118.60
552.01	29404.15
552.18	28652.84
552.34	28334.53
552.51	28694.97
552.68	29553.94
552.84	28711.35
553.01	28676.24
553.18	29729.48
553.34	29811.40
553.51	29605.44
553.67	28999.24
553.84	30387.18
554.01	30178.87
554.17	28659.86
554.34	29291.80
554.51	30536.97
554.67	30043.12
554.84	28786.25
555.00	28697.31
555.17	29039.03
555.33	28786.25
555.50	29446.28
555.67	28910.30
555.83	28982.85
556.00	28479.64
556.16	28811.99
556.33	28102.81
556.50	28294.74
556.66	27253.20
556.83	26586.15
556.99	27442.78
557.16	27782.16
557.32	28121.54
557.49	28046.64
557.65	27908.55
557.82	26721.90
557.98	27213.41
558.15	28224.52
558.32	27094.04
558.48	26195.28
558.65	25811.43
558.81	25935.48
558.98	26958.29
559.14	27068.30
559.31	27714.28
559.47	26951.27
559.64	25935.48
559.80	27791.52
559.97	26906.80
560.13	27634.71
560.30	27960.04
560.46	27908.55
560.63	28505.38
560.79	28774.55
560.96	27349.16
561.12	27094.04
561.29	26710.19
561.45	26766.37
561.61	26611.89
561.78	26450.39
561.94	26806.16
562.11	26473.80
562.27	27211.07
562.44	27367.88
562.60	26593.17
562.77	27344.48
562.93	26796.79
563.10	26670.40
563.26	26565.08
563.42	25766.96
563.59	25575.03
563.75	26881.05
563.92	26321.66
564.08	26888.07
564.24	26380.18
564.41	24940.75
564.57	25661.63
564.74	25429.92
564.90	24915.00
565.07	25268.42
565.23	24496.05
565.39	24720.74
565.56	25621.84
565.72	25053.09
565.88	25661.63
566.05	25270.76
566.21	25612.48
566.38	24868.19
566.54	24692.65
566.70	24388.38
566.87	25252.04
567.03	26787.43
567.19	27084.68
567.36	25242.68
567.52	26092.29
567.68	25263.74
567.85	25439.28
568.01	25811.43
568.17	23948.36
568.34	23414.72
568.50	24004.53
568.66	24154.33
568.83	24407.11
568.99	24994.58
569.15	24950.11
569.32	25275.45
569.48	24896.28
569.64	24629.46
569.81	23548.13
569.97	24254.97
570.13	24226.89
570.30	24283.06
570.46	23349.18
570.62	22342.75
570.78	21853.58
570.95	22368.50
571.11	23384.29
571.27	23447.49
571.43	23709.63
571.60	23913.25
571.76	23906.23
571.92	24348.59
572.09	24896.28
572.25	24875.21
572.41	25167.78
572.57	24992.24
572.74	24215.18
572.90	23983.47
573.06	24074.75
573.22	23730.69
573.38	23302.37
573.55	23075.34
573.71	23847.72
573.87	24137.94
574.03	23761.12
574.20	23943.68
574.36	23718.99
574.52	23477.91
574.68	23274.29
574.84	22916.19
575.01	23384.29
575.17	23800.91
575.33	22927.89
575.49	22658.73
575.65	23234.50
575.82	22979.38
575.98	22897.46
576.14	22675.11
576.30	22998.10
576.46	22607.23
576.62	23229.82
576.79	23047.26
576.95	22368.50
577.11	22183.60
577.27	22068.91
577.43	22178.92
577.59	22387.22
577.75	22780.43
577.92	21771.66
578.08	21968.27
578.24	21624.21
578.40	21926.14
578.56	21816.13
578.72	21781.03
578.88	23112.79
579.04	22286.58
579.21	22443.40
579.37	22202.32
579.53	22068.91
579.69	21671.02
579.85	21497.82
580.01	21720.17
580.17	21923.80
580.33	21834.86
580.49	21745.92
580.65	22001.04
580.82	21958.91
580.98	22188.28
581.14	21900.39
581.30	22625.96
581.46	22384.88
581.62	21872.31
581.78	22125.08
581.94	22628.30
582.10	22122.74
582.26	22370.84
582.42	21947.20
582.58	23297.69
582.74	22878.74
582.90	22127.42
583.06	22333.39
583.22	22419.99
583.38	22806.18
583.54	22434.03
583.70	22237.43
583.86	22214.02
584.02	22560.42
584.18	22522.98
584.34	22398.93
584.50	23147.90
584.66	22656.39
584.82	22314.67
584.98	21778.68
585.14	21369.09
585.30	21193.55
585.46	20819.07
585.62	20231.59
585.78	21163.12
585.94	21223.98
586.10	21551.65
586.26	21357.39
586.42	21336.32
