SpectraSuite Data File
++++++++++++++++++++++++++++++++++++
Date: Mon Oct 07 14:53:03 GMT-05:00 2013
User: price-jones
Dark Spectrum Present: No
Reference Spectrum Present: No
Number of Sampled Component Spectra: 1
Spectrometers: USB2+H05261
Integration Time (usec): 100000 (USB2+H05261)
Spectra Averaged: 1 (USB2+H05261)
Boxcar Smoothing: 0 (USB2+H05261)
Correct for Electrical Dark: No (USB2+H05261)
Strobe/Lamp Enabled: No (USB2+H05261)
Correct for Detector Non-linearity: No (USB2+H05261)
Correct for Stray Light: No (USB2+H05261)
Number of Pixels in Processed Spectrum: 2048
>>>>>Begin Processed Spectral Data<<<<<
365.73	0.00
365.92	0.00
366.12	0.00
366.32	0.00
366.52	0.00
366.72	0.00
366.91	0.00
367.11	0.00
367.31	0.00
367.51	0.00
367.70	0.00
367.90	0.00
368.10	0.00
368.30	0.00
368.49	0.00
368.69	0.00
368.89	0.00
369.09	0.00
369.28	0.00
369.48	0.00
369.68	0.00
369.87	0.00
370.07	0.00
370.27	0.00
370.47	451.72
370.66	2647.15
370.86	3253.34
371.06	3396.12
371.25	3414.84
371.45	3150.36
371.65	2883.54
371.84	2586.29
372.04	2832.05
372.24	3136.32
372.44	3234.62
372.63	3173.77
372.83	2979.50
373.03	2635.44
373.22	2441.18
373.42	2502.03
373.62	2972.48
373.81	3178.45
374.01	3145.68
374.21	2874.18
374.40	2675.23
374.60	2885.88
374.79	3087.17
374.99	3779.97
375.19	3873.59
375.38	3866.56
375.58	3805.71
375.78	3644.21
375.97	3726.13
376.17	3740.18
376.37	3906.35
376.56	3918.06
376.76	4182.54
376.95	4620.22
377.15	4634.26
377.35	4940.87
377.54	5004.07
377.74	5238.12
377.93	5268.55
378.13	5048.54
378.33	5046.20
378.52	4461.06
378.72	4290.20
378.91	4379.14
379.11	4138.07
379.31	3932.10
379.50	3868.91
379.70	4304.25
379.89	4741.93
380.09	4983.00
380.28	5156.20
380.48	5214.71
380.68	5078.96
380.87	4835.55
381.07	4622.56
381.26	4255.09
381.46	4018.70
381.65	3829.12
381.85	3782.31
382.04	3559.95
382.24	3302.50
382.43	3178.45
382.63	3040.36
382.83	3080.14
383.02	3286.11
383.22	3185.47
383.41	3138.66
383.61	3358.67
383.80	3836.14
384.00	4355.74
384.19	4798.10
384.39	5039.17
384.58	5074.28
384.78	5029.81
384.97	5029.81
385.17	4833.21
385.36	4521.92
385.56	4362.76
385.75	4535.96
385.95	4905.76
386.14	5153.86
386.34	5125.77
386.53	5050.88
386.72	4674.05
386.92	4760.65
387.11	5107.05
387.31	5205.35
387.50	5313.02
387.70	4908.10
387.89	4929.17
388.09	5069.60
388.28	5062.58
388.48	4973.64
388.67	5355.15
388.86	6090.07
389.06	6291.36
389.25	6792.23
389.45	6979.48
389.64	6867.13
389.84	6808.62
390.03	6590.95
390.22	6567.54
390.42	6871.81
390.61	7363.33
390.81	7817.39
391.00	7889.95
391.19	7824.41
391.39	7459.29
391.58	7222.89
391.78	6911.60
391.97	6485.62
392.16	5921.56
392.36	5530.69
392.55	4372.12
392.75	3503.78
392.94	2967.80
393.13	2888.22
393.33	3286.11
393.52	4369.78
393.71	5350.46
393.91	6052.63
394.10	6321.79
394.29	7169.06
394.49	7810.37
394.68	8503.17
394.88	8320.60
395.07	8641.26
395.26	8425.93
395.46	8135.70
395.65	7735.47
395.84	6855.43
396.04	5823.25
396.23	4741.93
396.42	3915.72
396.62	3822.09
396.81	4388.50
397.00	5774.10
397.19	7059.06
397.39	8369.76
397.58	9329.38
397.77	10064.30
397.97	10363.89
398.16	10698.59
398.35	10700.93
398.55	11143.29
398.74	11648.85
398.93	11829.07
399.12	11709.70
399.32	11194.78
399.51	11468.62
399.70	12236.32
399.90	11880.56
400.09	11964.82
400.28	12002.27
400.47	12168.45
400.67	12690.38
400.86	12987.63
401.05	13102.32
401.24	13060.19
401.44	13327.01
401.63	13415.95
401.82	13167.85
402.01	13359.78
402.21	13724.90
402.40	13757.67
402.59	13060.19
402.78	12608.47
402.97	12241.00
403.17	12645.91
403.36	13472.12
403.55	14036.19
403.74	14267.91
403.93	13591.49
404.13	12475.06
404.32	12388.46
404.51	12837.84
404.70	13760.01
404.89	13916.83
405.09	13930.87
405.28	13188.92
405.47	13163.17
405.66	13022.74
405.85	12798.05
406.05	12503.14
406.24	12772.30
406.43	13111.68
406.62	13664.05
406.81	13987.04
407.00	13291.90
407.20	12823.80
407.39	13249.77
407.58	13642.98
407.77	14347.48
407.96	14696.22
408.15	14890.49
408.34	14841.34
408.54	15697.97
408.73	15882.88
408.92	15386.68
409.11	14974.75
409.30	14115.77
409.49	13413.61
409.68	12423.56
409.87	12018.65
410.07	13060.19
410.26	14377.91
410.45	14792.19
410.64	15213.48
410.83	15733.08
411.02	16067.78
411.21	16861.22
411.40	16475.03
411.59	16566.31
411.78	16369.71
411.98	16147.36
412.17	16393.11
412.36	16266.72
412.55	16444.60
412.74	15707.34
412.93	15641.80
413.12	15749.46
413.31	17336.35
413.50	17324.65
413.69	17558.70
413.88	16844.84
414.07	16603.76
414.26	16762.92
414.45	17387.84
414.64	17507.21
414.83	17219.32
415.02	17179.53
415.22	16975.91
415.41	17261.45
415.60	17832.54
415.79	18838.97
415.98	19201.76
416.17	18920.89
416.36	18476.19
416.55	18508.96
416.74	17774.03
416.93	17036.76
417.12	16964.20
417.31	17516.57
417.50	17591.47
417.69	18361.50
417.88	18090.00
418.07	17891.06
418.26	17888.71
418.45	17774.03
418.64	18700.88
418.83	19344.53
419.02	19101.11
419.21	18696.20
419.39	18104.04
419.58	17221.66
419.77	17298.90
419.96	18129.79
420.15	19117.50
420.34	19524.75
420.53	20194.14
420.72	20631.82
420.91	20343.94
421.10	20252.66
421.29	20343.94
421.48	19054.30
421.67	20306.49
421.86	19969.45
422.05	18153.20
422.24	16446.94
422.43	16475.03
422.61	18265.54
422.80	19496.66
422.99	19330.48
423.18	18881.10
423.37	18616.62
423.56	18773.44
423.75	19056.64
423.94	19019.19
424.13	18068.94
424.32	18082.98
424.50	18153.20
424.69	18059.57
424.88	18349.80
425.07	18200.01
425.26	18192.98
425.45	17855.95
425.64	17881.69
425.83	17500.19
426.01	18689.18
426.20	19234.52
426.39	18909.19
426.58	17568.06
426.77	16255.02
426.96	15962.45
427.15	16395.45
427.33	17951.91
427.52	18244.48
427.71	18466.83
427.90	18087.66
428.09	18015.10
428.28	17710.83
428.46	17163.15
428.65	16800.37
428.84	17160.81
429.03	17827.86
429.22	16512.48
429.40	15812.66
429.59	14197.69
429.78	12699.75
429.97	12678.68
430.16	12802.73
430.34	13107.00
430.53	13022.74
430.72	13369.14
430.91	14759.42
431.10	17247.41
431.28	20105.20
431.47	21926.14
431.66	21928.48
431.85	19908.60
432.03	18412.99
432.22	17855.95
432.41	18366.18
432.60	20734.81
432.79	20905.66
432.97	21977.63
433.16	21118.65
433.35	19267.29
433.54	17694.45
433.72	16812.07
433.91	16980.59
434.10	18930.25
434.28	20477.35
434.47	21102.27
434.66	20957.16
434.85	20453.94
435.03	20315.85
435.22	21062.48
435.41	22120.40
435.59	22403.61
435.78	22579.15
435.97	22955.97
436.16	23051.94
436.34	22768.73
436.53	22464.46
436.72	22314.67
436.90	21046.10
437.09	21240.36
437.28	20877.58
437.46	21600.80
437.65	21373.77
437.84	19672.20
438.02	18326.39
438.21	18443.42
438.40	19501.34
438.58	20915.03
438.77	21364.41
438.96	21699.11
439.14	22600.21
439.33	23115.13
439.52	23335.14
439.70	23161.94
439.89	22429.35
440.08	21778.68
440.26	22066.57
440.45	22572.13
440.63	23971.77
440.82	25242.68
441.01	24812.02
441.19	24868.19
441.38	24793.29
441.57	26256.13
441.75	26171.87
441.94	26356.77
442.12	25975.27
442.31	26506.57
442.50	26733.60
442.68	26380.18
442.87	26082.93
443.05	25420.56
443.24	26043.14
443.43	26766.37
443.61	27166.60
443.80	27335.12
443.98	26157.83
444.17	26071.23
444.35	27344.48
444.54	27833.65
444.73	27393.63
444.91	26398.90
445.10	25429.92
445.28	24226.89
445.47	23817.29
445.65	24245.61
445.84	24912.66
446.02	25642.91
446.21	26127.40
446.39	25832.49
446.58	26347.41
446.77	26951.27
446.95	27138.51
447.14	27866.42
447.32	28570.92
447.51	27679.18
447.69	26679.77
447.88	26382.52
448.06	26801.47
448.25	27470.87
448.43	27473.21
448.62	26988.72
448.80	26487.84
448.99	27143.19
449.17	27314.05
449.36	27550.45
449.54	28156.64
449.73	28830.72
449.91	29331.59
450.10	29991.62
450.28	30263.13
450.46	30146.10
450.65	30323.98
450.83	30113.33
451.02	29120.95
451.20	28985.19
451.39	29287.12
451.57	28751.14
451.76	28826.04
451.94	28823.70
452.13	28238.56
452.31	26852.97
452.49	25626.53
452.68	26153.15
452.86	26036.12
453.05	26307.62
453.23	27351.50
453.42	27807.90
453.60	28219.84
453.78	28793.27
453.97	28135.58
454.15	28655.18
454.34	27716.62
454.52	28086.43
454.70	27522.36
454.89	28034.94
455.07	28355.59
455.26	28514.75
455.44	29247.33
455.62	29933.11
455.81	30354.41
455.99	29839.49
456.17	29261.38
456.36	29556.28
456.54	30478.46
456.73	30408.24
456.91	30866.98
457.09	31187.64
457.28	31459.14
457.46	30071.20
457.64	30106.31
457.83	29160.73
458.01	28753.48
458.19	29249.67
458.38	29317.55
458.56	30375.47
458.74	30471.43
458.93	29851.19
459.11	29369.04
459.29	29174.78
459.48	29773.95
459.66	29434.58
459.84	29986.94
460.03	30099.29
460.21	30380.15
460.39	30815.49
460.57	30920.82
460.76	31019.12
460.94	31304.67
461.12	31096.36
461.31	31271.90
461.49	30948.90
461.67	31037.84
461.85	32411.74
462.04	31775.11
462.22	32009.17
462.40	32009.17
462.59	31768.09
462.77	31498.93
462.95	32002.14
463.13	31255.51
463.32	30895.07
463.50	31204.02
463.68	30635.27
463.86	30871.67
464.05	30590.80
464.23	30246.74
464.41	30089.93
464.59	29170.10
464.78	30899.75
464.96	30710.17
465.14	30623.57
465.32	31573.83
465.50	31938.95
465.69	32348.54
465.87	31590.21
466.05	30562.72
466.23	29486.07
466.41	28498.36
466.60	29731.83
466.78	29675.65
466.96	29827.79
467.14	30829.54
467.32	31332.75
467.51	31442.76
467.69	29685.01
467.87	30323.98
468.05	31026.14
468.23	30883.37
468.41	30539.31
468.60	31033.16
468.78	31194.66
468.96	30703.15
469.14	31550.42
469.32	31051.89
469.50	30185.89
469.69	30717.19
469.87	30017.37
470.05	29780.98
470.23	30129.72
470.41	30265.47
470.59	30480.80
470.77	31065.93
470.95	31295.30
471.14	31784.48
471.32	31615.96
471.50	33790.31
471.68	33893.30
471.86	33846.49
472.04	33919.04
472.22	33919.04
472.40	32421.10
472.58	32095.77
472.77	31697.88
472.95	32343.86
473.13	33256.67
473.31	32086.40
473.49	32739.41
473.67	33149.01
473.85	33455.62
474.03	34260.76
474.21	34192.89
474.39	34881.00
474.57	34759.30
474.75	35129.10
474.93	34623.54
475.12	33722.44
475.30	33783.29
475.48	33886.28
475.66	35056.54
475.84	33916.70
476.02	34057.14
476.20	33106.88
476.38	34061.82
476.56	34749.93
476.74	35351.45
476.92	35725.94
477.10	36172.98
477.28	37251.97
477.46	37336.23
477.64	37373.67
477.82	37638.15
478.00	37647.52
478.18	37476.66
478.36	36769.82
478.54	36753.43
478.72	37380.70
478.90	38349.68
479.08	39288.23
479.26	39672.08
479.44	39578.46
479.62	39246.10
479.80	39037.80
479.98	39737.62
480.16	39735.27
480.34	39243.76
480.52	39906.13
480.70	40334.45
480.88	40287.64
481.06	40765.11
481.24	40823.62
481.41	41926.02
481.59	42405.83
481.77	42199.86
481.95	41518.76
482.13	41696.64
482.31	41549.19
482.49	42359.02
482.67	42515.83
482.85	42817.76
483.03	43243.74
483.21	43482.47
483.39	43306.93
483.57	42305.18
483.74	42349.65
483.92	43318.64
484.10	42560.30
484.28	43835.89
484.46	44072.29
484.64	44582.52
484.82	43988.03
485.00	43061.18
485.18	42684.35
485.35	41158.32
485.53	37989.24
485.71	34958.24
485.89	34506.52
486.07	36369.58
486.25	39494.20
486.43	41205.13
486.61	42333.27
486.78	42309.86
486.96	42209.22
487.14	44252.51
487.32	45062.33
487.50	46316.86
487.68	47061.15
487.85	47646.29
488.03	47475.43
488.21	46787.31
488.39	46581.34
488.57	45485.97
488.75	45029.57
488.92	46574.32
489.10	49052.95
489.28	50328.54
489.46	51215.60
489.64	50602.38
489.81	51084.53
489.99	50810.69
490.17	50939.42
490.35	51180.49
490.53	50064.06
490.70	50333.22
490.88	50131.93
491.06	51182.84
491.24	51309.22
491.41	49720.00
491.59	48208.01
491.77	47402.87
491.95	48481.86
492.13	49736.38
492.30	51543.28
492.48	52465.45
492.66	52851.64
492.84	52889.09
493.01	52357.78
493.19	52044.15
493.37	51693.07
493.54	51363.06
493.72	51842.87
493.90	53200.38
494.08	54073.40
494.25	54057.01
494.43	54482.99
494.61	54499.37
494.79	54712.36
494.96	54452.56
495.14	54075.74
495.32	53050.58
495.49	52432.68
495.67	53729.34
495.85	54724.07
496.02	55257.71
496.20	54876.20
496.38	54588.31
496.55	54440.86
496.73	54969.82
496.91	54990.89
497.09	55643.90
497.26	55896.67
497.44	55309.20
497.62	54688.96
497.79	54061.69
497.97	52713.55
498.14	53010.79
498.32	54255.96
498.50	54911.31
498.67	55484.74
498.85	55220.26
499.03	55676.66
499.20	55983.27
499.38	55924.76
499.56	55597.09
499.73	55159.41
499.91	54649.17
500.08	54291.07
500.26	53925.94
500.44	54141.27
500.61	55133.66
500.79	54590.66
500.97	54185.74
501.14	54096.80
501.32	53921.26
501.49	53801.89
501.67	53982.12
501.84	54728.75
502.02	54752.15
502.20	55316.22
502.37	55557.30
502.55	55484.74
502.72	56100.30
502.90	56561.39
503.07	56207.97
503.25	55945.83
503.43	54925.35
503.60	54106.16
503.78	53673.16
503.95	54239.57
504.13	55557.30
504.30	56397.55
504.48	56210.31
504.65	55952.85
504.83	56207.97
505.01	56615.22
505.18	56970.98
505.36	57680.16
505.53	57284.61
505.71	57673.14
505.88	57654.42
506.06	57137.16
506.23	56856.29
506.41	56617.56
506.58	56530.96
506.76	56788.42
506.93	56573.09
507.11	56416.27
507.28	56647.99
507.46	56081.58
507.63	55505.80
507.81	55463.67
507.98	55508.14
508.16	56165.84
508.33	56636.28
508.50	57155.88
508.68	57401.64
508.85	57946.98
509.03	57993.79
509.20	57729.31
509.38	56832.89
509.55	56058.17
509.73	56406.91
509.90	56938.21
510.08	57127.80
510.25	57254.18
510.42	57015.45
510.60	56926.51
510.77	56952.26
510.95	57511.64
511.12	57844.00
511.30	57977.41
511.47	58321.47
511.64	58199.76
511.82	57499.94
511.99	56816.50
512.17	56608.20
512.34	56542.66
512.51	56631.60
512.69	56783.74
512.86	56868.00
513.04	57095.03
513.21	57132.48
513.38	56996.73
513.56	56294.56
513.73	55704.75
513.90	56002.00
514.08	56006.68
514.25	56184.56
514.43	56584.79
514.60	56582.45
514.77	56856.29
514.95	56767.35
515.12	56851.61
515.29	57209.71
515.47	57787.83
515.64	57771.44
515.81	57233.12
515.99	56776.72
516.16	55290.48
516.33	52837.59
516.51	51667.33
516.68	50412.80
516.85	50483.01
517.03	50696.00
517.20	53659.12
517.37	56004.34
517.54	56938.21
517.72	56268.82
517.89	53820.62
518.06	51377.10
518.24	52065.22
518.41	54384.69
518.58	55480.06
518.75	55746.88
518.93	55728.16
519.10	55625.17
519.27	56381.16
519.45	56678.41
519.62	57041.20
519.79	57626.33
519.96	57176.95
520.14	56725.22
520.31	55821.78
520.48	55999.66
520.65	56465.42
520.83	57293.97
521.00	57523.35
521.17	57504.62
521.34	56973.32
521.52	57418.02
521.69	57841.66
521.86	58211.46
522.03	57869.75
522.20	56598.83
522.38	55597.09
522.55	55866.25
522.72	56488.83
522.89	56301.59
523.07	56732.25
523.24	56994.39
523.41	58014.86
523.58	58419.77
523.75	58480.63
523.92	58649.14
524.10	58398.71
524.27	58328.49
524.44	58157.63
524.61	58202.10
524.78	57909.53
524.96	57675.48
525.13	57645.05
525.30	58227.85
525.47	58705.32
525.64	58443.18
525.81	57680.16
525.98	56343.72
526.16	54857.48
526.33	54174.04
526.50	54024.25
526.67	53296.34
526.84	54164.68
527.01	55182.81
527.18	55924.76
527.36	56872.68
527.53	57696.55
527.70	57951.66
527.87	57420.36
528.04	56975.66
528.21	57598.24
528.38	58106.14
528.55	58702.98
528.72	58859.79
528.89	59040.01
529.07	58885.54
529.24	58075.71
529.41	57530.37
529.58	56858.63
529.75	57212.06
529.92	57546.75
530.09	57776.12
530.26	58387.00
530.43	58801.28
530.60	58761.49
530.77	58965.12
530.94	59171.08
531.11	58607.01
531.28	58340.19
531.46	57902.51
531.63	58384.66
531.80	58265.30
531.97	57432.07
532.14	56825.87
532.31	55927.10
532.48	55182.81
532.65	55463.67
532.82	56100.30
532.99	57366.53
533.16	57729.31
533.33	58078.05
533.50	58012.52
533.67	57556.11
533.84	57001.41
534.01	57216.74
534.18	57265.89
534.35	57432.07
534.52	57401.64
534.69	57528.03
534.86	58085.07
535.03	58183.38
535.20	58815.32
535.37	59049.38
535.54	59121.93
535.71	58635.10
535.88	58101.46
536.05	57635.69
536.22	57380.57
536.38	56856.29
536.55	56500.53
536.72	56121.37
536.89	56013.70
537.06	57064.60
537.23	57773.78
537.40	57958.69
537.57	58087.42
537.74	57829.96
537.91	57738.68
538.08	57670.80
538.25	57614.63
538.42	57935.28
538.59	57556.11
538.75	57179.29
538.92	56914.81
539.09	56736.93
539.26	56456.06
539.43	56329.67
539.60	56596.49
539.77	56830.55
539.94	56397.55
540.11	55538.57
540.28	55173.45
540.44	55091.53
540.61	55316.22
540.78	55791.35
540.95	56121.37
541.12	56774.37
541.29	57036.51
541.46	57240.14
541.62	57460.15
541.79	57017.79
541.96	56128.39
542.13	56516.92
542.30	56652.67
542.47	56926.51
542.63	56839.91
542.80	56355.42
542.97	56528.62
543.14	56612.88
543.31	56500.53
543.48	57165.24
543.64	57741.02
543.81	57886.13
543.98	57680.16
544.15	57155.88
544.32	56561.39
544.48	56821.19
544.65	57111.41
544.82	57607.61
544.99	57144.18
545.16	56903.10
545.32	56732.25
545.49	57382.91
545.66	57811.23
545.83	57001.41
546.00	56949.92
546.16	56601.18
546.33	56666.71
546.50	56844.59
546.67	57249.50
546.83	56975.66
547.00	56900.76
547.17	56011.36
547.34	55730.50
547.50	55496.44
547.67	56116.68
547.84	55997.32
548.00	56348.40
548.17	56910.13
548.34	56818.84
548.51	56875.02
548.67	56825.87
548.84	56720.54
549.01	56584.79
549.18	56568.41
549.34	56774.37
549.51	56783.74
549.68	56652.67
549.84	56460.74
550.01	56233.71
550.18	56102.64
550.34	56418.61
550.51	56184.56
550.68	56474.79
550.84	56013.70
551.01	56135.41
551.18	55840.50
551.34	56236.05
551.51	56397.55
551.68	56814.16
551.84	56900.76
552.01	56790.76
552.18	56617.56
552.34	55552.62
552.51	55559.64
552.68	55238.98
552.84	55997.32
553.01	56177.54
553.18	55990.30
553.34	56076.90
553.51	56259.46
553.67	56636.28
553.84	56610.54
554.01	56224.35
554.17	56339.04
554.34	56470.11
554.51	56442.02
554.67	56875.02
554.84	56601.18
555.00	56329.67
555.17	55987.95
555.33	56053.49
555.50	56231.37
555.67	56030.08
555.83	55714.11
556.00	55550.27
556.16	55430.91
556.33	55157.06
556.50	55344.31
556.66	55030.68
556.83	54728.75
556.99	55159.41
557.16	55098.55
557.32	55309.20
557.49	55540.91
557.65	55606.45
557.82	55536.23
557.98	55414.52
558.15	54890.24
558.32	53907.22
558.48	53088.03
558.65	53418.05
558.81	54054.67
558.98	54129.57
559.14	54539.16
559.31	54417.46
559.47	54387.03
559.64	54141.27
559.80	53640.40
559.97	53546.78
560.13	54368.30
560.30	55105.57
560.46	55833.48
560.63	56018.38
560.79	55999.66
560.96	55400.48
561.12	54227.87
561.29	53759.76
561.45	53719.98
561.61	54382.35
561.78	54803.64
561.94	54457.24
562.11	54101.48
562.27	54396.39
562.44	54621.08
562.60	54897.27
562.77	55124.30
562.93	54808.32
563.10	54782.58
563.26	54270.00
563.42	54251.28
563.59	54167.02
563.75	54171.70
563.92	54370.64
564.08	54408.09
564.24	54508.74
564.41	54202.13
564.57	54368.30
564.74	54164.68
564.90	54035.95
565.07	53902.54
565.23	53511.67
565.39	53141.86
565.56	52676.10
565.72	52402.25
565.88	52839.93
566.05	52701.84
566.21	53483.58
566.38	53399.32
566.54	53670.82
566.70	54122.55
566.87	54080.42
567.03	54005.52
567.19	54557.89
567.36	54260.64
567.52	53886.15
567.68	53661.46
567.85	53027.18
568.01	52605.88
568.17	51948.19
568.34	52205.65
568.50	52133.09
568.66	52226.71
568.83	52692.48
568.99	52367.15
569.15	53200.38
569.32	53308.04
569.48	52655.03
569.64	52664.39
569.81	52231.40
569.97	52142.45
570.13	51739.88
570.30	51746.90
570.46	51295.18
570.62	50635.15
570.78	50075.76
570.95	50597.70
571.11	51718.82
571.27	51482.42
571.43	51945.85
571.60	52355.44
571.76	52580.13
571.92	52505.24
572.09	52910.15
572.25	52900.79
572.41	52935.90
572.57	52561.41
572.74	52610.56
572.90	52018.41
573.06	52287.57
573.22	52317.99
573.38	52287.57
573.55	52348.42
573.71	52556.73
573.87	52189.27
574.03	52203.31
574.20	52383.53
574.36	51515.19
574.52	51688.39
574.68	51320.93
574.84	51227.31
575.01	50597.70
575.17	50639.83
575.33	50969.85
575.49	51182.84
575.65	51213.26
575.82	50927.72
575.98	50646.85
576.14	51189.86
576.30	51253.05
576.46	51524.55
576.62	51199.22
576.79	51487.10
576.95	50946.44
577.11	51033.04
577.27	51035.38
577.43	51304.54
577.59	50639.83
577.75	50106.19
577.92	49296.36
578.08	49474.24
578.24	49397.01
578.40	49900.22
578.56	49940.01
578.72	50103.85
578.88	50440.89
579.04	50557.91
579.21	50368.33
579.37	50326.20
579.53	50618.77
579.69	50377.69
579.85	50904.31
580.01	50782.60
580.17	49958.73
580.33	49893.20
580.49	50014.91
580.65	50417.48
580.82	50681.96
580.98	50717.07
581.14	50604.72
581.30	50955.80
581.46	50490.04
581.62	50628.13
581.78	50684.30
581.94	51133.68
582.10	50827.07
582.26	50904.31
582.42	50677.28
582.58	50927.72
582.74	50871.54
582.90	50665.58
583.06	50817.71
583.22	50492.38
583.38	50588.34
583.54	50534.51
583.70	50550.89
583.86	50890.27
584.02	50031.29
584.18	50349.60
584.34	50419.82
584.50	50167.04
584.66	50181.09
584.82	49610.00
584.98	49846.39
585.14	48980.39
585.30	48664.42
