SpectraSuite Data File
++++++++++++++++++++++++++++++++++++
Date: Mon Oct 07 14:54:57 GMT-05:00 2013
User: price-jones
Dark Spectrum Present: No
Reference Spectrum Present: No
Number of Sampled Component Spectra: 1
Spectrometers: USB2+H05261
Integration Time (usec): 10000 (USB2+H05261)
Spectra Averaged: 1 (USB2+H05261)
Boxcar Smoothing: 0 (USB2+H05261)
Correct for Electrical Dark: No (USB2+H05261)
Strobe/Lamp Enabled: No (USB2+H05261)
Correct for Detector Non-linearity: No (USB2+H05261)
Correct for Stray Light: No (USB2+H05261)
Number of Pixels in Processed Spectrum: 2048
>>>>>Begin Processed Spectral Data<<<<<
365.73	0.00
365.92	0.00
366.12	0.00
366.32	0.00
366.52	0.00
366.72	0.00
366.91	0.00
367.11	0.00
367.31	0.00
367.51	0.00
367.70	0.00
367.90	0.00
368.10	0.00
368.30	0.00
368.49	0.00
368.69	0.00
368.89	0.00
369.09	0.00
369.28	0.00
369.48	0.00
369.68	0.00
369.87	0.00
370.07	0.00
370.27	0.00
370.47	690.46
370.66	3709.75
370.86	4159.13
371.06	4638.94
371.25	4444.68
371.45	3964.87
371.65	3634.85
371.84	3471.01
372.04	3566.98
372.24	4215.30
372.44	4367.44
372.63	3967.21
372.83	3794.01
373.03	3414.84
373.22	3150.36
373.42	3428.88
373.62	3976.57
373.81	4362.76
374.01	4217.65
374.21	3707.41
374.40	3499.10
374.60	3772.94
374.79	4215.30
374.99	4943.21
375.19	5177.26
375.38	4959.60
375.58	4795.76
375.78	4762.99
375.97	4744.27
376.17	4931.51
376.37	5076.62
376.56	5109.39
376.76	5493.24
376.95	5722.61
377.15	6230.51
377.35	6562.86
377.54	6717.34
377.74	7164.38
377.93	6932.67
378.13	6682.23
378.33	6136.88
378.52	5844.32
378.72	5879.43
378.91	5479.19
379.11	5268.55
379.31	5172.58
379.50	5298.97
379.70	6005.81
379.89	6321.79
380.09	6782.87
380.28	6867.13
380.48	6787.55
380.68	6619.04
380.87	6504.35
381.07	5879.43
381.26	5451.11
381.46	5186.63
381.65	5074.28
381.85	4877.68
382.04	4608.51
382.24	4266.80
382.43	4243.39
382.63	4126.36
382.83	4135.73
383.02	4229.35
383.22	4182.54
383.41	4280.84
383.61	4482.13
383.80	5247.48
384.00	5949.64
384.19	6546.48
384.39	6740.74
384.58	6775.85
384.78	6609.67
384.97	6775.85
385.17	6265.61
385.36	5820.91
385.56	5755.38
385.75	6195.40
385.95	6754.79
386.14	7080.12
386.34	6892.88
386.53	6612.01
386.72	6153.27
386.92	6483.28
387.11	6871.81
387.31	6892.88
387.50	6986.50
387.70	6654.14
387.89	6637.76
388.09	6597.97
388.28	6775.85
388.48	6913.94
388.67	7536.52
388.86	8465.72
389.06	8973.61
389.25	9076.60
389.45	9217.03
389.64	9100.00
389.84	9139.79
390.03	9046.17
390.22	9193.62
390.42	9577.47
390.61	10230.48
390.81	10480.92
391.00	10733.70
391.19	10658.80
391.39	10221.12
391.58	9776.42
391.78	9050.85
391.97	9132.77
392.16	8381.46
392.36	7157.36
392.55	5703.89
392.75	4414.25
392.94	3840.82
393.13	3985.93
393.33	5083.64
393.52	6216.46
393.71	7428.86
393.91	8437.63
394.10	9142.13
394.29	10195.37
394.49	10750.08
394.68	11679.27
394.88	11225.21
395.07	11791.62
395.26	11625.44
395.46	11426.50
395.65	10223.46
395.84	8936.17
396.04	7620.78
396.23	6150.93
396.42	5188.97
396.62	5207.69
396.81	6602.65
397.00	8252.73
397.19	10204.74
397.39	12116.95
397.58	13577.45
397.77	14113.43
397.97	14375.57
398.16	14764.10
398.35	15208.80
398.55	15709.68
398.74	16173.10
398.93	16372.05
399.12	16372.05
399.32	15562.22
399.51	16493.76
399.70	17359.75
399.90	17041.44
400.09	16938.46
400.28	16940.80
400.47	17334.01
400.67	17764.67
400.86	18590.88
401.05	18530.02
401.24	18754.71
401.44	18958.34
401.63	19122.18
401.82	19140.90
402.01	19012.17
402.21	19063.66
402.40	19173.67
402.59	18593.22
402.78	17631.26
402.97	17359.75
403.17	18092.34
403.36	19161.97
403.55	20147.33
403.74	20276.06
403.93	18850.67
404.13	17390.18
404.32	17813.82
404.51	18562.79
404.70	20084.14
404.89	19819.66
405.09	19365.59
405.28	18714.92
405.47	19351.55
405.66	19030.90
405.85	18284.26
406.05	17888.71
406.24	18050.21
406.43	18963.02
406.62	19393.68
406.81	19728.38
407.00	19112.81
407.20	18853.02
407.39	18834.29
407.58	20133.29
407.77	20807.36
407.96	21048.44
408.15	21647.61
408.34	21701.45
408.54	22801.50
408.73	22431.69
408.92	21832.52
409.11	21373.77
409.30	20432.88
409.49	18782.80
409.68	17944.89
409.87	17935.53
410.07	19555.18
410.26	20982.90
410.45	21879.33
410.64	22127.42
410.83	23077.68
411.02	23213.43
411.21	24301.78
411.40	24063.05
411.59	24086.45
411.78	24552.22
411.98	23990.49
412.17	23828.99
412.36	23508.34
412.55	23330.46
412.74	22384.88
412.93	22389.56
413.12	23447.49
413.31	25448.64
413.50	25600.78
413.69	25083.52
413.88	24013.90
414.07	24184.76
414.26	25001.60
414.45	25383.11
414.64	24884.58
414.83	25188.85
415.02	24716.06
415.22	25200.55
415.41	25764.62
415.60	26817.86
415.79	27718.96
415.98	28554.54
416.17	28229.20
416.36	26967.65
416.55	26850.63
416.74	25825.47
416.93	25429.92
417.12	25284.81
417.31	26008.03
417.50	26511.25
417.69	27344.48
417.88	27049.57
418.07	26859.99
418.26	26295.92
418.45	27140.85
418.64	27594.92
418.83	28819.02
419.02	27812.59
419.21	27075.32
419.39	26466.78
419.58	25455.67
419.77	25933.14
419.96	27503.64
420.15	28439.85
420.34	29273.08
420.53	30094.61
420.72	30972.31
420.91	30291.21
421.10	29446.28
421.29	29465.00
421.48	28699.65
421.67	29888.64
421.86	29256.70
422.05	26738.28
422.24	23997.51
422.43	25020.33
422.61	28184.73
422.80	29621.82
422.99	29411.17
423.18	27854.72
423.37	27433.42
423.56	27847.69
423.75	28283.03
423.94	28975.83
424.13	27372.57
424.32	27192.34
424.50	27122.13
424.69	27204.05
424.88	27552.79
425.07	27651.09
425.26	27487.25
425.45	26370.82
425.64	26274.85
425.83	26780.41
426.01	28430.49
426.20	28795.61
426.39	28538.15
426.58	25977.61
426.77	24486.68
426.96	23882.83
427.15	25280.13
427.33	27337.46
427.52	27976.42
427.71	28163.67
427.90	27447.46
428.09	27412.35
428.28	26923.18
428.46	25472.05
428.65	25462.69
428.84	26759.34
429.03	26780.41
429.22	25071.82
429.40	23571.54
429.59	21413.56
429.78	19290.70
429.97	19363.25
430.16	19468.58
430.34	19389.00
430.53	19833.70
430.72	21078.86
430.91	23339.82
431.10	27653.43
431.28	31873.42
431.47	33483.70
431.66	33270.72
431.85	29862.90
432.03	27480.23
432.22	27634.71
432.41	29223.93
432.60	31777.45
432.79	32414.08
432.97	33322.21
433.16	31786.82
433.35	28903.28
433.54	25923.77
433.72	25078.84
433.91	27147.87
434.10	30345.05
434.28	31702.56
434.47	33181.77
434.66	31529.36
434.85	31414.67
435.03	32142.58
435.22	32538.13
435.41	33762.23
435.59	34080.54
435.78	34735.89
435.97	35337.41
436.16	35529.33
436.34	34660.99
436.53	33762.23
436.72	34066.50
436.90	32446.85
437.09	32470.25
437.28	32655.15
437.46	34022.03
437.65	32610.68
437.84	29928.43
438.02	28364.95
438.21	29198.18
438.40	30525.27
438.58	32641.11
438.77	33802.02
438.96	33223.90
439.14	35278.89
439.33	36451.50
439.52	36322.77
439.70	35253.15
439.89	34855.26
440.08	33443.91
440.26	34117.99
440.45	35323.36
440.63	37818.38
440.82	39227.38
441.01	38520.54
441.19	38426.92
441.38	39061.20
441.57	40751.07
441.75	40294.66
441.94	40074.65
442.12	41205.13
442.31	42199.86
442.50	40914.90
442.68	41170.02
442.87	40224.45
443.05	39971.67
443.24	41453.23
443.43	41706.01
443.61	41544.51
443.80	42150.71
443.98	39943.58
444.17	40062.95
444.35	42689.03
444.54	42927.77
444.73	42667.97
444.91	40385.94
445.10	38864.60
445.28	37757.52
445.47	37088.13
445.65	37958.81
445.84	39084.61
446.02	40481.91
446.21	40921.93
446.39	39908.47
446.58	41713.03
446.77	42501.79
446.95	42014.96
447.14	43805.47
447.32	44343.79
447.51	42450.30
447.69	41153.64
447.88	41090.44
448.06	42356.67
448.25	42906.70
448.43	42225.60
448.62	41628.77
448.80	42117.94
448.99	41762.18
449.17	42843.51
449.36	43175.86
449.54	43714.19
449.73	44477.20
449.91	45146.59
450.10	46391.76
450.28	47299.89
450.46	46710.07
450.65	47234.35
450.83	46326.22
451.02	45722.37
451.20	45057.65
451.39	44872.75
451.57	45179.36
451.76	44732.32
451.94	43423.96
452.13	43426.30
452.31	40849.37
452.49	40072.31
452.68	41645.15
452.86	41371.31
453.05	41785.58
453.23	43847.60
453.42	44495.92
453.60	44889.13
453.78	45544.48
453.97	44631.68
454.15	44634.02
454.34	43440.34
454.52	43697.80
454.70	43349.06
454.89	44219.74
455.07	44072.29
455.26	45195.74
455.44	46604.75
455.62	47154.77
455.81	47353.72
455.99	46096.85
456.17	46564.96
456.36	46459.63
456.54	46934.76
456.73	47210.95
456.91	47826.51
457.09	47716.50
457.28	48533.35
457.46	46586.02
457.64	45787.90
457.83	45172.34
458.01	45280.00
458.19	46625.81
458.38	46361.33
458.56	47526.92
458.74	47625.22
458.93	46932.42
459.11	46522.83
459.29	46492.40
459.48	47157.11
459.66	46499.42
459.84	46752.20
460.03	46644.54
460.21	47545.64
460.39	49111.46
460.57	47466.06
460.76	48758.04
460.94	48060.56
461.12	47524.58
461.31	48123.75
461.49	48018.43
461.67	47985.66
461.85	49904.90
462.04	49705.96
462.22	49020.18
462.40	49525.74
462.59	49389.98
462.77	49642.76
462.95	49216.78
463.13	49027.20
463.32	48547.39
463.50	48446.75
463.68	48371.85
463.86	48299.30
464.05	47838.21
464.23	47697.78
464.41	47084.56
464.59	46904.34
464.78	48402.28
464.96	48083.97
465.14	47988.00
465.32	49205.08
465.50	50033.63
465.69	49666.17
465.87	49392.33
466.05	47852.25
466.23	46005.57
466.41	45797.26
466.60	47618.20
466.78	47402.87
466.96	47388.83
467.14	48259.51
467.32	48479.52
467.51	48329.72
467.69	46738.16
467.87	47629.90
468.05	48376.53
468.23	48205.67
468.41	48250.14
468.60	48217.38
468.78	49663.83
468.96	49125.50
469.14	49663.83
469.32	49249.55
469.50	47997.37
469.69	48060.56
469.87	47147.75
470.05	47866.30
470.23	47758.63
470.41	47662.67
470.59	48128.44
470.77	47906.08
470.95	49043.59
471.14	49675.53
471.32	50035.97
471.50	51885.00
471.68	51723.50
471.86	52130.75
472.04	51718.82
472.22	51285.82
472.40	50557.91
472.58	50106.19
472.77	49818.30
472.95	50827.07
473.13	51056.45
473.31	50813.03
473.49	50810.69
473.67	51199.22
473.85	51927.13
474.03	52790.78
474.21	52526.30
474.39	52743.97
474.57	52736.95
474.75	52062.88
474.93	52200.97
475.12	51842.87
475.30	52250.12
475.48	52205.65
475.66	53127.82
475.84	51711.80
476.02	51489.45
476.20	51566.68
476.38	52105.01
476.56	53389.96
476.74	53785.51
476.92	53647.42
477.10	54417.46
477.28	54967.48
477.46	55203.88
477.64	55157.06
477.82	55367.71
478.00	55365.37
478.18	55515.17
478.36	55227.28
478.54	55110.25
478.72	55264.73
478.90	56296.91
479.08	56626.92
479.26	56587.13
479.44	56467.76
479.62	56772.03
479.80	56392.87
479.98	56947.57
480.16	57450.79
480.34	56996.73
480.52	57275.25
480.70	56853.95
480.88	57214.40
481.06	57822.93
481.24	58143.59
481.41	58925.33
481.59	58361.26
481.77	58686.59
481.95	58239.55
482.13	58087.42
482.31	58075.71
482.49	58684.25
482.67	58684.25
482.85	59355.99
483.03	60055.81
483.21	59285.77
483.39	59428.54
483.57	58873.84
483.74	59086.82
483.92	59018.95
484.10	59217.89
484.28	59884.95
484.46	60516.89
484.64	60584.77
484.82	59559.61
485.00	59519.82
485.18	58658.51
485.35	58064.01
485.53	55224.94
485.71	53268.25
485.89	54220.85
486.07	56076.90
486.25	57282.27
486.43	58649.14
486.61	58679.57
486.78	58927.67
486.96	59917.71
487.14	60348.37
487.32	60734.56
487.50	61415.66
487.68	61392.25
487.85	61984.41
488.03	61909.51
488.21	61272.88
488.39	61464.81
488.57	61062.24
488.75	60896.06
488.92	61979.73
489.10	63597.04
489.28	63927.05
489.46	64140.04
489.64	64154.08
489.81	64722.83
489.99	64453.67
490.17	64228.98
490.35	64491.12
490.53	64228.98
490.70	64203.24
490.88	64821.14
491.06	64870.29
491.24	64360.05
491.41	63955.14
491.59	63114.89
491.77	62475.92
491.95	63538.52
492.13	63889.60
492.30	64690.07
492.48	65350.10
492.66	65535.00
492.84	65535.00
493.01	65535.00
493.19	65495.21
493.37	65244.77
493.54	64666.66
493.72	65535.00
493.90	65535.00
494.08	65535.00
494.25	65535.00
494.43	65535.00
494.61	65535.00
494.79	65535.00
494.96	65535.00
495.14	65535.00
495.32	65535.00
495.49	65535.00
495.67	65535.00
495.85	65535.00
496.02	65535.00
496.20	65535.00
496.38	65535.00
496.55	65535.00
496.73	65535.00
496.91	65535.00
497.09	65535.00
497.26	65535.00
497.44	65535.00
497.62	65535.00
497.79	65535.00
497.97	65535.00
498.14	65535.00
498.32	65535.00
498.50	65535.00
498.67	65535.00
498.85	65535.00
499.03	65535.00
499.20	65535.00
499.38	65535.00
499.56	65535.00
499.73	65535.00
499.91	65535.00
500.08	65535.00
500.26	65535.00
500.44	65535.00
500.61	65535.00
500.79	65535.00
500.97	65535.00
501.14	65535.00
501.32	65535.00
501.49	65535.00
501.67	65535.00
501.84	65535.00
502.02	65535.00
502.20	65535.00
502.37	65535.00
502.55	65535.00
502.72	65535.00
502.90	65535.00
503.07	65535.00
503.25	65535.00
503.43	65535.00
503.60	65535.00
503.78	65535.00
503.95	65535.00
504.13	65535.00
504.30	65535.00
504.48	65535.00
504.65	65535.00
504.83	65535.00
505.01	65535.00
505.18	65535.00
505.36	65535.00
505.53	65535.00
505.71	65535.00
505.88	65535.00
506.06	65535.00
506.23	65535.00
506.41	65535.00
506.58	65535.00
506.76	65535.00
506.93	65535.00
507.11	65535.00
507.28	65535.00
507.46	65535.00
507.63	65535.00
507.81	65535.00
507.98	65535.00
508.16	65535.00
508.33	65535.00
508.50	65535.00
508.68	65535.00
508.85	65535.00
509.03	65535.00
509.20	65535.00
509.38	65535.00
509.55	65535.00
509.73	65535.00
509.90	65535.00
510.08	65535.00
510.25	65535.00
510.42	65535.00
510.60	65535.00
510.77	65535.00
510.95	65535.00
511.12	65535.00
511.30	65535.00
511.47	65535.00
511.64	65535.00
511.82	65535.00
511.99	65535.00
512.17	65535.00
512.34	65535.00
512.51	65535.00
512.69	65535.00
512.86	65535.00
513.04	65535.00
513.21	65535.00
513.38	65535.00
513.56	65535.00
513.73	65535.00
513.90	65535.00
514.08	65535.00
514.25	65535.00
514.43	65535.00
514.60	65535.00
514.77	65535.00
514.95	65535.00
515.12	65535.00
515.29	65535.00
515.47	65535.00
515.64	65535.00
515.81	65535.00
515.99	65535.00
516.16	65535.00
516.33	65535.00
516.51	65535.00
516.68	64549.63
516.85	64013.65
517.03	65535.00
517.20	65535.00
517.37	65535.00
517.54	65535.00
517.72	65535.00
517.89	65535.00
518.06	65535.00
518.24	65535.00
518.41	65535.00
518.58	65535.00
518.75	65535.00
518.93	65535.00
519.10	65535.00
519.27	65535.00
519.45	65535.00
519.62	65535.00
519.79	65535.00
519.96	65535.00
520.14	65535.00
520.31	65535.00
520.48	65535.00
520.65	65535.00
520.83	65535.00
521.00	65535.00
521.17	65535.00
521.34	65535.00
521.52	65535.00
521.69	65535.00
521.86	65535.00
522.03	65535.00
522.20	65535.00
522.38	65535.00
522.55	65535.00
522.72	65535.00
522.89	65535.00
523.07	65535.00
523.24	65535.00
523.41	65535.00
523.58	65535.00
523.75	65535.00
523.92	65535.00
524.10	65535.00
524.27	65535.00
524.44	65535.00
524.61	65535.00
524.78	65535.00
524.96	65535.00
525.13	65535.00
525.30	65535.00
525.47	65535.00
525.64	65535.00
525.81	65535.00
525.98	65535.00
526.16	65535.00
526.33	65535.00
526.50	65535.00
526.67	65535.00
526.84	65535.00
527.01	65535.00
527.18	65535.00
527.36	65535.00
527.53	65535.00
527.70	65535.00
527.87	65535.00
528.04	65535.00
528.21	65535.00
528.38	65535.00
528.55	65535.00
528.72	65535.00
528.89	65535.00
529.07	65535.00
529.24	65535.00
529.41	65535.00
529.58	65535.00
529.75	65535.00
529.92	65535.00
530.09	65535.00
530.26	65535.00
530.43	65535.00
530.60	65535.00
530.77	65535.00
530.94	65535.00
531.11	65535.00
531.28	65535.00
531.46	65535.00
531.63	65535.00
531.80	65535.00
531.97	65535.00
532.14	65535.00
532.31	65535.00
532.48	65535.00
532.65	65535.00
532.82	65535.00
532.99	65535.00
533.16	65535.00
533.33	65535.00
533.50	65535.00
533.67	65535.00
533.84	65535.00
534.01	65535.00
534.18	65535.00
534.35	65535.00
534.52	65535.00
534.69	65535.00
534.86	65535.00
535.03	65535.00
535.20	65535.00
535.37	65535.00
535.54	65535.00
535.71	65535.00
535.88	65535.00
536.05	65535.00
536.22	65535.00
536.38	65535.00
536.55	65535.00
536.72	65535.00
536.89	65535.00
537.06	65535.00
537.23	65535.00
537.40	65535.00
537.57	65535.00
537.74	65535.00
537.91	65535.00
538.08	65535.00
538.25	65535.00
538.42	65535.00
538.59	65535.00
538.75	65535.00
538.92	65535.00
539.09	65535.00
539.26	65535.00
539.43	65535.00
539.60	65535.00
539.77	65535.00
539.94	65535.00
540.11	65535.00
540.28	65535.00
540.44	65535.00
540.61	65535.00
540.78	65535.00
540.95	65535.00
541.12	65535.00
541.29	65535.00
541.46	65535.00
541.62	65535.00
541.79	65535.00
541.96	65535.00
542.13	65535.00
542.30	65535.00
542.47	65535.00
542.63	65535.00
542.80	65535.00
542.97	65535.00
543.14	65535.00
543.31	65535.00
543.48	65535.00
543.64	65535.00
543.81	65535.00
543.98	65535.00
544.15	65535.00
544.32	65535.00
544.48	65535.00
544.65	65535.00
544.82	65535.00
544.99	65535.00
545.16	65535.00
545.32	65535.00
545.49	65535.00
545.66	65535.00
545.83	65535.00
546.00	65535.00
546.16	65535.00
546.33	65535.00
546.50	65535.00
546.67	65535.00
546.83	65535.00
547.00	65535.00
547.17	65535.00
547.34	65535.00
547.50	65535.00
547.67	65535.00
547.84	65535.00
548.00	65535.00
548.17	65535.00
548.34	65535.00
548.51	65535.00
548.67	65535.00
548.84	65535.00
549.01	65535.00
549.18	65535.00
549.34	65535.00
549.51	65535.00
549.68	65535.00
549.84	65535.00
550.01	65535.00
550.18	65535.00
550.34	65535.00
550.51	65535.00
550.68	65535.00
550.84	65535.00
551.01	65535.00
551.18	65535.00
551.34	65535.00
551.51	65535.00
551.68	65535.00
551.84	65535.00
552.01	65535.00
552.18	65535.00
552.34	65535.00
552.51	65535.00
552.68	65535.00
552.84	65535.00
553.01	65535.00
553.18	65535.00
553.34	65535.00
553.51	65535.00
553.67	65535.00
553.84	65535.00
554.01	65535.00
554.17	65535.00
554.34	65535.00
554.51	65535.00
554.67	65535.00
554.84	65535.00
555.00	65535.00
555.17	65535.00
555.33	65535.00
555.50	65535.00
555.67	65535.00
555.83	65535.00
556.00	65535.00
556.16	65535.00
556.33	65535.00
556.50	65535.00
556.66	65535.00
556.83	65535.00
556.99	65535.00
557.16	65535.00
557.32	65535.00
557.49	65535.00
557.65	65535.00
557.82	65535.00
557.98	65535.00
558.15	65535.00
558.32	65535.00
558.48	65535.00
558.65	65535.00
558.81	65535.00
558.98	65535.00
559.14	65535.00
559.31	65535.00
559.47	65535.00
559.64	65535.00
559.80	65535.00
559.97	65535.00
560.13	65535.00
560.30	65535.00
560.46	65535.00
560.63	65535.00
560.79	65535.00
560.96	65535.00
561.12	65535.00
561.29	65535.00
561.45	65535.00
561.61	65535.00
561.78	65535.00
561.94	65535.00
562.11	65535.00
562.27	65535.00
562.44	65535.00
562.60	65535.00
562.77	65535.00
562.93	65535.00
563.10	65535.00
563.26	65535.00
563.42	65535.00
563.59	65535.00
563.75	65535.00
563.92	65535.00
564.08	65535.00
564.24	65535.00
564.41	65535.00
564.57	65535.00
564.74	65535.00
564.90	65535.00
565.07	65535.00
565.23	65535.00
565.39	65535.00
565.56	65535.00
565.72	65535.00
565.88	65535.00
566.05	65535.00
566.21	65535.00
566.38	65535.00
566.54	65535.00
566.70	65535.00
566.87	65535.00
567.03	65535.00
567.19	65535.00
567.36	65535.00
567.52	65535.00
567.68	65535.00
567.85	65535.00
568.01	65535.00
568.17	65535.00
568.34	65535.00
568.50	65535.00
568.66	65535.00
568.83	65535.00
568.99	65535.00
569.15	65535.00
569.32	65535.00
569.48	65535.00
569.64	65535.00
569.81	65535.00
569.97	65535.00
570.13	65535.00
570.30	65535.00
570.46	65305.63
570.62	64767.30
570.78	65535.00
570.95	65183.92
571.11	65535.00
571.27	65535.00
571.43	65535.00
571.60	65535.00
571.76	65535.00
571.92	65535.00
572.09	65535.00
572.25	65535.00
572.41	65535.00
572.57	65535.00
572.74	65535.00
572.90	65535.00
573.06	65535.00
573.22	65535.00
573.38	65535.00
573.55	65535.00
573.71	65535.00
573.87	65535.00
574.03	65535.00
574.20	65535.00
574.36	65535.00
574.52	65535.00
574.68	65535.00
574.84	65204.98
575.01	65055.19
575.17	65268.18
575.33	65527.98
575.49	65535.00
575.65	65535.00
575.82	65535.00
575.98	65471.81
576.14	64807.09
576.30	65256.48
576.46	65535.00
576.62	65535.00
576.79	65535.00
576.95	65535.00
577.11	65535.00
577.27	65535.00
577.43	65535.00
577.59	65333.71
577.75	64989.66
577.92	65195.62
578.08	65214.35
578.24	64598.79
578.40	65237.75
578.56	65511.59
578.72	65535.00
578.88	65268.18
579.04	65359.46
579.21	65535.00
579.37	65535.00
579.53	65289.24
579.69	65073.91
579.85	65319.67
580.01	65535.00
580.17	65535.00
580.33	65455.42
580.49	64867.95
580.65	65137.11
580.82	64519.21
580.98	64425.59
581.14	65099.66
581.30	65120.73
581.46	65406.27
581.62	65462.44
581.78	65071.57
581.94	65200.30
582.10	65535.00
582.26	65535.00
582.42	65535.00
582.58	65535.00
582.74	65535.00
582.90	65535.00
583.06	65535.00
583.22	65535.00
583.38	65413.29
583.54	65286.90
583.70	65167.54
583.86	65464.78
584.02	65270.52
584.18	65263.50
584.34	65233.07
584.50	65041.15
584.66	64671.34
584.82	64289.84
584.98	64257.07
585.14	64589.42
