SpectraSuite Data File
++++++++++++++++++++++++++++++++++++
Date: Mon Oct 07 14:54:59 GMT-05:00 2013
User: price-jones
Dark Spectrum Present: No
Reference Spectrum Present: No
Number of Sampled Component Spectra: 1
Spectrometers: USB2+H05261
Integration Time (usec): 10000 (USB2+H05261)
Spectra Averaged: 1 (USB2+H05261)
Boxcar Smoothing: 0 (USB2+H05261)
Correct for Electrical Dark: No (USB2+H05261)
Strobe/Lamp Enabled: No (USB2+H05261)
Correct for Detector Non-linearity: No (USB2+H05261)
Correct for Stray Light: No (USB2+H05261)
Number of Pixels in Processed Spectrum: 2048
>>>>>Begin Processed Spectral Data<<<<<
365.73	0.00
365.92	0.00
366.12	0.00
366.32	0.00
366.52	0.00
366.72	0.00
366.91	0.00
367.11	0.00
367.31	0.00
367.51	0.00
367.70	0.00
367.90	0.00
368.10	0.00
368.30	0.00
368.49	0.00
368.69	0.00
368.89	0.00
369.09	0.00
369.28	0.00
369.48	0.00
369.68	0.00
369.87	0.00
370.07	0.00
370.27	0.00
370.47	18.72
370.66	987.71
370.86	1221.76
371.06	1345.81
371.25	1373.89
371.45	1226.44
371.65	983.02
371.84	1046.22
372.04	1034.52
372.24	1233.46
372.44	1324.74
372.63	1287.29
372.83	1198.35
373.03	1013.45
373.22	936.21
373.42	1074.31
373.62	1193.67
373.81	1217.08
374.01	1156.22
374.21	1067.28
374.40	938.55
374.60	1151.54
374.79	1299.00
374.99	1502.62
375.19	1554.12
375.38	1617.31
375.58	1486.24
375.78	1418.36
375.97	1434.75
376.17	1519.01
376.37	1598.59
376.56	1629.01
376.76	1706.25
376.95	1799.87
377.15	1914.56
377.35	2064.35
377.54	2134.57
377.74	2092.44
377.93	2031.58
378.13	2115.84
378.33	1984.77
378.52	1809.23
378.72	1806.89
378.91	1657.10
379.11	1682.85
379.31	1652.42
379.50	1530.71
379.70	1699.23
379.89	1923.92
380.09	1914.56
380.28	2017.54
380.48	2113.50
380.68	2181.38
380.87	1975.41
381.07	1834.98
381.26	1629.01
381.46	1486.24
381.65	1462.83
381.85	1502.62
382.04	1371.55
382.24	1284.95
382.43	1100.05
382.63	1217.08
382.83	1158.57
383.02	1207.72
383.22	1125.80
383.41	1259.21
383.61	1350.49
383.80	1612.63
384.00	1802.21
384.19	1963.71
384.39	2069.03
384.58	2059.67
384.78	2005.84
384.97	2069.03
385.17	1909.88
385.36	1703.91
385.56	1715.61
385.75	1820.94
385.95	1881.79
386.14	2076.06
386.34	2001.16
386.53	1947.33
386.72	1806.89
386.92	1935.62
387.11	2183.72
387.31	2104.14
387.50	2160.31
387.70	2012.86
387.89	1994.14
388.09	2062.01
388.28	2050.31
388.48	2162.66
388.67	2312.45
388.86	2459.90
389.06	2733.75
389.25	2761.83
389.45	2874.18
389.64	2832.05
389.84	2731.41
390.03	2677.57
390.22	2888.22
390.42	2911.63
390.61	3054.40
390.81	3229.94
391.00	3239.30
391.19	3194.83
391.39	3054.40
391.58	2806.30
391.78	2743.11
391.97	2600.34
392.16	2361.60
392.36	2136.91
392.55	1675.82
392.75	1247.51
392.94	1083.67
393.13	1163.25
393.33	1371.55
393.52	1769.44
393.71	2256.28
393.91	2565.23
394.10	2677.57
394.29	2979.50
394.49	3241.64
394.68	3562.30
394.88	3396.12
395.07	3520.17
395.26	3604.42
395.46	3323.56
395.65	3162.06
395.84	2698.64
396.04	2167.34
396.23	1708.59
396.42	1420.71
396.62	1434.75
396.81	1842.00
397.00	2612.04
397.19	2986.52
397.39	3698.05
397.58	3964.87
397.77	4294.88
397.97	4283.18
398.16	4376.80
398.35	4606.17
398.55	4699.80
398.74	4718.52
398.93	4828.53
399.12	4849.59
399.32	4800.44
399.51	4840.23
399.70	4943.21
399.90	5008.75
400.09	5020.45
400.28	5078.96
400.47	5020.45
400.67	5235.78
400.86	5533.03
401.05	5582.18
401.24	5582.18
401.44	5692.18
401.63	5605.58
401.82	5614.95
402.01	5504.94
402.21	5767.08
402.40	5575.16
402.59	5427.70
402.78	5071.94
402.97	5118.75
403.17	5439.40
403.36	5561.11
403.55	5776.44
403.74	5818.57
403.93	5387.91
404.13	5205.35
404.32	5151.52
404.51	5668.78
404.70	5820.91
404.89	5734.31
405.09	5636.01
405.28	5432.38
405.47	5530.69
405.66	5378.55
405.85	5242.80
406.05	5181.95
406.24	5383.23
406.43	5638.35
406.62	5706.23
406.81	5764.74
407.00	5434.72
407.20	5341.10
407.39	5401.96
407.58	5605.58
407.77	5832.62
407.96	6211.78
408.15	6251.57
408.34	6340.51
408.54	6670.53
408.73	6413.07
408.92	6473.92
409.11	5973.05
409.30	5813.89
409.49	5476.85
409.68	5142.16
409.87	5149.18
410.07	5490.90
410.26	5804.53
410.45	6134.54
410.64	6342.85
410.83	6604.99
411.02	6759.47
411.21	6855.43
411.40	6752.45
411.59	6640.10
411.78	6815.64
411.98	6789.89
412.17	6902.24
412.36	6518.39
412.55	6684.57
412.74	6429.45
412.93	6382.64
413.12	6523.07
413.31	7183.10
413.50	7166.72
413.69	7208.85
413.88	6792.23
414.07	6712.66
414.26	6932.67
414.45	7037.99
414.64	7012.24
414.83	6925.65
415.02	6944.37
415.22	7112.89
415.41	7382.05
415.60	7648.87
415.79	7925.05
415.98	7826.75
416.17	8098.25
416.36	7686.32
416.55	7585.68
416.74	7243.96
416.93	6946.71
417.12	7159.70
417.31	7220.55
417.50	7410.14
417.69	7716.75
417.88	7506.10
418.07	7737.81
418.26	7279.07
418.45	7726.11
418.64	7840.79
418.83	7985.91
419.02	7920.37
419.21	7550.57
419.39	7288.43
419.58	7150.34
419.77	7091.82
419.96	7438.22
420.15	7709.72
420.34	8091.23
420.53	8234.00
420.72	8348.69
420.91	8360.39
421.10	8182.51
421.29	8336.99
421.48	8329.97
421.67	8538.27
421.86	7939.10
422.05	7384.39
422.24	6682.23
422.43	6848.41
422.61	7700.36
422.80	8142.72
422.99	7985.91
423.18	7662.91
423.37	7274.38
423.56	7599.72
423.75	7885.26
423.94	8154.43
424.13	7646.53
424.32	7468.65
424.50	7817.39
424.69	7761.22
424.88	7667.60
425.07	7585.68
425.26	7695.68
425.45	7356.30
425.64	6920.96
425.83	7454.61
426.01	8049.10
426.20	8009.31
426.39	7793.98
426.58	7012.24
426.77	6686.91
426.96	6499.67
427.15	6904.58
427.33	7353.96
427.52	7583.34
427.71	7496.74
427.90	7412.48
428.09	7258.00
428.28	7297.79
428.46	7084.80
428.65	6927.99
428.84	7171.40
429.03	7136.29
429.22	6710.32
429.40	6310.08
429.59	5767.08
429.78	5181.95
429.97	5198.33
430.16	5135.14
430.34	5305.99
430.53	5320.04
430.72	5628.99
430.91	6314.77
431.10	7468.65
431.28	8472.74
431.47	8971.27
431.66	9018.08
431.85	7882.92
432.03	7288.43
432.22	7517.80
432.41	7934.42
432.60	8617.85
432.79	9195.96
432.97	8872.97
433.16	8865.95
433.35	7749.51
433.54	6974.80
433.72	6698.61
433.91	7267.36
434.10	7957.82
434.28	8432.95
434.47	8959.57
434.66	8463.38
434.85	8348.69
435.03	8451.67
435.22	8468.06
435.41	9036.81
435.59	9128.09
435.78	9125.75
435.97	9303.63
436.16	9202.99
436.34	9275.54
436.53	8990.00
436.72	9118.73
436.90	8580.40
437.09	8655.30
437.28	8444.65
437.46	8627.21
437.65	8407.20
437.84	7882.92
438.02	7475.67
438.21	7599.72
438.40	7939.10
438.58	8416.57
438.77	8601.47
438.96	8697.43
439.14	9188.94
439.33	9516.62
439.52	9502.58
439.70	9303.63
439.89	9107.02
440.08	8802.75
440.26	8812.12
440.45	9373.85
440.63	9907.49
440.82	10349.85
441.01	9940.26
441.19	10059.62
441.38	10263.25
441.57	10548.79
441.75	10775.83
441.94	10410.70
442.12	10509.01
442.31	10773.49
442.50	10956.05
442.68	10595.61
442.87	10305.38
443.05	10420.06
443.24	10696.25
443.43	11070.73
443.61	10824.98
443.80	10965.41
443.98	10530.07
444.17	10551.14
444.35	11316.49
444.54	11356.28
444.73	11257.98
444.91	10544.11
445.10	10267.93
445.28	9813.87
445.47	9577.47
445.65	9818.55
445.84	10010.47
446.02	10319.42
446.21	10738.38
446.39	10298.36
446.58	10527.73
446.77	10750.08
446.95	10944.34
447.14	11513.10
447.32	11587.99
447.51	10766.46
447.69	10565.18
447.88	10836.68
448.06	10724.33
448.25	10778.17
448.43	11098.82
448.62	10775.83
448.80	10789.87
448.99	10855.40
449.17	10916.26
449.36	11225.21
449.54	11548.20
449.73	11843.11
449.91	11796.30
450.10	11983.54
450.28	12271.43
450.46	12259.73
450.65	11756.51
450.83	11625.44
451.02	11529.48
451.20	11391.39
451.39	11407.77
451.57	11515.44
451.76	11442.88
451.94	11183.08
452.13	11077.76
452.31	10548.79
452.49	10120.48
452.68	10501.98
452.86	10611.99
453.05	10813.28
453.23	11098.82
453.42	11260.32
453.60	11580.97
453.78	11522.46
453.97	11220.53
454.15	11019.24
454.34	10869.45
454.52	10998.18
454.70	11037.97
454.89	11103.50
455.07	11173.72
455.26	11332.87
455.44	11941.41
455.62	11969.50
455.81	11819.71
455.99	11557.57
456.17	11819.71
456.36	11892.26
456.54	12215.26
456.73	12058.44
456.91	12236.32
457.09	12032.69
457.28	12388.46
457.46	11735.45
457.64	11707.36
457.83	11548.20
458.01	11253.30
458.19	11639.48
458.38	11868.86
458.56	12065.46
458.74	11948.43
458.93	11456.92
459.11	11477.99
459.29	11606.72
459.48	11599.70
459.66	11403.09
459.84	11644.17
460.03	11976.52
460.21	11899.28
460.39	12112.27
460.57	12210.57
460.76	12360.37
460.94	12372.07
461.12	12006.95
461.31	12217.60
461.49	12283.13
461.67	12575.70
461.85	12561.66
462.04	12484.42
462.22	12603.78
462.40	12369.73
462.59	12358.03
462.77	12615.49
462.95	12383.77
463.13	12332.28
463.32	12011.63
463.50	12030.35
463.68	12194.19
463.86	12561.66
464.05	11723.74
464.23	11618.42
464.41	11449.90
464.59	11576.29
464.78	12002.27
464.96	12037.38
465.14	11662.89
465.32	12100.57
465.50	12624.85
465.69	12556.97
465.87	12416.54
466.05	12058.44
466.23	11623.10
466.41	11246.27
466.60	11683.95
466.78	11634.80
466.96	11854.81
467.14	12112.27
467.32	12262.07
467.51	11929.71
467.69	11470.97
467.87	11686.29
468.05	11859.49
468.23	12315.90
468.41	11894.60
468.60	11957.80
468.78	12109.93
468.96	11957.80
469.14	12311.22
469.32	12170.79
469.50	11716.72
469.69	11529.48
469.87	11510.75
470.05	11648.85
470.23	11616.08
470.41	11878.22
470.59	11896.94
470.77	11829.07
470.95	11964.82
471.14	12587.40
471.32	12416.54
471.50	12776.98
471.68	13238.07
471.86	13366.80
472.04	13317.65
472.22	13057.85
472.40	12475.06
472.58	12500.80
472.77	12065.46
472.95	12493.78
473.13	12870.61
473.31	12549.95
473.49	12842.52
473.67	12889.33
473.85	13123.38
474.03	13586.81
474.21	13249.77
474.39	13317.65
474.57	13596.17
474.75	13453.40
474.93	13144.45
475.12	12678.68
475.30	12915.08
475.48	13191.26
475.66	13224.03
475.84	13039.12
476.02	13004.02
476.20	12865.92
476.38	12896.35
476.56	13532.98
476.74	14200.03
476.92	13554.04
477.10	14185.99
477.28	14244.50
477.46	14698.56
477.64	14600.26
477.82	14319.40
478.00	14424.72
478.18	14473.87
478.36	13998.74
478.54	14204.71
478.72	14258.54
478.90	14850.70
479.08	15253.27
479.26	15393.70
479.44	15201.78
479.62	14956.02
479.80	15171.35
479.98	14864.74
480.16	15201.78
480.34	15309.44
480.52	15920.32
480.70	15470.94
480.88	15391.36
481.06	16023.31
481.24	16105.23
481.41	16205.87
481.59	16311.19
481.77	15894.58
481.95	16049.05
482.13	15882.88
482.31	16194.17
482.49	16561.63
482.67	16358.00
482.85	16236.30
483.03	16397.79
483.21	16535.88
483.39	16231.62
483.57	16088.84
483.74	16631.85
483.92	16339.28
484.10	16821.43
484.28	16514.82
484.46	17003.99
484.64	17605.51
484.82	16472.69
485.00	15976.50
485.18	16114.59
485.35	15346.89
485.53	13895.76
485.71	12901.03
485.89	13383.18
486.07	14040.87
486.25	15267.31
486.43	15997.56
486.61	15899.26
486.78	16290.13
486.96	15859.47
487.14	16893.99
487.32	17198.26
487.50	17563.38
487.68	18146.17
487.85	18525.34
488.03	18747.69
488.21	17940.21
488.39	17212.30
488.57	17308.26
488.75	17823.18
488.92	18333.42
489.10	19314.10
489.28	19264.95
489.46	19658.16
489.64	20037.33
489.81	20411.81
489.99	19651.14
490.17	19679.22
490.35	20622.46
490.53	19445.17
490.70	19683.91
490.88	19681.56
491.06	20573.31
491.24	19772.85
491.41	18843.65
491.59	18373.21
491.77	18216.39
491.95	18918.55
492.13	19337.51
492.30	20322.87
492.48	20739.49
492.66	21469.73
492.84	21759.96
493.01	21294.19
493.19	20538.20
493.37	20229.25
493.54	19913.28
493.72	21156.10
493.90	21467.39
494.08	21427.60
494.25	21954.22
494.43	22766.39
494.61	22527.66
494.79	22506.59
494.96	22450.42
495.14	21525.91
495.32	21144.40
495.49	21076.52
495.67	21680.38
495.85	22586.17
496.02	22946.61
496.20	21937.84
496.38	21673.36
496.55	21907.41
496.73	22380.20
496.91	22789.80
497.09	23805.59
497.26	22890.44
497.44	23080.02
497.62	22632.98
497.79	21259.09
497.97	20922.05
498.14	21565.70
498.32	22637.66
498.50	23211.09
498.67	23585.58
498.85	23012.15
499.03	22583.83
499.20	23185.35
499.38	22927.89
499.56	23271.95
499.73	22431.69
499.91	22321.69
500.08	22136.79
500.26	21642.93
500.44	22153.17
500.61	22162.53
500.79	22104.02
500.97	21876.99
501.14	21823.16
501.32	21603.14
501.49	22211.68
501.67	22455.10
501.84	22443.40
502.02	21750.60
502.20	22679.79
502.37	22728.94
502.55	22869.37
502.72	23538.77
502.90	23908.57
503.07	23185.35
503.25	22583.83
503.43	21916.78
503.60	21205.25
503.78	20844.81
503.95	21717.83
504.13	23225.14
504.30	23754.10
504.48	23129.17
504.65	23091.73
504.83	23026.19
505.01	23683.88
505.18	24013.90
505.36	25125.65
505.53	24650.52
505.71	24507.75
505.88	24706.70
506.06	23557.49
506.23	23901.55
506.41	23250.88
506.58	23763.46
506.76	23728.35
506.93	23510.68
507.11	23204.07
507.28	23232.16
507.46	21942.52
507.63	22661.07
507.81	22565.10
507.98	22752.35
508.16	23372.59
508.33	23585.58
508.50	23707.29
508.68	24442.21
508.85	24727.76
509.03	24737.12
509.20	24285.40
509.38	23267.27
509.55	23646.43
509.73	23531.75
509.90	23812.61
510.08	23590.26
510.25	22764.05
510.42	22319.35
510.60	23660.48
510.77	23662.82
510.95	23843.04
511.12	23939.00
511.30	24435.19
511.47	24205.82
511.64	24353.27
511.82	23426.42
511.99	22752.35
512.17	22764.05
512.34	23653.45
512.51	23871.12
512.69	23290.67
512.86	22595.53
513.04	23707.29
513.21	23243.86
513.38	22675.11
513.56	22431.69
513.73	22583.83
513.90	22501.91
514.08	22452.76
514.25	23213.43
514.43	23056.62
514.60	22988.74
514.77	22700.86
514.95	23204.07
515.12	23035.55
515.29	23087.04
515.47	23564.51
515.64	24144.97
515.81	24070.07
515.99	22909.16
516.16	21476.76
516.33	19887.53
516.51	19499.00
516.68	18251.50
516.85	18129.79
517.03	18625.98
517.20	20826.09
517.37	22167.21
517.54	22728.94
517.72	22033.80
517.89	20128.61
518.06	19531.77
518.24	19941.36
518.41	21834.86
518.58	22017.42
518.75	21605.49
518.93	21961.25
519.10	22087.64
519.27	22419.99
519.45	23080.02
519.62	23641.75
519.79	23260.24
519.96	23094.07
520.14	22616.60
520.31	22003.38
520.48	22143.81
520.65	22565.10
520.83	23262.58
521.00	23606.64
521.17	23278.97
521.34	22555.74
521.52	23826.65
521.69	24184.76
521.86	24079.43
522.03	23758.78
522.20	21996.35
522.38	22078.27
522.55	22031.46
522.72	22483.19
522.89	22305.31
523.07	23466.21
523.24	23559.83
523.41	23269.61
523.58	23271.95
523.75	23988.15
523.92	23800.91
524.10	24575.62
524.27	24346.25
524.44	23403.02
524.61	22974.70
524.78	23733.03
524.96	22902.14
525.13	23112.79
525.30	23367.91
525.47	23002.78
525.64	23187.69
525.81	22443.40
525.98	21659.32
526.16	20510.11
526.33	20175.42
526.50	19651.14
526.67	20032.65
526.84	20793.32
527.01	21233.34
527.18	21858.26
527.36	23063.64
527.53	23403.02
527.70	22911.50
527.87	22326.37
528.04	23021.51
528.21	22478.50
528.38	23939.00
528.55	25139.69
528.72	24533.50
528.89	23976.45
529.07	23344.50
529.24	22724.26
529.41	21804.43
529.58	21958.91
529.75	22637.66
529.92	22607.23
530.09	22611.92
530.26	23796.23
530.43	23440.47
530.60	23484.94
530.77	23639.41
530.94	23594.94
531.11	23527.06
531.28	23307.05
531.46	22939.59
531.63	22787.46
531.80	22752.35
531.97	22862.35
532.14	22043.17
532.31	20622.46
532.48	20662.25
532.65	21284.83
532.82	21972.95
532.99	23363.23
533.16	23236.84
533.33	23311.74
533.50	22848.31
533.67	22539.36
533.84	22122.74
534.01	22050.19
534.18	22829.59
534.35	22724.26
534.52	22731.28
534.69	23033.21
534.86	22906.82
535.03	23728.35
535.20	23351.52
535.37	24109.86
535.54	24233.91
535.71	23653.45
535.88	23023.85
536.05	22876.40
536.22	22295.94
536.38	22129.77
536.55	21085.89
536.72	21113.97
536.89	21818.47
537.06	21741.24
537.23	22284.24
537.40	22375.52
537.57	22902.14
537.74	22518.29
537.91	22696.17
538.08	21853.58
538.25	22520.63
538.42	22963.00
538.59	22431.69
538.75	21736.56
538.92	21619.53
539.09	20933.75
539.26	21156.10
539.43	20872.90
539.60	21097.59
539.77	20849.49
539.94	20671.61
540.11	20456.28
540.28	20446.92
540.44	20329.89
540.61	20608.42
540.78	21109.29
540.95	21762.30
541.12	21268.45
541.29	21605.49
541.46	21226.32
541.62	21055.46
541.79	20837.79
541.96	20805.02
542.13	20629.48
542.30	21338.66
542.47	21570.38
542.63	21603.14
542.80	21057.80
542.97	21289.51
543.14	20362.66
543.31	20381.38
543.48	21380.79
543.64	21645.27
543.81	21177.17
543.98	21228.66
544.15	20683.31
544.32	21205.25
544.48	21408.88
544.65	21235.68
544.82	21392.50
544.99	20596.71
545.16	20592.03
545.32	20585.01
545.49	21579.74
545.66	21902.73
545.83	21759.96
546.00	21198.23
546.16	20926.73
546.33	21097.59
546.50	21172.49
546.67	21640.59
546.83	20987.58
547.00	20940.77
547.17	20559.27
547.34	20194.14
547.50	19915.62
547.67	19885.19
547.84	20922.05
548.00	20568.63
548.17	20542.88
548.34	20360.32
548.51	20582.67
548.67	20655.23
548.84	21050.78
549.01	20800.34
549.18	20669.27
549.34	20795.66
549.51	20547.56
549.68	20856.51
549.84	20856.51
550.01	21392.50
550.18	21057.80
550.34	20152.01
550.51	19903.92
550.68	20226.91
550.84	20545.22
551.01	20215.21
551.18	20786.30
551.34	21219.30
551.51	20458.62
551.68	20568.63
551.84	20615.44
552.01	20355.64
552.18	19845.40
552.34	19419.42
552.51	19491.98
552.68	19227.50
552.84	19480.28
553.01	20255.00
553.18	20379.04
553.34	20666.93
553.51	20362.66
553.67	20505.43
553.84	20205.84
554.01	20259.68
554.17	20247.97
554.34	20049.03
554.51	20198.82
554.67	20655.23
554.84	20699.70
555.00	19723.69
555.17	19669.86
555.33	20542.88
555.50	20484.37
555.67	19777.53
555.83	19775.19
556.00	19557.52
556.16	19484.96
556.33	18988.77
556.50	19220.48
556.66	18785.14
556.83	18597.90
556.99	19014.51
557.16	18527.68
557.32	19030.90
557.49	19522.41
557.65	19274.31
557.82	19323.46
557.98	19023.87
558.15	18464.49
558.32	18361.50
558.48	18178.94
558.65	17898.08
558.81	17996.38
558.98	18302.99
559.14	18621.30
559.31	19002.81
559.47	19040.26
559.64	18211.71
559.80	17343.37
559.97	17727.22
560.13	18759.39
560.30	19363.25
560.46	19782.21
560.63	20594.37
560.79	20353.30
560.96	19491.98
561.12	18583.85
561.29	18176.60
561.45	18174.26
561.61	18548.75
561.78	18333.42
561.94	17652.32
562.11	18579.17
562.27	18551.09
562.44	18658.75
562.60	19098.77
562.77	18733.65
562.93	19147.92
563.10	19316.44
563.26	18396.61
563.42	18420.02
563.59	18377.89
563.75	18473.85
563.92	17757.64
564.08	18134.47
564.24	18059.57
564.41	17762.33
564.57	18146.17
564.74	17947.23
564.90	17970.63
565.07	17509.55
565.23	17336.35
565.39	17109.32
565.56	17654.66
565.72	17467.42
565.88	17764.67
566.05	17984.68
566.21	17317.62
566.38	17160.81
566.54	18047.87
566.70	18218.73
566.87	18090.00
567.03	18202.35
567.19	18218.73
567.36	17294.22
567.52	17525.93
567.68	17352.73
567.85	17109.32
568.01	16734.83
568.17	17036.76
568.34	16355.66
568.50	16732.49
568.66	16915.05
568.83	16872.92
568.99	17170.17
569.15	16805.05
569.32	16428.22
569.48	16901.01
569.64	17011.01
569.81	17132.72
569.97	16514.82
570.13	16622.48
570.30	16283.11
570.46	16208.21
570.62	16311.19
570.78	15728.40
570.95	16166.08
571.11	16886.97
571.27	16535.88
571.43	16175.44
571.60	16809.73
571.76	17231.02
571.92	17151.45
572.09	17249.75
572.25	16594.40
572.41	17298.90
572.57	17710.83
572.74	17284.86
572.90	16992.29
573.06	16886.97
573.22	16636.53
573.38	17259.11
573.55	16798.02
573.71	16755.90
573.87	16734.83
574.03	16702.06
574.20	16339.28
574.36	15964.79
574.52	16514.82
574.68	16685.68
574.84	15960.11
575.01	15300.08
575.17	15508.39
575.33	15573.92
575.49	15522.43
575.65	15445.20
575.82	15587.97
575.98	16025.65
576.14	15573.92
576.30	15728.40
576.46	15604.35
576.62	15749.46
576.79	15824.36
576.95	15646.48
577.11	15995.22
577.27	15859.47
577.43	15981.18
577.59	16020.97
577.75	15693.29
577.92	16044.37
578.08	15534.14
578.24	15585.63
578.40	15978.84
578.56	15253.27
578.72	15044.96
578.88	14834.32
579.04	14789.85
579.21	15250.93
579.37	15627.76
579.53	15449.88
579.69	15374.98
579.85	15566.90
580.01	14506.64
580.17	14661.12
580.33	15571.58
580.49	15873.51
580.65	15632.44
580.82	15431.15
580.98	14984.11
581.14	14960.70
581.30	14778.14
581.46	15351.57
581.62	15513.07
581.78	15325.83
581.94	15627.76
582.10	15178.37
582.26	15171.35
582.42	15747.12
582.58	16058.42
582.74	15878.19
582.90	16105.23
583.06	16554.61
583.22	16102.89
583.38	15728.40
583.54	15267.31
583.70	15702.65
583.86	15367.96
584.02	15913.30
584.18	15672.23
584.34	15800.96
584.50	15824.36
584.66	15468.60
584.82	15438.17
584.98	15026.24
585.14	14340.46
585.30	14129.81
585.46	14321.74
585.62	14724.31
585.78	14410.68
585.94	14499.62
586.10	14347.48
586.26	14647.07
586.42	14862.40
586.58	14541.75
586.74	14864.74
586.90	14450.47
587.06	14525.36
587.22	14214.07
587.38	13755.33
587.54	14141.52
