SpectraSuite Data File
++++++++++++++++++++++++++++++++++++
Date: Mon Oct 07 14:53:50 GMT-05:00 2013
User: price-jones
Dark Spectrum Present: No
Reference Spectrum Present: No
Number of Sampled Component Spectra: 1
Spectrometers: USB2+H05261
Integration Time (usec): 100000 (USB2+H05261)
Spectra Averaged: 1 (USB2+H05261)
Boxcar Smoothing: 0 (USB2+H05261)
Correct for Electrical Dark: No (USB2+H05261)
Strobe/Lamp Enabled: No (USB2+H05261)
Correct for Detector Non-linearity: No (USB2+H05261)
Correct for Stray Light: No (USB2+H05261)
Number of Pixels in Processed Spectrum: 2048
>>>>>Begin Processed Spectral Data<<<<<
365.73	0.00
365.92	0.00
366.12	0.00
366.32	0.00
366.52	0.00
366.72	0.00
366.91	0.00
367.11	0.00
367.31	0.00
367.51	0.00
367.70	0.00
367.90	0.00
368.10	0.00
368.30	0.00
368.49	0.00
368.69	0.00
368.89	0.00
369.09	0.00
369.28	0.00
369.48	0.00
369.68	0.00
369.87	0.00
370.07	0.00
370.27	0.00
370.47	540.66
370.66	3045.04
370.86	3571.66
371.06	3911.04
371.25	4131.05
371.45	3581.02
371.65	3194.83
371.84	3026.31
372.04	3124.62
372.24	3517.83
372.44	3698.05
372.63	3737.84
372.83	3316.54
373.03	3105.89
373.22	2822.69
373.42	2820.35
373.62	3361.01
373.81	3756.56
374.01	3730.81
374.21	3344.63
374.40	3061.42
374.60	3229.94
374.79	3569.32
374.99	4215.30
375.19	4463.40
375.38	4442.34
375.58	4262.12
375.78	4194.24
375.97	4348.72
376.17	4475.10
376.37	4587.45
376.56	4571.07
376.76	4655.33
376.95	5078.96
377.15	5369.19
377.35	5626.65
377.54	5799.85
377.74	5968.37
377.93	6017.52
378.13	5959.00
378.33	5610.26
378.52	5188.97
378.72	4908.10
378.91	4798.10
379.11	4716.18
379.31	4648.30
379.50	4566.39
379.70	4877.68
379.89	5350.46
380.09	5687.50
380.28	5888.79
380.48	5959.00
380.68	5837.30
380.87	5664.10
381.07	5242.80
381.26	4826.18
381.46	4486.81
381.65	4383.82
381.85	4245.73
382.04	4109.98
382.24	3744.86
382.43	3592.72
382.63	3424.20
382.83	3613.79
383.02	3716.77
383.22	3609.11
383.41	3630.17
383.61	3988.27
383.80	4458.72
384.00	5013.43
384.19	5570.48
384.39	5970.71
384.58	5867.72
384.78	5785.80
384.97	5626.65
385.17	5317.70
385.36	5039.17
385.56	5013.43
385.75	5083.64
385.95	5490.90
386.14	6150.93
386.34	6134.54
386.53	5872.40
386.72	5544.73
386.92	5362.17
387.11	5734.31
387.31	6136.88
387.50	5970.71
387.70	5783.46
387.89	5600.90
388.09	5738.99
388.28	5818.57
388.48	5804.53
388.67	6111.14
388.86	6911.60
389.06	7260.34
389.25	7826.75
389.45	7833.77
389.64	7936.76
389.84	7707.38
390.03	7478.01
390.22	7730.79
390.42	7854.84
390.61	8491.46
390.81	8896.38
391.00	9125.75
391.19	9001.70
391.39	8854.25
391.58	8278.47
391.78	7702.70
391.97	7489.71
392.16	6911.60
392.36	6462.22
392.55	5146.84
392.75	4131.05
392.94	3382.07
393.13	3269.73
393.33	3812.73
393.52	5088.32
393.71	6246.89
393.91	6888.20
394.10	7407.80
394.29	8163.79
394.49	8784.03
394.68	9413.63
394.88	9509.60
395.07	9900.47
395.26	9987.07
395.46	9397.25
395.65	9228.73
395.84	7920.37
396.04	6544.14
396.23	5474.51
396.42	4421.27
396.62	4269.14
396.81	4844.91
397.00	6368.60
397.19	7997.61
397.39	9514.28
397.58	10923.28
397.77	11534.16
397.97	12053.76
398.16	11960.14
398.35	12442.29
398.55	12837.84
398.74	13537.66
398.93	13645.32
399.12	13404.25
399.32	12943.16
399.51	13165.51
399.70	14298.33
399.90	13973.00
400.09	14090.02
400.28	13813.84
400.47	14101.73
400.67	14974.75
400.86	15147.95
401.05	15094.11
401.24	14883.47
401.44	15370.30
401.63	15239.23
401.82	15559.88
402.01	15325.83
402.21	15716.70
402.40	15859.47
402.59	14984.11
402.78	14586.22
402.97	13909.80
403.17	14523.02
403.36	15660.52
403.55	15971.82
403.74	16456.31
403.93	15447.54
404.13	14445.79
404.32	14129.81
404.51	14679.84
404.70	15880.53
404.89	16011.60
405.09	15646.48
405.28	15066.03
405.47	14984.11
405.66	15346.89
405.85	14721.97
406.05	14377.91
406.24	14665.80
406.43	15133.90
406.62	15950.75
406.81	16093.52
407.00	15377.32
407.20	14757.08
407.39	15030.92
407.58	15805.64
407.77	16196.51
407.96	17090.59
408.15	16978.25
408.34	16872.92
408.54	18024.47
408.73	17869.99
408.92	17823.18
409.11	17121.02
409.30	16304.17
409.49	15461.58
409.68	14368.55
409.87	13991.72
410.07	14672.82
410.26	15943.73
410.45	16865.90
410.64	17706.15
410.83	17937.87
411.02	18265.54
411.21	19143.24
411.40	18822.59
411.59	18651.73
411.78	19073.03
411.98	18375.55
412.17	19037.92
412.36	18771.10
412.55	18546.40
412.74	18232.77
412.93	17708.49
413.12	17907.44
413.31	19552.84
413.50	19910.94
413.69	19875.83
413.88	19257.93
414.07	18944.30
414.26	19206.44
414.45	19950.73
414.64	19836.04
414.83	19962.43
415.02	19517.73
415.22	19510.71
415.41	20100.52
415.60	20409.47
415.79	21394.84
415.98	21727.19
416.17	21926.14
416.36	21336.32
416.55	20919.71
416.74	20285.42
416.93	19810.29
417.12	19936.68
417.31	19896.89
417.50	20521.82
417.69	20985.24
417.88	21139.72
418.07	20592.03
418.26	20449.26
418.45	20334.57
418.64	21493.14
418.83	22274.88
419.02	21701.45
419.21	21818.47
419.39	20542.88
419.58	19826.68
419.77	19978.81
419.96	20470.33
420.15	21710.81
420.34	22274.88
420.53	22995.76
420.72	23543.45
420.91	23374.93
421.10	23344.50
421.29	23021.51
421.48	21874.65
421.67	22806.18
421.86	22773.41
422.05	20917.37
422.24	18827.27
422.43	18703.22
422.61	20716.08
422.80	22277.22
422.99	22410.63
423.18	21420.58
423.37	21364.41
423.56	20814.38
423.75	21586.76
423.94	22019.76
424.13	20884.60
424.32	21226.32
424.50	20896.30
424.69	20802.68
424.88	20699.70
425.07	20802.68
425.26	20945.45
425.45	20697.36
425.64	20311.17
425.83	20006.90
426.01	21214.62
426.20	22089.98
426.39	21738.90
426.58	20271.38
426.77	18588.53
426.96	18113.41
427.15	18597.90
427.33	20184.78
427.52	20858.85
427.71	21205.25
427.90	20793.32
428.09	20912.69
428.28	20229.25
428.46	19524.75
428.65	19218.14
428.84	19524.75
429.03	19894.55
429.22	19084.73
429.40	17958.93
429.59	16123.95
429.78	14450.47
429.97	14410.68
430.16	14593.24
430.34	14775.80
430.53	14546.43
430.72	14958.36
430.91	16409.50
431.10	19545.81
431.28	23033.21
431.47	24566.26
431.66	25348.00
431.85	22827.24
432.03	21345.69
432.22	20400.11
432.41	20870.56
432.60	23161.94
432.79	24023.26
432.97	24734.78
433.16	24449.24
433.35	22211.68
433.54	19981.15
433.72	18679.82
433.91	18845.99
434.10	21458.03
434.28	23089.38
434.47	24170.71
434.66	23606.64
434.85	22937.25
435.03	23138.54
435.22	23833.68
435.41	25207.57
435.59	25064.80
435.78	25319.92
435.97	26169.53
436.16	26361.45
436.34	25652.27
436.53	25387.79
436.72	25453.33
436.90	24079.43
437.09	23599.62
437.28	23323.44
437.46	24638.82
437.65	24425.83
437.84	22991.08
438.02	20767.57
438.21	20430.54
438.40	21612.51
438.58	23592.60
438.77	24357.96
438.96	24863.51
439.14	25408.86
439.33	25893.35
439.52	26663.38
439.70	25935.48
439.89	25345.66
440.08	24893.94
440.26	24610.73
440.45	25429.92
440.63	26726.58
440.82	28177.71
441.01	28519.43
441.19	28133.24
441.38	28474.96
441.57	29378.40
441.75	29979.92
441.94	29998.65
442.12	29572.67
442.31	30078.22
442.50	30216.32
442.68	29993.97
442.87	29362.02
443.05	29207.55
443.24	29507.13
443.43	30024.39
443.61	30471.43
443.80	31000.40
443.98	29219.25
444.17	29139.67
444.35	31042.53
444.54	31468.50
444.73	31005.08
444.91	29827.79
445.10	28620.07
445.28	27756.41
445.47	27346.82
445.65	27323.41
445.84	27889.82
446.02	29006.26
446.21	29802.04
446.39	29137.33
446.58	29869.92
446.77	30373.13
446.95	30520.59
447.14	31632.34
447.32	31810.22
447.51	31323.39
447.69	30012.69
447.88	29542.24
448.06	29902.68
448.25	31030.82
448.43	30899.75
448.62	30218.66
448.80	30228.02
448.99	30508.88
449.17	30693.79
449.36	31061.25
449.54	31772.77
449.73	32224.50
449.91	32907.93
450.10	33860.53
450.28	33975.22
450.46	33624.14
450.65	33720.10
450.83	33537.54
451.02	32926.66
451.20	32877.51
451.39	32746.44
451.57	32369.61
451.76	32566.21
451.94	32280.67
452.13	31711.92
452.31	30480.80
452.49	28807.31
452.68	29511.81
452.86	28999.24
453.05	29392.45
453.23	30567.40
453.42	31239.13
453.60	31732.98
453.78	32535.79
453.97	31992.78
454.15	32257.26
454.34	31246.15
454.52	31630.00
454.70	30785.07
454.89	30871.67
455.07	31168.91
455.26	31503.61
455.44	32961.76
455.62	33684.99
455.81	33582.01
455.99	33340.93
456.17	32814.31
456.36	33064.75
456.54	33926.07
456.73	34113.31
456.91	34448.00
457.09	34703.12
457.28	35571.46
457.46	33738.82
457.64	33439.23
457.83	33198.16
458.01	31990.44
458.19	33097.52
458.38	32989.85
458.56	34267.78
458.74	34043.09
458.93	33418.17
459.11	33472.00
459.29	33017.94
459.48	33216.88
459.66	33130.28
459.84	33603.07
460.03	33989.26
460.21	33694.35
460.39	34405.88
460.57	34691.42
460.76	35749.34
460.94	35119.74
461.12	34632.91
461.31	34471.41
461.49	34876.32
461.67	34487.79
461.85	35866.37
462.04	35674.45
462.22	35414.65
462.40	35852.33
462.59	35512.95
462.77	35449.75
462.95	35035.48
463.13	34986.33
463.32	35002.71
463.50	34824.83
463.68	34665.67
463.86	34422.26
464.05	34330.98
464.23	33003.89
464.41	33621.80
464.59	33046.02
464.78	34073.52
464.96	34436.30
465.14	33965.85
465.32	34658.65
465.50	35901.48
465.69	35997.44
465.87	35047.18
466.05	34377.79
466.23	32727.71
466.41	32023.21
466.60	33167.73
466.78	33048.36
466.96	33694.35
467.14	33881.60
467.32	34934.84
467.51	34918.45
467.69	33308.16
467.87	34209.27
468.05	34338.00
468.23	34380.13
468.41	34513.54
468.60	34801.43
468.78	34616.52
468.96	34394.17
469.14	35534.01
469.32	35232.08
469.50	33834.78
469.69	34230.33
469.87	33132.62
470.05	33413.49
470.23	33170.07
470.41	33818.40
470.59	34052.45
470.77	33886.28
470.95	34637.59
471.14	34738.23
471.32	35211.02
471.50	36910.25
471.68	37294.10
471.86	37345.59
472.04	37743.48
472.22	37612.41
472.40	36259.58
472.58	35702.53
472.77	35377.20
472.95	35910.84
473.13	37165.37
473.31	35468.48
473.49	36444.48
473.67	37006.21
473.85	37113.87
474.03	37979.87
474.21	37787.95
474.39	38169.46
474.57	38361.38
474.75	38581.39
474.93	38007.96
475.12	37497.72
475.30	37418.14
475.48	37488.36
475.66	38146.05
475.84	37954.13
476.02	37312.82
476.20	37097.49
476.38	37441.55
476.56	38623.52
476.74	39260.15
476.92	39814.85
477.10	40081.67
477.28	41429.82
477.46	40753.41
477.64	41525.78
477.82	41425.14
478.00	42003.25
478.18	41373.65
478.36	41069.38
478.54	41031.93
478.72	41329.18
478.90	42108.58
479.08	43124.37
479.26	43863.98
479.44	43885.04
479.62	43178.20
479.80	43255.44
479.98	43695.46
480.16	43882.70
480.34	43267.14
480.52	43629.93
480.70	43763.34
480.88	43955.26
481.06	45074.04
481.24	45090.42
481.41	45607.68
481.59	46461.97
481.77	45958.76
481.95	45420.44
482.13	45453.20
482.31	45624.06
482.49	46579.00
482.67	46199.83
482.85	46443.25
483.03	46581.34
483.21	47533.94
483.39	47536.28
483.57	46356.65
483.74	46422.19
483.92	46344.95
484.10	46625.81
484.28	47557.35
484.46	48172.91
484.64	48484.20
484.82	47665.01
485.00	47199.24
485.18	46483.04
485.35	44800.19
485.53	42209.22
485.71	38768.63
485.89	37750.50
486.07	39735.27
486.25	42747.54
486.43	45382.99
486.61	46155.36
486.78	45851.09
486.96	46424.53
487.14	48034.81
487.32	48795.49
487.50	50131.93
487.68	50803.67
487.85	51004.95
488.03	50862.18
488.21	50761.54
488.39	49947.03
488.57	49502.33
488.75	48753.36
488.92	49837.03
489.10	52062.88
489.28	53446.13
489.46	54059.35
489.64	53778.49
489.81	53958.71
489.99	53638.06
490.17	53757.42
490.35	53911.90
490.53	53890.83
490.70	53296.34
490.88	53289.32
491.06	54134.25
491.24	54258.30
491.41	53193.36
491.59	51440.29
491.77	50555.57
491.95	51915.42
492.13	53029.52
492.30	54314.47
492.48	54815.35
492.66	55508.14
492.84	55480.06
493.01	55133.66
493.19	54733.43
493.37	54569.59
493.54	54054.67
493.72	54777.90
493.90	55849.86
494.08	56261.80
494.25	56526.28
494.43	56963.96
494.61	57275.25
494.79	57289.29
494.96	57020.13
495.14	56605.86
495.32	55636.87
495.49	54845.77
495.67	56161.15
495.85	57291.63
496.02	57670.80
496.20	57750.38
496.38	57139.50
496.55	56994.39
496.73	57378.23
496.91	57652.08
497.09	58052.31
497.26	58485.31
497.44	57530.37
497.62	57324.40
497.79	56580.11
497.97	55255.37
498.14	55421.55
498.32	56427.98
498.50	57308.02
498.67	58094.44
498.85	57834.64
499.03	57984.43
499.20	58152.95
499.38	58148.27
499.56	58033.58
499.73	57579.52
499.91	57247.16
500.08	56722.88
500.26	56055.83
500.44	56779.06
500.61	57240.14
500.79	57050.56
500.97	56727.56
501.14	56502.87
501.32	56598.83
501.49	56222.01
501.67	56566.07
501.84	57041.20
502.02	57509.30
502.20	57743.36
502.37	57848.68
502.55	57944.64
502.72	58347.21
502.90	58663.19
503.07	58501.69
503.25	58262.96
503.43	57256.53
503.60	56718.20
503.78	56067.53
503.95	56355.42
504.13	57815.91
504.30	58688.93
504.48	58525.10
504.65	58206.78
504.83	58152.95
505.01	58560.20
505.18	59147.68
505.36	59798.35
505.53	59868.56
505.71	59777.28
505.88	59835.80
506.06	59377.05
506.23	58810.64
506.41	58555.52
506.58	58899.58
506.76	58726.38
506.93	58876.18
507.11	58379.98
507.28	58805.96
507.46	58117.84
507.63	57874.43
507.81	57602.92
507.98	57701.23
508.16	58412.75
508.33	58815.32
508.50	59166.40
508.68	59419.18
508.85	59847.50
509.03	59929.42
509.20	59854.52
509.38	59070.44
509.55	58300.40
509.73	58440.84
509.90	58972.14
510.08	59215.55
510.25	59257.68
510.42	59002.56
510.60	58887.88
510.77	59114.91
510.95	59540.89
511.12	59849.84
511.30	60210.28
511.47	60399.86
511.64	60252.41
511.82	60123.68
511.99	59451.95
512.17	58934.69
512.34	58335.51
512.51	58674.89
512.69	58934.69
512.86	59014.27
513.04	59461.31
513.21	59274.07
513.38	59028.31
513.56	58649.14
513.73	58101.46
513.90	58176.36
514.08	58075.71
514.25	58494.67
514.43	58618.72
514.60	58829.37
514.77	58941.71
514.95	58911.28
515.12	58824.68
515.29	59290.45
515.47	59749.20
515.64	59800.69
515.81	59454.29
515.99	58770.85
516.16	57542.07
516.33	55416.86
516.51	53799.55
516.68	53104.41
516.85	52694.82
517.03	53038.88
517.20	55693.05
517.37	57977.41
517.54	58974.48
517.72	58482.97
517.89	56320.31
518.06	53935.30
518.24	53961.05
518.41	56437.34
518.58	57839.32
518.75	57766.76
518.93	57951.66
519.10	57900.17
519.27	58398.71
519.45	58590.63
519.62	59173.42
519.79	59648.55
519.96	59367.69
520.14	58990.86
520.31	58150.61
520.48	58017.20
520.65	58433.81
520.83	59332.58
521.00	59765.58
521.17	59365.35
521.34	59091.51
521.52	59238.96
521.69	59716.43
521.86	60303.90
522.03	59763.24
522.20	58852.77
522.38	57799.53
522.55	57609.95
522.72	58230.19
522.89	58454.88
523.07	58644.46
523.24	59133.63
523.41	59833.46
523.58	59896.65
523.75	60498.17
523.92	60327.31
524.10	60282.84
524.27	60327.31
524.44	59922.40
524.61	59945.80
524.78	59604.08
524.96	59749.20
525.13	59732.81
525.30	59994.95
525.47	60479.44
525.64	60238.37
525.81	59674.30
525.98	58040.60
526.16	56781.40
526.33	56245.41
526.50	56030.08
526.67	55437.93
526.84	56214.99
527.01	56989.70
527.18	57818.25
527.36	58590.63
527.53	59707.07
527.70	59613.44
527.87	59435.56
528.04	58702.98
528.21	59260.02
528.38	59971.55
528.55	60346.03
528.72	60671.37
528.89	60683.07
529.07	60631.58
529.24	60149.43
529.41	59203.85
529.58	58805.96
529.75	58810.64
529.92	59241.30
530.09	59627.49
530.26	60121.34
530.43	60423.27
530.60	60456.04
530.77	60657.32
530.94	60926.49
531.11	60296.88
531.28	59927.08
531.46	59852.18
531.63	59894.31
531.80	59971.55
531.97	59341.94
532.14	58817.66
532.31	57865.06
532.48	56807.14
532.65	56933.53
532.82	57965.71
532.99	58841.07
533.16	59351.30
533.33	59945.80
533.50	59704.73
533.67	59138.32
533.84	58527.44
534.01	59016.61
534.18	59135.98
534.35	59351.30
534.52	59098.53
534.69	59374.71
534.86	59620.47
535.03	59784.30
535.20	60315.61
535.37	60647.96
535.54	60856.27
535.71	60411.57
535.88	60058.15
536.05	59458.97
536.22	59185.13
536.38	58890.22
536.55	58370.62
536.72	57717.61
536.89	57703.57
537.06	58550.84
537.23	59498.76
537.40	59473.01
537.57	59615.79
537.74	59168.74
537.91	59346.62
538.08	59281.09
538.25	59262.36
538.42	59517.48
538.59	59487.06
538.75	58812.98
538.92	58501.69
539.09	58497.01
539.26	58344.87
539.43	58012.52
539.60	57998.48
539.77	58466.58
539.94	58323.81
540.11	57343.12
540.28	56741.61
540.44	56924.17
540.61	57425.04
540.78	57450.79
540.95	57996.13
541.12	58489.99
541.29	58515.73
541.46	59035.33
541.62	58794.26
541.79	58588.29
541.96	57965.71
542.13	58124.86
542.30	58457.22
542.47	58511.05
542.63	58176.36
542.80	58141.25
542.97	58260.62
543.14	57895.49
543.31	58244.23
543.48	58621.06
543.64	59353.65
543.81	59622.81
543.98	59519.82
544.15	58684.25
544.32	58094.44
544.48	58342.53
544.65	58763.83
544.82	59040.01
544.99	58670.21
545.16	58328.49
545.32	58075.71
545.49	59009.59
545.66	59437.90
545.83	59117.25
546.00	58431.47
546.16	58300.40
546.33	58365.94
546.50	58368.28
546.67	58759.15
546.83	58293.38
547.00	58515.73
547.17	57841.66
547.34	57200.35
547.50	56975.66
547.67	57628.67
547.84	57598.24
548.00	58106.14
548.17	58560.20
548.34	58398.71
548.51	58291.04
548.67	58368.28
548.84	58185.72
549.01	58560.20
549.18	58262.96
549.34	58157.63
549.51	58244.23
549.68	58166.99
549.84	58066.35
550.01	57691.86
550.18	57645.05
550.34	57738.68
550.51	57745.70
550.68	57939.96
550.84	57478.88
551.01	57584.20
551.18	57361.85
551.34	57661.44
551.51	58042.95
551.68	58113.16
551.84	58340.19
552.01	58244.23
552.18	58064.01
552.34	57242.48
552.51	56966.30
552.68	56732.25
552.84	57448.45
553.01	57649.74
553.18	57338.44
553.34	57418.02
553.51	57523.35
553.67	57883.79
553.84	58162.31
554.01	57867.40
554.17	57598.24
554.34	57614.63
554.51	57684.84
554.67	58155.29
554.84	58103.80
555.00	57820.59
555.17	57418.02
555.33	57558.45
555.50	57521.01
555.67	57478.88
555.83	57193.33
556.00	56973.32
556.16	57200.35
556.33	56652.67
556.50	56453.72
556.66	56530.96
556.83	56229.03
556.99	56509.89
557.16	56547.34
557.32	56832.89
557.49	57006.09
557.65	56746.29
557.82	57111.41
557.98	56769.69
558.15	56367.12
558.32	55650.92
558.48	54522.78
558.65	54817.69
558.81	55400.48
558.98	55648.58
559.14	55863.91
559.31	56051.15
559.47	55994.98
559.64	55613.47
559.80	54988.55
559.97	54960.46
560.13	55583.04
560.30	56612.88
560.46	57111.41
560.63	57411.00
560.79	57406.32
560.96	56828.21
561.12	55978.59
561.29	54883.22
561.45	54798.96
561.61	55583.04
561.78	56023.06
561.94	56041.79
562.11	55686.03
562.27	55618.15
562.44	56161.15
562.60	56147.11
562.77	56336.69
562.93	56294.56
563.10	56119.02
563.26	55657.94
563.42	55634.53
563.59	55426.23
563.75	55339.63
563.92	55412.18
564.08	55566.66
564.24	55784.33
564.41	55922.42
564.57	55613.47
564.74	55700.07
564.90	55557.30
565.07	55152.38
565.23	54944.08
565.39	54335.54
565.56	54157.66
565.72	53666.14
565.88	54351.92
566.05	54342.56
566.21	54649.17
566.38	54754.49
566.54	54752.15
566.70	55222.60
566.87	55353.67
567.03	55288.13
567.19	55777.31
567.36	55152.38
567.52	55075.15
567.68	54944.08
567.85	54260.64
568.01	54199.79
568.17	53516.35
568.34	53624.01
568.50	53450.81
568.66	53862.75
568.83	54145.95
568.99	54181.06
569.15	54454.90
569.32	54262.98
569.48	53811.26
569.64	53801.89
569.81	53710.61
569.97	53502.31
570.13	53340.81
570.30	52669.08
570.46	52523.96
570.62	52219.69
570.78	51835.84
570.95	52264.16
571.11	52896.11
571.27	52973.34
571.43	53305.70
571.60	53551.46
571.76	53874.45
571.92	53984.46
572.09	53986.80
572.25	54061.69
572.41	53935.30
572.57	53982.12
572.74	53970.41
572.90	53352.51
573.06	53504.65
573.22	53588.91
573.38	53509.33
573.55	53495.28
573.71	53698.91
573.87	53455.50
574.03	53434.43
574.20	53488.26
574.36	52893.77
574.52	52971.00
574.68	52795.46
574.84	52601.20
575.01	51987.98
575.17	51927.13
575.33	52128.41
575.49	52322.68
575.65	52348.42
575.82	52399.91
575.98	52322.68
576.14	52388.21
576.30	52699.50
576.46	52865.68
576.62	52821.21
576.79	52467.79
576.95	52027.77
577.11	52133.09
577.27	52144.80
577.43	52013.73
577.59	51842.87
577.75	51599.45
577.92	50869.20
578.08	50696.00
578.24	50436.20
578.40	51058.79
578.56	51494.13
578.72	51517.53
578.88	51463.70
579.04	51604.13
579.21	51704.77
579.37	51819.46
579.53	51842.87
579.69	52004.36
579.85	52289.91
580.01	51838.18
580.17	51615.83
580.33	51557.32
580.49	51482.42
580.65	51452.00
580.82	51662.64
580.98	52074.58
581.14	51868.61
581.30	51681.37
581.46	51742.22
581.62	52039.47
581.78	52065.22
581.94	52367.15
582.10	51915.42
582.26	52020.75
582.42	52247.78
582.58	52020.75
582.74	51896.70
582.90	52034.79
583.06	51760.95
583.22	51686.05
583.38	51437.95
583.54	51470.72
583.70	51646.26
583.86	51377.10
584.02	51569.02
584.18	51592.43
584.34	51299.86
584.50	51164.11
584.66	51222.62
584.82	50487.70
584.98	50993.25
585.14	50220.87
585.30	49673.19
