SpectraSuite Data File
++++++++++++++++++++++++++++++++++++
Date: Mon Oct 07 14:53:36 GMT-05:00 2013
User: price-jones
Dark Spectrum Present: No
Reference Spectrum Present: No
Number of Sampled Component Spectra: 1
Spectrometers: USB2+H05261
Integration Time (usec): 100000 (USB2+H05261)
Spectra Averaged: 1 (USB2+H05261)
Boxcar Smoothing: 0 (USB2+H05261)
Correct for Electrical Dark: No (USB2+H05261)
Strobe/Lamp Enabled: No (USB2+H05261)
Correct for Detector Non-linearity: No (USB2+H05261)
Correct for Stray Light: No (USB2+H05261)
Number of Pixels in Processed Spectrum: 2048
>>>>>Begin Processed Spectral Data<<<<<
365.73	0.00
365.92	0.00
366.12	0.00
366.32	0.00
366.52	0.00
366.72	0.00
366.91	0.00
367.11	0.00
367.31	0.00
367.51	0.00
367.70	0.00
367.90	0.00
368.10	0.00
368.30	0.00
368.49	0.00
368.69	0.00
368.89	0.00
369.09	0.00
369.28	0.00
369.48	0.00
369.68	0.00
369.87	0.00
370.07	0.00
370.27	0.00
370.47	779.40
370.66	3758.90
370.86	4262.12
371.06	4720.86
371.25	4819.16
371.45	4301.90
371.65	3838.48
371.84	3571.66
372.04	3857.20
372.24	4332.33
372.44	4475.10
372.63	4447.02
372.83	4194.24
373.03	3632.51
373.22	3428.88
373.42	3489.74
373.62	4128.70
373.81	4428.29
374.01	4418.93
374.21	4063.17
374.40	3763.58
374.60	3845.50
374.79	4355.74
374.99	5020.45
375.19	5345.78
375.38	5345.78
375.58	5104.71
375.78	4985.34
375.97	4990.02
376.17	5139.82
376.37	5212.37
376.56	5549.41
376.76	5724.95
376.95	5940.28
377.15	6539.46
377.35	6813.30
377.54	6958.41
377.74	7157.36
377.93	7335.24
378.13	7028.63
378.33	6747.76
378.52	6143.91
378.72	5860.70
378.91	5860.70
379.11	5710.91
379.31	5650.05
379.50	5563.45
379.70	6111.14
379.89	6394.34
380.09	6726.70
380.28	7105.87
380.48	7131.61
380.68	7059.06
380.87	6932.67
381.07	6459.88
381.26	6040.92
381.46	5397.28
381.65	5413.66
381.85	5200.67
382.04	4887.04
382.24	4786.40
382.43	4358.08
382.63	4271.48
382.83	4283.18
383.02	4400.21
383.22	4339.35
383.41	4353.40
383.61	4650.64
383.80	5348.12
384.00	6160.29
384.19	6696.27
384.39	7070.76
384.58	6822.66
384.78	6843.73
384.97	6906.92
385.17	6597.97
385.36	6125.18
385.56	5930.92
385.75	6022.20
385.95	6698.61
386.14	7272.04
386.34	7295.45
386.53	6981.82
386.72	6637.76
386.92	6471.58
387.11	6757.13
387.31	7302.47
387.50	7136.29
387.70	7012.24
387.89	6752.45
388.09	6881.18
388.28	6939.69
388.48	7019.27
388.67	7496.74
388.86	8107.62
389.06	8748.92
389.25	9387.89
389.45	9504.92
389.64	9359.80
389.84	9411.29
390.03	9242.78
390.22	9245.12
390.42	9530.66
390.61	10167.29
390.81	10817.96
391.00	10995.84
391.19	10817.96
391.39	10399.00
391.58	9954.30
391.78	9509.60
391.97	9179.58
392.16	8306.56
392.36	7644.19
392.55	6272.64
392.75	5027.47
392.94	4044.45
393.13	3892.31
393.33	4638.94
393.52	6036.24
393.71	7304.81
393.91	8297.20
394.10	8879.99
394.29	9863.02
394.49	10513.69
394.68	11403.09
394.88	11412.45
395.07	11871.20
395.26	11798.64
395.46	11557.57
395.65	10736.04
395.84	9432.36
396.04	8093.57
396.23	6462.22
396.42	5425.36
396.62	5165.56
396.81	6043.26
397.00	7705.04
397.19	9856.00
397.39	11517.78
397.58	12786.35
397.77	14097.05
397.97	14621.33
398.16	14604.94
398.35	15215.82
398.55	15225.18
398.74	16046.71
398.93	16252.68
399.12	16095.86
399.32	15742.44
399.51	15861.81
399.70	17060.16
399.90	16919.73
400.09	16798.02
400.28	16634.19
400.47	16816.75
400.67	17642.96
400.86	18136.81
401.05	18043.19
401.24	18167.24
401.44	18441.08
401.63	18331.08
401.82	18618.96
402.01	18370.86
402.21	18752.37
402.40	18829.61
402.59	18267.88
402.78	17589.13
402.97	16868.24
403.17	17429.97
403.36	18799.18
403.55	19335.17
403.74	19922.64
403.93	18890.46
404.13	17528.27
404.32	17057.82
404.51	17919.14
404.70	19349.21
404.89	19129.20
405.09	19021.53
405.28	18310.01
405.47	18382.57
405.66	18511.30
405.85	17750.62
406.05	17385.50
406.24	17575.08
406.43	18614.28
406.62	19264.95
406.81	18993.45
407.00	18352.14
407.20	18195.32
407.39	18202.35
407.58	18920.89
407.77	19721.35
407.96	20430.54
408.15	20699.70
408.34	20821.41
408.54	21535.27
408.73	21689.74
408.92	21664.00
409.11	20636.50
409.30	19723.69
409.49	18562.79
409.68	17497.84
409.87	16819.09
410.07	17743.60
410.26	19283.67
410.45	20383.73
410.64	20905.66
410.83	21762.30
411.02	22321.69
411.21	23044.91
411.40	22871.72
411.59	23213.43
411.78	22888.10
411.98	22471.48
412.17	23386.63
412.36	22405.95
412.55	22682.13
412.74	22008.06
412.93	21481.44
413.12	21799.75
413.31	23896.87
413.50	23716.65
413.69	24177.73
413.88	23646.43
414.07	22714.90
414.26	23433.44
414.45	23859.42
414.64	24016.24
414.83	24369.66
415.02	23632.39
415.22	23442.81
415.41	24367.32
415.60	24889.26
415.79	25865.26
415.98	26724.24
416.17	26579.12
416.36	26038.46
416.55	25703.76
416.74	24606.05
416.93	24116.88
417.12	23810.27
417.31	24173.05
417.50	24416.47
417.69	25495.46
417.88	25549.29
418.07	25247.36
418.26	24622.44
418.45	25046.07
418.64	26214.00
418.83	26916.16
419.02	26459.76
419.21	26136.76
419.39	25060.12
419.58	24081.77
419.77	23873.46
419.96	25006.28
420.15	26373.16
420.34	27316.39
420.53	28032.60
420.72	28650.50
420.91	28175.37
421.10	27999.83
421.29	27882.80
421.48	26838.92
421.67	28212.82
421.86	27555.13
422.05	25516.52
422.24	23140.88
422.43	22298.28
422.61	24964.15
422.80	26974.67
422.99	27290.65
423.18	26565.08
423.37	25577.37
423.56	25699.08
423.75	26040.80
423.94	26721.90
424.13	25142.03
424.32	25626.53
424.50	25364.39
424.69	25069.48
424.88	25596.10
425.07	25270.76
425.26	25165.44
425.45	25055.43
425.64	24570.94
425.83	24526.47
426.01	25729.51
426.20	26754.66
426.39	26492.52
426.58	24507.75
426.77	22663.41
426.96	21853.58
427.15	22693.83
427.33	24638.82
427.52	25647.59
427.71	25881.64
427.90	25230.98
428.09	25469.71
428.28	24692.65
428.46	23763.46
428.65	23260.24
428.84	24107.52
429.03	24538.18
429.22	23267.27
429.40	21944.86
429.59	19814.98
429.78	17530.61
429.97	17479.12
430.16	17788.07
430.34	18136.81
430.53	17905.10
430.72	18235.11
430.91	20327.55
431.10	23737.71
431.28	27740.03
431.47	30150.78
431.66	30998.06
431.85	27861.74
432.03	25589.08
432.22	24383.70
432.41	25703.76
432.60	28278.35
432.79	29450.96
432.97	30148.44
433.16	29720.12
433.35	27161.92
433.54	24584.99
433.72	22672.77
433.91	23374.93
434.10	26431.67
434.28	27805.56
434.47	28994.56
434.66	29205.20
434.85	28292.40
435.03	28184.73
435.22	28697.31
435.41	30424.62
435.59	30735.92
435.78	31248.49
435.97	31908.52
436.16	32315.78
436.34	31732.98
436.53	30696.13
436.72	31351.48
436.90	29706.08
437.09	29219.25
437.28	28760.50
437.46	29647.57
437.65	29586.71
437.84	27861.74
438.02	25577.37
438.21	25631.21
438.40	26644.66
438.58	28938.38
438.77	30019.71
438.96	30052.48
439.14	31409.99
439.33	31873.42
439.52	32671.54
439.70	31840.65
439.89	30866.98
440.08	30611.87
440.26	29876.94
440.45	30988.69
440.63	33085.81
440.82	35058.88
441.01	34073.52
441.19	34022.03
441.38	34483.11
441.57	36079.36
441.75	36388.31
441.94	36657.47
442.12	36306.39
442.31	37174.73
442.50	36446.82
442.68	36804.92
442.87	36154.26
443.05	35391.24
443.24	36243.20
443.43	37116.22
443.61	37785.61
443.80	37848.80
443.98	35615.93
444.17	35749.34
444.35	37855.82
444.54	38129.67
444.73	37989.24
444.91	36671.51
445.10	35014.41
445.28	33443.91
445.47	33031.98
445.65	33369.02
445.84	34288.85
446.02	35496.56
446.21	35597.21
446.39	36257.24
446.58	36339.16
446.77	37010.89
446.95	37476.66
447.14	38003.28
447.32	39122.05
447.51	38646.93
447.69	36821.31
447.88	36067.66
448.06	36582.57
448.25	37984.55
448.43	37956.47
448.62	37443.89
448.80	36584.91
448.99	37364.31
449.17	37724.75
449.36	37156.00
449.54	38841.19
449.73	39344.41
449.91	39969.33
450.10	41029.59
450.28	41455.57
450.46	40896.18
450.65	41591.32
450.83	41062.36
451.02	39632.29
451.20	39849.96
451.39	40266.58
451.57	39758.68
451.76	39835.92
451.94	39435.69
452.13	38602.46
452.31	37371.33
452.49	35154.85
452.68	35714.23
452.86	35882.75
453.05	36603.64
453.23	37565.60
453.42	38183.50
453.60	39405.26
453.78	39559.73
453.97	39040.14
454.15	39414.62
454.34	38323.93
454.52	38572.03
454.70	37645.18
454.89	38270.10
455.07	38234.99
455.26	38873.96
455.44	40196.36
455.62	40968.74
455.81	41144.28
455.99	40800.22
456.17	40451.48
456.36	40589.57
456.54	41771.54
456.73	41881.55
456.91	42667.97
457.09	42483.06
457.28	43299.91
457.46	41902.61
457.64	41242.58
457.83	40264.24
458.01	39239.08
458.19	40093.38
458.38	40680.85
458.56	42286.46
458.74	41275.35
458.93	41111.51
459.11	40935.97
459.29	40711.28
459.48	40708.94
459.66	40250.19
459.84	41191.09
460.03	41563.23
460.21	41097.47
460.39	42593.07
460.57	42871.59
460.76	43091.60
460.94	43175.86
461.12	42410.51
461.31	42344.97
461.49	42515.83
461.67	42454.98
461.85	43700.14
462.04	43819.51
462.22	43484.81
462.40	43416.94
462.59	43674.40
462.77	43529.28
462.95	43372.47
463.13	43065.86
463.32	42253.69
463.50	42342.63
463.68	42438.59
463.86	42873.93
464.05	42213.90
464.23	41336.20
464.41	41242.58
464.59	40631.70
464.78	42284.12
464.96	42234.97
465.14	41904.95
465.32	42710.10
465.50	43868.66
465.69	43786.74
465.87	43358.42
466.05	41883.89
466.23	40318.07
466.41	39559.73
466.60	40301.68
466.78	40488.93
466.96	41167.68
467.14	41731.75
467.32	42440.93
467.51	42665.63
467.69	40346.15
467.87	41352.58
468.05	42382.42
468.23	42080.49
468.41	42337.95
468.60	42263.05
468.78	42583.71
468.96	42108.58
469.14	42815.42
469.32	43107.99
469.50	41780.90
469.69	41808.99
469.87	41036.61
470.05	41273.01
470.23	41221.52
470.41	41354.93
470.59	41808.99
470.77	41799.63
470.95	42625.84
471.14	43115.01
471.32	43042.45
471.50	45191.06
471.68	45567.89
471.86	45797.26
472.04	45841.73
472.22	46122.60
472.40	44027.82
472.58	43725.89
472.77	43192.25
472.95	44144.84
473.13	45251.92
473.31	44044.20
473.49	44055.90
473.67	45006.16
473.85	45263.62
474.03	46244.30
474.21	46415.16
474.39	46834.12
474.57	47110.30
474.75	46747.52
474.93	46876.25
475.12	45614.70
475.30	46202.18
475.48	45984.51
475.66	46562.62
475.84	46199.83
476.02	45453.20
476.20	44872.75
476.38	45890.88
476.56	47283.50
476.74	47718.84
476.92	48039.50
477.10	48563.78
477.28	49743.41
477.46	49502.33
477.64	50251.30
477.82	50024.27
478.00	50593.02
478.18	49741.06
478.36	49544.46
478.54	49469.56
478.72	49773.83
478.90	50281.73
479.08	51585.41
479.26	51849.89
479.44	51625.20
479.62	51442.63
479.80	51634.56
479.98	51620.52
480.16	51622.86
480.34	51508.17
480.52	52088.62
480.70	52086.28
480.88	52119.05
481.06	52802.49
481.24	52734.61
481.41	53750.40
481.59	54131.91
481.77	53893.18
481.95	53385.28
482.13	53277.61
482.31	53343.15
482.49	53837.00
482.67	53829.98
482.85	53872.11
483.03	54450.22
483.21	54913.65
483.39	54733.43
483.57	54356.60
483.74	54108.50
483.92	54028.93
484.10	54351.92
484.28	54791.94
484.46	55341.97
484.64	55519.85
484.82	54983.86
485.00	54593.00
485.18	54197.44
485.35	53102.07
485.53	50333.22
485.71	47253.08
485.89	46267.71
486.07	48477.18
486.25	51349.01
486.43	53212.08
486.61	54087.44
486.78	53663.80
486.96	53879.13
487.14	55201.53
487.32	55828.80
487.50	56685.43
487.68	57343.12
487.85	57469.51
488.03	57659.10
488.21	57088.01
488.39	56673.73
488.57	56367.12
488.75	55955.19
488.92	56704.16
489.10	58426.79
489.28	59379.39
489.46	60224.32
489.64	59674.30
489.81	60252.41
489.99	59657.91
490.17	59800.69
490.35	60032.40
490.53	59583.02
490.70	59271.73
490.88	59224.92
491.06	60151.77
491.24	60079.21
491.41	59157.04
491.59	57939.96
491.77	57277.59
491.95	58181.04
492.13	58969.80
492.30	60123.68
492.48	60837.54
492.66	61165.22
492.84	61144.16
493.01	61137.13
493.19	60458.38
493.37	60348.37
493.54	60144.75
493.72	60509.87
493.90	61551.41
494.08	62092.07
494.25	62251.23
494.43	62368.26
494.61	62836.36
494.79	62747.42
494.96	62618.69
495.14	62129.52
495.32	61352.46
495.49	60856.27
495.67	61703.54
495.85	62979.14
496.02	63262.34
496.20	63082.12
496.38	62625.71
496.55	62485.28
496.73	62972.11
496.91	62922.96
497.09	63622.78
497.26	63685.98
497.44	63377.03
497.62	62880.83
497.79	62457.20
497.97	61282.25
498.14	61284.59
498.32	62127.18
498.50	62979.14
498.67	63449.58
498.85	63257.66
499.03	63566.61
499.20	63669.59
499.38	63814.71
499.56	63606.40
499.73	63182.76
499.91	62775.51
500.08	62562.52
500.26	61804.19
500.44	62031.22
500.61	62796.57
500.79	62684.23
500.97	62300.38
501.14	62059.30
501.32	61902.49
501.49	62092.07
501.67	62347.19
501.84	62721.68
502.02	62829.34
502.20	63241.28
502.37	63185.10
502.55	63325.53
502.72	63838.11
502.90	64126.00
503.07	63917.69
503.25	63781.94
503.43	62892.54
503.60	62365.91
503.78	61771.42
503.95	62178.67
504.13	63320.85
504.30	64037.06
504.48	63898.97
504.65	63702.36
504.83	63618.10
505.01	64231.32
505.18	64512.19
505.36	65043.49
505.53	65055.19
505.71	65235.41
505.88	65300.95
506.06	64793.05
506.23	64535.59
506.41	64205.58
506.58	64507.50
506.76	64353.03
506.93	64432.61
507.11	63950.46
507.28	64228.98
507.46	63861.52
507.63	63346.60
507.81	63082.12
507.98	63377.03
508.16	64060.46
508.33	64460.69
508.50	64757.94
508.68	65027.10
508.85	65415.63
509.03	65333.71
509.20	65331.37
509.38	64804.75
509.55	63983.22
509.73	64020.67
509.90	64631.55
510.08	64591.76
510.25	64683.04
510.42	64582.40
510.60	64418.56
510.77	64554.32
510.95	65172.22
511.12	65312.65
511.30	65485.85
511.47	65535.00
511.64	65535.00
511.82	65307.97
511.99	64860.93
512.17	64437.29
512.34	64175.15
512.51	64245.36
512.69	64217.28
512.86	64357.71
513.04	64750.92
513.21	64729.86
513.38	64523.89
513.56	64062.80
513.73	63517.46
513.90	63739.81
514.08	63873.22
514.25	63973.86
514.43	64299.20
514.60	64261.75
514.77	64605.81
514.95	64521.55
515.12	64491.12
515.29	64542.61
515.47	65134.77
515.64	65286.90
515.81	64961.57
515.99	64505.16
516.16	63344.26
516.33	61254.16
516.51	59924.74
516.68	59585.36
516.85	58974.48
517.03	59517.48
517.20	61715.25
517.37	63639.17
517.54	64509.85
517.72	64287.49
517.89	62007.81
518.06	60109.64
518.24	60278.16
518.41	62042.92
518.58	63213.19
518.75	63519.80
518.93	63599.38
519.10	63538.52
519.27	63934.07
519.45	64088.55
519.62	64706.45
519.79	65221.37
519.96	64947.53
520.14	64376.43
520.31	63821.73
520.48	63676.61
520.65	64048.76
520.83	64952.21
521.00	65357.12
521.17	64977.95
521.34	64580.06
521.52	64722.83
521.69	65296.27
521.86	65535.00
522.03	65303.29
522.20	64402.18
522.38	63224.89
522.55	63454.26
522.72	64015.99
522.89	64165.79
523.07	64427.93
523.24	64519.21
523.41	65289.24
523.58	65535.00
523.75	65535.00
523.92	65535.00
524.10	65535.00
524.27	65535.00
524.44	65535.00
524.61	65446.06
524.78	65261.16
524.96	65160.51
525.13	65249.45
525.30	65535.00
525.47	65535.00
525.64	65535.00
525.81	65179.24
525.98	64001.95
526.16	62590.61
526.33	62227.82
526.50	62021.86
526.67	61619.28
526.84	62026.54
527.01	62929.98
527.18	63571.29
527.36	64324.94
527.53	65097.32
527.70	65361.80
527.87	64992.00
528.04	64390.48
528.21	64846.88
528.38	65436.70
528.55	65535.00
528.72	65535.00
528.89	65535.00
529.07	65535.00
529.24	65535.00
529.41	65008.38
529.58	64542.61
529.75	64409.20
529.92	65008.38
530.09	65415.63
530.26	65535.00
530.43	65535.00
530.60	65535.00
530.77	65535.00
530.94	65535.00
531.11	65535.00
531.28	65535.00
531.46	65492.87
531.63	65506.91
531.80	65446.06
531.97	65013.06
532.14	64502.82
532.31	63632.14
532.48	62972.11
532.65	62892.54
532.82	63831.09
532.99	64832.84
533.16	64959.23
533.33	65535.00
533.50	65251.80
533.67	64633.89
533.84	64463.03
534.01	64582.40
534.18	64741.56
534.35	64968.59
534.52	64800.07
534.69	65045.83
534.86	65340.74
535.03	65441.38
535.20	65535.00
535.37	65535.00
535.54	65535.00
535.71	65535.00
535.88	65535.00
536.05	65186.26
536.22	64956.89
536.38	64559.00
536.55	64140.04
536.72	63648.53
536.89	63444.90
537.06	64362.39
537.23	65146.47
537.40	65399.25
537.57	65242.43
537.74	65151.15
537.91	65076.26
538.08	64935.82
538.25	65286.90
538.42	65240.09
538.59	65204.98
538.75	64575.38
538.92	64158.76
539.09	64170.47
539.26	64044.08
539.43	63821.73
539.60	64004.29
539.77	64081.53
539.94	64001.95
540.11	63325.53
540.28	62752.10
540.44	62934.66
540.61	63152.33
540.78	63372.34
540.95	63772.58
541.12	64015.99
541.29	64336.65
541.46	64746.24
541.62	64701.77
541.79	64479.42
541.96	63819.39
542.13	63810.03
542.30	64259.41
542.47	64392.82
542.63	64137.70
542.80	63978.54
542.97	64203.24
543.14	64027.70
543.31	64041.74
543.48	64509.85
543.64	65057.53
543.81	65469.46
543.98	65233.07
544.15	64577.72
544.32	64135.36
544.48	64184.51
544.65	64399.84
544.82	64767.30
544.99	64584.74
545.16	64308.56
545.32	64046.42
545.49	64669.00
545.66	65190.94
545.83	64755.60
546.00	64474.74
546.16	64060.46
546.33	64104.93
546.50	64247.71
546.67	64638.57
546.83	64299.20
547.00	64102.59
547.17	63767.90
547.34	63196.80
547.50	63187.44
547.67	63580.65
547.84	63517.46
548.00	64030.04
548.17	64411.54
548.34	64228.98
548.51	64156.42
548.67	64346.01
548.84	64388.14
549.01	64252.39
549.18	64271.11
549.34	64184.51
549.51	64217.28
549.68	64058.12
549.84	63873.22
550.01	63826.41
550.18	63489.37
550.34	63831.09
550.51	63810.03
550.68	63786.62
550.84	63573.63
551.01	63625.12
551.18	63512.78
551.34	63781.94
551.51	64011.31
551.68	64404.52
551.84	64224.30
552.01	64027.70
552.18	64163.45
552.34	63379.37
552.51	63093.82
552.68	62827.00
552.84	63402.77
553.01	63781.94
553.18	63533.84
553.34	63522.14
553.51	63606.40
553.67	63814.71
553.84	64081.53
554.01	64013.65
554.17	63728.11
554.34	63795.98
554.51	63868.54
554.67	64137.70
554.84	64104.93
555.00	63585.33
555.17	63472.99
555.33	63573.63
555.50	63566.61
555.67	63625.12
555.83	63458.94
556.00	63306.81
556.16	63276.38
556.33	62927.64
556.50	62709.97
556.66	62597.63
556.83	62473.58
556.99	62606.99
557.16	62606.99
557.32	63004.88
557.49	63236.59
557.65	63145.31
557.82	63131.27
557.98	62829.34
558.15	62649.12
558.32	61790.14
558.48	61247.14
558.65	61373.53
558.81	61876.74
558.98	61946.96
559.14	62000.79
559.31	62042.92
559.47	62286.34
559.64	61740.99
559.80	61558.43
559.97	61628.65
560.13	61979.73
560.30	62695.93
560.46	63210.85
560.63	63393.41
560.79	63295.11
560.96	63018.92
561.12	62045.26
561.29	61448.42
561.45	61443.74
561.61	61900.15
561.78	62398.68
561.94	62272.29
562.11	62094.41
562.27	61895.47
562.44	62082.71
562.60	62532.09
562.77	62567.20
562.93	62508.69
563.10	62426.77
563.26	62014.83
563.42	62101.43
563.59	61832.27
563.75	61766.74
563.92	61965.68
564.08	61911.85
564.24	62085.05
564.41	61982.07
564.57	62162.29
564.74	61874.40
564.90	61827.59
565.07	61827.59
565.23	61385.23
565.39	60846.91
565.56	60659.66
565.72	60416.25
565.88	60933.51
566.05	61020.11
566.21	61254.16
566.38	61165.22
566.54	61240.12
566.70	61614.60
566.87	61860.36
567.03	61975.05
567.19	61953.98
567.36	61743.33
567.52	61745.67
567.68	61462.47
567.85	61146.50
568.01	60467.74
568.17	60484.12
568.34	60362.42
568.50	60130.70
568.66	60526.25
568.83	60619.88
568.99	60645.62
569.15	61013.08
569.32	60874.99
569.48	60800.10
569.64	60570.72
569.81	60254.75
569.97	60172.83
570.13	60420.93
570.30	59913.03
570.46	59426.20
570.62	59030.65
570.78	59030.65
570.95	58979.16
571.11	59849.84
571.27	60027.72
571.43	60130.70
571.60	60334.33
571.76	60509.87
571.92	60540.30
572.09	60727.54
572.25	61038.83
572.41	60762.65
572.57	60470.08
572.74	60685.41
572.90	60353.05
573.06	60254.75
573.22	60355.39
573.38	60451.36
573.55	60434.97
573.71	60619.88
573.87	60449.02
574.03	60175.17
574.20	60247.73
574.36	59910.69
574.52	59835.80
574.68	59803.03
574.84	59561.95
575.01	59009.59
575.17	59000.22
575.33	59103.21
575.49	59458.97
575.65	59690.68
575.82	59428.54
575.98	59138.32
576.14	59341.94
576.30	59714.09
576.46	59632.17
576.62	59870.90
576.79	59412.16
576.95	59384.07
577.11	59260.02
577.27	59393.43
577.43	59484.72
577.59	59274.07
577.75	58995.54
577.92	58314.45
578.08	58012.52
578.24	58017.20
578.40	58447.86
578.56	58918.31
578.72	58602.33
578.88	58965.12
579.04	58808.30
579.21	59077.46
579.37	58927.67
579.53	59159.38
579.69	59089.16
579.85	59213.21
580.01	59018.95
580.17	58885.54
580.33	58660.85
580.49	58798.94
580.65	58693.61
580.82	58911.28
580.98	59077.46
581.14	58876.18
581.30	59110.23
581.46	59014.27
581.62	59164.06
581.78	59093.85
581.94	59178.10
582.10	59227.26
582.26	59255.34
582.42	59182.79
582.58	59117.25
582.74	59107.89
582.90	59238.96
583.06	59269.39
583.22	58930.01
583.38	58915.96
583.54	58976.82
583.70	58759.15
583.86	58794.26
584.02	58752.13
584.18	58915.96
584.34	58625.74
584.50	58742.77
584.66	58562.54
584.82	58351.90
584.98	58443.18
585.14	57846.34
