SpectraSuite Data File
++++++++++++++++++++++++++++++++++++
Date: Mon Oct 07 14:52:57 GMT-05:00 2013
User: price-jones
Dark Spectrum Present: No
Reference Spectrum Present: No
Number of Sampled Component Spectra: 1
Spectrometers: USB2+H05261
Integration Time (usec): 100000 (USB2+H05261)
Spectra Averaged: 1 (USB2+H05261)
Boxcar Smoothing: 0 (USB2+H05261)
Correct for Electrical Dark: No (USB2+H05261)
Strobe/Lamp Enabled: No (USB2+H05261)
Correct for Detector Non-linearity: No (USB2+H05261)
Correct for Stray Light: No (USB2+H05261)
Number of Pixels in Processed Spectrum: 2048
>>>>>Begin Processed Spectral Data<<<<<
365.73	0.00
365.92	0.00
366.12	0.00
366.32	0.00
366.52	0.00
366.72	0.00
366.91	0.00
367.11	0.00
367.31	0.00
367.51	0.00
367.70	0.00
367.90	0.00
368.10	0.00
368.30	0.00
368.49	0.00
368.69	0.00
368.89	0.00
369.09	0.00
369.28	0.00
369.48	0.00
369.68	0.00
369.87	0.00
370.07	0.00
370.27	0.00
370.47	528.96
370.66	2738.43
370.86	3021.63
371.06	3576.34
371.25	3281.43
371.45	3026.31
371.65	2764.17
371.84	2546.50
372.04	2768.85
372.24	2984.18
372.44	3197.17
372.63	2951.42
372.83	2972.48
373.03	2609.70
373.22	2464.58
373.42	2497.35
373.62	2857.79
373.81	3089.51
374.01	3075.46
374.21	2825.03
374.40	2595.65
374.60	2752.47
374.79	3038.02
374.99	3581.02
375.19	3742.52
375.38	3882.95
375.58	3660.60
375.78	3604.42
375.97	3513.14
376.17	3744.86
376.37	3761.24
376.56	3885.29
376.76	4095.94
376.95	4381.48
377.15	4723.20
377.35	4660.01
377.54	4873.00
377.74	5123.43
377.93	5207.69
378.13	4964.28
378.33	4655.33
378.52	4337.01
378.72	4191.90
378.91	4088.92
379.11	4014.02
379.31	3716.77
379.50	3815.07
379.70	4133.39
379.89	4613.20
380.09	4908.10
380.28	5090.67
380.48	5083.64
380.68	4901.08
380.87	4849.59
381.07	4393.19
381.26	4011.68
381.46	3833.80
381.65	3740.18
381.85	3562.30
382.04	3389.10
382.24	3243.98
382.43	3089.51
382.63	3014.61
382.83	3030.99
383.02	3080.14
383.22	3204.19
383.41	3080.14
383.61	3293.13
383.80	3854.86
384.00	4402.55
384.19	4908.10
384.39	4971.30
384.58	4933.85
384.78	4952.57
384.97	4727.88
385.17	4594.47
385.36	4332.33
385.56	4252.75
385.75	4369.78
385.95	4842.57
386.14	4945.55
386.34	5170.24
386.53	4868.31
386.72	4634.26
386.92	4641.28
387.11	4863.63
387.31	5114.07
387.50	5144.50
387.70	4922.15
387.89	4863.63
388.09	4880.02
388.28	4833.21
388.48	5011.09
388.67	5273.23
388.86	5909.85
389.06	6181.35
389.25	6705.63
389.45	6789.89
389.64	6619.04
389.84	6684.57
390.03	6441.15
390.22	6537.12
390.42	6761.81
390.61	7169.06
390.81	7719.09
391.00	7878.24
391.19	7658.23
391.39	7478.01
391.58	7080.12
391.78	6462.22
391.97	6338.17
392.16	5802.19
392.36	5437.06
392.55	4360.42
392.75	3344.63
392.94	2818.00
393.13	2902.26
393.33	3414.84
393.52	4315.95
393.71	5221.74
393.91	5886.45
394.10	6349.87
394.29	6932.67
394.49	7592.70
394.68	8170.81
394.88	8336.99
395.07	8545.30
395.26	8187.19
395.46	7831.43
395.65	7552.91
395.84	6757.13
396.04	5511.96
396.23	4421.27
396.42	3847.84
396.62	3765.92
396.81	4386.16
397.00	5610.26
397.19	7166.72
397.39	8308.90
397.58	9320.01
397.77	9919.19
397.97	10256.23
398.16	10389.64
398.35	10548.79
398.55	11030.94
398.74	11517.78
398.93	11740.13
399.12	11332.87
399.32	11028.60
399.51	11335.21
399.70	12004.61
399.90	12147.38
400.09	11988.22
400.28	11698.00
400.47	12173.13
400.67	12631.87
400.86	12884.65
401.05	12795.71
401.24	12917.42
401.44	13060.19
401.63	13018.06
401.82	13177.22
402.01	13329.35
402.21	13429.99
402.40	13465.10
402.59	12856.56
402.78	12362.71
402.97	12114.61
403.17	12542.93
403.36	13256.79
403.55	13743.63
403.74	14106.41
403.93	13205.30
404.13	12386.12
404.32	12156.74
404.51	12828.48
404.70	13401.91
404.89	13500.21
405.09	13301.26
405.28	13139.77
405.47	13034.44
405.66	13214.66
405.85	12599.10
406.05	12283.13
406.24	12280.79
406.43	12982.95
406.62	13521.27
406.81	13708.52
407.00	13076.57
407.20	12652.94
407.39	13137.43
407.58	13523.62
407.77	14052.58
407.96	14513.66
408.15	14647.07
408.34	14984.11
408.54	15190.08
408.73	15517.75
408.92	15260.29
409.11	14810.91
409.30	14017.47
409.49	13350.42
409.68	12409.52
409.87	11985.88
410.07	13235.73
410.26	13886.40
410.45	14703.25
410.64	14881.13
410.83	15545.84
411.02	15868.83
411.21	16423.54
411.40	16201.19
411.59	16554.61
411.78	16563.97
411.98	16009.26
412.17	16428.22
412.36	16126.29
412.55	16273.74
412.74	15386.68
412.93	15346.89
413.12	15609.03
413.31	16889.31
413.50	17261.45
413.69	17521.25
413.88	16767.60
414.07	16102.89
414.26	16634.19
414.45	16982.93
414.64	17153.79
414.83	17350.39
415.02	17001.65
415.22	16802.71
415.41	17383.16
415.60	17703.81
415.79	18422.36
415.98	18906.85
416.17	18696.20
416.36	18164.90
416.55	18040.85
416.74	17642.96
416.93	17226.34
417.12	16931.44
417.31	17352.73
417.50	17404.22
417.69	18333.42
417.88	17980.00
418.07	18244.48
418.26	17596.15
418.45	17839.56
418.64	18625.98
418.83	19183.03
419.02	18752.37
419.21	18916.21
419.39	17575.08
419.58	17041.44
419.77	17132.72
419.96	17757.64
420.15	19077.71
420.34	19269.63
420.53	20156.69
420.72	20374.36
420.91	20336.91
421.10	20067.75
421.29	20088.82
421.48	19236.86
421.67	20020.94
421.86	19522.41
422.05	17935.53
422.24	16442.26
422.43	16208.21
422.61	18377.89
422.80	19222.82
422.99	19332.82
423.18	18567.47
423.37	18288.95
423.56	18302.99
423.75	18649.39
423.94	19051.96
424.13	18129.79
424.32	18127.45
424.50	18167.24
424.69	17942.55
424.88	18319.37
425.07	18059.57
425.26	17809.14
425.45	17633.60
425.64	17219.32
425.83	17610.19
426.01	18721.95
426.20	19176.01
426.39	18951.32
426.58	17504.87
426.77	16297.15
426.96	15541.16
427.15	16498.44
427.33	17572.74
427.52	18286.61
427.71	18389.59
427.90	18176.60
428.09	17947.23
428.28	17535.29
428.46	16901.01
428.65	17006.33
428.84	17282.52
429.03	17425.29
429.22	16624.83
429.40	15379.66
429.59	14139.18
429.78	12575.70
429.97	12730.17
430.16	12648.26
430.34	13085.94
430.53	12725.49
430.72	13123.38
430.91	14637.71
431.10	17294.22
431.28	20257.34
431.47	21907.41
431.66	21710.81
431.85	19971.79
432.03	18539.38
432.22	17745.94
432.41	18441.08
432.60	20233.93
432.79	21099.93
432.97	21429.94
433.16	21153.76
433.35	19239.20
433.54	17568.06
433.72	16367.37
433.91	17209.96
434.10	18934.93
434.28	20112.22
434.47	21233.34
434.66	20730.12
434.85	20109.88
435.03	20304.15
435.22	20795.66
435.41	22445.74
435.59	22036.14
435.78	22164.87
435.97	22677.45
436.16	23335.14
436.34	22705.54
436.53	22321.69
436.72	22188.28
436.90	21057.80
437.09	20793.32
437.28	20765.23
437.46	21242.70
437.65	21106.95
437.84	19826.68
438.02	18171.92
438.21	18106.38
438.40	19426.45
438.58	21010.99
438.77	21439.31
438.96	21771.66
439.14	22752.35
439.33	23089.38
439.52	23639.41
439.70	22974.70
439.89	22403.61
440.08	22113.38
440.26	21434.63
440.45	22782.77
440.63	23847.72
440.82	25397.15
441.01	25151.40
441.19	24723.08
441.38	25221.61
441.57	25888.67
441.75	26005.69
441.94	26487.84
442.12	26054.84
442.31	26810.84
442.50	26829.56
442.68	26188.25
442.87	26129.74
443.05	25504.82
443.24	26218.68
443.43	26878.71
443.61	27058.93
443.80	27843.01
443.98	25940.16
444.17	26078.25
444.35	27901.53
444.54	27501.29
444.73	27400.65
444.91	26178.89
445.10	25240.34
445.28	24496.05
445.47	23889.85
445.65	24252.63
445.84	25270.76
446.02	25645.25
446.21	25982.29
446.39	25977.61
446.58	26782.75
446.77	26728.92
446.95	27278.94
447.14	28030.26
447.32	28379.00
447.51	27824.29
447.69	26686.79
447.88	26155.49
448.06	26850.63
448.25	26967.65
448.43	27580.87
448.62	27037.87
448.80	26693.81
448.99	27250.86
449.17	27400.65
449.36	27154.90
449.54	28180.05
449.73	28437.51
449.91	29193.50
450.10	29596.07
450.28	30263.13
450.46	30323.98
450.65	29839.49
450.83	29785.66
451.02	29535.22
451.20	29448.62
451.39	29076.48
451.57	28922.00
451.76	29160.73
451.94	28835.40
452.13	27988.13
452.31	26937.23
452.49	25745.89
452.68	26057.18
452.86	26176.55
453.05	26480.82
453.23	27515.34
453.42	27777.48
453.60	28379.00
453.78	28741.78
453.97	28453.89
454.15	28556.88
454.34	27449.80
454.52	28060.68
454.70	27358.52
454.89	28011.53
455.07	27826.63
455.26	28526.45
455.44	29308.19
455.62	30160.14
455.81	30113.33
455.99	30167.16
456.17	29174.78
456.36	29837.15
456.54	30113.33
456.73	30216.32
456.91	31068.27
457.09	30829.54
457.28	31653.40
457.46	30302.92
457.64	30253.76
457.83	29207.55
458.01	28584.96
458.19	29425.22
458.38	29862.90
458.56	30536.97
458.74	30391.86
458.93	29560.97
459.11	29755.23
459.29	29940.13
459.48	29788.00
459.66	29394.79
459.84	29900.34
460.03	30223.34
460.21	30089.93
460.39	31316.37
460.57	30930.18
460.76	31491.91
460.94	31765.75
461.12	31103.38
461.31	31555.10
461.49	31496.59
461.67	31040.18
461.85	32385.99
462.04	31967.04
462.22	32561.53
462.40	32320.46
462.59	31676.81
462.77	32048.96
462.95	32243.22
463.13	31440.42
463.32	31452.12
463.50	31318.71
463.68	31105.72
463.86	31199.34
464.05	30602.50
464.23	30181.21
464.41	29942.47
464.59	29280.10
464.78	31185.30
464.96	30665.70
465.14	30930.18
465.32	31625.32
465.50	32275.99
465.69	32793.25
465.87	31857.03
466.05	31136.15
466.23	29572.67
466.41	28584.96
466.60	29855.87
466.78	29830.13
466.96	30249.08
467.14	30888.05
467.32	30979.33
467.51	31264.88
467.69	30120.35
467.87	30845.92
468.05	30829.54
468.23	31014.44
468.41	30815.49
468.60	31103.38
468.78	31421.69
468.96	31112.74
469.14	31714.26
469.32	31885.12
469.50	30471.43
469.69	30740.60
469.87	30281.85
470.05	30118.01
470.23	29895.66
470.41	30389.52
470.59	30473.78
470.77	30515.90
470.95	31842.99
471.14	31566.81
471.32	31861.71
471.50	33598.39
471.68	33521.15
471.86	33944.79
472.04	34036.07
472.22	33933.09
472.40	32161.30
472.58	32496.00
472.77	32055.98
472.95	32552.17
473.13	33596.05
473.31	32301.73
473.49	32573.24
473.67	33516.47
473.85	33249.65
474.03	34373.11
474.21	34539.29
474.39	34593.12
474.57	35440.39
474.75	34934.84
474.93	34660.99
475.12	33738.82
475.30	33975.22
475.48	34190.55
475.66	34527.58
475.84	34188.21
476.02	33926.07
476.20	33773.93
476.38	34649.29
476.56	35143.14
476.74	35697.85
476.92	35810.20
477.10	36594.28
477.28	37364.31
477.46	37462.61
477.64	37736.46
477.82	37717.73
478.00	38178.82
478.18	37411.12
478.36	37511.77
478.54	37460.27
478.72	37778.59
478.90	38452.66
479.08	39620.59
479.26	39903.79
479.44	39585.48
479.62	39814.85
479.80	39716.55
479.98	39976.35
480.16	39833.58
480.34	39690.80
480.52	40041.88
480.70	40355.52
480.88	40416.37
481.06	41111.51
481.24	41535.15
481.41	42487.74
481.59	43115.01
481.77	42237.31
481.95	42115.60
482.13	41916.65
482.31	42131.98
482.49	42564.98
482.67	42740.52
482.85	42838.83
483.03	43229.69
483.21	44009.09
483.39	43597.16
483.57	42916.06
483.74	42766.27
483.92	43016.71
484.10	43323.32
484.28	44208.04
484.46	44552.10
484.64	45015.52
484.82	43730.57
485.00	43438.00
485.18	42763.93
485.35	41261.30
485.53	38134.35
485.71	35459.12
485.89	34714.83
486.07	36704.28
486.25	39824.22
486.43	42139.00
486.61	42562.64
486.78	42473.70
486.96	42946.49
487.14	44133.14
487.32	45361.92
487.50	46569.64
487.68	47248.39
487.85	48280.57
488.03	47711.82
488.21	47356.06
488.39	46401.12
488.57	45806.62
488.75	45869.82
488.92	46780.29
489.10	49368.92
489.28	50656.21
489.46	51283.48
489.64	51168.79
489.81	51028.36
489.99	50925.38
490.17	51070.49
490.35	51126.66
490.53	50841.12
490.70	50424.50
490.88	50349.60
491.06	51325.61
491.24	51384.12
491.41	50040.65
491.59	48523.99
491.77	47508.19
491.95	49074.01
492.13	49958.73
492.30	51873.29
492.48	52306.29
492.66	53064.63
492.84	52601.20
493.01	52729.93
493.19	52020.75
493.37	51784.35
493.54	51538.60
493.72	52381.19
493.90	53052.92
494.08	54148.29
494.25	54361.28
494.43	54684.28
494.61	54915.99
494.79	55128.98
494.96	54639.81
495.14	54195.10
495.32	53125.48
495.49	52645.67
495.67	53670.82
495.85	55178.13
496.02	55494.10
496.20	55295.16
496.38	54798.96
496.55	55000.25
496.73	55571.34
496.91	55363.03
497.09	56016.04
497.26	56037.11
497.44	55571.34
497.62	55114.94
497.79	54204.47
497.97	52870.36
498.14	53219.10
498.32	54387.03
498.50	55442.61
498.67	55817.10
498.85	55601.77
499.03	55941.14
499.20	55896.67
499.38	56004.34
499.56	55735.18
499.73	55398.14
499.91	55196.85
500.08	54415.11
500.26	53968.07
500.44	54384.69
500.61	55157.06
500.79	54887.90
500.97	54583.63
501.14	54501.71
501.32	54157.66
501.49	54316.81
501.67	54326.17
501.84	55009.61
502.02	55269.41
502.20	55512.83
502.37	55543.25
502.55	55774.97
502.72	56491.17
502.90	56938.21
503.07	56339.04
503.25	56196.26
503.43	55086.85
503.60	54412.77
503.78	53815.94
503.95	54457.24
504.13	55772.63
504.30	56495.85
504.48	56610.54
504.65	55955.19
504.83	56299.25
505.01	56697.14
505.18	57048.22
505.36	57811.23
505.53	57691.86
505.71	57970.39
505.88	57876.77
506.06	57209.71
506.23	57088.01
506.41	56449.04
506.58	56865.66
506.76	56809.48
506.93	56863.32
507.11	56622.24
507.28	56839.91
507.46	56264.14
507.63	55707.09
507.81	55611.13
507.98	55936.46
508.16	56397.55
508.33	57048.22
508.50	57198.01
508.68	57268.23
508.85	57998.48
509.03	58056.99
509.20	57853.36
509.38	57120.77
509.55	56470.11
509.73	56582.45
509.90	57254.18
510.08	57539.73
510.25	57247.16
510.42	57099.71
510.60	57076.30
510.77	57137.16
510.95	58040.60
511.12	57743.36
511.30	58340.19
511.47	58443.18
511.64	58555.52
511.82	58262.96
511.99	57235.46
512.17	56947.57
512.34	56783.74
512.51	56786.08
512.69	56947.57
512.86	57223.76
513.04	57371.21
513.21	57544.41
513.38	57223.76
513.56	56587.13
513.73	56011.36
513.90	56161.15
514.08	56339.04
514.25	56481.81
514.43	56959.28
514.60	56980.34
514.77	57113.75
514.95	57109.07
515.12	57141.84
515.29	57130.14
515.47	57694.21
515.64	57888.47
515.81	57528.03
515.99	56973.32
516.16	55653.26
516.33	53090.37
516.51	51753.93
516.68	50567.27
516.85	50314.50
517.03	50979.21
517.20	53989.14
517.37	56355.42
517.54	57415.68
517.72	56353.08
517.89	53972.75
518.06	51793.71
518.24	52404.59
518.41	54461.93
518.58	55505.80
518.75	55994.98
518.93	56259.46
519.10	56205.62
519.27	56470.11
519.45	56992.04
519.62	57408.66
519.79	57937.62
519.96	57497.60
520.14	57293.97
520.31	56385.85
520.48	56299.25
520.65	56678.41
520.83	57804.21
521.00	58064.01
521.17	57502.28
521.34	57359.51
521.52	57549.09
521.69	58260.62
521.86	58618.72
522.03	58038.26
522.20	56786.08
522.38	55966.89
522.55	56177.54
522.72	56584.79
522.89	56870.34
523.07	56928.85
523.24	57261.21
523.41	58106.14
523.58	58370.62
523.75	58674.89
523.92	58520.41
524.10	58789.58
524.27	58583.61
524.44	58314.45
524.61	58370.62
524.78	58042.95
524.96	57989.11
525.13	58267.64
525.30	58234.87
525.47	58986.18
525.64	58733.40
525.81	57858.04
525.98	56477.13
526.16	55241.32
526.33	54473.63
526.50	54005.52
526.67	53858.07
526.84	54604.70
527.01	55131.32
527.18	56362.44
527.36	57408.66
527.53	57916.56
527.70	58010.18
527.87	57659.10
528.04	57422.70
528.21	57574.84
528.38	58314.45
528.55	59016.61
528.72	59072.78
528.89	59400.46
529.07	59138.32
529.24	58408.07
529.41	57909.53
529.58	57174.61
529.75	57403.98
529.92	57584.20
530.09	58258.27
530.26	58695.95
530.43	58976.82
530.60	58990.86
530.77	59171.08
530.94	59374.71
531.11	58688.93
531.28	58506.37
531.46	58260.62
531.63	58494.67
531.80	58262.96
531.97	57733.99
532.14	57153.54
532.31	56009.02
532.48	55330.26
532.65	55723.47
532.82	56568.41
532.99	57556.11
533.16	57799.53
533.33	58515.73
533.50	57932.94
533.67	57579.52
533.84	57282.27
534.01	57504.62
534.18	57649.74
534.35	57787.83
534.52	57563.14
534.69	57860.38
534.86	58246.57
535.03	58497.01
535.20	58857.45
535.37	59058.74
535.54	59283.43
535.71	58803.62
535.88	58562.54
536.05	57946.98
536.22	57476.54
536.38	57073.96
536.55	56802.46
536.72	56229.03
536.89	56463.08
537.06	57162.90
537.23	57916.56
537.40	58159.97
537.57	58199.76
537.74	58000.82
537.91	58028.90
538.08	57996.13
538.25	57902.51
538.42	58178.70
538.59	57771.44
538.75	57104.39
538.92	57230.78
539.09	56818.84
539.26	56863.32
539.43	56559.05
539.60	56851.61
539.77	56776.72
539.94	56720.54
540.11	55606.45
540.28	55456.65
540.44	55693.05
540.61	55742.20
540.78	55838.16
540.95	56575.43
541.12	57031.83
541.29	57151.20
541.46	57471.85
541.62	57537.39
541.79	57303.34
541.96	56711.18
542.13	56849.27
542.30	57029.49
542.47	57277.59
542.63	57001.41
542.80	56828.21
542.97	56966.30
543.14	56474.79
543.31	56790.76
543.48	57120.77
543.64	58071.03
543.81	58482.97
543.98	58204.44
544.15	57289.29
544.32	56966.30
544.48	57034.17
544.65	57366.53
544.82	57827.62
544.99	57392.28
545.16	56898.42
545.32	56797.78
545.49	57710.59
545.66	58000.82
545.83	57528.03
546.00	57485.90
546.16	56917.15
546.33	56980.34
546.50	57373.55
546.67	57654.42
546.83	56919.49
547.00	57029.49
547.17	56491.17
547.34	55767.94
547.50	55929.44
547.67	56116.68
547.84	56399.89
548.00	56905.44
548.17	57263.55
548.34	57130.14
548.51	57155.88
548.67	57256.53
548.84	57212.06
549.01	57193.33
549.18	57029.49
549.34	56765.01
549.51	57183.97
549.68	56858.63
549.84	56727.56
550.01	56594.15
550.18	56603.52
550.34	56500.53
550.51	56575.43
550.68	56842.25
550.84	56100.30
551.01	56170.52
551.18	56390.53
551.34	56617.56
551.51	56748.63
551.68	57085.67
551.84	57155.88
552.01	56760.33
552.18	56786.08
552.34	55835.82
552.51	55920.08
552.68	55889.65
552.84	56097.96
553.01	56196.26
553.18	56140.09
553.34	56374.14
553.51	56535.64
553.67	56629.26
553.84	57029.49
554.01	56713.52
554.17	56633.94
554.34	56406.91
554.51	56844.59
554.67	57240.14
554.84	57118.43
555.00	56505.21
555.17	56243.07
555.33	56449.04
555.50	56034.77
555.67	56317.97
555.83	56376.48
556.00	55742.20
556.16	55700.07
556.33	55510.49
556.50	55264.73
556.66	55330.26
556.83	55196.85
556.99	55215.58
557.16	55564.32
557.32	55849.86
557.49	56140.09
557.65	55789.01
557.82	55840.50
557.98	55306.86
558.15	54876.20
558.32	54309.79
558.48	53443.79
558.65	53427.41
558.81	53918.92
558.98	54152.97
559.14	54459.58
559.31	54162.34
559.47	54667.89
559.64	54244.26
559.80	54122.55
559.97	54047.65
560.13	54382.35
560.30	55414.52
560.46	55831.14
560.63	56301.59
560.79	56261.80
560.96	55473.04
561.12	54518.10
561.29	53621.67
561.45	53954.03
561.61	54501.71
561.78	54815.35
561.94	54452.56
562.11	54693.64
562.27	54497.03
562.44	54700.66
562.60	55145.36
562.77	55327.92
562.93	55201.53
563.10	55199.19
563.26	54394.05
563.42	54628.10
563.59	54300.43
563.75	54286.39
563.92	54419.80
564.08	54262.98
564.24	54604.70
564.41	54585.97
564.57	54518.10
564.74	54410.43
564.90	54508.74
565.07	53928.28
565.23	53677.85
565.39	53003.77
565.56	53057.60
565.72	52903.13
565.88	53230.80
566.05	53198.04
566.21	53635.72
566.38	53993.82
566.54	53748.06
566.70	54094.46
566.87	54410.43
567.03	54167.02
567.19	54569.59
567.36	54649.17
567.52	54145.95
567.68	53851.05
567.85	53160.59
568.01	52985.05
568.17	52198.63
568.34	52512.26
568.50	52423.32
568.66	52790.78
568.83	53052.92
568.99	52994.41
569.15	53612.31
569.32	53200.38
569.48	52652.69
569.64	52882.06
569.81	52435.02
569.97	52430.34
570.13	52231.40
570.30	51744.56
570.46	51056.45
570.62	50506.42
570.78	50590.68
570.95	50848.14
571.11	51896.70
571.27	52264.16
571.43	52409.28
571.60	52743.97
571.76	52711.20
571.92	53270.59
572.09	53043.56
572.25	53169.95
572.41	53263.57
572.57	52917.17
572.74	52884.40
572.90	52495.88
573.06	52296.93
573.22	52549.71
573.38	52339.06
573.55	52285.23
573.71	52818.87
573.87	52603.54
574.03	52460.77
574.20	51826.48
574.36	51742.22
574.52	51997.34
574.68	51587.75
574.84	50810.69
575.01	50550.89
575.17	50567.27
575.33	51107.94
575.49	51388.80
575.65	51428.59
575.82	51145.39
575.98	50829.41
576.14	51356.03
576.30	51508.17
576.46	51739.88
576.62	51664.99
576.79	51817.12
576.95	51290.50
577.11	51164.11
577.27	51578.39
577.43	51309.22
577.59	50499.40
577.75	50197.47
577.92	49799.58
578.08	49551.48
578.24	49507.01
578.40	50033.63
578.56	50445.57
578.72	50492.38
578.88	50649.19
579.04	50616.43
579.21	50597.70
579.37	50913.67
579.53	50932.40
579.69	51217.94
579.85	51264.75
580.01	50642.17
580.17	50436.20
580.33	50183.43
580.49	50436.20
580.65	50602.38
580.82	50733.45
580.98	50901.97
581.14	50443.23
581.30	50614.08
581.46	50623.45
581.62	50775.58
581.78	50993.25
581.94	51114.96
582.10	51040.06
582.26	51262.41
582.42	50897.29
582.58	51269.43
582.74	51288.16
582.90	51019.00
583.06	51250.71
583.22	50899.63
583.38	50798.99
583.54	50672.60
583.70	50717.07
583.86	50780.26
584.02	50534.51
584.18	50429.18
584.34	50248.96
584.50	50417.48
584.66	50363.65
584.82	49844.05
584.98	49949.37
585.14	49212.10
585.30	48690.16
