SpectraSuite Data File
++++++++++++++++++++++++++++++++++++
Date: Mon Oct 07 14:53:10 GMT-05:00 2013
User: price-jones
Dark Spectrum Present: No
Reference Spectrum Present: No
Number of Sampled Component Spectra: 1
Spectrometers: USB2+H05261
Integration Time (usec): 100000 (USB2+H05261)
Spectra Averaged: 1 (USB2+H05261)
Boxcar Smoothing: 0 (USB2+H05261)
Correct for Electrical Dark: No (USB2+H05261)
Strobe/Lamp Enabled: No (USB2+H05261)
Correct for Detector Non-linearity: No (USB2+H05261)
Correct for Stray Light: No (USB2+H05261)
Number of Pixels in Processed Spectrum: 2048
>>>>>Begin Processed Spectral Data<<<<<
365.73	0.00
365.92	0.00
366.12	0.00
366.32	0.00
366.52	0.00
366.72	0.00
366.91	0.00
367.11	0.00
367.31	0.00
367.51	0.00
367.70	0.00
367.90	0.00
368.10	0.00
368.30	0.00
368.49	0.00
368.69	0.00
368.89	0.00
369.09	0.00
369.28	0.00
369.48	0.00
369.68	0.00
369.87	0.00
370.07	0.00
370.27	0.00
370.47	671.73
370.66	3524.85
370.86	4086.58
371.06	4318.29
371.25	4264.46
371.45	3896.99
371.65	3445.27
371.84	3412.50
372.04	3550.59
372.24	3880.61
372.44	4002.32
372.63	4042.11
372.83	3669.96
373.03	3314.20
373.22	3122.27
373.42	3232.28
373.62	3796.35
373.81	4067.85
374.01	3908.69
374.21	3471.01
374.40	3323.56
374.60	3522.51
374.79	4042.11
374.99	4741.93
375.19	5015.77
375.38	4929.17
375.58	4716.18
375.78	4582.77
375.97	4596.81
376.17	4861.29
376.37	4800.44
376.56	5008.75
376.76	5219.39
376.95	5570.48
377.15	6052.63
377.35	6249.23
377.54	6434.13
377.74	6633.08
377.93	6764.15
378.13	6448.18
378.33	6157.95
378.52	5598.56
378.72	5434.72
378.91	5334.08
379.11	5277.91
379.31	5006.41
379.50	5018.11
379.70	5528.35
379.89	5872.40
380.09	6230.51
380.28	6586.27
380.48	6328.81
380.68	6387.32
380.87	6347.53
381.07	5628.99
381.26	5334.08
381.46	5055.56
381.65	4947.89
381.85	4727.88
382.04	4287.86
382.24	4175.52
382.43	4042.11
382.63	4030.40
382.83	3904.01
383.02	4035.08
383.22	4063.17
383.41	3995.29
383.61	4355.74
383.80	4737.24
384.00	5561.11
384.19	6267.95
384.39	6342.85
384.58	6345.19
384.78	6303.06
384.97	6097.10
385.17	5914.53
385.36	5596.22
385.56	5439.40
385.75	5706.23
385.95	6200.08
386.14	6738.40
386.34	6581.59
386.53	6239.87
386.72	5961.34
386.92	5884.11
387.11	6256.25
387.31	6396.68
387.50	6565.20
387.70	6293.70
387.89	6251.57
388.09	6218.80
388.28	6232.85
388.48	6518.39
388.67	6759.47
388.86	7728.45
389.06	8224.64
389.25	8304.22
389.45	8475.08
389.64	8482.10
389.84	8250.39
390.03	8025.70
390.22	8273.79
390.42	8800.41
390.61	9041.49
390.81	9778.76
391.00	9877.06
391.19	9813.87
391.39	9603.22
391.58	8947.87
391.78	8332.31
391.97	8168.47
392.16	7674.62
392.36	6967.77
392.55	5547.07
392.75	4477.44
392.94	3597.40
393.13	3543.57
393.33	4301.90
393.52	5434.72
393.71	6757.13
393.91	7520.14
394.10	8201.24
394.29	9151.49
394.49	9635.99
394.68	10289.00
394.88	10445.81
395.07	10796.89
395.26	10726.68
395.46	10436.45
395.65	9661.73
395.84	8587.43
396.04	7227.57
396.23	5961.34
396.42	4727.88
396.62	4713.84
396.81	5598.56
397.00	7206.51
397.19	8973.61
397.39	10619.01
397.58	11789.28
397.77	12549.95
397.97	13048.49
398.16	13486.17
398.35	13460.42
398.55	14356.85
398.74	14684.52
398.93	14824.95
399.12	14583.88
399.32	13975.34
399.51	14560.47
399.70	15531.80
399.90	15274.34
400.09	15225.18
400.28	14738.35
400.47	15276.68
400.67	16067.78
400.86	16437.58
401.05	16219.91
401.24	16624.83
401.44	16683.34
401.63	16606.10
401.82	16936.12
402.01	16596.74
402.21	17053.14
402.40	17006.33
402.59	16489.07
402.78	15892.24
402.97	15262.63
403.17	16114.59
403.36	17092.93
403.55	17462.74
403.74	17703.81
403.93	17011.01
404.13	15985.86
404.32	15501.37
404.51	16243.32
404.70	17355.07
404.89	17085.91
405.09	17149.11
405.28	16472.69
405.47	16582.70
405.66	16449.28
405.85	16102.89
406.05	15875.85
406.24	16009.26
406.43	16688.02
406.62	17198.26
406.81	17092.93
407.00	16688.02
407.20	16229.27
407.39	16233.96
407.58	17432.31
407.77	17682.75
407.96	18539.38
408.15	18576.83
408.34	18958.34
408.54	19943.70
408.73	19386.66
408.92	19508.37
409.11	18843.65
409.30	17869.99
409.49	16580.36
409.68	15683.93
409.87	15356.25
410.07	16294.81
410.26	17572.74
410.45	18625.98
410.64	19358.57
410.83	19719.01
411.02	20009.24
411.21	21003.97
411.40	20423.51
411.59	20816.72
411.78	20372.02
411.98	20294.79
412.17	20636.50
412.36	19929.66
412.55	20631.82
412.74	20027.96
412.93	19391.34
413.12	19983.49
413.31	21565.70
413.50	21488.46
413.69	22302.96
413.88	21025.03
414.07	20414.15
414.26	21163.12
414.45	21359.73
414.64	21668.68
414.83	21624.21
415.02	21092.91
415.22	21263.77
415.41	21989.33
415.60	22541.70
415.79	23779.84
415.98	24093.47
416.17	23969.43
416.36	23157.26
416.55	22911.50
416.74	22258.49
416.93	21364.41
417.12	21575.06
417.31	21809.11
417.50	22148.49
417.69	23133.86
417.88	22927.89
418.07	22370.84
418.26	22279.56
418.45	22574.47
418.64	23573.88
418.83	24489.03
419.02	23953.04
419.21	23590.26
419.39	22422.33
419.58	21553.99
419.77	21879.33
419.96	22618.94
420.15	23857.08
420.34	24910.32
420.53	25202.89
420.72	25708.44
420.91	26019.74
421.10	24877.55
421.29	24882.24
421.48	24315.83
421.67	25350.34
421.86	24390.72
422.05	22707.88
422.24	20620.12
422.43	20582.67
422.61	22874.06
422.80	24182.42
422.99	24128.58
423.18	23737.71
423.37	23171.30
423.56	23351.52
423.75	23309.40
423.94	24369.66
424.13	22579.15
424.32	23042.57
424.50	23037.89
424.69	22984.06
424.88	23159.60
425.07	22628.30
425.26	22663.41
425.45	22719.58
425.64	22071.25
425.83	22237.43
426.01	23679.20
426.20	24177.73
426.39	23845.38
426.58	22146.15
426.77	20540.54
426.96	19768.16
427.15	20680.97
427.33	22457.44
427.52	23288.33
427.71	23356.21
427.90	22757.03
428.09	22628.30
428.28	22394.25
428.46	21525.91
428.65	21380.79
428.84	21638.25
429.03	21923.80
429.22	20739.49
429.40	19634.75
429.59	17919.14
429.78	16049.05
429.97	16016.29
430.16	16486.73
430.34	16444.60
430.53	16023.31
430.72	16673.98
430.91	18366.18
431.10	21898.05
431.28	25708.44
431.47	27358.52
431.66	27730.67
431.85	25125.65
432.03	23131.51
432.22	22225.73
432.41	22944.27
432.60	25919.09
432.79	26874.03
432.97	27566.83
433.16	26314.64
433.35	24205.82
433.54	22120.40
433.72	20514.80
433.91	21233.34
434.10	23915.59
434.28	25516.52
434.47	27122.13
434.66	26190.59
434.85	25757.60
435.03	25678.02
435.22	26324.01
435.41	27988.13
435.59	27814.93
435.78	28210.48
435.97	28980.51
436.16	28940.72
436.34	28648.16
436.53	28086.43
436.72	28268.99
436.90	26529.97
437.09	26576.78
437.28	26291.24
437.46	26937.23
437.65	26546.36
437.84	25170.12
438.02	23091.73
438.21	22984.06
438.40	24350.93
438.58	26295.92
438.77	26841.26
438.96	27318.73
439.14	28404.74
439.33	28957.11
439.52	29408.83
439.70	28982.85
439.89	27985.79
440.08	27246.18
440.26	27295.33
440.45	28231.54
440.63	29893.32
440.82	31882.78
441.01	31302.32
441.19	30764.00
441.38	31725.96
441.57	32683.24
441.75	32786.22
441.94	32947.72
442.12	32966.45
442.31	33441.57
442.50	33495.41
442.68	33036.66
442.87	32655.15
443.05	32018.53
443.24	32870.48
443.43	33607.75
443.61	34007.98
443.80	34604.82
443.98	32547.49
444.17	32664.52
444.35	34623.54
444.54	35161.87
444.73	34546.31
444.91	32896.23
445.10	31604.25
445.28	30501.86
445.47	30272.49
445.65	30061.84
445.84	31136.15
446.02	31866.39
446.21	32474.93
446.39	32978.15
446.58	33663.93
446.77	33251.99
446.95	34183.52
447.14	35126.76
447.32	35625.29
447.51	34712.49
447.69	33144.33
447.88	32870.48
448.06	33776.27
448.25	33764.57
448.43	34415.24
448.62	33401.79
448.80	33558.60
448.99	33919.04
449.17	34347.36
449.36	34352.04
449.54	35445.07
449.73	35800.83
449.91	36697.26
450.10	37663.90
450.28	37584.32
450.46	37528.15
450.65	37771.57
450.83	37352.61
451.02	36371.92
451.20	36629.38
451.39	36589.59
451.57	35887.43
451.76	36392.99
451.94	35697.85
452.13	35662.74
452.31	33858.19
452.49	32163.64
452.68	32701.96
452.86	32865.80
453.05	32959.42
453.23	34445.66
453.42	34562.69
453.60	35452.09
453.78	36037.23
453.97	35431.03
454.15	35772.75
454.34	34756.96
454.52	35262.51
454.70	34366.09
454.89	34850.58
455.07	35182.93
455.26	35534.01
455.44	36966.42
455.62	37734.12
455.81	37528.15
455.99	37614.75
456.17	37062.38
456.36	37163.03
456.54	38239.67
456.73	37820.72
456.91	38440.96
457.09	39143.12
457.28	39552.71
457.46	37848.80
457.64	37584.32
457.83	36388.31
458.01	35985.74
458.19	36547.47
458.38	37074.09
458.56	38347.34
458.74	37811.35
458.93	37890.93
459.11	37219.20
459.29	36769.82
459.48	37177.07
459.66	36917.27
459.84	37612.41
460.03	38057.11
460.21	38050.09
460.39	39035.45
460.57	38649.27
460.76	39189.93
460.94	39505.90
461.12	38670.33
461.31	38850.55
461.49	39175.89
461.67	39091.63
461.85	39920.18
462.04	40128.48
462.22	40418.71
462.40	39997.41
462.59	39889.75
462.77	39835.92
462.95	39618.25
463.13	39438.03
463.32	39082.27
463.50	38572.03
463.68	39096.31
463.86	39058.86
464.05	38389.47
464.23	37490.70
464.41	37535.17
464.59	36891.52
464.78	38440.96
464.96	38319.25
465.14	37862.85
465.32	39100.99
465.50	39903.79
465.69	39974.01
465.87	39264.83
466.05	38223.29
466.23	37006.21
466.41	36055.95
466.60	37289.42
466.78	37401.76
466.96	37919.02
467.14	38485.43
467.32	38752.25
467.51	39171.21
467.69	37455.59
467.87	38085.20
468.05	38621.18
468.23	39185.25
468.41	38499.47
468.60	38719.48
468.78	39321.00
468.96	38885.66
469.14	39625.27
469.32	39278.87
469.50	37656.88
469.69	38078.18
469.87	37312.82
470.05	37401.76
470.23	37734.12
470.41	37778.59
470.59	38298.19
470.77	38682.03
470.95	39152.48
471.14	39555.05
471.32	39599.52
471.50	41553.87
471.68	42005.59
471.86	42078.15
472.04	42174.11
472.22	42040.70
472.40	40439.78
472.58	40325.09
472.77	39840.60
472.95	40343.81
473.13	41507.06
473.31	40479.57
473.49	40474.88
473.67	41624.09
473.85	42052.41
474.03	42672.65
474.21	42845.85
474.39	42799.04
474.57	43438.00
474.75	43367.79
474.93	42813.08
475.12	41886.23
475.30	42330.93
475.48	42607.11
475.66	42965.21
475.84	42476.04
476.02	42087.51
476.20	41469.61
476.38	42354.33
476.56	43643.97
476.74	44194.00
476.92	44411.67
477.10	44821.26
477.28	46223.24
477.46	45951.74
477.64	46597.73
477.82	46642.20
478.00	46735.82
478.18	46052.38
478.36	45993.87
478.54	45914.29
478.72	46440.91
478.90	47260.10
479.08	48327.38
479.26	48919.54
479.44	48645.69
479.62	48325.04
479.80	48105.03
479.98	48722.93
480.16	48978.05
480.34	48718.25
480.52	48772.08
480.70	49104.44
480.88	49502.33
481.06	50052.36
481.24	50045.33
481.41	50962.82
481.59	51473.06
481.77	50934.74
481.95	50724.09
482.13	50471.31
482.31	50506.42
482.49	50927.72
482.67	51215.60
482.85	51412.21
483.03	51995.00
483.21	52133.09
483.39	52123.73
483.57	51096.24
483.74	51391.14
483.92	51545.62
484.10	51657.96
484.28	52479.49
484.46	52767.38
484.64	53167.61
484.82	52133.09
485.00	52079.26
485.18	51234.33
485.35	50033.63
485.53	47063.49
485.71	43349.06
485.89	43311.61
486.07	45352.56
486.25	48156.52
486.43	50382.37
486.61	50995.59
486.78	51086.87
486.96	51154.75
487.14	52523.96
487.32	53097.39
487.50	54028.93
487.68	54869.18
487.85	55206.22
488.03	55227.28
488.21	54635.13
488.39	54302.77
488.57	53829.98
488.75	53347.83
488.92	54511.08
489.10	56542.66
489.28	57446.11
489.46	57942.30
489.64	57572.50
489.81	57822.93
489.99	57441.43
490.17	57733.99
490.35	58024.22
490.53	57432.07
490.70	57165.24
490.88	57308.02
491.06	58108.48
491.24	57846.34
491.41	57088.01
491.59	55578.36
491.77	55227.28
491.95	56048.81
492.13	57024.81
492.30	57918.90
492.48	58763.83
492.66	59096.19
492.84	59112.57
493.01	58983.84
493.19	58635.10
493.37	58117.84
493.54	57867.40
493.72	58665.53
493.90	59285.77
494.08	60041.76
494.25	60261.77
494.43	60554.34
494.61	60718.18
494.79	61029.47
494.96	60554.34
495.14	59880.27
495.32	59306.83
495.49	58801.28
495.67	60053.47
495.85	60994.36
496.02	61233.10
496.20	61034.15
496.38	60643.28
496.55	60521.57
496.73	60966.27
496.91	61092.66
497.09	61574.81
497.26	61872.06
497.44	61333.74
497.62	60828.18
497.79	60179.85
497.97	58904.26
498.14	59299.81
498.32	60324.97
498.50	61027.13
498.67	61628.65
498.85	61371.19
499.03	61661.41
499.20	61813.55
499.38	61893.13
499.56	61743.33
499.73	61293.95
499.91	61268.20
500.08	60383.48
500.26	59917.71
500.44	60411.57
500.61	60940.53
500.79	60729.88
500.97	60271.14
501.14	60341.35
501.32	60172.83
501.49	60088.57
501.67	60331.99
501.84	60732.22
502.02	61137.13
502.20	61385.23
502.37	61450.77
502.55	61591.20
502.72	61928.23
502.90	62188.03
503.07	62115.48
503.25	61745.67
503.43	60980.32
503.60	60584.77
503.78	59765.58
503.95	60329.65
504.13	61694.18
504.30	62223.14
504.48	62012.49
504.65	61759.72
504.83	61855.68
505.01	62384.64
505.18	62520.39
505.36	62997.86
505.53	63133.61
505.71	63482.35
505.88	63449.58
506.06	62925.30
506.23	62646.78
506.41	62253.57
506.58	62644.44
506.76	62468.90
506.93	62527.41
507.11	62246.55
507.28	62536.77
507.46	62031.22
507.63	61471.83
507.81	61209.69
507.98	61560.77
508.16	62038.24
508.33	62709.97
508.50	62953.39
508.68	63182.76
508.85	63508.10
509.03	63545.54
509.20	63339.58
509.38	62745.08
509.55	62211.44
509.73	62281.66
509.90	62695.93
510.08	63023.61
510.25	62941.69
510.42	62728.70
510.60	62487.62
510.77	63014.24
510.95	63370.00
511.12	63505.76
511.30	63795.98
511.47	64086.21
511.64	63889.60
511.82	63475.33
511.99	62805.94
512.17	62546.14
512.34	62232.50
512.51	62496.98
512.69	62522.73
512.86	62728.70
513.04	63000.20
513.21	62958.07
513.38	62614.01
513.56	62335.49
513.73	61523.32
513.90	61930.58
514.08	62068.67
514.25	62286.34
514.43	62494.64
514.60	62478.26
514.77	62628.05
514.95	62763.81
515.12	62571.88
515.29	62709.97
515.47	63234.25
515.64	63620.44
515.81	63398.09
515.99	62454.86
516.16	61207.35
516.33	59206.19
516.51	58096.78
516.68	57476.54
516.85	57190.99
517.03	57689.52
517.20	60060.49
517.37	61907.17
517.54	62920.62
517.72	62316.76
517.89	60027.72
518.06	57975.07
518.24	58700.64
518.41	60451.36
518.58	61460.13
518.75	61773.76
518.93	61638.01
519.10	61661.41
519.27	62143.56
519.45	62492.30
519.62	62995.52
519.79	63182.76
519.96	63147.65
520.14	62817.64
520.31	61942.28
520.48	62138.88
520.65	62468.90
520.83	63353.62
521.00	63559.59
521.17	63096.16
521.34	62939.35
521.52	62983.82
521.69	63568.95
521.86	64020.67
522.03	63470.65
522.20	62583.58
522.38	61652.05
522.55	61776.10
522.72	62276.97
522.89	62241.87
523.07	62438.47
523.24	63030.63
523.41	63678.96
523.58	63973.86
523.75	64273.45
523.92	64184.51
524.10	63962.16
524.27	64055.78
524.44	63819.39
524.61	63728.11
524.78	63742.15
524.96	63582.99
525.13	63606.40
525.30	63875.56
525.47	64207.92
525.64	64186.85
525.81	63468.31
525.98	62082.71
526.16	60914.78
526.33	60378.80
526.50	60104.96
526.67	59964.52
526.84	60463.06
527.01	61183.94
527.18	62120.16
527.36	62787.21
527.53	63370.00
527.70	63896.62
527.87	63194.46
528.04	62721.68
528.21	63250.64
528.38	63870.88
528.55	64570.70
528.72	64537.93
528.89	64753.26
529.07	64350.69
529.24	63798.32
529.41	63278.72
529.58	62822.32
529.75	63112.55
529.92	63449.58
530.09	63564.27
530.26	64285.15
530.43	64341.33
530.60	64484.10
530.77	64608.15
530.94	64858.59
531.11	64245.36
531.28	63959.82
531.46	63821.73
531.63	63903.65
531.80	63636.83
531.97	63484.69
532.14	62717.00
532.31	61804.19
532.48	61055.21
532.65	61403.95
532.82	62344.85
532.99	63142.97
533.16	63320.85
533.33	63756.19
533.50	63587.67
533.67	63128.93
533.84	62798.91
534.01	62937.01
534.18	63159.36
534.35	63154.68
534.52	63288.09
534.69	63442.56
534.86	63681.30
535.03	63976.20
535.20	64465.38
535.37	64521.55
535.54	64589.42
535.71	64264.09
535.88	63992.59
536.05	63508.10
536.22	62962.75
536.38	62784.87
536.55	62452.51
536.72	61982.07
536.89	62031.22
537.06	62705.29
537.23	63657.89
537.40	63765.56
537.57	63700.02
537.74	63428.52
537.91	63362.98
538.08	63391.07
538.25	63435.54
538.42	63730.45
538.59	63444.90
538.75	62791.89
538.92	62574.22
539.09	62468.90
539.26	62403.36
539.43	62375.28
539.60	62464.22
539.77	62578.90
539.94	62382.30
540.11	61757.38
540.28	61359.48
540.44	61537.36
540.61	61523.32
540.78	61778.44
540.95	62237.19
541.12	62471.24
541.29	62606.99
541.46	63075.10
541.62	63180.42
541.79	62773.17
541.96	62176.33
542.13	62382.30
542.30	62709.97
542.47	62717.00
542.63	62536.77
542.80	62323.78
542.97	62529.75
543.14	62447.83
543.31	62461.88
543.48	63014.24
543.64	63674.27
543.81	63966.84
543.98	63660.23
544.15	63037.65
544.32	62553.16
544.48	62557.84
544.65	63131.27
544.82	63405.11
544.99	63075.10
545.16	62761.47
545.32	62583.58
545.49	63297.45
545.66	63496.39
545.83	62960.41
546.00	62934.66
546.16	62543.80
546.33	62721.68
546.50	62656.14
546.67	62993.18
546.83	62770.83
547.00	62752.10
547.17	62227.82
547.34	61551.41
547.50	61588.86
547.67	62101.43
547.84	62035.90
548.00	62543.80
548.17	62777.85
548.34	62569.54
548.51	62609.33
548.67	62946.37
548.84	62899.56
549.01	62742.74
549.18	62679.55
549.34	62651.46
549.51	62604.65
549.68	62344.85
549.84	62237.19
550.01	62150.59
550.18	62110.80
550.34	62202.08
550.51	62377.62
550.68	62258.25
550.84	61965.68
551.01	61893.13
551.18	62096.75
551.34	62085.05
551.51	62284.00
551.68	62717.00
551.84	62843.38
552.01	62604.65
552.18	62239.53
552.34	61640.35
552.51	61422.68
552.68	61237.78
552.84	61872.06
553.01	61965.68
553.18	61953.98
553.34	62071.01
553.51	62143.56
553.67	62520.39
553.84	62585.92
554.01	62335.49
554.17	62241.87
554.34	62211.44
554.51	62295.70
554.67	62681.89
554.84	62525.07
555.00	62080.37
555.17	62047.60
555.33	62017.17
555.50	61832.27
555.67	62239.53
555.83	61883.76
556.00	61523.32
556.16	61563.11
556.33	61305.65
556.50	61322.04
556.66	61200.33
556.83	61022.45
556.99	61139.47
557.16	61226.07
557.32	61535.02
557.49	61689.50
557.65	61635.67
557.82	61509.28
557.98	61389.91
558.15	61020.11
558.32	60296.88
558.48	59547.91
558.65	59749.20
558.81	60158.79
558.98	60420.93
559.14	60650.30
559.31	60715.84
559.47	60725.20
559.64	60224.32
559.80	60168.15
559.97	60163.47
560.13	60477.10
560.30	61415.66
560.46	61764.40
560.63	62073.35
560.79	61975.05
560.96	61542.05
561.12	60671.37
561.29	60095.60
561.45	59945.80
561.61	60516.89
561.78	60952.23
561.94	60472.42
562.11	60439.65
562.27	60526.25
562.44	60734.56
562.60	61310.33
562.77	61279.91
562.93	60940.53
563.10	61212.03
563.26	60523.91
563.42	60797.76
563.59	60652.64
563.75	60411.57
563.92	60608.17
564.08	60299.22
564.24	60617.53
564.41	60722.86
564.57	60552.00
564.74	60484.12
564.90	60397.52
565.07	60214.96
565.23	59906.01
565.39	59346.62
565.56	59203.85
565.72	59065.76
565.88	59606.42
566.05	59468.33
566.21	59693.02
566.38	59931.76
566.54	59688.34
566.70	60109.64
566.87	60451.36
567.03	60441.99
567.19	60577.75
567.36	60308.58
567.52	60329.65
567.68	59938.78
567.85	59568.97
568.01	59098.53
568.17	59007.25
568.34	58925.33
568.50	58918.31
568.66	58904.26
568.83	59290.45
568.99	59231.94
569.15	59487.06
569.32	59405.14
569.48	59365.35
569.64	58962.78
569.81	58836.39
569.97	58925.33
570.13	58852.77
570.30	58192.74
570.46	57993.79
570.62	57584.20
570.78	57513.98
570.95	57846.34
571.11	58202.10
571.27	58192.74
571.43	59018.95
571.60	59131.29
571.76	59112.57
571.92	59454.29
572.09	59461.31
572.25	59192.15
572.41	59458.97
572.57	59152.36
572.74	59133.63
572.90	58988.52
573.06	58805.96
573.22	59009.59
573.38	58908.94
573.55	58869.15
573.71	59189.81
573.87	58784.90
574.03	58841.07
574.20	58937.03
574.36	58440.84
574.52	58422.11
574.68	58237.21
574.84	57923.58
575.01	57509.30
575.17	57511.64
575.33	57851.02
575.49	58073.37
575.65	58178.70
575.82	57764.42
575.98	57799.53
576.14	57958.69
576.30	58162.31
576.46	58508.71
576.62	58145.93
576.79	58330.83
576.95	57862.72
577.11	58059.33
577.27	58092.10
577.43	57911.88
577.59	57457.81
577.75	57471.85
577.92	56647.99
578.08	56701.82
578.24	56612.88
578.40	56959.28
578.56	57202.69
578.72	57169.93
578.88	57556.11
579.04	57757.40
579.21	57572.50
579.37	57474.20
579.53	57808.89
579.69	57623.99
579.85	57984.43
580.01	57572.50
580.17	57188.65
580.33	56811.82
580.49	57293.97
580.65	57563.14
580.82	57733.99
580.98	57717.61
581.14	57277.59
581.30	57574.84
581.46	57333.76
581.62	57932.94
581.78	57738.68
581.94	57841.66
582.10	57661.44
582.26	57741.02
582.42	57853.36
582.58	57801.87
582.74	57822.93
582.90	57858.04
583.06	57687.18
583.22	57701.23
583.38	57769.10
583.54	57413.34
583.70	57235.46
583.86	57563.14
584.02	57593.56
584.18	57521.01
584.34	57368.87
584.50	57343.12
584.66	57230.78
584.82	56783.74
584.98	57062.26
585.14	56622.24
