SpectraSuite Data File
++++++++++++++++++++++++++++++++++++
Date: Mon Oct 07 14:53:15 GMT-05:00 2013
User: price-jones
Dark Spectrum Present: No
Reference Spectrum Present: No
Number of Sampled Component Spectra: 1
Spectrometers: USB2+H05261
Integration Time (usec): 100000 (USB2+H05261)
Spectra Averaged: 1 (USB2+H05261)
Boxcar Smoothing: 0 (USB2+H05261)
Correct for Electrical Dark: No (USB2+H05261)
Strobe/Lamp Enabled: No (USB2+H05261)
Correct for Detector Non-linearity: No (USB2+H05261)
Correct for Stray Light: No (USB2+H05261)
Number of Pixels in Processed Spectrum: 2048
>>>>>Begin Processed Spectral Data<<<<<
365.73	0.00
365.92	0.00
366.12	0.00
366.32	0.00
366.52	0.00
366.72	0.00
366.91	0.00
367.11	0.00
367.31	0.00
367.51	0.00
367.70	0.00
367.90	0.00
368.10	0.00
368.30	0.00
368.49	0.00
368.69	0.00
368.89	0.00
369.09	0.00
369.28	0.00
369.48	0.00
369.68	0.00
369.87	0.00
370.07	0.00
370.27	0.00
370.47	720.88
370.66	3550.59
370.86	4088.92
371.06	4407.23
371.25	4517.23
371.45	3971.89
371.65	3716.77
371.84	3391.44
372.04	3602.08
372.24	3971.89
372.44	4138.07
372.63	4072.53
372.83	3840.82
373.03	3499.10
373.22	3052.06
373.42	3335.26
373.62	3719.11
373.81	4018.70
374.01	4175.52
374.21	3609.11
374.40	3356.33
374.60	3637.19
374.79	3904.01
374.99	4755.97
375.19	5151.52
375.38	5048.54
375.58	4723.20
375.78	4641.28
375.97	4535.96
376.17	4755.97
376.37	4795.76
376.56	5060.24
376.76	5203.01
376.95	5668.78
377.15	6087.73
377.35	6169.65
377.54	6363.92
377.74	6647.12
377.93	6663.51
378.13	6604.99
378.33	5994.11
378.52	5572.82
378.72	5490.90
378.91	5446.43
379.11	5207.69
379.31	5071.94
379.50	5041.51
379.70	5327.06
379.89	6113.48
380.09	6260.93
380.28	6679.89
380.48	6520.73
380.68	6328.81
380.87	6080.71
381.07	5788.14
381.26	5296.63
381.46	5093.01
381.65	4868.31
381.85	4746.61
382.04	4519.57
382.24	4182.54
382.43	4100.62
382.63	3911.04
382.83	3852.52
383.02	3754.22
383.22	3794.01
383.41	3920.40
383.61	4163.81
383.80	4767.67
384.00	5481.53
384.19	6054.97
384.39	6445.84
384.58	6429.45
384.78	6270.30
384.97	6171.99
385.17	5905.17
385.36	5432.38
385.56	5362.17
385.75	5755.38
385.95	6113.48
386.14	6630.74
386.34	6434.13
386.53	6300.72
386.72	5951.98
386.92	5991.77
387.11	6450.52
387.31	6590.95
387.50	6490.31
387.70	6190.72
387.89	6289.02
388.09	6296.04
388.28	6335.83
388.48	6509.03
388.67	7019.27
388.86	7424.18
389.06	8161.45
389.25	8599.13
389.45	8592.11
389.64	8531.25
389.84	8585.08
390.03	8301.88
390.22	8482.10
390.42	8767.65
390.61	9322.35
390.81	9879.40
391.00	9982.38
391.19	9729.61
391.39	9446.40
391.58	8922.12
391.78	8472.74
391.97	8133.36
392.16	7716.75
392.36	6832.02
392.55	5572.82
392.75	4344.03
392.94	3517.83
393.13	3693.37
393.33	4327.65
393.52	5678.14
393.71	6616.69
393.91	7478.01
394.10	8135.70
394.29	8997.02
394.49	9598.54
394.68	10328.78
394.88	10537.09
395.07	10778.17
395.26	10787.53
395.46	10487.94
395.65	9706.20
395.84	8435.29
396.04	7192.47
396.23	5694.52
396.42	4968.96
396.62	4807.46
396.81	5619.63
397.00	7166.72
397.19	8795.73
397.39	10558.16
397.58	11683.95
397.77	12561.66
397.97	13135.09
398.16	13249.77
398.35	13535.32
398.55	13809.16
398.74	14520.68
398.93	14995.81
399.12	14623.67
399.32	14115.77
399.51	14487.92
399.70	15309.44
399.90	15161.99
400.09	15171.35
400.28	15276.68
400.47	15234.55
400.67	15915.64
400.86	16334.60
401.05	16491.41
401.24	16299.49
401.44	16704.40
401.63	16716.11
401.82	17121.02
402.01	16919.73
402.21	17102.29
402.40	17130.38
402.59	16556.95
402.78	15948.41
402.97	15487.32
403.17	16020.97
403.36	17195.92
403.55	17813.82
403.74	18003.40
403.93	16847.18
404.13	15609.03
404.32	15571.58
404.51	16339.28
404.70	17348.05
404.89	17252.09
405.09	17268.47
405.28	16886.97
405.47	16833.13
405.66	16762.92
405.85	16517.16
406.05	15473.28
406.24	16039.69
406.43	16769.94
406.62	17624.23
406.81	17270.81
407.00	17006.33
407.20	16599.08
407.39	16409.50
407.58	17261.45
407.77	18019.78
407.96	18513.64
408.15	18754.71
408.34	19286.01
408.54	19971.79
408.73	20018.60
408.92	19587.94
409.11	19136.22
409.30	17942.55
409.49	17067.19
409.68	15824.36
409.87	15606.69
410.07	16531.20
410.26	17664.02
410.45	18881.10
410.64	18979.40
410.83	19887.53
411.02	20524.16
411.21	21341.00
411.40	20774.60
411.59	20809.70
411.78	20896.30
411.98	20276.06
412.17	21132.70
412.36	20634.16
412.55	20322.87
412.74	20528.84
412.93	19599.65
413.12	19887.53
413.31	21879.33
413.50	22146.15
413.69	22539.36
413.88	21441.65
414.07	20685.65
414.26	21448.67
414.45	22012.74
414.64	22101.68
414.83	21919.12
415.02	21839.54
415.22	21591.44
415.41	22387.22
415.60	22981.72
415.79	24084.11
415.98	24219.86
416.17	24652.86
416.36	23718.99
416.55	23073.00
416.74	22654.05
416.93	21930.82
417.12	21874.65
417.31	22382.54
417.50	22843.63
417.69	23456.85
417.88	23475.57
418.07	22881.08
418.26	22539.36
418.45	22792.14
418.64	23810.27
418.83	24676.27
419.02	24177.73
419.21	23655.79
419.39	22909.16
419.58	22120.40
419.77	22225.73
419.96	22897.46
420.15	24112.20
420.34	25055.43
420.53	25603.12
420.72	26302.94
420.91	26204.64
421.10	25584.40
421.29	25249.70
421.48	24748.82
421.67	25825.47
421.86	25202.89
422.05	23269.61
422.24	21256.75
422.43	20606.08
422.61	23098.75
422.80	24966.49
422.99	25151.40
423.18	24065.39
423.37	23679.20
423.56	23599.62
423.75	24245.61
423.94	24568.60
424.13	23236.84
424.32	23508.34
424.50	23337.48
424.69	23159.60
424.88	23630.05
425.07	23882.83
425.26	23290.67
425.45	23154.92
425.64	22586.17
425.83	22354.46
426.01	24238.59
426.20	24577.97
426.39	24238.59
426.58	22319.35
426.77	20889.28
426.96	20091.16
427.15	21123.33
427.33	22878.74
427.52	23192.37
427.71	23765.80
427.90	23274.29
428.09	23063.64
428.28	22394.25
428.46	22106.36
428.65	21420.58
428.84	22148.49
429.03	22464.46
429.22	21427.60
429.40	20154.35
429.59	18141.49
429.78	16084.16
429.97	16128.63
430.16	16578.01
430.34	16826.11
430.53	16601.42
430.72	17018.04
430.91	18888.12
431.10	22302.96
431.28	25937.82
431.47	27805.56
431.66	27796.20
431.85	25879.30
432.03	23716.65
432.22	22672.77
432.41	23695.58
432.60	26230.38
432.79	27278.94
432.97	27730.67
433.16	27395.97
433.35	24694.99
433.54	22356.80
433.72	21025.03
433.91	21668.68
434.10	24308.80
434.28	26192.94
434.47	27475.55
434.66	26967.65
434.85	26101.65
435.03	26127.40
435.22	27075.32
435.41	28554.54
435.59	28278.35
435.78	28863.49
435.97	29940.13
436.16	30022.05
436.34	29600.76
436.53	28474.96
436.72	28793.27
436.90	27433.42
437.09	27281.28
437.28	26988.72
437.46	27695.56
437.65	27639.39
437.84	25703.76
438.02	23709.63
438.21	23702.61
438.40	24805.00
438.58	26902.12
438.77	27892.16
438.96	27946.00
439.14	29024.98
439.33	29563.31
439.52	30242.06
439.70	29696.72
439.89	28868.17
440.08	28226.86
440.26	27859.40
440.45	28781.57
440.63	30787.41
440.82	32687.92
441.01	32074.70
441.19	31571.49
441.38	32311.10
441.57	33684.99
441.75	34068.84
441.94	34227.99
442.12	33504.77
442.31	34440.98
442.50	34244.38
442.68	34054.79
442.87	33834.78
443.05	32921.98
443.24	33745.84
443.43	34178.84
443.61	35028.46
443.80	35278.89
443.98	33156.03
444.17	33326.89
444.35	35199.32
444.54	35971.69
444.73	35665.08
444.91	34153.10
445.10	32666.86
445.28	31515.31
445.47	30845.92
445.65	31131.47
445.84	32013.85
446.02	33015.60
446.21	33495.41
446.39	33736.48
446.58	34316.93
446.77	34614.18
446.95	34801.43
447.14	35931.90
447.32	36456.18
447.51	35618.27
447.69	34146.08
447.88	34176.50
448.06	34558.01
448.25	35723.60
448.43	35454.44
448.62	34686.74
448.80	34651.63
448.99	34899.73
449.17	35002.71
449.36	35290.60
449.54	36444.48
449.73	36762.79
449.91	37652.20
450.10	38361.38
450.28	38848.21
450.46	38859.91
450.65	39009.71
450.83	38550.96
451.02	37895.61
451.20	37361.97
451.39	37537.51
451.57	37092.81
451.76	37156.00
451.94	37010.89
452.13	36498.31
452.31	34871.64
452.49	33340.93
452.68	33603.07
452.86	33621.80
453.05	33986.92
453.23	35126.76
453.42	36172.98
453.60	36463.21
453.78	36765.14
453.97	37179.41
454.15	36486.61
454.34	36126.17
454.52	36275.96
454.70	35749.34
454.89	35732.96
455.07	36194.04
455.26	37139.62
455.44	37621.77
455.62	38766.29
455.81	38782.68
455.99	38679.69
456.17	37872.21
456.36	38141.37
456.54	39089.29
456.73	39056.52
456.91	39735.27
457.09	39861.66
457.28	41099.81
457.46	39297.59
457.64	38913.75
457.83	37507.08
458.01	36732.37
458.19	38096.90
458.38	38281.80
458.56	39304.62
458.74	39316.32
458.93	38637.56
459.11	38560.33
459.29	38352.02
459.48	38279.46
459.66	38183.50
459.84	38857.57
460.03	39463.77
460.21	38726.50
460.39	40285.30
460.57	40161.25
460.76	40493.61
460.94	40444.46
461.12	40175.30
461.31	40051.25
461.49	40299.34
461.67	40690.21
461.85	41301.09
462.04	40950.01
462.22	41560.89
462.40	41422.80
462.59	41130.23
462.77	40893.84
462.95	41130.23
463.13	40294.66
463.32	40385.94
463.50	40179.98
463.68	40086.36
463.86	40219.77
464.05	39735.27
464.23	38951.20
464.41	38513.52
464.59	37773.91
464.78	39922.52
464.96	40308.71
465.14	39545.69
465.32	40697.24
465.50	41275.35
465.69	41434.50
465.87	40479.57
466.05	39936.56
466.23	38288.82
466.41	37205.16
466.60	38520.54
466.78	38483.09
466.96	39285.89
467.14	40189.34
467.32	39985.71
467.51	40369.56
467.69	38909.07
467.87	39524.63
468.05	39948.26
468.23	39704.85
468.41	40044.23
468.60	40369.56
468.78	40437.44
468.96	40048.91
469.14	40971.08
469.32	40816.60
469.50	39306.96
469.69	39679.10
469.87	38330.95
470.05	38899.70
470.23	38705.44
470.41	39257.81
470.59	39428.66
470.77	40098.06
470.95	40409.35
471.14	40980.44
471.32	41230.88
471.50	42831.80
471.68	43290.55
471.86	43316.29
472.04	43868.66
472.22	44020.80
472.40	41961.12
472.58	41673.24
472.77	40832.99
472.95	42092.19
473.13	42740.52
473.31	41979.85
473.49	42223.26
473.67	43009.68
473.85	43367.79
474.03	43903.77
474.21	44414.01
474.39	44439.75
474.57	44554.44
474.75	44662.10
474.93	44493.58
475.12	43154.80
475.30	43959.94
475.48	44194.00
475.66	44362.51
475.84	44091.01
476.02	43824.19
476.20	42714.78
476.38	44081.65
476.56	44989.78
476.74	45354.90
476.92	45944.72
477.10	46548.57
477.28	47753.95
477.46	47739.91
477.64	47995.03
477.82	48374.19
478.00	47915.45
478.18	47634.58
478.36	47536.28
478.54	47262.44
478.72	47910.77
478.90	48865.70
479.08	49614.68
479.26	50365.99
479.44	49979.80
479.62	49923.63
479.80	49888.52
479.98	50089.80
480.16	50490.04
480.34	49649.78
480.52	50445.57
480.70	50571.96
480.88	50422.16
481.06	51253.05
481.24	51421.57
481.41	52212.67
481.59	52828.23
481.77	52137.77
481.95	51899.04
482.13	51908.40
482.31	51915.42
482.49	52472.47
482.67	52561.41
482.85	52507.58
483.03	52797.80
483.21	53165.27
483.39	53261.23
483.57	52753.33
483.74	52420.98
483.92	52823.55
484.10	52748.65
484.28	53633.38
484.46	53820.62
484.64	54260.64
484.82	53675.51
485.00	53205.06
485.18	52526.30
485.35	51220.28
485.53	48240.78
485.71	45071.70
485.89	44397.62
486.07	46869.23
486.25	49677.87
486.43	51473.06
486.61	52545.03
486.78	52121.39
486.96	52388.21
487.14	53628.69
487.32	54712.36
487.50	55234.30
487.68	55884.97
487.85	56170.52
488.03	56280.52
488.21	55821.78
488.39	55402.82
488.57	54901.95
488.75	54710.02
488.92	55772.63
489.10	57380.57
489.28	58305.09
489.46	58941.71
489.64	58801.28
489.81	58827.02
489.99	58681.91
490.17	58693.61
490.35	58890.22
490.53	58262.96
490.70	58227.85
490.88	58269.98
491.06	58740.42
491.24	58979.16
491.41	58059.33
491.59	56594.15
491.77	56273.50
491.95	57066.94
492.13	58138.91
492.30	59004.91
492.48	59838.14
492.66	60200.92
492.84	60214.96
493.01	59868.56
493.19	59512.80
493.37	59103.21
493.54	58993.20
493.72	59620.47
493.90	60516.89
494.08	61181.60
494.25	61375.87
494.43	61687.16
494.61	61848.66
494.79	61909.51
494.96	61567.79
495.14	61151.18
495.32	60219.64
495.49	59859.20
495.67	60849.25
495.85	61869.72
496.02	62298.04
496.20	62103.77
496.38	61649.71
496.55	61591.20
496.73	61949.30
496.91	62040.58
497.09	62670.18
497.26	62829.34
497.44	62234.84
497.62	61806.53
497.79	61085.64
497.97	60144.75
498.14	60229.01
498.32	61188.63
498.50	62176.33
498.67	62567.20
498.85	62347.19
499.03	62527.41
499.20	62817.64
499.38	62887.85
499.56	62433.79
499.73	62197.40
499.91	62005.47
500.08	61647.37
500.26	60722.86
500.44	61221.39
500.61	61886.10
500.79	61666.09
500.97	61432.04
501.14	61216.71
501.32	61223.73
501.49	61106.71
501.67	61347.78
501.84	61993.77
502.02	62103.77
502.20	62181.01
502.37	62422.09
502.55	62461.88
502.72	63149.99
502.90	63374.69
503.07	63149.99
503.25	62635.08
503.43	62035.90
503.60	61572.47
503.78	60949.89
503.95	61371.19
504.13	62557.84
504.30	63412.13
504.48	63068.08
504.65	62859.77
504.83	62990.84
505.01	63472.99
505.18	63573.63
505.36	64193.87
505.53	64088.55
505.71	64364.73
505.88	64427.93
506.06	63854.50
506.23	63561.93
506.41	63351.28
506.58	63575.97
506.76	63440.22
506.93	63559.59
507.11	63166.38
507.28	63355.96
507.46	62944.03
507.63	62410.38
507.81	62171.65
507.98	62581.24
508.16	63248.30
508.33	63501.07
508.50	63980.88
508.68	64142.38
508.85	64774.33
509.03	64722.83
509.20	64397.50
509.38	63749.17
509.55	63149.99
509.73	63320.85
509.90	63711.72
510.08	64051.10
510.25	64023.01
510.42	63838.11
510.60	63653.21
510.77	63838.11
510.95	64418.56
511.12	64448.99
511.30	64996.68
511.47	65076.26
511.64	65094.98
511.82	64521.55
511.99	63964.50
512.17	63449.58
512.34	63274.04
512.51	63454.26
512.69	63533.84
512.86	63620.44
513.04	64088.55
513.21	64102.59
513.38	63786.62
513.56	63302.13
513.73	62754.44
513.90	63044.67
514.08	62934.66
514.25	63381.71
514.43	63547.89
514.60	63594.70
514.77	63700.02
514.95	63765.56
515.12	63751.51
515.29	63938.75
515.47	64409.20
515.64	64760.28
515.81	64252.39
515.99	63550.23
516.16	62424.43
516.33	60236.03
516.51	59358.33
516.68	58660.85
516.85	58272.32
517.03	58665.53
517.20	61324.38
517.37	63182.76
517.54	63889.60
517.72	63262.34
517.89	61268.20
518.06	59363.01
518.24	59625.15
518.41	61492.89
518.58	62485.28
518.75	62836.36
518.93	62857.43
519.10	62946.37
519.27	63187.44
519.45	63386.39
519.62	64254.73
519.79	64313.24
519.96	64123.66
520.14	63889.60
520.31	63009.56
520.48	63051.69
520.65	63339.58
520.83	64219.62
521.00	64477.08
521.17	64271.11
521.34	63688.32
521.52	64336.65
521.69	64631.55
521.86	64954.55
522.03	64741.56
522.20	63655.55
522.38	62604.65
522.55	62864.45
522.72	63339.58
522.89	63503.42
523.07	63730.45
523.24	64086.21
523.41	64844.54
523.58	64933.48
523.75	65303.29
523.92	65183.92
524.10	65141.79
524.27	65235.41
524.44	64912.42
524.61	64881.99
524.78	64685.39
524.96	64453.67
525.13	64566.02
525.30	64879.65
525.47	65237.75
525.64	65127.75
525.81	64465.38
525.98	63283.40
526.16	62078.03
526.33	61506.94
526.50	61102.03
526.67	60769.67
526.84	61581.84
527.01	62323.78
527.18	62960.41
527.36	63887.26
527.53	64563.68
527.70	64779.01
527.87	64348.35
528.04	63913.01
528.21	64285.15
528.38	64907.74
528.55	65368.82
528.72	65415.63
528.89	65535.00
529.07	65535.00
529.24	65022.42
529.41	64357.71
529.58	63905.99
529.75	63957.48
529.92	64322.60
530.09	64837.52
530.26	65226.05
530.43	65396.91
530.60	65523.30
530.77	65535.00
530.94	65535.00
531.11	65270.52
531.28	65024.76
531.46	64692.41
531.63	64954.55
531.80	65041.15
531.97	64629.21
532.14	63810.03
532.31	62892.54
532.48	62438.47
532.65	62431.45
532.82	63128.93
532.99	64224.30
533.16	64495.80
533.33	65064.55
533.50	64837.52
533.67	64130.68
533.84	63774.92
534.01	64156.42
534.18	64399.84
534.35	64371.75
534.52	64306.22
534.69	64591.76
534.86	64755.60
535.03	64975.61
535.20	65350.10
535.37	65535.00
535.54	65535.00
535.71	65413.29
535.88	65307.97
536.05	64727.52
536.22	64140.04
536.38	63891.94
536.55	63613.42
536.72	63245.96
536.89	63084.46
537.06	64060.46
537.23	64563.68
537.40	64839.86
537.57	64863.27
537.74	64530.91
537.91	64615.17
538.08	64596.45
538.25	64381.12
538.42	64825.82
538.59	64448.99
538.75	63966.84
538.92	63693.00
539.09	63735.13
539.26	63519.80
539.43	63316.17
539.60	63592.36
539.77	63685.98
539.94	63306.81
540.11	62798.91
540.28	62391.66
540.44	62487.62
540.61	62599.97
540.78	62745.08
540.95	63339.58
541.12	63597.04
541.29	63702.36
541.46	63964.50
541.62	64147.06
541.79	64013.65
541.96	63501.07
542.13	63465.97
542.30	63945.78
542.47	63800.66
542.63	63756.19
542.80	63494.05
542.97	63690.66
543.14	63407.45
543.31	63515.12
543.48	64018.33
543.64	64610.49
543.81	65036.47
543.98	64720.49
544.15	64203.24
544.32	63714.06
544.48	63781.94
544.65	64140.04
544.82	64498.14
544.99	63957.48
545.16	63898.97
545.32	63547.89
545.49	64465.38
545.66	64708.79
545.83	64186.85
546.00	64006.63
546.16	63805.34
546.33	63814.71
546.50	63814.71
546.67	64231.32
546.83	63742.15
547.00	63842.79
547.17	63362.98
547.34	62848.06
547.50	62777.85
547.67	63168.72
547.84	63201.49
548.00	63388.73
548.17	63882.58
548.34	63763.21
548.51	63760.87
548.67	63973.86
548.84	63990.25
549.01	63859.18
549.18	63765.56
549.34	63744.49
549.51	63765.56
549.68	63756.19
549.84	63276.38
550.01	63372.34
550.18	63295.11
550.34	63510.44
550.51	63489.37
550.68	63622.78
550.84	63051.69
551.01	63182.76
551.18	63243.62
551.34	63187.44
551.51	63613.42
551.68	63905.99
551.84	63880.24
552.01	63702.36
552.18	63678.96
552.34	62925.30
552.51	62564.86
552.68	62529.75
552.84	62969.77
553.01	63325.53
553.18	63236.59
553.34	63157.02
553.51	63435.54
553.67	63503.42
553.84	63777.26
554.01	63494.05
554.17	63524.48
554.34	63449.58
554.51	63723.43
554.67	63999.61
554.84	63697.68
555.00	63470.65
555.17	63178.08
555.33	63250.64
555.50	63252.98
555.67	63224.89
555.83	62946.37
556.00	62796.57
556.16	62831.68
556.33	62525.07
556.50	62365.91
556.66	62403.36
556.83	62279.31
556.99	62232.50
557.16	62482.94
557.32	62695.93
557.49	62920.62
557.65	62742.74
557.82	62590.61
557.98	62501.67
558.15	62206.76
558.32	61490.55
558.48	60963.93
558.65	61137.13
558.81	61352.46
558.98	61537.36
559.14	61839.29
559.31	61846.32
559.47	61815.89
559.64	61497.58
559.80	61261.18
559.97	61366.51
560.13	61626.31
560.30	62635.08
560.46	62939.35
560.63	63220.21
560.79	63058.71
560.96	62836.36
561.12	61738.65
561.29	61066.92
561.45	60985.00
561.61	61647.37
561.78	62031.22
561.94	61731.63
562.11	61663.75
562.27	61755.03
562.44	62075.69
562.60	62356.55
562.77	62417.41
562.93	62253.57
563.10	62181.01
563.26	61762.06
563.42	61666.09
563.59	61766.74
563.75	61675.46
563.92	61790.14
564.08	61572.47
564.24	61883.76
564.41	61984.41
564.57	61865.04
564.74	61572.47
564.90	61602.90
565.07	61343.10
565.23	61193.31
565.39	60575.40
565.56	60465.40
565.72	60472.42
565.88	60505.19
566.05	60811.80
566.21	60992.02
566.38	60966.27
566.54	61226.07
566.70	61378.21
566.87	61616.94
567.03	61722.27
567.19	61673.12
567.36	61602.90
567.52	61371.19
567.68	61127.77
567.85	60556.68
568.01	60324.97
568.17	60219.64
568.34	60111.98
568.50	59744.51
568.66	60261.77
568.83	60388.16
568.99	60505.19
569.15	60666.69
569.32	60741.58
569.48	60463.06
569.64	60399.86
569.81	59985.59
569.97	59964.52
570.13	60076.87
570.30	59566.63
570.46	59241.30
570.62	58820.00
570.78	58677.23
570.95	58918.31
571.11	59458.97
571.27	59686.00
571.43	59814.73
571.60	60079.21
571.76	60371.78
571.92	60554.34
572.09	60734.56
572.25	60624.56
572.41	60479.44
572.57	60556.68
572.74	60467.74
572.90	59955.16
573.06	60182.19
573.22	60217.30
573.38	60023.04
573.55	60221.98
573.71	60427.95
573.87	60434.97
574.03	60144.75
574.20	59903.67
574.36	59709.41
574.52	59552.59
574.68	59587.70
574.84	58990.86
575.01	58911.28
575.17	59112.57
575.33	59119.59
575.49	59353.65
575.65	59454.29
575.82	59288.11
575.98	58976.82
576.14	59152.36
576.30	59423.86
576.46	59629.83
576.62	59348.96
576.79	59587.70
576.95	59264.70
577.11	59206.19
577.27	59032.99
577.43	59477.69
577.59	59079.80
577.75	58597.65
577.92	58071.03
578.08	58239.55
578.24	58003.16
578.40	58099.12
578.56	58356.58
578.72	58616.38
578.88	58763.83
579.04	58906.60
579.21	58803.62
579.37	58913.62
579.53	59213.21
579.69	58965.12
579.85	59243.64
580.01	58937.03
580.17	58691.27
580.33	58623.40
580.49	58368.28
580.65	58862.13
580.82	58962.78
580.98	58805.96
581.14	58869.15
581.30	58939.37
581.46	58670.21
581.62	58983.84
581.78	59143.00
581.94	59313.86
582.10	59412.16
582.26	59210.87
582.42	58953.41
582.58	59133.63
582.74	58976.82
582.90	59166.40
583.06	59138.32
583.22	58887.88
583.38	58810.64
583.54	58602.33
583.70	58899.58
583.86	58873.84
584.02	58630.42
584.18	58766.17
584.34	58808.30
584.50	58391.68
584.66	58557.86
584.82	58272.32
584.98	58120.18
585.14	58141.25
