SpectraSuite Data File
++++++++++++++++++++++++++++++++++++
Date: Mon Oct 07 14:55:01 GMT-05:00 2013
User: price-jones
Dark Spectrum Present: No
Reference Spectrum Present: No
Number of Sampled Component Spectra: 1
Spectrometers: USB2+H05261
Integration Time (usec): 10000 (USB2+H05261)
Spectra Averaged: 1 (USB2+H05261)
Boxcar Smoothing: 0 (USB2+H05261)
Correct for Electrical Dark: No (USB2+H05261)
Strobe/Lamp Enabled: No (USB2+H05261)
Correct for Detector Non-linearity: No (USB2+H05261)
Correct for Stray Light: No (USB2+H05261)
Number of Pixels in Processed Spectrum: 2048
>>>>>Begin Processed Spectral Data<<<<<
365.73	0.00
365.92	0.00
366.12	0.00
366.32	0.00
366.52	0.00
366.72	0.00
366.91	0.00
367.11	0.00
367.31	0.00
367.51	0.00
367.70	0.00
367.90	0.00
368.10	0.00
368.30	0.00
368.49	0.00
368.69	0.00
368.89	0.00
369.09	0.00
369.28	0.00
369.48	0.00
369.68	0.00
369.87	0.00
370.07	0.00
370.27	0.00
370.47	397.89
370.66	2328.83
370.86	2665.87
371.06	2888.22
371.25	2843.75
371.45	2455.22
371.65	2174.36
371.84	2249.25
372.04	2361.60
372.24	2644.81
372.44	2574.59
372.63	2602.68
372.83	2275.00
373.03	1996.48
373.22	1923.92
373.42	2342.88
373.62	2480.97
373.81	2574.59
374.01	2434.16
374.21	2263.30
374.40	2155.63
374.60	2356.92
374.79	2712.68
374.99	3084.83
375.19	3279.09
375.38	3169.09
375.58	3117.59
375.78	2991.20
375.97	3101.21
376.17	3211.22
376.37	3089.51
376.56	3361.01
376.76	3641.87
376.95	3768.26
377.15	3885.29
377.35	4166.15
377.54	4257.43
377.74	4503.19
377.93	4390.84
378.13	4187.22
378.33	3899.33
378.52	3662.94
378.72	3583.36
378.91	3478.04
379.11	3349.31
379.31	3262.71
379.50	3471.01
379.70	3719.11
379.89	4063.17
380.09	4292.54
380.28	4409.57
380.48	4292.54
380.68	4245.73
380.87	4086.58
381.07	3627.83
381.26	3393.78
381.46	3274.41
381.65	3115.25
381.85	3045.04
382.04	2871.84
382.24	2628.42
382.43	2619.06
382.63	2583.95
382.83	2553.52
383.02	2509.05
383.22	2567.57
383.41	2712.68
383.61	2829.71
383.80	3267.39
384.00	3740.18
384.19	4322.97
384.39	4245.73
384.58	4198.92
384.78	4088.92
384.97	4131.05
385.17	3815.07
385.36	3606.77
385.56	3480.38
385.75	3901.67
385.95	4128.70
386.14	4486.81
386.34	4376.80
386.53	4217.65
386.72	3880.61
386.92	4121.68
387.11	4402.55
387.31	4292.54
387.50	4315.95
387.70	4119.34
387.89	4056.15
388.09	4264.46
388.28	4344.03
388.48	4606.17
388.67	4856.61
388.86	5186.63
389.06	5502.60
389.25	5867.72
389.45	5806.87
389.64	5797.51
389.84	5720.27
390.03	5612.60
390.22	5708.57
390.42	5877.09
390.61	6438.81
390.81	6595.63
391.00	6855.43
391.19	6722.02
391.39	6291.36
391.58	5947.30
391.78	5666.44
391.97	5612.60
392.16	5153.86
392.36	4411.91
392.55	3625.49
392.75	2881.20
392.94	2495.01
393.13	2530.12
393.33	3026.31
393.52	3812.73
393.71	4514.89
393.91	5210.03
394.10	5710.91
394.29	6443.49
394.49	6771.17
394.68	7204.17
394.88	7213.53
395.07	7384.39
395.26	7375.03
395.46	7005.22
395.65	6434.13
395.84	5593.88
396.04	4725.54
396.23	3723.79
396.42	3180.79
396.62	3258.03
396.81	3946.14
397.00	5313.02
397.19	6448.18
397.39	7503.76
397.58	8397.84
397.77	8903.40
397.97	9074.26
398.16	9181.92
398.35	9493.21
398.55	9944.94
398.74	10174.31
398.93	10293.68
399.12	10167.29
399.32	9795.14
399.51	10125.16
399.70	10558.16
399.90	10506.66
400.09	10602.63
400.28	10438.79
400.47	10752.42
400.67	11304.79
400.86	11360.96
401.05	11260.32
401.24	11590.33
401.44	11550.54
401.63	11751.83
401.82	11775.24
402.01	11634.80
402.21	11770.55
402.40	11662.89
402.59	11466.28
402.78	11178.40
402.97	10895.19
403.17	11330.53
403.36	12180.15
403.55	12269.09
403.74	12580.38
403.93	11672.25
404.13	10820.30
404.32	11138.61
404.51	11592.67
404.70	12044.40
404.89	12109.93
405.09	11791.62
405.28	11784.60
405.47	11836.09
405.66	11562.25
405.85	11314.15
406.05	10977.11
406.24	11173.72
406.43	11955.46
406.62	12084.19
406.81	12297.17
407.00	11866.52
407.20	11351.60
407.39	11655.87
407.58	12423.56
407.77	12931.46
407.96	13088.28
408.15	13731.92
408.34	13500.21
408.54	13848.95
408.73	13806.82
408.92	13540.00
409.11	13172.54
409.30	12564.00
409.49	11611.40
409.68	11063.71
409.87	11049.67
410.07	11868.86
410.26	12535.91
410.45	13327.01
410.64	13523.62
410.83	13731.92
411.02	14335.78
411.21	14691.54
411.40	15101.14
411.59	15040.28
411.78	14757.08
411.98	14661.12
412.17	15019.22
412.36	14321.74
412.55	14490.26
412.74	14155.56
412.93	13958.96
413.12	14324.08
413.31	15765.85
413.50	15662.86
413.69	16077.14
413.88	15112.84
414.07	14913.89
414.26	15438.17
414.45	15555.20
414.64	15782.23
414.83	15609.03
415.02	15370.30
415.22	15566.90
415.41	15840.75
415.60	16107.57
415.79	16826.11
415.98	17118.68
416.17	16898.67
416.36	16449.28
416.55	16468.01
416.74	15796.28
416.93	15597.33
417.12	15765.85
417.31	15740.10
417.50	16067.78
417.69	16578.01
417.88	16365.03
418.07	16224.59
418.26	16126.29
418.45	16336.94
418.64	17132.72
418.83	17589.13
419.02	17001.65
419.21	16702.06
419.39	16182.46
419.58	15632.44
419.77	15751.81
419.96	16762.92
420.15	17401.88
420.34	17872.33
420.53	18326.39
420.72	18670.45
420.91	18054.89
421.10	18408.31
421.29	18195.32
421.48	17699.13
421.67	18532.36
421.86	17404.22
422.05	16088.84
422.24	15101.14
422.43	15318.81
422.61	17245.07
422.80	18001.06
422.99	17294.22
423.18	16615.46
423.37	16772.28
423.56	17142.08
423.75	17507.21
423.94	17657.00
424.13	16652.91
424.32	16355.66
424.50	17003.99
424.69	16903.35
424.88	17186.55
425.07	16929.09
425.26	16772.28
425.45	15983.52
425.64	16166.08
425.83	16706.74
426.01	17359.75
426.20	17280.18
426.39	17212.30
426.58	15786.91
426.77	15056.67
426.96	14647.07
427.15	15564.56
427.33	16388.43
427.52	17020.38
427.71	17109.32
427.90	16903.35
428.09	16650.57
428.28	16147.36
428.46	15690.95
428.65	15552.86
428.84	16161.40
429.03	16049.05
429.22	15300.08
429.40	14216.41
429.59	12875.29
429.78	11599.70
429.97	11662.89
430.16	11805.66
430.34	11800.98
430.53	12004.61
430.72	12746.56
430.91	14473.87
431.10	16783.98
431.28	19054.30
431.47	20329.89
431.66	20329.89
431.85	17963.61
432.03	16608.44
432.22	16741.85
432.41	17958.93
432.60	19026.21
432.79	20051.37
432.97	20184.78
433.16	19403.04
433.35	17518.91
433.54	15737.76
433.72	15272.00
433.91	15903.94
434.10	17844.24
434.28	18972.38
434.47	19735.40
434.66	18932.59
434.85	18789.82
435.03	19147.92
435.22	18981.74
435.41	20594.37
435.59	20535.86
435.78	20734.81
435.97	21193.55
436.16	21434.63
436.34	21003.97
436.53	20699.70
436.72	20662.25
436.90	19836.04
437.09	19985.83
437.28	19349.21
437.46	19999.88
437.65	20119.24
437.84	17804.46
438.02	16947.82
438.21	17469.76
438.40	18005.74
438.58	19260.27
438.77	19929.66
438.96	20531.18
439.14	21429.94
439.33	21659.32
439.52	21612.51
439.70	20994.61
439.89	20491.39
440.08	19946.05
440.26	20269.04
440.45	21062.48
440.63	22197.64
440.82	23733.03
441.01	22974.70
441.19	22752.35
441.38	23800.91
441.57	24554.56
441.75	24287.74
441.94	24407.11
442.12	24671.59
442.31	25301.19
442.50	24957.13
442.68	24107.52
442.87	24435.19
443.05	23901.55
443.24	24278.38
443.43	25076.50
443.61	25333.96
443.80	25486.09
443.98	24458.60
444.17	23758.78
444.35	25729.51
444.54	26314.64
444.73	25408.86
444.91	24212.84
445.10	23035.55
445.28	22822.56
445.47	22452.76
445.65	22691.49
445.84	23536.43
446.02	24135.60
446.21	24666.91
446.39	24299.44
446.58	24744.14
446.77	25612.48
446.95	25523.54
447.14	26387.20
447.32	26518.27
447.51	25963.56
447.69	24849.47
447.88	24737.12
448.06	25605.46
448.25	25352.68
448.43	25645.25
448.62	24947.77
448.80	24926.71
448.99	25254.38
449.17	25750.57
449.36	25790.36
449.54	26438.69
449.73	26838.92
449.91	27082.34
450.10	27878.12
450.28	28140.26
450.46	28063.02
450.65	28009.19
450.83	27372.57
451.02	27302.35
451.20	27370.22
451.39	27229.79
451.57	27592.58
451.76	27225.11
451.94	26607.21
452.13	26342.73
452.31	24814.36
452.49	24128.58
452.68	24346.25
452.86	24636.48
453.05	25025.01
453.23	26525.29
453.42	26845.94
453.60	27101.06
453.78	26654.02
453.97	26747.64
454.15	26426.99
454.34	25582.06
454.52	25745.89
454.70	25872.28
454.89	25844.20
455.07	25949.52
455.26	26885.73
455.44	27040.21
455.62	28486.66
455.81	27608.96
455.99	27651.09
456.17	27728.33
456.36	28474.96
456.54	28666.88
456.73	28503.04
456.91	28730.08
457.09	28999.24
457.28	29755.23
457.46	28311.12
457.64	27831.31
457.83	27119.79
458.01	27040.21
458.19	27775.14
458.38	28297.08
458.56	29081.16
458.74	28339.21
458.93	27878.12
459.11	27988.13
459.29	26852.97
459.48	27843.01
459.66	28144.94
459.84	28065.36
460.03	28435.17
460.21	28823.70
460.39	29294.14
460.57	28964.13
460.76	29432.24
460.94	29088.18
461.12	29558.63
461.31	29706.08
461.49	29434.58
461.67	29830.13
461.85	30132.06
462.04	29722.46
462.22	30010.35
462.40	29979.92
462.59	29455.64
462.77	29776.30
462.95	29610.12
463.13	29516.50
463.32	29233.29
463.50	28816.68
463.68	29364.36
463.86	29806.72
464.05	28861.15
464.23	28144.94
464.41	28229.20
464.59	28177.71
464.78	29591.39
464.96	29289.46
465.14	28414.10
465.32	29467.34
465.50	30588.46
465.69	30749.96
465.87	29474.37
466.05	28837.74
466.23	27386.61
466.41	26899.78
466.60	28168.35
466.78	28030.26
466.96	28519.43
467.14	29099.88
467.32	29142.01
467.51	29394.79
467.69	27955.36
467.87	28671.56
468.05	29521.18
468.23	29125.63
468.41	29156.05
468.60	29207.55
468.78	30080.56
468.96	29228.61
469.14	29940.13
469.32	29933.11
469.50	28252.61
469.69	28500.70
469.87	28313.46
470.05	28170.69
470.23	27978.76
470.41	28386.02
470.59	29432.24
470.77	28664.54
470.95	30043.12
471.14	30277.17
471.32	30127.38
471.50	31578.51
471.68	31999.80
471.86	32198.75
472.04	31882.78
472.22	31634.68
472.40	30663.36
472.58	30277.17
472.77	30581.44
472.95	30895.07
473.13	31608.93
473.31	30342.70
473.49	30249.08
473.67	31702.56
473.85	31887.46
474.03	32685.58
474.21	33446.26
474.39	33589.03
474.57	32737.07
474.75	33244.97
474.93	32694.94
475.12	31992.78
475.30	32121.51
475.48	31740.00
475.66	31688.51
475.84	31725.96
476.02	31847.67
476.20	31592.55
476.38	32217.47
476.56	33209.86
476.74	34103.95
476.92	34242.04
477.10	33844.15
477.28	34946.54
477.46	34759.30
477.64	35786.79
477.82	35866.37
478.00	36231.49
478.18	34824.83
478.36	34480.77
478.54	35599.55
478.72	35641.68
478.90	37127.92
479.08	38185.84
479.26	37902.64
479.44	38171.80
479.62	37282.39
479.80	38209.25
479.98	38045.41
480.16	38342.66
480.34	37841.78
480.52	38733.53
480.70	39164.18
480.88	38810.76
481.06	39587.82
481.24	39475.48
481.41	40542.76
481.59	40847.03
481.77	39995.07
481.95	39508.24
482.13	39194.61
482.31	39962.31
482.49	40261.90
482.67	39716.55
482.85	39770.38
483.03	40357.86
483.21	41738.77
483.39	40940.65
483.57	40196.36
483.74	40210.40
483.92	41816.01
484.10	41167.68
484.28	41273.01
484.46	40945.33
484.64	42887.98
484.82	41783.24
485.00	41308.11
485.18	40058.27
485.35	38288.82
485.53	34148.42
485.71	32297.05
485.89	32844.74
486.07	34761.64
486.25	37556.24
486.43	39508.24
486.61	39564.42
486.78	39447.39
486.96	41057.68
487.14	42092.19
487.32	43005.00
487.50	43456.73
487.68	45219.15
487.85	46176.43
488.03	44884.45
488.21	44301.66
488.39	43702.48
488.57	42693.71
488.75	43147.78
488.92	44701.89
489.10	47098.60
489.28	47959.92
489.46	49811.28
489.64	49003.80
489.81	49237.85
489.99	48205.67
490.17	48327.38
490.35	48753.36
490.53	48149.50
490.70	47512.88
490.88	47655.65
491.06	49015.50
491.24	49413.39
491.41	47391.17
491.59	45883.86
491.77	45790.24
491.95	47819.49
492.13	49102.10
492.30	49986.82
492.48	50618.77
492.66	51482.42
492.84	50387.05
493.01	50431.52
493.19	50089.80
493.37	49727.02
493.54	50321.52
493.72	51061.13
493.90	51452.00
494.08	52189.27
494.25	51922.44
494.43	52830.57
494.61	53181.65
494.79	53268.25
494.96	53406.34
495.14	53265.91
495.32	51690.73
495.49	51583.07
495.67	52521.62
495.85	53532.73
496.02	54330.86
496.20	54087.44
496.38	53612.31
496.55	53460.18
496.73	54349.58
496.91	54372.99
497.09	54216.17
497.26	54527.46
497.44	54103.82
497.62	52552.05
497.79	51877.97
497.97	50974.53
498.14	51889.68
498.32	53563.16
498.50	53434.43
498.67	53322.08
498.85	53942.33
499.03	54520.44
499.20	55098.55
499.38	54054.67
499.56	53628.69
499.73	53490.60
499.91	53310.38
500.08	52725.25
500.26	51917.76
500.44	52788.44
500.61	53539.75
500.79	52825.89
500.97	53329.11
501.14	51718.82
501.32	51929.47
501.49	52023.09
501.67	52659.71
501.84	53111.44
502.02	53546.78
502.20	54248.94
502.37	54424.48
502.55	54595.34
502.72	54773.22
502.90	55208.56
503.07	55180.47
503.25	53591.25
503.43	52598.86
503.60	52313.31
503.78	52177.56
503.95	52435.02
504.13	54265.32
504.30	54436.18
504.48	54010.20
504.65	54010.20
504.83	54419.80
505.01	55295.16
505.18	55458.99
505.36	55641.56
505.53	55772.63
505.71	56247.75
505.88	56238.39
506.06	55487.08
506.23	55166.43
506.41	54801.30
506.58	55426.23
506.76	55231.96
506.93	54560.23
507.11	54578.95
507.28	54843.43
507.46	54635.13
507.63	53902.54
507.81	53235.48
507.98	54368.30
508.16	55468.36
508.33	55255.37
508.50	55707.09
508.68	56041.79
508.85	56545.00
509.03	56507.55
509.20	55756.24
509.38	54525.12
509.55	54616.40
509.73	55187.49
509.90	55222.60
510.08	55412.18
510.25	54710.02
510.42	55016.63
510.60	55718.79
510.77	56137.75
510.95	56016.04
511.12	56266.48
511.30	57020.13
511.47	56678.41
511.64	56917.15
511.82	56706.50
511.99	55341.97
512.17	55716.45
512.34	55224.94
512.51	55250.69
512.69	55760.92
512.86	55484.74
513.04	55655.60
513.21	55229.62
513.38	53956.37
513.56	54408.09
513.73	53322.08
513.90	54244.26
514.08	54426.82
514.25	53977.43
514.43	54632.78
514.60	55065.78
514.77	55395.80
514.95	55526.87
515.12	55398.14
515.29	56034.77
515.47	56423.29
515.64	56224.35
515.81	55723.47
515.99	54894.92
516.16	52514.60
516.33	49729.36
516.51	49808.94
516.68	48105.03
516.85	47173.50
517.03	50017.25
517.20	52739.29
517.37	54752.15
517.54	55622.83
517.72	54017.22
517.89	50972.19
518.06	49375.94
518.24	50810.69
518.41	52844.62
518.58	53902.54
518.75	53862.75
518.93	54164.68
519.10	53254.21
519.27	54864.50
519.45	55042.38
519.62	55398.14
519.79	55831.14
519.96	55166.43
520.14	54995.57
520.31	53579.54
520.48	54195.10
520.65	54993.23
520.83	55819.44
521.00	55707.09
521.17	55297.50
521.34	55220.26
521.52	55985.61
521.69	55845.18
521.86	56346.06
522.03	56619.90
522.20	54698.32
522.38	54092.12
522.55	54410.43
522.72	55517.51
522.89	54609.38
523.07	55126.64
523.24	55487.08
523.41	57020.13
523.58	57169.93
523.75	57464.83
523.92	56919.49
524.10	56289.88
524.27	56128.39
524.44	55976.25
524.61	56058.17
524.78	56877.36
524.96	56502.87
525.13	56474.79
525.30	56685.43
525.47	56605.86
525.64	56523.94
525.81	55985.61
525.98	53939.99
526.16	52673.76
526.33	52982.71
526.50	52137.77
526.67	52435.02
526.84	52917.17
527.01	53876.79
527.18	54199.79
527.36	55618.15
527.53	56535.64
527.70	55789.01
527.87	54265.32
528.04	55112.59
528.21	56193.92
528.38	56512.23
528.55	57338.44
528.72	57151.20
528.89	56865.66
529.07	56470.11
529.24	55402.82
529.41	55105.57
529.58	55004.93
529.75	55873.27
529.92	56601.18
530.09	56320.31
530.26	56779.06
530.43	57359.51
530.60	56547.34
530.77	56954.60
530.94	57286.95
531.11	56523.94
531.28	56863.32
531.46	56928.85
531.63	56781.40
531.80	55875.61
531.97	55213.24
532.14	55264.73
532.31	53769.13
532.48	53162.93
532.65	53736.36
532.82	54059.35
532.99	55819.44
533.16	56390.53
533.33	56051.15
533.50	56423.29
533.67	56250.09
533.84	55185.15
534.01	55845.18
534.18	56207.97
534.35	55828.80
534.52	54983.86
534.69	55910.72
534.86	56107.32
535.03	56509.89
535.20	56128.39
535.37	57345.47
535.54	57399.30
535.71	57069.28
535.88	57495.26
536.05	56006.68
536.22	55491.76
536.38	55161.75
536.55	54031.27
536.72	54078.08
536.89	54681.94
537.06	55044.72
537.23	55779.65
537.40	56144.77
537.57	55718.79
537.74	56182.22
537.91	55875.61
538.08	55695.39
538.25	55358.35
538.42	56292.22
538.59	55463.67
538.75	54553.21
538.92	53989.14
539.09	54199.79
539.26	54293.41
539.43	54468.95
539.60	54983.86
539.77	55290.48
539.94	54714.70
540.11	54019.56
540.28	53701.25
540.44	53024.84
540.61	53153.57
540.78	53780.83
540.95	54630.44
541.12	54628.10
541.29	55433.25
541.46	55803.05
541.62	55646.24
541.79	54904.29
541.96	53949.35
542.13	54089.78
542.30	54251.28
542.47	54990.89
542.63	54773.22
542.80	54600.02
542.97	54108.50
543.14	53808.92
543.31	53593.59
543.48	55344.31
543.64	55693.05
543.81	56828.21
543.98	56446.70
544.15	54548.53
544.32	55213.24
544.48	54904.29
544.65	54710.02
544.82	55468.36
544.99	53766.79
545.16	53514.01
545.32	53827.64
545.49	54848.11
545.66	54972.16
545.83	54384.69
546.00	54899.61
546.16	55281.11
546.33	55061.10
546.50	54869.18
546.67	55529.21
546.83	54515.76
547.00	55124.30
547.17	53923.60
547.34	52790.78
547.50	53134.84
547.67	54677.25
547.84	55250.69
548.00	54583.63
548.17	54588.31
548.34	54817.69
548.51	55100.89
548.67	55873.27
548.84	55711.77
549.01	55348.99
549.18	54740.45
549.34	54733.43
549.51	54820.03
549.68	54628.10
549.84	53975.09
550.01	54096.80
550.18	53633.38
550.34	53792.53
550.51	54475.97
550.68	54798.96
550.84	54351.92
551.01	53879.13
551.18	53401.66
551.34	52999.09
551.51	54461.93
551.68	54169.36
551.84	53895.52
552.01	54028.93
552.18	53729.34
552.34	53048.24
552.51	52926.53
552.68	52989.73
552.84	53195.70
553.01	53242.51
553.18	54602.36
553.34	54511.08
553.51	54319.15
553.67	53820.62
553.84	53090.37
554.01	53942.33
554.17	53373.58
554.34	53977.43
554.51	53895.52
554.67	53055.26
554.84	53116.12
555.00	53481.24
555.17	53310.38
555.33	52949.94
555.50	52390.55
555.67	53198.04
555.83	53305.70
556.00	53125.48
556.16	52250.12
556.33	52048.83
556.50	52758.02
556.66	53305.70
556.83	52631.63
556.99	51941.17
557.16	52545.03
557.32	52306.29
557.49	52617.58
557.65	52229.05
557.82	53095.05
557.98	53205.06
558.15	51969.26
558.32	51124.32
558.48	50047.68
558.65	50223.22
558.81	51199.22
558.98	51643.92
559.14	52472.47
559.31	51611.15
559.47	51143.05
559.64	50588.34
559.80	50181.09
559.97	51194.54
560.13	52800.15
560.30	53488.26
560.46	54028.93
560.63	54457.24
560.79	54265.32
560.96	52954.62
561.12	51566.68
561.29	51133.68
561.45	51119.64
561.61	53043.56
561.78	51931.81
561.94	53090.37
562.11	52631.63
562.27	51854.57
562.44	52271.18
562.60	52666.73
562.77	52664.39
562.93	51400.50
563.10	51695.41
563.26	51363.06
563.42	52416.30
563.59	51133.68
563.75	51461.36
563.92	51346.67
564.08	50209.17
564.24	51391.14
564.41	51002.61
564.57	52210.33
564.74	51480.08
564.90	50667.92
565.07	51107.94
565.23	49668.51
565.39	48921.88
565.56	49815.96
565.72	50248.96
565.88	48519.31
566.05	51297.52
566.21	51985.64
566.38	50536.85
566.54	50595.36
566.70	51381.78
566.87	51224.96
567.03	50564.93
567.19	51770.31
567.36	52346.08
567.52	50742.81
567.68	50473.65
567.85	49050.61
568.01	49200.40
568.17	49834.69
568.34	50417.48
568.50	50085.12
568.66	50637.49
568.83	49478.92
568.99	49139.55
569.15	49476.58
569.32	49827.66
569.48	49483.61
569.64	48945.28
569.81	49132.53
569.97	48596.54
570.13	48378.87
570.30	47885.02
570.46	47140.73
570.62	45911.95
570.78	46337.93
570.95	47828.85
571.11	47026.04
571.27	47054.13
571.43	47540.96
571.60	46909.02
571.76	49001.46
571.92	49022.52
572.09	49624.04
572.25	49818.30
572.41	50576.64
572.57	50370.67
572.74	50042.99
572.90	51033.04
573.06	49626.38
573.22	50323.86
573.38	49813.62
573.55	51215.60
573.71	49841.71
573.87	50323.86
574.03	50066.40
574.20	49305.73
574.36	49338.49
574.52	48437.39
574.68	47859.27
574.84	47056.47
575.01	47330.31
575.17	48594.20
575.33	48128.44
575.49	48435.05
575.65	47569.05
575.82	48385.89
575.98	47517.56
576.14	48093.33
576.30	48949.96
576.46	47232.01
576.62	47587.77
576.79	47419.25
576.95	47625.22
577.11	48205.67
577.27	48074.60
577.43	48168.22
577.59	46923.06
577.75	45612.36
577.92	45741.09
578.08	46075.79
578.24	47103.28
578.40	47154.77
578.56	46611.77
578.72	46354.31
578.88	46274.73
579.04	46880.93
579.21	45827.69
579.37	46429.21
579.53	47281.16
579.69	46974.55
579.85	46866.89
580.01	46717.09
580.17	46445.59
580.33	47281.16
580.49	47608.84
580.65	45413.41
580.82	46244.30
580.98	46969.87
581.14	47824.17
581.30	47327.97
581.46	46883.27
581.62	46995.62
581.78	47969.28
581.94	47412.23
582.10	48198.65
582.26	47959.92
582.42	47842.89
582.58	46181.11
582.74	45902.59
582.90	46705.39
583.06	46548.57
583.22	47239.03
583.38	47065.83
583.54	47414.57
583.70	47461.38
583.86	46686.67
584.02	46719.43
584.18	46450.27
584.34	45572.57
584.50	45205.11
584.66	45305.75
584.82	45574.91
584.98	45858.12
585.14	45177.02
585.30	45680.24
