SpectraSuite Data File
++++++++++++++++++++++++++++++++++++
Date: Mon Oct 07 14:54:56 GMT-05:00 2013
User: price-jones
Dark Spectrum Present: No
Reference Spectrum Present: No
Number of Sampled Component Spectra: 1
Spectrometers: USB2+H05261
Integration Time (usec): 10000 (USB2+H05261)
Spectra Averaged: 1 (USB2+H05261)
Boxcar Smoothing: 0 (USB2+H05261)
Correct for Electrical Dark: No (USB2+H05261)
Strobe/Lamp Enabled: No (USB2+H05261)
Correct for Detector Non-linearity: No (USB2+H05261)
Correct for Stray Light: No (USB2+H05261)
Number of Pixels in Processed Spectrum: 2048
>>>>>Begin Processed Spectral Data<<<<<
365.73	0.00
365.92	0.00
366.12	0.00
366.32	0.00
366.52	0.00
366.72	0.00
366.91	0.00
367.11	0.00
367.31	0.00
367.51	0.00
367.70	0.00
367.90	0.00
368.10	0.00
368.30	0.00
368.49	0.00
368.69	0.00
368.89	0.00
369.09	0.00
369.28	0.00
369.48	0.00
369.68	0.00
369.87	0.00
370.07	0.00
370.27	0.00
370.47	0.00
370.66	128.73
370.86	337.04
371.06	301.93
371.25	344.06
371.45	315.97
371.65	227.03
371.84	217.67
372.04	278.52
372.24	404.91
372.44	344.06
372.63	414.27
372.83	365.12
373.03	297.25
373.22	205.97
373.42	203.63
373.62	280.86
373.81	327.68
374.01	330.02
374.21	292.57
374.40	182.56
374.60	215.33
374.79	308.95
374.99	442.36
375.19	564.07
375.38	484.49
375.58	388.53
375.78	433.00
375.97	332.36
376.17	505.56
376.37	454.06
376.56	435.34
376.76	493.85
376.95	545.34
377.15	496.19
377.35	653.01
377.54	641.31
377.74	730.25
377.93	643.65
378.13	667.05
378.33	559.39
378.52	592.16
378.72	589.82
378.91	458.74
379.11	468.11
379.31	514.92
379.50	444.70
379.70	503.22
379.89	510.24
380.09	589.82
380.28	603.86
380.48	709.18
380.68	594.50
380.87	580.45
381.07	543.00
381.26	491.51
381.46	379.17
381.65	430.66
381.85	430.66
382.04	304.27
382.24	360.44
382.43	283.20
382.63	241.08
382.83	341.72
383.02	245.76
383.22	231.71
383.41	269.16
383.61	339.38
383.80	344.06
384.00	435.34
384.19	643.65
384.39	575.77
384.58	650.67
384.78	643.65
384.97	580.45
385.17	594.50
385.36	528.96
385.56	472.79
385.75	472.79
385.95	613.22
386.14	664.71
386.34	641.31
386.53	493.85
386.72	503.22
386.92	601.52
387.11	629.60
387.31	620.24
387.50	580.45
387.70	566.41
387.89	517.26
388.09	582.79
388.28	657.69
388.48	615.56
388.67	636.63
388.86	615.56
389.06	662.37
389.25	765.36
389.45	835.57
389.64	814.51
389.84	910.47
390.03	744.29
390.22	746.63
390.42	793.44
390.61	894.08
390.81	968.98
391.00	999.41
391.19	964.30
391.39	938.55
391.58	805.14
391.78	748.97
391.97	777.06
392.16	737.27
392.36	596.84
392.55	454.06
392.75	372.15
392.94	173.20
393.13	170.86
393.33	313.63
393.52	557.05
393.71	580.45
393.91	739.61
394.10	734.93
394.29	891.74
394.49	863.66
394.68	1018.13
394.88	1081.33
395.07	1081.33
395.26	1043.88
395.46	997.07
395.65	973.66
395.84	812.17
396.04	634.29
396.23	526.62
396.42	381.51
396.62	355.76
396.81	416.62
397.00	662.37
397.19	793.44
397.39	976.00
397.58	1214.74
397.77	1334.11
397.97	1256.87
398.16	1338.79
398.35	1338.79
398.55	1394.96
398.74	1598.59
398.93	1535.39
399.12	1418.36
399.32	1411.34
399.51	1467.52
399.70	1547.09
399.90	1500.28
400.09	1474.54
400.28	1558.80
400.47	1462.83
400.67	1626.67
400.86	1657.10
401.05	1661.78
401.24	1643.06
401.44	1586.88
401.63	1689.87
401.82	1720.29
402.01	1753.06
402.21	1717.95
402.40	1827.96
402.59	1708.59
402.78	1671.14
402.97	1533.05
403.17	1514.33
403.36	1813.92
403.55	1830.30
403.74	1837.32
403.93	1722.63
404.13	1584.54
404.32	1514.33
404.51	1514.33
404.70	1708.59
404.89	1643.06
405.09	1713.27
405.28	1703.91
405.47	1619.65
405.66	1682.85
405.85	1542.41
406.05	1481.56
406.24	1568.16
406.43	1633.69
406.62	1717.95
406.81	1724.97
407.00	1586.88
407.20	1584.54
407.39	1582.20
407.58	1706.25
407.77	1827.96
407.96	1757.74
408.15	1816.26
408.34	1788.17
408.54	1877.11
408.73	1797.53
408.92	1888.81
409.11	1839.66
409.30	1867.75
409.49	1643.06
409.68	1589.22
409.87	1509.65
410.07	1469.86
410.26	1727.32
410.45	1959.03
410.64	1863.07
410.83	1919.24
411.02	2031.58
411.21	2029.24
411.40	2106.48
411.59	2129.89
411.78	1994.14
411.98	2066.69
412.17	1973.07
412.36	1996.48
412.55	2078.40
412.74	2005.84
412.93	1806.89
413.12	1959.03
413.31	2062.01
413.50	2207.13
413.69	2204.78
413.88	2104.14
414.07	1963.71
414.26	2115.84
414.45	2176.70
414.64	1954.35
414.83	2139.25
415.02	2141.59
415.22	2083.08
415.41	2157.97
415.60	2186.06
415.79	2307.77
415.98	2338.20
416.17	2333.51
416.36	2377.98
416.55	2183.72
416.74	2258.62
416.93	2139.25
417.12	2127.55
417.31	2221.17
417.50	2045.63
417.69	2253.94
417.88	2214.15
418.07	2157.97
418.26	2263.30
418.45	2174.36
418.64	2258.62
418.83	2429.48
419.02	2256.28
419.21	2298.41
419.39	2160.31
419.58	2026.90
419.77	2101.80
419.96	2076.06
420.15	2312.45
420.34	2307.77
420.53	2434.16
420.72	2546.50
420.91	2539.48
421.10	2436.50
421.29	2377.98
421.48	2207.13
421.67	2401.39
421.86	2314.79
422.05	2286.70
422.24	1933.28
422.43	1881.79
422.61	2083.08
422.80	2188.40
422.99	2373.30
423.18	2125.21
423.37	2111.16
423.56	2244.57
423.75	2265.64
423.94	2279.68
424.13	2059.67
424.32	2209.47
424.50	2066.69
424.69	2221.17
424.88	2235.21
425.07	2054.99
425.26	2127.55
425.45	2200.10
425.64	2129.89
425.83	1973.07
426.01	2251.60
426.20	2328.83
426.39	2214.15
426.58	2026.90
426.77	1867.75
426.96	1825.62
427.15	1998.82
427.33	2017.54
427.52	2242.23
427.71	2160.31
427.90	2085.42
428.09	2083.08
428.28	2031.58
428.46	2071.37
428.65	2003.50
428.84	2099.46
429.03	1966.05
429.22	1916.90
429.40	1741.36
429.59	1624.33
429.78	1432.41
429.97	1409.00
430.16	1378.58
430.34	1385.60
430.53	1502.62
430.72	1467.52
430.91	1666.46
431.10	1991.80
431.28	2338.20
431.47	2480.97
431.66	2583.95
431.85	2244.57
432.03	2211.81
432.22	2026.90
432.41	2160.31
432.60	2225.85
432.79	2499.69
432.97	2511.39
433.16	2499.69
433.35	2282.02
433.54	1954.35
433.72	1902.86
433.91	2012.86
434.10	2207.13
434.28	2333.51
434.47	2562.89
434.66	2457.56
434.85	2448.20
435.03	2328.83
435.22	2495.01
435.41	2525.44
435.59	2630.76
435.78	2686.94
435.97	2745.45
436.16	2644.81
436.34	2642.46
436.53	2731.41
436.72	2677.57
436.90	2466.92
437.09	2319.47
437.28	2466.92
437.46	2553.52
437.65	2450.54
437.84	2242.23
438.02	2062.01
438.21	1998.82
438.40	2218.83
438.58	2389.69
438.77	2541.82
438.96	2562.89
439.14	2635.44
439.33	2834.39
439.52	2750.13
439.70	2651.83
439.89	2541.82
440.08	2476.29
440.26	2518.42
440.45	2516.08
440.63	2672.89
440.82	2916.31
441.01	2850.77
441.19	2909.29
441.38	2972.48
441.57	2944.39
441.75	3038.02
441.94	3026.31
442.12	3073.12
442.31	3059.08
442.50	3045.04
442.68	3052.06
442.87	2960.78
443.05	2869.50
443.24	2963.12
443.43	3019.29
443.61	3096.53
443.80	3166.74
443.98	2953.76
444.17	2850.77
444.35	3075.46
444.54	3138.66
444.73	3136.32
444.91	2974.82
445.10	2843.75
445.28	2733.75
445.47	2724.38
445.65	2691.62
445.84	2810.98
446.02	2862.48
446.21	2906.95
446.39	2963.12
446.58	3028.65
446.77	3007.59
446.95	2911.63
447.14	3145.68
447.32	3040.36
447.51	3087.17
447.69	3075.46
447.88	2930.35
448.06	3124.62
448.25	3066.10
448.43	3035.67
448.62	3084.83
448.80	3054.40
448.99	3040.36
449.17	3009.93
449.36	3162.06
449.54	3208.87
449.73	3117.59
449.91	3353.99
450.10	3393.78
450.28	3438.25
450.46	3353.99
450.65	3344.63
450.83	3342.28
451.02	3220.58
451.20	3176.11
451.39	3255.69
451.57	3234.62
451.76	3157.38
451.94	3136.32
452.13	3091.85
452.31	2888.22
452.49	2909.29
452.68	2897.58
452.86	2967.80
453.05	2843.75
453.23	2958.44
453.42	3129.30
453.60	3141.00
453.78	3133.98
453.97	3126.96
454.15	3208.87
454.34	3075.46
454.52	3129.30
454.70	2960.78
454.89	3070.78
455.07	3084.83
455.26	3094.19
455.44	3255.69
455.62	3276.75
455.81	3342.28
455.99	3272.07
456.17	3194.83
456.36	3309.52
456.54	3342.28
456.73	3419.52
456.91	3358.67
457.09	3569.32
457.28	3564.64
457.46	3365.69
457.64	3314.20
457.83	3353.99
458.01	3222.92
458.19	3311.86
458.38	3335.26
458.56	3295.47
458.74	3384.41
458.93	3208.87
459.11	3222.92
459.29	3417.18
459.48	3218.24
459.66	3384.41
459.84	3342.28
460.03	3337.60
460.21	3349.31
460.39	3361.01
460.57	3382.07
460.76	3410.16
460.94	3447.61
461.12	3382.07
461.31	3363.35
461.49	3279.09
461.67	3440.59
461.85	3485.06
462.04	3361.01
462.22	3599.74
462.40	3475.70
462.59	3419.52
462.77	3515.48
462.95	3550.59
463.13	3506.12
463.32	3405.48
463.50	3344.63
463.68	3513.14
463.86	3386.76
464.05	3330.58
464.23	3358.67
464.41	3335.26
464.59	3204.19
464.78	3459.31
464.96	3447.61
465.14	3349.31
465.32	3328.24
465.50	3398.46
465.69	3447.61
465.87	3361.01
466.05	3309.52
466.23	3164.40
466.41	3059.08
466.60	3222.92
466.78	3445.27
466.96	3274.41
467.14	3253.34
467.32	3410.16
467.51	3328.24
467.69	3157.38
467.87	3279.09
468.05	3442.93
468.23	3323.56
468.41	3243.98
468.60	3262.71
468.78	3211.22
468.96	3241.64
469.14	3410.16
469.32	3318.88
469.50	3075.46
469.69	3218.24
469.87	3243.98
470.05	3148.02
470.23	3201.85
470.41	3297.81
470.59	3232.28
470.77	3246.32
470.95	3283.77
471.14	3410.16
471.32	3398.46
471.50	3496.76
471.68	3623.15
471.86	3623.15
472.04	3714.43
472.22	3723.79
472.40	3363.35
472.58	3613.79
472.77	3569.32
472.95	3433.57
473.13	3583.36
473.31	3531.87
473.49	3421.86
473.67	3541.23
473.85	3478.04
474.03	3747.20
474.21	3714.43
474.39	3723.79
474.57	3634.85
474.75	3719.11
474.93	3648.90
475.12	3669.96
475.30	3648.90
475.48	3543.57
475.66	3686.34
475.84	3606.77
476.02	3674.64
476.20	3414.84
476.38	3700.39
476.56	3882.95
476.74	3791.67
476.92	3838.48
477.10	3864.22
477.28	3999.98
477.46	4025.72
477.64	4042.11
477.82	3920.40
478.00	3992.95
478.18	3934.44
478.36	4037.42
478.54	3955.51
478.72	3946.14
478.90	4065.51
479.08	4107.64
479.26	4163.81
479.44	4264.46
479.62	4159.13
479.80	4049.13
479.98	4255.09
480.16	4210.62
480.34	4198.92
480.52	4219.99
480.70	4344.03
480.88	4273.82
481.06	4440.00
481.24	4573.41
481.41	4519.57
481.59	4547.66
481.77	4475.10
481.95	4341.69
482.13	4362.76
482.31	4432.97
482.49	4561.70
482.67	4475.10
482.85	4437.66
483.03	4580.43
483.21	4678.73
483.39	4594.47
483.57	4667.03
483.74	4346.37
483.92	4528.94
484.10	4571.07
484.28	4674.05
484.46	4741.93
484.64	4819.16
484.82	4592.13
485.00	4674.05
485.18	4320.63
485.35	4388.50
485.53	4014.02
485.71	3646.55
485.89	3616.13
486.07	3815.07
486.25	4119.34
486.43	4271.48
486.61	4610.86
486.78	4449.36
486.96	4573.41
487.14	4751.29
487.32	4765.33
487.50	4884.70
487.68	4999.38
487.85	5287.27
488.03	5107.05
488.21	4985.34
488.39	5022.79
488.57	4779.37
488.75	4748.95
488.92	5043.85
489.10	5411.32
489.28	5497.92
489.46	5596.22
489.64	5605.58
489.81	5577.50
489.99	5465.15
490.17	5533.03
490.35	5832.62
490.53	5486.22
490.70	5359.83
490.88	5376.21
491.06	5633.67
491.24	5741.33
491.41	5366.85
491.59	5228.76
491.77	5219.39
491.95	5184.29
492.13	5526.00
492.30	5769.42
492.48	5795.17
492.66	5895.81
492.84	5708.57
493.01	5820.91
493.19	5645.37
493.37	5589.20
493.54	5647.71
493.72	5881.77
493.90	5921.56
494.08	6085.39
494.25	6253.91
494.43	6239.87
494.61	6244.55
494.79	6108.80
494.96	6277.32
495.14	6296.04
495.32	5998.79
495.49	5743.67
495.67	5994.11
495.85	6375.62
496.02	6513.71
496.20	6300.72
496.38	6413.07
496.55	6408.39
496.73	6263.27
496.91	6422.43
497.09	6623.72
497.26	6621.38
497.44	6260.93
497.62	6298.38
497.79	6104.12
497.97	5874.74
498.14	6099.44
498.32	6122.84
498.50	6431.79
498.67	6366.26
498.85	6291.36
499.03	6417.75
499.20	6553.50
499.38	6415.41
499.56	6595.63
499.73	6251.57
499.91	6230.51
500.08	6225.82
500.26	6136.88
500.44	5991.77
500.61	6310.08
500.79	6237.53
500.97	5984.75
501.14	6054.97
501.32	6026.88
501.49	6085.39
501.67	6097.10
501.84	6193.06
502.02	6108.80
502.20	6370.94
502.37	6291.36
502.55	6291.36
502.72	6394.34
502.90	6663.51
503.07	6544.14
503.25	6546.48
503.43	6228.17
503.60	6129.86
503.78	6043.26
503.95	6022.20
504.13	6403.71
504.30	6567.54
504.48	6588.61
504.65	6410.73
504.83	6539.46
505.01	6548.82
505.18	6616.69
505.36	6679.89
505.53	6906.92
505.71	6906.92
505.88	6787.55
506.06	6719.68
506.23	6705.63
506.41	6455.20
506.58	6668.19
506.76	6663.51
506.93	6499.67
507.11	6366.26
507.28	6588.61
507.46	6429.45
507.63	6251.57
507.81	6230.51
507.98	6314.77
508.16	6506.69
508.33	6541.80
508.50	6803.94
508.68	6810.96
508.85	6794.58
509.03	6848.41
509.20	6927.99
509.38	6600.31
509.55	6532.44
509.73	6445.84
509.90	6523.07
510.08	6565.20
510.25	6635.42
510.42	6384.98
510.60	6471.58
510.77	6633.08
510.95	6747.76
511.12	6827.34
511.30	6888.20
511.47	6920.96
511.64	7047.35
511.82	6799.26
511.99	6581.59
512.17	6668.19
512.34	6431.79
512.51	6581.59
512.69	6480.94
512.86	6612.01
513.04	6551.16
513.21	6609.67
513.38	6665.85
513.56	6389.66
513.73	6392.00
513.90	6340.51
514.08	6298.38
514.25	6462.22
514.43	6637.76
514.60	6642.44
514.77	6494.99
514.95	6609.67
515.12	6731.38
515.29	6607.33
515.47	6841.39
515.64	6883.52
515.81	6719.68
515.99	6389.66
516.16	6181.35
516.33	5621.97
516.51	5387.91
516.68	5376.21
516.85	5301.31
517.03	5221.74
517.20	5872.40
517.37	6462.22
517.54	6593.29
517.72	6274.98
517.89	5947.30
518.06	5341.10
518.24	5418.34
518.41	5633.67
518.58	5984.75
518.75	6349.87
518.93	6277.32
519.10	6115.82
519.27	6174.33
519.45	6312.42
519.62	6424.77
519.79	6752.45
519.96	6586.27
520.14	6583.93
520.31	6239.87
520.48	6455.20
520.65	6314.77
520.83	6548.82
521.00	6815.64
521.17	6569.88
521.34	6630.74
521.52	6478.60
521.69	6752.45
521.86	6773.51
522.03	6736.06
522.20	6424.77
522.38	6155.61
522.55	6216.46
522.72	6354.55
522.89	6457.54
523.07	6354.55
523.24	6569.88
523.41	6780.53
523.58	6679.89
523.75	6773.51
523.92	6932.67
524.10	6841.39
524.27	6885.86
524.44	6703.29
524.61	6892.88
524.78	6696.27
524.96	6747.76
525.13	6527.75
525.30	6848.41
525.47	6736.06
525.64	6747.76
525.81	6647.12
525.98	6267.95
526.16	5879.43
526.33	5687.50
526.50	5659.42
526.67	5626.65
526.84	5846.66
527.01	5961.34
527.18	6052.63
527.36	6253.91
527.53	6502.01
527.70	6710.32
527.87	6532.44
528.04	6333.49
528.21	6579.25
528.38	6707.98
528.55	6836.70
528.72	6848.41
528.89	6925.65
529.07	6747.76
529.24	6637.76
529.41	6567.54
529.58	6487.96
529.75	6471.58
529.92	6616.69
530.09	6848.41
530.26	6895.22
530.43	6913.94
530.60	6864.79
530.77	6939.69
530.94	6796.92
531.11	6696.27
531.28	6700.95
531.46	6649.46
531.63	6740.74
531.80	6740.74
531.97	6504.35
532.14	6392.00
532.31	6209.44
532.48	5968.37
532.65	5949.64
532.82	6148.59
532.99	6459.88
533.16	6525.41
533.33	6637.76
533.50	6789.89
533.67	6366.26
533.84	6389.66
534.01	6377.96
534.18	6513.71
534.35	6396.68
534.52	6420.09
534.69	6647.12
534.86	6628.40
535.03	6651.80
535.20	6677.55
535.37	6967.77
535.54	6820.32
535.71	6787.55
535.88	6768.83
536.05	6506.69
536.22	6361.58
536.38	6298.38
536.55	6141.57
536.72	6036.24
536.89	6099.44
537.06	6209.44
537.23	6368.60
537.40	6382.64
537.57	6532.44
537.74	6438.81
537.91	6511.37
538.08	6506.69
538.25	6445.84
538.42	6342.85
538.59	6494.99
538.75	6342.85
538.92	6129.86
539.09	6193.06
539.26	6111.14
539.43	6052.63
539.60	6282.00
539.77	6122.84
539.94	6164.97
540.11	6050.28
540.28	5830.27
540.44	5844.32
540.61	5895.81
540.78	6022.20
540.95	6193.06
541.12	6230.51
541.29	6230.51
541.46	6438.81
541.62	6384.98
541.79	6333.49
541.96	6129.86
542.13	5982.41
542.30	6050.28
542.47	6073.69
542.63	6076.03
542.80	6080.71
542.97	6090.07
543.14	5975.39
543.31	6125.18
543.48	6256.25
543.64	6450.52
543.81	6619.04
543.98	6410.73
544.15	6162.63
544.32	6209.44
544.48	6101.78
544.65	6279.66
544.82	6509.03
544.99	6324.13
545.16	6239.87
545.32	6132.20
545.49	6256.25
545.66	6331.15
545.83	6326.47
546.00	6291.36
546.16	6258.59
546.33	5898.15
546.50	6291.36
546.67	6122.84
546.83	6253.91
547.00	6228.17
547.17	5961.34
547.34	5877.09
547.50	5949.64
547.67	6083.05
547.84	5909.85
548.00	6047.94
548.17	6216.46
548.34	6106.46
548.51	6080.71
548.67	6228.17
548.84	6232.85
549.01	6104.12
549.18	6150.93
549.34	6324.13
549.51	6139.23
549.68	6183.70
549.84	6052.63
550.01	6143.91
550.18	6057.31
550.34	6108.80
550.51	5937.94
550.68	6054.97
550.84	6012.84
551.01	5963.68
551.18	5947.30
551.34	5928.58
551.51	6101.78
551.68	6256.25
551.84	6160.29
552.01	6136.88
552.18	6111.14
552.34	5893.47
552.51	5804.53
552.68	5783.46
552.84	5980.07
553.01	6019.86
553.18	5867.72
553.34	6174.33
553.51	6090.07
553.67	5959.00
553.84	6019.86
554.01	6017.52
554.17	6083.05
554.34	6115.82
554.51	6104.12
554.67	6139.23
554.84	5980.07
555.00	6008.16
555.17	5949.64
555.33	5825.59
555.50	5884.11
555.67	5898.15
555.83	5785.80
556.00	5851.34
556.16	5935.60
556.33	5755.38
556.50	5521.32
556.66	5671.12
556.83	5631.33
556.99	5734.31
557.16	5720.27
557.32	5706.23
557.49	5809.21
557.65	5710.91
557.82	5928.58
557.98	5692.18
558.15	5701.54
558.32	5621.97
558.48	5247.48
558.65	5291.95
558.81	5544.73
558.98	5352.81
559.14	5582.18
559.31	5572.82
559.47	5654.73
559.64	5619.63
559.80	5252.16
559.97	5341.10
560.13	5434.72
560.30	5731.97
560.46	5832.62
560.63	5884.11
560.79	5820.91
560.96	5703.89
561.12	5378.55
561.29	5247.48
561.45	5392.59
561.61	5518.98
561.78	5502.60
561.94	5411.32
562.11	5263.86
562.27	5451.11
562.44	5341.10
562.60	5434.72
562.77	5514.30
562.93	5687.50
563.10	5636.01
563.26	5364.51
563.42	5444.09
563.59	5465.15
563.75	5558.77
563.92	5479.19
564.08	5540.05
564.24	5600.90
564.41	5380.89
564.57	5518.98
564.74	5507.28
564.90	5448.77
565.07	5373.87
565.23	5350.46
565.39	5233.44
565.56	5114.07
565.72	5203.01
565.88	5144.50
566.05	5125.77
566.21	5207.69
566.38	5226.42
566.54	5195.99
566.70	5411.32
566.87	5327.06
567.03	5458.13
567.19	5542.39
567.36	5280.25
567.52	5383.23
567.68	5390.25
567.85	5062.58
568.01	5135.14
568.17	5104.71
568.34	5057.90
568.50	5053.22
568.66	5055.56
568.83	5142.16
568.99	5001.72
569.15	5046.20
569.32	5268.55
569.48	5287.27
569.64	5139.82
569.81	4985.34
569.97	5095.35
570.13	4959.60
570.30	4922.15
570.46	4798.10
570.62	4802.78
570.78	4755.97
570.95	4877.68
571.11	4929.17
571.27	4863.63
571.43	4910.44
571.60	5081.30
571.76	5261.52
571.92	5053.22
572.09	5104.71
572.25	5242.80
572.41	5123.43
572.57	5146.84
572.74	5100.03
572.90	4924.49
573.06	5046.20
573.22	5114.07
573.38	4990.02
573.55	4999.38
573.71	5135.14
573.87	5107.05
574.03	5125.77
574.20	4858.95
574.36	4943.21
574.52	4987.68
574.68	4898.74
574.84	4882.36
575.01	4720.86
575.17	4819.16
575.33	4737.24
575.49	4828.53
575.65	4793.42
575.82	4931.51
575.98	4830.87
576.14	4812.14
576.30	4884.70
576.46	4809.80
576.62	4891.72
576.79	4992.36
576.95	4713.84
577.11	4779.37
577.27	4755.97
577.43	4917.47
577.59	4713.84
577.75	4725.54
577.92	4573.41
578.08	4573.41
578.24	4526.60
578.40	4734.90
578.56	4826.18
578.72	4802.78
578.88	4564.04
579.04	4741.93
579.21	4741.93
579.37	4718.52
579.53	4868.31
579.69	4702.14
579.85	4816.82
580.01	4875.34
580.17	4723.20
580.33	4603.83
580.49	4615.54
580.65	4667.03
580.82	4634.26
580.98	4851.93
581.14	4816.82
581.30	4779.37
581.46	4737.24
581.62	4610.86
581.78	4858.95
581.94	4863.63
582.10	4833.21
582.26	4727.88
582.42	4828.53
582.58	4671.71
582.74	4755.97
582.90	4800.44
583.06	4828.53
583.22	4578.09
583.38	4791.08
583.54	4589.79
583.70	4702.14
583.86	4610.86
584.02	4718.52
584.18	4671.71
584.34	4688.09
584.50	4798.10
584.66	4697.46
584.82	4503.19
584.98	4615.54
585.14	4578.09
585.30	4367.44
585.46	4383.82
585.62	4437.66
585.78	4622.56
585.94	4472.76
586.10	4615.54
586.26	4568.73
586.42	4634.26
586.58	4379.14
586.74	4535.96
586.90	4531.28
587.06	4468.08
587.22	4603.83
587.38	4444.68
587.54	4465.74
587.70	4372.12
587.86	4341.69
588.02	4306.59
588.18	4351.06
588.34	4117.00
588.49	3920.40
588.65	3798.69
588.81	3798.69
588.97	3779.97
589.13	3707.41
589.29	3691.02
589.45	3819.75
589.61	3939.12
589.77	4044.45
589.93	4163.81
590.08	4294.88
590.24	4367.44
590.40	4217.65
590.56	4102.96
590.72	4262.12
590.88	4227.01
591.04	4189.56
591.20	4109.98
591.35	4252.75
591.51	4180.20
591.67	3990.61
591.83	4210.62
591.99	4269.14
592.15	4191.90
592.31	4194.24
592.46	4210.62
592.62	4098.28
592.78	4088.92
592.94	4166.15
593.10	4231.69
593.26	4121.68
593.41	4217.65
593.57	4065.51
593.73	4177.86
593.89	4159.13
594.05	4060.83
594.20	4079.55
594.36	4039.76
594.52	3915.72
594.68	3948.48
594.84	3964.87
594.99	4121.68
595.15	3953.16
595.31	4077.21
595.47	4215.30
595.62	4037.42
595.78	4191.90
595.94	4107.64
596.10	4119.34
596.25	4070.19
596.41	4093.60
596.57	4028.06
596.73	4039.76
596.88	4063.17
597.04	4079.55
597.20	4077.21
597.36	4053.81
597.51	4117.00
597.67	3988.27
597.83	4161.47
597.99	3981.25
