SpectraSuite Data File
++++++++++++++++++++++++++++++++++++
Date: Mon Oct 07 14:53:07 GMT-05:00 2013
User: price-jones
Dark Spectrum Present: No
Reference Spectrum Present: No
Number of Sampled Component Spectra: 1
Spectrometers: USB2+H05261
Integration Time (usec): 100000 (USB2+H05261)
Spectra Averaged: 1 (USB2+H05261)
Boxcar Smoothing: 0 (USB2+H05261)
Correct for Electrical Dark: No (USB2+H05261)
Strobe/Lamp Enabled: No (USB2+H05261)
Correct for Detector Non-linearity: No (USB2+H05261)
Correct for Stray Light: No (USB2+H05261)
Number of Pixels in Processed Spectrum: 2048
>>>>>Begin Processed Spectral Data<<<<<
365.73	0.00
365.92	0.00
366.12	0.00
366.32	0.00
366.52	0.00
366.72	0.00
366.91	0.00
367.11	0.00
367.31	0.00
367.51	0.00
367.70	0.00
367.90	0.00
368.10	0.00
368.30	0.00
368.49	0.00
368.69	0.00
368.89	0.00
369.09	0.00
369.28	0.00
369.48	0.00
369.68	0.00
369.87	0.00
370.07	0.00
370.27	0.00
370.47	610.88
370.66	2991.20
370.86	3454.63
371.06	3882.95
371.25	3817.41
371.45	3433.57
371.65	3119.93
371.84	2850.77
372.04	3070.78
372.24	3337.60
372.44	3679.32
372.63	3566.98
372.83	3398.46
373.03	3000.57
373.22	2672.89
373.42	2841.41
373.62	3255.69
373.81	3590.38
374.01	3508.46
374.21	3225.26
374.40	2981.84
374.60	3129.30
374.79	3501.44
374.99	4032.74
375.19	4468.08
375.38	4397.87
375.58	4049.13
375.78	4135.73
375.97	4114.66
376.17	4386.16
376.37	4306.59
376.56	4346.37
376.76	4573.41
376.95	4809.80
377.15	5186.63
377.35	5427.70
377.54	5671.12
377.74	5984.75
377.93	5963.68
378.13	5589.20
378.33	5366.85
378.52	5034.49
378.72	4765.33
378.91	4748.95
379.11	4620.22
379.31	4395.53
379.50	4418.93
379.70	4713.84
379.89	5287.27
380.09	5455.79
380.28	5710.91
380.48	5724.95
380.68	5652.39
380.87	5521.32
381.07	5167.90
381.26	4746.61
381.46	4400.21
381.65	4182.54
381.85	4166.15
382.04	4035.08
382.24	4007.00
382.43	3623.15
382.63	3552.93
382.83	3499.10
383.02	3478.04
383.22	3482.72
383.41	3447.61
383.61	3688.68
383.80	4283.18
384.00	4765.33
384.19	5430.04
384.39	5582.18
384.58	5680.48
384.78	5610.26
384.97	5455.79
385.17	5212.37
385.36	4807.46
385.56	4723.20
385.75	5088.32
385.95	5338.76
386.14	5888.79
386.34	5816.23
386.53	5675.80
386.72	5259.18
386.92	5521.32
387.11	5568.13
387.31	6029.22
387.50	5638.35
387.70	5799.85
387.89	5434.72
388.09	5514.30
388.28	5593.88
388.48	5811.55
388.67	6064.33
388.86	6700.95
389.06	7119.91
389.25	7599.72
389.45	7620.78
389.64	7599.72
389.84	7459.29
390.03	7494.40
390.22	7171.40
390.42	7506.10
390.61	8046.76
390.81	8645.94
391.00	9050.85
391.19	9067.24
391.39	8580.40
391.58	8109.96
391.78	7384.39
391.97	7241.62
392.16	6841.39
392.36	6134.54
392.55	4931.51
392.75	3990.61
392.94	3286.11
393.13	3229.94
393.33	3861.88
393.52	4915.12
393.71	6099.44
393.91	6757.13
394.10	7236.94
394.29	7922.71
394.49	8760.63
394.68	9432.36
394.88	9390.23
395.07	9453.42
395.26	9577.47
395.46	8952.55
395.65	8692.75
395.84	7648.87
396.04	6356.90
396.23	5210.03
396.42	4205.94
396.62	4306.59
396.81	5081.30
397.00	6324.13
397.19	7978.89
397.39	9298.95
397.58	10263.25
397.77	11173.72
397.97	11997.59
398.16	11761.19
398.35	12135.68
398.55	12505.48
398.74	12975.93
398.93	13345.73
399.12	13114.02
399.32	12461.01
399.51	12863.58
399.70	13743.63
399.90	13516.59
400.09	13851.29
400.28	13465.10
400.47	13748.31
400.67	14345.14
400.86	14682.18
401.05	14682.18
401.24	14766.44
401.44	14890.49
401.63	14881.13
401.82	15384.34
402.01	15082.41
402.21	15204.12
402.40	15016.88
402.59	15007.52
402.78	14113.43
402.97	13877.04
403.17	14354.51
403.36	15066.03
403.55	15913.30
403.74	15688.61
403.93	15183.06
404.13	14218.75
404.32	13778.73
404.51	14270.25
404.70	15482.64
404.89	15697.97
405.09	15206.46
405.28	14799.21
405.47	14988.79
405.66	15016.88
405.85	14450.47
406.05	13949.59
406.24	14338.12
406.43	15133.90
406.62	15548.18
406.81	15609.03
407.00	15080.07
407.20	14658.78
407.39	14731.33
407.58	15431.15
407.77	15840.75
407.96	16776.96
408.15	16671.64
408.34	16840.15
408.54	17731.90
408.73	17582.10
408.92	17432.31
409.11	16905.69
409.30	16147.36
409.49	15047.30
409.68	14148.54
409.87	13804.48
410.07	14581.54
410.26	15878.19
410.45	16788.66
410.64	17296.56
410.83	17916.80
411.02	18108.72
411.21	18684.50
411.40	18209.37
411.59	18513.64
411.78	18466.83
411.98	18286.61
412.17	18597.90
412.36	18347.46
412.55	18279.58
412.74	17832.54
412.93	17675.73
413.12	17982.34
413.31	19330.48
413.50	19838.38
413.69	19927.32
413.88	18998.13
414.07	18508.96
414.26	18883.44
414.45	19632.41
414.64	19564.54
414.83	19953.07
415.02	19243.88
415.22	19454.53
415.41	19672.20
415.60	20449.26
415.79	20781.62
415.98	21406.54
416.17	21741.24
416.36	20900.98
416.55	20830.77
416.74	20077.12
416.93	19290.70
417.12	19768.16
417.31	19494.32
417.50	20084.14
417.69	20704.38
417.88	20748.85
418.07	20271.38
418.26	19997.54
418.45	20379.04
418.64	21483.78
418.83	21603.14
419.02	21523.57
419.21	21460.37
419.39	20112.22
419.58	19508.37
419.77	19419.42
419.96	20704.38
420.15	21530.59
420.34	22288.92
420.53	23021.51
420.72	23285.99
420.91	23166.62
421.10	22808.52
421.29	22806.18
421.48	22061.89
421.67	23288.33
421.86	22403.61
422.05	20673.95
422.24	18614.28
422.43	18450.44
422.61	20439.90
422.80	22555.74
422.99	22099.34
423.18	21263.77
423.37	20556.93
423.56	21008.65
423.75	21376.11
423.94	21869.97
424.13	20798.00
424.32	20889.28
424.50	20840.13
424.69	20893.96
424.88	20561.61
425.07	20470.33
425.26	20603.74
425.45	20311.17
425.64	19866.47
425.83	20128.61
426.01	21401.86
426.20	21715.49
426.39	21481.44
426.58	20004.56
426.77	18501.93
426.96	18001.06
427.15	18651.73
427.33	20002.22
427.52	20678.63
427.71	21130.36
427.90	20926.73
428.09	20442.24
428.28	19985.83
428.46	19367.93
428.65	19040.26
428.84	19826.68
429.03	19992.86
429.22	18934.93
429.40	18064.25
429.59	16238.64
429.78	14377.91
429.97	14291.31
430.16	14586.22
430.34	14855.38
430.53	14422.38
430.72	14895.17
430.91	16582.70
431.10	19681.56
431.28	23000.44
431.47	24896.28
431.66	24812.02
431.85	22752.35
432.03	20826.09
432.22	19964.77
432.41	21277.81
432.60	22817.88
432.79	24346.25
432.97	24884.58
433.16	24238.59
433.35	21867.63
433.54	19499.00
433.72	18712.58
433.91	19531.77
434.10	21481.44
434.28	23260.24
434.47	24170.71
434.66	24039.64
434.85	23271.95
435.03	23197.05
435.22	23733.03
435.41	25200.55
435.59	25095.22
435.78	25422.90
435.97	26221.02
436.16	26532.31
436.34	25633.55
436.53	25120.97
436.72	25516.52
436.90	24182.42
437.09	23648.77
437.28	23431.10
437.46	24463.28
437.65	24327.53
437.84	22651.70
438.02	20627.14
438.21	20929.07
438.40	22164.87
438.58	23875.80
438.77	24416.47
438.96	24910.32
439.14	25930.80
439.33	26434.01
439.52	27042.55
439.70	26113.36
439.89	25647.59
440.08	24669.25
440.26	24540.52
440.45	25942.50
440.63	27227.45
440.82	28690.29
441.01	28318.14
441.19	28184.73
441.38	28631.77
441.57	29598.41
441.75	30078.22
441.94	29865.24
442.12	29921.41
442.31	30553.35
442.50	30469.09
442.68	30026.73
442.87	29769.27
443.05	29142.01
443.24	30075.88
443.43	30820.17
443.61	30958.27
443.80	31442.76
443.98	29893.32
444.17	29652.25
444.35	30976.99
444.54	31529.36
444.73	30962.95
444.91	30143.76
445.10	28910.30
445.28	28041.96
445.47	27440.44
445.65	27569.17
445.84	28474.96
446.02	29294.14
446.21	29497.77
446.39	29933.11
446.58	30047.80
446.77	30675.06
446.95	31206.36
447.14	31632.34
447.32	32194.07
447.51	31393.61
447.69	29986.94
447.88	30164.82
448.06	30813.15
448.25	31417.01
448.43	31346.79
448.62	30644.63
448.80	30871.67
448.99	30796.77
449.17	31374.88
449.36	31377.22
449.54	32222.16
449.73	32886.87
449.91	33097.52
450.10	34307.57
450.28	34565.03
450.46	34457.37
450.65	34178.84
450.83	34094.58
451.02	33397.10
451.20	32985.17
451.39	33214.54
451.57	32737.07
451.76	33017.94
451.94	33090.49
452.13	32072.36
452.31	30536.97
452.49	29202.86
452.68	29949.50
452.86	29495.43
453.05	30499.52
453.23	31101.04
453.42	31793.84
453.60	32505.36
453.78	33242.63
453.97	32723.03
454.15	32521.74
454.34	31789.16
454.52	32383.65
454.70	31445.10
454.89	31899.16
455.07	31599.57
455.26	32425.78
455.44	33654.56
455.62	34197.57
455.81	34103.95
455.99	34586.10
456.17	33792.65
456.36	33649.88
456.54	34808.45
456.73	34541.63
456.91	35339.75
457.09	35564.44
457.28	35679.13
457.46	34487.79
457.64	34815.47
457.83	33184.12
458.01	32458.55
458.19	33567.96
458.38	33762.23
458.56	34806.11
458.74	34572.05
458.93	33900.32
459.11	33963.51
459.29	33710.74
459.48	33963.51
459.66	33600.73
459.84	34293.53
460.03	35042.50
460.21	34492.47
460.39	35669.76
460.57	35864.03
460.76	35981.06
460.94	36058.29
461.12	35552.74
461.31	35700.19
461.49	35330.39
461.67	35276.55
461.85	36615.34
462.04	36521.72
462.22	36886.84
462.40	36474.91
462.59	36226.81
462.77	36409.37
462.95	36077.02
463.13	35732.96
463.32	35526.99
463.50	35779.77
463.68	35351.45
463.86	35620.61
464.05	34878.66
464.23	34380.13
464.41	34417.58
464.59	33806.70
464.78	35789.13
464.96	34946.54
465.14	34663.33
465.32	35732.96
465.50	36325.11
465.69	36978.12
465.87	36247.88
466.05	35412.31
466.23	33420.51
466.41	33202.84
466.60	34036.07
466.78	33865.21
466.96	34607.16
467.14	34763.98
467.32	35543.38
467.51	35730.62
467.69	34110.97
467.87	34881.00
468.05	35377.20
468.23	35412.31
468.41	35353.79
468.60	35798.49
468.78	35442.73
468.96	34815.47
469.14	35964.67
469.32	36416.40
469.50	34745.25
469.69	34616.52
469.87	34384.81
470.05	34684.40
470.23	34267.78
470.41	34518.22
470.59	34981.65
470.77	35407.62
470.95	35601.89
471.14	35695.51
471.32	36589.59
471.50	37727.10
471.68	38359.04
471.86	38539.26
472.04	38520.54
472.22	38593.09
472.40	36720.66
472.58	36196.38
472.77	36493.63
472.95	37338.57
473.13	37944.76
473.31	36605.98
473.49	37689.65
473.67	38352.02
473.85	38314.57
474.03	39372.49
474.21	39541.01
474.39	39966.99
474.57	39896.77
474.75	40018.48
474.93	39702.51
475.12	38506.49
475.30	38785.02
475.48	38590.75
475.66	39538.67
475.84	38686.71
476.02	38438.62
476.20	37734.12
476.38	39044.82
476.56	40297.00
476.74	40727.66
476.92	40966.40
477.10	40914.90
477.28	42462.00
477.46	42305.18
477.64	42710.10
477.82	42969.90
478.00	43236.72
478.18	42239.65
478.36	42281.78
478.54	42249.01
478.72	42614.13
478.90	43716.53
479.08	44980.42
479.26	45228.51
479.44	45055.31
479.62	44460.82
479.80	44699.55
479.98	45134.89
480.16	45553.85
480.34	44765.09
480.52	45198.09
480.70	45574.91
480.88	45560.87
481.06	46569.64
481.24	46525.17
481.41	48095.67
481.59	48329.72
481.77	48023.11
481.95	47281.16
482.13	46944.12
482.31	47122.01
482.49	48093.33
482.67	47793.74
482.85	48168.22
483.03	48486.54
483.21	48706.55
483.39	48877.41
483.57	48107.37
483.74	47943.53
483.92	48161.20
484.10	48275.89
484.28	49422.75
484.46	49638.08
484.64	49993.84
484.82	49572.55
485.00	48690.16
485.18	47943.53
485.35	46637.51
485.53	43400.55
485.71	40004.44
485.89	39817.19
486.07	41525.78
486.25	45027.23
486.43	46946.47
486.61	47988.00
486.78	47779.70
486.96	47819.49
487.14	49736.38
487.32	50368.33
487.50	51379.44
487.68	52013.73
487.85	52168.20
488.03	52722.91
488.21	52032.45
488.39	51648.60
488.57	50824.73
488.75	50307.47
488.92	51444.98
489.10	53783.17
489.28	54714.70
489.46	55524.53
489.64	55276.43
489.81	55475.38
489.99	54869.18
490.17	55042.38
490.35	55515.17
490.53	54852.80
490.70	54852.80
490.88	54401.07
491.06	55657.94
491.24	55543.25
491.41	54478.31
491.59	52861.00
491.77	52378.85
491.95	53514.01
492.13	54578.95
492.30	55475.38
492.48	56535.64
492.66	56872.68
492.84	56694.80
493.01	56657.35
493.19	56030.08
493.37	55688.37
493.54	55571.34
493.72	56275.84
493.90	57034.17
494.08	57755.06
494.25	58138.91
494.43	58202.10
494.61	58525.10
494.79	58560.20
494.96	58445.52
495.14	57778.46
495.32	57097.37
495.49	56343.72
495.67	57574.84
495.85	58733.40
496.02	59000.22
496.20	58908.94
496.38	58569.57
496.55	58159.97
496.73	58595.31
496.91	58721.70
497.09	59374.71
497.26	59454.29
497.44	59016.61
497.62	58695.95
497.79	57865.06
497.97	56837.57
498.14	56809.48
498.32	58124.86
498.50	58878.52
498.67	59353.65
498.85	59168.74
499.03	59344.28
499.20	59620.47
499.38	59655.57
499.56	59325.56
499.73	58754.47
499.91	58438.50
500.08	58075.71
500.26	57645.05
500.44	58035.92
500.61	58848.09
500.79	58614.04
500.97	58047.63
501.14	58033.58
501.32	57853.36
501.49	57946.98
501.67	58012.52
501.84	58394.03
502.02	58766.17
502.20	59199.17
502.37	59435.56
502.55	59253.00
502.72	59739.83
502.90	60481.78
503.07	59915.37
503.25	59522.16
503.43	58810.64
503.60	57937.62
503.78	57654.42
503.95	58012.52
504.13	59238.96
504.30	59987.93
504.48	59831.11
504.65	59695.36
504.83	59561.95
505.01	60182.19
505.18	60519.23
505.36	61155.86
505.53	61052.87
505.71	61322.04
505.88	61123.09
506.06	60718.18
506.23	60444.33
506.41	60065.17
506.58	60362.42
506.76	60212.62
506.93	60245.39
507.11	60144.75
507.28	60189.22
507.46	59693.02
507.63	59405.14
507.81	59056.40
507.98	59309.18
508.16	60011.34
508.33	60247.73
508.50	60767.33
508.68	60947.55
508.85	61286.93
509.03	61359.48
509.20	61336.08
509.38	60654.98
509.55	59840.48
509.73	60266.45
509.90	60519.23
510.08	60783.71
510.25	60776.69
510.42	60542.64
510.60	60605.83
510.77	60879.67
510.95	61134.79
511.12	61279.91
511.30	61818.23
511.47	61773.76
511.64	61860.36
511.82	61497.58
511.99	60720.52
512.17	60486.46
512.34	60168.15
512.51	60207.94
512.69	60434.97
512.86	60463.06
513.04	60849.25
513.21	60891.38
513.38	60467.74
513.56	60037.08
513.73	59552.59
513.90	59611.10
514.08	59784.30
514.25	60046.44
514.43	60233.69
514.60	60322.63
514.77	60439.65
514.95	60610.51
515.12	60612.85
515.29	60685.41
515.47	61095.00
515.64	61293.95
515.81	60917.12
515.99	60392.84
516.16	59178.10
516.33	56816.50
516.51	55833.48
516.68	54951.10
516.85	54784.92
517.03	55208.56
517.20	57607.61
517.37	59929.42
517.54	60708.82
517.72	60149.43
517.89	58075.71
518.06	55955.19
518.24	56399.89
518.41	58159.97
518.58	59243.64
518.75	59540.89
518.93	59475.35
519.10	59550.25
519.27	60090.91
519.45	60196.24
519.62	60690.09
519.79	60987.34
519.96	60945.21
520.14	60594.13
520.31	59758.56
520.48	59987.93
520.65	60102.62
520.83	61064.58
521.00	61319.70
521.17	61034.15
521.34	60715.84
521.52	61123.09
521.69	61488.21
521.86	61825.25
522.03	61542.05
522.20	60516.89
522.38	59615.79
522.55	59508.12
522.72	59964.52
522.89	60287.52
523.07	60582.43
523.24	60825.84
523.41	61563.11
523.58	61703.54
523.75	62314.42
523.92	62080.37
524.10	61881.42
524.27	61829.93
524.44	61939.94
524.61	61715.25
524.78	61684.82
524.96	61441.40
525.13	61455.45
525.30	61836.95
525.47	62199.74
525.64	61902.49
525.81	61300.97
525.98	60013.68
526.16	58773.19
526.33	58307.43
526.50	57855.70
526.67	57595.90
526.84	58403.39
527.01	58883.20
527.18	59716.43
527.36	60690.09
527.53	61488.21
527.70	61535.02
527.87	60860.95
528.04	60640.94
528.21	61113.73
528.38	61736.31
528.55	62239.53
528.72	62450.17
528.89	62571.88
529.07	62312.08
529.24	61661.41
529.41	61226.07
529.58	60832.86
529.75	60750.94
529.92	61169.90
530.09	61565.45
530.26	62024.20
530.43	62401.02
530.60	62426.77
530.77	62623.37
530.94	62724.02
531.11	62038.24
531.28	61865.04
531.46	61827.59
531.63	61883.76
531.80	61787.80
531.97	61256.50
532.14	60657.32
532.31	59742.17
532.48	59077.46
532.65	59341.94
532.82	60315.61
532.99	60952.23
533.16	61216.71
533.33	61890.79
533.50	61506.94
533.67	61041.17
533.84	60683.07
534.01	61176.92
534.18	61146.50
534.35	61167.56
534.52	61059.90
534.69	61478.85
534.86	61513.96
535.03	61886.10
535.20	62155.27
535.37	62621.03
535.54	62452.51
535.71	62241.87
535.88	61909.51
536.05	61293.95
536.22	60970.96
536.38	60828.18
536.55	60205.60
536.72	59945.80
536.89	60076.87
537.06	60713.50
537.23	61436.72
537.40	61532.68
537.57	61778.44
537.74	61366.51
537.91	61455.45
538.08	61315.01
538.25	61366.51
538.42	61528.00
538.59	61326.72
538.75	60568.38
538.92	60755.63
539.09	60329.65
539.26	60399.86
539.43	60093.25
539.60	60219.64
539.77	60348.37
539.94	60367.10
540.11	59477.69
540.28	59058.74
540.44	59245.98
540.61	59412.16
540.78	59557.27
540.95	60214.96
541.12	60371.78
541.29	60617.53
541.46	60867.97
541.62	61027.13
541.79	60811.80
541.96	60109.64
542.13	60285.18
542.30	60432.63
542.47	60722.86
542.63	60528.59
542.80	60334.33
542.97	60640.94
543.14	60261.77
543.31	60402.21
543.48	60858.61
543.64	61485.87
543.81	61773.76
543.98	61567.79
544.15	60807.12
544.32	60596.47
544.48	60514.55
544.65	61055.21
544.82	61296.29
544.99	60858.61
545.16	60505.19
545.32	60268.79
545.49	61162.88
545.66	61354.80
545.83	60945.21
546.00	60507.53
546.16	60533.28
546.33	60577.75
546.50	60577.75
546.67	61240.12
546.83	60687.75
547.00	60697.11
547.17	59941.12
547.34	59573.66
547.50	59597.06
547.67	59980.91
547.84	59814.73
548.00	60327.31
548.17	60568.38
548.34	60573.06
548.51	60659.66
548.67	60697.11
548.84	60746.26
549.01	60570.72
549.18	60301.56
549.34	60587.11
549.51	60477.10
549.68	60437.31
549.84	60294.54
550.01	60221.98
550.18	60219.64
550.34	60069.85
550.51	60322.63
550.68	60317.95
550.84	59838.14
551.01	59943.46
551.18	59870.90
551.34	59882.61
551.51	60257.09
551.68	60622.22
551.84	60561.36
552.01	60582.43
552.18	60364.76
552.34	59697.70
552.51	59180.45
552.68	59180.45
552.84	59861.54
553.01	59767.92
553.18	59746.86
553.34	59936.44
553.51	60154.11
553.67	60189.22
553.84	60348.37
554.01	60301.56
554.17	60119.00
554.34	60219.64
554.51	60285.18
554.67	60750.94
554.84	60392.84
555.00	60044.10
555.17	59894.31
555.33	59896.65
555.50	59903.67
555.67	59788.98
555.83	59690.68
556.00	59512.80
556.16	59480.03
556.33	59058.74
556.50	58876.18
556.66	59131.29
556.83	58665.53
556.99	59061.08
557.16	58937.03
557.32	59344.28
557.49	59730.47
557.65	59501.10
557.82	59302.15
557.98	59316.20
558.15	58536.80
558.32	58223.17
558.48	57364.19
558.65	57591.22
558.81	57851.02
558.98	58026.56
559.14	58379.98
559.31	58426.79
559.47	58543.82
559.64	58122.52
559.80	57829.96
559.97	58042.95
560.13	58265.30
560.30	59107.89
560.46	59643.87
560.63	59924.74
560.79	59796.01
560.96	59320.88
561.12	58321.47
561.29	57502.28
561.45	57797.19
561.61	58202.10
561.78	58702.98
561.94	58426.79
562.11	58305.09
562.27	58248.91
562.44	58550.84
562.60	58817.66
562.77	59016.61
562.93	58834.05
563.10	58717.02
563.26	58525.10
563.42	58532.12
563.59	58220.83
563.75	58230.19
563.92	58368.28
564.08	58272.32
564.24	58494.67
564.41	58466.58
564.57	58447.86
564.74	58183.38
564.90	58183.38
565.07	58101.46
565.23	57659.10
565.39	57387.60
565.56	56970.98
565.72	56706.50
565.88	57336.10
566.05	57176.95
566.21	57602.92
566.38	57551.43
566.54	57602.92
566.70	57970.39
566.87	58344.87
567.03	58000.82
567.19	58307.43
567.36	58127.20
567.52	58234.87
567.68	57743.36
567.85	57195.67
568.01	57024.81
568.17	56521.60
568.34	56556.70
568.50	56610.54
568.66	56823.53
568.83	56961.62
568.99	56919.49
569.15	57284.61
569.32	57190.99
569.48	56832.89
569.64	56851.61
569.81	56502.87
569.97	56395.21
570.13	56247.75
570.30	55891.99
570.46	55711.77
570.62	55049.40
570.78	55051.74
570.95	55416.86
571.11	55920.08
571.27	56137.75
571.43	56381.16
571.60	56926.51
571.76	56622.24
571.92	57013.11
572.09	57031.83
572.25	57031.83
572.41	57083.33
572.57	56940.55
572.74	57008.43
572.90	56601.18
573.06	56537.98
573.22	56589.47
573.38	56718.20
573.55	56765.01
573.71	56760.33
573.87	56835.23
574.03	56399.89
574.20	56591.81
574.36	56030.08
574.52	56100.30
574.68	56002.00
574.84	55512.83
575.01	55159.41
575.17	54873.86
575.33	55533.89
575.49	55681.34
575.65	55819.44
575.82	55517.51
575.98	55416.86
576.14	55664.96
576.30	55770.28
576.46	56004.34
576.62	55686.03
576.79	55854.54
576.95	55679.00
577.11	55522.19
577.27	55772.63
577.43	55721.13
577.59	55208.56
577.75	54761.51
577.92	54223.19
578.08	54035.95
578.24	54127.23
578.40	54459.58
578.56	54735.77
578.72	54775.56
578.88	54831.73
579.04	55143.02
579.21	55283.45
579.37	55011.95
579.53	55262.39
579.69	55133.66
579.85	55660.28
580.01	55398.14
580.17	55056.42
580.33	54883.22
580.49	54965.14
580.65	55358.35
580.82	55152.38
580.98	55084.51
581.14	55042.38
581.30	55224.94
581.46	54988.55
581.62	55363.03
581.78	55143.02
581.94	55098.55
582.10	55622.83
582.26	55522.19
582.42	55381.76
582.58	55281.11
582.74	55414.52
582.90	55618.15
583.06	55391.12
583.22	55327.92
583.38	55124.30
583.54	55187.49
583.70	54899.61
583.86	55323.24
584.02	55040.04
584.18	54990.89
584.34	55051.74
584.50	54913.65
584.66	54892.58
584.82	54574.27
584.98	54361.28
585.14	53804.24
585.30	53361.87
