SpectraSuite Data File
++++++++++++++++++++++++++++++++++++
Date: Mon Oct 07 14:53:38 GMT-05:00 2013
User: price-jones
Dark Spectrum Present: No
Reference Spectrum Present: No
Number of Sampled Component Spectra: 1
Spectrometers: USB2+H05261
Integration Time (usec): 100000 (USB2+H05261)
Spectra Averaged: 1 (USB2+H05261)
Boxcar Smoothing: 0 (USB2+H05261)
Correct for Electrical Dark: No (USB2+H05261)
Strobe/Lamp Enabled: No (USB2+H05261)
Correct for Detector Non-linearity: No (USB2+H05261)
Correct for Stray Light: No (USB2+H05261)
Number of Pixels in Processed Spectrum: 2048
>>>>>Begin Processed Spectral Data<<<<<
365.73	0.00
365.92	0.00
366.12	0.00
366.32	0.00
366.52	0.00
366.72	0.00
366.91	0.00
367.11	0.00
367.31	0.00
367.51	0.00
367.70	0.00
367.90	0.00
368.10	0.00
368.30	0.00
368.49	0.00
368.69	0.00
368.89	0.00
369.09	0.00
369.28	0.00
369.48	0.00
369.68	0.00
369.87	0.00
370.07	0.00
370.27	0.00
370.47	458.74
370.66	2602.68
370.86	3066.10
371.06	3384.41
371.25	3288.45
371.45	3169.09
371.65	2808.64
371.84	2597.99
372.04	2600.34
372.24	3059.08
372.44	3262.71
372.63	3281.43
372.83	3030.99
373.03	2616.72
373.22	2420.11
373.42	2516.08
373.62	2930.35
373.81	3192.49
374.01	3047.38
374.21	2855.45
374.40	2740.77
374.60	2897.58
374.79	3129.30
374.99	3669.96
375.19	3915.72
375.38	4091.26
375.58	3611.45
375.78	3674.64
375.97	3674.64
376.17	3763.58
376.37	3833.80
376.56	4009.34
376.76	4091.26
376.95	4496.17
377.15	4786.40
377.35	5043.85
377.54	5121.09
377.74	5310.68
377.93	5214.71
378.13	5060.24
378.33	4952.57
378.52	4528.94
378.72	4337.01
378.91	4264.46
379.11	4051.47
379.31	4007.00
379.50	3997.64
379.70	4219.99
379.89	4814.48
380.09	4865.97
380.28	5345.78
380.48	5121.09
380.68	5102.37
380.87	5008.75
381.07	4725.54
381.26	4383.82
381.46	4016.36
381.65	3779.97
381.85	3850.18
382.04	3571.66
382.24	3400.80
382.43	3148.02
382.63	3016.95
382.83	3070.78
383.02	3129.30
383.22	3229.94
383.41	3133.98
383.61	3382.07
383.80	3838.48
384.00	4299.56
384.19	4966.62
384.39	5170.24
384.58	5151.52
384.78	5219.39
384.97	5097.69
385.17	4858.95
385.36	4472.76
385.56	4255.09
385.75	4393.19
385.95	4887.04
386.14	5334.08
386.34	5294.29
386.53	5064.92
386.72	4877.68
386.92	4821.50
387.11	4994.70
387.31	5366.85
387.50	5207.69
387.70	5048.54
387.89	4973.64
388.09	5069.60
388.28	5057.90
388.48	4968.96
388.67	5558.77
388.86	6171.99
389.06	6487.96
389.25	6895.22
389.45	6881.18
389.64	6832.02
389.84	6768.83
390.03	6759.47
390.22	6801.60
390.42	6993.52
390.61	7487.37
390.81	7843.14
391.00	8053.78
391.19	8121.66
391.39	7871.22
391.58	7375.03
391.78	6803.94
391.97	6747.76
392.16	6230.51
392.36	5572.82
392.55	4709.16
392.75	3740.18
392.94	2960.78
393.13	3019.29
393.33	3442.93
393.52	4365.10
393.71	5399.62
393.91	6052.63
394.10	6569.88
394.29	7262.68
394.49	7672.28
394.68	8477.42
394.88	8423.59
395.07	8650.62
395.26	8690.41
395.46	8517.21
395.65	7997.61
395.84	7148.00
396.04	5933.26
396.23	4884.70
396.42	3882.95
396.62	3744.86
396.81	4449.36
397.00	5647.71
397.19	7204.17
397.39	8535.93
397.58	9666.41
397.77	10106.43
397.97	10530.07
398.16	10682.20
398.35	11112.86
398.55	11328.19
398.74	11896.94
398.93	12358.03
399.12	11920.35
399.32	11456.92
399.51	11653.53
399.70	12720.81
399.90	12453.99
400.09	12449.31
400.28	12482.08
400.47	12472.71
400.67	13123.38
400.86	13605.53
401.05	13144.45
401.24	13359.78
401.44	13586.81
401.63	13596.17
401.82	13891.08
402.01	13703.84
402.21	14059.60
402.40	13895.76
402.59	13507.23
402.78	13099.98
402.97	12648.26
403.17	12933.80
403.36	13928.53
403.55	14258.54
403.74	14747.72
403.93	13970.66
404.13	12980.61
404.32	12390.80
404.51	13177.22
404.70	14204.71
404.89	14157.90
405.09	13942.57
405.28	13706.18
405.47	13532.98
405.66	13584.47
405.85	13319.99
406.05	12823.80
406.24	13062.53
406.43	13497.87
406.62	14073.64
406.81	14143.86
407.00	13682.77
407.20	13362.12
407.39	13469.78
407.58	14146.20
407.77	14628.35
407.96	15218.16
408.15	15239.23
408.34	15328.17
408.54	15969.48
408.73	16173.10
408.92	15772.87
409.11	15611.37
409.30	14759.42
409.49	14031.51
409.68	12709.11
409.87	12468.03
410.07	13331.69
410.26	14459.83
410.45	15194.76
410.64	15506.05
410.83	16271.40
411.02	16311.19
411.21	16938.46
411.40	17071.87
411.59	17081.23
411.78	16961.86
411.98	16854.20
412.17	17224.00
412.36	16517.16
412.55	17057.82
412.74	16505.46
412.93	15922.66
413.12	16093.52
413.31	17825.52
413.50	17788.07
413.69	18178.94
413.88	17322.30
414.07	17153.79
414.26	17317.62
414.45	17874.67
414.64	17902.76
414.83	17834.88
415.02	17561.04
415.22	17710.83
415.41	18380.23
415.60	18672.79
415.79	19356.23
415.98	19721.35
416.17	19599.65
416.36	19325.80
416.55	19061.32
416.74	18169.58
416.93	17785.73
417.12	17734.24
417.31	18012.76
417.50	18164.90
417.69	19152.60
417.88	19044.94
418.07	18539.38
418.26	18326.39
418.45	18691.52
418.64	19248.57
418.83	19662.84
419.02	19552.84
419.21	19309.42
419.39	18614.28
419.58	17528.27
419.77	17633.60
419.96	18682.16
420.15	19697.95
420.34	20287.76
420.53	20781.62
420.72	21495.48
420.91	21188.87
421.10	20917.37
421.29	20659.91
421.48	20088.82
421.67	21029.71
421.86	20189.46
422.05	18972.38
422.24	16989.95
422.43	16854.20
422.61	18836.63
422.80	20390.75
422.99	20084.14
423.18	19728.38
423.37	19323.46
423.56	18911.53
423.75	19618.37
423.94	19737.74
424.13	18675.13
424.32	19075.37
424.50	19075.37
424.69	18836.63
424.88	19040.26
425.07	18665.77
425.26	19096.43
425.45	18445.76
425.64	18195.32
425.83	18373.21
426.01	19073.03
426.20	19646.46
426.39	19714.33
426.58	18347.46
426.77	16982.93
426.96	16290.13
427.15	16982.93
427.33	18441.08
427.52	18855.36
427.71	18815.57
427.90	18822.59
428.09	18913.87
428.28	18560.45
428.46	17858.29
428.65	17558.70
428.84	17869.99
429.03	18066.60
429.22	17216.98
429.40	16624.83
429.59	15042.62
429.78	13078.91
429.97	13181.90
430.16	13331.69
430.34	13284.88
430.53	13404.25
430.72	13411.27
430.91	15035.60
431.10	17591.47
431.28	20720.76
431.47	22569.79
431.66	22953.63
431.85	20823.75
432.03	19449.85
432.22	18370.86
432.41	18965.36
432.60	21060.14
432.79	22115.72
432.97	22450.42
433.16	22312.33
433.35	20215.21
433.54	18111.07
433.72	17097.61
433.91	17228.68
434.10	19431.13
434.28	21231.00
434.47	21921.46
434.66	21715.49
434.85	21357.39
435.03	20961.84
435.22	21542.29
435.41	23040.23
435.59	22735.96
435.78	23145.56
435.97	24334.55
436.16	23854.74
436.34	23501.32
436.53	23016.83
436.72	23061.30
436.90	21970.61
437.09	21968.27
437.28	21420.58
437.46	22216.36
437.65	22478.50
437.84	20940.77
438.02	18984.09
438.21	18700.88
438.40	19964.77
438.58	21610.17
438.77	22115.72
438.96	22691.49
439.14	23426.42
439.33	23936.66
439.52	24524.13
439.70	24030.28
439.89	23339.82
440.08	22724.26
440.26	22539.36
440.45	23019.17
440.63	24732.44
440.82	26483.16
441.01	26106.34
441.19	25436.94
441.38	26040.80
441.57	26773.39
441.75	27489.59
441.94	27641.73
442.12	27143.19
442.31	28346.23
442.50	27618.32
442.68	27328.10
442.87	26892.76
443.05	26436.35
443.24	26831.90
443.43	27529.38
443.61	28074.73
443.80	28858.81
443.98	27019.14
444.17	27108.08
444.35	28744.12
444.54	28989.88
444.73	28481.98
444.91	27175.96
445.10	26295.92
445.28	25362.04
445.47	24783.93
445.65	24898.62
445.84	25621.84
446.02	26506.57
446.21	26944.25
446.39	26937.23
446.58	27494.27
446.77	27714.28
446.95	27899.19
447.14	29029.66
447.32	29291.80
447.51	28950.09
447.69	27775.14
447.88	27314.05
448.06	27449.80
448.25	28077.07
448.43	28519.43
448.62	27784.50
448.80	27969.40
448.99	27868.76
449.17	28425.81
449.36	28236.22
449.54	29347.98
449.73	30066.52
449.91	30134.40
450.10	31051.89
450.28	31424.03
450.46	31171.25
450.65	31044.87
450.83	30642.29
451.02	30380.15
451.20	30185.89
451.39	30029.07
451.57	29947.15
451.76	30340.36
451.94	29567.99
452.13	29230.95
452.31	27725.99
452.49	26501.89
452.68	27002.76
452.86	26923.18
453.05	27505.98
453.23	28208.14
453.42	28671.56
453.60	29385.43
453.78	30061.84
453.97	29668.63
454.15	29359.68
454.34	29151.37
454.52	29034.35
454.70	28591.98
454.89	28819.02
455.07	29088.18
455.26	29551.60
455.44	30235.04
455.62	30972.31
455.81	31314.03
455.99	30925.50
456.17	30471.43
456.36	30408.24
456.54	31328.07
456.73	31349.14
456.91	32041.93
457.09	32147.26
457.28	32816.65
457.46	31620.64
457.64	31269.56
457.83	30738.26
458.01	29804.38
458.19	30373.13
458.38	30813.15
458.56	31491.91
458.74	31669.79
458.93	30967.63
459.11	30876.35
459.29	30335.68
459.48	30913.80
459.66	30457.39
459.84	30913.80
460.03	31295.30
460.21	31782.13
460.39	32458.55
460.57	31899.16
460.76	32561.53
460.94	32645.79
461.12	32268.97
461.31	32163.64
461.49	32088.74
461.67	32486.64
461.85	33488.38
462.04	33064.75
462.22	33811.38
462.40	33043.68
462.59	33067.09
462.77	33163.05
462.95	32622.39
463.13	32823.67
463.32	32507.70
463.50	32053.64
463.68	32027.89
463.86	32617.71
464.05	31910.86
464.23	31161.89
464.41	31115.08
464.59	30443.35
464.78	31604.25
464.96	31763.41
465.14	31660.43
465.32	32458.55
465.50	33556.26
465.69	33457.96
465.87	32797.93
466.05	32084.06
466.23	30841.24
466.41	29514.16
466.60	30871.67
466.78	30579.10
466.96	31311.69
467.14	31639.36
467.32	32409.40
467.51	32474.93
467.69	30771.02
467.87	31379.56
468.05	31683.83
468.23	31859.37
468.41	32236.20
468.60	32175.34
468.78	32390.67
468.96	31922.57
469.14	32943.04
469.32	32933.68
469.50	31374.88
469.69	31952.99
469.87	31314.03
470.05	30962.95
470.23	30813.15
470.41	30981.67
470.59	31473.18
470.77	31779.79
470.95	32339.18
471.14	32826.01
471.32	32849.42
471.50	34546.31
471.68	34637.59
471.86	35084.63
472.04	35000.37
472.22	35171.23
472.40	33362.00
472.58	33537.54
472.77	32823.67
472.95	33385.40
473.13	34796.74
473.31	33551.58
473.49	33799.68
473.67	34352.04
473.85	34335.66
474.03	35807.86
474.21	35751.68
474.39	36577.89
474.57	35849.99
474.75	36081.70
474.93	36098.08
475.12	35033.14
475.30	35187.61
475.48	35213.36
475.66	36065.31
475.84	35742.32
476.02	35035.48
476.20	35030.80
476.38	34742.91
476.56	36098.08
476.74	36100.42
476.92	36971.10
477.10	37493.04
477.28	38653.95
477.46	38356.70
477.64	38630.54
477.82	38990.98
478.00	39215.68
478.18	38501.81
478.36	38347.34
478.54	38202.22
478.72	38916.09
478.90	39292.91
479.08	41106.83
479.26	41123.21
479.44	41085.76
479.62	40680.85
479.80	40865.75
479.98	41057.68
480.16	41317.48
480.34	40804.90
480.52	41284.71
480.70	41577.28
480.88	41626.43
481.06	42050.06
481.24	42707.76
481.41	43786.74
481.59	43831.21
481.77	43744.61
481.95	43220.33
482.13	42937.13
482.31	42721.80
482.49	43943.56
482.67	43594.82
482.85	43880.36
483.03	44814.24
483.21	44893.82
483.39	44198.68
483.57	43922.49
483.74	43552.69
483.92	44119.10
484.10	44210.38
484.28	45017.86
484.46	45504.70
484.64	46380.06
484.82	45373.63
485.00	44788.49
485.18	43962.28
485.35	42602.43
485.53	39515.26
485.71	36109.78
485.89	35288.26
486.07	37649.86
486.25	40657.45
486.43	43007.34
486.61	43878.02
486.78	43981.01
486.96	43721.21
487.14	45333.84
487.32	46052.38
487.50	47601.82
487.68	48385.89
487.85	48914.86
488.03	49036.56
488.21	48353.13
488.39	47562.03
488.57	47220.31
488.75	46291.12
488.92	47894.38
489.10	50246.62
489.28	51782.01
489.46	52317.99
489.64	52271.18
489.81	52250.12
489.99	51863.93
490.17	51702.43
490.35	52484.17
490.53	51791.37
490.70	51599.45
490.88	51271.78
491.06	52657.37
491.24	52261.82
491.41	51407.53
491.59	49441.48
491.77	48802.51
491.95	49588.93
492.13	50972.19
492.30	52411.62
492.48	53319.74
492.66	53815.94
492.84	53762.11
493.01	53495.28
493.19	52952.28
493.37	52762.70
493.54	52315.65
493.72	53027.18
493.90	54131.91
494.08	54813.01
494.25	55468.36
494.43	55281.11
494.61	55686.03
494.79	55922.42
494.96	55716.45
495.14	54993.23
495.32	54103.82
495.49	53666.14
495.67	54298.09
495.85	55859.23
496.02	56308.61
496.20	55690.71
496.38	55641.56
496.55	55309.20
496.73	55807.73
496.91	55899.01
497.09	56701.82
497.26	56919.49
497.44	56072.21
497.62	55948.17
497.79	55058.76
497.97	53715.29
498.14	53855.73
498.32	55112.59
498.50	55849.86
498.67	56666.71
498.85	56212.65
499.03	56615.22
499.20	56832.89
499.38	56912.47
499.56	56573.09
499.73	56039.45
499.91	55709.43
500.08	55224.94
500.26	54768.54
500.44	55248.35
500.61	55821.78
500.79	55704.75
500.97	54838.75
501.14	54932.37
501.32	54803.64
501.49	54962.80
501.67	55133.66
501.84	55676.66
502.02	55957.53
502.20	56364.78
502.37	56413.93
502.55	56367.12
502.72	57045.88
502.90	57305.68
503.07	57013.11
503.25	56786.08
503.43	56011.36
503.60	55421.55
503.78	54590.66
503.95	54908.97
504.13	56449.04
504.30	57333.76
504.48	57071.62
504.65	56788.42
504.83	56694.80
505.01	57045.88
505.18	57640.37
505.36	58087.42
505.53	58246.57
505.71	58440.84
505.88	58719.36
506.06	57902.51
506.23	57481.22
506.41	57308.02
506.58	57673.14
506.76	57572.50
506.93	57436.75
507.11	57118.43
507.28	57436.75
507.46	57036.51
507.63	56430.32
507.81	56067.53
507.98	56514.58
508.16	56968.64
508.33	57574.84
508.50	57954.00
508.68	58122.52
508.85	58876.18
509.03	58759.15
509.20	58553.18
509.38	57932.94
509.55	57099.71
509.73	57209.71
509.90	57841.66
510.08	58019.54
510.25	58028.90
510.42	57879.11
510.60	57439.09
510.77	58068.69
510.95	58515.73
511.12	58595.31
511.30	58876.18
511.47	59285.77
511.64	58993.20
511.82	58679.57
511.99	57998.48
512.17	57640.37
512.34	57251.84
512.51	57506.96
512.69	57382.91
512.86	57513.98
513.04	57907.19
513.21	58085.07
513.38	57991.45
513.56	57205.03
513.73	56432.66
513.90	57190.99
514.08	56933.53
514.25	57326.74
514.43	57326.74
514.60	57506.96
514.77	57839.32
514.95	57876.77
515.12	57687.18
515.29	57848.68
515.47	58326.15
515.64	58569.57
515.81	58309.77
515.99	57647.39
516.16	56341.38
516.33	54054.67
516.51	52339.06
516.68	51536.26
516.85	51302.20
517.03	51669.67
517.20	54017.22
517.37	56811.82
517.54	57904.85
517.72	57509.30
517.89	55236.64
518.06	52233.74
518.24	52846.96
518.41	54869.18
518.58	56301.59
518.75	56683.09
518.93	56856.29
519.10	56650.33
519.27	57279.93
519.45	57263.55
519.62	57989.11
519.79	58351.90
519.96	58204.44
520.14	57900.17
520.31	57062.26
520.48	56882.04
520.65	57127.80
520.83	58108.48
521.00	58653.82
521.17	58232.53
521.34	57656.76
521.52	58136.57
521.69	58646.80
521.86	59100.87
522.03	58735.74
522.20	57661.44
522.38	56402.23
522.55	56395.21
522.72	57181.63
522.89	57422.70
523.07	57439.09
523.24	58066.35
523.41	58841.07
523.58	59025.97
523.75	59529.19
523.92	59079.80
524.10	59147.68
524.27	59229.60
524.44	59000.22
524.61	58639.78
524.78	58679.57
524.96	58497.01
525.13	58607.01
525.30	58822.34
525.47	59421.52
525.64	59082.14
525.81	58717.02
525.98	57083.33
526.16	55842.84
526.33	55107.91
526.50	54553.21
526.67	54185.74
526.84	55028.34
527.01	55922.42
527.18	56479.47
527.36	57616.97
527.53	58431.47
527.70	58934.69
527.87	58101.46
528.04	57602.92
528.21	58269.98
528.38	58897.24
528.55	59281.09
528.72	59763.24
528.89	59971.55
529.07	59395.77
529.24	58878.52
529.41	58372.96
529.58	57556.11
529.75	57614.63
529.92	58314.45
530.09	58663.19
530.26	59346.62
530.43	59461.31
530.60	59386.41
530.77	59702.38
530.94	59739.83
531.11	59325.56
531.28	58944.05
531.46	58871.49
531.63	58742.77
531.80	58768.51
531.97	58473.60
532.14	57844.00
532.31	56837.57
532.48	56102.64
532.65	56205.62
532.82	56919.49
532.99	57867.40
533.16	58323.81
533.33	59096.19
533.50	58941.71
533.67	58127.20
533.84	57743.36
534.01	57935.28
534.18	58305.09
534.35	58274.66
534.52	57963.37
534.69	58394.03
534.86	58599.99
535.03	58990.86
535.20	59449.61
535.37	59695.36
535.54	59716.43
535.71	59517.48
535.88	59260.02
536.05	58595.31
536.22	58110.82
536.38	57722.29
536.55	57308.02
536.72	57015.45
536.89	56594.15
537.06	57537.39
537.23	58279.34
537.40	58834.05
537.57	58728.72
537.74	58319.13
537.91	58651.48
538.08	58288.70
538.25	58471.26
538.42	58487.65
538.59	58429.13
538.75	57829.96
538.92	57558.45
539.09	57553.77
539.26	57396.96
539.43	57141.84
539.60	57270.57
539.77	57523.35
539.94	57326.74
540.11	56807.14
540.28	56119.02
540.44	56123.71
540.61	56406.91
540.78	56633.94
540.95	57027.15
541.12	57298.65
541.29	57366.53
541.46	57804.21
541.62	58117.84
541.79	57621.65
541.96	57439.09
542.13	57212.06
542.30	57368.87
542.47	57710.59
542.63	57521.01
542.80	57083.33
542.97	57329.08
543.14	57530.37
543.31	57298.65
543.48	57846.34
543.64	58665.53
543.81	58852.77
543.98	58560.20
544.15	57865.06
544.32	57457.81
544.48	57509.30
544.65	58113.16
544.82	58262.96
544.99	57928.26
545.16	57539.73
545.32	57303.34
545.49	58108.48
545.66	58599.99
545.83	58155.29
546.00	57745.70
546.16	57406.32
546.33	57591.22
546.50	57574.84
546.67	57949.32
546.83	57612.29
547.00	57712.93
547.17	56928.85
547.34	56671.39
547.50	56303.93
547.67	56772.03
547.84	56954.60
548.00	57378.23
548.17	57687.18
548.34	57471.85
548.51	57354.83
548.67	57411.00
548.84	57640.37
549.01	57399.30
549.18	57530.37
549.34	57598.24
549.51	57392.28
549.68	57396.96
549.84	57256.53
550.01	57092.69
550.18	57013.11
550.34	56910.13
550.51	57190.99
550.68	57270.57
550.84	56884.38
551.01	56736.93
551.18	56804.80
551.34	57139.50
551.51	57303.34
551.68	57441.43
551.84	57757.40
552.01	57373.55
552.18	57254.18
552.34	56388.19
552.51	56182.22
552.68	56090.94
552.84	56509.89
553.01	56720.54
553.18	56821.19
553.34	56610.54
553.51	57279.93
553.67	57286.95
553.84	57457.81
554.01	57195.67
554.17	56872.68
554.34	57186.31
554.51	57151.20
554.67	57497.60
554.84	57446.11
555.00	57055.24
555.17	56814.16
555.33	56552.02
555.50	56928.85
555.67	56844.59
555.83	56584.79
556.00	56142.43
556.16	56332.01
556.33	55880.29
556.50	55667.30
556.66	55707.09
556.83	55564.32
556.99	55547.93
557.16	55875.61
557.32	56165.84
557.49	56416.27
557.65	56219.67
557.82	55957.53
557.98	56072.21
558.15	55583.04
558.32	54927.69
558.48	53874.45
558.65	54085.10
558.81	54410.43
558.98	54801.30
559.14	55208.56
559.31	55084.51
559.47	54979.18
559.64	54789.60
559.80	54321.49
559.97	54618.74
560.13	55056.42
560.30	55877.95
560.46	56390.53
560.63	56519.26
560.79	56767.35
560.96	56231.37
561.12	55082.17
561.29	54202.13
561.45	54160.00
561.61	54848.11
561.78	55302.18
561.94	55075.15
562.11	55089.19
562.27	55000.25
562.44	54923.01
562.60	55480.06
562.77	55779.65
562.93	55437.93
563.10	55489.42
563.26	54738.11
563.42	55042.38
563.59	54555.55
563.75	54585.97
563.92	54820.03
564.08	54958.12
564.24	55138.34
564.41	55077.49
564.57	54841.09
564.74	54913.65
564.90	54705.34
565.07	54700.66
565.23	54321.49
565.39	53705.93
565.56	53380.60
565.72	53071.65
565.88	53656.78
566.05	53900.20
566.21	53834.66
566.38	54120.21
566.54	54234.89
566.70	54585.97
566.87	54990.89
567.03	54740.45
567.19	55124.30
567.36	54707.68
567.52	54490.01
567.68	54394.05
567.85	53764.45
568.01	53380.60
568.17	52956.96
568.34	53083.35
568.50	53146.54
568.66	53296.34
568.83	53488.26
568.99	53347.83
569.15	53741.04
569.32	53698.91
569.48	53399.32
569.64	53212.08
569.81	53062.29
569.97	52596.52
570.13	52720.57
570.30	52135.43
570.46	51723.50
570.62	51419.23
570.78	51299.86
570.95	51714.14
571.11	52460.77
571.27	52451.41
571.43	52233.74
571.60	52891.43
571.76	52949.94
571.92	53331.45
572.09	53673.16
572.25	53750.40
572.41	53532.73
572.57	53448.47
572.74	53502.31
572.90	52994.41
573.06	52992.07
573.22	53073.99
573.38	53057.60
573.55	52968.66
573.71	53219.10
573.87	52875.04
574.03	52959.30
574.20	52570.77
574.36	52161.18
574.52	52294.59
574.68	52065.22
574.84	51735.20
575.01	51618.17
575.17	51189.86
575.33	51323.27
575.49	51854.57
575.65	51854.57
575.82	51784.35
575.98	51475.40
576.14	51646.26
576.30	52041.81
576.46	52140.11
576.62	52034.79
576.79	52044.15
576.95	51381.78
577.11	51835.84
577.27	51707.12
577.43	52027.77
577.59	51461.36
577.75	50965.17
577.92	49858.09
578.08	50014.91
578.24	50094.49
578.40	50478.33
578.56	50857.50
578.72	50887.93
578.88	51178.15
579.04	51096.24
579.21	51388.80
579.37	51243.69
579.53	51468.38
579.69	51192.20
579.85	51807.76
580.01	51435.61
580.17	51028.36
580.33	50801.33
580.49	51079.85
580.65	51138.36
580.82	51208.58
580.98	51236.67
581.14	51077.51
581.30	51344.33
581.46	51236.67
581.62	51363.06
581.78	51660.30
581.94	51503.49
582.10	51217.94
582.26	51714.14
582.42	51571.36
582.58	51580.73
582.74	51540.94
582.90	51421.57
583.06	51414.55
583.22	51414.55
583.38	51002.61
583.54	50845.80
583.70	50904.31
583.86	51330.29
584.02	50885.59
584.18	51110.28
584.34	50986.23
584.50	50782.60
584.66	50981.55
584.82	50028.95
584.98	50019.59
585.14	49682.55
585.30	49179.34
