SpectraSuite Data File
++++++++++++++++++++++++++++++++++++
Date: Mon Oct 07 14:53:34 GMT-05:00 2013
User: price-jones
Dark Spectrum Present: No
Reference Spectrum Present: No
Number of Sampled Component Spectra: 1
Spectrometers: USB2+H05261
Integration Time (usec): 100000 (USB2+H05261)
Spectra Averaged: 1 (USB2+H05261)
Boxcar Smoothing: 0 (USB2+H05261)
Correct for Electrical Dark: No (USB2+H05261)
Strobe/Lamp Enabled: No (USB2+H05261)
Correct for Detector Non-linearity: No (USB2+H05261)
Correct for Stray Light: No (USB2+H05261)
Number of Pixels in Processed Spectrum: 2048
>>>>>Begin Processed Spectral Data<<<<<
365.73	0.00
365.92	0.00
366.12	0.00
366.32	0.00
366.52	0.00
366.72	0.00
366.91	0.00
367.11	0.00
367.31	0.00
367.51	0.00
367.70	0.00
367.90	0.00
368.10	0.00
368.30	0.00
368.49	0.00
368.69	0.00
368.89	0.00
369.09	0.00
369.28	0.00
369.48	0.00
369.68	0.00
369.87	0.00
370.07	0.00
370.27	0.00
370.47	833.23
370.66	3845.50
370.86	4257.43
371.06	4643.62
371.25	4891.72
371.45	4245.73
371.65	3976.57
371.84	3712.09
372.04	3932.10
372.24	4276.16
372.44	4540.64
372.63	4587.45
372.83	4117.00
373.03	3611.45
373.22	3192.49
373.42	3644.21
373.62	4014.02
373.81	4491.49
374.01	4444.68
374.21	4011.68
374.40	3606.77
374.60	3826.78
374.79	4222.33
374.99	4826.18
375.19	5394.93
375.38	5497.92
375.58	5160.88
375.78	5041.51
375.97	5137.48
376.17	5474.51
376.37	5320.04
376.56	5516.64
376.76	5680.48
376.95	6160.29
377.15	6607.33
377.35	6937.35
377.54	7246.30
377.74	7475.67
377.93	7213.53
378.13	7082.46
378.33	6642.44
378.52	6282.00
378.72	5851.34
378.91	5865.38
379.11	5764.74
379.31	5717.93
379.50	5481.53
379.70	6066.67
379.89	6499.67
380.09	6904.58
380.28	7124.59
380.48	7215.87
380.68	7059.06
380.87	7033.31
381.07	6406.05
381.26	5727.29
381.46	5430.04
381.65	5158.54
381.85	5195.99
382.04	5090.67
382.24	4631.92
382.43	4447.02
382.63	4365.10
382.83	4369.78
383.02	4334.67
383.22	4196.58
383.41	4308.93
383.61	4634.26
383.80	5303.65
384.00	5947.30
384.19	6848.41
384.39	7012.24
384.58	7073.10
384.78	6913.94
384.97	6883.52
385.17	6324.13
385.36	6099.44
385.56	5975.39
385.75	6085.39
385.95	6658.82
386.14	7286.09
386.34	7370.35
386.53	6822.66
386.72	6452.86
386.92	6668.19
387.11	6843.73
387.31	7328.22
387.50	7171.40
387.70	6909.26
387.89	6832.02
388.09	6827.34
388.28	6813.30
388.48	7007.56
388.67	7555.25
388.86	8423.59
389.06	8805.10
389.25	9383.21
389.45	9383.21
389.64	9558.75
389.84	9350.44
390.03	9114.05
390.22	9181.92
390.42	9418.32
390.61	10136.86
390.81	10696.25
391.00	11054.35
391.19	10862.43
391.39	10768.80
391.58	9853.66
391.78	9430.02
391.97	9029.79
392.16	8449.33
392.36	7681.64
392.55	6139.23
392.75	4940.87
392.94	3990.61
393.13	3946.14
393.33	4578.09
393.52	5980.07
393.71	7246.30
393.91	8215.28
394.10	8994.68
394.29	9703.86
394.49	10558.16
394.68	11468.62
394.88	11515.44
395.07	11887.58
395.26	11597.35
395.46	11349.26
395.65	10892.85
395.84	9598.54
396.04	7836.11
396.23	6464.56
396.42	5577.50
396.62	5128.11
396.81	6010.50
397.00	7681.64
397.19	9760.03
397.39	11559.91
397.58	12936.14
397.77	13886.40
397.97	14394.29
398.16	14511.32
398.35	14918.57
398.55	15531.80
398.74	15733.08
398.93	16514.82
399.12	16093.52
399.32	15538.82
399.51	15772.87
399.70	17139.74
399.90	16849.52
400.09	16833.13
400.28	16589.72
400.47	16655.25
400.67	17418.27
400.86	18141.49
401.05	17970.63
401.24	18040.85
401.44	18567.47
401.63	18216.39
401.82	18633.00
402.01	18363.84
402.21	18733.65
402.40	18867.06
402.59	18214.05
402.78	17500.19
402.97	17125.70
403.17	17593.81
403.36	18714.92
403.55	19274.31
403.74	19995.20
403.93	18553.43
404.13	17708.49
404.32	16863.56
404.51	17722.54
404.70	19393.68
404.89	19213.46
405.09	18843.65
405.28	18090.00
405.47	18396.61
405.66	18286.61
405.85	17752.96
406.05	17245.07
406.24	17692.11
406.43	18352.14
406.62	19040.26
406.81	18960.68
407.00	18183.62
407.20	17935.53
407.39	18099.36
407.58	18719.60
407.77	19304.74
407.96	20320.53
408.15	20449.26
408.34	20421.17
408.54	21741.24
408.73	21612.51
408.92	21649.96
409.11	21081.21
409.30	19777.53
409.49	18567.47
409.68	17352.73
409.87	16720.79
410.07	18029.15
410.26	19234.52
410.45	20507.77
410.64	21294.19
410.83	21673.36
411.02	22272.54
411.21	23262.58
411.40	22761.71
411.59	22745.33
411.78	22469.14
411.98	22651.70
412.17	22560.42
412.36	22471.48
412.55	22600.21
412.74	21998.70
412.93	21371.43
413.12	21692.08
413.31	23431.10
413.50	23730.69
413.69	24467.96
413.88	23197.05
414.07	22700.86
414.26	23084.70
414.45	23711.97
414.64	23971.77
414.83	24112.20
415.02	23697.92
415.22	23307.05
415.41	24168.37
415.60	24966.49
415.79	25855.90
415.98	26169.53
416.17	26272.51
416.36	25741.21
416.55	25399.49
416.74	24554.56
416.93	23559.83
417.12	23735.37
417.31	24166.03
417.50	24364.98
417.69	25593.76
417.88	25198.21
418.07	25008.62
418.26	24507.75
418.45	24884.58
418.64	25682.70
418.83	26567.42
419.02	26464.44
419.21	25717.81
419.39	25200.55
419.58	23314.08
419.77	23697.92
419.96	24786.27
420.15	26176.55
420.34	26824.88
420.53	27969.40
420.72	28140.26
420.91	28088.77
421.10	27531.72
421.29	27725.99
421.48	26731.26
421.67	27728.33
421.86	27339.80
422.05	25729.51
422.24	22567.45
422.43	22352.12
422.61	24891.60
422.80	26977.01
422.99	26834.24
423.18	26256.13
423.37	25582.06
423.56	25448.64
423.75	26185.91
423.94	26859.99
424.13	24870.53
424.32	25404.17
424.50	25369.07
424.69	24863.51
424.88	25455.67
425.07	25036.71
425.26	25380.77
425.45	24643.50
425.64	24526.47
425.83	24463.28
426.01	25678.02
426.20	26321.66
426.39	26258.47
426.58	24243.27
426.77	22656.39
426.96	21479.10
427.15	22525.32
427.33	24592.01
427.52	25104.59
427.71	25413.54
427.90	25137.35
428.09	25188.85
428.28	24615.41
428.46	23709.63
428.65	23136.20
428.84	23857.08
429.03	24217.52
429.22	22710.22
429.40	21568.04
429.59	19723.69
429.78	17652.32
429.97	17355.07
430.16	17888.71
430.34	17872.33
430.53	17488.48
430.72	18106.38
430.91	20023.28
431.10	23793.89
431.28	27953.02
431.47	29780.98
431.66	30391.86
431.85	28006.85
432.03	25497.80
432.22	24144.97
432.41	25427.58
432.60	27761.09
432.79	29338.62
432.97	29755.23
433.16	29118.60
433.35	26757.00
433.54	24348.59
433.72	22867.03
433.91	23468.55
434.10	25895.69
434.28	27536.40
434.47	29237.97
434.66	28690.29
434.85	27770.46
435.03	27796.20
435.22	28608.37
435.41	30483.14
435.59	30246.74
435.78	30810.81
435.97	31819.58
436.16	31711.92
436.34	31356.16
436.53	30707.83
436.72	30719.53
436.90	29362.02
437.09	28933.70
437.28	28650.50
437.46	29240.31
437.65	29710.76
437.84	27653.43
438.02	25184.16
438.21	25130.33
438.40	26782.75
438.58	28727.74
438.77	29692.04
438.96	29886.30
439.14	31318.71
439.33	31772.77
439.52	32182.37
439.70	31477.86
439.89	30799.11
440.08	30263.13
440.26	30059.50
440.45	30649.32
440.63	33069.43
440.82	34632.91
441.01	34178.84
441.19	33806.70
441.38	34209.27
441.57	35543.38
441.75	36137.87
441.94	36020.84
442.12	35885.09
442.31	36765.14
442.50	36608.32
442.68	36484.27
442.87	35714.23
443.05	35075.27
443.24	35784.45
443.43	36428.10
443.61	36933.65
443.80	38110.94
443.98	35632.32
444.17	35550.40
444.35	37507.08
444.54	38031.36
444.73	37483.68
444.91	36247.88
445.10	34930.16
445.28	33397.10
445.47	33081.13
445.65	33170.07
445.84	33827.76
446.02	35140.80
446.21	35632.32
446.39	35559.76
446.58	36517.04
446.77	36851.73
446.95	36914.93
447.14	38263.08
447.32	39009.71
447.51	37633.47
447.69	36538.10
447.88	35997.44
448.06	36477.25
448.25	37289.42
448.43	37654.54
448.62	36751.09
448.80	36610.66
448.99	37193.45
449.17	37193.45
449.36	37282.39
449.54	38431.60
449.73	38976.94
449.91	39660.38
450.10	40928.95
450.28	41200.45
450.46	40659.79
450.65	40746.39
450.83	40825.96
451.02	40151.89
451.20	39440.37
451.39	39543.35
451.57	39009.71
451.76	39566.76
451.94	39374.83
452.13	38913.75
452.31	36889.18
452.49	34841.21
452.68	35950.63
452.86	35672.10
453.05	36245.54
453.23	37368.99
453.42	38000.94
453.60	38836.51
453.78	39311.64
453.97	38550.96
454.15	38993.32
454.34	38092.22
454.52	38429.26
454.70	37448.57
454.89	37895.61
455.07	38176.48
455.26	38602.46
455.44	39990.39
455.62	40699.58
455.81	40952.35
455.99	40432.75
456.17	39796.13
456.36	39714.21
456.54	41474.29
456.73	41567.91
456.91	42333.27
457.09	41741.11
457.28	42782.65
457.46	41420.46
457.64	40690.21
457.83	39632.29
458.01	38843.53
458.19	39768.04
458.38	39910.82
458.56	41591.32
458.74	41256.62
458.93	40217.43
459.11	40355.52
459.29	40369.56
459.48	40641.06
459.66	40158.91
459.84	40416.37
460.03	41593.66
460.21	41071.72
460.39	41933.04
460.57	41713.03
460.76	42768.61
460.94	42857.55
461.12	42459.66
461.31	42010.28
461.49	42497.11
461.67	42014.96
461.85	43164.16
462.04	42682.01
462.22	43313.95
462.40	43400.55
462.59	43400.55
462.77	43026.07
462.95	43075.22
463.13	42752.23
463.32	42174.11
463.50	42021.98
463.68	42190.50
463.86	42309.86
464.05	41687.28
464.23	40868.09
464.41	40612.98
464.59	39988.05
464.78	42225.60
464.96	41825.37
465.14	41202.79
465.32	42178.79
465.50	43416.94
465.69	43695.46
465.87	42890.32
466.05	41862.82
466.23	40236.15
466.41	39023.75
466.60	40065.29
466.78	40561.48
466.96	40851.71
467.14	41375.99
467.32	42277.10
467.51	42216.24
467.69	40261.90
467.87	41144.28
468.05	41785.58
468.23	41689.62
468.41	41766.86
468.60	41876.86
468.78	42237.31
468.96	41486.00
469.14	42689.03
469.32	42827.12
469.50	41523.44
469.69	41471.95
469.87	40493.61
470.05	40315.73
470.23	40856.39
470.41	40982.78
470.59	41301.09
470.77	41460.25
470.95	42192.84
471.14	42754.57
471.32	42541.58
471.50	45003.82
471.68	45331.50
471.86	45240.21
472.04	45483.63
472.22	45654.49
472.40	44009.09
472.58	42850.53
472.77	42770.95
472.95	43351.40
473.13	44755.72
473.31	43875.68
473.49	43704.82
473.67	44662.10
473.85	44900.84
474.03	46260.69
474.21	45834.71
474.39	46691.35
474.57	46485.38
474.75	46719.43
474.93	46274.73
475.12	45233.19
475.30	45528.10
475.48	45612.36
475.66	46204.52
475.84	45736.41
476.02	45478.95
476.20	44776.79
476.38	45467.25
476.56	46894.97
476.74	47283.50
476.92	47557.35
477.10	48296.95
477.28	48891.45
477.46	48905.49
477.64	49275.30
477.82	49546.80
478.00	49687.23
478.18	49305.73
478.36	49008.48
478.54	48994.43
478.72	49261.26
478.90	50085.12
479.08	51014.32
479.26	51386.46
479.44	51391.14
479.62	50892.61
479.80	50997.93
479.98	51910.74
480.16	51611.15
480.34	51414.55
480.52	51435.61
480.70	52004.36
480.88	52011.38
481.06	52353.10
481.24	52774.40
481.41	53408.68
481.59	53848.71
481.77	53799.55
481.95	53022.50
482.13	52999.09
482.31	53169.95
482.49	53621.67
482.67	53528.05
482.85	53427.41
483.03	54162.34
483.21	54497.03
483.39	54450.22
483.57	53666.14
483.74	53663.80
483.92	54031.27
484.10	53825.30
484.28	54644.49
484.46	54958.12
484.64	55327.92
484.82	54454.90
485.00	54354.26
485.18	53696.57
485.35	52535.66
485.53	50279.39
485.71	46511.13
485.89	45954.08
486.07	47985.66
486.25	51037.72
486.43	52903.13
486.61	53703.59
486.78	53359.53
486.96	53794.87
487.14	54864.50
487.32	55547.93
487.50	56025.40
487.68	56832.89
487.85	57427.38
488.03	57385.25
488.21	56643.30
488.39	56308.61
488.57	56200.94
488.75	55444.95
488.92	56530.96
489.10	58007.84
489.28	59187.47
489.46	59891.97
489.64	59451.95
489.81	59608.76
489.99	59496.42
490.17	59611.10
490.35	59964.52
490.53	59416.84
490.70	58990.86
490.88	58986.18
491.06	59920.05
491.24	59709.41
491.41	58988.52
491.59	57771.44
491.77	57146.52
491.95	57954.00
492.13	58731.06
492.30	59994.95
492.48	60598.81
492.66	61155.86
492.84	60786.05
493.01	60830.52
493.19	60219.64
493.37	60048.78
493.54	59688.34
493.72	60301.56
493.90	61277.57
494.08	61719.93
494.25	62017.17
494.43	62152.93
494.61	62494.64
494.79	62679.55
494.96	62330.81
495.14	61909.51
495.32	61310.33
495.49	60505.19
495.67	61516.30
495.85	62581.24
496.02	62918.28
496.20	62763.81
496.38	62447.83
496.55	62092.07
496.73	62674.87
496.91	62798.91
497.09	63262.34
497.26	63426.18
497.44	62951.05
497.62	62583.58
497.79	62117.82
497.97	60961.59
498.14	60734.56
498.32	61918.87
498.50	62763.81
498.67	63267.02
498.85	62855.09
499.03	63353.62
499.20	63533.84
499.38	63508.10
499.56	63374.69
499.73	62691.25
499.91	62621.03
500.08	62143.56
500.26	61722.27
500.44	61825.25
500.61	62520.39
500.79	62443.15
500.97	62061.64
501.14	61855.68
501.32	61977.39
501.49	61851.00
501.67	62099.09
501.84	62398.68
502.02	62843.38
502.20	63032.97
502.37	63068.08
502.55	63061.05
502.72	63625.12
502.90	63896.62
503.07	63826.41
503.25	63348.94
503.43	62841.04
503.60	62166.97
503.78	61443.74
503.95	61839.29
504.13	63175.74
504.30	63884.92
504.48	63800.66
504.65	63447.24
504.83	63456.60
505.01	64020.67
505.18	64203.24
505.36	64793.05
505.53	64802.41
505.71	64938.16
505.88	65034.13
506.06	64633.89
506.23	64261.75
506.41	63941.10
506.58	64177.49
506.76	63870.88
506.93	64074.51
507.11	63664.91
507.28	64037.06
507.46	63524.48
507.63	62983.82
507.81	62784.87
507.98	63054.03
508.16	63690.66
508.33	64142.38
508.50	64439.63
508.68	64722.83
508.85	65029.44
509.03	64996.68
509.20	64949.87
509.38	64226.64
509.55	63498.73
509.73	63777.26
509.90	64212.60
510.08	64556.66
510.25	64257.07
510.42	64437.29
510.60	64221.96
510.77	64355.37
510.95	64933.48
511.12	64926.46
511.30	65256.48
511.47	65535.00
511.64	65373.50
511.82	65247.11
511.99	64526.23
512.17	64107.27
512.34	63882.58
512.51	63985.57
512.69	64095.57
512.86	64238.34
513.04	64638.57
513.21	64498.14
513.38	64285.15
513.56	63985.57
513.73	63487.03
513.90	63430.86
514.08	63419.16
514.25	63765.56
514.43	63973.86
514.60	63854.50
514.77	64397.50
514.95	64364.73
515.12	63992.59
515.29	64271.11
515.47	64823.48
515.64	64863.27
515.81	64788.37
515.99	64142.38
516.16	62866.79
516.33	60968.61
516.51	59709.41
516.68	59056.40
516.85	58742.77
517.03	58988.52
517.20	61284.59
517.37	63529.16
517.54	64348.35
517.72	63889.60
517.89	61965.68
518.06	59859.20
518.24	59934.10
518.41	61797.16
518.58	63037.65
518.75	63320.85
518.93	63381.71
519.10	63304.47
519.27	63664.91
519.45	63957.48
519.62	64596.45
519.79	64830.50
519.96	64528.57
520.14	64327.28
520.31	63398.09
520.48	63391.07
520.65	63693.00
520.83	64453.67
521.00	64905.40
521.17	64725.17
521.34	64268.77
521.52	64713.47
521.69	65052.85
521.86	65396.91
522.03	65380.52
522.20	64158.76
522.38	63215.53
522.55	63238.93
522.72	63716.40
522.89	63803.00
523.07	63824.07
523.24	64308.56
523.41	65113.70
523.58	65347.76
523.75	65535.00
523.92	65504.57
524.10	65478.83
524.27	65485.85
524.44	65417.97
524.61	65113.70
524.78	65197.96
524.96	64872.63
525.13	65006.04
525.30	65179.24
525.47	65495.21
525.64	65448.40
525.81	64928.80
525.98	63714.06
526.16	62279.31
526.33	61916.53
526.50	61525.66
526.67	61123.09
526.84	61733.97
527.01	62606.99
527.18	63337.24
527.36	64051.10
527.53	64818.80
527.70	65270.52
527.87	64701.77
528.04	64133.02
528.21	64507.50
528.38	65314.99
528.55	65535.00
528.72	65535.00
528.89	65535.00
529.07	65535.00
529.24	65204.98
529.41	64610.49
529.58	64175.15
529.75	64371.75
529.92	64638.57
530.09	65092.64
530.26	65502.23
530.43	65535.00
530.60	65535.00
530.77	65535.00
530.94	65535.00
531.11	65535.00
531.28	65256.48
531.46	65155.83
531.63	65279.88
531.80	65094.98
531.97	64732.20
532.14	64154.08
532.31	63227.23
532.48	62819.98
532.65	62719.34
532.82	63475.33
532.99	64477.08
533.16	64830.50
533.33	65160.51
533.50	65111.36
533.67	64430.27
533.84	63945.78
534.01	64313.24
534.18	64343.67
534.35	64683.04
534.52	64514.53
534.69	64755.60
534.86	64989.66
535.03	65256.48
535.20	65535.00
535.37	65535.00
535.54	65535.00
535.71	65535.00
535.88	65527.98
536.05	64842.20
536.22	64577.72
536.38	64327.28
536.55	63800.66
536.72	63472.99
536.89	63154.68
537.06	64144.72
537.23	64734.54
537.40	65003.70
537.57	64905.40
537.74	64917.10
537.91	64762.62
538.08	64800.07
538.25	64725.17
538.42	64977.95
538.59	64823.48
538.75	64207.92
538.92	63936.41
539.09	63913.01
539.26	63662.57
539.43	63496.39
539.60	63515.12
539.77	63765.56
539.94	63728.11
540.11	62941.69
540.28	62651.46
540.44	62527.41
540.61	62819.98
540.78	63114.89
540.95	63524.48
541.12	63805.34
541.29	64121.32
541.46	64439.63
541.62	64273.45
541.79	64250.05
541.96	63744.49
542.13	63608.74
542.30	63931.73
542.47	64219.62
542.63	63779.60
542.80	63634.48
542.97	63835.77
543.14	63704.70
543.31	63693.00
543.48	64088.55
543.64	64781.35
543.81	65146.47
543.98	64970.93
544.15	64261.75
544.32	63784.28
544.48	63887.26
544.65	64306.22
544.82	64715.81
544.99	64259.41
545.16	63955.14
545.32	63674.27
545.49	64526.23
545.66	64676.02
545.83	64427.93
546.00	64126.00
546.16	63814.71
546.33	64011.31
546.50	63952.80
546.67	64259.41
546.83	63901.31
547.00	63920.03
547.17	63412.13
547.34	62831.68
547.50	62887.85
547.67	63208.51
547.84	63257.66
548.00	63580.65
548.17	64053.44
548.34	64013.65
548.51	63969.18
548.67	63915.35
548.84	64102.59
549.01	64013.65
549.18	63744.49
549.34	63709.38
549.51	63966.84
549.68	63840.45
549.84	63730.45
550.01	63484.69
550.18	63313.83
550.34	63529.16
550.51	63468.31
550.68	63664.91
550.84	63194.46
551.01	63168.72
551.18	63133.61
551.34	63330.22
551.51	63716.40
551.68	63889.60
551.84	64095.57
552.01	63915.35
552.18	63721.08
552.34	63114.89
552.51	62656.14
552.68	62527.41
552.84	62929.98
553.01	63304.47
553.18	63049.35
553.34	63348.94
553.51	63463.63
553.67	63566.61
553.84	63657.89
554.01	63547.89
554.17	63260.00
554.34	63262.34
554.51	63613.42
554.67	63763.21
554.84	63866.20
555.00	63267.02
555.17	63098.50
555.33	63309.15
555.50	63072.76
555.67	63042.33
555.83	63049.35
556.00	62988.50
556.16	63011.90
556.33	62574.22
556.50	62473.58
556.66	62356.55
556.83	61993.77
556.99	62295.70
557.16	62337.83
557.32	62529.75
557.49	62897.22
557.65	62883.17
557.82	62822.32
557.98	62651.46
558.15	62127.18
558.32	61605.24
558.48	60633.92
558.65	60903.08
558.81	61256.50
558.98	61350.12
559.14	61726.95
559.31	61605.24
559.47	61874.40
559.64	61502.26
559.80	61293.95
559.97	61153.52
560.13	61619.28
560.30	62492.30
560.46	62784.87
560.63	63100.84
560.79	63121.91
560.96	62731.04
561.12	61883.76
561.29	61010.74
561.45	61043.51
561.61	61492.89
561.78	61712.91
561.94	61743.33
562.11	61762.06
562.27	61645.03
562.44	61790.14
562.60	62045.26
562.77	62171.65
562.93	62405.70
563.10	62202.08
563.26	61553.75
563.42	61471.83
563.59	61401.61
563.75	61422.68
563.92	61623.96
564.08	61513.96
564.24	61719.93
564.41	61729.29
564.57	61860.36
564.74	61696.52
564.90	61640.35
565.07	61467.15
565.23	60954.57
565.39	60704.13
565.56	60420.93
565.72	60023.04
565.88	60456.04
566.05	60458.38
566.21	60818.82
566.38	60882.02
566.54	61071.60
566.70	61336.08
566.87	61492.89
567.03	61595.88
567.19	61701.20
567.36	61268.20
567.52	61462.47
567.68	61258.84
567.85	60505.19
568.01	60324.97
568.17	59903.67
568.34	60137.72
568.50	59877.93
568.66	60074.53
568.83	60392.84
568.99	60329.65
569.15	60708.82
569.32	60542.64
569.48	60348.37
569.64	60114.32
569.81	59896.65
569.97	59817.07
570.13	59866.22
570.30	59524.50
570.46	59241.30
570.62	58653.82
570.78	58695.95
570.95	58850.43
571.11	59386.41
571.27	59519.82
571.43	59803.03
571.60	59901.33
571.76	60214.96
571.92	60413.91
572.09	60467.74
572.25	60566.04
572.41	60535.62
572.57	60404.55
572.74	60299.22
572.90	59721.11
573.06	59943.46
573.22	60097.94
573.38	59943.46
573.55	59980.91
573.71	60034.74
573.87	59891.97
574.03	59866.22
574.20	59999.63
574.36	59730.47
574.52	59557.27
574.68	59510.46
574.84	59206.19
575.01	58649.14
575.17	58599.99
575.33	58932.35
575.49	58962.78
575.65	59154.70
575.82	58951.07
575.98	58702.98
576.14	58899.58
576.30	59147.68
576.46	59217.89
576.62	59461.31
576.79	59128.95
576.95	58906.60
577.11	58913.62
577.27	59023.63
577.43	59145.34
577.59	58679.57
577.75	58557.86
577.92	57827.62
578.08	57703.57
578.24	57703.57
578.40	58216.14
578.56	58272.32
578.72	58300.40
578.88	58487.65
579.04	58763.83
579.21	58796.60
579.37	58953.41
579.53	58684.25
579.69	58759.15
579.85	58686.59
580.01	58707.66
580.17	58471.26
580.33	58239.55
580.49	58452.54
580.65	58473.60
580.82	58628.08
580.98	58597.65
581.14	58522.76
581.30	58663.19
581.46	58658.51
581.62	58766.17
581.78	58674.89
581.94	58927.67
582.10	58724.04
582.26	58890.22
582.42	58712.34
582.58	58908.94
582.74	58557.86
582.90	59040.01
583.06	58843.41
583.22	58466.58
583.38	58574.25
583.54	58279.34
583.70	58417.43
583.86	58459.56
584.02	58337.85
584.18	58532.12
584.34	58354.24
584.50	58349.56
584.66	58150.61
584.82	57759.74
584.98	57829.96
585.14	57464.83
