SpectraSuite Data File
++++++++++++++++++++++++++++++++++++
Date: Mon Oct 07 14:54:02 GMT-05:00 2013
User: price-jones
Dark Spectrum Present: No
Reference Spectrum Present: No
Number of Sampled Component Spectra: 1
Spectrometers: USB2+H05261
Integration Time (usec): 100000 (USB2+H05261)
Spectra Averaged: 1 (USB2+H05261)
Boxcar Smoothing: 0 (USB2+H05261)
Correct for Electrical Dark: No (USB2+H05261)
Strobe/Lamp Enabled: No (USB2+H05261)
Correct for Detector Non-linearity: No (USB2+H05261)
Correct for Stray Light: No (USB2+H05261)
Number of Pixels in Processed Spectrum: 2048
>>>>>Begin Processed Spectral Data<<<<<
365.73	0.00
365.92	0.00
366.12	0.00
366.32	0.00
366.52	0.00
366.72	0.00
366.91	0.00
367.11	0.00
367.31	0.00
367.51	0.00
367.70	0.00
367.90	0.00
368.10	0.00
368.30	0.00
368.49	0.00
368.69	0.00
368.89	0.00
369.09	0.00
369.28	0.00
369.48	0.00
369.68	0.00
369.87	0.00
370.07	0.00
370.27	0.00
370.47	690.46
370.66	3805.71
370.86	4325.31
371.06	4636.60
371.25	4692.77
371.45	4222.33
371.65	3765.92
371.84	3604.42
372.04	3709.75
372.24	4149.77
372.44	4365.10
372.63	4177.86
372.83	3836.14
373.03	3569.32
373.22	3176.11
373.42	3461.65
373.62	3922.74
373.81	4287.86
374.01	4414.25
374.21	3955.51
374.40	3658.26
374.60	3707.41
374.79	4177.86
374.99	4903.42
375.19	5252.16
375.38	5320.04
375.58	4847.25
375.78	4835.55
375.97	4868.31
376.17	5078.96
376.37	5114.07
376.56	5263.86
376.76	5518.98
376.95	6064.33
377.15	6242.21
377.35	6642.44
377.54	6803.94
377.74	7082.46
377.93	6956.07
378.13	6780.53
378.33	6483.28
378.52	5928.58
378.72	5678.14
378.91	5809.21
379.11	5528.35
379.31	5373.87
379.50	5275.57
379.70	5682.82
379.89	6368.60
380.09	6555.84
380.28	6977.14
380.48	6663.51
380.68	6621.38
380.87	6595.63
381.07	6181.35
381.26	5509.62
381.46	5296.63
381.65	5266.21
381.85	4983.00
382.04	4695.11
382.24	4383.82
382.43	4227.01
382.63	4100.62
382.83	4273.82
383.02	4224.67
383.22	4269.14
383.41	4166.15
383.61	4482.13
383.80	4933.85
384.00	5872.40
384.19	6399.02
384.39	6909.26
384.58	6813.30
384.78	6628.40
384.97	6579.25
385.17	6258.59
385.36	5980.07
385.56	5579.84
385.75	5673.46
385.95	6340.51
386.14	6920.96
386.34	6958.41
386.53	6686.91
386.72	6080.71
386.92	6286.68
387.11	6640.10
387.31	6869.47
387.50	6939.69
387.70	6569.88
387.89	6530.09
388.09	6492.65
388.28	6595.63
388.48	6604.99
388.67	7133.95
388.86	7995.27
389.06	8365.07
389.25	8779.35
389.45	8973.61
389.64	8975.95
389.84	8870.63
390.03	8594.45
390.22	8622.53
390.42	8971.27
390.61	9525.98
390.81	10260.91
391.00	10483.26
391.19	10396.66
391.39	9844.29
391.58	9336.40
391.78	8931.48
391.97	8491.46
392.16	7896.97
392.36	7225.23
392.55	5863.04
392.75	4645.96
392.94	3857.20
393.13	3754.22
393.33	4442.34
393.52	5624.31
393.71	6935.01
393.91	7754.19
394.10	8603.81
394.29	9296.61
394.49	10010.47
394.68	10736.04
394.88	10871.79
395.07	11147.97
395.26	11283.72
395.46	10803.91
395.65	10242.18
395.84	8964.25
396.04	7573.97
396.23	6148.59
396.42	5125.77
396.62	4938.53
396.81	5898.15
397.00	7274.38
397.19	8908.08
397.39	10745.40
397.58	12161.42
397.77	12760.60
397.97	13479.15
398.16	13399.57
398.35	13900.44
398.55	14391.95
398.74	15089.43
398.93	15428.81
399.12	15253.27
399.32	14462.17
399.51	14904.53
399.70	16049.05
399.90	15836.06
400.09	15946.07
400.28	15101.14
400.47	15936.71
400.67	16533.54
400.86	16922.07
401.05	16828.45
401.24	17142.08
401.44	17331.67
401.63	17511.89
401.82	17263.79
402.01	17287.20
402.21	17582.10
402.40	17664.02
402.59	17385.50
402.78	16243.32
402.97	15733.08
403.17	16308.85
403.36	17558.70
403.55	18356.82
403.74	18331.08
403.93	17582.10
404.13	16081.82
404.32	16053.73
404.51	16479.71
404.70	17937.87
404.89	18033.83
405.09	17516.57
405.28	17060.16
405.47	17193.58
405.66	17106.98
405.85	16671.64
406.05	16126.29
406.24	16493.76
406.43	17233.36
406.62	17661.68
406.81	17738.92
407.00	16849.52
407.20	16554.61
407.39	16718.45
407.58	17743.60
407.77	18403.63
407.96	18743.01
408.15	19122.18
408.34	19396.02
408.54	19824.34
408.73	20119.24
408.92	19765.82
409.11	19468.58
409.30	18445.76
409.49	17228.68
409.68	16285.45
409.87	15693.29
410.07	16847.18
410.26	17886.37
410.45	19037.92
410.64	19843.06
410.83	20346.28
411.02	20582.67
411.21	21649.96
411.40	21163.12
411.59	21455.69
411.78	20884.60
411.98	20659.91
412.17	21116.31
412.36	21015.67
412.55	21027.37
412.74	20163.72
412.93	20030.30
413.12	20374.36
413.31	22050.19
413.50	22417.65
413.69	22445.74
413.88	21642.93
414.07	21013.33
414.26	21385.47
414.45	22085.30
414.64	22232.75
414.83	22457.44
415.02	21926.14
415.22	21804.43
415.41	22820.22
415.60	22614.26
415.79	23552.81
415.98	24327.53
416.17	24760.53
416.36	23798.57
416.55	23489.62
416.74	22553.40
416.93	22047.85
417.12	21919.12
417.31	22525.32
417.50	22705.54
417.69	23410.04
417.88	23435.78
418.07	23101.09
418.26	22742.99
418.45	22857.67
418.64	23714.31
418.83	24472.64
419.02	24219.86
419.21	24194.12
419.39	22878.74
419.58	22153.17
419.77	22148.49
419.96	22953.63
420.15	24037.30
420.34	24968.84
420.53	25811.43
420.72	26188.25
420.91	26256.13
421.10	25619.50
421.29	25282.47
421.48	24453.92
421.67	25790.36
421.86	24835.42
422.05	23686.22
422.24	20844.81
422.43	20809.70
422.61	22735.96
422.80	24765.21
422.99	25177.14
423.18	23662.82
423.37	23662.82
423.56	23211.09
423.75	24093.47
423.94	24257.31
424.13	22857.67
424.32	23147.90
424.50	23681.54
424.69	23168.96
424.88	23431.10
425.07	23257.90
425.26	23339.82
425.45	23005.13
425.64	22429.35
425.83	22267.86
426.01	23775.16
426.20	24049.00
426.39	24224.54
426.58	22277.22
426.77	20573.31
426.96	19934.34
427.15	20587.35
427.33	22459.78
427.52	23641.75
427.71	23428.76
427.90	23122.15
428.09	22878.74
428.28	22391.91
428.46	21680.38
428.65	20922.05
428.84	21692.08
429.03	22342.75
429.22	21149.08
429.40	19824.34
429.59	18052.55
429.78	15910.96
429.97	16002.24
430.16	16269.06
430.34	16585.04
430.53	16315.87
430.72	16505.46
430.91	18317.03
431.10	21500.16
431.28	25685.04
431.47	27707.26
431.66	27634.71
431.85	25165.44
432.03	23190.03
432.22	22162.53
432.41	23335.14
432.60	25972.92
432.79	26761.69
432.97	27690.88
433.16	27117.45
433.35	24400.08
433.54	21979.97
433.72	20535.86
433.91	21174.83
434.10	23840.70
434.28	25570.35
434.47	26752.32
434.66	26265.49
434.85	25783.34
435.03	25598.44
435.22	26089.95
435.41	27854.72
435.59	27594.92
435.78	27988.13
435.97	28905.62
436.16	29032.00
436.34	28584.96
436.53	27850.03
436.72	28147.28
436.90	26649.34
437.09	26403.58
437.28	25795.04
437.46	26764.03
437.65	27063.61
437.84	24807.34
438.02	22881.08
438.21	22494.89
438.40	24100.50
438.58	26181.23
438.77	26644.66
438.96	26967.65
439.14	28641.14
439.33	28690.29
439.52	29186.48
439.70	28910.30
439.89	27953.02
440.08	27445.12
440.26	27185.32
440.45	28196.43
440.63	29677.99
440.82	31620.64
441.01	31398.29
441.19	30719.53
441.38	31257.85
441.57	32109.81
441.75	32615.37
441.94	32671.54
442.12	32570.90
442.31	33635.84
442.50	33546.90
442.68	32851.76
442.87	32402.38
443.05	31763.41
443.24	32381.31
443.43	32861.12
443.61	33584.35
443.80	34293.53
443.98	32025.55
444.17	32154.28
444.35	33937.77
444.54	34658.65
444.73	34099.26
444.91	32765.16
445.10	31466.16
445.28	29928.43
445.47	29780.98
445.65	29823.11
445.84	30836.56
446.02	31681.49
446.21	32280.67
446.39	32339.18
446.58	32634.09
446.77	33298.80
446.95	33319.87
447.14	34401.19
447.32	35079.95
447.51	34010.32
447.69	33022.62
447.88	32378.97
448.06	32933.68
448.25	33743.50
448.43	33996.28
448.62	33432.21
448.80	33266.03
448.99	33024.96
449.17	33624.14
449.36	33500.09
449.54	34609.50
449.73	35374.86
449.91	36077.02
450.10	36788.54
450.28	37357.29
450.46	37146.64
450.65	36935.99
450.83	36596.62
451.02	36158.94
451.20	35847.64
451.39	35969.35
451.57	35255.49
451.76	35349.11
451.94	34876.32
452.13	34747.59
452.31	33008.58
452.49	31505.95
452.68	31894.48
452.86	31840.65
453.05	32467.91
453.23	33244.97
453.42	34270.12
453.60	34895.05
453.78	35337.41
453.97	35054.20
454.15	35150.17
454.34	34146.08
454.52	34363.75
454.70	33771.59
454.89	33848.83
455.07	34490.13
455.26	34883.34
455.44	35779.77
455.62	36613.00
455.81	36587.25
455.99	36746.41
456.17	36062.97
456.36	35945.95
456.54	37343.25
456.73	37097.49
456.91	37525.81
457.09	37689.65
457.28	38677.35
457.46	36781.52
457.64	36952.38
457.83	35438.05
458.01	34962.92
458.19	35662.74
458.38	35824.24
458.56	36964.08
458.74	36924.29
458.93	36273.62
459.11	35978.72
459.29	36418.74
459.48	36144.89
459.66	35821.90
459.84	36488.95
460.03	36938.33
460.21	36945.36
460.39	37614.75
460.57	37876.89
460.76	38064.13
460.94	38377.76
461.12	37649.86
461.31	37724.75
461.49	37610.07
461.67	37797.31
461.85	38909.07
462.04	38632.88
462.22	39119.71
462.40	38607.14
462.59	38799.06
462.77	38440.96
462.95	38841.19
463.13	37996.26
463.32	37804.33
463.50	37315.16
463.68	37954.13
463.86	37668.58
464.05	37319.84
464.23	36432.78
464.41	36512.36
464.59	36041.91
464.78	37652.20
464.96	37191.11
465.14	36807.26
465.32	37258.99
465.50	38672.67
465.69	38962.90
465.87	38234.99
466.05	37535.17
466.23	35793.81
466.41	34670.36
466.60	35732.96
466.78	35873.39
466.96	36432.78
467.14	36837.69
467.32	37408.78
467.51	37647.52
467.69	36004.46
467.87	36584.91
468.05	36996.85
468.23	36992.17
468.41	37514.11
468.60	37525.81
468.78	37591.34
468.96	37067.06
469.14	37933.06
469.32	38080.52
469.50	36423.42
469.69	36067.66
469.87	36215.11
470.05	35644.02
470.23	36140.21
470.41	36011.48
470.59	36727.69
470.77	36858.76
470.95	37855.82
471.14	38099.24
471.32	38382.45
471.50	39924.86
471.68	39910.82
471.86	40636.38
472.04	40514.67
472.22	40926.61
472.40	38998.01
472.58	38515.86
472.77	37921.36
472.95	39297.59
473.13	39723.57
473.31	38705.44
473.49	38995.67
473.67	39714.21
473.85	39700.17
474.03	41083.42
474.21	41078.74
474.39	41537.49
474.57	41652.17
474.75	41528.13
474.93	41139.60
475.12	40299.34
475.30	40032.52
475.48	40699.58
475.66	41387.69
475.84	40722.98
476.02	40521.69
476.20	39826.56
476.38	40720.64
476.56	41553.87
476.74	42260.71
476.92	42277.10
477.10	43306.93
477.28	43978.67
477.46	43957.60
477.64	44687.85
477.82	44671.46
478.00	44931.26
478.18	43892.07
478.36	44161.23
478.54	44013.77
478.72	44299.32
478.90	45535.12
479.08	46335.59
479.26	47063.49
479.44	46501.76
479.62	46656.24
479.80	46342.61
479.98	46728.80
480.16	46909.02
480.34	46113.23
480.52	46887.95
480.70	46934.76
480.88	47016.68
481.06	48032.47
481.24	47983.32
481.41	48708.89
481.59	49565.52
481.77	48966.35
481.95	48500.58
482.13	48472.49
482.31	48622.29
482.49	49155.93
482.67	48907.83
482.85	49392.33
483.03	49771.49
483.21	50080.44
483.39	50031.29
483.57	49387.64
483.74	49542.12
483.92	49701.28
484.10	49647.44
484.28	50466.63
484.46	50887.93
484.64	51381.78
484.82	50197.47
485.00	49837.03
485.18	49181.68
485.35	48032.47
485.53	45010.84
485.71	41017.89
485.89	40531.06
486.07	42279.44
486.25	46092.17
486.43	48193.97
486.61	48942.94
486.78	48800.17
486.96	49095.08
487.14	50586.00
487.32	51543.28
487.50	52168.20
487.68	53048.24
487.85	53546.78
488.03	53338.47
488.21	52832.91
488.39	52514.60
488.57	51873.29
488.75	51491.79
488.92	52381.19
489.10	54307.45
489.28	55648.58
489.46	56175.20
489.64	55936.46
489.81	56018.38
489.99	55648.58
490.17	55810.07
490.35	56332.01
490.53	56093.28
490.70	55227.28
490.88	55231.96
491.06	56324.99
491.24	56214.99
491.41	55138.34
491.59	54028.93
491.77	52982.71
491.95	54115.53
492.13	54990.89
492.30	56315.63
492.48	56914.81
492.66	57586.54
492.84	57214.40
493.01	57165.24
493.19	56685.43
493.37	56552.02
493.54	56299.25
493.72	56676.07
493.90	57680.16
494.08	58316.79
494.25	58607.01
494.43	58663.19
494.61	59077.46
494.79	59133.63
494.96	59035.33
495.14	58464.24
495.32	57530.37
495.49	56931.19
495.67	58061.67
495.85	59168.74
496.02	59587.70
496.20	59503.44
496.38	58986.18
496.55	58901.92
496.73	59372.37
496.91	59241.30
497.09	59842.82
497.26	60163.47
497.44	59625.15
497.62	59201.51
497.79	58457.22
497.97	57286.95
498.14	57406.32
498.32	58541.48
498.50	59199.17
498.67	59877.93
498.85	59800.69
499.03	59742.17
499.20	59990.27
499.38	59842.82
499.56	59793.67
499.73	59325.56
499.91	59189.81
500.08	58731.06
500.26	57895.49
500.44	58513.39
500.61	58812.98
500.79	58782.55
500.97	58333.17
501.14	58234.87
501.32	58253.59
501.49	58174.02
501.67	58372.96
501.84	58885.54
502.02	59215.55
502.20	59657.91
502.37	59568.97
502.55	59250.66
502.72	60147.09
502.90	60491.15
503.07	60205.60
503.25	59877.93
503.43	59164.06
503.60	58429.13
503.78	57876.77
503.95	58536.80
504.13	59653.23
504.30	60378.80
504.48	60191.56
504.65	59805.37
504.83	59749.20
505.01	60329.65
505.18	60612.85
505.36	61228.41
505.53	61228.41
505.71	61544.39
505.88	61642.69
506.06	60870.31
506.23	60753.29
506.41	60236.03
506.58	60519.23
506.76	60657.32
506.93	60397.52
507.11	60261.77
507.28	60346.03
507.46	59714.09
507.63	59451.95
507.81	59281.09
507.98	59533.87
508.16	60069.85
508.33	60612.85
508.50	60741.58
508.68	61181.60
508.85	61539.71
509.03	61476.51
509.20	61630.99
509.38	60786.05
509.55	59952.82
509.73	60088.57
509.90	60657.32
510.08	60914.78
510.25	60858.61
510.42	60811.80
510.60	60556.68
510.77	60912.44
510.95	61427.36
511.12	61357.14
511.30	61654.39
511.47	62031.22
511.64	61902.49
511.82	61483.53
511.99	60800.10
512.17	60580.09
512.34	60041.76
512.51	60200.92
512.69	60282.84
512.86	60336.67
513.04	60786.05
513.21	60828.18
513.38	60669.03
513.56	60069.85
513.73	59807.71
513.90	59557.27
514.08	59917.71
514.25	60060.49
514.43	60306.24
514.60	60292.20
514.77	60416.25
514.95	60633.92
515.12	60495.83
515.29	60662.00
515.47	61080.96
515.64	61289.27
515.81	60947.55
515.99	60301.56
516.16	59128.95
516.33	56980.34
516.51	55716.45
516.68	54850.45
516.85	54578.95
517.03	54733.43
517.20	57502.28
517.37	59599.40
517.54	60610.51
517.72	60231.35
517.89	57811.23
518.06	55573.68
518.24	55955.19
518.41	58099.12
518.58	59110.23
518.75	59407.48
518.93	59536.21
519.10	59573.66
519.27	59891.97
519.45	60037.08
519.62	60631.58
519.79	61015.43
519.96	60968.61
520.14	60420.93
520.31	59721.11
520.48	59810.05
520.65	59896.65
520.83	60774.35
521.00	61219.05
521.17	60811.80
521.34	60467.74
521.52	60673.71
521.69	61532.68
521.86	61542.05
522.03	61202.67
522.20	60282.84
522.38	59363.01
522.55	59220.23
522.72	59849.84
522.89	60016.02
523.07	60168.15
523.24	60376.46
523.41	61139.47
523.58	61481.19
523.75	61918.87
523.92	61804.19
524.10	61630.99
524.27	61764.40
524.44	61366.51
524.61	61450.77
524.78	61024.79
524.96	60966.27
525.13	61134.79
525.30	61413.32
525.47	61848.66
525.64	61675.46
525.81	61031.81
525.98	59625.15
526.16	58417.43
526.33	57598.24
526.50	57633.35
526.67	57088.01
526.84	57593.56
527.01	58571.91
527.18	59557.27
527.36	60278.16
527.53	61001.38
527.70	61263.52
527.87	60818.82
528.04	60310.92
528.21	60610.51
528.38	61567.79
528.55	61848.66
528.72	62085.05
528.89	62181.01
529.07	61949.30
529.24	61399.27
529.41	60772.01
529.58	60193.90
529.75	60530.93
529.92	60722.86
530.09	61090.32
530.26	61598.22
530.43	61825.25
530.60	61827.59
530.77	62138.88
530.94	62218.46
531.11	61476.51
531.28	61427.36
531.46	61237.78
531.63	61324.38
531.80	61263.52
531.97	60699.45
532.14	60196.24
532.31	59283.43
532.48	58597.65
532.65	58602.33
532.82	59538.55
532.99	60526.25
533.16	60732.22
533.33	61345.44
533.50	61085.64
533.67	60533.28
533.84	59936.44
534.01	60224.32
534.18	60439.65
534.35	60830.52
534.52	60664.35
534.69	60673.71
534.86	61254.16
535.03	61364.17
535.20	61675.46
535.37	61949.30
535.54	61993.77
535.71	61750.35
535.88	61563.11
536.05	60809.46
536.22	60561.36
536.38	60229.01
536.55	59667.28
536.72	59337.26
536.89	59100.87
537.06	60126.02
537.23	60750.94
537.40	60886.70
537.57	61003.72
537.74	60685.41
537.91	60694.77
538.08	60587.11
538.25	60523.91
538.42	60889.04
538.59	60650.30
538.75	60048.78
538.92	59856.86
539.09	59906.01
539.26	59564.29
539.43	59517.48
539.60	59634.51
539.77	59660.26
539.94	59503.44
540.11	58850.43
540.28	58230.19
540.44	58447.86
540.61	58852.77
540.78	58796.60
540.95	59355.99
541.12	59669.62
541.29	59819.41
541.46	60044.10
541.62	60292.20
541.79	60039.42
541.96	59402.80
542.13	59480.03
542.30	59709.41
542.47	59831.11
542.63	59599.40
542.80	59306.83
542.97	59615.79
543.14	59433.22
543.31	59489.40
543.48	60034.74
543.64	60631.58
543.81	61106.71
543.98	60626.90
544.15	60144.75
544.32	59416.84
544.48	59723.45
544.65	60074.53
544.82	60549.66
544.99	60107.30
545.16	59538.55
545.32	59253.00
545.49	60240.71
545.66	60762.65
545.83	60205.60
546.00	59938.78
546.16	59678.98
546.33	59707.07
546.50	59704.73
546.67	60217.30
546.83	59653.23
547.00	59845.16
547.17	59220.23
547.34	58637.44
547.50	58733.40
547.67	59105.55
547.84	58890.22
548.00	59367.69
548.17	59791.33
548.34	59697.70
548.51	59599.40
548.67	59796.01
548.84	59739.83
549.01	59664.94
549.18	59714.09
549.34	59615.79
549.51	59524.50
549.68	59494.08
549.84	59112.57
550.01	59171.08
550.18	59098.53
550.34	59042.35
550.51	59194.49
550.68	59334.92
550.84	58672.55
551.01	58719.36
551.18	58948.73
551.34	58960.44
551.51	59484.72
551.68	59599.40
551.84	59690.68
552.01	59395.77
552.18	59250.66
552.34	58639.78
552.51	58164.65
552.68	58145.93
552.84	58555.52
553.01	58911.28
553.18	58693.61
553.34	58941.71
553.51	58988.52
553.67	59210.87
553.84	59253.00
554.01	59358.33
554.17	59047.04
554.34	59009.59
554.51	58960.44
554.67	59517.48
554.84	59196.83
555.00	59051.72
555.17	58702.98
555.33	58707.66
555.50	58775.53
555.67	58735.74
555.83	58635.10
556.00	58546.16
556.16	58267.64
556.33	58136.57
556.50	57836.98
556.66	57872.09
556.83	57523.35
556.99	57811.23
557.16	57946.98
557.32	58328.49
557.49	58457.22
557.65	58347.21
557.82	58330.83
557.98	58108.48
558.15	57867.40
558.32	56807.14
558.48	56023.06
558.65	56294.56
558.81	56816.50
558.98	56783.74
559.14	57352.49
559.31	57291.63
559.47	57296.31
559.64	56860.97
559.80	56711.18
559.97	56729.90
560.13	57179.29
560.30	58174.02
560.46	58501.69
560.63	58562.54
560.79	58471.26
560.96	58286.36
561.12	57050.56
561.29	56175.20
561.45	56465.42
561.61	56949.92
561.78	57212.06
561.94	57076.30
562.11	56868.00
562.27	56963.96
562.44	57286.95
562.60	57497.60
562.77	57741.02
562.93	57675.48
563.10	57439.09
563.26	56851.61
563.42	57153.54
563.59	56725.22
563.75	56699.48
563.92	57036.51
564.08	56811.82
564.24	57066.94
564.41	57125.46
564.57	56804.80
564.74	56683.09
564.90	56769.69
565.07	56605.86
565.23	56203.28
565.39	55344.31
565.56	55515.17
565.72	54967.48
565.88	55807.73
566.05	55789.01
566.21	55894.33
566.38	56121.37
566.54	55983.27
566.70	56301.59
566.87	56636.28
567.03	56746.29
567.19	56863.32
567.36	56699.48
567.52	56647.99
567.68	56315.63
567.85	55751.56
568.01	55377.08
568.17	55126.64
568.34	54993.23
568.50	54843.43
568.66	55049.40
568.83	55533.89
568.99	55491.76
569.15	55590.06
569.32	55590.06
569.48	55234.30
569.64	55117.28
569.81	55033.02
569.97	54660.87
570.13	54684.28
570.30	54197.44
570.46	54258.30
570.62	53113.78
570.78	53081.01
570.95	53476.56
571.11	53902.54
571.27	54738.11
571.43	54686.62
571.60	55009.61
571.76	54944.08
571.92	55234.30
572.09	55157.06
572.25	55435.59
572.41	55206.22
572.57	55482.40
572.74	55487.08
572.90	54855.14
573.06	54726.41
573.22	55018.97
573.38	54981.52
573.55	54838.75
573.71	54707.68
573.87	54843.43
574.03	54588.31
574.20	54831.73
574.36	54499.37
574.52	54262.98
574.68	54150.63
574.84	53811.26
575.01	53172.29
575.17	52961.64
575.33	53729.34
575.49	53464.86
575.65	53602.95
575.82	53614.65
575.98	53476.56
576.14	53752.74
576.30	53928.28
576.46	54225.53
576.62	53764.45
576.79	53869.77
576.95	53361.87
577.11	53598.27
577.27	53497.62
577.43	53975.09
577.59	53488.26
577.75	53036.54
577.92	52376.51
578.08	52161.18
578.24	52135.43
578.40	52212.67
578.56	52676.10
578.72	52587.16
578.88	52891.43
579.04	53134.84
579.21	53148.88
579.37	53338.47
579.53	53247.19
579.69	53233.14
579.85	53160.59
580.01	53265.91
580.17	52870.36
580.33	52612.90
580.49	52690.14
580.65	53083.35
580.82	53366.55
580.98	53130.16
581.14	53254.21
581.30	53092.71
581.46	53188.67
581.62	53233.14
581.78	53354.85
581.94	53113.78
582.10	53268.25
582.26	53312.72
582.42	53050.58
582.58	53240.17
582.74	53450.81
582.90	53078.67
583.06	53209.74
583.22	53146.54
583.38	52893.77
583.54	52788.44
583.70	52973.34
583.86	52877.38
584.02	52832.91
584.18	53013.13
584.34	52659.71
584.50	52390.55
584.66	52666.73
584.82	52172.88
584.98	52229.05
585.14	51786.69
