SpectraSuite Data File
++++++++++++++++++++++++++++++++++++
Date: Mon Oct 07 14:54:00 GMT-05:00 2013
User: price-jones
Dark Spectrum Present: No
Reference Spectrum Present: No
Number of Sampled Component Spectra: 1
Spectrometers: USB2+H05261
Integration Time (usec): 100000 (USB2+H05261)
Spectra Averaged: 1 (USB2+H05261)
Boxcar Smoothing: 0 (USB2+H05261)
Correct for Electrical Dark: No (USB2+H05261)
Strobe/Lamp Enabled: No (USB2+H05261)
Correct for Detector Non-linearity: No (USB2+H05261)
Correct for Stray Light: No (USB2+H05261)
Number of Pixels in Processed Spectrum: 2048
>>>>>Begin Processed Spectral Data<<<<<
365.73	0.00
365.92	0.00
366.12	0.00
366.32	0.00
366.52	0.00
366.72	0.00
366.91	0.00
367.11	0.00
367.31	0.00
367.51	0.00
367.70	0.00
367.90	0.00
368.10	0.00
368.30	0.00
368.49	0.00
368.69	0.00
368.89	0.00
369.09	0.00
369.28	0.00
369.48	0.00
369.68	0.00
369.87	0.00
370.07	0.00
370.27	0.00
370.47	718.54
370.66	3328.24
370.86	4077.21
371.06	4278.50
371.25	4390.84
371.45	4039.76
371.65	3630.17
371.84	3276.75
372.04	3510.80
372.24	3892.31
372.44	4058.49
372.63	4100.62
372.83	3801.03
373.03	3274.41
373.22	3066.10
373.42	3190.15
373.62	3772.94
373.81	4196.58
374.01	4081.89
374.21	3730.81
374.40	3295.47
374.60	3513.14
374.79	3925.08
374.99	4685.75
375.19	4987.68
375.38	4997.04
375.58	4692.77
375.78	4634.26
375.97	4830.87
376.17	4737.24
376.37	4779.37
376.56	5057.90
376.76	5427.70
376.95	5650.05
377.15	5970.71
377.35	6321.79
377.54	6509.03
377.74	6576.91
377.93	6707.98
378.13	6438.81
378.33	6113.48
378.52	5570.48
378.72	5530.69
378.91	5481.53
379.11	5226.42
379.31	5139.82
379.50	5006.41
379.70	5439.40
379.89	6069.01
380.09	6319.45
380.28	6722.02
380.48	6530.09
380.68	6333.49
380.87	6340.51
381.07	5841.98
381.26	5476.85
381.46	5139.82
381.65	4947.89
381.85	4840.23
382.04	4545.32
382.24	4329.99
382.43	4011.68
382.63	3880.61
382.83	4039.76
383.02	3885.29
383.22	3918.06
383.41	3985.93
383.61	4285.52
383.80	4746.61
384.00	5537.71
384.19	5942.62
384.39	6338.17
384.58	6483.28
384.78	6303.06
384.97	6345.19
385.17	5895.81
385.36	5607.92
385.56	5448.77
385.75	5579.84
385.95	6012.84
386.14	6502.01
386.34	6677.55
386.53	6466.90
386.72	5764.74
386.92	6066.67
387.11	6225.82
387.31	6633.08
387.50	6375.62
387.70	6494.99
387.89	6132.20
388.09	6396.68
388.28	6361.58
388.48	6321.79
388.67	6712.66
388.86	7660.57
389.06	8037.40
389.25	8493.80
389.45	8416.57
389.64	8503.17
389.84	8379.12
390.03	8217.62
390.22	8292.52
390.42	8645.94
390.61	9247.46
390.81	9776.42
391.00	9898.13
391.19	9743.65
391.39	9500.23
391.58	8954.89
391.78	8400.18
391.97	8168.47
392.16	7655.89
392.36	7070.76
392.55	5727.29
392.75	4440.00
392.94	3602.08
393.13	3557.61
393.33	4264.46
393.52	5280.25
393.71	6555.84
393.91	7590.36
394.10	8131.02
394.29	9053.19
394.49	9554.07
394.68	10211.76
394.88	10600.29
395.07	10719.65
395.26	10862.43
395.46	10387.30
395.65	9778.76
395.84	8446.99
396.04	7316.51
396.23	5891.13
396.42	4926.83
396.62	4762.99
396.81	5397.28
397.00	6832.02
397.19	8854.25
397.39	10331.12
397.58	11756.51
397.77	12276.11
397.97	13224.03
398.16	12765.28
398.35	13444.04
398.55	13949.59
398.74	14633.03
398.93	14841.34
399.12	14424.72
399.32	13727.24
399.51	14485.58
399.70	15286.04
399.90	15274.34
400.09	15185.40
400.28	14843.68
400.47	15145.61
400.67	15793.94
400.86	16203.53
401.05	16257.36
401.24	16439.92
401.44	16486.73
401.63	16376.73
401.82	16723.13
402.01	16477.37
402.21	16938.46
402.40	17256.77
402.59	16238.64
402.78	15843.09
402.97	15269.66
403.17	15957.77
403.36	16844.84
403.55	17378.48
403.74	17736.58
403.93	16851.86
404.13	15639.46
404.32	15234.55
404.51	15829.04
404.70	17301.24
404.89	17231.02
405.09	17085.91
405.28	16601.42
405.47	16386.09
405.66	16299.49
405.85	16084.16
406.05	15623.08
406.24	15681.59
406.43	16542.91
406.62	17301.24
406.81	17060.16
407.00	16465.67
407.20	16278.43
407.39	16187.14
407.58	17317.62
407.77	17561.04
407.96	18169.58
408.15	18665.77
408.34	18644.71
408.54	19419.42
408.73	19358.57
408.92	19178.35
409.11	18649.39
409.30	17914.46
409.49	16585.04
409.68	15674.57
409.87	15030.92
410.07	15985.86
410.26	17319.96
410.45	18555.77
410.64	19019.19
410.83	19374.95
411.02	20018.60
411.21	20676.29
411.40	20390.75
411.59	20411.81
411.78	20409.47
411.98	20231.59
412.17	20210.53
412.36	19939.02
412.55	20121.59
412.74	19566.88
412.93	19180.69
413.12	19438.15
413.31	21209.93
413.50	21415.90
413.69	21743.58
413.88	21247.38
414.07	20348.62
414.26	20643.52
414.45	21406.54
414.64	21556.33
414.83	21373.77
415.02	21177.17
415.22	20952.48
415.41	21479.10
415.60	22101.68
415.79	23124.49
415.98	23101.09
416.17	23515.36
416.36	22864.69
416.55	22703.20
416.74	21755.28
416.93	21160.78
417.12	21216.96
417.31	21462.71
417.50	21783.37
417.69	22651.70
417.88	22565.10
418.07	22157.85
418.26	21979.97
418.45	22324.03
418.64	22927.89
418.83	23651.11
419.02	23506.00
419.21	23068.32
419.39	22054.87
419.58	20821.41
419.77	20854.17
419.96	22265.52
420.15	23199.39
420.34	24032.62
420.53	24769.89
420.72	25198.21
420.91	25118.63
421.10	24826.06
421.29	24830.74
421.48	23660.48
421.67	24680.95
421.86	24222.20
422.05	22855.33
422.24	20149.67
422.43	20259.68
422.61	22244.45
422.80	23873.46
422.99	24023.26
423.18	23180.67
423.37	22649.36
423.56	22515.95
423.75	23300.03
423.94	23445.15
424.13	22508.93
424.32	22955.97
424.50	22473.82
424.69	22024.44
424.88	22258.49
425.07	22504.25
425.26	22288.92
425.45	22143.81
425.64	21502.50
425.83	21738.90
426.01	22995.76
426.20	23510.68
426.39	23173.64
426.58	21511.86
426.77	19927.32
426.96	19168.99
427.15	19939.02
427.33	21446.33
427.52	22401.27
427.71	22670.43
427.90	22129.77
428.09	22150.83
428.28	21448.67
428.46	20774.60
428.65	20695.02
428.84	21003.97
429.03	21411.22
429.22	20203.50
429.40	19527.09
429.59	17298.90
429.78	15431.15
429.97	15623.08
430.16	15400.72
430.34	15700.31
430.53	15697.97
430.72	15925.00
430.91	17741.26
431.10	20781.62
431.28	24418.81
431.47	26345.07
431.66	26787.43
431.85	24694.99
432.03	22569.79
432.22	21656.98
432.41	22569.79
432.60	25083.52
432.79	25692.06
432.97	26717.22
433.16	25883.98
433.35	23374.93
433.54	21355.05
433.72	19798.59
433.91	20648.21
434.10	22820.22
434.28	24659.88
434.47	25525.88
434.66	25095.22
434.85	24739.46
435.03	24182.42
435.22	25303.53
435.41	26969.99
435.59	27042.55
435.78	27103.40
435.97	27782.16
436.16	27971.74
436.34	27531.72
436.53	27290.65
436.72	27300.01
436.90	25905.05
437.09	25355.02
437.28	25177.14
437.46	26171.87
437.65	26012.71
437.84	24652.86
438.02	22197.64
438.21	22185.94
438.40	23129.17
438.58	25268.42
438.77	26101.65
438.96	26342.73
439.14	27323.41
439.33	27620.66
439.52	28737.10
439.70	27665.13
439.89	27063.61
440.08	26171.87
440.26	26394.22
440.45	27276.60
440.63	28835.40
440.82	30586.12
441.01	30181.21
441.19	29575.01
441.38	30153.12
441.57	31321.05
441.75	32102.79
441.94	31564.46
442.12	31175.94
442.31	32367.27
442.50	32086.40
442.68	31611.28
442.87	31597.23
443.05	31112.74
443.24	31309.35
443.43	31934.27
443.61	32992.19
443.80	33193.48
443.98	31211.04
444.17	30895.07
444.35	32938.36
444.54	33586.69
444.73	33200.50
444.91	31271.90
445.10	30567.40
445.28	29254.36
445.47	28477.30
445.65	28601.35
445.84	29855.87
446.02	30555.69
446.21	31445.10
446.39	31159.55
446.58	31569.15
446.77	32051.30
446.95	32231.52
447.14	33415.83
447.32	34143.74
447.51	33181.77
447.69	31835.97
447.88	31576.17
448.06	31674.47
448.25	32835.38
448.43	33041.34
448.62	32411.74
448.80	32170.66
448.99	32591.96
449.17	32643.45
449.36	32432.80
449.54	34246.72
449.73	33972.88
449.91	34845.90
450.10	35981.06
450.28	36229.15
450.46	35627.63
450.65	36023.19
450.83	35777.43
451.02	34656.31
451.20	34693.76
451.39	34623.54
451.57	34628.23
451.76	34553.33
451.94	34239.70
452.13	33675.63
452.31	32107.47
452.49	30565.06
452.68	30932.52
452.86	31136.15
453.05	31512.97
453.23	32297.05
453.42	33123.26
453.60	34036.07
453.78	34005.64
453.97	34005.64
454.15	33757.55
454.34	32919.63
454.52	33343.27
454.70	32416.42
454.89	32914.95
455.07	33008.58
455.26	33677.97
455.44	34588.44
455.62	35398.26
455.81	35526.99
455.99	35608.91
456.17	35065.91
456.36	35318.68
456.54	36023.19
456.73	36121.49
456.91	36130.85
457.09	36526.40
457.28	37479.00
457.46	36264.26
457.64	35651.04
457.83	34560.35
458.01	33343.27
458.19	34862.28
458.38	34581.42
458.56	36561.51
458.74	35878.07
458.93	35552.74
459.11	34796.74
459.29	35068.25
459.48	35150.17
459.66	34778.02
459.84	35885.09
460.03	35866.37
460.21	35400.60
460.39	37109.19
460.57	36662.15
460.76	36996.85
460.94	37127.92
461.12	36465.55
461.31	36959.40
461.49	36842.37
461.67	36589.59
461.85	37689.65
462.04	37766.88
462.22	37853.48
462.40	37481.34
462.59	37579.64
462.77	37479.00
462.95	37109.19
463.13	37013.23
463.32	36823.65
463.50	36601.30
463.68	36065.31
463.86	36706.62
464.05	36168.30
464.23	35723.60
464.41	35019.10
464.59	34361.40
464.78	36451.50
464.96	36259.58
465.14	35618.27
465.32	36322.77
465.50	37481.34
465.69	37729.44
465.87	37010.89
466.05	35768.07
466.23	34693.76
466.41	33715.42
466.60	34789.72
466.78	34759.30
466.96	35662.74
467.14	35440.39
467.32	36250.22
467.51	36563.85
467.69	35276.55
467.87	35381.88
468.05	36194.04
468.23	36034.89
468.41	36222.13
468.60	36666.83
468.78	36563.85
468.96	35955.31
469.14	37036.64
469.32	36975.78
469.50	35351.45
469.69	35536.35
469.87	35337.41
470.05	34740.57
470.23	35051.86
470.41	35283.58
470.59	35426.35
470.77	35629.98
470.95	36458.52
471.14	36854.08
471.32	36844.71
471.50	38990.98
471.68	39014.39
471.86	39250.78
472.04	39288.23
472.22	39636.97
472.40	37904.98
472.58	37504.74
472.77	36847.05
472.95	37778.59
473.13	38719.48
473.31	37560.92
473.49	37757.52
473.67	38876.30
473.85	38756.93
474.03	39679.10
474.21	39964.65
474.39	40158.91
474.57	40486.59
474.75	40294.66
474.93	40357.86
475.12	39180.57
475.30	38972.26
475.48	38965.24
475.66	39931.88
475.84	39718.89
476.02	39463.77
476.20	38349.68
476.38	39182.91
476.56	40208.06
476.74	40589.57
476.92	41038.95
477.10	41387.69
477.28	42789.67
477.46	43358.42
477.64	43157.14
477.82	43615.88
478.00	43711.84
478.18	42845.85
478.36	42583.71
478.54	42869.25
478.72	43276.51
478.90	44201.02
479.08	44891.48
479.26	45654.49
479.44	45263.62
479.62	44650.40
479.80	45429.80
479.98	45570.23
480.16	45720.02
480.34	45078.72
480.52	45755.13
480.70	45488.31
480.88	45549.17
481.06	46721.77
481.24	46955.83
481.41	47669.69
481.59	48402.28
481.77	47971.62
481.95	47400.53
482.13	47236.69
482.31	47107.96
482.49	48102.69
482.67	48175.25
482.85	48025.45
483.03	48739.32
483.21	49041.24
483.39	49132.53
483.57	48130.78
483.74	47973.96
483.92	48165.88
484.10	48622.29
484.28	49298.70
484.46	49755.11
484.64	50328.54
484.82	49106.78
485.00	48774.42
485.18	47969.28
485.35	46848.16
485.53	43786.74
485.71	40301.68
485.89	39515.26
486.07	41446.21
486.25	44786.15
486.43	47409.89
486.61	48095.67
486.78	47578.41
486.96	48067.58
487.14	49434.45
487.32	50309.82
487.50	51044.74
487.68	51941.17
487.85	52708.86
488.03	52334.38
488.21	52090.96
488.39	51459.02
488.57	50567.27
488.75	50363.65
488.92	51709.46
489.10	53642.74
489.28	54911.31
489.46	55302.18
489.64	55154.72
489.81	55316.22
489.99	54878.54
490.17	55229.62
490.35	55407.50
490.53	55117.28
490.70	54504.06
490.88	54480.65
491.06	55491.76
491.24	55416.86
491.41	54443.20
491.59	52891.43
491.77	52289.91
491.95	53202.72
492.13	54417.46
492.30	55480.06
492.48	56196.26
492.66	56762.67
492.84	56594.15
493.01	56500.53
493.19	55767.94
493.37	55564.32
493.54	55449.63
493.72	55875.61
493.90	56985.02
494.08	57481.22
494.25	57794.85
494.43	57904.85
494.61	58513.39
494.79	58454.88
494.96	58110.82
495.14	57593.56
495.32	56713.52
495.49	56257.12
495.67	57237.80
495.85	58358.92
496.02	58714.68
496.20	58665.53
496.38	58227.85
496.55	58003.16
496.73	58494.67
496.91	58731.06
497.09	59309.18
497.26	59517.48
497.44	58897.24
497.62	58546.16
497.79	57682.50
497.97	56413.93
498.14	56645.65
498.32	57612.29
498.50	58379.98
498.67	58939.37
498.85	59011.93
499.03	59044.69
499.20	59047.04
499.38	59358.33
499.56	59119.59
499.73	58660.85
499.91	58356.58
500.08	58003.16
500.26	57350.15
500.44	57457.81
500.61	58237.21
500.79	58064.01
500.97	57872.09
501.14	57521.01
501.32	57352.49
501.49	57453.13
501.67	57298.65
501.84	58157.63
502.02	58188.06
502.20	58759.15
502.37	58836.39
502.55	58766.17
502.72	59629.83
502.90	59870.90
503.07	59683.66
503.25	59217.89
503.43	58391.68
503.60	57748.04
503.78	57001.41
503.95	57577.18
504.13	58801.28
504.30	59777.28
504.48	59480.03
504.65	59007.25
504.83	59105.55
505.01	59725.79
505.18	60046.44
505.36	60402.21
505.53	60425.61
505.71	60690.09
505.88	60921.80
506.06	60193.90
506.23	59819.41
506.41	59611.10
506.58	59746.86
506.76	59781.96
506.93	59922.40
507.11	59557.27
507.28	59723.45
507.46	59288.11
507.63	58515.73
507.81	58354.24
507.98	58735.74
508.16	59299.81
508.33	59887.29
508.50	60210.28
508.68	60348.37
508.85	60907.76
509.03	60921.80
509.20	60673.71
509.38	59999.63
509.55	59309.18
509.73	59421.52
509.90	59948.14
510.08	60198.58
510.25	60193.90
510.42	59943.46
510.60	59564.29
510.77	60079.21
510.95	60537.96
511.12	60760.31
511.30	60970.96
511.47	61205.01
511.64	61286.93
511.82	60764.99
511.99	60123.68
512.17	59842.82
512.34	59199.17
512.51	59470.67
512.69	59714.09
512.86	59763.24
513.04	60294.54
513.21	60172.83
513.38	59945.80
513.56	59208.53
513.73	58969.80
513.90	59105.55
514.08	59063.42
514.25	59337.26
514.43	59454.29
514.60	59554.93
514.77	59805.37
514.95	59737.49
515.12	59770.26
515.29	59896.65
515.47	60591.79
515.64	60764.99
515.81	60320.29
515.99	59718.77
516.16	58365.94
516.33	56409.25
516.51	54878.54
516.68	53958.71
516.85	54003.18
517.03	53982.12
517.20	56610.54
517.37	59217.89
517.54	59711.75
517.72	59381.73
517.89	57193.33
518.06	54504.06
518.24	55098.55
518.41	57066.94
518.58	58464.24
518.75	58693.61
518.93	58894.90
519.10	58773.19
519.27	59220.23
519.45	59325.56
519.62	60081.55
519.79	60210.28
519.96	60254.75
520.14	59657.91
520.31	58871.49
520.48	59011.93
520.65	59398.12
520.83	60287.52
521.00	60547.32
521.17	60081.55
521.34	59721.11
521.52	59985.59
521.69	60704.13
521.86	60959.25
522.03	60797.76
522.20	59430.88
522.38	58508.71
522.55	58607.01
522.72	59143.00
522.89	59358.33
523.07	59458.97
523.24	59723.45
523.41	60364.76
523.58	60898.40
523.75	61366.51
523.92	60961.59
524.10	61090.32
524.27	60912.44
524.44	60933.51
524.61	60762.65
524.78	60544.98
524.96	60385.82
525.13	60528.59
525.30	60823.50
525.47	61165.22
525.64	60818.82
525.81	60278.16
525.98	59084.48
526.16	57848.68
526.33	57088.01
526.50	56650.33
526.67	56472.45
526.84	56987.36
527.01	57874.43
527.18	58663.19
527.36	59522.16
527.53	60310.92
527.70	60498.17
527.87	59999.63
528.04	59470.67
528.21	60114.32
528.38	60725.20
528.55	61106.71
528.72	61410.98
528.89	61539.71
529.07	61373.53
529.24	60746.26
529.41	60165.81
529.58	59379.39
529.75	59767.92
529.92	59906.01
530.09	60264.11
530.26	60987.34
530.43	61242.46
530.60	61207.35
530.77	61277.57
530.94	61410.98
531.11	60931.17
531.28	60598.81
531.46	60507.53
531.63	60542.64
531.80	60631.58
531.97	60161.13
532.14	59536.21
532.31	58262.96
532.48	57893.15
532.65	57780.81
532.82	58700.64
532.99	59796.01
533.16	60097.94
533.33	60463.06
533.50	60371.78
533.67	59650.89
533.84	59458.97
534.01	59454.29
534.18	59821.75
534.35	59990.27
534.52	59920.05
534.69	60011.34
534.86	60383.48
535.03	60753.29
535.20	61010.74
535.37	61448.42
535.54	61380.55
535.71	61256.50
535.88	60736.90
536.05	60310.92
536.22	59810.05
536.38	59435.56
536.55	59054.06
536.72	58569.57
536.89	58497.01
537.06	59196.83
537.23	60128.36
537.40	60367.10
537.57	60388.16
537.74	60020.70
537.91	59922.40
538.08	59821.75
538.25	60001.97
538.42	60390.50
538.59	60051.12
538.75	59543.23
538.92	59210.87
539.09	59206.19
539.26	59047.04
539.43	58688.93
539.60	58953.41
539.77	58955.75
539.94	58567.23
540.11	58220.83
540.28	57668.46
540.44	57724.63
540.61	57961.03
540.78	58197.42
540.95	58642.12
541.12	58841.07
541.29	59262.36
541.46	59325.56
541.62	59475.35
541.79	59281.09
541.96	58747.45
542.13	58841.07
542.30	59044.69
542.47	59098.53
542.63	58953.41
542.80	58829.37
542.97	58731.06
543.14	58630.42
543.31	58670.21
543.48	59430.88
543.64	59966.87
543.81	60301.56
543.98	60020.70
544.15	59597.06
544.32	58784.90
544.48	59004.91
544.65	59377.05
544.82	59765.58
544.99	59201.51
545.16	59152.36
545.32	58677.23
545.49	59646.21
545.66	59721.11
545.83	59557.27
546.00	59217.89
546.16	59030.65
546.33	58965.12
546.50	58979.16
546.67	59458.97
546.83	58953.41
547.00	59089.16
547.17	58405.73
547.34	57918.90
547.50	57619.31
547.67	58099.12
547.84	58300.40
548.00	58546.16
548.17	59143.00
548.34	58941.71
548.51	59025.97
548.67	59086.82
548.84	59065.76
549.01	58763.83
549.18	58941.71
549.34	59018.95
549.51	58824.68
549.68	58808.30
549.84	58639.78
550.01	58358.92
550.18	58307.43
550.34	58520.41
550.51	58431.47
550.68	58590.63
550.84	57888.47
551.01	58255.93
551.18	58099.12
551.34	58260.62
551.51	58597.65
551.68	58941.71
551.84	59082.14
552.01	58922.99
552.18	58658.51
552.34	57869.75
552.51	57623.99
552.68	57495.26
552.84	57881.45
553.01	58218.49
553.18	58101.46
553.34	58279.34
553.51	58295.72
553.67	58623.40
553.84	58656.17
554.01	58618.72
554.17	58244.23
554.34	58415.09
554.51	58422.11
554.67	58775.53
554.84	58721.70
555.00	58272.32
555.17	57958.69
555.33	58218.49
555.50	58061.67
555.67	58120.18
555.83	57745.70
556.00	57513.98
556.16	57581.86
556.33	57315.04
556.50	57172.27
556.66	57305.68
556.83	56711.18
556.99	57095.03
557.16	57125.46
557.32	57179.29
557.49	57425.04
557.65	57553.77
557.82	57537.39
557.98	57340.78
558.15	57013.11
558.32	56088.60
558.48	55409.84
558.65	55585.38
558.81	55948.17
558.98	56069.87
559.14	56285.20
559.31	56512.23
559.47	56622.24
559.64	55934.12
559.80	55887.31
559.97	55739.86
560.13	56250.09
560.30	57134.82
560.46	57605.26
560.63	57965.71
560.79	57745.70
560.96	57455.47
561.12	56339.04
561.29	55554.96
561.45	55461.33
561.61	56046.47
561.78	56425.64
561.94	56739.27
562.11	56074.55
562.27	56149.45
562.44	56266.48
562.60	56800.12
562.77	56814.16
562.93	56741.61
563.10	56610.54
563.26	56268.82
563.42	56437.34
563.59	55936.46
563.75	55957.53
563.92	56119.02
564.08	56072.21
564.24	56367.12
564.41	56231.37
564.57	56062.85
564.74	56027.74
564.90	56053.49
565.07	55899.01
565.23	55426.23
565.39	54550.87
565.56	54555.55
565.72	54651.51
565.88	54742.79
566.05	54892.58
566.21	55194.51
566.38	55372.39
566.54	55320.90
566.70	55765.60
566.87	55999.66
567.03	55997.32
567.19	56039.45
567.36	55901.36
567.52	55679.00
567.68	55648.58
567.85	54953.44
568.01	54408.09
568.17	54426.82
568.34	54323.83
568.50	54131.91
568.66	54358.94
568.83	54717.04
568.99	54880.88
569.15	55023.65
569.32	54775.56
569.48	54728.75
569.64	54064.03
569.81	54087.44
569.97	54000.84
570.13	54021.90
570.30	53340.81
570.46	52971.00
570.62	52685.46
570.78	52395.23
570.95	52758.02
571.11	53497.62
571.27	53614.65
571.43	53736.36
571.60	54136.59
571.76	53993.82
571.92	54564.91
572.09	54602.36
572.25	54506.40
572.41	54585.97
572.57	54410.43
572.74	54450.22
572.90	54138.93
573.06	54017.22
573.22	54066.38
573.38	54071.06
573.55	54054.67
573.71	54330.86
573.87	54068.72
574.03	53813.60
574.20	53848.71
574.36	53598.27
574.52	53134.84
574.68	53083.35
574.84	52989.73
575.01	52437.36
575.17	52207.99
575.33	52456.09
575.49	52942.92
575.65	52954.62
575.82	52776.74
575.98	52580.13
576.14	53109.10
576.30	53467.20
576.46	53371.24
576.62	53123.14
576.79	52858.66
576.95	52617.58
577.11	52479.49
577.27	52669.08
577.43	53137.18
577.59	52507.58
577.75	52254.80
577.92	51704.77
578.08	51264.75
578.24	51199.22
578.40	51386.46
578.56	51751.59
578.72	52114.37
578.88	52135.43
579.04	51955.21
579.21	52334.38
579.37	52406.94
579.53	52573.11
579.69	52549.71
579.85	52362.46
580.01	52341.40
580.17	51873.29
580.33	51789.03
580.49	51924.78
580.65	52474.81
580.82	52313.31
580.98	52348.42
581.14	52332.04
581.30	52353.10
581.46	52385.87
581.62	52500.56
581.78	52081.60
581.94	52715.89
582.10	52673.76
582.26	52561.41
582.42	52264.16
582.58	52268.84
582.74	52341.40
582.90	52423.32
583.06	52535.66
583.22	52212.67
583.38	52210.33
583.54	52154.16
583.70	52231.40
583.86	52299.27
584.02	51842.87
584.18	51980.96
584.34	51735.20
584.50	51810.10
584.66	51700.09
584.82	51517.53
584.98	51606.47
585.14	50623.45
