SpectraSuite Data File
++++++++++++++++++++++++++++++++++++
Date: Mon Oct 07 14:53:07 GMT-05:00 2013
User: price-jones
Dark Spectrum Present: No
Reference Spectrum Present: No
Number of Sampled Component Spectra: 1
Spectrometers: USB2+H05261
Integration Time (usec): 100000 (USB2+H05261)
Spectra Averaged: 1 (USB2+H05261)
Boxcar Smoothing: 0 (USB2+H05261)
Correct for Electrical Dark: No (USB2+H05261)
Strobe/Lamp Enabled: No (USB2+H05261)
Correct for Detector Non-linearity: No (USB2+H05261)
Correct for Stray Light: No (USB2+H05261)
Number of Pixels in Processed Spectrum: 2048
>>>>>Begin Processed Spectral Data<<<<<
365.73	0.00
365.92	0.00
366.12	0.00
366.32	0.00
366.52	0.00
366.72	0.00
366.91	0.00
367.11	0.00
367.31	0.00
367.51	0.00
367.70	0.00
367.90	0.00
368.10	0.00
368.30	0.00
368.49	0.00
368.69	0.00
368.89	0.00
369.09	0.00
369.28	0.00
369.48	0.00
369.68	0.00
369.87	0.00
370.07	0.00
370.27	0.00
370.47	627.26
370.66	3243.98
370.86	3815.07
371.06	4009.34
371.25	4145.09
371.45	3801.03
371.65	3463.99
371.84	3091.85
372.04	3386.76
372.24	3740.18
372.44	3873.59
372.63	3901.67
372.83	3501.44
373.03	3173.77
373.22	2885.88
373.42	3164.40
373.62	3557.61
373.81	3999.98
374.01	3861.88
374.21	3583.36
374.40	3176.11
374.60	3433.57
374.79	3735.50
374.99	4451.70
375.19	4765.33
375.38	4683.41
375.58	4360.42
375.78	4440.00
375.97	4486.81
376.17	4669.37
376.37	4657.67
376.56	4676.39
376.76	5160.88
376.95	5441.75
377.15	5764.74
377.35	6036.24
377.54	6181.35
377.74	6431.79
377.93	6279.66
378.13	6242.21
378.33	5895.81
378.52	5362.17
378.72	5240.46
378.91	5221.74
379.11	5032.15
379.31	4891.72
379.50	4915.12
379.70	5245.14
379.89	5640.69
380.09	6174.33
380.28	6134.54
380.48	6270.30
380.68	6328.81
380.87	5863.04
381.07	5675.80
381.26	4952.57
381.46	4805.12
381.65	4578.09
381.85	4554.68
382.04	4418.93
382.24	4201.26
382.43	3896.99
382.63	3995.29
382.83	3658.26
383.02	3721.45
383.22	3829.12
383.41	3803.37
383.61	3960.19
383.80	4683.41
384.00	5336.42
384.19	5982.41
384.39	6246.89
384.58	6111.14
384.78	6033.90
384.97	6188.38
385.17	5743.67
385.36	5458.13
385.56	5301.31
385.75	5582.18
385.95	5954.32
386.14	6314.77
386.34	6401.37
386.53	6277.32
386.72	5767.08
386.92	5666.44
387.11	6029.22
387.31	6396.68
387.50	6340.51
387.70	5980.07
387.89	6008.16
388.09	6022.20
388.28	5881.77
388.48	6265.61
388.67	6567.54
388.86	7508.44
389.06	7878.24
389.25	8336.99
389.45	8437.63
389.64	8243.37
389.84	8191.88
390.03	7981.23
390.22	8037.40
390.42	8475.08
390.61	8997.02
390.81	9584.49
391.00	9729.61
391.19	9427.68
391.39	9146.81
391.58	8692.75
391.78	8013.99
391.97	7962.50
392.16	7337.58
392.36	6792.23
392.55	5385.57
392.75	4358.08
392.94	3583.36
393.13	3527.19
393.33	4201.26
393.52	5336.42
393.71	6595.63
393.91	7290.77
394.10	7805.69
394.29	8697.43
394.49	9305.97
394.68	10178.99
394.88	10078.35
395.07	10530.07
395.26	10478.58
395.46	10111.11
395.65	9479.17
395.84	8402.52
396.04	7070.76
396.23	5617.29
396.42	4688.09
396.62	4660.01
396.81	5348.12
397.00	7019.27
397.19	8690.41
397.39	10223.46
397.58	11435.86
397.77	12353.35
397.97	12840.18
398.16	12657.62
398.35	13378.50
398.55	13680.43
398.74	14148.54
398.93	14630.69
399.12	14431.74
399.32	14057.26
399.51	14274.93
399.70	15077.73
399.90	14752.40
400.09	14810.91
400.28	14665.80
400.47	14874.10
400.67	15468.60
400.86	16116.93
401.05	15878.19
401.24	16095.86
401.44	16280.77
401.63	16353.32
401.82	16318.22
402.01	16634.19
402.21	16711.42
402.40	16468.01
402.59	16212.89
402.78	15644.14
402.97	14946.66
403.17	15683.93
403.36	16430.56
403.55	16922.07
403.74	17720.20
403.93	16552.27
404.13	15459.24
404.32	15087.09
404.51	15716.70
404.70	17151.45
404.89	16889.31
405.09	16673.98
405.28	16133.31
405.47	16098.20
405.66	16102.89
405.85	15829.04
406.05	15405.41
406.24	15733.08
406.43	16217.57
406.62	16847.18
406.81	16758.24
407.00	16329.92
407.20	15709.68
407.39	16058.42
407.58	16486.73
407.77	17500.19
407.96	18029.15
408.15	18157.88
408.34	18677.48
408.54	19101.11
408.73	19140.90
408.92	19213.46
409.11	18483.21
409.30	17633.60
409.49	16358.00
409.68	15452.22
409.87	15023.90
410.07	16184.80
410.26	17446.35
410.45	18375.55
410.64	19012.17
410.83	19648.80
411.02	19796.25
411.21	20329.89
411.40	20292.44
411.59	20233.93
411.78	20425.86
411.98	19784.55
412.17	20222.23
412.36	20152.01
412.55	19747.10
412.74	19700.29
412.93	19105.79
413.12	19499.00
413.31	21455.69
413.50	21427.60
413.69	21666.34
413.88	20812.04
414.07	20266.70
414.26	20718.42
414.45	21383.13
414.64	21249.72
414.83	21348.03
415.02	21083.55
415.22	21055.46
415.41	21855.92
415.60	22005.72
415.79	23253.22
415.98	23580.90
416.17	23414.72
416.36	22871.72
416.55	22537.02
416.74	22082.95
416.93	21001.63
417.12	21120.99
417.31	21923.80
417.50	21675.70
417.69	22398.93
417.88	22265.52
418.07	22368.50
418.26	21907.41
418.45	22272.54
418.64	22930.23
418.83	24210.50
419.02	23206.41
419.21	23168.96
419.39	22253.81
419.58	20961.84
419.77	21425.26
419.96	21942.52
420.15	23517.70
420.34	24095.82
420.53	25022.67
420.72	25570.35
420.91	25104.59
421.10	24940.75
421.29	24863.51
421.48	23644.09
421.67	25156.08
421.86	24367.32
422.05	22623.62
422.24	20388.41
422.43	20152.01
422.61	22518.29
422.80	24182.42
422.99	23852.40
423.18	23175.98
423.37	22918.53
423.56	22955.97
423.75	23463.87
423.94	23597.28
424.13	22857.67
424.32	22677.45
424.50	22862.35
424.69	22361.48
424.88	22579.15
425.07	22661.07
425.26	22684.47
425.45	22583.83
425.64	22108.70
425.83	21745.92
426.01	23117.47
426.20	24100.50
426.39	23562.17
426.58	21848.90
426.77	20210.53
426.96	19290.70
427.15	20313.51
427.33	21972.95
427.52	22546.38
427.71	22911.50
427.90	22546.38
428.09	22480.85
428.28	21891.03
428.46	21371.43
428.65	20936.09
428.84	21322.28
429.03	21940.18
429.22	20643.52
429.40	19515.39
429.59	17720.20
429.78	15885.22
429.97	15925.00
430.16	15922.66
430.34	15960.11
430.53	16287.79
430.72	16386.09
430.91	18132.13
431.10	21577.40
431.28	25411.20
431.47	27178.30
431.66	27384.27
431.85	24716.06
432.03	22595.53
432.22	21790.39
432.41	23094.07
432.60	25380.77
432.79	26405.92
432.97	27276.60
433.16	26546.36
433.35	23847.72
433.54	21858.26
433.72	20407.13
433.91	21025.03
434.10	23711.97
434.28	25413.54
434.47	26387.20
434.66	26111.02
434.85	25380.77
435.03	25383.11
435.22	25916.75
435.41	27515.34
435.59	27735.35
435.78	28079.41
435.97	28486.66
436.16	28711.35
436.34	28458.57
436.53	27655.77
436.72	27503.64
436.90	26192.94
437.09	26141.44
437.28	26022.08
437.46	26927.86
437.65	26749.98
437.84	24905.64
438.02	22808.52
438.21	22581.49
438.40	24285.40
438.58	26377.84
438.77	27040.21
438.96	27175.96
439.14	28306.44
439.33	28463.25
439.52	29392.45
439.70	28325.16
439.89	27754.07
440.08	27346.82
440.26	27325.75
440.45	27953.02
440.63	30033.75
440.82	31449.78
441.01	31117.42
441.19	30920.82
441.38	30883.37
441.57	32498.34
441.75	32933.68
441.94	33013.26
442.12	32889.21
442.31	33174.75
442.50	32940.70
442.68	33036.66
442.87	32177.68
443.05	31817.24
443.24	32940.70
443.43	33280.08
443.61	33998.62
443.80	34373.11
443.98	32137.90
444.17	32524.08
444.35	34204.59
444.54	34677.38
444.73	34494.82
444.91	32926.66
445.10	31470.84
445.28	30298.23
445.47	30075.88
445.65	30087.59
445.84	31040.18
446.02	31873.42
446.21	32280.67
446.39	32411.74
446.58	32840.06
446.77	33530.51
446.95	33488.38
447.14	34710.14
447.32	35213.36
447.51	34705.46
447.69	33095.18
447.88	32680.90
448.06	33158.37
448.25	34181.18
448.43	34316.93
448.62	33638.18
448.80	33635.84
448.99	33869.89
449.17	34005.64
449.36	34108.63
449.54	35218.04
449.73	35466.14
449.91	36451.50
450.10	37855.82
450.28	37614.75
450.46	37479.00
450.65	37216.86
450.83	37474.32
451.02	36528.74
451.20	36212.77
451.39	36430.44
451.57	36198.73
451.76	36416.40
451.94	35683.81
452.13	34756.96
452.31	33603.07
452.49	31978.74
452.68	32435.14
452.86	32514.72
453.05	32921.98
453.23	34302.89
453.42	35049.52
453.60	35608.91
453.78	35578.48
453.97	35428.69
454.15	35751.68
454.34	34616.52
454.52	34714.83
454.70	34120.33
454.89	34890.37
455.07	35077.61
455.26	35498.91
455.44	36645.77
455.62	37284.73
455.81	37076.43
455.99	37525.81
456.17	36968.76
456.36	36840.03
456.54	37895.61
456.73	38141.37
456.91	38522.88
457.09	38808.42
457.28	39452.07
457.46	37481.34
457.64	37413.46
457.83	36725.35
458.01	35899.14
458.19	36470.23
458.38	36917.27
458.56	37668.58
458.74	37886.25
458.93	37668.58
459.11	37574.96
459.29	37230.90
459.48	36985.15
459.66	36634.06
459.84	37432.19
460.03	37670.92
460.21	37741.14
460.39	38742.89
460.57	38794.38
460.76	38911.41
460.94	39606.55
461.12	38810.76
461.31	38937.15
461.49	38763.95
461.67	38670.33
461.85	39990.39
462.04	39559.73
462.22	40051.25
462.40	39945.92
462.59	39409.94
462.77	39629.95
462.95	39782.09
463.13	39393.56
463.32	38829.49
463.50	38934.81
463.68	38775.66
463.86	39082.27
464.05	38464.36
464.23	37151.32
464.41	37275.37
464.59	36783.86
464.78	38663.31
464.96	38150.73
465.14	38218.61
465.32	38927.79
465.50	40224.45
465.69	40065.29
465.87	39255.46
466.05	38284.14
466.23	37127.92
466.41	35824.24
466.60	37303.46
466.78	36697.26
466.96	37785.61
467.14	38286.48
467.32	38988.64
467.51	39051.84
467.69	36928.97
467.87	38129.67
468.05	39084.61
468.23	38712.46
468.41	38455.00
468.60	38632.88
468.78	38976.94
468.96	38515.86
469.14	39751.66
469.32	39498.88
469.50	37565.60
469.69	37970.51
469.87	37469.64
470.05	37350.27
470.23	37467.30
470.41	37654.54
470.59	37734.12
470.77	38281.80
470.95	39405.26
471.14	39400.58
471.32	39454.41
471.50	41778.56
471.68	41816.01
471.86	42000.91
472.04	42169.43
472.22	42127.30
472.40	40098.06
472.58	40069.97
472.77	39321.00
472.95	40353.18
473.13	41663.88
473.31	40100.40
473.49	40861.07
473.67	41921.34
473.85	41722.39
474.03	42836.48
474.21	42756.91
474.39	43124.37
474.57	43370.13
474.75	43545.67
474.93	43676.74
475.12	41818.35
475.30	42043.04
475.48	42513.49
475.66	43030.75
475.84	42323.91
476.02	41851.12
476.20	41331.52
476.38	42506.47
476.56	43587.80
476.74	43810.15
476.92	44224.42
477.10	44931.26
477.28	46183.45
477.46	45823.01
477.64	46333.24
477.82	46330.90
478.00	46857.52
478.18	46466.66
478.36	45923.65
478.54	46265.37
478.72	46117.92
478.90	47157.11
479.08	48360.15
479.26	48828.26
479.44	48507.60
479.62	48397.60
479.80	48301.64
479.98	48573.14
480.16	48797.83
480.34	48308.66
480.52	48531.01
480.70	49059.97
480.88	48952.30
481.06	49705.96
481.24	49764.47
481.41	50997.93
481.59	51349.01
481.77	51021.34
481.95	50370.67
482.13	50424.50
482.31	50316.84
482.49	51114.96
482.67	51129.00
482.85	51379.44
483.03	51896.70
483.21	52130.75
483.39	52200.97
483.57	51765.63
483.74	50838.78
483.92	51613.49
484.10	51622.86
484.28	52549.71
484.46	52910.15
484.64	53200.38
484.82	52315.65
485.00	52076.92
485.18	51084.53
485.35	50227.90
485.53	47124.35
485.71	43737.59
485.89	43236.72
486.07	45034.25
486.25	48474.84
486.43	50543.87
486.61	50773.24
486.78	51044.74
486.96	50972.19
487.14	52507.58
487.32	53378.26
487.50	54260.64
487.68	54939.39
487.85	55337.29
488.03	55306.86
488.21	54813.01
488.39	54445.54
488.57	53904.88
488.75	53509.33
488.92	54695.98
489.10	56381.16
489.28	57179.29
489.46	58003.16
489.64	57701.23
489.81	57979.75
489.99	57296.31
490.17	57733.99
490.35	58052.31
490.53	57249.50
490.70	57167.58
490.88	57205.03
491.06	58082.73
491.24	58195.08
491.41	56846.93
491.59	55781.99
491.77	55187.49
491.95	56079.24
492.13	57059.92
492.30	58035.92
492.48	58990.86
492.66	59157.04
492.84	59028.31
493.01	58997.88
493.19	58326.15
493.37	58019.54
493.54	58045.29
493.72	58569.57
493.90	59494.08
494.08	60060.49
494.25	60331.99
494.43	60523.91
494.61	60704.13
494.79	60823.50
494.96	60533.28
495.14	60142.41
495.32	59348.96
495.49	58749.79
495.67	59859.20
495.85	60940.53
496.02	61359.48
496.20	61158.20
496.38	60633.92
496.55	60828.18
496.73	61137.13
496.91	61003.72
497.09	61556.09
497.26	61895.47
497.44	61373.53
497.62	60903.08
497.79	60126.02
497.97	59178.10
498.14	59138.32
498.32	60406.89
498.50	60961.59
498.67	61415.66
498.85	61495.24
499.03	61722.27
499.20	61778.44
499.38	61909.51
499.56	61865.04
499.73	61219.05
499.91	61024.79
500.08	60701.79
500.26	59929.42
500.44	60533.28
500.61	60989.68
500.79	60764.99
500.97	60472.42
501.14	60346.03
501.32	60116.66
501.49	60177.51
501.67	60339.01
501.84	60935.85
502.02	61165.22
502.20	61425.02
502.37	61516.30
502.55	61537.36
502.72	62124.84
502.90	62403.36
503.07	62143.56
503.25	61872.06
503.43	61132.45
503.60	60250.07
503.78	59983.25
503.95	60430.29
504.13	61642.69
504.30	62197.40
504.48	62096.75
504.65	61785.46
504.83	61825.25
505.01	62286.34
505.18	62569.54
505.36	63154.68
505.53	63330.22
505.71	63477.67
505.88	63393.41
506.06	62904.24
506.23	62677.21
506.41	62349.53
506.58	62576.56
506.76	62504.01
506.93	62550.82
507.11	62157.61
507.28	62555.50
507.46	62052.28
507.63	61474.17
507.81	61415.66
507.98	61600.56
508.16	62281.66
508.33	62695.93
508.50	62876.15
508.68	63157.02
508.85	63636.83
509.03	63522.14
509.20	63344.26
509.38	62595.29
509.55	62141.22
509.73	62410.38
509.90	62773.17
510.08	63035.31
510.25	62972.11
510.42	62714.65
510.60	62635.08
510.77	62995.52
510.95	63496.39
511.12	63613.42
511.30	63838.11
511.47	64144.72
511.64	63913.01
511.82	63671.93
511.99	62838.70
512.17	62489.96
512.34	62417.41
512.51	62522.73
512.69	62787.21
512.86	62726.36
513.04	63028.29
513.21	63093.82
513.38	62588.27
513.56	62354.21
513.73	61780.78
513.90	62155.27
514.08	62054.62
514.25	62349.53
514.43	62707.63
514.60	62621.03
514.77	63021.26
514.95	62960.41
515.12	62742.74
515.29	62932.32
515.47	63334.90
515.64	63477.67
515.81	63217.87
515.99	62646.78
516.16	61401.61
516.33	59313.86
516.51	58309.77
516.68	57642.71
516.85	57179.29
517.03	57806.55
517.20	59938.78
517.37	62110.80
517.54	62859.77
517.72	62209.10
517.89	60086.23
518.06	58162.31
518.24	58642.12
518.41	60467.74
518.58	61708.22
518.75	61726.95
518.93	62089.73
519.10	61687.16
519.27	62166.97
519.45	62513.37
519.62	63238.93
519.79	63412.13
519.96	63161.70
520.14	62698.27
520.31	62024.20
520.48	62176.33
520.65	62415.07
520.83	63379.37
521.00	63657.89
521.17	63409.79
521.34	63056.37
521.52	63281.06
521.69	63697.68
521.86	64168.13
522.03	63739.81
522.20	62616.35
522.38	61822.91
522.55	61846.32
522.72	62342.51
522.89	62527.41
523.07	62841.04
523.24	62965.09
523.41	63763.21
523.58	64149.40
523.75	64444.31
523.92	64355.37
524.10	64329.62
524.27	64371.75
524.44	64104.93
524.61	63847.47
524.78	63753.85
524.96	63625.12
525.13	63559.59
525.30	63840.45
525.47	64329.62
525.64	64338.99
525.81	63737.47
525.98	62312.08
526.16	61127.77
526.33	60409.23
526.50	60334.33
526.67	60004.31
526.84	60591.79
527.01	61410.98
527.18	62307.40
527.36	62946.37
527.53	63695.34
527.70	63784.28
527.87	63252.98
528.04	62941.69
528.21	63484.69
528.38	64121.32
528.55	64540.27
528.72	64589.42
528.89	64795.39
529.07	64676.02
529.24	63985.57
529.41	63416.82
529.58	62911.26
529.75	62937.01
529.92	63529.16
530.09	63711.72
530.26	64322.60
530.43	64573.04
530.60	64750.92
530.77	64500.48
530.94	64800.07
531.11	64364.73
531.28	64076.85
531.46	64025.35
531.63	64133.02
531.80	63728.11
531.97	63573.63
532.14	62756.78
532.31	61939.94
532.48	61476.51
532.65	61481.19
532.82	62326.13
532.99	63370.00
533.16	63582.99
533.33	64060.46
533.50	63678.96
533.67	63281.06
533.84	63025.95
534.01	62953.39
534.18	63325.53
534.35	63522.14
534.52	63372.34
534.69	63580.65
534.86	63863.86
535.03	64219.62
535.20	64568.36
535.37	64863.27
535.54	64914.76
535.71	64570.70
535.88	64114.29
536.05	63559.59
536.22	63346.60
536.38	63039.99
536.55	62520.39
536.72	62244.21
536.89	62129.52
537.06	63056.37
537.23	63737.47
537.40	63905.99
537.57	63831.09
537.74	63604.06
537.91	63568.95
538.08	63688.32
538.25	63639.17
538.42	63821.73
538.59	63606.40
538.75	63124.25
538.92	62904.24
539.09	62815.30
539.26	62599.97
539.43	62396.34
539.60	62536.77
539.77	62733.38
539.94	62532.09
540.11	61750.35
540.28	61441.40
540.44	61434.38
540.61	61743.33
540.78	61771.42
540.95	62258.25
541.12	62520.39
541.29	62798.91
541.46	63267.02
541.62	63292.77
541.79	63000.20
541.96	62494.64
542.13	62651.46
542.30	62719.34
542.47	62962.75
542.63	62705.29
542.80	62515.71
542.97	62822.32
543.14	62560.18
543.31	62471.24
543.48	63049.35
543.64	63798.32
543.81	63894.28
543.98	63833.43
544.15	63276.38
544.32	62784.87
544.48	62852.75
544.65	63182.76
544.82	63526.82
544.99	63079.78
545.16	62660.82
545.32	62658.48
545.49	63341.92
545.66	63674.27
545.83	63377.03
546.00	62981.48
546.16	62733.38
546.33	62824.66
546.50	62819.98
546.67	63297.45
546.83	62934.66
547.00	62852.75
547.17	62384.64
547.34	61731.63
547.50	61932.92
547.67	62349.53
547.84	62269.95
548.00	62546.14
548.17	63049.35
548.34	62862.11
548.51	62677.21
548.67	62946.37
548.84	63084.46
549.01	62880.83
549.18	62714.65
549.34	62815.30
549.51	62590.61
549.68	62702.95
549.84	62499.33
550.01	62464.22
550.18	62295.70
550.34	62309.74
550.51	62625.71
550.68	62550.82
550.84	62284.00
551.01	62211.44
551.18	62127.18
551.34	62314.42
551.51	62475.92
551.68	62953.39
551.84	62883.17
552.01	62735.72
552.18	62688.91
552.34	61843.98
552.51	61567.79
552.68	61743.33
552.84	61996.11
553.01	62319.10
553.18	62071.01
553.34	62218.46
553.51	62326.13
553.67	62749.76
553.84	62677.21
554.01	62567.20
554.17	62501.67
554.34	62501.67
554.51	62564.86
554.67	62925.30
554.84	62798.91
555.00	62286.34
555.17	62120.16
555.33	62230.16
555.50	62049.94
555.67	62197.40
555.83	62220.80
556.00	61790.14
556.16	61783.12
556.33	61375.87
556.50	61190.97
556.66	61343.10
556.83	61055.21
556.99	61312.67
557.16	61347.78
557.32	61733.97
557.49	61918.87
557.65	61616.94
557.82	61736.31
557.98	61516.30
558.15	61052.87
558.32	60601.15
558.48	59896.65
558.65	60032.40
558.81	60313.26
558.98	60395.18
559.14	60797.76
559.31	60755.63
559.47	60940.53
559.64	60549.66
559.80	60193.90
559.97	60247.73
560.13	60963.93
560.30	61476.51
560.46	61949.30
560.63	62148.24
560.79	62038.24
560.96	61736.31
561.12	60793.07
561.29	60111.98
561.45	60135.38
561.61	60797.76
561.78	61034.15
561.94	60690.09
562.11	60985.00
562.27	60657.32
562.44	61141.81
562.60	61233.10
562.77	61399.27
562.93	61183.94
563.10	61179.26
563.26	60636.26
563.42	60732.22
563.59	60617.53
563.75	60870.31
563.92	60750.94
564.08	60678.39
564.24	60774.35
564.41	60755.63
564.57	60870.31
564.74	60624.56
564.90	60647.96
565.07	60467.74
565.23	59908.35
565.39	59793.67
565.56	59463.65
565.72	59355.99
565.88	59489.40
566.05	59770.26
566.21	59950.48
566.38	60140.07
566.54	60067.51
566.70	60367.10
566.87	60652.64
567.03	60683.07
567.19	60835.20
567.36	60568.38
567.52	60339.01
567.68	60025.38
567.85	59480.03
568.01	59213.21
568.17	59126.61
568.34	59114.91
568.50	59152.36
568.66	59082.14
568.83	59636.85
568.99	59501.10
569.15	59777.28
569.32	59664.94
569.48	59538.55
569.64	59332.58
569.81	59077.46
569.97	59063.42
570.13	58969.80
570.30	58513.39
570.46	58218.49
570.62	57883.79
570.78	57668.46
570.95	58021.88
571.11	58632.76
571.27	58878.52
571.43	58742.77
571.60	59110.23
571.76	59355.99
571.92	59564.29
572.09	59716.43
572.25	59576.00
572.41	59578.34
572.57	59454.29
572.74	59201.51
572.90	58939.37
573.06	59140.66
573.22	59234.28
573.38	59260.02
573.55	58988.52
573.71	59117.25
573.87	59208.53
574.03	58972.14
574.20	59180.45
574.36	58698.30
574.52	58562.54
574.68	58501.69
574.84	58019.54
575.01	57792.51
575.17	57890.81
575.33	58056.99
575.49	58337.85
575.65	58143.59
575.82	58234.87
575.98	57881.45
576.14	58181.04
576.30	58323.81
576.46	58574.25
576.62	58127.20
576.79	58433.81
576.95	58181.04
577.11	58251.25
577.27	58239.55
577.43	58220.83
577.59	57605.26
577.75	57612.29
577.92	57146.52
578.08	56905.44
578.24	56973.32
578.40	57270.57
578.56	57368.87
578.72	57331.42
578.88	57602.92
579.04	57886.13
579.21	57939.96
579.37	57808.89
579.53	57799.53
579.69	57851.02
579.85	58092.10
580.01	57897.83
580.17	57396.96
580.33	57436.75
580.49	57623.99
580.65	57776.12
580.82	57965.71
580.98	57759.74
581.14	57834.64
581.30	57881.45
581.46	57806.55
581.62	57904.85
581.78	57771.44
581.94	58106.14
582.10	58206.78
582.26	57853.36
582.42	58089.76
582.58	58347.21
582.74	57944.64
582.90	57888.47
583.06	58019.54
583.22	57958.69
583.38	57867.40
583.54	57818.25
583.70	57654.42
583.86	57729.31
584.02	57680.16
584.18	57989.11
584.34	57701.23
584.50	57464.83
584.66	57635.69
584.82	57073.96
584.98	57130.14
585.14	56708.84
