SpectraSuite Data File
++++++++++++++++++++++++++++++++++++
Date: Mon Oct 07 14:55:00 GMT-05:00 2013
User: price-jones
Dark Spectrum Present: No
Reference Spectrum Present: No
Number of Sampled Component Spectra: 1
Spectrometers: USB2+H05261
Integration Time (usec): 10000 (USB2+H05261)
Spectra Averaged: 1 (USB2+H05261)
Boxcar Smoothing: 0 (USB2+H05261)
Correct for Electrical Dark: No (USB2+H05261)
Strobe/Lamp Enabled: No (USB2+H05261)
Correct for Detector Non-linearity: No (USB2+H05261)
Correct for Stray Light: No (USB2+H05261)
Number of Pixels in Processed Spectrum: 2048
>>>>>Begin Processed Spectral Data<<<<<
365.73	0.00
365.92	0.00
366.12	0.00
366.32	0.00
366.52	0.00
366.72	0.00
366.91	0.00
367.11	0.00
367.31	0.00
367.51	0.00
367.70	0.00
367.90	0.00
368.10	0.00
368.30	0.00
368.49	0.00
368.69	0.00
368.89	0.00
369.09	0.00
369.28	0.00
369.48	0.00
369.68	0.00
369.87	0.00
370.07	0.00
370.27	0.00
370.47	390.87
370.66	2275.00
370.86	2633.10
371.06	2953.76
371.25	2733.75
371.45	2553.52
371.65	2239.89
371.84	2118.18
372.04	2504.37
372.24	2722.04
372.44	2724.38
372.63	2619.06
372.83	2427.14
373.03	2190.74
373.22	1944.99
373.42	2157.97
373.62	2490.33
373.81	2640.12
374.01	2511.39
374.21	2225.85
374.40	2232.87
374.60	2326.49
374.79	2843.75
374.99	3204.19
375.19	3229.94
375.38	3293.13
375.58	3054.40
375.78	3021.63
375.97	3187.81
376.17	3183.13
376.37	3288.45
376.56	3325.90
376.76	3674.64
376.95	3953.16
377.15	4007.00
377.35	4173.18
377.54	4355.74
377.74	4447.02
377.93	4475.10
378.13	4463.40
378.33	3861.88
378.52	3733.15
378.72	3726.13
378.91	3569.32
379.11	3440.59
379.31	3412.50
379.50	3412.50
379.70	3695.71
379.89	4112.32
380.09	4236.37
380.28	4409.57
380.48	4388.50
380.68	4201.26
380.87	4234.03
381.07	3866.56
381.26	3452.29
381.46	3300.16
381.65	3246.32
381.85	3117.59
382.04	2974.82
382.24	2773.53
382.43	2684.59
382.63	2602.68
382.83	2635.44
383.02	2562.89
383.22	2738.43
383.41	2806.30
383.61	2892.90
383.80	3358.67
384.00	3836.14
384.19	4175.52
384.39	4339.35
384.58	4344.03
384.78	4285.52
384.97	4278.50
385.17	4002.32
385.36	3660.60
385.56	3592.72
385.75	3962.53
385.95	4161.47
386.14	4547.66
386.34	4449.36
386.53	4332.33
386.72	4058.49
386.92	4109.98
387.11	4418.93
387.31	4603.83
387.50	4425.95
387.70	4498.51
387.89	4280.84
388.09	4205.94
388.28	4273.82
388.48	4547.66
388.67	4898.74
388.86	5298.97
389.06	5687.50
389.25	5837.30
389.45	6078.37
389.64	5757.72
389.84	5603.24
390.03	5710.91
390.22	5954.32
390.42	6150.93
390.61	6202.42
390.81	6913.94
391.00	6925.65
391.19	6918.62
391.39	6539.46
391.58	6059.65
391.78	5930.92
391.97	5518.98
392.16	5156.20
392.36	4676.39
392.55	3552.93
392.75	2787.58
392.94	2466.92
393.13	2373.30
393.33	3192.49
393.52	4046.79
393.71	4727.88
393.91	5373.87
394.10	5802.19
394.29	6382.64
394.49	7047.35
394.68	7468.65
394.88	7412.48
395.07	7779.94
395.26	7506.10
395.46	7080.12
395.65	6609.67
395.84	5647.71
396.04	4849.59
396.23	3681.66
396.42	3307.18
396.62	3463.99
396.81	4128.70
397.00	5359.83
397.19	6457.54
397.39	7599.72
397.58	8688.07
397.77	8982.98
397.97	9235.75
398.16	9483.85
398.35	9823.23
398.55	10033.88
398.74	10450.49
398.93	10602.63
399.12	10296.02
399.32	9907.49
399.51	10516.03
399.70	11150.31
399.90	10366.23
400.09	10775.83
400.28	10581.56
400.47	11023.92
400.67	11536.50
400.86	11421.81
401.05	11889.92
401.24	11763.53
401.44	11981.20
401.63	11990.56
401.82	12063.12
402.01	12123.98
402.21	12140.36
402.40	12449.31
402.59	11543.52
402.78	11080.10
402.97	11084.78
403.17	11758.85
403.36	12219.94
403.55	12552.29
403.74	12470.37
403.93	11852.47
404.13	10977.11
404.32	10974.77
404.51	11562.25
404.70	12526.55
404.89	12095.89
405.09	11985.88
405.28	11850.13
405.47	11995.25
405.66	11815.02
405.85	11527.14
406.05	11321.17
406.24	11761.19
406.43	12079.50
406.62	12659.96
406.81	12290.15
407.00	12049.08
407.20	11726.08
407.39	11922.69
407.58	12800.39
407.77	12959.55
407.96	13420.63
408.15	13790.44
408.34	13797.46
408.54	14321.74
408.73	14174.28
408.92	13757.67
409.11	13437.02
409.30	12643.57
409.49	11674.59
409.68	11164.36
409.87	11119.89
410.07	12002.27
410.26	12828.48
410.45	13495.53
410.64	13954.27
410.83	14249.18
411.02	14993.47
411.21	15255.61
411.40	14890.49
411.59	15117.52
411.78	15129.22
411.98	15096.46
412.17	15119.86
412.36	14867.08
412.55	14661.12
412.74	14532.39
412.93	14406.00
413.12	14754.74
413.31	16224.59
413.50	15915.64
413.69	16013.95
413.88	15335.19
414.07	15173.69
414.26	15489.67
414.45	15875.85
414.64	15583.29
414.83	15807.98
415.02	15690.95
415.22	15960.11
415.41	16437.58
415.60	16573.33
415.79	17284.86
415.98	17647.64
416.17	17846.58
416.36	17130.38
416.55	16751.21
416.74	16350.98
416.93	16006.92
417.12	16222.25
417.31	16238.64
417.50	16404.81
417.69	17067.19
417.88	17160.81
418.07	16657.59
418.26	16453.97
418.45	16367.37
418.64	17544.66
418.83	18228.09
419.02	17649.98
419.21	17310.60
419.39	16329.92
419.58	16053.73
419.77	16140.33
419.96	17315.28
420.15	17956.59
420.34	18703.22
420.53	18850.67
420.72	19248.57
420.91	18853.02
421.10	18576.83
421.29	18532.36
421.48	17635.94
421.67	19028.56
421.86	18059.57
422.05	16341.62
422.24	15171.35
422.43	15784.57
422.61	17296.56
422.80	18448.10
422.99	18167.24
423.18	17345.71
423.37	17329.33
423.56	17518.91
423.75	17956.59
423.94	18263.20
424.13	17231.02
424.32	16893.99
424.50	17013.35
424.69	17348.05
424.88	17326.99
425.07	17392.52
425.26	17591.47
425.45	16697.38
425.64	16774.62
425.83	16463.33
426.01	17720.20
426.20	17827.86
426.39	17804.46
426.58	16278.43
426.77	15372.64
426.96	15304.76
427.15	15875.85
427.33	17224.00
427.52	17324.65
427.71	17706.15
427.90	17315.28
428.09	17376.14
428.28	16669.30
428.46	15864.15
428.65	16168.42
428.84	16673.98
429.03	16552.27
429.22	15367.96
429.40	14785.16
429.59	13207.64
429.78	11934.39
429.97	12322.92
430.16	12369.73
430.34	12107.59
430.53	12226.96
430.72	13167.85
430.91	14516.00
431.10	17020.38
431.28	19510.71
431.47	21013.33
431.66	20357.98
431.85	18553.43
432.03	17406.56
432.22	17275.49
432.41	18405.97
432.60	19999.88
432.79	20397.77
432.97	20664.59
433.16	19669.86
433.35	17628.92
433.54	15990.54
433.72	15770.53
433.91	16798.02
434.10	18349.80
434.28	19234.52
434.47	20442.24
434.66	19611.35
434.85	19213.46
435.03	19981.15
435.22	20194.14
435.41	21104.61
435.59	21242.70
435.78	21238.02
435.97	22003.38
436.16	22024.44
436.34	21706.13
436.53	21010.99
436.72	21439.31
436.90	20379.04
437.09	20184.78
437.28	20123.93
437.46	20634.16
437.65	20121.59
437.84	18291.29
438.02	17467.42
438.21	17891.06
438.40	18588.53
438.58	20091.16
438.77	20966.52
438.96	20987.58
439.14	22183.60
439.33	22312.33
439.52	22185.94
439.70	21708.47
439.89	21231.00
440.08	20828.43
440.26	21029.71
440.45	22122.74
440.63	23873.46
440.82	23995.17
441.01	23718.99
441.19	23828.99
441.38	24327.53
441.57	25029.69
441.75	25177.14
441.94	24812.02
442.12	24790.95
442.31	25869.94
442.50	25710.78
442.68	25069.48
442.87	25228.63
443.05	24315.83
443.24	25619.50
443.43	25645.25
443.61	25942.50
443.80	26450.39
443.98	25633.55
444.17	24945.43
444.35	26202.30
444.54	26724.24
444.73	25832.49
444.91	25099.90
445.10	24135.60
445.28	23470.89
445.47	23110.45
445.65	22979.38
445.84	23777.50
446.02	24510.09
446.21	24896.28
446.39	25275.45
446.58	25373.75
446.77	25848.88
446.95	26417.63
447.14	27367.88
447.32	27864.08
447.51	26562.74
447.69	25795.04
447.88	25486.09
448.06	26370.82
448.25	26705.51
448.43	26047.82
448.62	26293.58
448.80	26253.79
448.99	26293.58
449.17	26331.03
449.36	26785.09
449.54	27812.59
449.73	28268.99
449.91	28517.09
450.10	29221.59
450.28	29036.69
450.46	29418.19
450.65	29001.58
450.83	28868.17
451.02	28348.57
451.20	28992.22
451.39	28786.25
451.57	28250.27
451.76	28477.30
451.94	27725.99
452.13	26986.38
452.31	25439.28
452.49	24467.96
452.68	25633.55
452.86	25516.52
453.05	25476.73
453.23	26979.36
453.42	27379.59
453.60	27936.63
453.78	27850.03
453.97	27943.66
454.15	27475.55
454.34	26597.85
454.52	26192.94
454.70	26712.53
454.89	26721.90
455.07	26675.09
455.26	27644.07
455.44	28767.52
455.62	28620.07
455.81	28751.14
455.99	28765.18
456.17	28479.64
456.36	29254.36
456.54	29457.98
456.73	29212.23
456.91	29748.21
457.09	29523.52
457.28	30888.05
457.46	29092.86
457.64	28613.05
457.83	28407.08
458.01	27845.35
458.19	28989.88
458.38	29600.76
458.56	29963.54
458.74	30031.41
458.93	28716.03
459.11	28744.12
459.29	28467.94
459.48	28687.95
459.66	28627.09
459.84	29235.63
460.03	28947.75
460.21	29647.57
460.39	30410.58
460.57	29937.79
460.76	30052.48
460.94	30677.40
461.12	30742.94
461.31	30579.10
461.49	30494.84
461.67	30572.08
461.85	31388.92
462.04	30925.50
462.22	31103.38
462.40	31197.00
462.59	30726.55
462.77	31009.76
462.95	30995.71
463.13	31028.48
463.32	29935.45
463.50	30089.93
463.68	30518.25
463.86	30433.99
464.05	29553.94
464.23	28711.35
464.41	29221.59
464.59	28779.23
464.78	30391.86
464.96	29303.51
465.14	28643.48
465.32	30476.12
465.50	31449.78
465.69	31826.60
465.87	30810.81
466.05	29708.42
466.23	28725.39
466.41	28070.04
466.60	29284.78
466.78	28545.17
466.96	29003.92
467.14	29900.34
467.32	30096.95
467.51	29961.20
467.69	28699.65
467.87	29469.69
468.05	30443.35
468.23	30178.87
468.41	30178.87
468.60	30841.24
468.78	30380.15
468.96	30356.75
469.14	31517.65
469.32	30693.79
469.50	29448.62
469.69	29764.59
469.87	29406.49
470.05	29209.89
470.23	29113.92
470.41	29596.07
470.59	29832.47
470.77	29589.05
470.95	30345.05
471.14	30871.67
471.32	31037.84
471.50	32615.37
471.68	33235.61
471.86	33078.79
472.04	32851.76
472.22	32797.93
472.40	31136.15
472.58	31189.98
472.77	31047.21
472.95	31704.90
473.13	32767.50
473.31	31484.89
473.49	32006.83
473.67	32444.51
473.85	33263.69
474.03	33872.23
474.21	34382.47
474.39	33865.21
474.57	33666.27
474.75	34391.83
474.93	33654.56
475.12	32591.96
475.30	33230.93
475.48	32416.42
475.66	33591.37
475.84	32704.31
476.02	33497.75
476.20	32556.85
476.38	33230.93
476.56	34160.12
476.74	34876.32
476.92	35732.96
477.10	35253.15
477.28	36568.53
477.46	36659.81
477.64	37099.83
477.82	37226.22
478.00	37010.89
478.18	36196.38
478.36	35908.50
478.54	36374.27
478.72	37195.79
478.90	38181.16
479.08	38745.23
479.26	39164.18
479.44	39775.06
479.62	39222.70
479.80	39533.99
479.98	39093.97
480.16	39414.62
480.34	38763.95
480.52	39161.84
480.70	39529.31
480.88	39196.95
481.06	39864.00
481.24	40247.85
481.41	41764.52
481.59	42347.31
481.77	41045.97
481.95	40912.56
482.13	41015.55
482.31	41729.41
482.49	42258.37
482.67	41680.26
482.85	41493.02
483.03	41563.23
483.21	42918.40
483.39	42927.77
483.57	42766.27
483.74	41598.34
483.92	42019.64
484.10	42316.89
484.28	42689.03
484.46	42595.41
484.64	44217.40
484.82	43283.53
485.00	42433.91
485.18	41703.67
485.35	39924.86
485.53	35447.41
485.71	32760.48
485.89	33979.90
486.07	36643.43
486.25	38555.64
486.43	41446.21
486.61	41766.86
486.78	41029.59
486.96	42096.88
487.14	43260.12
487.32	44753.38
487.50	45492.99
487.68	46256.01
487.85	47379.46
488.03	46948.81
488.21	45949.40
488.39	45603.00
488.57	43629.93
488.75	44044.20
488.92	46138.98
489.10	48381.21
489.28	49221.47
489.46	50267.69
489.64	49673.19
489.81	50499.40
489.99	49907.24
490.17	49642.76
490.35	50635.15
490.53	50192.79
490.70	49806.60
490.88	49591.27
491.06	50693.66
491.24	51152.41
491.41	49474.24
491.59	47676.71
491.77	46806.03
491.95	48589.52
492.13	50351.94
492.30	51239.01
492.48	52423.32
492.66	52083.94
492.84	51344.33
493.01	51332.63
493.19	51597.11
493.37	50878.57
493.54	51304.54
493.72	52289.91
493.90	53183.99
494.08	53595.93
494.25	53860.41
494.43	54192.76
494.61	54504.06
494.79	54188.08
494.96	54143.61
495.14	53991.48
495.32	52226.71
495.49	52554.39
495.67	53485.92
495.85	54340.22
496.02	55166.43
496.20	54134.25
496.38	53998.50
496.55	53989.14
496.73	54890.24
496.91	55267.07
497.09	55550.27
497.26	56186.90
497.44	54878.54
497.62	53944.67
497.79	53609.97
497.97	52526.30
498.14	52992.07
498.32	54328.52
498.50	54714.70
498.67	54780.24
498.85	54459.58
499.03	55246.00
499.20	55168.77
499.38	54990.89
499.56	53860.41
499.73	54293.41
499.91	54450.22
500.08	53368.90
500.26	53148.88
500.44	53722.32
500.61	54899.61
500.79	54164.68
500.97	53862.75
501.14	53162.93
501.32	52554.39
501.49	53043.56
501.67	54138.93
501.84	54281.70
502.02	54490.01
502.20	54878.54
502.37	54855.14
502.55	55264.73
502.72	56308.61
502.90	56643.30
503.07	55906.04
503.25	55093.87
503.43	54026.59
503.60	53801.89
503.78	53425.07
503.95	54417.46
504.13	55629.85
504.30	56086.26
504.48	55760.92
504.65	55618.15
504.83	55587.72
505.01	56404.57
505.18	56383.51
505.36	57324.40
505.53	57045.88
505.71	56626.92
505.88	57298.65
506.06	56996.73
506.23	56385.85
506.41	56069.87
506.58	56205.62
506.76	56437.34
506.93	55517.51
507.11	55756.24
507.28	56027.74
507.46	55178.13
507.63	55255.37
507.81	54958.12
507.98	55182.81
508.16	56392.87
508.33	56722.88
508.50	56584.79
508.68	57286.95
508.85	57160.56
509.03	57984.43
509.20	57368.87
509.38	56741.61
509.55	56519.26
509.73	56519.26
509.90	56266.48
510.08	56814.16
510.25	56320.31
510.42	55943.48
510.60	56383.51
510.77	57059.92
510.95	57141.84
511.12	57471.85
511.30	58333.17
511.47	58225.51
511.64	57972.73
511.82	58064.01
511.99	56786.08
512.17	56505.21
512.34	56114.34
512.51	56720.54
512.69	56814.16
512.86	56182.22
513.04	56612.88
513.21	56222.01
513.38	55442.61
513.56	55100.89
513.73	54677.25
513.90	56224.35
514.08	55657.94
514.25	55737.52
514.43	55990.30
514.60	56149.45
514.77	56528.62
514.95	56952.26
515.12	56664.37
515.29	57212.06
515.47	57682.50
515.64	57375.89
515.81	57139.50
515.99	55774.97
516.16	54145.95
516.33	51444.98
516.51	51227.31
516.68	49853.41
516.85	48535.69
517.03	50398.76
517.20	53446.13
517.37	55997.32
517.54	56886.72
517.72	55330.26
517.89	52486.51
518.06	50646.85
518.24	51679.03
518.41	54073.40
518.58	55447.29
518.75	55545.59
518.93	55318.56
519.10	55168.77
519.27	55917.74
519.45	56339.04
519.62	57389.94
519.79	57169.93
519.96	56800.12
520.14	56477.13
520.31	55629.85
520.48	55318.56
520.65	56261.80
520.83	57640.37
521.00	56877.36
521.17	56350.74
521.34	56645.65
521.52	57834.64
521.69	57757.40
521.86	58049.97
522.03	57434.41
522.20	55503.46
522.38	54890.24
522.55	55489.42
522.72	55753.90
522.89	55585.38
523.07	56540.32
523.24	57284.61
523.41	57448.45
523.58	57954.00
523.75	58080.39
523.92	58365.94
524.10	57865.06
524.27	57333.76
524.44	56952.26
524.61	56383.51
524.78	56830.55
524.96	57169.93
525.13	57556.11
525.30	57993.79
525.47	58190.40
525.64	58262.96
525.81	56797.78
525.98	54960.46
526.16	53464.86
526.33	53560.82
526.50	53219.10
526.67	53485.92
526.84	54354.26
527.01	55203.88
527.18	55737.52
527.36	56399.89
527.53	57179.29
527.70	56989.70
527.87	55529.21
528.04	56182.22
528.21	57066.94
528.38	57546.75
528.55	58548.50
528.72	58571.91
528.89	57935.28
529.07	57846.34
529.24	56699.48
529.41	56296.91
529.58	56678.41
529.75	57195.67
529.92	57893.15
530.09	57654.42
530.26	58185.72
530.43	58784.90
530.60	58164.65
530.77	58525.10
530.94	58897.24
531.11	57942.30
531.28	57387.60
531.46	57612.29
531.63	57691.86
531.80	57406.32
531.97	57146.52
532.14	56725.22
532.31	55103.23
532.48	54644.49
532.65	55025.99
532.82	55613.47
532.99	57411.00
533.16	57673.14
533.33	57975.07
533.50	57715.27
533.67	57120.77
533.84	57151.20
534.01	57476.54
534.18	57123.11
534.35	57104.39
534.52	56378.82
534.69	56931.19
534.86	57703.57
535.03	57712.93
535.20	58363.60
535.37	58953.41
535.54	58702.98
535.71	58302.74
535.88	58010.18
536.05	57059.92
536.22	56367.12
536.38	56568.41
536.55	56114.34
536.72	55515.17
536.89	56030.08
537.06	56465.42
537.23	56959.28
537.40	56355.42
537.57	56647.99
537.74	56743.95
537.91	56807.14
538.08	56629.26
538.25	57045.88
538.42	57708.25
538.59	57523.35
538.75	56432.66
538.92	55405.16
539.09	55985.61
539.26	56053.49
539.43	56009.02
539.60	55531.55
539.77	56545.00
539.94	55938.80
540.11	55456.65
540.28	55009.61
540.44	54707.68
540.61	54796.62
540.78	55196.85
540.95	55632.19
541.12	55833.48
541.29	56704.16
541.46	56224.35
541.62	56795.44
541.79	55884.97
541.96	55508.14
542.13	55894.33
542.30	55826.46
542.47	56046.47
542.63	55969.23
542.80	55636.87
542.97	54864.50
543.14	55564.32
543.31	56137.75
543.48	56736.93
543.64	57284.61
543.81	57389.94
543.98	57478.88
544.15	56687.78
544.32	56734.59
544.48	56643.30
544.65	56006.68
544.82	56657.35
544.99	55529.21
545.16	55346.65
545.32	55784.33
545.49	56465.42
545.66	56757.99
545.83	56437.34
546.00	56671.39
546.16	55831.14
546.33	55559.64
546.50	55835.82
546.67	56523.94
546.83	56268.82
547.00	56463.08
547.17	54712.36
547.34	54398.73
547.50	54197.44
547.67	55246.00
547.84	56018.38
548.00	56409.25
548.17	55934.12
548.34	56254.78
548.51	56308.61
548.67	55826.46
548.84	55987.95
549.01	56236.05
549.18	55800.71
549.34	55952.85
549.51	56437.34
549.68	56851.61
549.84	55470.70
550.01	55166.43
550.18	55367.71
550.34	55381.76
550.51	55143.02
550.68	55559.64
550.84	56306.27
551.01	55234.30
551.18	55363.03
551.34	55341.97
551.51	56090.94
551.68	56207.97
551.84	56987.36
552.01	56088.60
552.18	55777.31
552.34	54541.50
552.51	54099.14
552.68	54131.91
552.84	55182.81
553.01	54937.05
553.18	54784.92
553.34	55150.04
553.51	55531.55
553.67	55716.45
553.84	55987.95
554.01	56240.73
554.17	55847.52
554.34	55292.82
554.51	55274.09
554.67	54665.55
554.84	54972.16
555.00	54513.42
555.17	54834.07
555.33	54901.95
555.50	54010.20
555.67	54939.39
555.83	54862.16
556.00	54181.06
556.16	54145.95
556.33	54183.40
556.50	54703.00
556.66	54241.92
556.83	53689.55
556.99	53130.16
557.16	54347.24
557.32	53783.17
557.49	54822.37
557.65	54356.60
557.82	55056.42
557.98	55002.59
558.15	53785.51
558.32	53261.23
558.48	52488.85
558.65	52240.76
558.81	52755.68
558.98	53865.09
559.14	53181.65
559.31	53387.62
559.47	53404.00
559.64	53188.67
559.80	52526.30
559.97	53076.33
560.13	53717.64
560.30	54600.02
560.46	55292.82
560.63	55388.78
560.79	55435.59
560.96	54499.37
561.12	53186.33
561.29	53469.54
561.45	53432.09
561.61	54630.44
561.78	53411.02
561.94	53808.92
562.11	53261.23
562.27	52643.33
562.44	54068.72
562.60	54258.30
562.77	54150.63
562.93	53930.62
563.10	54398.73
563.26	53888.49
563.42	54197.44
563.59	53895.52
563.75	53387.62
563.92	52973.34
564.08	53340.81
564.24	54307.45
564.41	53076.33
564.57	54389.37
564.74	53818.28
564.90	53045.90
565.07	52603.54
565.23	51840.53
565.39	51295.18
565.56	51744.56
565.72	52341.40
565.88	51341.99
566.05	53333.79
566.21	52718.23
566.38	52629.29
566.54	53687.21
566.70	53963.39
566.87	53743.38
567.03	53841.68
567.19	54600.02
567.36	54859.82
567.52	53022.50
567.68	52561.41
567.85	51707.12
568.01	52002.02
568.17	52025.43
568.34	52453.75
568.50	51613.49
568.66	51554.98
568.83	51311.56
568.99	50885.59
569.15	51468.38
569.32	51564.34
569.48	51386.46
569.64	51529.23
569.81	51554.98
569.97	51444.98
570.13	50195.13
570.30	49446.16
570.46	49270.62
570.62	48954.64
570.78	49315.09
570.95	49691.91
571.11	50272.37
571.27	50096.83
571.43	50813.03
571.60	50621.11
571.76	51157.09
571.92	51426.25
572.09	51845.21
572.25	51129.00
572.41	50768.56
572.57	51580.73
572.74	52097.98
572.90	52683.12
573.06	52851.64
573.22	52701.84
573.38	52669.08
573.55	53268.25
573.71	51936.49
573.87	51732.86
574.03	51491.79
574.20	50976.87
574.36	50398.76
574.52	50174.06
574.68	50344.92
574.84	49591.27
575.01	48987.41
575.17	49326.79
575.33	50192.79
575.49	50150.66
575.65	49322.11
575.82	49090.40
575.98	50609.40
576.14	50965.17
576.30	51728.18
576.46	50335.56
576.62	49907.24
576.79	49968.10
576.95	51105.60
577.11	50576.64
577.27	50047.68
577.43	50534.51
577.59	49893.20
577.75	49247.21
577.92	49141.89
578.08	48877.41
578.24	48746.34
578.40	48830.60
578.56	48149.50
578.72	48315.68
578.88	48741.66
579.04	49296.36
579.21	48903.15
579.37	48769.74
579.53	49179.34
579.69	48409.30
579.85	48315.68
580.01	48495.90
580.17	48200.99
580.33	49460.20
580.49	49652.12
580.65	48507.60
580.82	49483.61
580.98	49469.56
581.14	48671.44
581.30	48554.41
581.46	48509.94
581.62	48978.05
581.78	49778.51
581.94	49949.37
582.10	50199.81
582.26	49366.58
582.42	49855.75
582.58	48802.51
582.74	49116.14
582.90	48809.53
583.06	49979.80
583.22	49354.88
583.38	49462.54
583.54	49722.34
583.70	49401.69
583.86	49811.28
584.02	48257.17
584.18	48615.27
584.34	48170.57
584.50	47854.59
584.66	48282.91
584.82	47892.04
584.98	48315.68
585.14	46759.22
585.30	46614.11
