SpectraSuite Data File
++++++++++++++++++++++++++++++++++++
Date: Mon Oct 07 14:53:22 GMT-05:00 2013
User: price-jones
Dark Spectrum Present: No
Reference Spectrum Present: No
Number of Sampled Component Spectra: 1
Spectrometers: USB2+H05261
Integration Time (usec): 100000 (USB2+H05261)
Spectra Averaged: 1 (USB2+H05261)
Boxcar Smoothing: 0 (USB2+H05261)
Correct for Electrical Dark: No (USB2+H05261)
Strobe/Lamp Enabled: No (USB2+H05261)
Correct for Detector Non-linearity: No (USB2+H05261)
Correct for Stray Light: No (USB2+H05261)
Number of Pixels in Processed Spectrum: 2048
>>>>>Begin Processed Spectral Data<<<<<
365.73	0.00
365.92	0.00
366.12	0.00
366.32	0.00
366.52	0.00
366.72	0.00
366.91	0.00
367.11	0.00
367.31	0.00
367.51	0.00
367.70	0.00
367.90	0.00
368.10	0.00
368.30	0.00
368.49	0.00
368.69	0.00
368.89	0.00
369.09	0.00
369.28	0.00
369.48	0.00
369.68	0.00
369.87	0.00
370.07	0.00
370.27	0.00
370.47	571.09
370.66	2860.13
370.86	3356.33
371.06	3726.13
371.25	3702.73
371.45	3485.06
371.65	2988.86
371.84	2820.35
372.04	2984.18
372.24	3253.34
372.44	3438.25
372.63	3356.33
372.83	3246.32
373.03	2759.49
373.22	2719.70
373.42	2588.63
373.62	3129.30
373.81	3365.69
374.01	3295.47
374.21	3143.34
374.40	2780.56
374.60	2942.05
374.79	3363.35
374.99	3971.89
375.19	4318.29
375.38	4149.77
375.58	4039.76
375.78	3824.44
375.97	3946.14
376.17	4140.41
376.37	3997.64
376.56	4280.84
376.76	4442.34
376.95	4823.84
377.15	5018.11
377.35	5313.02
377.54	5425.36
377.74	5631.33
377.93	5563.45
378.13	5547.07
378.33	5156.20
378.52	4762.99
378.72	4540.64
378.91	4587.45
379.11	4444.68
379.31	4315.95
379.50	4189.56
379.70	4629.58
379.89	5018.11
380.09	5446.43
380.28	5584.52
380.48	5479.19
380.68	5423.02
380.87	5273.23
381.07	4975.98
381.26	4575.75
381.46	4112.32
381.65	4208.28
381.85	3918.06
382.04	3768.26
382.24	3548.25
382.43	3581.02
382.63	3398.46
382.83	3349.31
383.02	3314.20
383.22	3302.50
383.41	3276.75
383.61	3571.66
383.80	4105.30
384.00	4599.15
384.19	5195.99
384.39	5418.34
384.58	5408.98
384.78	5352.81
384.97	5387.91
385.17	5067.26
385.36	4887.04
385.56	4678.73
385.75	4685.75
385.95	5188.97
386.14	5837.30
386.34	5675.80
386.53	5490.90
386.72	5149.18
386.92	5137.48
387.11	5495.58
387.31	5621.97
387.50	5741.33
387.70	5509.62
387.89	5233.44
388.09	5329.40
388.28	5420.68
388.48	5462.81
388.67	5947.30
388.86	6450.52
389.06	7082.46
389.25	7164.38
389.45	7199.49
389.64	7323.54
389.84	7157.36
390.03	7136.29
390.22	7260.34
390.42	7316.51
390.61	7606.74
390.81	8456.36
391.00	8730.20
391.19	8524.23
391.39	8116.98
391.58	7730.79
391.78	7110.55
391.97	7002.88
392.16	6548.82
392.36	6071.35
392.55	4840.23
392.75	3859.54
392.94	3122.27
393.13	3138.66
393.33	3599.74
393.52	4592.13
393.71	5731.97
393.91	6403.71
394.10	7070.76
394.29	7604.40
394.49	8252.73
394.68	8816.80
394.88	9041.49
395.07	9139.79
395.26	8990.00
395.46	8802.75
395.65	8344.01
395.84	7337.58
396.04	6296.04
396.23	5198.33
396.42	4194.24
396.62	3927.42
396.81	4812.14
397.00	6069.01
397.19	7562.27
397.39	9135.11
397.58	10104.09
397.77	10904.56
397.97	11311.81
398.16	11375.00
398.35	11606.72
398.55	12046.74
398.74	12290.15
398.93	12828.48
399.12	12627.19
399.32	12095.89
399.51	12205.89
399.70	13184.24
399.90	13062.53
400.09	13076.57
400.28	12896.35
400.47	13139.77
400.67	13469.78
400.86	14033.85
401.05	14125.13
401.24	14267.91
401.44	14324.08
401.63	14661.12
401.82	14487.92
402.01	14494.94
402.21	14518.34
402.40	14532.39
402.59	14092.37
402.78	13605.53
402.97	13092.96
403.17	13860.65
403.36	14469.19
403.55	15227.53
403.74	15419.45
403.93	14616.65
404.13	13411.27
404.32	13252.11
404.51	13635.96
404.70	14862.40
404.89	14916.23
405.09	14663.46
405.28	14239.82
405.47	14141.52
405.66	14101.73
405.85	14132.15
406.05	13593.83
406.24	13547.02
406.43	14164.92
406.62	14455.15
406.81	14995.81
407.00	14207.05
407.20	14129.81
407.39	14176.62
407.58	14654.09
407.77	15204.12
407.96	15604.35
408.15	15712.02
408.34	16093.52
408.54	16840.15
408.73	16945.48
408.92	16493.76
409.11	16255.02
409.30	15262.63
409.49	14422.38
409.68	13446.38
409.87	13111.68
410.07	13841.93
410.26	15002.83
410.45	16091.18
410.64	16343.96
410.83	16741.85
411.02	17369.12
411.21	18286.61
411.40	17642.96
411.59	17998.72
411.78	17694.45
411.98	17572.74
412.17	18017.44
412.36	17376.14
412.55	17624.23
412.74	16992.29
412.93	16891.65
413.12	16989.95
413.31	18349.80
413.50	18794.50
413.69	18860.04
413.88	18157.88
414.07	17586.79
414.26	18274.90
414.45	18672.79
414.64	18649.39
414.83	18712.58
415.02	18375.55
415.22	18342.78
415.41	18817.91
415.60	19049.62
415.79	20177.76
415.98	20512.46
416.17	20542.88
416.36	19992.86
416.55	19686.25
416.74	19126.86
416.93	18478.53
417.12	18579.17
417.31	19005.15
417.50	19131.54
417.69	19784.55
417.88	19578.58
418.07	19522.41
418.26	19084.73
418.45	19445.17
418.64	20107.54
418.83	20685.65
419.02	20414.15
419.21	20414.15
419.39	19414.74
419.58	18546.40
419.77	18298.31
419.96	19655.82
420.15	20456.28
420.34	20842.47
420.53	21535.27
420.72	22120.40
420.91	22164.87
421.10	21710.81
421.29	21621.87
421.48	20788.64
421.67	21958.91
421.86	21245.04
422.05	19786.89
422.24	17991.70
422.43	17584.44
422.61	19442.83
422.80	20900.98
422.99	21111.63
423.18	20355.64
423.37	19779.87
423.56	19962.43
423.75	20002.22
423.94	20484.37
424.13	19407.72
424.32	19747.10
424.50	19751.78
424.69	19660.50
424.88	19784.55
425.07	19499.00
425.26	19428.79
425.45	19267.29
425.64	18829.61
425.83	18963.02
426.01	19943.70
426.20	20706.72
426.39	20608.42
426.58	18927.91
426.77	17542.32
426.96	17149.11
427.15	17415.93
427.33	18836.63
427.52	19583.26
427.71	19859.45
427.90	19431.13
428.09	19491.98
428.28	18827.27
428.46	18221.07
428.65	18148.51
428.84	18714.92
429.03	18883.44
429.22	17958.93
429.40	16917.39
429.59	15353.91
429.78	13760.01
429.97	13752.99
430.16	13570.43
430.34	14008.11
430.53	13731.92
430.72	14197.69
430.91	15531.80
431.10	18703.22
431.28	21537.61
431.47	23419.40
431.66	23744.73
431.85	21441.65
432.03	19711.99
432.22	18902.17
432.41	19688.59
432.60	21893.37
432.79	22986.40
432.97	23239.18
433.16	23000.44
433.35	20893.96
433.54	18838.97
433.72	17511.89
433.91	18183.62
434.10	20596.71
434.28	21855.92
434.47	22862.35
434.66	22464.46
434.85	21757.62
435.03	21708.47
435.22	22714.90
435.41	23805.59
435.59	23711.97
435.78	24350.93
435.97	25067.14
436.16	24870.53
436.34	24269.01
436.53	24004.53
436.72	24332.21
436.90	22499.57
437.09	22635.32
437.28	21975.29
437.46	23005.13
437.65	22899.80
437.84	21184.19
438.02	19737.74
438.21	19339.85
438.40	20868.22
438.58	22499.57
438.77	23154.92
438.96	23433.44
439.14	24105.18
439.33	24849.47
439.52	25268.42
439.70	24723.08
439.89	24126.24
440.08	23351.52
440.26	23660.48
440.45	24147.31
440.63	25549.29
440.82	27126.81
441.01	26632.96
441.19	26136.76
441.38	27030.85
441.57	28102.81
441.75	28210.48
441.94	28804.97
442.12	28205.80
442.31	28432.83
442.50	28596.67
442.68	28250.27
442.87	28048.98
443.05	27417.04
443.24	27812.59
443.43	28568.58
443.61	28924.34
443.80	29427.56
443.98	27946.00
444.17	27393.63
444.35	29525.86
444.54	29905.02
444.73	29507.13
444.91	28535.81
445.10	27103.40
445.28	26094.63
445.47	25872.28
445.65	25771.64
445.84	26644.66
446.02	27391.29
446.21	27969.40
446.39	27674.49
446.58	28666.88
446.77	28549.85
446.95	29071.79
447.14	29956.52
447.32	30012.69
447.51	29324.57
447.69	28563.90
447.88	27927.27
448.06	28589.64
448.25	29263.72
448.43	29722.46
448.62	29015.62
448.80	28706.67
448.99	28828.38
449.17	29109.24
449.36	29233.29
449.54	30595.48
449.73	30824.86
449.91	31229.77
450.10	32121.51
450.28	32376.63
450.46	31908.52
450.65	32002.14
450.83	32182.37
451.02	31604.25
451.20	31197.00
451.39	30937.20
451.57	30906.77
451.76	30658.68
451.94	30588.46
452.13	29923.75
452.31	28800.29
452.49	27470.87
452.68	27931.95
452.86	27438.10
453.05	28119.20
453.23	28992.22
453.42	29467.34
453.60	30567.40
453.78	30522.93
453.97	30279.51
454.15	30485.48
454.34	29748.21
454.52	29748.21
454.70	29401.81
454.89	29813.74
455.07	29844.17
455.26	30195.25
455.44	31285.94
455.62	32027.89
455.81	32058.32
455.99	31754.05
456.17	31405.31
456.36	31475.52
456.54	32205.77
456.73	32093.43
456.91	33099.86
457.09	33296.46
457.28	33736.48
457.46	32589.62
457.64	32369.61
457.83	31473.18
458.01	30462.07
458.19	31510.63
458.38	31519.99
458.56	32713.67
458.74	32561.53
458.93	31777.45
459.11	31658.09
459.29	31681.49
459.48	31913.20
459.66	31517.65
459.84	31840.65
460.03	32072.36
460.21	32552.17
460.39	32531.11
460.57	33085.81
460.76	33413.49
460.94	33434.55
461.12	32467.91
461.31	32980.49
461.49	33043.68
461.67	32992.19
461.85	34029.05
462.04	33979.90
462.22	34356.72
462.40	33940.11
462.59	33956.49
462.77	33823.08
462.95	34174.16
463.13	33605.41
463.32	32870.48
463.50	33303.48
463.68	32811.97
463.86	33273.06
464.05	32776.86
464.23	32460.89
464.41	31604.25
464.59	31159.55
464.78	32994.53
464.96	33364.34
465.14	32460.89
465.32	32776.86
465.50	33998.62
465.69	34602.48
465.87	33687.33
466.05	32936.02
466.23	31211.04
466.41	30691.44
466.60	31435.74
466.78	31592.55
466.96	31995.12
467.14	32858.78
467.32	32950.06
467.51	32811.97
467.69	31552.76
467.87	32676.22
468.05	32931.34
468.23	32699.62
468.41	33015.60
468.60	32905.59
468.78	33219.22
468.96	32847.08
469.14	33326.89
469.32	33298.80
469.50	32130.87
469.69	32327.48
469.87	31929.59
470.05	31934.27
470.23	32039.59
470.41	31576.17
470.59	32528.77
470.77	32868.14
470.95	33102.20
471.14	33926.07
471.32	33525.83
471.50	35241.45
471.68	35461.46
471.86	35941.27
472.04	36187.02
472.22	36341.50
472.40	34443.32
472.58	34347.36
472.77	33951.81
472.95	34438.64
473.13	35229.74
473.31	34363.75
473.49	34796.74
473.67	35187.61
473.85	35779.77
474.03	36243.20
474.21	36247.88
474.39	36725.35
474.57	36762.79
474.75	37118.56
474.93	36472.57
475.12	35679.13
475.30	36177.66
475.48	35800.83
475.66	36517.04
475.84	36088.72
476.02	35803.17
476.20	35330.39
476.38	36137.87
476.56	36847.05
476.74	37977.53
476.92	37689.65
477.10	38197.54
477.28	39789.11
477.46	39353.77
477.64	39988.05
477.82	39775.06
478.00	40210.40
478.18	39777.40
478.36	39711.87
478.54	39398.24
478.72	39627.61
478.90	40456.16
479.08	41879.21
479.26	42206.88
479.44	41687.28
479.62	41830.05
479.80	41525.78
479.98	42213.90
480.16	42143.69
480.34	42101.56
480.52	42209.22
480.70	42120.28
480.88	42775.63
481.06	43276.51
481.24	43533.96
481.41	44313.36
481.59	45188.72
481.77	45193.40
481.95	44018.46
482.13	43735.25
482.31	44121.44
482.49	44772.11
482.67	44231.44
482.85	44612.95
483.03	45439.16
483.21	45666.19
483.39	45757.47
483.57	45069.36
483.74	45071.70
483.92	45174.68
484.10	45125.53
484.28	46192.81
484.46	46073.45
484.64	46930.08
484.82	45982.16
485.00	45530.44
485.18	44617.63
485.35	43613.54
485.53	40421.05
485.71	36954.72
485.89	36519.38
486.07	38157.75
486.25	41502.38
486.43	43924.83
486.61	44563.80
486.78	44392.94
486.96	44697.21
487.14	46333.24
487.32	47337.33
487.50	48325.04
487.68	49336.15
487.85	49729.36
488.03	49649.78
488.21	49511.69
488.39	48116.73
488.57	47730.54
488.75	47459.04
488.92	48231.42
489.10	50707.71
489.28	51873.29
489.46	52872.70
489.64	52718.23
489.81	52598.86
489.99	52507.58
490.17	52718.23
490.35	53095.05
490.53	52507.58
490.70	52079.26
490.88	51969.26
491.06	53066.97
491.24	52947.60
491.41	51484.76
491.59	50202.15
491.77	49392.33
491.95	50375.35
492.13	51969.26
492.30	52963.98
492.48	53977.43
492.66	54625.76
492.84	54319.15
493.01	54049.99
493.19	53551.46
493.37	53289.32
493.54	52795.46
493.72	53661.46
493.90	54932.37
494.08	55206.22
494.25	55945.83
494.43	56229.03
494.61	56390.53
494.79	56495.85
494.96	56196.26
495.14	55297.50
495.32	54433.84
495.49	53970.41
495.67	55182.81
495.85	56463.08
496.02	56697.14
496.20	56301.59
496.38	55955.19
496.55	56006.68
496.73	56458.40
496.91	56432.66
497.09	57153.54
497.26	57373.55
497.44	56767.35
497.62	56313.29
497.79	55620.49
497.97	54284.04
498.14	54590.66
498.32	55316.22
498.50	56549.68
498.67	57123.11
498.85	56755.65
499.03	56926.51
499.20	57202.69
499.38	57298.65
499.56	56910.13
499.73	56736.93
499.91	56271.16
500.08	55887.31
500.26	54759.17
500.44	55702.41
500.61	56289.88
500.79	56238.39
500.97	55489.42
501.14	55690.71
501.32	55297.50
501.49	55412.18
501.67	55753.90
501.84	56200.94
502.02	56334.35
502.20	56790.76
502.37	57059.92
502.55	57020.13
502.72	57502.28
502.90	57703.57
503.07	57558.45
503.25	57176.95
503.43	56442.02
503.60	55758.58
503.78	55133.66
503.95	55480.06
504.13	56863.32
504.30	57853.36
504.48	57593.56
504.65	57214.40
504.83	57190.99
505.01	58040.60
505.18	58241.89
505.36	58850.43
505.53	58747.45
505.71	59100.87
505.88	59084.48
506.06	58436.16
506.23	58033.58
506.41	57682.50
506.58	57811.23
506.76	58035.92
506.93	58071.03
507.11	57621.65
507.28	57764.42
507.46	57394.62
507.63	56594.15
507.81	56659.69
507.98	56694.80
508.16	57556.11
508.33	58176.36
508.50	58417.43
508.68	58646.80
508.85	59009.59
509.03	59161.72
509.20	59175.76
509.38	58298.06
509.55	57572.50
509.73	57731.65
509.90	58316.79
510.08	58372.96
510.25	58174.02
510.42	58096.78
510.60	58028.90
510.77	58417.43
510.95	58890.22
511.12	59056.40
511.30	59187.47
511.47	59650.89
511.64	59634.51
511.82	59196.83
511.99	58237.21
512.17	57844.00
512.34	57495.26
512.51	57710.59
512.69	57951.66
512.86	57825.28
513.04	58347.21
513.21	58522.76
513.38	58227.85
513.56	57647.39
513.73	57118.43
513.90	57034.17
514.08	57406.32
514.25	57773.78
514.43	57916.56
514.60	57970.39
514.77	58068.69
514.95	58127.20
515.12	58110.82
515.29	58178.70
515.47	58993.20
515.64	58885.54
515.81	58702.98
515.99	58087.42
516.16	56500.53
516.33	54443.20
516.51	52790.78
516.68	52191.61
516.85	51664.99
517.03	52140.11
517.20	54777.90
517.37	57186.31
517.54	58487.65
517.72	57635.69
517.89	55327.92
518.06	52858.66
518.24	53427.41
518.41	55402.82
518.58	56856.29
518.75	57073.96
518.93	57078.64
519.10	57174.61
519.27	57741.02
519.45	57792.51
519.62	58571.91
519.79	58887.88
519.96	58555.52
520.14	58080.39
520.31	57303.34
520.48	57176.95
520.65	57808.89
520.83	58702.98
521.00	59035.33
521.17	58454.88
521.34	58328.49
521.52	58548.50
521.69	59166.40
521.86	59526.84
522.03	59250.66
522.20	57886.13
522.38	56921.83
522.55	56949.92
522.72	57722.29
522.89	57661.44
523.07	57968.05
523.24	58279.34
523.41	58717.02
523.58	59250.66
523.75	59875.58
523.92	59540.89
524.10	59568.97
524.27	59447.27
524.44	59323.22
524.61	59093.85
524.78	59009.59
524.96	59075.12
525.13	58820.00
525.30	59138.32
525.47	59695.36
525.64	59505.78
525.81	58969.80
525.98	57347.81
526.16	55800.71
526.33	55388.78
526.50	55016.63
526.67	54930.03
526.84	55213.24
527.01	56381.16
527.18	57254.18
527.36	58141.25
527.53	58939.37
527.70	58951.07
527.87	58499.35
528.04	58150.61
528.21	58754.47
528.38	59079.80
528.55	59592.38
528.72	60069.85
528.89	60147.09
529.07	59793.67
529.24	59220.23
529.41	58824.68
529.58	57888.47
529.75	58174.02
529.92	58794.26
530.09	59114.91
530.26	59393.43
530.43	59854.52
530.60	59800.69
530.77	60083.89
530.94	60137.72
531.11	59622.81
531.28	59351.30
531.46	59222.58
531.63	59213.21
531.80	59121.93
531.97	58930.01
532.14	58171.67
532.31	57020.13
532.48	56322.65
532.65	56423.29
532.82	57188.65
532.99	58389.34
533.16	58745.11
533.33	58960.44
533.50	58974.48
533.67	58300.40
533.84	58019.54
534.01	58279.34
534.18	58391.68
534.35	58574.25
534.52	58307.43
534.69	58735.74
534.86	59248.32
535.03	59421.52
535.20	59817.07
535.37	60102.62
535.54	60205.60
535.71	59784.30
535.88	59590.04
536.05	58981.50
536.22	58527.44
536.38	58127.20
536.55	57654.42
536.72	57293.97
536.89	57244.82
537.06	58054.65
537.23	59000.22
537.40	59032.99
537.57	58939.37
537.74	58710.00
537.91	58822.34
538.08	58529.78
538.25	58859.79
538.42	59044.69
538.59	58726.38
538.75	57921.24
538.92	57893.15
539.09	57471.85
539.26	57584.20
539.43	57279.93
539.60	57387.60
539.77	57684.84
539.94	57595.90
540.11	56732.25
540.28	56346.06
540.44	56268.82
540.61	56865.66
540.78	56647.99
540.95	57279.93
541.12	57513.98
541.29	57818.25
541.46	58429.13
541.62	58457.22
541.79	57989.11
541.96	57593.56
542.13	57326.74
542.30	57609.95
542.47	57762.08
542.63	57509.30
542.80	57525.69
542.97	57745.70
543.14	57663.78
543.31	57502.28
543.48	57853.36
543.64	58489.99
543.81	58958.09
543.98	59072.78
544.15	58237.21
544.32	57532.71
544.48	57666.12
544.65	58253.59
544.82	58487.65
544.99	58223.17
545.16	57741.02
545.32	57757.40
545.49	58494.67
545.66	58761.49
545.83	58361.26
546.00	57991.45
546.16	57619.31
546.33	57633.35
546.50	57631.01
546.67	58230.19
546.83	57785.49
547.00	57893.15
547.17	57052.90
547.34	56472.45
547.50	56596.49
547.67	57064.60
547.84	56989.70
548.00	57408.66
548.17	57888.47
548.34	57661.44
548.51	57652.08
548.67	57726.97
548.84	57633.35
549.01	57937.62
549.18	57797.19
549.34	57722.29
549.51	57733.99
549.68	57499.94
549.84	57249.50
550.01	57284.61
550.18	57268.23
550.34	57244.82
550.51	57460.15
550.68	57336.10
550.84	56898.42
551.01	56846.93
551.18	57132.48
551.34	57132.48
551.51	57612.29
551.68	57848.68
551.84	57715.27
552.01	57528.03
552.18	57574.84
552.34	56559.05
552.51	56282.86
552.68	56193.92
552.84	57031.83
553.01	56903.10
553.18	56947.57
553.34	57293.97
553.51	57146.52
553.67	57235.46
553.84	57551.43
554.01	57406.32
554.17	57118.43
554.34	57336.10
554.51	57565.48
554.67	57750.38
554.84	57378.23
555.00	57385.25
555.17	56980.34
555.33	56949.92
555.50	57066.94
555.67	56863.32
555.83	56956.94
556.00	56528.62
556.16	56413.93
556.33	56104.98
556.50	55707.09
556.66	56030.08
556.83	55945.83
556.99	56062.85
557.16	55906.04
557.32	56271.16
557.49	56528.62
557.65	56449.04
557.82	56378.82
557.98	56210.31
558.15	55899.01
558.32	54979.18
558.48	54293.41
558.65	54443.20
558.81	54623.42
558.98	54953.44
559.14	55456.65
559.31	55447.29
559.47	55206.22
559.64	55089.19
559.80	54478.31
559.97	54595.34
560.13	55220.26
560.30	55948.17
560.46	56708.84
560.63	56685.43
560.79	56757.99
560.96	56598.83
561.12	55332.60
561.29	54457.24
561.45	54672.57
561.61	54937.05
561.78	55487.08
561.94	55325.58
562.11	55257.71
562.27	55201.53
562.44	55590.06
562.60	55653.26
562.77	55639.22
562.93	55791.35
563.10	55732.84
563.26	55353.67
563.42	55159.41
563.59	55082.17
563.75	55126.64
563.92	55133.66
564.08	55054.08
564.24	55480.06
564.41	55276.43
564.57	55131.32
564.74	54721.72
564.90	54911.31
565.07	54576.61
565.23	54307.45
565.39	53652.10
565.56	53556.14
565.72	53476.56
565.88	53633.38
566.05	53989.14
566.21	54218.51
566.38	54433.84
566.54	54279.36
566.70	54721.72
566.87	55098.55
567.03	54894.92
567.19	55189.83
567.36	55107.91
567.52	54588.31
567.68	54246.60
567.85	53858.07
568.01	53418.05
568.17	52978.03
568.34	52938.24
568.50	52877.38
568.66	53169.95
568.83	53471.88
568.99	53691.89
569.15	53757.42
569.32	53748.06
569.48	53546.78
569.64	53244.85
569.81	52978.03
569.97	53006.11
570.13	52942.92
570.30	52210.33
570.46	52058.20
570.62	51096.24
570.78	51161.77
570.95	51466.04
571.11	52442.04
571.27	52362.46
571.43	52793.12
571.60	53123.14
571.76	53268.25
571.92	53340.81
572.09	53797.21
572.25	53710.61
572.41	53539.75
572.57	53359.53
572.74	53361.87
572.90	52971.00
573.06	52809.51
573.22	52940.58
573.38	53186.33
573.55	53015.47
573.71	53066.97
573.87	53207.40
574.03	52823.55
574.20	52982.71
574.36	52416.30
574.52	52350.76
574.68	52189.27
574.84	52060.54
575.01	51306.88
575.17	51267.09
575.33	51639.24
575.49	51700.09
575.65	52088.62
575.82	51606.47
575.98	51508.17
576.14	51562.00
576.30	52100.32
576.46	52186.92
576.62	51906.06
576.79	52222.03
576.95	51784.35
577.11	51714.14
577.27	51908.40
577.43	51739.88
577.59	51257.73
577.75	50965.17
577.92	50333.22
578.08	49932.99
578.24	50101.51
578.40	50312.16
578.56	51077.51
578.72	51072.83
578.88	51103.26
579.04	51124.32
579.21	51353.69
579.37	51196.88
579.53	51562.00
579.69	51505.83
579.85	51454.34
580.01	51344.33
580.17	51063.47
580.33	51051.76
580.49	51145.39
580.65	51292.84
580.82	51559.66
580.98	51421.57
581.14	51285.82
581.30	51564.34
581.46	51292.84
581.62	51398.16
581.78	51756.27
581.94	51650.94
582.10	51606.47
582.26	51447.32
582.42	51620.52
582.58	51585.41
582.74	51386.46
582.90	51192.20
583.06	51899.04
583.22	51311.56
583.38	51157.09
583.54	51138.36
583.70	51173.47
583.86	51002.61
584.02	50698.34
584.18	51082.19
584.34	51065.81
584.50	50939.42
584.66	50859.84
584.82	50293.43
584.98	50061.72
585.14	49958.73
585.30	49027.20
