SpectraSuite Data File
++++++++++++++++++++++++++++++++++++
Date: Mon Oct 07 14:55:52 GMT-05:00 2013
User: price-jones
Dark Spectrum Present: No
Reference Spectrum Present: No
Number of Sampled Component Spectra: 1
Spectrometers: USB2+H05261
Integration Time (usec): 1000000 (USB2+H05261)
Spectra Averaged: 1 (USB2+H05261)
Boxcar Smoothing: 0 (USB2+H05261)
Correct for Electrical Dark: No (USB2+H05261)
Strobe/Lamp Enabled: No (USB2+H05261)
Correct for Detector Non-linearity: No (USB2+H05261)
Correct for Stray Light: No (USB2+H05261)
Number of Pixels in Processed Spectrum: 2048
>>>>>Begin Processed Spectral Data<<<<<
365.73	0.00
365.92	0.00
366.12	0.00
366.32	0.00
366.52	0.00
366.72	168.52
366.91	0.00
367.11	166.18
367.31	60.85
367.51	110.01
367.70	173.20
367.90	425.98
368.10	191.92
368.30	278.52
368.49	0.00
368.69	376.83
368.89	189.58
369.09	0.00
369.28	119.37
369.48	2.34
369.68	102.98
369.87	238.73
370.07	37.45
370.27	547.69
370.47	1210.06
370.66	3632.51
370.86	4369.78
371.06	4994.70
371.25	5130.45
371.45	3969.55
371.65	4180.20
371.84	3585.70
372.04	3815.07
372.24	4266.80
372.44	4383.82
372.63	4297.22
372.83	4344.03
373.03	3604.42
373.22	3375.05
373.42	3564.64
373.62	4112.32
373.81	4334.67
374.01	4463.40
374.21	4128.70
374.40	3557.61
374.60	3976.57
374.79	4161.47
374.99	4760.65
375.19	5235.78
375.38	5064.92
375.58	4873.00
375.78	4924.49
375.97	4985.34
376.17	5631.33
376.37	4940.87
376.56	5177.26
376.76	5247.48
376.95	5535.37
377.15	6047.94
377.35	6164.97
377.54	6466.90
377.74	6509.03
377.93	6490.31
378.13	6265.61
378.33	6270.30
378.52	5460.47
378.72	5837.30
378.91	5413.66
379.11	4992.36
379.31	5015.77
379.50	4851.93
379.70	5762.40
379.89	6181.35
380.09	5989.43
380.28	6169.65
380.48	6307.74
380.68	6094.76
380.87	5820.91
381.07	5692.18
381.26	5483.88
381.46	4816.82
381.65	4833.21
381.85	4594.47
382.04	4636.60
382.24	4250.41
382.43	4070.19
382.63	3948.48
382.83	3978.91
383.02	4376.80
383.22	4362.76
383.41	3936.78
383.61	4409.57
383.80	5334.08
384.00	5694.52
384.19	5937.94
384.39	6282.00
384.58	6083.05
384.78	6389.66
384.97	6122.84
385.17	5584.52
385.36	5472.17
385.56	5277.91
385.75	5369.19
385.95	5856.02
386.14	6691.59
386.34	6253.91
386.53	6136.88
386.72	5703.89
386.92	6174.33
387.11	6188.38
387.31	6520.73
387.50	5975.39
387.70	5870.06
387.89	6071.35
388.09	5820.91
388.28	5802.19
388.48	6069.01
388.67	6965.43
388.86	7255.66
389.06	7611.42
389.25	8044.42
389.45	7962.50
389.64	7894.63
389.84	8037.40
390.03	7859.52
390.22	8056.12
390.42	8091.23
390.61	8482.10
390.81	8863.61
391.00	9137.45
391.19	9380.87
391.39	8613.17
391.58	8404.86
391.78	7777.60
391.97	7733.13
392.16	6874.15
392.36	6607.33
392.55	5554.09
392.75	4355.74
392.94	3597.40
393.13	4046.79
393.33	4358.08
393.52	5582.18
393.71	6836.70
393.91	7262.68
394.10	7480.35
394.29	8217.62
394.49	8954.89
394.68	9806.84
394.88	9764.72
395.07	10068.98
395.26	9568.11
395.46	9542.36
395.65	9135.11
395.84	7925.05
396.04	7557.59
396.23	5558.77
396.42	4809.80
396.62	4788.74
396.81	5706.23
397.00	6862.45
397.19	8521.89
397.39	9781.10
397.58	11145.63
397.77	11375.00
397.97	11861.84
398.16	11943.75
398.35	12425.90
398.55	12549.95
398.74	12959.55
398.93	13743.63
399.12	13280.20
399.32	12889.33
399.51	12985.29
399.70	13940.23
399.90	13909.80
400.09	13708.52
400.28	13809.16
400.47	13713.20
400.67	14628.35
400.86	14640.05
401.05	14867.08
401.24	15145.61
401.44	15403.07
401.63	15108.16
401.82	15094.11
402.01	14899.85
402.21	15042.62
402.40	15396.04
402.59	14408.34
402.78	14050.24
402.97	14097.05
403.17	14661.12
403.36	15578.61
403.55	15822.02
403.74	15932.03
403.93	15524.77
404.13	14995.81
404.32	14853.04
404.51	15456.90
404.70	16411.84
404.89	15754.15
405.09	15686.27
405.28	14939.64
405.47	15204.12
405.66	15178.37
405.85	14984.11
406.05	14085.34
406.24	14455.15
406.43	15365.62
406.62	15658.18
406.81	16479.71
407.00	15508.39
407.20	14750.06
407.39	15339.87
407.58	15899.26
407.77	16563.97
407.96	16884.62
408.15	17249.75
408.34	17039.10
408.54	17891.06
408.73	17788.07
408.92	17238.05
409.11	17041.44
409.30	16645.89
409.49	14958.36
409.68	14340.46
409.87	14157.90
410.07	14970.07
410.26	16032.67
410.45	16538.23
410.64	17193.58
410.83	17657.00
411.02	18146.17
411.21	18693.86
411.40	18560.45
411.59	18801.52
411.78	18640.03
411.98	18525.34
412.17	18565.13
412.36	18160.22
412.55	18312.35
412.74	17909.78
412.93	18033.83
413.12	18068.94
413.31	19721.35
413.50	19714.33
413.69	19538.79
413.88	19398.36
414.07	18546.40
414.26	19000.47
414.45	19412.40
414.64	19580.92
414.83	19599.65
415.02	19220.48
415.22	19487.30
415.41	19901.58
415.60	20250.32
415.79	20954.82
415.98	21465.05
416.17	21266.11
416.36	20610.76
416.55	20156.69
416.74	19833.70
416.93	19463.90
417.12	19302.40
417.31	19908.60
417.50	19819.66
417.69	20688.00
417.88	19995.20
418.07	19887.53
418.26	19882.85
418.45	20088.82
418.64	21188.87
418.83	21263.77
419.02	21371.43
419.21	20835.45
419.39	20184.78
419.58	19646.46
419.77	19419.42
419.96	20325.21
420.15	21799.75
420.34	21579.74
420.53	22581.49
420.72	23009.81
420.91	22675.11
421.10	22199.98
421.29	22211.68
421.48	21577.40
421.67	23112.79
421.86	21333.98
422.05	20093.50
422.24	17771.69
422.43	18726.63
422.61	20198.82
422.80	21886.35
422.99	21745.92
423.18	20917.37
423.37	20772.25
423.56	20610.76
423.75	20915.03
423.94	21116.31
424.13	20222.23
424.32	19885.19
424.50	20240.95
424.69	20053.71
424.88	20835.45
425.07	20081.80
425.26	20231.59
425.45	19597.31
425.64	19239.20
425.83	19779.87
426.01	21238.02
426.20	21469.73
426.39	20877.58
426.58	19293.04
426.77	18389.59
426.96	17708.49
427.15	18560.45
427.33	19934.34
427.52	20617.78
427.71	20704.38
427.90	20023.28
428.09	19749.44
428.28	19325.80
428.46	18565.13
428.65	19012.17
428.84	19124.52
429.03	20334.57
429.22	18242.14
429.40	17259.11
429.59	15524.77
429.78	14698.56
429.97	14530.05
430.16	14333.44
430.34	14434.08
430.53	14356.85
430.72	14970.07
430.91	16882.28
431.10	19342.19
431.28	22183.60
431.47	24580.31
431.66	24133.26
431.85	21652.30
432.03	20002.22
432.22	20435.22
432.41	20526.50
432.60	22951.29
432.79	23152.58
432.97	23791.55
433.16	23021.51
433.35	20585.01
433.54	18750.03
433.72	18567.47
433.91	19253.25
434.10	20954.82
434.28	22937.25
434.47	23463.87
434.66	23178.33
434.85	22452.76
435.03	23552.81
435.22	26012.71
435.41	29214.57
435.59	28996.90
435.78	27604.28
435.97	26185.91
436.16	25722.49
436.34	24746.48
436.53	24650.52
436.72	24779.25
436.90	22860.01
437.09	23108.11
437.28	22960.66
437.46	23599.62
437.65	23674.52
437.84	21689.74
438.02	20095.84
438.21	20746.51
438.40	21214.62
438.58	22679.79
438.77	23192.37
438.96	23438.12
439.14	24428.17
439.33	25373.75
439.52	25378.43
439.70	25036.71
439.89	24482.00
440.08	23903.89
440.26	23796.23
440.45	24996.92
440.63	26375.50
440.82	26913.82
441.01	26639.98
441.19	26115.70
441.38	27154.90
441.57	28318.14
441.75	28603.69
441.94	28692.63
442.12	28652.84
442.31	28826.04
442.50	28975.83
442.68	28128.56
442.87	28212.82
443.05	27821.95
443.24	28084.09
443.43	29020.30
443.61	29546.92
443.80	29546.92
443.98	27655.77
444.17	27845.35
444.35	29715.44
444.54	29743.53
444.73	29642.88
444.91	28538.15
445.10	27147.87
445.28	26197.62
445.47	25619.50
445.65	26473.80
445.84	26670.40
446.02	27828.97
446.21	28006.85
446.39	27971.74
446.58	28514.75
446.77	28865.83
446.95	29116.26
447.14	29998.65
447.32	30775.70
447.51	29373.72
447.69	28669.22
447.88	28297.08
448.06	29308.19
448.25	29158.39
448.43	29392.45
448.62	28854.12
448.80	28914.98
448.99	28893.91
449.17	28779.23
449.36	29535.22
449.54	30497.18
449.73	30466.75
449.91	31138.49
450.10	31978.74
450.28	32519.40
450.46	32671.54
450.65	32332.16
450.83	31594.89
451.02	31105.72
451.20	30824.86
451.39	31009.76
451.57	30558.03
451.76	30485.48
451.94	30288.87
452.13	30228.02
452.31	29055.41
452.49	27655.77
452.68	27688.54
452.86	27585.55
453.05	28496.02
453.23	29104.56
453.42	29577.35
453.60	30366.11
453.78	30520.59
453.97	30192.91
454.15	29844.17
454.34	29305.85
454.52	29399.47
454.70	29455.64
454.89	29699.06
455.07	29261.38
455.26	30110.99
455.44	31075.29
455.62	31622.98
455.81	31845.33
455.99	31814.90
456.17	31234.45
456.36	31372.54
456.54	32217.47
456.73	31999.80
456.91	32554.51
457.09	32835.38
457.28	33376.04
457.46	31716.60
457.64	31672.13
457.83	30742.94
458.01	29818.42
458.19	30932.52
458.38	30953.58
458.56	31913.20
458.74	31688.51
458.93	31943.63
459.11	31548.08
459.29	30780.39
459.48	31253.17
459.66	31665.11
459.84	31552.76
460.03	32547.49
460.21	32025.55
460.39	32346.20
460.57	33233.27
460.76	33006.23
460.94	32692.60
461.12	33071.77
461.31	33256.67
461.49	32617.71
461.67	32233.86
461.85	33610.09
462.04	33275.40
462.22	39739.96
462.40	33497.75
462.59	33783.29
462.77	33031.98
462.95	33722.44
463.13	32486.64
463.32	32900.91
463.50	32301.73
463.68	32767.50
463.86	32720.69
464.05	31777.45
464.23	31529.36
464.41	31803.20
464.59	30946.56
464.78	32091.09
464.96	31880.44
465.14	31885.12
465.32	32423.44
465.50	33448.60
465.69	33446.26
465.87	32999.21
466.05	32147.26
466.23	30466.75
466.41	29954.18
466.60	31325.73
466.78	30792.09
466.96	32063.00
467.14	32048.96
467.32	32474.93
467.51	32390.67
467.69	30920.82
467.87	32065.34
468.05	31990.44
468.23	32694.94
468.41	32243.22
468.60	32088.74
468.78	32566.21
468.96	32301.73
469.14	32692.60
469.32	32322.80
469.50	30953.58
469.69	31597.23
469.87	31161.89
470.05	30906.77
470.23	31234.45
470.41	30941.88
470.59	31381.90
470.77	32238.54
470.95	32322.80
471.14	32996.87
471.32	32905.59
471.50	34953.56
471.68	35093.99
471.86	34312.25
472.04	34967.60
472.22	34462.05
472.40	33495.41
472.58	33024.96
472.77	32517.06
472.95	33476.68
473.13	34611.84
473.31	33703.71
473.49	33605.41
473.67	33905.00
473.85	34948.88
474.03	35714.23
474.21	34958.24
474.39	36147.23
474.57	36659.81
474.75	36062.97
474.93	35187.61
475.12	34256.08
475.30	34422.26
475.48	34888.03
475.66	35454.44
475.84	34939.52
476.02	34881.00
476.20	34078.20
476.38	34735.89
476.56	36175.32
476.74	36020.84
476.92	36465.55
477.10	36655.13
477.28	37937.74
477.46	38075.84
477.64	37975.19
477.82	38225.63
478.00	38286.48
478.18	38295.85
478.36	37830.08
478.54	37816.04
478.72	38040.73
478.90	39236.74
479.08	40135.51
479.26	40142.53
479.44	40259.55
479.62	39545.69
479.80	39917.84
479.98	40135.51
480.16	40484.25
480.34	40285.30
480.52	39950.60
480.70	40690.21
480.88	40725.32
481.06	41504.72
481.24	41846.44
481.41	42422.21
481.59	43426.30
481.77	42412.85
481.95	42251.35
482.13	42906.70
482.31	41862.82
482.49	42733.50
482.67	43196.93
482.85	43725.89
483.03	43777.38
483.21	44732.32
483.39	44074.63
483.57	43042.45
483.74	43201.61
483.92	43765.68
484.10	43058.84
484.28	44343.79
484.46	45588.95
484.64	45118.51
484.82	44484.22
485.00	43330.34
485.18	42899.68
485.35	41762.18
485.53	38110.94
485.71	35620.61
485.89	35239.11
486.07	38075.84
486.25	41158.32
486.43	42960.53
486.61	43119.69
486.78	42768.61
486.96	43063.52
487.14	45024.89
487.32	45624.06
487.50	46522.83
487.68	47461.38
487.85	48055.88
488.03	48074.60
488.21	48016.09
488.39	47065.83
488.57	46204.52
488.75	45743.43
488.92	49691.91
489.10	49624.04
489.28	51227.31
489.46	51356.03
489.64	51234.33
489.81	51402.85
489.99	51215.60
490.17	50621.11
490.35	51667.33
490.53	50520.46
490.70	49937.67
490.88	50494.72
491.06	51676.69
491.24	51037.72
491.41	50382.37
491.59	48685.48
491.77	47753.95
491.95	48736.98
492.13	50255.98
492.30	52016.07
492.48	52673.76
492.66	52978.03
492.84	52706.52
493.01	52219.69
493.19	51620.52
493.37	51620.52
493.54	51562.00
493.72	52418.64
493.90	53303.36
494.08	53654.44
494.25	54223.19
494.43	54089.78
494.61	54246.60
494.79	54436.18
494.96	54728.75
495.14	53481.24
495.32	52491.19
495.49	52355.44
495.67	53766.79
495.85	54770.88
496.02	54848.11
496.20	55344.31
496.38	54782.58
496.55	54670.23
496.73	55264.73
496.91	54887.90
497.09	55704.75
497.26	55110.25
497.44	54890.24
497.62	54410.43
497.79	53565.50
497.97	52545.03
498.14	52910.15
498.32	53631.04
498.50	54756.83
498.67	55648.58
498.85	55274.09
499.03	55370.05
499.20	55695.39
499.38	55774.97
499.56	55262.39
499.73	55002.59
499.91	54768.54
500.08	54183.40
500.26	53396.98
500.44	54040.63
500.61	54447.88
500.79	54073.40
500.97	53633.38
501.14	53778.49
501.32	53345.49
501.49	53675.51
501.67	54197.44
501.84	54614.06
502.02	54766.20
502.20	55435.59
502.37	55274.09
502.55	55241.32
502.72	55718.79
502.90	56203.28
503.07	55931.78
503.25	55503.46
503.43	54571.93
503.60	53595.93
503.78	53340.81
503.95	54293.41
504.13	55416.86
504.30	56203.28
504.48	55735.18
504.65	55367.71
504.83	55517.51
505.01	56158.81
505.18	56133.07
505.36	57120.77
505.53	57242.48
505.71	57104.39
505.88	57361.85
506.06	56573.09
506.23	56636.28
506.41	56037.11
506.58	56509.89
506.76	56067.53
506.93	56399.89
507.11	56343.72
507.28	56130.73
507.46	55491.76
507.63	54784.92
507.81	55159.41
507.98	55461.33
508.16	55739.86
508.33	56488.83
508.50	56755.65
508.68	57186.31
508.85	57446.11
509.03	57382.91
509.20	57097.37
509.38	56727.56
509.55	55873.27
509.73	56128.39
509.90	56940.55
510.08	56975.66
510.25	56704.16
510.42	56257.12
510.60	56268.82
510.77	56996.73
510.95	57408.66
511.12	57359.51
511.30	57879.11
511.47	58211.46
511.64	57989.11
511.82	57506.96
511.99	56587.13
512.17	56486.49
512.34	56140.09
512.51	56418.61
512.69	56261.80
512.86	56486.49
513.04	56629.26
513.21	56945.23
513.38	56353.08
513.56	55983.27
513.73	55143.02
513.90	55671.98
514.08	55545.59
514.25	56121.37
514.43	56566.07
514.60	56076.90
514.77	56317.97
514.95	56598.83
515.12	56666.71
515.29	57289.29
515.47	57371.21
515.64	57726.97
515.81	57181.63
515.99	56582.45
516.16	55161.75
516.33	52671.42
516.51	51482.42
516.68	50607.06
516.85	49872.14
517.03	51016.66
517.20	53956.37
517.37	55873.27
517.54	56858.63
517.72	55784.33
517.89	53619.33
518.06	51058.79
518.24	52217.35
518.41	54817.69
518.58	55723.47
518.75	55700.07
518.93	55751.56
519.10	55437.93
519.27	56039.45
519.45	56537.98
519.62	57195.67
519.79	57521.01
519.96	57331.42
520.14	56849.27
520.31	56074.55
520.48	56172.86
520.65	56788.42
520.83	57251.84
521.00	57649.74
521.17	57513.98
521.34	57045.88
521.52	57352.49
521.69	57846.34
521.86	58234.87
522.03	57825.28
522.20	56989.70
522.38	55578.36
522.55	56112.00
522.72	56388.19
522.89	56598.83
523.07	56966.30
523.24	57406.32
523.41	58085.07
523.58	58227.85
523.75	58724.04
523.92	58480.63
524.10	58504.03
524.27	58508.71
524.44	58232.53
524.61	58408.07
524.78	58089.76
524.96	58164.65
525.13	58028.90
525.30	58183.38
525.47	58653.82
525.64	58220.83
525.81	57631.01
525.98	56343.72
526.16	54796.62
526.33	54305.11
526.50	53584.22
526.67	53654.44
526.84	54302.77
527.01	55229.62
527.18	56484.15
527.36	57020.13
527.53	57921.24
527.70	58305.09
527.87	57804.21
528.04	56978.00
528.21	57736.34
528.38	58576.59
528.55	59009.59
528.72	59171.08
528.89	59653.23
529.07	59030.65
529.24	58344.87
529.41	57860.38
529.58	57343.12
529.75	57439.09
529.92	58145.93
530.09	58337.85
530.26	58934.69
530.43	59166.40
530.60	59124.27
530.77	59288.11
530.94	59442.59
531.11	58852.77
531.28	58487.65
531.46	58590.63
531.63	58719.36
531.80	58417.43
531.97	58042.95
532.14	56940.55
532.31	56549.68
532.48	55646.24
532.65	56474.79
532.82	56877.36
532.99	57916.56
533.16	58185.72
533.33	58698.30
533.50	58485.31
533.67	57659.10
533.84	57558.45
534.01	57286.95
534.18	57902.51
534.35	58033.58
534.52	58134.23
534.69	58597.65
534.86	58688.93
535.03	58948.73
535.20	59339.60
535.37	59948.14
535.54	59751.54
535.71	59306.83
535.88	59147.68
536.05	58777.87
536.22	58089.76
536.38	58096.78
536.55	57614.63
536.72	57104.39
536.89	57137.16
537.06	57820.59
537.23	58504.03
537.40	58255.93
537.57	58562.54
537.74	58702.98
537.91	58812.98
538.08	58607.01
538.25	59103.21
538.42	59028.31
538.59	58417.43
538.75	57925.92
538.92	58103.80
539.09	57914.22
539.26	57921.24
539.43	57851.02
539.60	58124.86
539.77	58255.93
539.94	58237.21
540.11	57609.95
540.28	57537.39
540.44	57808.89
540.61	57771.44
540.78	58288.70
540.95	58546.16
541.12	59503.44
541.29	59852.18
541.46	60217.30
541.62	60065.17
541.79	60109.64
541.96	59489.40
542.13	59676.64
542.30	59767.92
542.47	59873.24
542.63	59091.51
542.80	59470.67
542.97	59208.53
543.14	59348.96
543.31	59215.55
543.48	59863.88
543.64	60676.05
543.81	60816.48
543.98	60441.99
544.15	59980.91
544.32	59428.54
544.48	59718.77
544.65	59845.16
544.82	60006.65
544.99	59737.49
545.16	59625.15
545.32	59737.49
545.49	61855.68
545.66	63252.98
545.83	63379.37
546.00	62286.34
546.16	60453.70
546.33	59744.51
546.50	59367.69
546.67	59629.83
546.83	58908.94
547.00	59114.91
547.17	58124.86
547.34	58019.54
547.50	57954.00
547.67	58506.37
547.84	58178.70
548.00	58695.95
548.17	58773.19
548.34	58782.55
548.51	58890.22
548.67	58836.39
548.84	58805.96
549.01	58824.68
549.18	58702.98
549.34	58932.35
549.51	58590.63
549.68	58410.41
549.84	58056.99
550.01	58052.31
550.18	58665.53
550.34	58368.28
550.51	58134.23
550.68	58232.53
550.84	57591.22
551.01	57640.37
551.18	57701.23
551.34	58120.18
551.51	58262.96
551.68	58340.19
551.84	58422.11
552.01	57949.32
552.18	58014.86
552.34	57127.80
552.51	56905.44
552.68	56657.35
552.84	57481.22
553.01	57638.03
553.18	57546.75
553.34	57336.10
553.51	57382.91
553.67	57984.43
553.84	58354.24
554.01	57787.83
554.17	57979.75
554.34	57584.20
554.51	57979.75
554.67	58012.52
554.84	57881.45
555.00	57457.81
555.17	57319.72
555.33	57471.85
555.50	57123.11
555.67	57483.56
555.83	57162.90
556.00	56933.53
556.16	57748.04
556.33	56430.32
556.50	56519.26
556.66	56076.90
556.83	56322.65
556.99	56147.11
557.16	56545.00
557.32	56708.84
557.49	56732.25
557.65	56743.95
557.82	56676.07
557.98	56589.47
558.15	56126.05
558.32	55327.92
558.48	54747.47
558.65	54670.23
558.81	55414.52
558.98	55227.28
559.14	55697.73
559.31	55461.33
559.47	55929.44
559.64	55276.43
559.80	55295.16
559.97	55150.04
560.13	55676.66
560.30	56310.95
560.46	56994.39
560.63	56907.79
560.79	57059.92
560.96	56669.05
561.12	55180.47
561.29	54595.34
561.45	54705.34
561.61	55124.30
561.78	56486.49
561.94	55936.46
562.11	55489.42
562.27	55604.11
562.44	56027.74
562.60	56324.99
562.77	56273.50
562.93	56257.12
563.10	56102.64
563.26	55384.10
563.42	55686.03
563.59	55262.39
563.75	55180.47
563.92	55498.78
564.08	55309.20
564.24	55812.41
564.41	55828.80
564.57	55552.62
564.74	55430.91
564.90	54915.99
565.07	55217.92
565.23	55042.38
565.39	54272.34
565.56	54188.08
565.72	53794.87
565.88	54466.61
566.05	54464.27
566.21	54527.46
566.38	54827.05
566.54	54541.50
566.70	55178.13
566.87	55281.11
567.03	55458.99
567.19	55634.53
567.36	55143.02
567.52	55145.36
567.68	54934.71
567.85	54405.75
568.01	54089.78
568.17	53675.51
568.34	53581.88
568.50	53947.01
568.66	53656.78
568.83	54550.87
568.99	53872.11
569.15	54316.81
569.32	54127.23
569.48	53865.09
569.64	53829.98
569.81	53495.28
569.97	53141.86
570.13	53574.86
570.30	52879.72
570.46	52428.00
570.62	52100.32
570.78	52163.52
570.95	52238.42
571.11	53219.10
571.27	53600.61
571.43	53380.60
571.60	53982.12
571.76	53762.11
571.92	54333.20
572.09	54595.34
572.25	54307.45
572.41	54012.54
572.57	53567.84
572.74	54583.63
572.90	54038.29
573.06	53993.82
573.22	53979.78
573.38	53902.54
573.55	53907.22
573.71	54246.60
573.87	53925.94
574.03	53284.64
574.20	53404.00
574.36	53567.84
574.52	53357.19
574.68	53059.94
574.84	52844.62
575.01	51938.83
575.17	52261.82
575.33	52538.01
575.49	52851.64
575.65	53240.17
575.82	53130.16
575.98	53090.37
576.14	52706.52
576.30	53462.52
576.46	54155.32
576.62	54330.86
576.79	54183.40
576.95	53427.41
577.11	53099.73
577.27	53008.45
577.43	53064.63
577.59	52729.93
577.75	52142.45
577.92	51395.82
578.08	50864.52
578.24	51477.74
578.40	52130.75
578.56	52879.72
578.72	53338.47
578.88	53478.90
579.04	53055.26
579.21	52912.49
579.37	52507.58
579.53	53001.43
579.69	53001.43
579.85	52893.77
580.01	53069.31
580.17	52210.33
580.33	52112.03
580.49	52540.35
580.65	52758.02
580.82	53041.22
580.98	52601.20
581.14	52500.56
581.30	52781.42
581.46	52718.23
581.62	53066.97
581.78	52645.67
581.94	53221.44
582.10	52966.32
582.26	53036.54
582.42	53088.03
582.58	53118.46
582.74	52809.51
582.90	53083.35
583.06	53169.95
583.22	52893.77
583.38	53176.97
583.54	53242.51
583.70	53116.12
583.86	52961.64
584.02	53118.46
584.18	53441.45
584.34	53022.50
584.50	52797.80
584.66	52317.99
584.82	51805.42
584.98	52322.68
