SpectraSuite Data File
++++++++++++++++++++++++++++++++++++
Date: Mon Oct 07 14:54:55 GMT-05:00 2013
User: price-jones
Dark Spectrum Present: No
Reference Spectrum Present: No
Number of Sampled Component Spectra: 1
Spectrometers: USB2+H05261
Integration Time (usec): 10000 (USB2+H05261)
Spectra Averaged: 1 (USB2+H05261)
Boxcar Smoothing: 0 (USB2+H05261)
Correct for Electrical Dark: No (USB2+H05261)
Strobe/Lamp Enabled: No (USB2+H05261)
Correct for Detector Non-linearity: No (USB2+H05261)
Correct for Stray Light: No (USB2+H05261)
Number of Pixels in Processed Spectrum: 2048
>>>>>Begin Processed Spectral Data<<<<<
365.73	0.00
365.92	0.00
366.12	0.00
366.32	0.00
366.52	0.00
366.72	0.00
366.91	0.00
367.11	0.00
367.31	0.00
367.51	0.00
367.70	0.00
367.90	0.00
368.10	0.00
368.30	0.00
368.49	0.00
368.69	0.00
368.89	0.00
369.09	0.00
369.28	0.00
369.48	0.00
369.68	0.00
369.87	0.00
370.07	0.00
370.27	0.00
370.47	0.00
370.66	16.38
370.86	58.51
371.06	39.79
371.25	42.13
371.45	105.32
371.65	65.54
371.84	14.04
372.04	0.00
372.24	65.54
372.44	105.32
372.63	149.79
372.83	35.11
373.03	0.00
373.22	14.04
373.42	159.16
373.62	35.11
373.81	67.88
374.01	133.41
374.21	107.66
374.40	35.11
374.60	0.00
374.79	112.35
374.99	140.43
375.19	201.29
375.38	212.99
375.58	133.41
375.78	177.88
375.97	133.41
376.17	138.09
376.37	131.07
376.56	255.12
376.76	241.08
376.95	222.35
377.15	278.52
377.35	306.61
377.54	299.59
377.74	283.20
377.93	320.65
378.13	224.69
378.33	304.27
378.52	236.39
378.72	227.03
378.91	224.69
379.11	262.14
379.31	220.01
379.50	163.84
379.70	248.10
379.89	236.39
380.09	339.38
380.28	266.82
380.48	280.86
380.68	327.68
380.87	285.55
381.07	203.63
381.26	60.85
381.46	152.13
381.65	145.11
381.85	131.07
382.04	114.69
382.24	72.56
382.43	112.35
382.63	30.43
382.83	51.49
383.02	84.26
383.22	189.58
383.41	81.92
383.61	163.84
383.80	168.52
384.00	194.26
384.19	227.03
384.39	294.91
384.58	388.53
384.78	318.31
384.97	245.76
385.17	278.52
385.36	299.59
385.56	220.01
385.75	306.61
385.95	320.65
386.14	301.93
386.34	227.03
386.53	229.37
386.72	222.35
386.92	278.52
387.11	315.97
387.31	362.78
387.50	372.15
387.70	315.97
387.89	257.46
388.09	287.89
388.28	351.08
388.48	266.82
388.67	360.44
388.86	444.70
389.06	362.78
389.25	411.93
389.45	528.96
389.64	482.15
389.84	404.91
390.03	381.51
390.22	528.96
390.42	505.56
390.61	463.43
390.81	528.96
391.00	622.58
391.19	550.03
391.39	582.79
391.58	519.60
391.78	531.30
391.97	440.02
392.16	374.49
392.36	367.46
392.55	287.89
392.75	117.03
392.94	21.06
393.13	23.41
393.33	86.60
393.52	203.63
393.71	351.08
393.91	346.40
394.10	400.23
394.29	425.98
394.49	524.28
394.68	557.05
394.88	559.39
395.07	545.34
395.26	594.50
395.46	653.01
395.65	493.85
395.84	463.43
396.04	332.36
396.23	184.90
396.42	191.92
396.62	177.88
396.81	208.31
397.00	409.59
397.19	479.81
397.39	695.14
397.58	779.40
397.77	798.12
397.97	837.91
398.16	720.88
398.35	863.66
398.55	917.49
398.74	976.00
398.93	908.13
399.12	950.26
399.32	835.57
399.51	992.39
399.70	1088.35
399.90	954.94
400.09	971.32
400.28	994.73
400.47	987.71
400.67	1027.50
400.86	1036.86
401.05	1125.80
401.24	1032.18
401.44	1100.05
401.63	1163.25
401.82	1146.86
402.01	1097.71
402.21	1060.26
402.40	1067.28
402.59	1050.90
402.78	1121.12
402.97	997.07
403.17	1081.33
403.36	1151.54
403.55	1256.87
403.74	1273.25
403.93	1086.01
404.13	1128.14
404.32	1006.43
404.51	1114.10
404.70	1167.93
404.89	1100.05
405.09	1064.94
405.28	1088.35
405.47	1100.05
405.66	1114.10
405.85	1053.24
406.05	1027.50
406.24	1039.20
406.43	1076.65
406.62	1163.25
406.81	1118.78
407.00	1076.65
407.20	1055.58
407.39	1123.46
407.58	1186.65
407.77	1198.35
407.96	1296.66
408.15	1254.53
408.34	1184.31
408.54	1371.55
408.73	1404.32
408.92	1275.59
409.11	1231.12
409.30	1259.21
409.49	1050.90
409.68	1048.56
409.87	1102.39
410.07	1067.28
410.26	1231.12
410.45	1270.91
410.64	1184.31
410.83	1284.95
411.02	1345.81
411.21	1430.07
411.40	1301.34
411.59	1313.04
411.78	1437.09
411.98	1373.89
412.17	1425.39
412.36	1425.39
412.55	1313.04
412.74	1359.85
412.93	1266.23
413.12	1369.21
413.31	1483.90
413.50	1444.11
413.69	1432.41
413.88	1455.81
414.07	1373.89
414.26	1481.56
414.45	1448.79
414.64	1430.07
414.83	1416.02
415.02	1472.20
415.22	1441.77
415.41	1516.67
415.60	1460.49
415.79	1607.95
415.98	1650.08
416.17	1664.12
416.36	1554.12
416.55	1451.13
416.74	1561.14
416.93	1397.30
417.12	1453.47
417.31	1537.73
417.50	1565.82
417.69	1579.86
417.88	1488.58
418.07	1511.99
418.26	1418.36
418.45	1469.86
418.64	1523.69
418.83	1706.25
419.02	1614.97
419.21	1535.39
419.39	1472.20
419.58	1441.77
419.77	1376.24
419.96	1563.48
420.15	1554.12
420.34	1624.33
420.53	1706.25
420.72	1706.25
420.91	1703.91
421.10	1675.82
421.29	1715.61
421.48	1708.59
421.67	1713.27
421.86	1710.93
422.05	1533.05
422.24	1376.24
422.43	1394.96
422.61	1497.94
422.80	1724.97
422.99	1600.93
423.18	1565.82
423.37	1582.20
423.56	1514.33
423.75	1495.60
423.94	1593.90
424.13	1516.67
424.32	1603.27
424.50	1561.14
424.69	1556.46
424.88	1582.20
425.07	1610.29
425.26	1462.83
425.45	1483.90
425.64	1437.09
425.83	1392.62
426.01	1598.59
426.20	1713.27
426.39	1650.08
426.58	1418.36
426.77	1299.00
426.96	1245.16
427.15	1327.08
427.33	1476.88
427.52	1511.99
427.71	1568.16
427.90	1490.92
428.09	1561.14
428.28	1565.82
428.46	1430.07
428.65	1306.02
428.84	1446.45
429.03	1455.81
429.22	1355.17
429.40	1165.59
429.59	1118.78
429.78	1057.92
429.97	1015.79
430.16	929.19
430.34	1027.50
430.53	919.83
430.72	980.68
430.91	1132.82
431.10	1317.72
431.28	1729.66
431.47	1816.26
431.66	1839.66
431.85	1767.10
432.03	1462.83
432.22	1448.79
432.41	1523.69
432.60	1722.63
432.79	1724.97
432.97	1839.66
433.16	1724.97
433.35	1596.25
433.54	1528.37
433.72	1261.55
433.91	1385.60
434.10	1572.84
434.28	1629.01
434.47	1842.00
434.66	1701.57
434.85	1708.59
435.03	1689.87
435.22	1678.16
435.41	1781.15
435.59	1902.86
435.78	1837.32
435.97	1870.09
436.16	1928.60
436.34	1968.39
436.53	1919.24
436.72	1820.94
436.90	1743.70
437.09	1720.29
437.28	1701.57
437.46	1820.94
437.65	1715.61
437.84	1678.16
438.02	1535.39
438.21	1556.46
438.40	1502.62
438.58	1703.91
438.77	1811.57
438.96	1715.61
439.14	1804.55
439.33	1947.33
439.52	1912.22
439.70	1982.43
439.89	1816.26
440.08	1781.15
440.26	1732.00
440.45	1877.11
440.63	2050.31
440.82	2188.40
441.01	2036.27
441.19	1909.88
441.38	1952.01
441.57	2129.89
441.75	2165.00
441.94	2143.93
442.12	2230.53
442.31	2289.04
442.50	2228.19
442.68	2237.55
442.87	2076.06
443.05	2211.81
443.24	2242.23
443.43	2183.72
443.61	2265.64
443.80	2363.94
443.98	2193.08
444.17	2186.06
444.35	2253.94
444.54	2293.72
444.73	2335.85
444.91	2197.76
445.10	2134.57
445.28	2104.14
445.47	2012.86
445.65	1949.67
445.84	2113.50
446.02	2076.06
446.21	2165.00
446.39	2132.23
446.58	2136.91
446.77	2260.96
446.95	2263.30
447.14	2340.54
447.32	2382.67
447.51	2242.23
447.69	2312.45
447.88	2202.44
448.06	2183.72
448.25	2328.83
448.43	2239.89
448.62	2225.85
448.80	2202.44
448.99	2115.84
449.17	2244.57
449.36	2291.38
449.54	2420.11
449.73	2382.67
449.91	2480.97
450.10	2480.97
450.28	2581.61
450.46	2530.12
450.65	2579.27
450.83	2469.27
451.02	2377.98
451.20	2499.69
451.39	2450.54
451.57	2242.23
451.76	2394.37
451.94	2415.43
452.13	2394.37
452.31	2289.04
452.49	2085.42
452.68	2141.59
452.86	2216.49
453.05	2120.53
453.23	2270.32
453.42	2340.54
453.60	2401.39
453.78	2448.20
453.97	2448.20
454.15	2312.45
454.34	2277.34
454.52	2204.78
454.70	2062.01
454.89	2296.07
455.07	2380.32
455.26	2375.64
455.44	2356.92
455.62	2483.31
455.81	2492.67
455.99	2476.29
456.17	2286.70
456.36	2338.20
456.54	2605.02
456.73	2480.97
456.91	2546.50
457.09	2560.55
457.28	2640.12
457.46	2504.37
457.64	2483.31
457.83	2345.22
458.01	2331.17
458.19	2392.03
458.38	2328.83
458.56	2382.67
458.74	2452.88
458.93	2511.39
459.11	2427.14
459.29	2441.18
459.48	2438.84
459.66	2366.28
459.84	2410.75
460.03	2368.62
460.21	2420.11
460.39	2579.27
460.57	2413.09
460.76	2485.65
460.94	2473.95
461.12	2609.70
461.31	2441.18
461.49	2576.93
461.67	2569.91
461.85	2686.94
462.04	2548.84
462.22	2663.53
462.40	2644.81
462.59	2684.59
462.77	2691.62
462.95	2665.87
463.13	2502.03
463.32	2511.39
463.50	2537.14
463.68	2551.18
463.86	2583.95
464.05	2532.46
464.23	2392.03
464.41	2354.58
464.59	2305.43
464.78	2445.86
464.96	2359.26
465.14	2569.91
465.32	2523.10
465.50	2661.19
465.69	2509.05
465.87	2562.89
466.05	2438.84
466.23	2349.90
466.41	2324.15
466.60	2406.07
466.78	2349.90
466.96	2464.58
467.14	2399.05
467.32	2574.59
467.51	2525.44
467.69	2413.09
467.87	2466.92
468.05	2518.42
468.23	2558.21
468.41	2469.27
468.60	2434.16
468.78	2509.05
468.96	2366.28
469.14	2590.97
469.32	2434.16
469.50	2389.69
469.69	2443.52
469.87	2370.96
470.05	2319.47
470.23	2342.88
470.41	2436.50
470.59	2275.00
470.77	2422.45
470.95	2443.52
471.14	2476.29
471.32	2619.06
471.50	2565.23
471.68	2579.27
471.86	2768.85
472.04	2722.04
472.22	2766.51
472.40	2572.25
472.58	2516.08
472.77	2572.25
472.95	2574.59
473.13	2663.53
473.31	2560.55
473.49	2558.21
473.67	2537.14
473.85	2642.46
474.03	2733.75
474.21	2773.53
474.39	2722.04
474.57	2700.98
474.75	2712.68
474.93	2778.22
475.12	2766.51
475.30	2635.44
475.48	2686.94
475.66	2789.92
475.84	2726.72
476.02	2574.59
476.20	2665.87
476.38	2696.30
476.56	2792.26
476.74	2818.00
476.92	2878.86
477.10	2906.95
477.28	2935.03
477.46	2946.73
477.64	2785.24
477.82	3096.53
478.00	3068.44
478.18	2932.69
478.36	3016.95
478.54	3187.81
478.72	2911.63
478.90	2998.23
479.08	3091.85
479.26	3164.40
479.44	3112.91
479.62	3122.27
479.80	3155.04
479.98	3082.49
480.16	3049.72
480.34	3049.72
480.52	3166.74
480.70	3066.10
480.88	3112.91
481.06	3295.47
481.24	3260.37
481.41	3218.24
481.59	3386.76
481.77	3391.44
481.95	3396.12
482.13	3325.90
482.31	3342.28
482.49	3314.20
482.67	3349.31
482.85	3311.86
483.03	3449.95
483.21	3489.74
483.39	3466.33
483.57	3424.20
483.74	3368.03
483.92	3424.20
484.10	3405.48
484.28	3564.64
484.46	3541.23
484.64	3639.53
484.82	3574.00
485.00	3400.80
485.18	3522.51
485.35	3349.31
485.53	2988.86
485.71	2663.53
485.89	2696.30
486.07	2885.88
486.25	3030.99
486.43	3377.39
486.61	3356.33
486.78	3433.57
486.96	3316.54
487.14	3529.53
487.32	3609.11
487.50	3801.03
487.68	3686.34
487.85	3896.99
488.03	4028.06
488.21	3756.56
488.39	3686.34
488.57	3669.96
488.75	3597.40
488.92	3758.90
489.10	3983.59
489.28	4147.43
489.46	4341.69
489.64	4236.37
489.81	4252.75
489.99	4098.28
490.17	4273.82
490.35	4191.90
490.53	4133.39
490.70	4056.15
490.88	4180.20
491.06	4215.30
491.24	4287.86
491.41	4140.41
491.59	3948.48
491.77	3798.69
491.95	3786.99
492.13	4219.99
492.30	4152.11
492.48	4428.29
492.66	4542.98
492.84	4400.21
493.01	4245.73
493.19	4210.62
493.37	4264.46
493.54	4102.96
493.72	4451.70
493.90	4367.44
494.08	4547.66
494.25	4615.54
494.43	4641.28
494.61	4805.12
494.79	4807.46
494.96	4744.27
495.14	4697.46
495.32	4400.21
495.49	4367.44
495.67	4414.25
495.85	4671.71
496.02	4798.10
496.20	4901.08
496.38	4718.52
496.55	4744.27
496.73	4713.84
496.91	4926.83
497.09	5039.17
497.26	5013.43
497.44	4685.75
497.62	4650.64
497.79	4613.20
497.97	4381.48
498.14	4402.55
498.32	4496.17
498.50	4746.61
498.67	4798.10
498.85	4894.06
499.03	4840.23
499.20	4910.44
499.38	4870.65
499.56	5008.75
499.73	4622.56
499.91	4519.57
500.08	4624.90
500.26	4542.98
500.44	4603.83
500.61	4521.92
500.79	4627.24
500.97	4734.90
501.14	4456.38
501.32	4585.11
501.49	4566.39
501.67	4498.51
501.84	4667.03
502.02	4725.54
502.20	4875.34
502.37	4652.98
502.55	4725.54
502.72	4826.18
502.90	4947.89
503.07	4922.15
503.25	4795.76
503.43	4587.45
503.60	4498.51
503.78	4449.36
503.95	4559.36
504.13	4716.18
504.30	5050.88
504.48	4919.81
504.65	4758.31
504.83	4929.17
505.01	4891.72
505.18	5137.48
505.36	5132.79
505.53	5123.43
505.71	5158.54
505.88	5329.40
506.06	5025.13
506.23	5001.72
506.41	4950.23
506.58	5132.79
506.76	4954.91
506.93	4851.93
507.11	4699.80
507.28	4807.46
507.46	4978.32
507.63	4746.61
507.81	4692.77
507.98	4826.18
508.16	4912.78
508.33	5027.47
508.50	5060.24
508.68	5083.64
508.85	5153.86
509.03	5214.71
509.20	5118.75
509.38	5006.41
509.55	4917.47
509.73	4833.21
509.90	4947.89
510.08	5078.96
510.25	5184.29
510.42	5085.98
510.60	5088.32
510.77	5029.81
510.95	5109.39
511.12	5172.58
511.30	5226.42
511.47	5345.78
511.64	5259.18
511.82	5165.56
511.99	5013.43
512.17	4880.02
512.34	5029.81
512.51	4898.74
512.69	5027.47
512.86	4814.48
513.04	5041.51
513.21	4966.62
513.38	5135.14
513.56	4816.82
513.73	4760.65
513.90	4753.63
514.08	4664.69
514.25	4889.38
514.43	4819.16
514.60	4816.82
514.77	5114.07
514.95	4973.64
515.12	4912.78
515.29	4943.21
515.47	5078.96
515.64	5205.35
515.81	4959.60
515.99	5041.51
516.16	4655.33
516.33	4435.32
516.51	3985.93
516.68	4086.58
516.85	3880.61
517.03	3997.64
517.20	4252.75
517.37	4774.69
517.54	4922.15
517.72	4908.10
517.89	4397.87
518.06	3974.23
518.24	4119.34
518.41	4463.40
518.58	4608.51
518.75	4568.73
518.93	4704.48
519.10	4737.24
519.27	4795.76
519.45	4952.57
519.62	4954.91
519.79	5078.96
519.96	4889.38
520.14	4929.17
520.31	4692.77
520.48	4821.50
520.65	4723.20
520.83	5006.41
521.00	5200.67
521.17	5006.41
521.34	5004.07
521.52	5109.39
521.69	5074.28
521.86	5074.28
522.03	5081.30
522.20	4826.18
522.38	4550.00
522.55	4667.03
522.72	4889.38
522.89	4795.76
523.07	4870.65
523.24	5062.58
523.41	5139.82
523.58	4931.51
523.75	5252.16
523.92	5158.54
524.10	5212.37
524.27	5210.03
524.44	5151.52
524.61	5081.30
524.78	5128.11
524.96	5027.47
525.13	5046.20
525.30	5137.48
525.47	5142.16
525.64	5114.07
525.81	5088.32
525.98	4849.59
526.16	4585.11
526.33	4362.76
526.50	4367.44
526.67	4152.11
526.84	4329.99
527.01	4627.24
527.18	4713.84
527.36	4762.99
527.53	4971.30
527.70	4905.76
527.87	4896.40
528.04	4807.46
528.21	5172.58
528.38	4990.02
528.55	5139.82
528.72	5369.19
528.89	5313.02
529.07	5392.59
529.24	5160.88
529.41	4985.34
529.58	4947.89
529.75	4821.50
529.92	5015.77
530.09	5188.97
530.26	5144.50
530.43	5240.46
530.60	5048.54
530.77	5139.82
530.94	5095.35
531.11	5125.77
531.28	5020.45
531.46	5032.15
531.63	5118.75
531.80	4971.30
531.97	4990.02
532.14	4891.72
532.31	4636.60
532.48	4430.63
532.65	4613.20
532.82	4664.69
532.99	4741.93
533.16	4903.42
533.33	5032.15
533.50	5046.20
533.67	4887.04
533.84	4671.71
534.01	4699.80
534.18	4994.70
534.35	4915.12
534.52	4985.34
534.69	5006.41
534.86	5078.96
535.03	4971.30
535.20	4961.94
535.37	5275.57
535.54	5174.92
535.71	5210.03
535.88	5090.67
536.05	5060.24
536.22	4880.02
536.38	4678.73
536.55	4723.20
536.72	4589.79
536.89	4716.18
537.06	4772.35
537.23	4964.28
537.40	4788.74
537.57	5053.22
537.74	4896.40
537.91	4894.06
538.08	4985.34
538.25	4807.46
538.42	4894.06
538.59	4915.12
538.75	4786.40
538.92	4655.33
539.09	4739.58
539.26	4770.01
539.43	4615.54
539.60	4692.77
539.77	4631.92
539.94	4505.53
540.11	4615.54
540.28	4608.51
540.44	4463.40
540.61	4449.36
540.78	4517.23
540.95	4599.15
541.12	4734.90
541.29	4784.06
541.46	4854.27
541.62	4826.18
541.79	4896.40
541.96	4746.61
542.13	4643.62
542.30	4791.08
542.47	4858.95
542.63	4657.67
542.80	4683.41
542.97	4657.67
543.14	4648.30
543.31	4856.61
543.48	4664.69
543.64	4940.87
543.81	4760.65
543.98	4861.29
544.15	4901.08
544.32	4748.95
544.48	4798.10
544.65	4699.80
544.82	4814.48
544.99	4826.18
545.16	4741.93
545.32	4636.60
545.49	4802.78
545.66	4884.70
545.83	4770.01
546.00	4882.36
546.16	4451.70
546.33	4711.50
546.50	4748.95
546.67	4851.93
546.83	4606.17
547.00	4713.84
547.17	4596.81
547.34	4482.13
547.50	4505.53
547.67	4510.21
547.84	4648.30
548.00	4690.43
548.17	4720.86
548.34	4559.36
548.51	4638.94
548.67	4617.88
548.84	4699.80
549.01	4812.14
549.18	4554.68
549.34	4737.24
549.51	4660.01
549.68	4856.61
549.84	4634.26
550.01	4662.35
550.18	4772.35
550.34	4542.98
550.51	4624.90
550.68	4706.82
550.84	4589.79
551.01	4486.81
551.18	4454.04
551.34	4571.07
551.51	4643.62
551.68	4734.90
551.84	4697.46
552.01	4603.83
552.18	4676.39
552.34	4512.55
552.51	4383.82
552.68	4163.81
552.84	4468.08
553.01	4585.11
553.18	4395.53
553.34	4507.87
553.51	4528.94
553.67	4599.15
553.84	4559.36
554.01	4477.44
554.17	4411.91
554.34	4503.19
554.51	4734.90
554.67	4648.30
554.84	4547.66
555.00	4559.36
555.17	4493.83
555.33	4381.48
555.50	4678.73
555.67	4442.34
555.83	4531.28
556.00	4440.00
556.16	4308.93
556.33	4273.82
556.50	4376.80
556.66	4404.89
556.83	4219.99
556.99	4437.66
557.16	4379.14
557.32	4329.99
557.49	4397.87
557.65	4355.74
557.82	4400.21
557.98	4269.14
558.15	4360.42
558.32	4180.20
558.48	4114.66
558.65	3988.27
558.81	4095.94
558.98	4219.99
559.14	4131.05
559.31	4187.22
559.47	4191.90
559.64	3955.51
559.80	4173.18
559.97	4053.81
560.13	4079.55
560.30	4374.46
560.46	4489.15
560.63	4313.61
560.79	4341.69
560.96	4423.61
561.12	4245.73
561.29	4117.00
561.45	4002.32
561.61	4266.80
561.78	4257.43
561.94	4189.56
562.11	4042.11
562.27	4177.86
562.44	4198.92
562.60	4273.82
562.77	4329.99
562.93	4161.47
563.10	4168.49
563.26	4084.23
563.42	4205.94
563.59	4021.04
563.75	4046.79
563.92	4049.13
564.08	4236.37
564.24	4266.80
564.41	4203.60
564.57	4091.26
564.74	4098.28
564.90	3990.61
565.07	4046.79
565.23	4042.11
565.39	3812.73
565.56	3969.55
565.72	3922.74
565.88	3894.65
566.05	3936.78
566.21	3950.82
566.38	4065.51
566.54	3981.25
566.70	4196.58
566.87	4044.45
567.03	4168.49
567.19	4098.28
567.36	4107.64
567.52	4042.11
567.68	4067.85
567.85	3950.82
568.01	3859.54
568.17	3782.31
568.34	4021.04
568.50	3824.44
568.66	3761.24
568.83	3873.59
568.99	3929.76
569.15	4016.36
569.32	4009.34
569.48	3960.19
569.64	3901.67
569.81	3843.16
569.97	3871.25
570.13	3644.21
570.30	3805.71
570.46	3758.90
570.62	3644.21
570.78	3700.39
570.95	3705.07
571.11	3791.67
571.27	3784.65
571.43	3716.77
571.60	3822.09
571.76	3744.86
571.92	3796.35
572.09	4007.00
572.25	3826.78
572.41	3981.25
572.57	3887.63
572.74	3934.44
572.90	3833.80
573.06	3817.41
573.22	3754.22
573.38	3772.94
573.55	3829.12
573.71	3880.61
573.87	3784.65
574.03	3749.54
574.20	3747.20
574.36	3875.93
574.52	3660.60
574.68	3782.31
574.84	3590.38
575.01	3428.88
575.17	3520.17
575.33	3611.45
575.49	3632.51
575.65	3625.49
575.82	3492.08
575.98	3695.71
576.14	3576.34
576.30	3756.56
576.46	3653.58
576.62	3709.75
576.79	3854.86
576.95	3695.71
577.11	3613.79
577.27	3632.51
577.43	3676.98
577.59	3611.45
577.75	3531.87
577.92	3475.70
578.08	3566.98
578.24	3562.30
578.40	3452.29
578.56	3545.91
578.72	3538.89
578.88	3459.31
579.04	3602.08
579.21	3576.34
579.37	3639.53
579.53	3716.77
579.69	3637.19
579.85	3574.00
580.01	3665.28
580.17	3592.72
580.33	3534.21
580.49	3515.48
580.65	3545.91
580.82	3653.58
580.98	3623.15
581.14	3599.74
581.30	3630.17
581.46	3588.04
581.62	3550.59
581.78	3632.51
581.94	3702.73
582.10	3651.24
582.26	3655.92
582.42	3721.45
582.58	3599.74
582.74	3585.70
582.90	3585.70
583.06	3609.11
583.22	3536.55
583.38	3604.42
583.54	3651.24
583.70	3454.63
583.86	3466.33
584.02	3442.93
584.18	3543.57
584.34	3538.89
584.50	3550.59
584.66	3524.85
584.82	3499.10
584.98	3389.10
585.14	3438.25
585.30	3447.61
585.46	3208.87
585.62	3246.32
585.78	3311.86
585.94	3318.88
586.10	3384.41
586.26	3433.57
586.42	3389.10
586.58	3353.99
586.74	3463.99
586.90	3625.49
587.06	3400.80
587.22	3396.12
587.38	3456.97
587.54	3346.97
587.70	3300.16
587.86	3321.22
588.02	3309.52
588.18	3314.20
588.34	3119.93
588.49	2902.26
588.65	2869.50
588.81	2801.62
588.97	2731.41
589.13	2733.75
589.29	2719.70
589.45	2708.00
589.61	2895.24
589.77	3040.36
589.93	3061.42
590.08	3176.11
590.24	3335.26
590.40	3251.00
590.56	3150.36
590.72	3208.87
590.88	3260.37
591.04	3122.27
591.20	3115.25
591.35	3096.53
591.51	3035.67
591.67	2977.16
591.83	2998.23
591.99	3028.65
592.15	3171.43
592.31	3141.00
592.46	3176.11
592.62	3119.93
592.78	3208.87
592.94	3049.72
593.10	3171.43
593.26	3164.40
593.41	3145.68
593.57	3098.87
593.73	3063.76
593.89	3101.21
594.05	2977.16
594.20	2984.18
594.36	2977.16
594.52	2993.55
594.68	3103.55
594.84	2942.05
594.99	3155.04
595.15	3112.91
595.31	3084.83
595.47	3084.83
595.62	2998.23
595.78	3204.19
595.94	3187.81
596.10	3295.47
596.25	3115.25
596.41	2928.01
596.57	2998.23
596.73	3033.33
596.88	3049.72
597.04	3019.29
597.20	2935.03
597.36	3035.67
597.51	2981.84
597.67	2970.14
597.83	2939.71
597.99	3016.95
598.14	2991.20
598.30	2932.69
598.46	2939.71
