SpectraSuite Data File
++++++++++++++++++++++++++++++++++++
Date: Mon Oct 07 14:53:18 GMT-05:00 2013
User: price-jones
Dark Spectrum Present: No
Reference Spectrum Present: No
Number of Sampled Component Spectra: 1
Spectrometers: USB2+H05261
Integration Time (usec): 100000 (USB2+H05261)
Spectra Averaged: 1 (USB2+H05261)
Boxcar Smoothing: 0 (USB2+H05261)
Correct for Electrical Dark: No (USB2+H05261)
Strobe/Lamp Enabled: No (USB2+H05261)
Correct for Detector Non-linearity: No (USB2+H05261)
Correct for Stray Light: No (USB2+H05261)
Number of Pixels in Processed Spectrum: 2048
>>>>>Begin Processed Spectral Data<<<<<
365.73	0.00
365.92	0.00
366.12	0.00
366.32	0.00
366.52	0.00
366.72	0.00
366.91	0.00
367.11	0.00
367.31	0.00
367.51	0.00
367.70	0.00
367.90	0.00
368.10	0.00
368.30	0.00
368.49	0.00
368.69	0.00
368.89	0.00
369.09	0.00
369.28	0.00
369.48	0.00
369.68	0.00
369.87	0.00
370.07	0.00
370.27	0.00
370.47	620.24
370.66	3272.07
370.86	3864.22
371.06	4032.74
371.25	4114.66
371.45	3726.13
371.65	3335.26
371.84	3103.55
372.04	3208.87
372.24	3768.26
372.44	3726.13
372.63	3761.24
372.83	3473.36
373.03	3225.26
373.22	2944.39
373.42	3012.27
373.62	3541.23
373.81	3819.75
374.01	3789.33
374.21	3482.72
374.40	3082.49
374.60	3239.30
374.79	3665.28
374.99	4400.21
375.19	4713.84
375.38	4636.60
375.58	4367.44
375.78	4395.53
375.97	4362.76
376.17	4505.53
376.37	4596.81
376.56	4695.11
376.76	4905.76
376.95	5203.01
377.15	5493.24
377.35	5778.78
377.54	5998.79
377.74	6195.40
377.93	6143.91
378.13	6106.46
378.33	5795.17
378.52	5408.98
378.72	5184.29
378.91	4971.30
379.11	4844.91
379.31	4671.71
379.50	4585.11
379.70	5041.51
379.89	5474.51
380.09	5853.68
380.28	6303.06
380.48	6317.11
380.68	5891.13
380.87	5734.31
381.07	5291.95
381.26	5001.72
381.46	4552.34
381.65	4505.53
381.85	4498.51
382.04	4250.41
382.24	3990.61
382.43	3726.13
382.63	3641.87
382.83	3691.02
383.02	3655.92
383.22	3702.73
383.41	3723.79
383.61	3955.51
383.80	4573.41
384.00	5095.35
384.19	5774.10
384.39	6036.24
384.58	5987.09
384.78	5809.21
384.97	5870.06
385.17	5420.68
385.36	5085.98
385.56	5022.79
385.75	5207.69
385.95	5706.23
386.14	6361.58
386.34	6120.50
386.53	5963.68
386.72	5551.75
386.92	5764.74
387.11	5886.45
387.31	6150.93
387.50	6125.18
387.70	5841.98
387.89	5874.74
388.09	5809.21
388.28	5930.92
388.48	6022.20
388.67	6494.99
388.86	7159.70
389.06	7585.68
389.25	7985.91
389.45	8142.72
389.64	8072.51
389.84	7922.71
390.03	7749.51
390.22	7786.96
390.42	8173.15
390.61	8542.96
390.81	9312.99
391.00	9357.46
391.19	9458.10
391.39	9060.21
391.58	8500.83
391.78	8016.33
391.97	7604.40
392.16	7253.32
392.36	6630.74
392.55	5327.06
392.75	4224.67
392.94	3461.65
393.13	3445.27
393.33	4011.68
393.52	5188.97
393.71	6487.96
393.91	7314.17
394.10	7522.48
394.29	8503.17
394.49	9055.53
394.68	9893.44
394.88	9731.95
395.07	10122.82
395.26	10113.45
395.46	9724.93
395.65	9006.38
395.84	7920.37
396.04	6787.55
396.23	5626.65
396.42	4751.29
396.62	4526.60
396.81	5233.44
397.00	6583.93
397.19	8425.93
397.39	9884.08
397.58	11197.12
397.77	11920.35
397.97	12278.45
398.16	12795.71
398.35	12910.40
398.55	13240.41
398.74	13797.46
398.93	14050.24
399.12	13825.54
399.32	13195.94
399.51	13635.96
399.70	14740.69
399.90	14511.32
400.09	14501.96
400.28	14494.94
400.47	14504.30
400.67	15300.08
400.86	15623.08
401.05	15480.30
401.24	15468.60
401.44	15758.83
401.63	15960.11
401.82	15974.16
402.01	16147.36
402.21	16255.02
402.40	16301.83
402.59	15747.12
402.78	15091.77
402.97	14691.54
403.17	15344.55
403.36	16163.74
403.55	16685.68
403.74	16931.44
403.93	16266.72
404.13	14904.53
404.32	14712.61
404.51	14995.81
404.70	16589.72
404.89	16521.84
405.09	16369.71
405.28	15920.32
405.47	15719.04
405.66	15850.11
405.85	15435.83
406.05	14918.57
406.24	15171.35
406.43	15878.19
406.62	16285.45
406.81	16568.65
407.00	15707.34
407.20	15492.01
407.39	15517.75
407.58	16652.91
407.77	17114.00
407.96	17202.94
408.15	17846.58
408.34	18024.47
408.54	18642.37
408.73	18927.91
408.92	18635.35
409.11	18078.30
409.30	17240.39
409.49	16226.93
409.68	14604.94
409.87	14721.97
410.07	15587.97
410.26	16690.36
410.45	17729.56
410.64	18382.57
410.83	18785.14
411.02	19297.72
411.21	20065.41
411.40	19882.85
411.59	19871.15
411.78	19625.39
411.98	19433.47
412.17	19955.41
412.36	19384.32
412.55	19440.49
412.74	18998.13
412.93	18663.43
413.12	18939.62
413.31	20732.47
413.50	20819.07
413.69	21666.34
413.88	20617.78
414.07	19999.88
414.26	19999.88
414.45	20807.36
414.64	20868.22
414.83	20933.75
415.02	20790.98
415.22	20486.71
415.41	21263.77
415.60	21539.95
415.79	22499.57
415.98	23138.54
416.17	23014.49
416.36	22803.84
416.55	22207.00
416.74	21193.55
416.93	20772.25
417.12	20790.98
417.31	21177.17
417.50	21465.05
417.69	21717.83
417.88	22167.21
418.07	22251.47
418.26	21612.51
418.45	21369.09
418.64	22506.59
418.83	23246.20
419.02	22974.70
419.21	22668.09
419.39	21876.99
419.58	20783.96
419.77	20589.69
419.96	21727.19
420.15	22862.35
420.34	23585.58
420.53	24355.61
420.72	25001.60
420.91	24641.16
421.10	24587.33
421.29	24137.94
421.48	23934.32
421.67	24372.00
421.86	23784.52
422.05	22281.90
422.24	19576.24
422.43	19894.55
422.61	21811.45
422.80	23351.52
422.99	23616.01
423.18	23026.19
423.37	22375.52
423.56	22665.75
423.75	22546.38
423.94	23070.66
424.13	21741.24
424.32	22017.42
424.50	22125.08
424.69	21968.27
424.88	22377.86
425.07	21949.54
425.26	21837.20
425.45	21671.02
425.64	21371.43
425.83	21504.84
426.01	22740.64
426.20	23164.28
426.39	22995.76
426.58	21359.73
426.77	19463.90
426.96	19344.53
427.15	19812.63
427.33	21621.87
427.52	22052.53
427.71	22391.91
427.90	21991.67
428.09	21762.30
428.28	21383.13
428.46	20851.83
428.65	20524.16
428.84	20877.58
429.03	21385.47
429.22	20184.78
429.40	18972.38
429.59	17495.50
429.78	15335.19
429.97	15344.55
430.16	15559.88
430.34	16063.10
430.53	15332.85
430.72	16238.64
430.91	17584.44
431.10	20720.76
431.28	24556.90
431.47	26326.35
431.66	26480.82
431.85	24236.25
432.03	22218.71
432.22	21247.38
432.41	22305.31
432.60	24905.64
432.79	25759.94
432.97	26209.32
433.16	25806.75
433.35	23599.62
433.54	21249.72
433.72	19880.51
433.91	20643.52
434.10	22787.46
434.28	24414.13
434.47	26040.80
434.66	25729.51
434.85	24489.03
435.03	24699.67
435.22	25230.98
435.41	26876.37
435.59	27115.11
435.78	27435.76
435.97	28292.40
436.16	28123.88
436.34	27480.23
436.53	26843.60
436.72	26974.67
436.90	25844.20
437.09	25949.52
437.28	25245.02
437.46	26298.26
437.65	26099.31
437.84	24264.33
438.02	21874.65
438.21	22071.25
438.40	23417.06
438.58	25809.09
438.77	25743.55
438.96	26572.10
439.14	27459.16
439.33	27938.97
439.52	28760.50
439.70	28151.96
439.89	27515.34
440.08	26373.16
440.26	26527.63
440.45	27250.86
440.63	29474.37
440.82	30855.28
441.01	30513.56
441.19	29993.97
441.38	30422.28
441.57	31679.15
441.75	31496.59
441.94	32128.53
442.12	31833.63
442.31	32685.58
442.50	32531.11
442.68	32257.26
442.87	31674.47
443.05	30988.69
443.24	31693.19
443.43	32294.71
443.61	33184.12
443.80	33240.29
443.98	31384.24
444.17	31255.51
444.35	33088.15
444.54	34178.84
444.73	33226.24
444.91	32451.53
445.10	30946.56
445.28	29511.81
445.47	28994.56
445.65	29600.76
445.84	30263.13
446.02	31304.67
446.21	31496.59
446.39	31480.21
446.58	32273.65
446.77	32474.93
446.95	32807.29
447.14	33738.82
447.32	34773.34
447.51	33626.48
447.69	32554.51
447.88	31981.08
448.06	32453.87
448.25	33022.62
448.43	33420.51
448.62	33001.55
448.80	32322.80
448.99	32725.37
449.17	33146.67
449.36	32900.91
449.54	34621.20
449.73	35054.20
449.91	35747.00
450.10	36620.02
450.28	36872.80
450.46	36783.86
450.65	36533.42
450.83	35983.40
451.02	35475.50
451.20	35285.92
451.39	35424.01
451.57	34934.84
451.76	35072.93
451.94	34646.95
452.13	34178.84
452.31	32601.32
452.49	31456.80
452.68	32119.17
452.86	31735.32
453.05	32360.25
453.23	32849.42
453.42	33507.11
453.60	34883.34
453.78	34871.64
453.97	34864.62
454.15	34637.59
454.34	33996.28
454.52	34260.76
454.70	33656.90
454.89	33921.38
455.07	33888.62
455.26	34375.45
455.44	35409.96
455.62	36538.10
455.81	37104.51
455.99	36215.11
456.17	35538.69
456.36	35974.03
456.54	36884.50
456.73	37024.93
456.91	37310.48
457.09	38043.07
457.28	38192.86
457.46	37146.64
457.64	36411.71
457.83	35821.90
458.01	34895.05
458.19	35573.80
458.38	35922.54
458.56	37258.99
458.74	37076.43
458.93	36517.04
459.11	36189.36
459.29	35992.76
459.48	35929.56
459.66	36236.17
459.84	36252.56
460.03	37261.33
460.21	36861.10
460.39	38022.00
460.57	37593.68
460.76	37926.04
460.94	38115.62
461.12	37565.60
461.31	37734.12
461.49	37783.27
461.67	37390.06
461.85	38998.01
462.04	38560.33
462.22	39349.09
462.40	38660.97
462.59	38742.89
462.77	38927.79
462.95	38705.44
463.13	38195.20
463.32	38328.61
463.50	37769.22
463.68	37778.59
463.86	38160.09
464.05	37394.74
464.23	36774.50
464.41	36177.66
464.59	35737.64
464.78	37771.57
464.96	37287.07
465.14	37134.94
465.32	37900.29
465.50	38873.96
465.69	39302.28
465.87	38410.53
466.05	37411.12
466.23	35992.76
466.41	34974.63
466.60	36165.96
466.78	35889.77
466.96	36765.14
467.14	37188.77
467.32	37792.63
467.51	37780.93
467.69	36163.62
467.87	37060.04
468.05	38087.54
468.23	37638.15
468.41	37605.39
468.60	38047.75
468.78	38218.61
468.96	37605.39
469.14	38586.07
469.32	38583.73
469.50	37134.94
469.69	37301.12
469.87	36896.20
470.05	36196.38
470.23	36418.74
470.41	36488.95
470.59	37127.92
470.77	37666.24
470.95	38136.69
471.14	38576.71
471.32	39054.18
471.50	40711.28
471.68	40156.57
471.86	41139.60
472.04	41261.30
472.22	41301.09
472.40	39349.09
472.58	39143.12
472.77	38796.72
472.95	39377.17
473.13	40680.85
473.31	39480.16
473.49	39086.95
473.67	40367.22
473.85	40968.74
474.03	41375.99
474.21	41474.29
474.39	42171.77
474.57	42241.99
474.75	42536.90
474.93	42160.07
475.12	40832.99
475.30	40603.61
475.48	41525.78
475.66	42094.53
475.84	41647.49
476.02	41013.21
476.20	40343.81
476.38	41425.14
476.56	42665.63
476.74	43072.88
476.92	43400.55
477.10	44048.88
477.28	44800.19
477.46	44987.44
477.64	45301.07
477.82	45214.47
478.00	45837.05
478.18	45282.34
478.36	45380.65
478.54	44811.90
478.72	45055.31
478.90	46167.07
479.08	47515.22
479.26	47873.32
479.44	47657.99
479.62	47224.99
479.80	47320.95
479.98	47875.66
480.16	47693.10
480.34	47442.66
480.52	47674.37
480.70	47990.34
480.88	48126.10
481.06	48790.81
481.24	48935.92
481.41	49963.42
481.59	50422.16
481.77	50176.40
481.95	49591.27
482.13	49717.66
482.31	49607.65
482.49	49872.14
482.67	49947.03
482.85	50078.10
483.03	50445.57
483.21	51000.27
483.39	50997.93
483.57	50326.20
483.74	50356.63
483.92	50581.32
484.10	50672.60
484.28	51498.81
484.46	51831.16
484.64	51966.91
484.82	51437.95
485.00	50843.46
485.18	50471.31
485.35	49118.48
485.53	46092.17
485.71	42295.82
485.89	42199.86
486.07	44044.20
486.25	47536.28
486.43	49420.41
486.61	49813.62
486.78	50096.83
486.96	50340.24
487.14	51695.41
487.32	52453.75
487.50	53183.99
487.68	53851.05
487.85	54466.61
488.03	54262.98
488.21	54138.93
488.39	53546.78
488.57	52725.25
488.75	52488.85
488.92	53296.34
489.10	55475.38
489.28	56427.98
489.46	57308.02
489.64	56970.98
489.81	57144.18
489.99	56818.84
490.17	56877.36
490.35	57183.97
490.53	56741.61
490.70	56247.75
490.88	56458.40
491.06	57003.75
491.24	57237.80
491.41	56404.57
491.59	54574.27
491.77	54134.25
491.95	55192.17
492.13	56142.43
492.30	57223.76
492.48	58169.33
492.66	58459.56
492.84	58461.90
493.01	57841.66
493.19	57612.29
493.37	57387.60
493.54	57123.11
493.72	57757.40
493.90	58707.66
494.08	59363.01
494.25	59552.59
494.43	59636.85
494.61	59985.59
494.79	60231.35
494.96	60081.55
495.14	59274.07
495.32	58698.30
495.49	58101.46
495.67	58983.84
495.85	60264.11
496.02	60608.17
496.20	60278.16
496.38	60020.70
496.55	59980.91
496.73	60116.66
496.91	60465.40
497.09	60992.02
497.26	61045.85
497.44	60601.15
497.62	60184.54
497.79	59636.85
497.97	58220.83
498.14	58660.85
498.32	59519.82
498.50	60261.77
498.67	60893.72
498.85	60846.91
499.03	60830.52
499.20	61050.53
499.38	61235.44
499.56	60886.70
499.73	60313.26
499.91	60184.54
500.08	59648.55
500.26	59290.45
500.44	59463.65
500.61	60189.22
500.79	60018.36
500.97	59641.53
501.14	59597.06
501.32	59451.95
501.49	59449.61
501.67	59709.41
501.84	60247.73
502.02	60362.42
502.20	60591.79
502.37	60734.56
502.55	60762.65
502.72	61205.01
502.90	61717.59
503.07	61382.89
503.25	61043.51
503.43	60331.99
503.60	59693.02
503.78	59070.44
503.95	59508.12
504.13	60860.95
504.30	61623.96
504.48	61394.59
504.65	61188.63
504.83	61010.74
505.01	61638.01
505.18	61907.17
505.36	62415.07
505.53	62525.07
505.71	62709.97
505.88	62782.53
506.06	62225.48
506.23	61813.55
506.41	61584.18
506.58	61701.20
506.76	61853.34
506.93	61822.91
507.11	61478.85
507.28	61546.73
507.46	61062.24
507.63	60638.60
507.81	60360.08
507.98	60764.99
508.16	61532.68
508.33	61883.76
508.50	62197.40
508.68	62541.45
508.85	62969.77
509.03	63035.31
509.20	62754.44
509.38	61865.04
509.55	61305.65
509.73	61485.87
509.90	62005.47
510.08	62202.08
510.25	62169.31
510.42	61841.63
510.60	61834.61
510.77	62237.19
510.95	62618.69
511.12	62876.15
511.30	63014.24
511.47	63318.51
511.64	63201.49
511.82	62948.71
511.99	62127.18
512.17	61797.16
512.34	61621.62
512.51	61633.33
512.69	61726.95
512.86	61785.46
513.04	62260.59
513.21	62288.68
513.38	61984.41
513.56	61439.06
513.73	61041.17
513.90	61219.05
514.08	61134.79
514.25	61544.39
514.43	61771.42
514.60	61907.17
514.77	62099.09
514.95	62089.73
515.12	61804.19
515.29	62162.29
515.47	62550.82
515.64	62756.78
515.81	62361.23
515.99	61841.63
516.16	60638.60
516.33	58506.37
516.51	57326.74
516.68	56748.63
516.85	56278.18
517.03	56704.16
517.20	59107.89
517.37	61165.22
517.54	62141.22
517.72	61626.31
517.89	59360.67
518.06	57492.92
518.24	57932.94
518.41	59779.62
518.58	60631.58
518.75	61006.06
518.93	61322.04
519.10	61183.94
519.27	61595.88
519.45	61635.67
519.62	62284.00
519.79	62742.74
519.96	62316.76
520.14	62225.48
520.31	61221.39
520.48	61193.31
520.65	61792.48
520.83	62389.32
521.00	62740.40
521.17	62513.37
521.34	62258.25
521.52	62365.91
521.69	62873.81
521.86	63327.87
522.03	62925.30
522.20	61766.74
522.38	60938.19
522.55	61160.54
522.72	61694.18
522.89	61806.53
523.07	62021.86
523.24	62354.21
523.41	63009.56
523.58	63241.28
523.75	63601.72
523.92	63402.77
524.10	63510.44
524.27	63344.26
524.44	63330.22
524.61	62979.14
524.78	62777.85
524.96	62890.19
525.13	62679.55
525.30	63056.37
525.47	63494.05
525.64	63267.02
525.81	62857.43
525.98	61270.54
526.16	60154.11
526.33	59833.46
526.50	59367.69
526.67	58955.75
526.84	59330.24
527.01	60514.55
527.18	61141.81
527.36	61984.41
527.53	62878.49
527.70	63140.63
527.87	62398.68
528.04	62099.09
528.21	62464.22
528.38	63135.95
528.55	63648.53
528.72	63915.35
528.89	64011.31
529.07	63870.88
529.24	63208.51
529.41	62567.20
529.58	61972.70
529.75	62183.35
529.92	62536.77
530.09	63070.42
530.26	63676.61
530.43	64001.95
530.60	63810.03
530.77	64032.38
530.94	64109.61
531.11	63667.25
531.28	63075.10
531.46	63105.52
531.63	63252.98
531.80	63203.83
531.97	62609.33
532.14	61874.40
532.31	61095.00
532.48	60556.68
532.65	60601.15
532.82	61443.74
532.99	62342.51
533.16	62681.89
533.33	63351.28
533.50	63107.86
533.67	62492.30
533.84	61965.68
534.01	62291.02
534.18	62377.62
534.35	62466.56
534.52	62527.41
534.69	62883.17
534.86	62922.96
535.03	63449.58
535.20	63599.38
535.37	64018.33
535.54	63978.54
535.71	63599.38
535.88	63395.75
536.05	62885.51
536.22	62361.23
536.38	62195.06
536.55	61778.44
536.72	61469.49
536.89	61268.20
537.06	62166.97
537.23	62859.77
537.40	63025.95
537.57	62927.64
537.74	62688.91
537.91	62787.21
538.08	62632.74
538.25	62726.36
538.42	62946.37
538.59	62628.05
538.75	62188.03
538.92	62024.20
539.09	61879.08
539.26	61602.90
539.43	61481.19
539.60	61581.84
539.77	61570.13
539.94	61668.44
540.11	60935.85
540.28	60521.57
540.44	60690.09
540.61	60732.22
540.78	61085.64
540.95	61462.47
541.12	61705.88
541.29	62122.50
541.46	62382.30
541.62	62445.49
541.79	62115.48
541.96	61605.24
542.13	61513.96
542.30	61965.68
542.47	62164.63
542.63	61825.25
542.80	61666.09
542.97	61628.65
543.14	61656.73
543.31	61820.57
543.48	62190.37
543.64	62890.19
543.81	63070.42
543.98	62731.04
544.15	62148.24
544.32	61584.18
544.48	61750.35
544.65	62197.40
544.82	62588.27
544.99	62173.99
545.16	61836.95
545.32	61843.98
545.49	62539.11
545.66	62742.74
545.83	62468.90
546.00	62169.31
546.16	61860.36
546.33	61787.80
546.50	62000.79
546.67	62447.83
546.83	62099.09
547.00	62047.60
547.17	61296.29
547.34	60863.29
547.50	60886.70
547.67	61277.57
547.84	61237.78
548.00	61560.77
548.17	62068.67
548.34	61801.85
548.51	61904.83
548.67	62092.07
548.84	61862.70
549.01	61970.36
549.18	62054.62
549.34	61790.14
549.51	61928.23
549.68	61719.93
549.84	61612.26
550.01	61591.20
550.18	61338.42
550.34	61251.82
550.51	61462.47
550.68	61591.20
550.84	61230.75
551.01	61275.22
551.18	61282.25
551.34	61399.27
551.51	61654.39
551.68	61766.74
551.84	62061.64
552.01	61813.55
552.18	61710.56
552.34	61076.28
552.51	60781.37
552.68	60523.91
552.84	61132.45
553.01	61116.07
553.18	61300.97
553.34	61244.80
553.51	61520.98
553.67	61848.66
553.84	61794.82
554.01	61724.61
554.17	61605.24
554.34	61621.62
554.51	61762.06
554.67	62066.33
554.84	61769.08
555.00	61462.47
555.17	61244.80
555.33	61324.38
555.50	61083.30
555.67	61368.85
555.83	61132.45
556.00	60865.63
556.16	60980.32
556.33	60346.03
556.50	60315.61
556.66	60350.71
556.83	60149.43
556.99	60388.16
557.16	60502.85
557.32	60645.62
557.49	60980.32
557.65	60886.70
557.82	60816.48
557.98	60690.09
558.15	60362.42
558.32	59465.99
558.48	58719.36
558.65	58876.18
558.81	59566.63
558.98	59667.28
559.14	59978.57
559.31	59877.93
559.47	59807.71
559.64	59601.74
559.80	59166.40
559.97	59381.73
560.13	59625.15
560.30	60608.17
560.46	61031.81
560.63	61183.94
560.79	61132.45
560.96	60837.54
561.12	59793.67
561.29	58965.12
561.45	59035.33
561.61	59716.43
561.78	60090.91
561.94	59798.35
562.11	59714.09
562.27	59648.55
562.44	59917.71
562.60	60299.22
562.77	60453.70
562.93	60406.89
563.10	60339.01
563.26	59737.49
563.42	59870.90
563.59	59613.44
563.75	59634.51
563.92	59599.40
564.08	59561.95
564.24	59751.54
564.41	59730.47
564.57	59625.15
564.74	59501.10
564.90	59613.44
565.07	59330.24
565.23	58965.12
565.39	58473.60
565.56	58562.54
565.72	58251.25
565.88	58410.41
566.05	58431.47
566.21	58838.73
566.38	58908.94
566.54	59021.29
566.70	59337.26
566.87	59749.20
567.03	59676.64
567.19	59751.54
567.36	59615.79
567.52	59405.14
567.68	59110.23
567.85	58546.16
568.01	58314.45
568.17	58085.07
568.34	58134.23
568.50	57979.75
568.66	57946.98
568.83	58576.59
568.99	58494.67
569.15	58576.59
569.32	58686.59
569.48	58457.22
569.64	58190.40
569.81	57993.79
569.97	57883.79
570.13	57811.23
570.30	57242.48
570.46	57167.58
570.62	56537.98
570.78	56339.04
570.95	56790.76
571.11	57476.54
571.27	57429.72
571.43	57841.66
571.60	57918.90
571.76	58152.95
571.92	58387.00
572.09	58436.16
572.25	58461.90
572.41	58527.44
572.57	58349.56
572.74	58520.41
572.90	57986.77
573.06	57825.28
573.22	57979.75
573.38	58216.14
573.55	58038.26
573.71	58197.42
573.87	58007.84
574.03	57804.21
574.20	58141.25
574.36	57757.40
574.52	57729.31
574.68	57071.62
574.84	56907.79
575.01	56626.92
575.17	56427.98
575.33	56996.73
575.49	57097.37
575.65	57073.96
575.82	57027.15
575.98	56757.99
576.14	57113.75
576.30	57270.57
576.46	57387.60
576.62	57319.72
576.79	57223.76
576.95	56788.42
577.11	56823.53
577.27	56779.06
577.43	57003.75
577.59	56633.94
577.75	56395.21
577.92	55894.33
578.08	55688.37
578.24	55449.63
578.40	55882.63
578.56	56320.31
578.72	56280.52
578.88	56282.86
579.04	56435.00
579.21	56598.83
579.37	56772.03
579.53	56884.38
579.69	56514.58
579.85	56779.06
580.01	56704.16
580.17	56362.44
580.33	56128.39
580.49	56357.76
580.65	56647.99
580.82	56814.16
580.98	56720.54
581.14	56622.24
581.30	56516.92
581.46	56493.51
581.62	57001.41
581.78	56795.44
581.94	56863.32
582.10	56757.99
582.26	56711.18
582.42	56907.79
582.58	57071.62
582.74	56722.88
582.90	56816.50
583.06	56879.70
583.22	56662.03
583.38	56633.94
583.54	56549.68
583.70	56395.21
583.86	56612.88
584.02	56282.86
584.18	56530.96
584.34	56348.40
584.50	56252.44
584.66	56308.61
584.82	56058.17
584.98	55868.59
585.14	55379.42
