SpectraSuite Data File
++++++++++++++++++++++++++++++++++++
Date: Mon Oct 07 14:54:54 GMT-05:00 2013
User: price-jones
Dark Spectrum Present: No
Reference Spectrum Present: No
Number of Sampled Component Spectra: 1
Spectrometers: USB2+H05261
Integration Time (usec): 10000 (USB2+H05261)
Spectra Averaged: 1 (USB2+H05261)
Boxcar Smoothing: 0 (USB2+H05261)
Correct for Electrical Dark: No (USB2+H05261)
Strobe/Lamp Enabled: No (USB2+H05261)
Correct for Detector Non-linearity: No (USB2+H05261)
Correct for Stray Light: No (USB2+H05261)
Number of Pixels in Processed Spectrum: 2048
>>>>>Begin Processed Spectral Data<<<<<
365.73	0.00
365.92	0.00
366.12	0.00
366.32	0.00
366.52	0.00
366.72	0.00
366.91	0.00
367.11	0.00
367.31	0.00
367.51	0.00
367.70	0.00
367.90	0.00
368.10	0.00
368.30	0.00
368.49	0.00
368.69	0.00
368.89	0.00
369.09	0.00
369.28	0.00
369.48	0.00
369.68	0.00
369.87	0.00
370.07	0.00
370.27	0.00
370.47	0.00
370.66	0.00
370.86	0.00
371.06	0.00
371.25	0.00
371.45	0.00
371.65	0.00
371.84	37.45
372.04	51.49
372.24	0.00
372.44	0.00
372.63	60.85
372.83	0.00
373.03	16.38
373.22	0.00
373.42	0.00
373.62	0.00
373.81	0.00
374.01	0.00
374.21	53.83
374.40	35.11
374.60	39.79
374.79	88.94
374.99	70.22
375.19	121.71
375.38	88.94
375.58	98.30
375.78	60.85
375.97	72.56
376.17	42.13
376.37	93.62
376.56	56.17
376.76	105.32
376.95	124.05
377.15	187.24
377.35	205.97
377.54	166.18
377.74	110.01
377.93	180.22
378.13	156.82
378.33	189.58
378.52	114.69
378.72	121.71
378.91	105.32
379.11	131.07
379.31	117.03
379.50	63.19
379.70	84.26
379.89	222.35
380.09	234.05
380.28	212.99
380.48	168.52
380.68	187.24
380.87	212.99
381.07	159.16
381.26	124.05
381.46	119.37
381.65	100.64
381.85	49.15
382.04	74.90
382.24	4.68
382.43	0.00
382.63	2.34
382.83	58.51
383.02	14.04
383.22	0.00
383.41	0.00
383.61	107.66
383.80	70.22
384.00	114.69
384.19	100.64
384.39	177.88
384.58	161.50
384.78	147.45
384.97	154.48
385.17	238.73
385.36	135.75
385.56	117.03
385.75	135.75
385.95	140.43
386.14	196.60
386.34	276.18
386.53	126.39
386.72	119.37
386.92	149.79
387.11	147.45
387.31	208.31
387.50	191.92
387.70	182.56
387.89	110.01
388.09	191.92
388.28	173.20
388.48	220.01
388.67	201.29
388.86	290.23
389.06	297.25
389.25	273.84
389.45	306.61
389.64	273.84
389.84	292.57
390.03	320.65
390.22	287.89
390.42	339.38
390.61	383.85
390.81	402.57
391.00	456.40
391.19	395.55
391.39	339.38
391.58	351.08
391.78	362.78
391.97	318.31
392.16	243.42
392.36	205.97
392.55	105.32
392.75	88.94
392.94	0.00
393.13	37.45
393.33	28.09
393.52	86.60
393.71	241.08
393.91	198.95
394.10	301.93
394.29	299.59
394.49	409.59
394.68	477.47
394.88	440.02
395.07	458.74
395.26	486.83
395.46	470.45
395.65	463.43
395.84	285.55
396.04	243.42
396.23	140.43
396.42	88.94
396.62	53.83
396.81	117.03
397.00	210.65
397.19	362.78
397.39	414.27
397.58	550.03
397.77	631.94
397.97	608.54
398.16	634.29
398.35	648.33
398.55	681.10
398.74	711.52
398.93	723.23
399.12	683.44
399.32	638.97
399.51	671.73
399.70	763.01
399.90	793.44
400.09	821.53
400.28	767.70
400.47	734.93
400.67	770.04
400.86	875.36
401.05	842.59
401.24	875.36
401.44	812.17
401.63	901.11
401.82	788.76
402.01	898.77
402.21	863.66
402.40	788.76
402.59	877.70
402.78	847.27
402.97	772.38
403.17	835.57
403.36	858.98
403.55	926.85
403.74	889.40
403.93	891.74
404.13	802.80
404.32	812.17
404.51	816.85
404.70	973.66
404.89	786.42
405.09	861.32
405.28	788.76
405.47	830.89
405.66	833.23
405.85	861.32
406.05	802.80
406.24	833.23
406.43	816.85
406.62	910.47
406.81	910.47
407.00	847.27
407.20	812.17
407.39	739.61
407.58	854.30
407.77	1004.09
407.96	924.51
408.15	994.73
408.34	961.96
408.54	1013.45
408.73	943.24
408.92	999.41
409.11	1032.18
409.30	957.28
409.49	863.66
409.68	791.10
409.87	732.59
410.07	779.40
410.26	849.61
410.45	898.77
410.64	959.62
410.83	1111.75
411.02	1064.94
411.21	1086.01
411.40	1074.31
411.59	1090.69
411.78	1057.92
411.98	1006.43
412.17	1081.33
412.36	1011.11
412.55	1046.22
412.74	1025.15
412.93	1104.73
413.12	1015.79
413.31	1029.84
413.50	1125.80
413.69	1116.44
413.88	1128.14
414.07	1055.58
414.26	1039.20
414.45	1174.95
414.64	1172.61
414.83	1158.57
415.02	1186.65
415.22	1074.31
415.41	1114.10
415.60	1165.59
415.79	1144.52
415.98	1268.57
416.17	1235.80
416.36	1282.61
416.55	1181.97
416.74	1142.18
416.93	1153.88
417.12	1083.67
417.31	1090.69
417.50	1142.18
417.69	1233.46
417.88	1217.08
418.07	1196.01
418.26	1097.71
418.45	1184.31
418.64	1196.01
418.83	1320.06
419.02	1284.95
419.21	1200.69
419.39	1114.10
419.58	1125.80
419.77	1086.01
419.96	1188.99
420.15	1172.61
420.34	1207.72
420.53	1350.49
420.72	1315.38
420.91	1359.85
421.10	1355.17
421.29	1259.21
421.48	1306.02
421.67	1256.87
421.86	1240.48
422.05	1153.88
422.24	1146.86
422.43	1025.15
422.61	1111.75
422.80	1303.68
422.99	1277.93
423.18	1151.54
423.37	1179.63
423.56	1177.29
423.75	1252.19
423.94	1343.47
424.13	1198.35
424.32	1128.14
424.50	1081.33
424.69	1156.22
424.88	1235.80
425.07	1086.01
425.26	1109.41
425.45	1153.88
425.64	1060.26
425.83	1067.28
426.01	1275.59
426.20	1275.59
426.39	1217.08
426.58	1118.78
426.77	983.02
426.96	994.73
427.15	983.02
427.33	1076.65
427.52	1210.06
427.71	1184.31
427.90	1090.69
428.09	1181.97
428.28	1121.12
428.46	1090.69
428.65	1163.25
428.84	1071.97
429.03	1107.07
429.22	1153.88
429.40	1027.50
429.59	875.36
429.78	699.82
429.97	753.65
430.16	713.86
430.34	711.52
430.53	784.08
430.72	716.20
430.91	814.51
431.10	1027.50
431.28	1256.87
431.47	1528.37
431.66	1495.60
431.85	1238.14
432.03	1256.87
432.22	1095.37
432.41	1100.05
432.60	1310.70
432.79	1371.55
432.97	1411.34
433.16	1270.91
433.35	1188.99
433.54	1036.86
433.72	931.53
433.91	1071.97
434.10	1210.06
434.28	1301.34
434.47	1296.66
434.66	1313.04
434.85	1404.32
435.03	1315.38
435.22	1280.27
435.41	1357.51
435.59	1563.48
435.78	1514.33
435.97	1420.71
436.16	1404.32
436.34	1437.09
436.53	1413.68
436.72	1432.41
436.90	1390.28
437.09	1437.09
437.28	1284.95
437.46	1495.60
437.65	1329.42
437.84	1228.78
438.02	1160.91
438.21	1107.07
438.40	1301.34
438.58	1308.36
438.77	1324.74
438.96	1404.32
439.14	1481.56
439.33	1467.52
439.52	1528.37
439.70	1430.07
439.89	1301.34
440.08	1336.45
440.26	1413.68
440.45	1509.65
440.63	1490.92
440.82	1724.97
441.01	1598.59
441.19	1514.33
441.38	1612.63
441.57	1696.89
441.75	1813.92
441.94	1769.44
442.12	1687.53
442.31	1802.21
442.50	1717.95
442.68	1706.25
442.87	1619.65
443.05	1612.63
443.24	1734.34
443.43	1717.95
443.61	1614.97
443.80	1907.54
443.98	1586.88
444.17	1659.44
444.35	1774.13
444.54	1804.55
444.73	1816.26
444.91	1626.67
445.10	1626.67
445.28	1504.96
445.47	1526.03
445.65	1519.01
445.84	1544.75
446.02	1577.52
446.21	1666.46
446.39	1739.02
446.58	1710.93
446.77	1680.50
446.95	1724.97
447.14	1797.53
447.32	1762.42
447.51	1816.26
447.69	1652.42
447.88	1645.40
448.06	1640.72
448.25	1647.74
448.43	1727.32
448.62	1650.08
448.80	1692.21
448.99	1724.97
449.17	1722.63
449.36	1675.82
449.54	1694.55
449.73	1863.07
449.91	1853.70
450.10	1954.35
450.28	1923.92
450.46	1905.20
450.65	1954.35
450.83	1982.43
451.02	1739.02
451.20	1853.70
451.39	1818.60
451.57	1994.14
451.76	1842.00
451.94	1902.86
452.13	1834.98
452.31	1692.21
452.49	1570.50
452.68	1579.86
452.86	1654.76
453.05	1715.61
453.23	1701.57
453.42	1785.83
453.60	1732.00
453.78	1769.44
453.97	1804.55
454.15	1844.34
454.34	1748.38
454.52	1678.16
454.70	1743.70
454.89	1888.81
455.07	1769.44
455.26	1811.57
455.44	1888.81
455.62	1947.33
455.81	1888.81
455.99	1930.94
456.17	1919.24
456.36	1996.48
456.54	1853.70
456.73	1968.39
456.91	1935.62
457.09	1900.52
457.28	2073.71
457.46	1764.76
457.64	1949.67
457.83	1877.11
458.01	1762.42
458.19	1844.34
458.38	1802.21
458.56	1926.26
458.74	1919.24
458.93	1921.58
459.11	1851.36
459.29	1846.68
459.48	1788.17
459.66	1736.68
459.84	1799.87
460.03	1902.86
460.21	1977.75
460.39	1966.05
460.57	1844.34
460.76	2003.50
460.94	1977.75
461.12	1975.41
461.31	1870.09
461.49	1912.22
461.67	1900.52
461.85	1902.86
462.04	1834.98
462.22	2019.88
462.40	2033.93
462.59	1961.37
462.77	2080.74
462.95	2012.86
463.13	2010.52
463.32	1905.20
463.50	1970.73
463.68	1872.43
463.86	1891.15
464.05	1842.00
464.23	1914.56
464.41	1842.00
464.59	1792.85
464.78	1834.98
464.96	1778.81
465.14	1849.02
465.32	1909.88
465.50	1994.14
465.69	2019.88
465.87	1956.69
466.05	1959.03
466.23	1755.40
466.41	1783.49
466.60	1839.66
466.78	1877.11
466.96	1898.17
467.14	1884.13
467.32	1980.09
467.51	1980.09
467.69	1797.53
467.87	1818.60
468.05	1959.03
468.23	1886.47
468.41	1879.45
468.60	1921.58
468.78	1788.17
468.96	1870.09
469.14	2012.86
469.32	1888.81
469.50	1867.75
469.69	1853.70
469.87	1687.53
470.05	1837.32
470.23	1799.87
470.41	1802.21
470.59	1806.89
470.77	1870.09
470.95	1980.09
471.14	1834.98
471.32	1912.22
471.50	2085.42
471.68	2076.06
471.86	2139.25
472.04	2029.24
472.22	2071.37
472.40	2019.88
472.58	1891.15
472.77	1984.77
472.95	1991.80
473.13	2087.76
473.31	1954.35
473.49	1930.94
473.67	1963.71
473.85	2115.84
474.03	2026.90
474.21	2010.52
474.39	2167.34
474.57	2148.61
474.75	2127.55
474.93	2272.66
475.12	2097.12
475.30	2101.80
475.48	1991.80
475.66	2113.50
475.84	2162.66
476.02	2012.86
476.20	2087.76
476.38	2078.40
476.56	2092.44
476.74	2228.19
476.92	2090.10
477.10	2176.70
477.28	2193.08
477.46	2270.32
477.64	2289.04
477.82	2310.11
478.00	2338.20
478.18	2263.30
478.36	2265.64
478.54	2195.42
478.72	2312.45
478.90	2228.19
479.08	2335.85
479.26	2520.76
479.44	2448.20
479.62	2408.41
479.80	2270.32
479.98	2487.99
480.16	2415.43
480.34	2434.16
480.52	2443.52
480.70	2473.95
480.88	2399.05
481.06	2487.99
481.24	2469.27
481.41	2490.33
481.59	2525.44
481.77	2588.63
481.95	2539.48
482.13	2466.92
482.31	2555.86
482.49	2665.87
482.67	2583.95
482.85	2490.33
483.03	2621.40
483.21	2654.17
483.39	2738.43
483.57	2588.63
483.74	2661.19
483.92	2590.97
484.10	2647.15
484.28	2672.89
484.46	2644.81
484.64	2684.59
484.82	2700.98
485.00	2623.74
485.18	2530.12
485.35	2422.45
485.53	2225.85
485.71	2040.95
485.89	2022.22
486.07	2094.78
486.25	2319.47
486.43	2511.39
486.61	2647.15
486.78	2635.44
486.96	2569.91
487.14	2691.62
487.32	2815.66
487.50	2890.56
487.68	2909.29
487.85	3026.31
488.03	2937.37
488.21	2942.05
488.39	2818.00
488.57	2808.64
488.75	2836.73
488.92	2899.92
489.10	3124.62
489.28	3225.26
489.46	3274.41
489.64	3276.75
489.81	3166.74
489.99	3225.26
490.17	3232.28
490.35	3136.32
490.53	3330.58
490.70	3094.19
490.88	3262.71
491.06	3222.92
491.24	3449.95
491.41	3122.27
491.59	2972.48
491.77	2892.90
491.95	2953.76
492.13	3143.34
492.30	3126.96
492.48	3398.46
492.66	3499.10
492.84	3471.01
493.01	3361.01
493.19	3344.63
493.37	3400.80
493.54	3145.68
493.72	3403.14
493.90	3421.86
494.08	3522.51
494.25	3588.04
494.43	3581.02
494.61	3721.45
494.79	3676.98
494.96	3623.15
495.14	3627.83
495.32	3339.94
495.49	3309.52
495.67	3468.67
495.85	3599.74
496.02	3674.64
496.20	3695.71
496.38	3611.45
496.55	3538.89
496.73	3595.06
496.91	3798.69
497.09	3730.81
497.26	3721.45
497.44	3702.73
497.62	3623.15
497.79	3438.25
497.97	3426.54
498.14	3382.07
498.32	3534.21
498.50	3548.25
498.67	3613.79
498.85	3559.95
499.03	3751.88
499.20	3803.37
499.38	3831.46
499.56	3630.17
499.73	3679.32
499.91	3562.30
500.08	3571.66
500.26	3361.01
500.44	3667.62
500.61	3691.02
500.79	3618.47
500.97	3508.46
501.14	3543.57
501.32	3431.23
501.49	3545.91
501.67	3564.64
501.84	3609.11
502.02	3754.22
502.20	3700.39
502.37	3644.21
502.55	3646.55
502.72	3758.90
502.90	3967.21
503.07	3712.09
503.25	3758.90
503.43	3538.89
503.60	3597.40
503.78	3375.05
503.95	3555.27
504.13	3660.60
504.30	3737.84
504.48	3756.56
504.65	3691.02
504.83	3698.05
505.01	3742.52
505.18	3796.35
505.36	3875.93
505.53	3962.53
505.71	4009.34
505.88	3925.08
506.06	3810.39
506.23	3946.14
506.41	3716.77
506.58	3854.86
506.76	3868.91
506.93	3801.03
507.11	3786.99
507.28	3915.72
507.46	3843.16
507.63	3684.00
507.81	3651.24
507.98	3583.36
508.16	3716.77
508.33	4037.42
508.50	3861.88
508.68	3857.20
508.85	4079.55
509.03	3964.87
509.20	3843.16
509.38	3868.91
509.55	3831.46
509.73	3772.94
509.90	3932.10
510.08	3845.50
510.25	3779.97
510.42	3864.22
510.60	3829.12
510.77	3784.65
510.95	3946.14
511.12	3906.35
511.30	4016.36
511.47	3960.19
511.64	4009.34
511.82	3995.29
511.99	3784.65
512.17	3866.56
512.34	3854.86
512.51	3768.26
512.69	3868.91
512.86	3913.38
513.04	3758.90
513.21	3904.01
513.38	3836.14
513.56	3798.69
513.73	3709.75
513.90	3662.94
514.08	3763.58
514.25	3845.50
514.43	3840.82
514.60	3695.71
514.77	3786.99
514.95	3791.67
515.12	3845.50
515.29	3765.92
515.47	3920.40
515.64	3784.65
515.81	3960.19
515.99	3957.85
516.16	3581.02
516.33	3440.59
516.51	3136.32
516.68	3049.72
516.85	2972.48
517.03	3169.09
517.20	3372.71
517.37	3623.15
517.54	3838.48
517.72	3655.92
517.89	3290.79
518.06	3042.70
518.24	3157.38
518.41	3281.43
518.58	3456.97
518.75	3527.19
518.93	3808.05
519.10	3449.95
519.27	3660.60
519.45	3653.58
519.62	3763.58
519.79	3801.03
519.96	3758.90
520.14	3733.15
520.31	3646.55
520.48	3662.94
520.65	3796.35
520.83	3721.45
521.00	3974.23
521.17	3770.60
521.34	3803.37
521.52	3850.18
521.69	3899.33
521.86	4018.70
522.03	3817.41
522.20	3918.06
522.38	3527.19
522.55	3574.00
522.72	3646.55
522.89	3681.66
523.07	3791.67
523.24	3761.24
523.41	3857.20
523.58	3803.37
523.75	4086.58
523.92	3969.55
524.10	3955.51
524.27	3798.69
524.44	3847.84
524.61	3950.82
524.78	3899.33
524.96	4011.68
525.13	3810.39
525.30	4009.34
525.47	3981.25
525.64	4035.08
525.81	4023.38
525.98	3691.02
526.16	3489.74
526.33	3272.07
526.50	3339.94
526.67	3442.93
526.84	3361.01
527.01	3449.95
527.18	3466.33
527.36	3768.26
527.53	3918.06
527.70	3950.82
527.87	3852.52
528.04	3777.62
528.21	3845.50
528.38	4039.76
528.55	4004.66
528.72	4074.87
528.89	4177.86
529.07	3971.89
529.24	4056.15
529.41	3686.34
529.58	3669.96
529.75	3646.55
529.92	3684.00
530.09	3819.75
530.26	3894.65
530.43	4039.76
530.60	3838.48
530.77	4133.39
530.94	4046.79
531.11	4004.66
531.28	3786.99
531.46	3990.61
531.63	3957.85
531.80	3758.90
531.97	3777.62
532.14	3688.68
532.31	3545.91
532.48	3562.30
532.65	3447.61
532.82	3574.00
532.99	3693.37
533.16	3861.88
533.33	3889.97
533.50	3836.14
533.67	3763.58
533.84	3602.08
534.01	3836.14
534.18	3620.81
534.35	3723.79
534.52	3796.35
534.69	3716.77
534.86	3805.71
535.03	3967.21
535.20	3934.44
535.37	3918.06
535.54	3990.61
535.71	3918.06
535.88	4004.66
536.05	3662.94
536.22	3808.05
536.38	3693.37
536.55	3611.45
536.72	3541.23
536.89	3571.66
537.06	3705.07
537.23	3625.49
537.40	3688.68
537.57	3833.80
537.74	3850.18
537.91	3751.88
538.08	3779.97
538.25	3791.67
538.42	3981.25
538.59	3824.44
538.75	3801.03
538.92	3655.92
539.09	3737.84
539.26	3672.30
539.43	3522.51
539.60	3552.93
539.77	3541.23
539.94	3564.64
540.11	3393.78
540.28	3375.05
540.44	3323.56
540.61	3489.74
540.78	3513.14
540.95	3492.08
541.12	3571.66
541.29	3583.36
541.46	3758.90
541.62	3733.15
541.79	3592.72
541.96	3562.30
542.13	3503.78
542.30	3492.08
542.47	3520.17
542.63	3566.98
542.80	3449.95
542.97	3501.44
543.14	3531.87
543.31	3527.19
543.48	3705.07
543.64	3829.12
543.81	3896.99
543.98	3662.94
544.15	3705.07
544.32	3644.21
544.48	3653.58
544.65	3611.45
544.82	3784.65
544.99	3669.96
545.16	3672.30
545.32	3541.23
545.49	3676.98
545.66	3723.79
545.83	3761.24
546.00	3714.43
546.16	3545.91
546.33	3496.76
546.50	3520.17
546.67	3653.58
546.83	3506.12
547.00	3583.36
547.17	3534.21
547.34	3428.88
547.50	3328.24
547.67	3496.76
547.84	3473.36
548.00	3576.34
548.17	3655.92
548.34	3438.25
548.51	3510.80
548.67	3471.01
548.84	3559.95
549.01	3522.51
549.18	3555.27
549.34	3499.10
549.51	3520.17
549.68	3588.04
549.84	3447.61
550.01	3634.85
550.18	3590.38
550.34	3461.65
550.51	3644.21
550.68	3478.04
550.84	3445.27
551.01	3508.46
551.18	3410.16
551.34	3421.86
551.51	3456.97
551.68	3466.33
551.84	3517.83
552.01	3482.72
552.18	3499.10
552.34	3363.35
552.51	3302.50
552.68	3358.67
552.84	3438.25
553.01	3372.71
553.18	3478.04
553.34	3468.67
553.51	3466.33
553.67	3468.67
553.84	3428.88
554.01	3442.93
554.17	3515.48
554.34	3531.87
554.51	3417.18
554.67	3625.49
554.84	3557.61
555.00	3475.70
555.17	3384.41
555.33	3393.78
555.50	3456.97
555.67	3417.18
555.83	3431.23
556.00	3379.73
556.16	3377.39
556.33	3344.63
556.50	3386.76
556.66	3269.73
556.83	3353.99
556.99	3330.58
557.16	3281.43
557.32	3321.22
557.49	3400.80
557.65	3337.60
557.82	3311.86
557.98	3363.35
558.15	3293.13
558.32	3286.11
558.48	3045.04
558.65	3236.96
558.81	3276.75
558.98	3101.21
559.14	3304.84
559.31	3276.75
559.47	3152.70
559.64	3059.08
559.80	3101.21
559.97	3075.46
560.13	3115.25
560.30	3243.98
560.46	3321.22
560.63	3255.69
560.79	3485.06
560.96	3370.37
561.12	3178.45
561.29	2935.03
561.45	3206.53
561.61	3089.51
561.78	3218.24
561.94	3258.03
562.11	3236.96
562.27	3126.96
562.44	3248.66
562.60	3229.94
562.77	3213.56
562.93	3325.90
563.10	3159.72
563.26	3082.49
563.42	3155.04
563.59	3030.99
563.75	3035.67
563.92	3157.38
564.08	3141.00
564.24	3234.62
564.41	3054.40
564.57	3190.15
564.74	3199.51
564.90	3042.70
565.07	3077.80
565.23	2953.76
565.39	2951.42
565.56	2897.58
565.72	2942.05
565.88	3045.04
566.05	3040.36
566.21	3096.53
566.38	3061.42
566.54	3038.02
566.70	3105.89
566.87	3103.55
567.03	3211.22
567.19	3190.15
567.36	3143.34
567.52	3215.90
567.68	3056.74
567.85	3038.02
568.01	2979.50
568.17	2911.63
568.34	2848.43
568.50	2878.86
568.66	3026.31
568.83	3047.38
568.99	2895.24
569.15	3075.46
569.32	3091.85
569.48	3019.29
569.64	2977.16
569.81	2888.22
569.97	2874.18
570.13	2946.73
570.30	2825.03
570.46	2684.59
570.62	2675.23
570.78	2782.90
570.95	2808.64
571.11	2780.56
571.27	2888.22
571.43	2949.08
571.60	2897.58
571.76	2920.99
571.92	2979.50
572.09	2949.08
572.25	2815.66
572.41	2984.18
572.57	3012.27
572.74	2932.69
572.90	3023.97
573.06	2960.78
573.22	2888.22
573.38	2822.69
573.55	2944.39
573.71	2890.56
573.87	2988.86
574.03	2928.01
574.20	2960.78
574.36	2766.51
574.52	2895.24
574.68	2654.17
574.84	2911.63
575.01	2705.66
575.17	2651.83
575.33	2754.81
575.49	2719.70
575.65	2740.77
575.82	2834.39
575.98	2754.81
576.14	2750.13
576.30	2782.90
576.46	2846.09
576.62	2853.11
576.79	2843.75
576.95	2785.24
577.11	2726.72
577.27	2876.52
577.43	2780.56
577.59	2747.79
577.75	2693.96
577.92	2640.12
578.08	2523.10
578.24	2684.59
578.40	2759.49
578.56	2600.34
578.72	2705.66
578.88	2574.59
579.04	2670.55
579.21	2663.53
579.37	2698.64
579.53	2771.19
579.69	2729.06
579.85	2764.17
580.01	2825.03
580.17	2626.08
580.33	2754.81
580.49	2729.06
580.65	2670.55
580.82	2672.89
580.98	2771.19
581.14	2661.19
581.30	2593.31
581.46	2778.22
581.62	2626.08
581.78	2787.58
581.94	2745.45
582.10	2693.96
582.26	2778.22
582.42	2759.49
582.58	2736.09
582.74	2733.75
582.90	2710.34
583.06	2731.41
583.22	2789.92
583.38	2642.46
583.54	2572.25
583.70	2644.81
583.86	2747.79
584.02	2705.66
584.18	2766.51
584.34	2623.74
584.50	2686.94
584.66	2654.17
584.82	2644.81
584.98	2696.30
585.14	2560.55
585.30	2541.82
585.46	2523.10
585.62	2452.88
585.78	2511.39
585.94	2523.10
586.10	2490.33
586.26	2661.19
586.42	2703.32
586.58	2672.89
586.74	2661.19
586.90	2593.31
587.06	2509.05
587.22	2523.10
587.38	2590.97
587.54	2633.10
587.70	2532.46
587.86	2595.65
588.02	2502.03
588.18	2363.94
588.34	2417.77
588.49	2272.66
588.65	2209.47
588.81	2052.65
588.97	2195.42
589.13	2108.82
589.29	2050.31
589.45	2115.84
589.61	2165.00
589.77	2286.70
589.93	2221.17
590.08	2335.85
590.24	2480.97
590.40	2504.37
590.56	2471.61
590.72	2427.14
590.88	2249.25
591.04	2366.28
591.20	2380.32
591.35	2195.42
591.51	2408.41
591.67	2298.41
591.83	2389.69
591.99	2389.69
592.15	2331.17
592.31	2455.22
592.46	2331.17
592.62	2361.60
592.78	2331.17
592.94	2424.80
593.10	2385.01
593.26	2499.69
593.41	2401.39
593.57	2417.77
593.73	2303.09
593.89	2291.38
594.05	2282.02
594.20	2176.70
594.36	2239.89
594.52	2258.62
594.68	2181.38
594.84	2181.38
594.99	2317.13
595.15	2169.68
595.31	2127.55
595.47	2445.86
595.62	2270.32
595.78	2340.54
595.94	2335.85
596.10	2300.75
596.25	2221.17
596.41	2380.32
596.57	2242.23
596.73	2289.04
596.88	2324.15
597.04	2209.47
597.20	2209.47
597.36	2155.63
597.51	2291.38
597.67	2148.61
597.83	2342.88
597.99	2239.89
598.14	2172.02
598.30	2242.23
598.46	2340.54
598.61	2293.72
598.77	2209.47
598.93	2225.85
599.09	2338.20
599.24	2282.02
599.40	2246.91
599.56	2275.00
