SpectraSuite Data File
++++++++++++++++++++++++++++++++++++
Date: Mon Oct 07 14:54:55 GMT-05:00 2013
User: price-jones
Dark Spectrum Present: No
Reference Spectrum Present: No
Number of Sampled Component Spectra: 1
Spectrometers: USB2+H05261
Integration Time (usec): 10000 (USB2+H05261)
Spectra Averaged: 1 (USB2+H05261)
Boxcar Smoothing: 0 (USB2+H05261)
Correct for Electrical Dark: No (USB2+H05261)
Strobe/Lamp Enabled: No (USB2+H05261)
Correct for Detector Non-linearity: No (USB2+H05261)
Correct for Stray Light: No (USB2+H05261)
Number of Pixels in Processed Spectrum: 2048
>>>>>Begin Processed Spectral Data<<<<<
365.73	0.00
365.92	0.00
366.12	0.00
366.32	0.00
366.52	0.00
366.72	0.00
366.91	0.00
367.11	0.00
367.31	0.00
367.51	0.00
367.70	0.00
367.90	0.00
368.10	0.00
368.30	0.00
368.49	0.00
368.69	0.00
368.89	0.00
369.09	0.00
369.28	0.00
369.48	0.00
369.68	0.00
369.87	0.00
370.07	0.00
370.27	0.00
370.47	0.00
370.66	65.54
370.86	189.58
371.06	177.88
371.25	159.16
371.45	198.95
371.65	65.54
371.84	145.11
372.04	110.01
372.24	220.01
372.44	208.31
372.63	203.63
372.83	156.82
373.03	110.01
373.22	107.66
373.42	121.71
373.62	154.48
373.81	245.76
374.01	180.22
374.21	110.01
374.40	128.73
374.60	100.64
374.79	212.99
374.99	262.14
375.19	294.91
375.38	341.72
375.58	304.27
375.78	276.18
375.97	376.83
376.17	308.95
376.37	304.27
376.56	348.74
376.76	304.27
376.95	327.68
377.15	388.53
377.35	411.93
377.54	468.11
377.74	456.40
377.93	449.38
378.13	493.85
378.33	447.04
378.52	332.36
378.72	353.42
378.91	330.02
379.11	306.61
379.31	292.57
379.50	280.86
379.70	383.85
379.89	376.83
380.09	421.30
380.28	353.42
380.48	449.38
380.68	440.02
380.87	454.06
381.07	430.66
381.26	353.42
381.46	290.23
381.65	322.99
381.85	191.92
382.04	334.70
382.24	177.88
382.43	135.75
382.63	236.39
382.83	189.58
383.02	215.33
383.22	175.54
383.41	170.86
383.61	191.92
383.80	252.78
384.00	322.99
384.19	390.87
384.39	433.00
384.58	393.21
384.78	351.08
384.97	444.70
385.17	337.04
385.36	433.00
385.56	402.57
385.75	395.55
385.95	365.12
386.14	475.13
386.34	421.30
386.53	421.30
386.72	311.29
386.92	348.74
387.11	341.72
387.31	433.00
387.50	484.49
387.70	454.06
387.89	440.02
388.09	442.36
388.28	442.36
388.48	440.02
388.67	526.62
388.86	538.32
389.06	638.97
389.25	674.07
389.45	624.92
389.64	697.48
389.84	664.71
390.03	678.76
390.22	683.44
390.42	720.88
390.61	767.70
390.81	835.57
391.00	753.65
391.19	821.53
391.39	709.18
391.58	699.82
391.78	601.52
391.97	573.43
392.16	554.71
392.36	437.68
392.55	330.02
392.75	180.22
392.94	138.09
393.13	177.88
393.33	222.35
393.52	297.25
393.71	428.32
393.91	596.84
394.10	653.01
394.29	702.16
394.49	737.27
394.68	816.85
394.88	835.57
395.07	800.46
395.26	856.64
395.46	868.34
395.65	744.29
395.84	608.54
396.04	559.39
396.23	404.91
396.42	278.52
396.62	255.12
396.81	301.93
397.00	454.06
397.19	589.82
397.39	868.34
397.58	917.49
397.77	1041.54
397.97	1020.47
398.16	1027.50
398.35	1179.63
398.55	1268.57
398.74	1153.88
398.93	1214.74
399.12	1242.82
399.32	1259.21
399.51	1268.57
399.70	1284.95
399.90	1359.85
400.09	1317.72
400.28	1261.55
400.47	1275.59
400.67	1313.04
400.86	1425.39
401.05	1390.28
401.24	1441.77
401.44	1526.03
401.63	1504.96
401.82	1411.34
402.01	1394.96
402.21	1507.30
402.40	1425.39
402.59	1448.79
402.78	1336.45
402.97	1364.53
403.17	1324.74
403.36	1458.15
403.55	1535.39
403.74	1528.37
403.93	1455.81
404.13	1280.27
404.32	1266.23
404.51	1427.73
404.70	1497.94
404.89	1516.67
405.09	1420.71
405.28	1366.87
405.47	1385.60
405.66	1306.02
405.85	1371.55
406.05	1277.93
406.24	1252.19
406.43	1350.49
406.62	1376.24
406.81	1497.94
407.00	1350.49
407.20	1322.40
407.39	1439.43
407.58	1439.43
407.77	1502.62
407.96	1465.18
408.15	1664.12
408.34	1542.41
408.54	1671.14
408.73	1668.80
408.92	1603.27
409.11	1629.01
409.30	1451.13
409.49	1535.39
409.68	1371.55
409.87	1273.25
410.07	1343.47
410.26	1495.60
410.45	1633.69
410.64	1666.46
410.83	1666.46
411.02	1708.59
411.21	1858.39
411.40	1842.00
411.59	1722.63
411.78	1867.75
411.98	1743.70
412.17	1769.44
412.36	1722.63
412.55	1753.06
412.74	1668.80
412.93	1689.87
413.12	1647.74
413.31	1891.15
413.50	1844.34
413.69	1867.75
413.88	1811.57
414.07	1687.53
414.26	1891.15
414.45	1813.92
414.64	1863.07
414.83	1961.37
415.02	1886.47
415.22	1804.55
415.41	1827.96
415.60	1966.05
415.79	2050.31
415.98	2122.87
416.17	1996.48
416.36	1963.71
416.55	2019.88
416.74	1919.24
416.93	1802.21
417.12	1792.85
417.31	1788.17
417.50	1820.94
417.69	1940.30
417.88	1856.04
418.07	1909.88
418.26	1818.60
418.45	1846.68
418.64	2057.33
418.83	2031.58
419.02	2099.46
419.21	2017.54
419.39	1879.45
419.58	1802.21
419.77	1830.30
419.96	1959.03
420.15	2026.90
420.34	1984.77
420.53	2087.76
420.72	2113.50
420.91	2139.25
421.10	2092.44
421.29	2101.80
421.48	2062.01
421.67	2190.74
421.86	2062.01
422.05	1900.52
422.24	1687.53
422.43	1703.91
422.61	1905.20
422.80	2099.46
422.99	2083.08
423.18	1954.35
423.37	1954.35
423.56	1989.46
423.75	1926.26
423.94	1954.35
424.13	1940.30
424.32	1893.49
424.50	1907.54
424.69	1905.20
424.88	1898.17
425.07	1893.49
425.26	1975.41
425.45	1926.26
425.64	1863.07
425.83	1888.81
426.01	1987.11
426.20	2033.93
426.39	1989.46
426.58	1795.19
426.77	1617.31
426.96	1629.01
427.15	1621.99
427.33	1825.62
427.52	1916.90
427.71	1984.77
427.90	1834.98
428.09	1825.62
428.28	1970.73
428.46	1783.49
428.65	1753.06
428.84	1703.91
429.03	1717.95
429.22	1643.06
429.40	1607.95
429.59	1413.68
429.78	1320.06
429.97	1263.89
430.16	1317.72
430.34	1348.15
430.53	1242.82
430.72	1263.89
430.91	1523.69
431.10	1729.66
431.28	2111.16
431.47	2153.29
431.66	2256.28
431.85	2094.78
432.03	1795.19
432.22	1715.61
432.41	1870.09
432.60	2094.78
432.79	2134.57
432.97	2232.87
433.16	2188.40
433.35	2012.86
433.54	1746.04
433.72	1598.59
433.91	1722.63
434.10	1912.22
434.28	2136.91
434.47	2176.70
434.66	2214.15
434.85	2078.40
435.03	2001.16
435.22	2200.10
435.41	2335.85
435.59	2249.25
435.78	2349.90
435.97	2413.09
436.16	2331.17
436.34	2300.75
436.53	2169.68
436.72	2289.04
436.90	2228.19
437.09	2080.74
437.28	2265.64
437.46	2218.83
437.65	2296.07
437.84	2026.90
438.02	1736.68
438.21	1858.39
438.40	1963.71
438.58	2143.93
438.77	2169.68
438.96	2062.01
439.14	2272.66
439.33	2394.37
439.52	2523.10
439.70	2445.86
439.89	2279.68
440.08	2298.41
440.26	2310.11
440.45	2361.60
440.63	2495.01
440.82	2647.15
441.01	2586.29
441.19	2429.48
441.38	2605.02
441.57	2682.25
441.75	2801.62
441.94	2806.30
442.12	2710.34
442.31	2869.50
442.50	2752.47
442.68	2717.36
442.87	2649.49
443.05	2628.42
443.24	2700.98
443.43	2803.96
443.61	2881.20
443.80	2848.43
443.98	2710.34
444.17	2616.72
444.35	2832.05
444.54	2965.46
444.73	2930.35
444.91	2761.83
445.10	2605.02
445.28	2497.35
445.47	2382.67
445.65	2443.52
445.84	2497.35
446.02	2609.70
446.21	2712.68
446.39	2644.81
446.58	2523.10
446.77	2867.16
446.95	2855.45
447.14	2862.48
447.32	2937.37
447.51	2916.31
447.69	2668.21
447.88	2909.29
448.06	2785.24
448.25	2895.24
448.43	2806.30
448.62	2656.51
448.80	2792.26
448.99	2829.71
449.17	2895.24
449.36	2773.53
449.54	2923.33
449.73	3033.33
449.91	2876.52
450.10	3059.08
450.28	3126.96
450.46	3042.70
450.65	3143.34
450.83	3035.67
451.02	3155.04
451.20	2937.37
451.39	2920.99
451.57	2904.60
451.76	2888.22
451.94	3033.33
452.13	2860.13
452.31	2731.41
452.49	2480.97
452.68	2717.36
452.86	2672.89
453.05	2731.41
453.23	2796.94
453.42	2803.96
453.60	2963.12
453.78	2998.23
453.97	2937.37
454.15	2846.09
454.34	2715.02
454.52	2825.03
454.70	2778.22
454.89	2785.24
455.07	3007.59
455.26	2834.39
455.44	2981.84
455.62	2918.65
455.81	3180.79
455.99	2918.65
456.17	2977.16
456.36	3014.61
456.54	3150.36
456.73	3019.29
456.91	3038.02
457.09	3150.36
457.28	3272.07
457.46	3115.25
457.64	3143.34
457.83	3021.63
458.01	2825.03
458.19	2993.55
458.38	3033.33
458.56	3166.74
458.74	3063.76
458.93	3030.99
459.11	2925.67
459.29	2792.26
459.48	3075.46
459.66	3005.25
459.84	2923.33
460.03	2932.69
460.21	2944.39
460.39	3126.96
460.57	3038.02
460.76	3164.40
460.94	3066.10
461.12	3150.36
461.31	3136.32
461.49	3152.70
461.67	3208.87
461.85	3243.98
462.04	3187.81
462.22	3215.90
462.40	3192.49
462.59	3232.28
462.77	3185.47
462.95	3215.90
463.13	3103.55
463.32	3126.96
463.50	3084.83
463.68	3141.00
463.86	3091.85
464.05	3035.67
464.23	3042.70
464.41	2993.55
464.59	2925.67
464.78	3047.38
464.96	3068.44
465.14	3122.27
465.32	3103.55
465.50	3077.80
465.69	3293.13
465.87	3155.04
466.05	3009.93
466.23	2953.76
466.41	2801.62
466.60	2939.71
466.78	2925.67
466.96	2977.16
467.14	3066.10
467.32	3112.91
467.51	3171.43
467.69	2953.76
467.87	2860.13
468.05	3101.21
468.23	3089.51
468.41	3110.57
468.60	2988.86
468.78	3054.40
468.96	3117.59
469.14	3000.57
469.32	3105.89
469.50	2899.92
469.69	2888.22
469.87	2974.82
470.05	2925.67
470.23	2944.39
470.41	2878.86
470.59	2871.84
470.77	2946.73
470.95	2993.55
471.14	3183.13
471.32	3059.08
471.50	3330.58
471.68	3353.99
471.86	3372.71
472.04	3485.06
472.22	3346.97
472.40	3061.42
472.58	3166.74
472.77	3145.68
472.95	3243.98
473.13	3304.84
473.31	3155.04
473.49	3075.46
473.67	3218.24
473.85	3222.92
474.03	3342.28
474.21	3300.16
474.39	3482.72
474.57	3239.30
474.75	3391.44
474.93	3353.99
475.12	3337.60
475.30	3346.97
475.48	3279.09
475.66	3421.86
475.84	3241.64
476.02	3286.11
476.20	3353.99
476.38	3323.56
476.56	3396.12
476.74	3513.14
476.92	3599.74
477.10	3492.08
477.28	3707.41
477.46	3522.51
477.64	3648.90
477.82	3693.37
478.00	3630.17
478.18	3695.71
478.36	3555.27
478.54	3662.94
478.72	3644.21
478.90	3585.70
479.08	3941.46
479.26	3859.54
479.44	4002.32
479.62	3899.33
479.80	3723.79
479.98	3894.65
480.16	3798.69
480.34	3957.85
480.52	3988.27
480.70	4016.36
480.88	3896.99
481.06	4145.09
481.24	4046.79
481.41	4149.77
481.59	4149.77
481.77	4182.54
481.95	4203.60
482.13	4121.68
482.31	4133.39
482.49	4168.49
482.67	4093.60
482.85	4145.09
483.03	4315.95
483.21	4212.96
483.39	4205.94
483.57	4098.28
483.74	4091.26
483.92	4147.43
484.10	4224.67
484.28	4227.01
484.46	4262.12
484.64	4407.23
484.82	4269.14
485.00	4264.46
485.18	4306.59
485.35	4063.17
485.53	3775.28
485.71	3435.91
485.89	3361.01
486.07	3543.57
486.25	3833.80
486.43	4049.13
486.61	4109.98
486.78	4037.42
486.96	4131.05
487.14	4255.09
487.32	4514.89
487.50	4507.87
487.68	4554.68
487.85	4791.08
488.03	4863.63
488.21	4594.47
488.39	4491.49
488.57	4500.85
488.75	4449.36
488.92	4594.47
489.10	4990.02
489.28	4978.32
489.46	5308.34
489.64	5200.67
489.81	5238.12
489.99	5214.71
490.17	5102.37
490.35	5149.18
490.53	5186.63
490.70	5081.30
490.88	4938.53
491.06	5214.71
491.24	5254.50
491.41	5034.49
491.59	4697.46
491.77	4779.37
491.95	4767.67
492.13	4905.76
492.30	5015.77
492.48	5298.97
492.66	5411.32
492.84	5479.19
493.01	5324.72
493.19	5111.73
493.37	5373.87
493.54	5076.62
493.72	5404.30
493.90	5390.25
494.08	5523.66
494.25	5530.69
494.43	5720.27
494.61	5685.16
494.79	5643.03
494.96	5720.27
495.14	5486.22
495.32	5652.39
495.49	5434.72
495.67	5460.47
495.85	5980.07
496.02	5881.77
496.20	5926.24
496.38	5856.02
496.55	5776.44
496.73	5989.43
496.91	5914.53
497.09	5804.53
497.26	6059.65
497.44	5942.62
497.62	5748.36
497.79	5575.16
497.97	5397.28
498.14	5331.74
498.32	5687.50
498.50	6005.81
498.67	6115.82
498.85	5987.09
499.03	6050.28
499.20	6026.88
499.38	6094.76
499.56	5881.77
499.73	5951.98
499.91	5607.92
500.08	5783.46
500.26	5509.62
500.44	5692.18
500.61	5769.42
500.79	5799.85
500.97	5708.57
501.14	5633.67
501.32	5486.22
501.49	5497.92
501.67	5479.19
501.84	5586.86
502.02	5769.42
502.20	5863.04
502.37	5865.38
502.55	5891.13
502.72	5891.13
502.90	6214.12
503.07	5994.11
503.25	5858.36
503.43	5884.11
503.60	5738.99
503.78	5444.09
503.95	5584.52
504.13	5968.37
504.30	6108.80
504.48	6026.88
504.65	6073.69
504.83	5884.11
505.01	6193.06
505.18	6223.48
505.36	6328.81
505.53	6359.24
505.71	6389.66
505.88	6300.72
506.06	6139.23
506.23	6113.48
506.41	5949.64
506.58	6101.78
506.76	6092.41
506.93	6155.61
507.11	5975.39
507.28	6099.44
507.46	5942.62
507.63	5935.60
507.81	5708.57
507.98	5783.46
508.16	6019.86
508.33	6291.36
508.50	6064.33
508.68	6403.71
508.85	6305.40
509.03	6445.84
509.20	6356.90
509.38	6104.12
509.55	5839.64
509.73	6047.94
509.90	6101.78
510.08	6059.65
510.25	6375.62
510.42	6235.19
510.60	6148.59
510.77	6052.63
510.95	6300.72
511.12	6298.38
511.30	6359.24
511.47	6506.69
511.64	6494.99
511.82	6305.40
511.99	6225.82
512.17	6106.46
512.34	5947.30
512.51	5942.62
512.69	6101.78
512.86	6087.73
513.04	6092.41
513.21	6134.54
513.38	6003.47
513.56	5994.11
513.73	5809.21
513.90	5781.12
514.08	5940.28
514.25	6052.63
514.43	6022.20
514.60	5968.37
514.77	5991.77
514.95	6047.94
515.12	5966.03
515.29	5987.09
515.47	6284.34
515.64	6450.52
515.81	6094.76
515.99	5921.56
516.16	5722.61
516.33	5186.63
516.51	4891.72
516.68	4947.89
516.85	4910.44
517.03	4826.18
517.20	5371.53
517.37	5750.70
517.54	6127.52
517.72	5778.78
517.89	5406.64
518.06	5057.90
518.24	5083.64
518.41	5423.02
518.58	5806.87
518.75	5741.33
518.93	5827.93
519.10	5776.44
519.27	6043.26
519.45	6012.84
519.62	6106.46
519.79	6120.50
519.96	6104.12
520.14	5849.00
520.31	5743.67
520.48	5774.10
520.65	5769.42
520.83	6190.72
521.00	6225.82
521.17	6223.48
521.34	6064.33
521.52	6094.76
521.69	6349.87
521.86	6415.41
522.03	6265.61
522.20	5959.00
522.38	5727.29
522.55	5706.23
522.72	5762.40
522.89	5891.13
523.07	6054.97
523.24	6059.65
523.41	6317.11
523.58	6228.17
523.75	6469.24
523.92	6483.28
524.10	6427.11
524.27	6333.49
524.44	6300.72
524.61	6328.81
524.78	6263.27
524.96	6169.65
525.13	6162.63
525.30	6181.35
525.47	6305.40
525.64	6277.32
525.81	6373.28
525.98	5797.51
526.16	5643.03
526.33	5284.93
526.50	5343.44
526.67	5231.10
526.84	5268.55
527.01	5528.35
527.18	5760.06
527.36	5937.94
527.53	6160.29
527.70	6043.26
527.87	5886.45
528.04	6031.56
528.21	5916.87
528.38	6169.65
528.55	6324.13
528.72	6387.32
528.89	6401.37
529.07	6326.47
529.24	6181.35
529.41	5942.62
529.58	5933.26
529.75	5870.06
529.92	6143.91
530.09	6153.27
530.26	6399.02
530.43	6298.38
530.60	6324.13
530.77	6368.60
530.94	6551.16
531.11	6370.94
531.28	6148.59
531.46	6267.95
531.63	6284.34
531.80	6228.17
531.97	6204.76
532.14	5802.19
532.31	5664.10
532.48	5509.62
532.65	5682.82
532.82	5706.23
532.99	6031.56
533.16	6005.81
533.33	6314.77
533.50	6071.35
533.67	6118.16
533.84	5820.91
534.01	5919.21
534.18	5930.92
534.35	5947.30
534.52	6043.26
534.69	5905.17
534.86	6113.48
535.03	6127.52
535.20	6321.79
535.37	6300.72
535.54	6326.47
535.71	6052.63
535.88	6237.53
536.05	5912.19
536.22	5961.34
536.38	5895.81
536.55	5647.71
536.72	5621.97
536.89	5509.62
537.06	5874.74
537.23	5968.37
537.40	6073.69
537.57	6164.97
537.74	6111.14
537.91	5856.02
538.08	6015.18
538.25	5998.79
538.42	6057.31
538.59	6101.78
538.75	5956.66
538.92	5968.37
539.09	5870.06
539.26	5722.61
539.43	5556.43
539.60	5888.79
539.77	5659.42
539.94	5771.76
540.11	5355.15
540.28	5221.74
540.44	5462.81
540.61	5427.70
540.78	5703.89
540.95	5760.06
541.12	5795.17
541.29	5865.38
541.46	5893.47
541.62	5830.27
541.79	5877.09
541.96	5666.44
542.13	5678.14
542.30	5731.97
542.47	5844.32
542.63	5689.84
542.80	5722.61
542.97	5638.35
543.14	5626.65
543.31	5806.87
543.48	5753.04
543.64	5905.17
543.81	5907.51
543.98	5937.94
544.15	5769.42
544.32	5694.52
544.48	5741.33
544.65	5893.47
544.82	5905.17
544.99	5760.06
545.16	5818.57
545.32	5593.88
545.49	5891.13
545.66	6153.27
545.83	5858.36
546.00	5760.06
546.16	5692.18
546.33	5776.44
546.50	5781.12
546.67	5776.44
546.83	5860.70
547.00	5682.82
547.17	5645.37
547.34	5598.56
547.50	5483.88
547.67	5507.28
547.84	5526.00
548.00	5511.96
548.17	5738.99
548.34	5731.97
548.51	5640.69
548.67	5748.36
548.84	5753.04
549.01	5891.13
549.18	5626.65
549.34	5884.11
549.51	5783.46
549.68	5549.41
549.84	5628.99
550.01	5839.64
550.18	5776.44
550.34	5523.66
550.51	5547.07
550.68	5607.92
550.84	5467.49
551.01	5509.62
551.18	5397.28
551.34	5607.92
551.51	5734.31
551.68	5675.80
551.84	5586.86
552.01	5586.86
552.18	5542.39
552.34	5331.74
552.51	5310.68
552.68	5289.61
552.84	5373.87
553.01	5467.49
553.18	5310.68
553.34	5647.71
553.51	5584.52
553.67	5685.16
553.84	5526.00
554.01	5713.25
554.17	5729.63
554.34	5605.58
554.51	5577.50
554.67	5708.57
554.84	5596.22
555.00	5500.26
555.17	5488.56
555.33	5533.03
555.50	5542.39
555.67	5502.60
555.83	5345.78
556.00	5495.58
556.16	5296.63
556.33	5296.63
556.50	5221.74
556.66	5287.27
556.83	5074.28
556.99	5123.43
557.16	5434.72
557.32	5399.62
557.49	5268.55
557.65	5317.70
557.82	5329.40
557.98	5259.18
558.15	5296.63
558.32	5025.13
558.48	4889.38
558.65	4975.98
558.81	4926.83
558.98	4924.49
559.14	5142.16
559.31	5060.24
559.47	5203.01
559.64	5156.20
559.80	5078.96
559.97	5060.24
560.13	5041.51
560.30	5324.72
560.46	5392.59
560.63	5427.70
560.79	5451.11
560.96	5298.97
561.12	5121.09
561.29	4938.53
561.45	4805.12
561.61	5074.28
561.78	5156.20
561.94	5163.22
562.11	5153.86
562.27	4917.47
562.44	5172.58
562.60	5259.18
562.77	5331.74
562.93	5268.55
563.10	5095.35
563.26	5008.75
563.42	5238.12
563.59	5060.24
563.75	5083.64
563.92	5179.61
564.08	5015.77
564.24	5069.60
564.41	5104.71
564.57	4943.21
564.74	5146.84
564.90	5076.62
565.07	5032.15
565.23	4933.85
565.39	4802.78
565.56	4734.90
565.72	4816.82
565.88	4802.78
566.05	4868.31
566.21	4884.70
566.38	4919.81
566.54	5043.85
566.70	4990.02
566.87	5018.11
567.03	5151.52
567.19	5062.58
567.36	4947.89
567.52	5015.77
567.68	5027.47
567.85	4774.69
568.01	4727.88
568.17	4732.56
568.34	4608.51
568.50	4660.01
568.66	4734.90
568.83	4887.04
568.99	4889.38
569.15	4910.44
569.32	4858.95
569.48	4727.88
569.64	4652.98
569.81	4732.56
569.97	4755.97
570.13	4610.86
570.30	4425.95
570.46	4489.15
570.62	4329.99
570.78	4409.57
570.95	4526.60
571.11	4660.01
571.27	4730.22
571.43	4601.49
571.60	4695.11
571.76	4833.21
571.92	4779.37
572.09	4861.29
572.25	4770.01
572.41	4828.53
572.57	4652.98
572.74	4788.74
572.90	4842.57
573.06	4751.29
573.22	4774.69
573.38	4762.99
573.55	4734.90
573.71	4648.30
573.87	4716.18
574.03	4669.37
574.20	4709.16
574.36	4599.15
574.52	4545.32
574.68	4561.70
574.84	4372.12
575.01	4376.80
575.17	4393.19
575.33	4404.89
575.49	4575.75
575.65	4575.75
575.82	4313.61
575.98	4458.72
576.14	4552.34
576.30	4575.75
576.46	4423.61
576.62	4521.92
576.79	4491.49
576.95	4484.47
577.11	4444.68
577.27	4444.68
577.43	4306.59
577.59	4503.19
577.75	4390.84
577.92	4234.03
578.08	4236.37
578.24	4311.27
578.40	4173.18
578.56	4304.25
578.72	4402.55
578.88	4393.19
579.04	4458.72
579.21	4367.44
579.37	4402.55
579.53	4369.78
579.69	4409.57
579.85	4234.03
580.01	4416.59
580.17	4301.90
580.33	4241.05
580.49	4301.90
580.65	4348.72
580.82	4432.97
580.98	4358.08
581.14	4297.22
581.30	4273.82
581.46	4395.53
581.62	4444.68
581.78	4472.76
581.94	4449.36
582.10	4440.00
582.26	4372.12
582.42	4423.61
582.58	4348.72
582.74	4578.09
582.90	4376.80
583.06	4414.25
583.22	4369.78
583.38	4243.39
583.54	4383.82
583.70	4320.63
583.86	4414.25
584.02	4273.82
584.18	4306.59
584.34	4308.93
584.50	4219.99
584.66	4308.93
584.82	4308.93
584.98	4280.84
585.14	4262.12
585.30	4140.41
585.46	4028.06
585.62	3983.59
585.78	4105.30
585.94	4091.26
586.10	4025.72
586.26	4187.22
586.42	4231.69
586.58	4067.85
586.74	4278.50
586.90	4189.56
587.06	4273.82
587.22	4283.18
587.38	4105.30
587.54	4105.30
587.70	3962.53
587.86	3995.29
588.02	4124.02
588.18	3957.85
588.34	3805.71
588.49	3583.36
588.65	3440.59
588.81	3389.10
588.97	3468.67
589.13	3543.57
589.29	3440.59
589.45	3609.11
589.61	3562.30
589.77	3676.98
589.93	3709.75
590.08	3889.97
590.24	3995.29
590.40	3899.33
590.56	3927.42
590.72	3880.61
590.88	3894.65
591.04	3894.65
591.20	3981.25
591.35	3754.22
591.51	3829.12
591.67	3843.16
591.83	3798.69
591.99	3742.52
592.15	3918.06
592.31	3929.76
592.46	3782.31
592.62	3808.05
592.78	3866.56
592.94	3737.84
593.10	3833.80
593.26	3934.44
593.41	3976.57
593.57	3838.48
593.73	3726.13
593.89	3822.09
594.05	3691.02
594.20	3796.35
594.36	3676.98
594.52	3611.45
594.68	3747.20
594.84	3688.68
594.99	3658.26
595.15	3779.97
595.31	3702.73
595.47	3777.62
595.62	3770.60
595.78	3833.80
595.94	3918.06
596.10	3801.03
596.25	3878.27
596.41	3712.09
596.57	3721.45
596.73	3796.35
596.88	3646.55
597.04	3705.07
597.20	3751.88
597.36	3698.05
597.51	3712.09
597.67	3740.18
597.83	3744.86
597.99	3698.05
