SpectraSuite Data File
++++++++++++++++++++++++++++++++++++
Date: Mon Oct 07 14:53:32 GMT-05:00 2013
User: price-jones
Dark Spectrum Present: No
Reference Spectrum Present: No
Number of Sampled Component Spectra: 1
Spectrometers: USB2+H05261
Integration Time (usec): 100000 (USB2+H05261)
Spectra Averaged: 1 (USB2+H05261)
Boxcar Smoothing: 0 (USB2+H05261)
Correct for Electrical Dark: No (USB2+H05261)
Strobe/Lamp Enabled: No (USB2+H05261)
Correct for Detector Non-linearity: No (USB2+H05261)
Correct for Stray Light: No (USB2+H05261)
Number of Pixels in Processed Spectrum: 2048
>>>>>Begin Processed Spectral Data<<<<<
365.73	0.00
365.92	0.00
366.12	0.00
366.32	0.00
366.52	0.00
366.72	0.00
366.91	0.00
367.11	0.00
367.31	0.00
367.51	0.00
367.70	0.00
367.90	0.00
368.10	0.00
368.30	0.00
368.49	0.00
368.69	0.00
368.89	0.00
369.09	0.00
369.28	0.00
369.48	0.00
369.68	0.00
369.87	0.00
370.07	0.00
370.27	0.00
370.47	664.71
370.66	3234.62
370.86	3866.56
371.06	4084.23
371.25	4154.45
371.45	3922.74
371.65	3487.40
371.84	3204.19
372.04	3293.13
372.24	3707.41
372.44	3967.21
372.63	3822.09
372.83	3637.19
373.03	3136.32
373.22	2932.69
373.42	3176.11
373.62	3672.30
373.81	3941.46
374.01	3892.31
374.21	3513.14
374.40	3119.93
374.60	3454.63
374.79	3658.26
374.99	4355.74
375.19	4526.60
375.38	4676.39
375.58	4671.71
375.78	4503.19
375.97	4524.26
376.17	4566.39
376.37	4702.14
376.56	4837.89
376.76	5132.79
376.95	5430.04
377.15	5769.42
377.35	5989.43
377.54	6129.86
377.74	6422.43
377.93	6466.90
378.13	6253.91
378.33	5977.73
378.52	5355.15
378.72	5404.30
378.91	5153.86
379.11	5093.01
379.31	4784.06
379.50	5001.72
379.70	5170.24
379.89	5870.06
380.09	6029.22
380.28	6249.23
380.48	6169.65
380.68	6129.86
380.87	6031.56
381.07	5640.69
381.26	5125.77
381.46	4891.72
381.65	4524.26
381.85	4587.45
382.04	4344.03
382.24	4007.00
382.43	3859.54
382.63	3728.47
382.83	3742.52
383.02	3840.82
383.22	3768.26
383.41	3815.07
383.61	4095.94
383.80	4557.02
384.00	5179.61
384.19	5968.37
384.39	6274.98
384.58	6071.35
384.78	6263.27
384.97	6157.95
385.17	5624.31
385.36	5441.75
385.56	5149.18
385.75	5420.68
385.95	5905.17
386.14	6331.15
386.34	6197.74
386.53	6080.71
386.72	5685.16
386.92	5799.85
387.11	6031.56
387.31	6555.84
387.50	6249.23
387.70	6134.54
387.89	6005.81
388.09	5959.00
388.28	6197.74
388.48	6193.06
388.67	6736.06
388.86	7155.02
389.06	7866.54
389.25	8241.03
389.45	8372.10
389.64	8407.20
389.84	8140.38
390.03	8044.42
390.22	8112.30
390.42	8248.05
390.61	8842.54
390.81	9460.45
391.00	9886.42
391.19	9516.62
391.39	9217.03
391.58	8683.39
391.78	8334.65
391.97	7992.93
392.16	7335.24
392.36	6771.17
392.55	5327.06
392.75	4360.42
392.94	3637.19
393.13	3576.34
393.33	4074.87
393.52	5303.65
393.71	6553.50
393.91	7543.55
394.10	7936.76
394.29	8746.58
394.49	9423.00
394.68	10015.15
394.88	10438.79
395.07	10548.79
395.26	10246.87
395.46	10097.07
395.65	9373.85
395.84	8304.22
396.04	6937.35
396.23	5830.27
396.42	4877.68
396.62	4566.39
396.81	5228.76
397.00	6689.25
397.19	8444.65
397.39	10200.05
397.58	11302.45
397.77	12077.16
397.97	12636.55
398.16	12655.28
398.35	13193.60
398.55	13717.88
398.74	14228.12
398.93	14398.98
399.12	14389.61
399.32	13490.85
399.51	13942.57
399.70	15054.33
399.90	14958.36
400.09	14946.66
400.28	14422.38
400.47	14974.75
400.67	15597.33
400.86	15637.12
401.05	16011.60
401.24	16222.25
401.44	16320.56
401.63	16245.66
401.82	16276.09
402.01	16353.32
402.21	16688.02
402.40	16727.81
402.59	16166.08
402.78	15426.47
402.97	15021.56
403.17	15550.52
403.36	16463.33
403.55	17207.62
403.74	17521.25
403.93	16858.88
404.13	15243.91
404.32	14841.34
404.51	15391.36
404.70	16877.60
404.89	16957.18
405.09	16641.21
405.28	15967.13
405.47	15990.54
405.66	16248.00
405.85	15639.46
406.05	15253.27
406.24	15592.65
406.43	16147.36
406.62	16865.90
406.81	16854.20
407.00	16519.50
407.20	16023.31
407.39	16070.12
407.58	16802.71
407.77	17216.98
407.96	17961.27
408.15	18202.35
408.34	18354.48
408.54	18991.11
408.73	19164.31
408.92	18967.70
409.11	18405.97
409.30	17572.74
409.49	16386.09
409.68	15412.43
409.87	14974.75
410.07	15499.03
410.26	17106.98
410.45	18335.76
410.64	18349.80
410.83	18993.45
411.02	19564.54
411.21	20273.72
411.40	19894.55
411.59	20357.98
411.78	20163.72
411.98	19817.32
412.17	20063.07
412.36	19744.76
412.55	19854.76
412.74	19531.77
412.93	18972.38
413.12	19140.90
413.31	21001.63
413.50	21294.19
413.69	21315.26
413.88	20594.37
414.07	20280.74
414.26	20390.75
414.45	21032.05
414.64	21219.30
414.83	21441.65
415.02	20772.25
415.22	20741.83
415.41	21149.08
415.60	22015.08
415.79	22803.84
415.98	22944.27
416.17	23637.07
416.36	22827.24
416.55	22548.72
416.74	22001.04
416.93	21060.14
417.12	20947.79
417.31	21514.20
417.50	21514.20
417.69	22162.53
417.88	22284.24
418.07	22136.79
418.26	21823.16
418.45	21916.78
418.64	22621.28
418.83	23775.16
419.02	23108.11
419.21	23103.43
419.39	21837.20
419.58	21050.78
419.77	20924.39
419.96	21996.35
420.15	23494.30
420.34	23852.40
420.53	24797.98
420.72	24989.90
420.91	25036.71
421.10	24650.52
421.29	24716.06
421.48	23679.20
421.67	24711.38
421.86	24095.82
422.05	22740.64
422.24	20231.59
422.43	19747.10
422.61	21886.35
422.80	23679.20
422.99	23681.54
423.18	22979.38
423.37	22565.10
423.56	22824.90
423.75	22984.06
423.94	23417.06
424.13	22047.85
424.32	22309.99
424.50	22394.25
424.69	21715.49
424.88	22216.36
425.07	22155.51
425.26	22183.60
425.45	21905.07
425.64	21708.47
425.83	21659.32
426.01	22925.55
426.20	23243.86
426.39	23309.40
426.58	21364.41
426.77	19967.11
426.96	19150.26
427.15	19915.62
427.33	21621.87
427.52	22501.91
427.71	22625.96
427.90	22410.63
428.09	22061.89
428.28	21355.05
428.46	21022.69
428.65	20755.87
428.84	21142.06
429.03	21741.24
429.22	20177.76
429.40	19428.79
429.59	17544.66
429.78	15442.85
429.97	15611.37
430.16	15573.92
430.34	15962.45
430.53	15625.42
430.72	15971.82
430.91	17678.07
431.10	20999.29
431.28	24500.73
431.47	26576.78
431.66	26993.40
431.85	24388.38
432.03	22656.39
432.22	21544.63
432.41	22185.94
432.60	24694.99
432.79	25731.85
432.97	26546.36
433.16	25802.07
433.35	24046.66
433.54	21455.69
433.72	19829.02
433.91	20533.52
434.10	22986.40
434.28	24655.20
434.47	25907.39
434.66	25649.93
434.85	24844.79
435.03	24664.57
435.22	25422.90
435.41	26677.43
435.59	26958.29
435.78	27246.18
435.97	27899.19
436.16	28198.77
436.34	28077.07
436.53	27129.15
436.72	27508.32
436.90	25963.56
437.09	25783.34
437.28	25200.55
437.46	26352.09
437.65	26153.15
437.84	24444.56
438.02	22628.30
438.21	21951.88
438.40	23506.00
438.58	25626.53
438.77	26167.19
438.96	26136.76
439.14	27260.22
439.33	27744.71
439.52	28732.42
439.70	28135.58
439.89	27154.90
440.08	26574.44
440.26	26359.11
440.45	27009.78
440.63	29252.02
440.82	30698.47
441.01	30401.22
441.19	29900.34
441.38	30370.79
441.57	31489.57
441.75	31847.67
441.94	32273.65
442.12	32058.32
442.31	32634.09
442.50	32734.73
442.68	31894.48
442.87	31845.33
443.05	31330.41
443.24	31740.00
443.43	32388.33
443.61	32795.59
443.80	33516.47
443.98	31482.55
444.17	31292.96
444.35	33223.90
444.54	33675.63
444.73	33453.28
444.91	32044.27
445.10	30883.37
445.28	29706.08
445.47	28833.06
445.65	29158.39
445.84	30047.80
446.02	31180.62
446.21	31770.43
446.39	31819.58
446.58	32238.54
446.77	32610.68
446.95	32554.51
447.14	33907.34
447.32	34382.47
447.51	33677.97
447.69	32144.92
447.88	32063.00
448.06	32170.66
448.25	32973.47
448.43	33518.81
448.62	32676.22
448.80	32257.26
448.99	32734.73
449.17	33078.79
449.36	33310.50
449.54	34153.10
449.73	34628.23
449.91	34981.65
450.10	36385.97
450.28	36547.47
450.46	36400.01
450.65	36690.24
450.83	35826.58
451.02	35416.99
451.20	35405.28
451.39	35424.01
451.57	35248.47
451.76	34927.81
451.94	34888.03
452.13	33890.96
452.31	32629.41
452.49	31140.83
452.68	31449.78
452.86	31295.30
453.05	32240.88
453.23	32779.20
453.42	33631.16
453.60	34436.30
453.78	34803.77
453.97	34345.02
454.15	34490.13
454.34	33645.20
454.52	34075.86
454.70	33347.95
454.89	33661.58
455.07	33792.65
455.26	34403.53
455.44	35288.26
455.62	35842.96
455.81	36287.67
455.99	35948.29
456.17	35545.72
456.36	35409.96
456.54	36528.74
456.73	36877.48
456.91	37483.68
457.09	37268.35
457.28	38115.62
457.46	36568.53
457.64	36137.87
457.83	34955.90
458.01	34211.61
458.19	35416.99
458.38	35248.47
458.56	36945.36
458.74	36517.04
458.93	36046.59
459.11	36208.09
459.29	35559.76
459.48	35943.61
459.66	35381.88
459.84	36027.87
460.03	36598.96
460.21	36011.48
460.39	37148.98
460.57	37392.40
460.76	38146.05
460.94	37809.01
461.12	36903.23
461.31	37682.62
461.49	37184.09
461.67	37249.63
461.85	38548.62
462.04	38139.03
462.22	38979.28
462.40	38485.43
462.59	38450.32
462.77	38265.42
462.95	38199.88
463.13	37724.75
463.32	37322.18
463.50	37024.93
463.68	36893.86
463.86	37677.94
464.05	36673.85
464.23	36198.73
464.41	36107.44
464.59	35515.29
464.78	37092.81
464.96	37237.92
465.14	36208.09
465.32	37074.09
465.50	38239.67
465.69	38499.47
465.87	38045.41
466.05	37361.97
466.23	35777.43
466.41	34443.32
466.60	35573.80
466.78	35545.72
466.96	36652.79
467.14	36584.91
467.32	37247.29
467.51	37399.42
467.69	35524.65
467.87	36538.10
468.05	37071.75
468.23	37022.59
468.41	37448.57
468.60	37399.42
468.78	37385.38
468.96	37277.71
469.14	37556.24
469.32	37956.47
469.50	36378.95
469.69	36591.94
469.87	36011.48
470.05	35875.73
470.23	35796.15
470.41	36194.04
470.59	36589.59
470.77	36863.44
470.95	37755.18
471.14	38103.92
471.32	37521.13
471.50	40421.05
471.68	40582.55
471.86	40538.08
472.04	40708.94
472.22	40844.69
472.40	38689.06
472.58	38897.36
472.77	37825.40
472.95	38667.99
473.13	39959.97
473.31	38700.76
473.49	39103.33
473.67	39917.84
473.85	40133.17
474.03	40790.86
474.21	41022.57
474.39	41254.28
474.57	41738.77
474.75	41268.33
474.93	41123.21
475.12	39995.07
475.30	40367.22
475.48	40769.79
475.66	40912.56
475.84	40603.61
476.02	40016.14
476.20	40390.62
476.38	41017.89
476.56	41603.02
476.74	42429.23
476.92	42373.06
477.10	42995.64
477.28	44217.40
477.46	44378.90
477.64	44814.24
477.82	44634.02
478.00	45134.89
478.18	44133.14
478.36	44172.93
478.54	43992.71
478.72	44524.01
478.90	45588.95
479.08	46167.07
479.26	46810.71
479.44	46607.09
479.62	46323.88
479.80	46485.38
479.98	47133.71
480.16	47295.21
480.34	46543.89
480.52	46983.91
480.70	47098.60
480.88	47337.33
481.06	48140.14
481.24	48683.14
481.41	49319.77
481.59	49593.61
481.77	49694.25
481.95	48753.36
482.13	48446.75
482.31	48488.88
482.49	49406.37
482.67	49312.75
482.85	49628.72
483.03	49797.24
483.21	50494.72
483.39	50260.66
483.57	50157.68
483.74	49368.92
483.92	49769.15
484.10	49577.23
484.28	50944.10
484.46	51075.17
484.64	51428.59
484.82	50553.23
485.00	50263.00
485.18	49745.75
485.35	48491.22
485.53	44886.79
485.71	41902.61
485.89	40795.54
486.07	42906.70
486.25	46108.55
486.43	48809.53
486.61	49081.03
486.78	49172.31
486.96	49467.22
487.14	51082.19
487.32	51601.79
487.50	52570.77
487.68	53305.70
487.85	53918.92
488.03	53710.61
488.21	53588.91
488.39	52540.35
488.57	52107.35
488.75	51866.27
488.92	52535.66
489.10	54677.25
489.28	55856.88
489.46	56535.64
489.64	56580.11
489.81	56533.30
489.99	56245.41
490.17	56137.75
490.35	56556.70
490.53	56362.44
490.70	55870.93
490.88	55693.05
491.06	56676.07
491.24	56458.40
491.41	55559.64
491.59	54115.53
491.77	53528.05
491.95	54520.44
492.13	55475.38
492.30	56596.49
492.48	57446.11
492.66	57808.89
492.84	57773.78
493.01	57556.11
493.19	57120.77
493.37	56713.52
493.54	56568.41
493.72	57083.33
493.90	58026.56
494.08	58642.12
494.25	58988.52
494.43	59103.21
494.61	59568.97
494.79	59391.09
494.96	59133.63
495.14	58719.36
495.32	57989.11
495.49	57336.10
495.67	58291.04
495.85	59400.46
496.02	59957.50
496.20	59784.30
496.38	59325.56
496.55	59175.76
496.73	59526.84
496.91	59730.47
497.09	60477.10
497.26	60388.16
497.44	59966.87
497.62	59559.61
497.79	58812.98
497.97	57862.72
498.14	57738.68
498.32	58913.62
498.50	59643.87
498.67	60058.15
498.85	59969.21
499.03	60074.53
499.20	60505.19
499.38	60271.14
499.56	60151.77
499.73	59810.05
499.91	59519.82
500.08	59056.40
500.26	58534.46
500.44	58906.60
500.61	59508.12
500.79	59302.15
500.97	59021.29
501.14	58796.60
501.32	58567.23
501.49	58529.78
501.67	58932.35
501.84	59290.45
502.02	59657.91
502.20	59863.88
502.37	59887.29
502.55	60058.15
502.72	60678.39
502.90	61022.45
503.07	60786.05
503.25	60369.44
503.43	59522.16
503.60	59004.91
503.78	58508.71
503.95	58808.30
504.13	60184.54
504.30	60842.23
504.48	60769.67
504.65	60392.84
504.83	60207.94
505.01	60914.78
505.18	61207.35
505.36	61893.13
505.53	61822.91
505.71	62012.49
505.88	62056.96
506.06	61516.30
506.23	61162.88
506.41	60676.05
506.58	61066.92
506.76	61087.98
506.93	61095.00
507.11	60722.86
507.28	60884.36
507.46	60542.64
507.63	59962.18
507.81	59838.14
507.98	59884.95
508.16	60676.05
508.33	61340.76
508.50	61572.47
508.68	61724.61
508.85	62124.84
509.03	62061.64
509.20	61902.49
509.38	61293.95
509.55	60673.71
509.73	60788.39
509.90	61181.60
510.08	61432.04
510.25	61300.97
510.42	61123.09
510.60	61116.07
510.77	61190.97
510.95	61839.29
511.12	62017.17
511.30	62265.27
511.47	62489.96
511.64	62546.14
511.82	62309.74
511.99	61549.07
512.17	61073.94
512.34	60767.33
512.51	60992.02
512.69	61095.00
512.86	61190.97
513.04	61591.20
513.21	61600.56
513.38	61240.12
513.56	60926.49
513.73	60294.54
513.90	60331.99
514.08	60685.41
514.25	60893.72
514.43	60935.85
514.60	60992.02
514.77	61076.28
514.95	61221.39
515.12	61134.79
515.29	61338.42
515.47	61762.06
515.64	61939.94
515.81	61623.96
515.99	60942.87
516.16	59716.43
516.33	57675.48
516.51	56416.27
516.68	55543.25
516.85	55533.89
517.03	55531.55
517.20	57998.48
517.37	60156.45
517.54	61247.14
517.72	60818.82
517.89	58728.72
518.06	56423.29
518.24	56692.46
518.41	58660.85
518.58	60018.36
518.75	60214.96
518.93	60535.62
519.10	60200.92
519.27	60671.37
519.45	60701.79
519.62	61403.95
519.79	61797.16
519.96	61595.88
520.14	61132.45
520.31	60264.11
520.48	60596.47
520.65	60669.03
520.83	61570.13
521.00	61918.87
521.17	61570.13
521.34	61254.16
521.52	61499.92
521.69	61977.39
521.86	62396.34
522.03	61951.64
522.20	61153.52
522.38	60083.89
522.55	60109.64
522.72	60662.00
522.89	60739.24
523.07	60889.04
523.24	61167.56
523.41	62071.01
523.58	62239.53
523.75	62787.21
523.92	62527.41
524.10	62585.92
524.27	62546.14
524.44	62363.57
524.61	62183.35
524.78	62185.69
524.96	61771.42
525.13	61839.29
525.30	62171.65
525.47	62653.80
525.64	62665.50
525.81	61928.23
525.98	60690.09
526.16	59206.19
526.33	58841.07
526.50	58363.60
526.67	57921.24
526.84	58609.35
527.01	59547.91
527.18	60179.85
527.36	61083.30
527.53	61902.49
527.70	62148.24
527.87	61729.29
528.04	61223.73
528.21	61577.15
528.38	62181.01
528.55	62829.34
528.72	62838.70
528.89	63185.10
529.07	62707.63
529.24	62227.82
529.41	61544.39
529.58	61116.07
529.75	61303.31
529.92	61689.50
530.09	62056.96
530.26	62401.02
530.43	62740.40
530.60	62478.26
530.77	62770.83
530.94	63220.21
531.11	62639.76
531.28	62206.76
531.46	62120.16
531.63	62195.06
531.80	62195.06
531.97	61839.29
532.14	61090.32
532.31	59999.63
532.48	59444.93
532.65	59402.80
532.82	60514.55
532.99	61410.98
533.16	61612.26
533.33	62363.57
533.50	62063.99
533.67	61499.92
533.84	61141.81
534.01	61481.19
534.18	61457.79
534.35	61712.91
534.52	61652.05
534.69	61797.16
534.86	62019.52
535.03	62298.04
535.20	62567.20
535.37	62843.38
535.54	63082.12
535.71	62726.36
535.88	62492.30
536.05	61874.40
536.22	61319.70
536.38	61315.01
536.55	60842.23
536.72	60418.59
536.89	60308.58
537.06	60968.61
537.23	61762.06
537.40	62110.80
537.57	61890.79
537.74	61928.23
537.91	61740.99
538.08	61677.80
538.25	61740.99
538.42	61977.39
538.59	61787.80
538.75	61123.09
538.92	60891.38
539.09	60704.13
539.26	60523.91
539.43	60549.66
539.60	60493.49
539.77	60748.60
539.94	60582.43
540.11	59906.01
540.28	59344.28
540.44	59552.59
540.61	59845.16
540.78	59788.98
540.95	60404.55
541.12	60825.84
541.29	60856.27
541.46	61249.48
541.62	61181.60
541.79	61062.24
541.96	60629.24
542.13	60409.23
542.30	60905.42
542.47	61078.62
542.63	60584.77
542.80	60493.49
542.97	60699.45
543.14	60591.79
543.31	60800.10
543.48	60956.91
543.64	61911.85
543.81	62014.83
543.98	61630.99
544.15	61256.50
544.32	60666.69
544.48	60879.67
544.65	61132.45
544.82	61635.67
544.99	61141.81
545.16	60898.40
545.32	60933.51
545.49	61457.79
545.66	61897.81
545.83	61256.50
546.00	60989.68
546.16	60629.24
546.33	60760.31
546.50	60769.67
546.67	61214.37
546.83	60828.18
547.00	60842.23
547.17	60353.05
547.34	59709.41
547.50	59636.85
547.67	60121.34
547.84	60313.26
548.00	60444.33
548.17	60804.78
548.34	60816.48
548.51	60774.35
548.67	60795.42
548.84	61022.45
549.01	60933.51
549.18	60720.52
549.34	60779.03
549.51	60669.03
549.68	60654.98
549.84	60470.08
550.01	60339.01
550.18	60221.98
550.34	60266.45
550.51	60310.92
550.68	60502.85
550.84	60032.40
551.01	60121.34
551.18	60097.94
551.34	60317.95
551.51	60519.23
551.68	60818.82
551.84	60910.10
552.01	60699.45
552.18	60601.15
552.34	59859.20
552.51	59381.73
552.68	59444.93
552.84	59910.69
553.01	60055.81
553.18	60044.10
553.34	60018.36
553.51	60324.97
553.67	60505.19
553.84	60603.49
554.01	60479.44
554.17	60402.21
554.34	60254.75
554.51	60549.66
554.67	60654.98
554.84	60664.35
555.00	60170.49
555.17	60088.57
555.33	60135.38
555.50	60051.12
555.67	60170.49
555.83	59966.87
556.00	59660.26
556.16	59760.90
556.33	59416.84
556.50	59267.05
556.66	59253.00
556.83	58988.52
556.99	59128.95
557.16	59236.62
557.32	59458.97
557.49	59812.39
557.65	59522.16
557.82	59608.76
557.98	59451.95
558.15	59042.35
558.32	58408.07
558.48	57464.83
558.65	57836.98
558.81	58204.44
558.98	58475.94
559.14	58585.95
559.31	58686.59
559.47	58567.23
559.64	58211.46
559.80	57982.09
559.97	57954.00
560.13	58319.13
560.30	59143.00
560.46	59749.20
560.63	59884.95
560.79	59891.97
560.96	59477.69
561.12	58253.59
561.29	57925.92
561.45	57954.00
561.61	58337.85
561.78	58646.80
561.94	58466.58
562.11	58482.97
562.27	58323.81
562.44	58604.67
562.60	58820.00
562.77	59121.93
562.93	59000.22
563.10	59035.33
563.26	58391.68
563.42	58415.09
563.59	58417.43
563.75	58225.51
563.92	58209.12
564.08	58176.36
564.24	58642.12
564.41	58614.04
564.57	58494.67
564.74	58181.04
564.90	58377.64
565.07	58094.44
565.23	57647.39
565.39	57176.95
565.56	57080.98
565.72	56849.27
565.88	57235.46
566.05	57179.29
566.21	57506.96
566.38	57579.52
566.54	57670.80
566.70	57977.41
566.87	58309.77
567.03	58066.35
567.19	58578.93
567.36	58106.14
567.52	57982.09
567.68	57851.02
567.85	57265.89
568.01	56823.53
568.17	56481.81
568.34	56863.32
568.50	56743.95
568.66	56921.83
568.83	57029.49
568.99	57006.09
569.15	57141.84
569.32	57139.50
569.48	57256.53
569.64	56753.31
569.81	56460.74
569.97	56582.45
570.13	56371.80
570.30	55929.44
570.46	55683.69
570.62	55456.65
570.78	54981.52
570.95	55407.50
571.11	55948.17
571.27	56112.00
571.43	56350.74
571.60	56549.68
571.76	56729.90
571.92	56996.73
572.09	57106.73
572.25	57174.61
572.41	57258.87
572.57	56830.55
572.74	57214.40
572.90	56512.23
573.06	56570.75
573.22	56479.47
573.38	56526.28
573.55	56472.45
573.71	56680.75
573.87	56718.20
574.03	56346.06
574.20	56467.76
574.36	56074.55
574.52	56189.24
574.68	55737.52
574.84	55554.96
575.01	55327.92
575.17	54838.75
575.33	55327.92
575.49	55592.40
575.65	55564.32
575.82	55641.56
575.98	55409.84
576.14	55756.24
576.30	55781.99
576.46	55751.56
576.62	55849.86
576.79	55650.92
576.95	55714.11
577.11	55304.52
577.27	55606.45
577.43	55515.17
577.59	55161.75
577.75	55086.85
577.92	54295.75
578.08	54099.14
578.24	54183.40
578.40	54501.71
578.56	54721.72
578.72	54773.22
578.88	54934.71
579.04	55248.35
579.21	55217.92
579.37	54899.61
579.53	55463.67
579.69	55033.02
579.85	55402.82
580.01	55213.24
580.17	54703.00
580.33	54714.70
580.49	54752.15
580.65	55220.26
580.82	55468.36
580.98	55257.71
581.14	55105.57
581.30	55288.13
581.46	54944.08
581.62	55098.55
581.78	55274.09
581.94	55253.03
582.10	55435.59
582.26	55540.91
582.42	55503.46
582.58	55304.52
582.74	55292.82
582.90	55358.35
583.06	55114.94
583.22	55136.00
583.38	55117.28
583.54	54878.54
583.70	54850.45
583.86	55028.34
584.02	54981.52
584.18	54934.71
584.34	54712.36
584.50	54862.16
584.66	54719.38
584.82	54255.96
584.98	54342.56
585.14	54028.93
