SpectraSuite Data File
++++++++++++++++++++++++++++++++++++
Date: Mon Oct 07 14:55:01 GMT-05:00 2013
User: price-jones
Dark Spectrum Present: No
Reference Spectrum Present: No
Number of Sampled Component Spectra: 1
Spectrometers: USB2+H05261
Integration Time (usec): 10000 (USB2+H05261)
Spectra Averaged: 1 (USB2+H05261)
Boxcar Smoothing: 0 (USB2+H05261)
Correct for Electrical Dark: No (USB2+H05261)
Strobe/Lamp Enabled: No (USB2+H05261)
Correct for Detector Non-linearity: No (USB2+H05261)
Correct for Stray Light: No (USB2+H05261)
Number of Pixels in Processed Spectrum: 2048
>>>>>Begin Processed Spectral Data<<<<<
365.73	0.00
365.92	0.00
366.12	0.00
366.32	0.00
366.52	0.00
366.72	0.00
366.91	0.00
367.11	0.00
367.31	0.00
367.51	0.00
367.70	0.00
367.90	0.00
368.10	0.00
368.30	0.00
368.49	0.00
368.69	0.00
368.89	0.00
369.09	0.00
369.28	0.00
369.48	0.00
369.68	0.00
369.87	0.00
370.07	0.00
370.27	0.00
370.47	353.42
370.66	2399.05
370.86	2881.20
371.06	3038.02
371.25	3012.27
371.45	2722.04
371.65	2326.49
371.84	2307.77
372.04	2518.42
372.24	2705.66
372.44	2864.82
372.63	2918.65
372.83	2490.33
373.03	2195.42
373.22	2029.24
373.42	2389.69
373.62	2747.79
373.81	2729.06
374.01	2679.91
374.21	2450.54
374.40	2267.98
374.60	2455.22
374.79	2913.97
374.99	3391.44
375.19	3527.19
375.38	3398.46
375.58	3229.94
375.78	3304.84
375.97	3152.70
376.17	3293.13
376.37	3356.33
376.56	3543.57
376.76	3634.85
376.95	3925.08
377.15	4264.46
377.35	4304.25
377.54	4517.23
377.74	4720.86
377.93	4669.37
378.13	4425.95
378.33	4252.75
378.52	3911.04
378.72	3723.79
378.91	3679.32
379.11	3597.40
379.31	3421.86
379.50	3515.48
379.70	3768.26
379.89	4264.46
380.09	4374.46
380.28	4477.44
380.48	4472.76
380.68	4533.62
380.87	4344.03
381.07	3955.51
381.26	3431.23
381.46	3356.33
381.65	3428.88
381.85	3220.58
382.04	3009.93
382.24	2834.39
382.43	2743.11
382.63	2761.83
382.83	2708.00
383.02	2733.75
383.22	2836.73
383.41	2750.13
383.61	3063.76
383.80	3559.95
384.00	4168.49
384.19	4486.81
384.39	4442.34
384.58	4519.57
384.78	4440.00
384.97	4231.69
385.17	4063.17
385.36	3967.21
385.56	3871.25
385.75	4077.21
385.95	4365.10
386.14	4676.39
386.34	4557.02
386.53	4404.89
386.72	4245.73
386.92	4290.20
387.11	4674.05
387.31	4772.35
387.50	4648.30
387.70	4498.51
387.89	4421.27
388.09	4624.90
388.28	4461.06
388.48	4865.97
388.67	5081.30
388.86	5607.92
389.06	5811.55
389.25	6115.82
389.45	6174.33
389.64	6244.55
389.84	6050.28
390.03	6106.46
390.22	6157.95
390.42	6438.81
390.61	6764.15
390.81	7098.84
391.00	7466.31
391.19	7133.95
391.39	6693.93
391.58	6260.93
391.78	6108.80
391.97	5982.41
392.16	5598.56
392.36	4842.57
392.55	3763.58
392.75	3068.44
392.94	2546.50
393.13	2696.30
393.33	3370.37
393.52	4222.33
393.71	4931.51
393.91	5703.89
394.10	5970.71
394.29	6696.27
394.49	7033.31
394.68	7742.49
394.88	7606.74
395.07	7854.84
395.26	7782.28
395.46	7641.85
395.65	6815.64
395.84	5963.68
396.04	5011.09
396.23	3885.29
396.42	3541.23
396.62	3527.19
396.81	4173.18
397.00	5614.95
397.19	6778.19
397.39	8046.76
397.58	8599.13
397.77	9399.59
397.97	9722.59
398.16	9776.42
398.35	10120.48
398.55	10342.83
398.74	10565.18
398.93	11009.88
399.12	10881.15
399.32	10417.72
399.51	11073.07
399.70	11492.03
399.90	11257.98
400.09	11150.31
400.28	11126.91
400.47	11508.41
400.67	11859.49
400.86	12203.55
401.05	12079.50
401.24	11941.41
401.44	12446.97
401.63	12470.37
401.82	12524.21
402.01	12498.46
402.21	12746.56
402.40	12395.48
402.59	12063.12
402.78	11866.52
402.97	11662.89
403.17	12442.29
403.36	12973.59
403.55	12938.48
403.74	13165.51
403.93	12259.73
404.13	11407.77
404.32	11637.14
404.51	12266.75
404.70	12734.85
404.89	12898.69
405.09	12416.54
405.28	12697.41
405.47	12365.05
405.66	12409.52
405.85	11981.20
406.05	11683.95
406.24	12219.94
406.43	12521.87
406.62	12875.29
406.81	13046.15
407.00	12322.92
407.20	12231.64
407.39	12395.48
407.58	13345.73
407.77	13612.56
407.96	13940.23
408.15	14384.93
408.34	14319.40
408.54	14778.14
408.73	14853.04
408.92	14443.45
409.11	14108.75
409.30	13486.17
409.49	12393.14
409.68	11772.89
409.87	11833.75
410.07	12491.44
410.26	13518.93
410.45	14120.45
410.64	14558.13
410.83	15059.01
411.02	15482.64
411.21	15527.11
411.40	15496.69
411.59	15892.24
411.78	15276.68
411.98	15646.48
412.17	15772.87
412.36	15613.71
412.55	15562.22
412.74	15014.54
412.93	14679.84
413.12	15234.55
413.31	16809.73
413.50	16716.11
413.69	16659.93
413.88	16369.71
414.07	15826.70
414.26	16596.74
414.45	16870.58
414.64	16388.43
414.83	16428.22
415.02	16130.97
415.22	16582.70
415.41	16943.14
415.60	17228.68
415.79	17933.18
415.98	18129.79
416.17	18207.03
416.36	17720.20
416.55	17895.74
416.74	16627.17
416.93	16388.43
417.12	16751.21
417.31	16847.18
417.50	17256.77
417.69	17652.32
417.88	17261.45
418.07	17366.78
418.26	17275.49
418.45	17486.14
418.64	18045.53
418.83	19068.34
419.02	18298.31
419.21	17799.77
419.39	17268.47
419.58	16336.94
419.77	16453.97
419.96	17706.15
420.15	18422.36
420.34	19405.38
420.53	19466.24
420.72	19971.79
420.91	19810.29
421.10	19234.52
421.29	19126.86
421.48	18948.98
421.67	19674.54
421.86	18600.24
422.05	17195.92
422.24	15693.29
422.43	16538.23
422.61	18420.02
422.80	18998.13
422.99	18354.48
423.18	17851.27
423.37	17865.31
423.56	18338.10
423.75	18412.99
423.94	19002.81
424.13	17603.17
424.32	17671.04
424.50	17624.23
424.69	17980.00
424.88	18082.98
425.07	18202.35
425.26	17657.00
425.45	17202.94
425.64	17254.43
425.83	17678.07
426.01	18553.43
426.20	18593.22
426.39	18284.26
426.58	16809.73
426.77	15775.21
426.96	15976.50
427.15	16498.44
427.33	17551.68
427.52	18181.28
427.71	18394.27
427.90	17987.02
428.09	17631.26
428.28	17046.12
428.46	16285.45
428.65	16217.57
428.84	17041.44
429.03	16875.26
429.22	16170.76
429.40	15005.17
429.59	13582.13
429.78	12100.57
429.97	12383.77
430.16	12561.66
430.34	12435.27
430.53	13088.28
430.72	13507.23
430.91	15363.28
431.10	17790.41
431.28	20238.61
431.47	21811.45
431.66	21488.46
431.85	18834.29
432.03	17504.87
432.22	17713.17
432.41	19096.43
432.60	20121.59
432.79	21128.02
432.97	21582.08
433.16	20716.08
433.35	18523.00
433.54	16601.42
433.72	16063.10
433.91	17319.96
434.10	19304.74
434.28	20460.96
434.47	21411.22
434.66	20292.44
434.85	20133.29
435.03	20587.35
435.22	20671.61
435.41	22008.06
435.59	21823.16
435.78	22080.61
435.97	22742.99
436.16	22693.83
436.34	22476.16
436.53	22183.60
436.72	22043.17
436.90	20978.22
437.09	20968.86
437.28	20685.65
437.46	21640.59
437.65	20575.65
437.84	18864.72
438.02	18506.62
438.21	18389.59
438.40	19126.86
438.58	20400.11
438.77	21221.64
438.96	21816.13
439.14	22604.89
439.33	23192.37
439.52	23250.88
439.70	22398.93
439.89	21633.57
440.08	21282.49
440.26	21589.10
440.45	22209.34
440.63	24175.39
440.82	25263.74
441.01	24460.94
441.19	24400.08
441.38	25078.84
441.57	25989.31
441.75	25907.39
441.94	26483.16
442.12	26162.51
442.31	26864.67
442.50	26628.27
442.68	26043.14
442.87	25579.71
443.05	25434.60
443.24	25944.84
443.43	26520.61
443.61	26740.62
443.80	27028.51
443.98	25902.71
444.17	25685.04
444.35	27101.06
444.54	27913.23
444.73	27161.92
444.91	25979.95
445.10	24332.21
445.28	23985.81
445.47	23913.25
445.65	24065.39
445.84	24900.96
446.02	25465.03
446.21	26111.02
446.39	25773.98
446.58	26160.17
446.77	26834.24
446.95	27157.24
447.14	27866.42
447.32	27950.68
447.51	27744.71
447.69	26572.10
447.88	26661.04
448.06	27082.34
448.25	27019.14
448.43	27164.26
448.62	27110.43
448.80	26689.13
448.99	26705.51
449.17	27208.73
449.36	27337.46
449.54	28336.87
449.73	28437.51
449.91	29174.78
450.10	29666.29
450.28	30347.39
450.46	30267.81
450.65	30263.13
450.83	29642.88
451.02	28868.17
451.20	28992.22
451.39	29130.31
451.57	29022.64
451.76	29130.31
451.94	28540.49
452.13	27651.09
452.31	26558.06
452.49	25216.93
452.68	25977.61
452.86	26122.72
453.05	26401.24
453.23	28084.09
453.42	28219.84
453.60	28872.85
453.78	28531.13
453.97	28360.27
454.15	28194.09
454.34	26962.97
454.52	26881.05
454.70	27229.79
454.89	27990.47
455.07	27887.48
455.26	28149.62
455.44	29298.83
455.62	29912.05
455.81	29411.17
455.99	29614.80
456.17	29940.13
456.36	30108.65
456.54	30611.87
456.73	29500.11
456.91	30511.22
457.09	30852.94
457.28	31658.09
457.46	30106.31
457.64	29766.93
457.83	28907.96
458.01	28788.59
458.19	29771.61
458.38	30389.52
458.56	30581.44
458.74	29930.77
458.93	30075.88
459.11	29319.89
459.29	29102.22
459.48	30134.40
459.66	29401.81
459.84	29699.06
460.03	30366.11
460.21	30630.59
460.39	31489.57
460.57	30764.00
460.76	31138.49
460.94	31124.44
461.12	31674.47
461.31	30984.01
461.49	31459.14
461.67	31379.56
461.85	31847.67
462.04	31873.42
462.22	32112.15
462.40	32224.50
462.59	30972.31
462.77	31564.46
462.95	31679.15
463.13	31344.45
463.32	31019.12
463.50	30628.25
463.68	31035.50
463.86	31363.18
464.05	30284.19
464.23	29970.56
464.41	30490.16
464.59	30052.48
464.78	31145.51
464.96	31000.40
465.14	30225.68
465.32	32119.17
465.50	32601.32
465.69	33324.55
465.87	31744.69
466.05	30824.86
466.23	29385.43
466.41	28868.17
466.60	30008.01
466.78	30230.36
466.96	30312.28
467.14	30855.28
467.32	31035.50
467.51	31124.44
467.69	29710.76
467.87	30459.73
468.05	30962.95
468.23	30525.27
468.41	30349.73
468.60	31250.83
468.78	31662.77
468.96	31220.41
469.14	31653.40
469.32	31894.48
469.50	30438.67
469.69	30216.32
469.87	30274.83
470.05	29984.60
470.23	30192.91
470.41	30183.55
470.59	30808.47
470.77	30450.37
470.95	31508.29
471.14	32332.16
471.32	32203.43
471.50	33830.10
471.68	33799.68
471.86	34548.65
472.04	33535.20
472.22	34108.63
472.40	32840.06
472.58	32753.46
472.77	32252.58
472.95	32568.55
473.13	33338.59
473.31	32367.27
473.49	32381.31
473.67	33104.54
473.85	33813.72
474.03	35267.19
474.21	35576.14
474.39	35571.46
474.57	35108.04
474.75	35484.86
474.93	34981.65
475.12	34389.49
475.30	34326.30
475.48	34115.65
475.66	33633.50
475.84	33261.35
476.02	33963.51
476.20	33813.72
476.38	34202.25
476.56	35136.12
476.74	36121.49
476.92	35697.85
477.10	36374.27
477.28	37146.64
477.46	37251.97
477.64	37764.54
477.82	37956.47
478.00	38281.80
478.18	37003.87
478.36	36605.98
478.54	37352.61
478.72	37876.89
478.90	39531.65
479.08	41081.08
479.26	40404.67
479.44	40627.02
479.62	39328.02
479.80	40589.57
479.98	40289.98
480.16	41078.74
480.34	39761.02
480.52	41380.67
480.70	41523.44
480.88	40608.29
481.06	41804.31
481.24	41808.99
481.41	42810.74
481.59	43632.27
481.77	42396.46
481.95	42209.22
482.13	41509.40
482.31	42674.99
482.49	43054.15
482.67	42445.62
482.85	42600.09
483.03	42997.98
483.21	44069.95
483.39	43358.42
483.57	42536.90
483.74	42871.59
483.92	44135.48
484.10	43571.41
484.28	43959.94
484.46	43590.14
484.64	45567.89
484.82	43880.36
485.00	43442.68
485.18	42841.17
485.35	40655.11
485.53	36084.04
485.71	34291.19
485.89	34478.43
486.07	36921.95
486.25	39908.47
486.43	42433.91
486.61	41904.95
486.78	42131.98
486.96	43494.18
487.14	44737.00
487.32	45460.23
487.50	46099.19
487.68	47580.75
487.85	48364.83
488.03	47365.42
488.21	46981.57
488.39	46733.48
488.57	45661.51
488.75	45483.63
488.92	47250.74
489.10	49389.98
489.28	50475.99
489.46	52215.01
489.64	51136.02
489.81	51634.56
489.99	50457.27
490.17	50838.78
490.35	51000.27
490.53	50234.92
490.70	49998.52
490.88	49895.54
491.06	51573.70
491.24	51447.32
491.41	50005.55
491.59	48320.36
491.77	48055.88
491.95	50101.51
492.13	51578.39
492.30	52247.78
492.48	52687.80
492.66	53305.70
492.84	52992.07
493.01	52310.97
493.19	52294.59
493.37	51987.98
493.54	52156.50
493.72	53272.93
493.90	53301.02
494.08	53947.01
494.25	54092.12
494.43	54578.95
494.61	54899.61
494.79	55208.56
494.96	55449.63
495.14	54850.45
495.32	53240.17
495.49	53858.07
495.67	54475.97
495.85	55569.00
496.02	56060.51
496.20	55611.13
496.38	55143.02
496.55	55246.00
496.73	56163.50
496.91	55917.74
497.09	56074.55
497.26	56037.11
497.44	55793.69
497.62	54813.01
497.79	53825.30
497.97	53247.19
498.14	54286.39
498.32	55334.95
498.50	55365.37
498.67	55363.03
498.85	55653.26
499.03	56217.33
499.20	56842.25
499.38	55980.93
499.56	55515.17
499.73	55070.46
499.91	54876.20
500.08	54307.45
500.26	53932.96
500.44	54803.64
500.61	55213.24
500.79	54848.11
500.97	55145.36
501.14	53916.58
501.32	53727.00
501.49	54239.57
501.67	54501.71
501.84	54791.94
502.02	55224.94
502.20	56030.08
502.37	56168.18
502.55	56378.82
502.72	56636.28
502.90	57076.30
503.07	56659.69
503.25	55384.10
503.43	54534.48
503.60	54253.62
503.78	54213.83
503.95	54354.26
504.13	56065.19
504.30	56165.84
504.48	55922.42
504.65	55962.21
504.83	56271.16
505.01	56725.22
505.18	57226.10
505.36	57308.02
505.53	57705.91
505.71	58014.86
505.88	57783.15
506.06	57226.10
506.23	56790.76
506.41	56954.60
506.58	57350.15
506.76	56994.39
506.93	56577.77
507.11	56287.54
507.28	56912.47
507.46	55884.97
507.63	55894.33
507.81	55075.15
507.98	56079.24
508.16	57083.33
508.33	57460.15
508.50	57455.47
508.68	57827.62
508.85	58059.33
509.03	58419.77
509.20	57640.37
509.38	56537.98
509.55	56313.29
509.73	56720.54
509.90	56823.53
510.08	57179.29
510.25	56671.39
510.42	56643.30
510.60	57411.00
510.77	57584.20
510.95	57539.73
511.12	57975.07
511.30	58351.90
511.47	58616.38
511.64	58700.64
511.82	58471.26
511.99	57361.85
512.17	57471.85
512.34	56767.35
512.51	56978.00
512.69	57354.83
512.86	57277.59
513.04	57476.54
513.21	56945.23
513.38	56013.70
513.56	55955.19
513.73	55435.59
513.90	55931.78
514.08	56062.85
514.25	56074.55
514.43	56296.91
514.60	56938.21
514.77	57020.13
514.95	57392.28
515.12	57113.75
515.29	57623.99
515.47	57916.56
515.64	57876.77
515.81	57324.40
515.99	56521.60
516.16	54494.69
516.33	52016.07
516.51	51779.67
516.68	50494.72
516.85	49579.57
517.03	51732.86
517.20	54291.07
517.37	56371.80
517.54	57523.35
517.72	55749.22
517.89	52893.77
518.06	51442.63
518.24	53095.05
518.41	54944.08
518.58	55580.70
518.75	55592.40
518.93	56009.02
519.10	55430.91
519.27	56535.64
519.45	56788.42
519.62	57343.12
519.79	57474.20
519.96	57099.71
520.14	56547.34
520.31	55466.02
520.48	56062.85
520.65	56495.85
520.83	57549.09
521.00	57565.48
521.17	56825.87
521.34	56921.83
521.52	57724.63
521.69	57731.65
521.86	58031.24
522.03	58204.44
522.20	56339.04
522.38	55786.67
522.55	56467.76
522.72	56963.96
522.89	56519.26
523.07	57097.37
523.24	57373.55
523.41	58773.19
523.58	58976.82
523.75	59128.95
523.92	58646.80
524.10	58092.10
524.27	58131.89
524.44	58122.52
524.61	57865.06
524.78	58127.20
524.96	58040.60
525.13	58073.37
525.30	58588.29
525.47	58607.01
525.64	58288.70
525.81	57726.97
525.98	55573.68
526.16	54693.64
526.33	54766.20
526.50	54068.72
526.67	54454.90
526.84	54710.02
527.01	55681.34
527.18	56257.12
527.36	57001.41
527.53	58176.36
527.70	57375.89
527.87	55910.72
528.04	57322.06
528.21	57846.34
528.38	58459.56
528.55	59124.27
528.72	58812.98
528.89	58539.14
529.07	58192.74
529.24	56959.28
529.41	56912.47
529.58	57127.80
529.75	57911.88
529.92	57946.98
530.09	58021.88
530.26	58295.72
530.43	59557.27
530.60	58384.66
530.77	58773.19
530.94	58901.92
531.11	58277.00
531.28	58536.80
531.46	58560.20
531.63	58417.43
531.80	57343.12
531.97	56921.83
532.14	57205.03
532.31	55896.67
532.48	55082.17
532.65	55447.29
532.82	56058.17
532.99	57708.25
533.16	58026.56
533.33	57829.96
533.50	58213.80
533.67	58162.31
533.84	57155.88
534.01	57586.54
534.18	58003.16
534.35	57570.16
534.52	57024.81
534.69	57593.56
534.86	58129.54
535.03	58244.23
535.20	58085.07
535.37	58997.88
535.54	59253.00
535.71	58827.02
535.88	59016.61
536.05	57794.85
536.22	57212.06
536.38	56877.36
536.55	55915.40
536.72	55765.60
536.89	56505.21
537.06	56715.86
537.23	57408.66
537.40	57930.60
537.57	57387.60
537.74	57914.22
537.91	57446.11
538.08	57270.57
538.25	57291.63
538.42	57911.88
538.59	57216.74
538.75	56390.53
538.92	56025.40
539.09	56406.91
539.26	56458.40
539.43	56367.12
539.60	56615.22
539.77	57113.75
539.94	56383.51
540.11	55955.19
540.28	55664.96
540.44	54976.84
540.61	55346.65
540.78	55650.92
540.95	56790.76
541.12	56676.07
541.29	57207.37
541.46	57396.96
541.62	57368.87
541.79	56528.62
541.96	55774.97
542.13	55854.54
542.30	56088.60
542.47	56842.25
542.63	56519.26
542.80	56074.55
542.97	55873.27
543.14	55751.56
543.31	55601.77
543.48	57162.90
543.64	57392.28
543.81	58560.20
543.98	57832.30
544.15	56425.64
544.32	57109.07
544.48	56811.82
544.65	56601.18
544.82	57230.78
544.99	55627.51
545.16	55157.06
545.32	55662.62
545.49	56500.53
545.66	56594.15
545.83	56486.49
546.00	57003.75
546.16	56919.49
546.33	56537.98
546.50	56676.07
546.67	57265.89
546.83	56074.55
547.00	56963.96
547.17	55625.17
547.34	54600.02
547.50	54951.10
547.67	56243.07
547.84	56757.99
548.00	56535.64
548.17	56470.11
548.34	56753.31
548.51	57066.94
548.67	57432.07
548.84	57219.08
549.01	57195.67
549.18	56357.76
549.34	56437.34
549.51	56746.29
549.68	56346.06
549.84	56032.42
550.01	55945.83
550.18	55320.90
550.34	55594.74
550.51	56212.65
550.68	56444.36
550.84	56346.06
551.01	55606.45
551.18	55241.32
551.34	54911.31
551.51	56385.85
551.68	55777.31
551.84	55903.70
552.01	56027.74
552.18	55576.02
552.34	54857.48
552.51	55047.06
552.68	54738.11
552.84	54930.03
553.01	54937.05
553.18	56285.20
553.34	56353.08
553.51	56168.18
553.67	55931.78
553.84	55295.16
554.01	56079.24
554.17	55580.70
554.34	55945.83
554.51	55852.20
554.67	55201.53
554.84	55196.85
555.00	55051.74
555.17	55302.18
555.33	55021.31
555.50	54312.13
555.67	55126.64
555.83	55161.75
556.00	55098.55
556.16	54429.16
556.33	54202.13
556.50	54738.11
556.66	54681.94
556.83	54653.85
556.99	53951.69
557.16	54380.01
557.32	54508.74
557.49	54710.02
557.65	53970.41
557.82	55121.96
557.98	55206.22
558.15	54021.90
558.32	52879.72
558.48	52191.61
558.65	52514.60
558.81	53303.36
558.98	53965.73
559.14	54307.45
559.31	53846.36
559.47	53326.77
559.64	52830.57
559.80	52596.52
559.97	53530.39
560.13	54724.07
560.30	55269.41
560.46	55856.88
560.63	56350.74
560.79	56130.73
560.96	54824.71
561.12	53769.13
561.29	52846.96
561.45	53244.85
561.61	54983.86
561.78	53972.75
561.94	54843.43
562.11	54543.84
562.27	53588.91
562.44	54192.76
562.60	54595.34
562.77	54693.64
562.93	53544.44
563.10	54068.72
563.26	53396.98
563.42	54660.87
563.59	53483.58
563.75	53546.78
563.92	53551.46
564.08	52905.47
564.24	53675.51
564.41	53509.33
564.57	54124.89
564.74	53586.57
564.90	52783.76
565.07	53045.90
565.23	52009.04
565.39	51522.21
565.56	51742.22
565.72	52437.36
565.88	50660.90
566.05	53240.17
566.21	54087.44
566.38	52903.13
566.54	53020.16
566.70	53621.67
566.87	53429.75
567.03	52720.57
567.19	53975.09
567.36	54576.61
567.52	53333.79
567.68	52694.82
567.85	51674.35
568.01	51187.52
568.17	52215.01
568.34	52706.52
568.50	52516.94
568.66	52884.40
568.83	51866.27
568.99	51398.16
569.15	51737.54
569.32	52046.49
569.48	51807.76
569.64	50843.46
569.81	51564.34
569.97	50934.74
570.13	50145.98
570.30	50103.85
570.46	49368.92
570.62	48678.46
570.78	48947.62
570.95	50117.89
571.11	49830.01
571.27	49584.25
571.43	49881.50
571.60	49270.62
571.76	51241.35
571.92	51372.42
572.09	51931.81
572.25	51957.55
572.41	52748.65
572.57	52549.71
572.74	52296.93
572.90	53162.93
573.06	52086.28
573.22	52303.95
573.38	52090.96
573.55	53525.71
573.71	52034.79
573.87	52313.31
574.03	51952.87
574.20	51611.15
574.36	51484.76
574.52	50358.97
574.68	50263.00
574.84	49818.30
575.01	49979.80
575.17	50508.76
575.33	50691.32
575.49	50803.67
575.65	49989.16
575.82	50361.31
575.98	49619.36
576.14	50506.42
576.30	51367.74
576.46	49640.42
576.62	50213.85
576.79	50232.58
576.95	49766.81
577.11	50550.89
577.27	50595.36
577.43	50445.57
577.59	49638.08
577.75	48205.67
577.92	48245.46
578.08	49034.22
578.24	49455.52
578.40	49600.63
578.56	49081.03
578.72	49317.43
578.88	48952.30
579.04	49165.29
579.21	48252.48
579.37	49265.94
579.53	49757.45
579.69	49125.50
579.85	48947.62
580.01	49453.18
580.17	48554.41
580.33	49682.55
580.49	49968.10
580.65	47882.68
580.82	48875.07
580.98	49687.23
581.14	49982.14
581.30	49818.30
581.46	48942.94
581.62	49282.32
581.78	50071.08
581.94	50178.75
582.10	50253.64
582.26	50536.85
582.42	50230.24
582.58	48215.04
582.74	48390.58
582.90	48971.03
583.06	48954.64
583.22	49521.05
583.38	49368.92
583.54	49598.29
583.70	50167.04
583.86	49184.02
584.02	49338.49
584.18	48793.15
584.34	48371.85
584.50	47782.04
584.66	47983.32
584.82	48275.89
584.98	48547.39
585.14	47971.62
585.30	47943.53
