SpectraSuite Data File
++++++++++++++++++++++++++++++++++++
Date: Mon Oct 07 14:55:02 GMT-05:00 2013
User: price-jones
Dark Spectrum Present: No
Reference Spectrum Present: No
Number of Sampled Component Spectra: 1
Spectrometers: USB2+H05261
Integration Time (usec): 10000 (USB2+H05261)
Spectra Averaged: 1 (USB2+H05261)
Boxcar Smoothing: 0 (USB2+H05261)
Correct for Electrical Dark: No (USB2+H05261)
Strobe/Lamp Enabled: No (USB2+H05261)
Correct for Detector Non-linearity: No (USB2+H05261)
Correct for Stray Light: No (USB2+H05261)
Number of Pixels in Processed Spectrum: 2048
>>>>>Begin Processed Spectral Data<<<<<
365.73	0.00
365.92	0.00
366.12	0.00
366.32	0.00
366.52	0.00
366.72	0.00
366.91	0.00
367.11	0.00
367.31	0.00
367.51	0.00
367.70	0.00
367.90	0.00
368.10	0.00
368.30	0.00
368.49	0.00
368.69	0.00
368.89	0.00
369.09	0.00
369.28	0.00
369.48	0.00
369.68	0.00
369.87	0.00
370.07	0.00
370.27	0.00
370.47	425.98
370.66	2562.89
370.86	3045.04
371.06	3176.11
371.25	3157.38
371.45	2899.92
371.65	2506.71
371.84	2499.69
372.04	2630.76
372.24	2839.07
372.44	3042.70
372.63	2937.37
372.83	2590.97
373.03	2373.30
373.22	2179.04
373.42	2546.50
373.62	2775.88
373.81	2970.14
374.01	2850.77
374.21	2532.46
374.40	2392.03
374.60	2558.21
374.79	3077.80
374.99	3456.97
375.19	3632.51
375.38	3513.14
375.58	3337.60
375.78	3421.86
375.97	3421.86
376.17	3524.85
376.37	3566.98
376.56	3695.71
376.76	4039.76
376.95	4100.62
377.15	4353.40
377.35	4603.83
377.54	4884.70
377.74	4929.17
377.93	4887.04
378.13	4596.81
378.33	4402.55
378.52	4140.41
378.72	3946.14
378.91	4021.04
379.11	3714.43
379.31	3688.68
379.50	3833.80
379.70	4201.26
379.89	4613.20
380.09	4709.16
380.28	4662.35
380.48	4706.82
380.68	4723.20
380.87	4521.92
381.07	4105.30
381.26	3833.80
381.46	3576.34
381.65	3438.25
381.85	3517.83
382.04	3187.81
382.24	3002.91
382.43	2979.50
382.63	2862.48
382.83	2855.45
383.02	2998.23
383.22	2946.73
383.41	3033.33
383.61	3201.85
383.80	3691.02
384.00	4248.07
384.19	4760.65
384.39	4966.62
384.58	4772.35
384.78	4610.86
384.97	4681.07
385.17	4301.90
385.36	4091.26
385.56	4053.81
385.75	4285.52
385.95	4786.40
386.14	4908.10
386.34	5053.22
386.53	4730.22
386.72	4428.29
386.92	4660.01
387.11	4823.84
387.31	5111.73
387.50	4894.06
387.70	4697.46
387.89	4734.90
388.09	4662.35
388.28	4835.55
388.48	5039.17
388.67	5371.53
388.86	5804.53
389.06	6291.36
389.25	6434.13
389.45	6429.45
389.64	6520.73
389.84	6396.68
390.03	6167.31
390.22	6384.98
390.42	6722.02
390.61	7180.76
390.81	7384.39
391.00	7499.08
391.19	7541.21
391.39	7307.15
391.58	6595.63
391.78	6347.53
391.97	6267.95
392.16	5785.80
392.36	5069.60
392.55	3967.21
392.75	3016.95
392.94	2764.17
393.13	2874.18
393.33	3555.27
393.52	4601.49
393.71	5376.21
393.91	6012.84
394.10	6530.09
394.29	7194.81
394.49	7829.09
394.68	7985.91
394.88	8124.00
395.07	8404.86
395.26	8226.98
395.46	8081.87
395.65	7473.33
395.84	6183.70
396.04	5273.23
396.23	4276.16
396.42	3597.40
396.62	3836.14
396.81	4580.43
397.00	6118.16
397.19	7243.96
397.39	8381.46
397.58	9582.15
397.77	9980.04
397.97	10265.59
398.16	10518.37
398.35	10789.87
398.55	11026.26
398.74	11375.00
398.93	11548.20
399.12	11250.96
399.32	10918.60
399.51	11342.24
399.70	12072.48
399.90	11714.38
400.09	11758.85
400.28	11662.89
400.47	12114.61
400.67	12585.06
400.86	12629.53
401.05	12776.98
401.24	12858.90
401.44	12978.27
401.63	13214.66
401.82	13240.41
402.01	12971.25
402.21	13422.97
402.40	13219.35
402.59	12830.82
402.78	12088.87
402.97	12201.21
403.17	13050.83
403.36	13682.77
403.55	13582.13
403.74	13996.40
403.93	13139.77
404.13	12191.85
404.32	12285.47
404.51	12996.99
404.70	13729.58
404.89	13841.93
405.09	13224.03
405.28	13116.36
405.47	13158.49
405.66	13043.81
405.85	12596.76
406.05	12400.16
406.24	12697.41
406.43	13413.61
406.62	13624.26
406.81	13781.07
407.00	13294.24
407.20	13062.53
407.39	12945.50
407.58	13738.94
407.77	14532.39
407.96	14764.10
408.15	14941.98
408.34	14939.64
408.54	15660.52
408.73	15499.03
408.92	15447.54
409.11	14651.75
409.30	13912.14
409.49	13149.13
409.68	12554.63
409.87	12369.73
410.07	13455.74
410.26	14183.65
410.45	14719.63
410.64	15412.43
410.83	15625.42
411.02	15859.47
411.21	16917.39
411.40	16638.87
411.59	16802.71
411.78	16549.93
411.98	16336.94
412.17	16709.08
412.36	16444.60
412.55	16350.98
412.74	15925.00
412.93	15793.94
413.12	16301.83
413.31	17647.64
413.50	17844.24
413.69	17692.11
413.88	17006.33
414.07	16624.83
414.26	17221.66
414.45	17469.76
414.64	17558.70
414.83	17659.34
415.02	17186.55
415.22	17322.30
415.41	17923.82
415.60	18424.70
415.79	19096.43
415.98	18869.40
416.17	19131.54
416.36	18637.69
416.55	18780.46
416.74	17666.36
416.93	17345.71
417.12	17476.78
417.31	17879.35
417.50	17792.75
417.69	18654.07
417.88	18429.38
418.07	18431.72
418.26	18211.71
418.45	18387.25
418.64	19527.09
418.83	19948.39
419.02	19246.23
419.21	18867.06
419.39	18197.67
419.58	17448.69
419.77	17881.69
419.96	18899.83
420.15	19864.13
420.34	20594.37
420.53	20425.86
420.72	21233.34
420.91	20875.24
421.10	20437.56
421.29	20276.06
421.48	19845.40
421.67	20559.27
421.86	19592.62
422.05	18235.11
422.24	16779.30
422.43	17453.37
422.61	19601.99
422.80	20381.38
422.99	19590.28
423.18	18764.07
423.37	18934.93
423.56	19274.31
423.75	19704.97
423.94	20175.42
424.13	18604.92
424.32	18902.17
424.50	18782.80
424.69	19157.28
424.88	19234.52
425.07	18834.29
425.26	19122.18
425.45	18204.69
425.64	18251.50
425.83	18829.61
426.01	19463.90
426.20	19747.10
426.39	19360.91
426.58	17689.77
426.77	16968.88
426.96	16786.32
427.15	17195.92
427.33	18848.33
427.52	19037.92
427.71	19517.73
427.90	18735.99
428.09	18796.84
428.28	18169.58
428.46	17317.62
428.65	17411.25
428.84	18251.50
429.03	17977.65
429.22	17193.58
429.40	15751.81
429.59	14331.10
429.78	12905.71
429.97	13198.28
430.16	13355.10
430.34	13074.23
430.53	13542.34
430.72	14305.35
430.91	16252.68
431.10	18848.33
431.28	21584.42
431.47	23232.16
431.66	22581.49
431.85	20102.86
432.03	18754.71
432.22	18803.86
432.41	20283.08
432.60	21420.58
432.79	22471.48
432.97	22579.15
433.16	21764.64
433.35	19473.26
433.54	17521.25
433.72	17151.45
433.91	18223.41
434.10	20547.56
434.28	21785.71
434.47	22448.08
434.66	21790.39
434.85	21252.06
435.03	21546.97
435.22	21661.66
435.41	22932.57
435.59	23211.09
435.78	23353.87
435.97	23765.80
436.16	24180.07
436.34	23501.32
436.53	23501.32
436.72	23564.51
436.90	21876.99
437.09	22522.98
437.28	22080.61
437.46	22986.40
437.65	21881.67
437.84	20159.03
438.02	19447.51
438.21	19520.07
438.40	20390.75
438.58	21802.09
438.77	22600.21
438.96	22881.08
439.14	23910.91
439.33	24332.21
439.52	24261.99
439.70	23599.62
439.89	23168.96
440.08	22412.97
440.26	22988.74
440.45	23531.75
440.63	25687.38
440.82	26518.27
441.01	25895.69
441.19	25792.70
441.38	26845.94
441.57	27817.27
441.75	27414.69
441.94	27995.15
442.12	27498.95
442.31	28727.74
442.50	27515.34
442.68	27204.05
442.87	27175.96
443.05	26892.76
443.24	27711.94
443.43	27974.08
443.61	28613.05
443.80	28758.16
443.98	27665.13
444.17	27091.70
444.35	28828.38
444.54	29542.24
444.73	28568.58
444.91	27117.45
445.10	26192.94
445.28	25582.06
445.47	25446.30
445.65	25790.36
445.84	26558.06
446.02	27309.37
446.21	27707.26
446.39	27278.94
446.58	27976.42
446.77	28669.22
446.95	28811.99
447.14	29518.84
447.32	29858.21
447.51	29254.36
447.69	28259.63
447.88	27985.79
448.06	28884.55
448.25	28779.23
448.43	28751.14
448.62	28481.98
448.80	28341.55
448.99	28187.07
449.17	29195.84
449.36	29366.70
449.54	29638.20
449.73	30471.43
449.91	30899.75
450.10	31552.76
450.28	31871.07
450.46	31971.72
450.65	32048.96
450.83	31257.85
451.02	30932.52
451.20	31033.16
451.39	30906.77
451.57	30904.43
451.76	30984.01
451.94	29942.47
452.13	29467.34
452.31	27810.25
452.49	27089.36
452.68	27725.99
452.86	28046.64
453.05	28510.07
453.23	29577.35
453.42	29614.80
453.60	30499.52
453.78	30164.82
453.97	30155.46
454.15	29986.94
454.34	28826.04
454.52	28807.31
454.70	29041.37
454.89	29486.07
455.07	29069.45
455.26	29977.58
455.44	30583.78
455.62	31569.15
455.81	31615.96
455.99	31152.53
456.17	31840.65
456.36	32376.63
456.54	32627.07
456.73	31929.59
456.91	32196.41
457.09	32739.41
457.28	34022.03
457.46	32158.96
457.64	31435.74
457.83	30838.90
458.01	30864.64
458.19	31978.74
458.38	32229.18
458.56	32891.55
458.74	32072.36
458.93	31557.44
459.11	31374.88
459.29	30976.99
459.48	31945.97
459.66	31161.89
459.84	31487.23
460.03	32158.96
460.21	32673.88
460.39	32921.98
460.57	32975.81
460.76	32882.19
460.94	33481.36
461.12	32964.10
461.31	33291.78
461.49	33687.33
461.67	33476.68
461.85	33804.36
462.04	33905.00
462.22	33656.90
462.40	33795.00
462.59	32996.87
462.77	33900.32
462.95	33670.95
463.13	33574.98
463.32	32774.52
463.50	32767.50
463.68	33287.10
463.86	33881.60
464.05	32341.52
464.23	31531.70
464.41	31950.65
464.59	31751.71
464.78	32999.21
464.96	32556.85
465.14	31779.79
465.32	33771.59
465.50	34813.13
465.69	34895.05
465.87	33720.10
466.05	33006.23
466.23	31323.39
466.41	30670.38
466.60	32154.28
466.78	31538.72
466.96	32074.70
467.14	33006.23
467.32	32720.69
467.51	32914.95
467.69	31611.28
467.87	32638.77
468.05	33053.05
468.23	33099.86
468.41	32545.15
468.60	32884.53
468.78	33544.56
468.96	33076.45
469.14	33481.36
469.32	33699.03
469.50	31807.88
469.69	32779.20
469.87	32266.63
470.05	31786.82
470.23	32081.72
470.41	32285.35
470.59	32713.67
470.77	32561.53
470.95	33525.83
471.14	33741.16
471.32	33993.94
471.50	35896.80
471.68	35756.36
471.86	36037.23
472.04	35758.70
472.22	36046.59
472.40	34672.70
472.58	34298.21
472.77	34244.38
472.95	34712.49
473.13	35683.81
473.31	34017.35
473.49	34274.80
473.67	35339.75
473.85	36098.08
474.03	36816.63
474.21	37909.66
474.39	37092.81
474.57	37383.04
474.75	37443.89
474.93	37139.62
475.12	36315.75
475.30	36397.67
475.48	35505.93
475.66	36133.19
475.84	35569.12
476.02	35842.96
476.20	35456.78
476.38	36187.02
476.56	37464.96
476.74	37797.31
476.92	38232.65
477.10	38382.45
477.28	39428.66
477.46	39337.38
477.64	40142.53
477.82	40535.74
478.00	40842.35
478.18	39215.68
478.36	38761.61
478.54	39335.04
478.72	39917.84
478.90	42033.68
479.08	42962.87
479.26	42548.60
479.44	43072.88
479.62	42122.62
479.80	42838.83
479.98	42707.76
480.16	43756.32
480.34	42394.12
480.52	43203.95
480.70	43742.27
480.88	43648.65
481.06	44432.73
481.24	44004.41
481.41	45326.81
481.59	46333.24
481.77	44395.28
481.95	44430.39
482.13	43695.46
482.31	44884.45
482.49	45570.23
482.67	44823.60
482.85	45233.19
483.03	45294.05
483.21	46447.93
483.39	45638.11
483.57	45055.31
483.74	45605.34
483.92	46469.00
484.10	46000.89
484.28	45998.55
484.46	46054.72
484.64	47779.70
484.82	46513.47
485.00	45911.95
485.18	45448.52
485.35	42965.21
485.53	38085.20
485.71	36467.89
485.89	36971.10
486.07	39587.82
486.25	42176.45
486.43	44488.90
486.61	44580.18
486.78	44311.02
486.96	45928.33
487.14	47512.88
487.32	47529.26
487.50	48584.84
487.68	50150.66
487.85	50829.41
488.03	49563.18
488.21	49389.98
488.39	49116.14
488.57	47997.37
488.75	48034.81
488.92	49790.22
489.10	51765.63
489.28	52390.55
489.46	53684.87
489.64	53418.05
489.81	53595.93
489.99	52175.22
490.17	52978.03
490.35	53137.18
490.53	52711.20
490.70	52076.92
490.88	51856.91
491.06	53478.90
491.24	53476.56
491.41	52198.63
491.59	50773.24
491.77	50958.14
491.95	52079.26
492.13	53588.91
492.30	53799.55
492.48	54822.37
492.66	55035.36
492.84	54838.75
493.01	54286.39
493.19	54342.56
493.37	53897.86
493.54	54305.11
493.72	55222.60
493.90	55618.15
494.08	55877.95
494.25	55903.70
494.43	56275.84
494.61	56772.03
494.79	56809.48
494.96	57165.24
495.14	56619.90
495.32	55302.18
495.49	55629.85
495.67	56362.44
495.85	57333.76
496.02	57733.99
496.20	57226.10
496.38	56996.73
496.55	57062.26
496.73	57666.12
496.91	57586.54
497.09	57588.88
497.26	57813.57
497.44	57588.88
497.62	56598.83
497.79	55679.00
497.97	55075.15
498.14	55852.20
498.32	57127.80
498.50	56999.07
498.67	57160.56
498.85	57207.37
499.03	57970.39
499.20	58279.34
499.38	57640.37
499.56	57336.10
499.73	56985.02
499.91	56598.83
500.08	56072.21
500.26	55435.59
500.44	56460.74
500.61	56903.10
500.79	56760.33
500.97	56655.01
501.14	55749.22
501.32	55700.07
501.49	55791.35
501.67	56226.69
501.84	56425.64
502.02	56985.02
502.20	57752.72
502.37	57600.58
502.55	57867.40
502.72	58438.50
502.90	58761.49
503.07	58473.60
503.25	57308.02
503.43	56360.10
503.60	56065.19
503.78	55973.91
503.95	56119.02
504.13	57701.23
504.30	57982.09
504.48	57626.33
504.65	57958.69
504.83	57801.87
505.01	58623.40
505.18	58749.79
505.36	58922.99
505.53	59402.80
505.71	59360.67
505.88	59442.59
506.06	58827.02
506.23	58651.48
506.41	58576.59
506.58	59040.01
506.76	59058.74
506.93	58096.78
507.11	58103.80
507.28	58286.36
507.46	57607.61
507.63	57521.01
507.81	56978.00
507.98	57731.65
508.16	58820.00
508.33	58794.26
508.50	58983.84
508.68	59241.30
508.85	59707.07
509.03	59852.18
509.20	59047.04
509.38	58026.56
509.55	58103.80
509.73	58363.60
509.90	58791.92
510.08	58993.20
510.25	58372.96
510.42	58323.81
510.60	59037.67
510.77	59215.55
510.95	59103.21
511.12	59597.06
511.30	60114.32
511.47	60331.99
511.64	60135.38
511.82	60102.62
511.99	58997.88
512.17	59199.17
512.34	58347.21
512.51	58632.76
512.69	59208.53
512.86	58876.18
513.04	59068.10
513.21	58660.85
513.38	57647.39
513.56	57733.99
513.73	57183.97
513.90	57865.06
514.08	57954.00
514.25	57635.69
514.43	58166.99
514.60	58637.44
514.77	58705.32
514.95	58817.66
515.12	58630.42
515.29	59480.03
515.47	59828.77
515.64	59194.49
515.81	59093.85
515.99	58185.72
516.16	56219.67
516.33	54293.41
516.51	54113.19
516.68	52568.43
516.85	51889.68
517.03	54138.93
517.20	56259.46
517.37	58213.80
517.54	59147.68
517.72	57556.11
517.89	54581.29
518.06	53406.34
518.24	54637.47
518.41	56526.28
518.58	57425.04
518.75	57293.97
518.93	57481.22
519.10	57006.09
519.27	58141.25
519.45	58525.10
519.62	58976.82
519.79	59126.61
519.96	58660.85
520.14	58232.53
520.31	57076.30
520.48	57469.51
520.65	58251.25
520.83	59372.37
521.00	59274.07
521.17	58536.80
521.34	58899.58
521.52	59143.00
521.69	59355.99
521.86	59784.30
522.03	59641.53
522.20	58138.91
522.38	57710.59
522.55	58234.87
522.72	58820.00
522.89	58202.10
523.07	59061.08
523.24	59121.93
523.41	60224.32
523.58	60502.85
523.75	60533.28
523.92	60210.28
524.10	59817.07
524.27	59634.51
524.44	59674.30
524.61	59487.06
524.78	59805.37
524.96	59611.10
525.13	59788.98
525.30	60261.77
525.47	60343.69
525.64	59976.23
525.81	59316.20
525.98	57387.60
526.16	56458.40
526.33	56514.58
526.50	55868.59
526.67	55969.23
526.84	56533.30
527.01	57134.82
527.18	57951.66
527.36	58960.44
527.53	59704.73
527.70	59110.23
527.87	57733.99
528.04	58927.67
528.21	59608.76
528.38	60009.00
528.55	60626.90
528.72	60556.68
528.89	59849.84
529.07	59873.24
529.24	58805.96
529.41	58550.84
529.58	58459.56
529.75	59405.14
529.92	59604.08
530.09	59660.26
530.26	60254.75
530.43	61202.67
530.60	59980.91
530.77	60537.96
530.94	60734.56
531.11	59903.67
531.28	60114.32
531.46	60329.65
531.63	59915.37
531.80	59407.48
531.97	58770.85
532.14	59021.29
532.31	57689.52
532.48	56692.46
532.65	57279.93
532.82	57755.06
532.99	59180.45
533.16	59718.77
533.33	59353.65
533.50	59709.41
533.67	59793.67
533.84	59030.65
534.01	59187.47
534.18	59854.52
534.35	59079.80
534.52	58433.81
534.69	59334.92
534.86	59826.43
535.03	59882.61
535.20	59573.66
535.37	60481.78
535.54	60889.04
535.71	60732.22
535.88	60839.89
536.05	59405.14
536.22	58906.60
536.38	58735.74
536.55	57719.95
536.72	57628.67
536.89	58159.97
537.06	58433.81
537.23	59096.19
537.40	59128.95
537.57	58817.66
537.74	59290.45
537.91	59306.83
538.08	58965.12
538.25	58738.08
538.42	59772.60
538.59	59271.73
538.75	58174.02
538.92	57766.76
539.09	57942.30
539.26	57961.03
539.43	58014.86
539.60	58272.32
539.77	58642.12
539.94	58115.50
540.11	57591.22
540.28	57305.68
540.44	56849.27
540.61	56837.57
540.78	57504.62
540.95	58295.72
541.12	58337.85
541.29	58801.28
541.46	58946.39
541.62	59023.63
541.79	58333.17
541.96	57605.26
542.13	57918.90
542.30	57918.90
542.47	58323.81
542.63	58237.21
542.80	58213.80
542.97	57813.57
543.14	57509.30
543.31	57591.22
543.48	58553.18
543.64	59105.55
543.81	60081.55
543.98	59784.30
544.15	58145.93
544.32	58759.15
544.48	58323.81
544.65	58342.53
544.82	58775.53
544.99	57567.82
545.16	57083.33
545.32	57408.66
545.49	58340.19
545.66	58379.98
545.83	58085.07
546.00	58733.40
546.16	58681.91
546.33	58351.90
546.50	58494.67
546.67	59025.97
546.83	58049.97
547.00	58857.45
547.17	57469.51
547.34	56594.15
547.50	57006.09
547.67	57893.15
547.84	58508.71
548.00	58499.35
548.17	58305.09
548.34	58365.94
548.51	58670.21
548.67	58941.71
548.84	58738.08
549.01	58665.53
549.18	58145.93
549.34	58328.49
549.51	58218.49
549.68	58475.94
549.84	58099.12
550.01	57490.58
550.18	57226.10
550.34	57286.95
550.51	57982.09
550.68	58302.74
550.84	58092.10
551.01	57338.44
551.18	57069.28
551.34	56860.97
551.51	58071.03
551.68	57939.96
551.84	57930.60
552.01	57865.06
552.18	57448.45
552.34	56891.40
552.51	56844.59
552.68	56617.56
552.84	56849.27
553.01	56942.89
553.18	58052.31
553.34	58007.84
553.51	58000.82
553.67	57600.58
553.84	57221.42
554.01	57851.02
554.17	57256.53
554.34	57619.31
554.51	57696.55
554.67	56910.13
554.84	57111.41
555.00	56830.55
555.17	56968.64
555.33	56486.49
555.50	56236.05
555.67	56992.04
555.83	57008.43
556.00	56530.96
556.16	56554.36
556.33	55931.78
556.50	56839.91
556.66	56547.34
556.83	56657.35
556.99	55884.97
557.16	56287.54
557.32	56107.32
557.49	56069.87
557.65	56088.60
557.82	56811.82
557.98	56968.64
558.15	56051.15
558.32	55084.51
558.48	54309.79
558.65	54475.97
558.81	55194.51
558.98	55994.98
559.14	56231.37
559.31	55777.31
559.47	55337.29
559.64	55044.72
559.80	54745.13
559.97	55423.89
560.13	56332.01
560.30	57158.22
560.46	57481.22
560.63	57893.15
560.79	57736.34
560.96	56907.79
561.12	55833.48
561.29	55168.77
561.45	55068.12
561.61	56921.83
561.78	55922.42
561.94	56493.51
562.11	56453.72
562.27	55636.87
562.44	56339.04
562.60	56619.90
562.77	56816.50
562.93	55583.04
563.10	55716.45
563.26	55557.30
563.42	56278.18
563.59	55372.39
563.75	55475.38
563.92	55498.78
564.08	54796.62
564.24	55681.34
564.41	55274.09
564.57	56126.05
564.74	55533.89
564.90	55054.08
565.07	55018.97
565.23	54281.70
565.39	53757.42
565.56	54281.70
565.72	54424.48
565.88	52954.62
566.05	55215.58
566.21	56004.34
566.38	55075.15
566.54	55360.69
566.70	55594.74
566.87	55348.99
567.03	54915.99
567.19	55966.89
567.36	56488.83
567.52	54911.31
567.68	54375.33
567.85	53769.13
568.01	53769.13
568.17	54167.02
568.34	54782.58
568.50	54550.87
568.66	54630.44
568.83	53556.14
568.99	53577.20
569.15	53811.26
569.32	54124.89
569.48	53970.41
569.64	53439.11
569.81	53467.20
569.97	53132.50
570.13	52877.38
570.30	52467.79
570.46	51824.14
570.62	51028.36
570.78	51620.52
570.95	52147.14
571.11	52252.46
571.27	51849.89
571.43	52238.42
571.60	51973.94
571.76	53385.28
571.92	53565.50
572.09	54021.90
572.25	54227.87
572.41	54649.17
572.57	54255.96
572.74	54695.98
572.90	55435.59
573.06	54480.65
573.22	54134.25
573.38	54262.98
573.55	55334.95
573.71	53844.02
573.87	54433.84
574.03	54033.61
574.20	53858.07
574.36	53944.67
574.52	52961.64
574.68	52622.26
574.84	52074.58
575.01	52175.22
575.17	52713.55
575.33	52467.79
575.49	52856.32
575.65	52168.20
575.82	52598.86
575.98	52135.43
576.14	53022.50
576.30	53495.28
576.46	52250.12
576.62	52575.45
576.79	52168.20
576.95	52346.08
577.11	52786.10
577.27	52516.94
577.43	53052.92
577.59	52233.74
577.75	50782.60
577.92	50784.94
578.08	51126.66
578.24	52175.22
578.40	51707.12
578.56	51260.07
578.72	51702.43
578.88	51416.89
579.04	51274.12
579.21	51140.71
579.37	51550.30
579.53	51863.93
579.69	51110.28
579.85	51299.86
580.01	51161.77
580.17	51079.85
580.33	52041.81
580.49	52191.61
580.65	50461.95
580.82	51222.62
580.98	52067.56
581.14	52320.34
581.30	51999.68
581.46	51285.82
581.62	51999.68
581.78	52446.72
581.94	52409.28
582.10	52189.27
582.26	52559.07
582.42	52355.44
582.58	51327.95
582.74	51091.55
582.90	51220.28
583.06	51498.81
583.22	51826.48
583.38	51810.10
583.54	52027.77
583.70	52168.20
583.86	51777.33
584.02	51510.51
584.18	51454.34
584.34	50733.45
584.50	50239.60
584.66	50377.69
584.82	51185.18
584.98	50887.93
585.14	50361.31
585.30	50590.68
