SpectraSuite Data File
++++++++++++++++++++++++++++++++++++
Date: Mon Oct 07 14:53:47 GMT-05:00 2013
User: price-jones
Dark Spectrum Present: No
Reference Spectrum Present: No
Number of Sampled Component Spectra: 1
Spectrometers: USB2+H05261
Integration Time (usec): 100000 (USB2+H05261)
Spectra Averaged: 1 (USB2+H05261)
Boxcar Smoothing: 0 (USB2+H05261)
Correct for Electrical Dark: No (USB2+H05261)
Strobe/Lamp Enabled: No (USB2+H05261)
Correct for Detector Non-linearity: No (USB2+H05261)
Correct for Stray Light: No (USB2+H05261)
Number of Pixels in Processed Spectrum: 2048
>>>>>Begin Processed Spectral Data<<<<<
365.73	0.00
365.92	0.00
366.12	0.00
366.32	0.00
366.52	0.00
366.72	0.00
366.91	0.00
367.11	0.00
367.31	0.00
367.51	0.00
367.70	0.00
367.90	0.00
368.10	0.00
368.30	0.00
368.49	0.00
368.69	0.00
368.89	0.00
369.09	0.00
369.28	0.00
369.48	0.00
369.68	0.00
369.87	0.00
370.07	0.00
370.27	0.00
370.47	601.52
370.66	3185.47
370.86	3557.61
371.06	4011.68
371.25	4191.90
371.45	3723.79
371.65	3316.54
371.84	3143.34
372.04	3276.75
372.24	3590.38
372.44	3861.88
372.63	3866.56
372.83	3503.78
373.03	3094.19
373.22	2920.99
373.42	3056.74
373.62	3510.80
373.81	3826.78
374.01	3695.71
374.21	3384.41
374.40	3110.57
374.60	3222.92
374.79	3700.39
374.99	4428.29
375.19	4758.31
375.38	4725.54
375.58	4313.61
375.78	4409.57
375.97	4250.41
376.17	4535.96
376.37	4486.81
376.56	4709.16
376.76	4950.23
376.95	5294.29
377.15	5556.43
377.35	5720.27
377.54	5989.43
377.74	6207.10
377.93	6176.67
378.13	6012.84
378.33	5846.66
378.52	5472.17
378.72	5088.32
378.91	5071.94
379.11	4884.70
379.31	4699.80
379.50	4648.30
379.70	4933.85
379.89	5682.82
380.09	5863.04
380.28	6331.15
380.48	6139.23
380.68	5909.85
380.87	6052.63
381.07	5462.81
381.26	5048.54
381.46	4723.20
381.65	4641.28
381.85	4435.32
382.04	4219.99
382.24	3880.61
382.43	3735.50
382.63	3646.55
382.83	3709.75
383.02	3669.96
383.22	3758.90
383.41	3634.85
383.61	4023.38
383.80	4402.55
384.00	5041.51
384.19	5657.07
384.39	6040.92
384.58	6061.99
384.78	5956.66
384.97	5923.90
385.17	5575.16
385.36	5310.68
385.56	4971.30
385.75	5191.31
385.95	5628.99
386.14	6251.57
386.34	6258.59
386.53	5959.00
386.72	5570.48
386.92	5650.05
387.11	5867.72
387.31	6291.36
387.50	6069.01
387.70	5872.40
387.89	5898.15
388.09	5865.38
388.28	5853.68
388.48	6061.99
388.67	6417.75
388.86	7197.15
389.06	7606.74
389.25	8077.19
389.45	8124.00
389.64	7997.61
389.84	7875.90
390.03	7815.05
390.22	7992.93
390.42	8056.12
390.61	8835.52
390.81	9181.92
391.00	9432.36
391.19	9437.04
391.39	9095.32
391.58	8365.07
391.78	7868.88
391.97	7906.33
392.16	7365.67
392.36	6649.46
392.55	5273.23
392.75	4138.07
392.94	3459.31
393.13	3396.12
393.33	3962.53
393.52	5114.07
393.71	6450.52
393.91	7023.95
394.10	7852.50
394.29	8402.52
394.49	9027.45
394.68	9668.75
394.88	9858.34
395.07	10293.68
395.26	9970.68
395.46	9635.99
395.65	9472.15
395.84	8105.28
396.04	6796.92
396.23	5575.16
396.42	4830.87
396.62	4645.96
396.81	5149.18
397.00	6754.79
397.19	8257.41
397.39	9942.60
397.58	11037.97
397.77	11929.71
397.97	12458.67
398.16	12554.63
398.35	13006.36
398.55	13366.80
398.74	13902.78
398.93	14157.90
399.12	13783.41
399.32	13420.63
399.51	13738.94
399.70	14469.19
399.90	14721.97
400.09	14445.79
400.28	14305.35
400.47	14611.96
400.67	15173.69
400.86	15658.18
401.05	15667.55
401.24	15393.70
401.44	15882.88
401.63	15920.32
401.82	16039.69
402.01	15819.68
402.21	15971.82
402.40	16095.86
402.59	15913.30
402.78	14927.94
402.97	14738.35
403.17	14960.70
403.36	16107.57
403.55	16552.27
403.74	16779.30
403.93	16030.33
404.13	14846.02
404.32	14661.12
404.51	15166.67
404.70	16460.99
404.89	16505.46
405.09	16205.87
405.28	15950.75
405.47	15815.00
405.66	15810.32
405.85	15178.37
406.05	14993.47
406.24	14972.41
406.43	15747.12
406.62	16524.18
406.81	16500.78
407.00	15889.90
407.20	15328.17
407.39	15594.99
407.58	16358.00
407.77	16994.63
407.96	17741.26
408.15	17549.34
408.34	17432.31
408.54	18579.17
408.73	18621.30
408.92	18497.25
409.11	17987.02
409.30	17027.40
409.49	15953.09
409.68	15190.08
409.87	14537.07
410.07	15468.60
410.26	16566.31
410.45	17652.32
410.64	18214.05
410.83	18675.13
411.02	19026.21
411.21	19758.80
411.40	19618.37
411.59	19733.06
411.78	19726.04
411.98	19318.78
412.17	20046.69
412.36	19433.47
412.55	19342.19
412.74	19047.28
412.93	18363.84
413.12	18317.03
413.31	20339.26
413.50	20460.96
413.69	21319.94
413.88	20271.38
414.07	19587.94
414.26	19693.27
414.45	20741.83
414.64	20570.97
414.83	20648.21
415.02	20559.27
415.22	20262.02
415.41	20875.24
415.60	21467.39
415.79	22176.58
415.98	22967.68
416.17	22897.46
416.36	22052.53
416.55	21818.47
416.74	21200.57
416.93	20484.37
417.12	20898.64
417.31	21053.12
417.50	21270.79
417.69	21783.37
417.88	21954.22
418.07	21715.49
418.26	21172.49
418.45	21481.44
418.64	22288.92
418.83	23215.77
419.02	22417.65
419.21	22583.83
419.39	21724.85
419.58	20201.16
419.77	20535.86
419.96	21490.80
420.15	22284.24
420.34	23393.65
420.53	24299.44
420.72	24233.91
420.91	24655.20
421.10	24208.16
421.29	24011.56
421.48	23475.57
421.67	24444.56
421.86	23503.66
422.05	21884.01
422.24	19730.72
422.43	19276.65
422.61	21481.44
422.80	23477.91
422.99	23061.30
423.18	22497.23
423.37	21827.84
423.56	22197.64
423.75	22265.52
423.94	22904.48
424.13	21612.51
424.32	22003.38
424.50	22024.44
424.69	21624.21
424.88	21727.19
425.07	21853.58
425.26	21701.45
425.45	21544.63
425.64	21034.39
425.83	21050.78
426.01	22178.92
426.20	22848.31
426.39	22909.16
426.58	20952.48
426.77	19847.74
426.96	18677.48
427.15	19269.63
427.33	21172.49
427.52	21886.35
427.71	22113.38
427.90	21549.31
428.09	21577.40
428.28	21027.37
428.46	20510.11
428.65	19861.79
428.84	20250.32
429.03	20999.29
429.22	19829.02
429.40	19140.90
429.59	17144.42
429.78	14944.32
429.97	15016.88
430.16	15353.91
430.34	15337.53
430.53	15117.52
430.72	15454.56
430.91	17249.75
431.10	20437.56
431.28	23583.24
431.47	26017.40
431.66	26473.80
431.85	24020.92
432.03	21879.33
432.22	21392.50
432.41	21706.13
432.60	24374.34
432.79	25261.40
432.97	25816.11
433.16	25118.63
433.35	23487.28
433.54	20741.83
433.72	19349.21
433.91	19929.66
434.10	22628.30
434.28	23814.95
434.47	25525.88
434.66	25205.23
434.85	24107.52
435.03	23903.89
435.22	24828.40
435.41	26361.45
435.59	26356.77
435.78	26682.11
435.97	27386.61
436.16	27508.32
436.34	26977.01
436.53	26717.22
436.72	26890.41
436.90	25242.68
437.09	24940.75
437.28	24606.05
437.46	25413.54
437.65	25759.94
437.84	24053.69
438.02	22122.74
438.21	21788.05
438.40	22888.10
438.58	24826.06
438.77	25427.58
438.96	25462.69
439.14	27166.60
439.33	27475.55
439.52	27913.23
439.70	27498.95
439.89	26391.88
440.08	25907.39
440.26	25743.55
440.45	26773.39
440.63	28545.17
440.82	29881.62
441.01	29811.40
441.19	29387.77
441.38	29502.45
441.57	30679.74
441.75	31384.24
441.94	31384.24
442.12	31288.28
442.31	31707.24
442.50	31351.48
442.68	31524.68
442.87	30677.40
443.05	30415.26
443.24	31016.78
443.43	31550.42
443.61	32168.32
443.80	32655.15
443.98	30876.35
444.17	30501.86
444.35	32620.05
444.54	33090.49
444.73	32739.41
444.91	31154.87
445.10	30054.82
445.28	29090.52
445.47	28231.54
445.65	28851.78
445.84	29509.47
446.02	30228.02
446.21	30920.82
446.39	30913.80
446.58	31587.87
446.77	31761.07
446.95	32418.76
447.14	33092.83
447.32	33638.18
447.51	32847.08
447.69	31770.43
447.88	31068.27
448.06	31646.38
448.25	32563.87
448.43	32716.01
448.62	31405.31
448.80	31601.91
448.99	32297.05
449.17	32624.73
449.36	31915.54
449.54	33359.66
449.73	34218.63
449.91	34574.39
450.10	35445.07
450.28	35601.89
450.46	35622.95
450.65	35487.20
450.83	35065.91
451.02	34419.92
451.20	34424.60
451.39	34209.27
451.57	34227.99
451.76	34309.91
451.94	34256.08
452.13	33305.82
452.31	31786.82
452.49	30387.18
452.68	30635.27
452.86	30850.60
453.05	31381.90
453.23	32596.64
453.42	32751.12
453.60	33469.66
453.78	33921.38
453.97	33429.87
454.15	33699.03
454.34	32875.16
454.52	33378.38
454.70	32531.11
454.89	32732.39
455.07	33113.90
455.26	33670.95
455.44	34796.74
455.62	35168.89
455.81	35234.42
455.99	34892.71
456.17	34969.94
456.36	34623.54
456.54	36290.01
456.73	35847.64
456.91	36498.31
457.09	36568.53
457.28	37277.71
457.46	35681.47
457.64	35550.40
457.83	34593.12
458.01	33963.51
458.19	34483.11
458.38	34998.03
458.56	36208.09
458.74	35915.52
458.93	35386.56
459.11	34991.01
459.29	34817.81
459.48	35023.78
459.66	34939.52
459.84	35299.96
460.03	35583.16
460.21	35782.11
460.39	36315.75
460.57	36224.47
460.76	36966.42
460.94	37008.55
461.12	36676.19
461.31	36720.66
461.49	36519.38
461.67	36512.36
461.85	37869.87
462.04	37266.01
462.22	37673.26
462.40	37439.21
462.59	37455.59
462.77	37457.93
462.95	37441.55
463.13	36879.82
463.32	37015.57
463.50	36830.67
463.68	36521.72
463.86	36493.63
464.05	36449.16
464.23	35566.78
464.41	35262.51
464.59	34911.43
464.78	36554.49
464.96	36357.88
465.14	35887.43
465.32	36767.48
465.50	37399.42
465.69	37993.92
465.87	37167.71
466.05	35999.78
466.23	35077.61
466.41	34038.41
466.60	34845.90
466.78	34862.28
466.96	35339.75
467.14	35629.98
467.32	36601.30
467.51	36664.49
467.69	35005.05
467.87	35435.71
468.05	36435.12
468.23	35936.59
468.41	36538.10
468.60	36430.44
468.78	36662.15
468.96	36203.41
469.14	37095.15
469.32	37207.50
469.50	35505.93
469.69	35945.95
469.87	35309.32
470.05	35185.27
470.23	35166.55
470.41	35440.39
470.59	35353.79
470.77	35887.43
470.95	36397.67
471.14	37361.97
471.32	37256.65
471.50	39321.00
471.68	39405.26
471.86	39468.45
472.04	39732.93
472.22	40098.06
472.40	38075.84
472.58	37380.70
472.77	37415.80
472.95	37710.71
473.13	39168.87
473.31	38068.81
473.49	38330.95
473.67	38742.89
473.85	39239.08
474.03	39971.67
474.21	40254.87
474.39	40439.78
474.57	40856.39
474.75	40924.27
474.93	40488.93
475.12	39388.88
475.30	39344.41
475.48	39629.95
475.66	40327.43
475.84	39856.98
476.02	39402.92
476.20	38983.96
476.38	39608.89
476.56	40744.05
476.74	41530.47
476.92	41785.58
477.10	42232.63
477.28	43035.43
477.46	43452.05
477.64	43812.49
477.82	44201.02
478.00	44210.38
478.18	43356.08
478.36	43274.16
478.54	43208.63
478.72	43557.37
478.90	44414.01
479.08	45408.73
479.26	45930.67
479.44	46394.10
479.62	45755.13
479.80	45574.91
479.98	46174.09
480.16	46080.47
480.34	45736.41
480.52	46117.92
480.70	46223.24
480.88	46286.43
481.06	47297.55
481.24	47676.71
481.41	47943.53
481.59	48821.23
481.77	48371.85
481.95	47948.21
482.13	47615.86
482.31	48020.77
482.49	48610.59
482.67	48119.07
482.85	48697.19
483.03	49612.34
483.21	49801.92
483.39	49588.93
483.57	48931.24
483.74	48893.79
483.92	48877.41
484.10	48729.95
484.28	49701.28
484.46	50358.97
484.64	50534.51
484.82	49471.90
485.00	49745.75
485.18	48549.73
485.35	47330.31
485.53	44479.54
485.71	40961.72
485.89	39571.44
486.07	41900.27
486.25	45397.03
486.43	48231.42
486.61	48828.26
486.78	48444.41
486.96	48650.38
487.14	50284.07
487.32	50820.05
487.50	51868.61
487.68	52636.31
487.85	53076.33
488.03	52978.03
488.21	52753.33
488.39	52261.82
488.57	51271.78
488.75	50880.91
488.92	52339.06
489.10	54178.72
489.28	55035.36
489.46	55767.94
489.64	55639.22
489.81	55824.12
489.99	55599.43
490.17	55473.04
490.35	55899.01
490.53	55339.63
490.70	55363.03
490.88	54848.11
491.06	55945.83
491.24	55573.68
491.41	55014.29
491.59	53455.50
491.77	52589.50
491.95	53909.56
492.13	54721.72
492.30	56095.62
492.48	56959.28
492.66	57221.42
492.84	57022.47
493.01	57001.41
493.19	56406.91
493.37	56196.26
493.54	55899.01
493.72	56385.85
493.90	57303.34
494.08	58106.14
494.25	58258.27
494.43	58511.05
494.61	58946.39
494.79	59000.22
494.96	58618.72
495.14	58141.25
495.32	57195.67
495.49	56788.42
495.67	57731.65
495.85	58995.54
496.02	59470.67
496.20	59089.16
496.38	58728.72
496.55	58658.51
496.73	59119.59
496.91	59157.04
497.09	59704.73
497.26	59868.56
497.44	59372.37
497.62	59105.55
497.79	58117.84
497.97	57151.20
498.14	57401.64
498.32	58122.52
498.50	59147.68
498.67	59662.60
498.85	59512.80
499.03	59573.66
499.20	59863.88
499.38	59901.33
499.56	59779.62
499.73	59299.81
499.91	58859.79
500.08	58492.33
500.26	57663.78
500.44	58260.62
500.61	59021.29
500.79	58798.94
500.97	58401.05
501.14	58145.93
501.32	57876.77
501.49	58188.06
501.67	58232.53
501.84	58768.51
502.02	58962.78
502.20	59285.77
502.37	59470.67
502.55	59522.16
502.72	59980.91
502.90	60514.55
503.07	60135.38
503.25	59824.09
503.43	59096.19
503.60	58555.52
503.78	57546.75
503.95	58237.21
504.13	59484.72
504.30	60245.39
504.48	60074.53
504.65	59821.75
504.83	59744.51
505.01	60224.32
505.18	60547.32
505.36	61254.16
505.53	61188.63
505.71	61310.33
505.88	61413.32
506.06	61010.74
506.23	60788.39
506.41	60243.05
506.58	60528.59
506.76	60498.17
506.93	60479.44
507.11	60250.07
507.28	60317.95
507.46	59751.54
507.63	59353.65
507.81	59292.79
507.98	59475.35
508.16	59943.46
508.33	60568.38
508.50	60940.53
508.68	61043.51
508.85	61436.72
509.03	61567.79
509.20	61408.64
509.38	60830.52
509.55	60191.56
509.73	60114.32
509.90	60762.65
510.08	60977.98
510.25	60767.33
510.42	60570.72
510.60	60587.11
510.77	60671.37
510.95	61265.86
511.12	61546.73
511.30	61769.08
511.47	61977.39
511.64	61902.49
511.82	61528.00
511.99	60973.30
512.17	60666.69
512.34	60158.79
512.51	60425.61
512.69	60303.90
512.86	60601.15
513.04	61076.28
513.21	61048.19
513.38	60615.19
513.56	60109.64
513.73	59662.60
513.90	59800.69
514.08	59676.64
514.25	60158.79
514.43	60357.74
514.60	60514.55
514.77	60715.84
514.95	60690.09
515.12	60493.49
515.29	60701.79
515.47	61265.86
515.64	61378.21
515.81	61083.30
515.99	60355.39
516.16	59309.18
516.33	57228.44
516.51	55819.44
516.68	55124.30
516.85	54803.64
517.03	55264.73
517.20	57396.96
517.37	59887.29
517.54	60722.86
517.72	60238.37
517.89	58218.49
518.06	55728.16
518.24	55777.31
518.41	58155.29
518.58	59365.35
518.75	59716.43
518.93	59723.45
519.10	59683.66
519.27	60151.77
519.45	60369.44
519.62	60989.68
519.79	61137.13
519.96	60912.44
520.14	60631.58
520.31	59751.54
520.48	59863.88
520.65	60001.97
520.83	60940.53
521.00	61387.57
521.17	61099.68
521.34	60926.49
521.52	60907.76
521.69	61399.27
521.86	61949.30
522.03	61518.64
522.20	60533.28
522.38	59482.37
522.55	59229.60
522.72	59978.57
522.89	60289.86
523.07	60310.92
523.24	60697.11
523.41	61401.61
523.58	61757.38
523.75	62120.16
523.92	61918.87
524.10	61783.12
524.27	62047.60
524.44	61600.56
524.61	61560.77
524.78	61640.35
524.96	61528.00
525.13	61406.30
525.30	61591.20
525.47	62190.37
525.64	62148.24
525.81	61235.44
525.98	60219.64
526.16	58604.67
526.33	57958.69
526.50	57593.56
526.67	57490.58
526.84	57946.98
527.01	59025.97
527.18	59695.36
527.36	60463.06
527.53	61352.46
527.70	61516.30
527.87	61043.51
528.04	60460.72
528.21	61003.72
528.38	61656.73
528.55	62124.84
528.72	62368.26
528.89	62501.67
529.07	62300.38
529.24	61726.95
529.41	61097.34
529.58	60652.64
529.75	60676.05
529.92	60947.55
530.09	61350.12
530.26	61832.27
530.43	62223.14
530.60	62136.54
530.77	62358.89
530.94	62487.62
531.11	61958.66
531.28	61530.34
531.46	61382.89
531.63	61588.86
531.80	61443.74
531.97	61312.67
532.14	60718.18
532.31	59568.97
532.48	59007.25
532.65	59061.08
532.82	59650.89
532.99	60739.24
533.16	61090.32
533.33	61724.61
533.50	61453.11
533.67	60690.09
533.84	60470.08
534.01	60603.49
534.18	60917.12
534.35	61043.51
534.52	60926.49
534.69	61120.75
534.86	61326.72
535.03	61506.94
535.20	62190.37
535.37	62576.56
535.54	62464.22
535.71	62246.55
535.88	61937.60
536.05	61350.12
536.22	60790.73
536.38	60701.79
536.55	60030.06
536.72	59842.82
536.89	59568.97
537.06	60432.63
537.23	61102.03
537.40	61439.06
537.57	61427.36
537.74	61141.81
537.91	61148.84
538.08	60966.27
538.25	61242.46
538.42	61520.98
538.59	61230.75
538.75	60568.38
538.92	60271.14
539.09	60362.42
539.26	59821.75
539.43	60030.06
539.60	59980.91
539.77	60018.36
539.94	60111.98
540.11	59323.22
540.28	58803.62
540.44	58773.19
540.61	59112.57
540.78	59395.77
540.95	59746.86
541.12	60055.81
541.29	60261.77
541.46	60654.98
541.62	60601.15
541.79	60535.62
541.96	60009.00
542.13	60261.77
542.30	60147.09
542.47	60395.18
542.63	60069.85
542.80	59980.91
542.97	60093.25
543.14	60130.70
543.31	60039.42
543.48	60465.40
543.64	61385.23
543.81	61499.92
543.98	61200.33
544.15	60736.90
544.32	59980.91
544.48	60154.11
544.65	60643.28
544.82	61085.64
544.99	60673.71
545.16	60381.14
545.32	60086.23
545.49	60786.05
545.66	61071.60
545.83	60865.63
546.00	60657.32
546.16	60053.47
546.33	60353.05
546.50	60140.07
546.67	60718.18
546.83	60383.48
547.00	60336.67
547.17	59643.87
547.34	59161.72
547.50	59133.63
547.67	59568.97
547.84	59419.18
548.00	59952.82
548.17	60254.75
548.34	60299.22
548.51	60142.41
548.67	60313.26
548.84	60324.97
549.01	60198.58
549.18	59962.18
549.34	60163.47
549.51	60165.81
549.68	60023.04
549.84	60039.42
550.01	59660.26
550.18	59517.48
550.34	59756.22
550.51	59788.98
550.68	59868.56
550.84	59412.16
551.01	59543.23
551.18	59442.59
551.34	59482.37
551.51	60051.12
551.68	60135.38
551.84	60474.76
552.01	59906.01
552.18	60186.88
552.34	59220.23
552.51	58941.71
552.68	58822.34
552.84	59393.43
553.01	59484.72
553.18	59529.19
553.34	59784.30
553.51	59653.23
553.67	59884.95
553.84	60027.72
554.01	59962.18
554.17	59618.13
554.34	59678.98
554.51	59957.50
554.67	60259.43
554.84	59980.91
555.00	59777.28
555.17	59578.34
555.33	59386.41
555.50	59501.10
555.67	59465.99
555.83	59271.73
556.00	59040.01
556.16	59014.27
556.33	58658.51
556.50	58560.20
556.66	58361.26
556.83	58471.26
556.99	58326.15
557.16	58438.50
557.32	58845.75
557.49	58990.86
557.65	58841.07
557.82	58864.47
557.98	58824.68
558.15	58394.03
558.32	57586.54
558.48	56889.06
558.65	56924.17
558.81	57368.87
558.98	57666.12
559.14	58014.86
559.31	57858.04
559.47	58171.67
559.64	57647.39
559.80	57256.53
559.97	57310.36
560.13	57759.74
560.30	58724.04
560.46	59288.11
560.63	59288.11
560.79	59241.30
560.96	58920.65
561.12	57836.98
561.29	57165.24
561.45	57127.80
561.61	57593.56
561.78	58082.73
561.94	57872.09
562.11	58085.07
562.27	57607.61
562.44	57942.30
562.60	58202.10
562.77	58475.94
562.93	58541.48
563.10	58241.89
563.26	57741.02
563.42	57846.34
563.59	57469.51
563.75	57663.78
563.92	57755.06
564.08	57478.88
564.24	57862.72
564.41	57858.04
564.57	57860.38
564.74	57663.78
564.90	57474.20
565.07	57448.45
565.23	57078.64
565.39	56591.81
565.56	56317.97
565.72	56151.79
565.88	56596.49
566.05	56542.66
566.21	57020.13
566.38	57118.43
566.54	57078.64
566.70	57333.76
566.87	57567.82
567.03	57715.27
567.19	57839.32
567.36	57406.32
567.52	57298.65
567.68	57340.78
567.85	56596.49
568.01	56046.47
568.17	55896.67
568.34	56018.38
568.50	56058.17
568.66	55901.36
568.83	56385.85
568.99	56385.85
569.15	56556.70
569.32	56449.04
569.48	56268.82
569.64	56317.97
569.81	56039.45
569.97	55835.82
570.13	55751.56
570.30	55409.84
570.46	54843.43
570.62	54541.50
570.78	54216.17
570.95	54487.67
571.11	55386.44
571.27	55381.76
571.43	55917.74
571.60	55824.12
571.76	55915.40
571.92	56486.49
572.09	56446.70
572.25	56603.52
572.41	56463.08
572.57	56175.20
572.74	56177.54
572.90	55994.98
573.06	56016.04
573.22	56200.94
573.38	56025.40
573.55	55831.14
573.71	56189.24
573.87	56058.17
574.03	55789.01
574.20	55969.23
574.36	55569.00
574.52	55400.48
574.68	55033.02
574.84	54813.01
575.01	54560.23
575.17	54361.28
575.33	54621.08
575.49	54691.30
575.65	54873.86
575.82	54808.32
575.98	54705.34
576.14	54782.58
576.30	55086.85
576.46	55444.95
576.62	55002.59
576.79	55056.42
576.95	54817.69
577.11	54597.68
577.27	54693.64
577.43	54932.37
577.59	54602.36
577.75	54234.89
577.92	53656.78
578.08	53329.11
578.24	53357.19
578.40	53834.66
578.56	53837.00
578.72	53914.24
578.88	53991.48
579.04	54459.58
579.21	54412.77
579.37	54415.11
579.53	54611.72
579.69	54426.82
579.85	54513.42
580.01	54443.20
580.17	53883.81
580.33	54106.16
580.49	54129.57
580.65	54176.38
580.82	54298.09
580.98	54365.96
581.14	54319.15
581.30	54475.97
581.46	54045.31
581.62	54815.35
581.78	54813.01
581.94	54747.47
582.10	54473.63
582.26	54312.13
582.42	54651.51
582.58	54703.00
582.74	54504.06
582.90	54600.02
583.06	54787.26
583.22	54356.60
583.38	54068.72
583.54	54312.13
583.70	53928.28
583.86	54471.29
584.02	54003.18
584.18	54232.55
584.34	53911.90
584.50	54176.38
584.66	53745.72
584.82	53778.49
584.98	53450.81
585.14	53188.67
