SpectraSuite Data File
++++++++++++++++++++++++++++++++++++
Date: Mon Oct 07 14:54:59 GMT-05:00 2013
User: price-jones
Dark Spectrum Present: No
Reference Spectrum Present: No
Number of Sampled Component Spectra: 1
Spectrometers: USB2+H05261
Integration Time (usec): 10000 (USB2+H05261)
Spectra Averaged: 1 (USB2+H05261)
Boxcar Smoothing: 0 (USB2+H05261)
Correct for Electrical Dark: No (USB2+H05261)
Strobe/Lamp Enabled: No (USB2+H05261)
Correct for Detector Non-linearity: No (USB2+H05261)
Correct for Stray Light: No (USB2+H05261)
Number of Pixels in Processed Spectrum: 2048
>>>>>Begin Processed Spectral Data<<<<<
365.73	0.00
365.92	0.00
366.12	0.00
366.32	0.00
366.52	0.00
366.72	0.00
366.91	0.00
367.11	0.00
367.31	0.00
367.51	0.00
367.70	0.00
367.90	0.00
368.10	0.00
368.30	0.00
368.49	0.00
368.69	0.00
368.89	0.00
369.09	0.00
369.28	0.00
369.48	0.00
369.68	0.00
369.87	0.00
370.07	0.00
370.27	0.00
370.47	0.00
370.66	334.70
370.86	568.75
371.06	631.94
371.25	608.54
371.45	587.47
371.65	531.30
371.84	479.81
372.04	428.32
372.24	606.20
372.44	554.71
372.63	521.94
372.83	318.31
373.03	461.09
373.22	358.10
373.42	454.06
373.62	437.68
373.81	631.94
374.01	545.34
374.21	374.49
374.40	440.02
374.60	465.77
374.79	540.66
374.99	681.10
375.19	718.54
375.38	734.93
375.58	664.71
375.78	702.16
375.97	671.73
376.17	765.36
376.37	662.37
376.56	709.18
376.76	765.36
376.95	866.00
377.15	952.60
377.35	919.83
377.54	1027.50
377.74	997.07
377.93	1025.15
378.13	954.94
378.33	889.40
378.52	760.67
378.72	786.42
378.91	709.18
379.11	676.41
379.31	781.74
379.50	711.52
379.70	898.77
379.89	802.80
380.09	929.19
380.28	1025.15
380.48	1001.75
380.68	933.87
380.87	833.23
381.07	844.93
381.26	753.65
381.46	627.26
381.65	613.22
381.85	638.97
382.04	587.47
382.24	493.85
382.43	526.62
382.63	407.25
382.83	496.19
383.02	479.81
383.22	526.62
383.41	517.26
383.61	550.03
383.80	540.66
384.00	774.72
384.19	940.90
384.39	966.64
384.58	910.47
384.78	896.43
384.97	870.68
385.17	903.45
385.36	739.61
385.56	753.65
385.75	807.48
385.95	868.34
386.14	1001.75
386.34	957.28
386.53	816.85
386.72	711.52
386.92	781.74
387.11	896.43
387.31	922.17
387.50	954.94
387.70	823.87
387.89	858.98
388.09	882.38
388.28	842.59
388.48	994.73
388.67	976.00
388.86	1121.12
389.06	1203.04
389.25	1207.72
389.45	1284.95
389.64	1123.46
389.84	1242.82
390.03	1224.10
390.22	1121.12
390.42	1308.36
390.61	1322.40
390.81	1329.42
391.00	1441.77
391.19	1423.05
391.39	1359.85
391.58	1259.21
391.78	1167.93
391.97	1090.69
392.16	1046.22
392.36	875.36
392.55	599.18
392.75	479.81
392.94	351.08
393.13	351.08
393.33	568.75
393.52	699.82
393.71	858.98
393.91	1090.69
394.10	1188.99
394.29	1249.85
394.49	1437.09
394.68	1500.28
394.88	1509.65
395.07	1500.28
395.26	1544.75
395.46	1446.45
395.65	1371.55
395.84	1104.73
396.04	938.55
396.23	744.29
396.42	540.66
396.62	552.37
396.81	713.86
397.00	997.07
397.19	1289.64
397.39	1561.14
397.58	1774.13
397.77	1856.04
397.97	1767.10
398.16	1827.96
398.35	1881.79
398.55	2094.78
398.74	1977.75
398.93	2078.40
399.12	2143.93
399.32	2045.63
399.51	2125.21
399.70	2064.35
399.90	2080.74
400.09	2071.37
400.28	2087.76
400.47	2176.70
400.67	2272.66
400.86	2286.70
401.05	2312.45
401.24	2314.79
401.44	2401.39
401.63	2354.58
401.82	2434.16
402.01	2296.07
402.21	2293.72
402.40	2530.12
402.59	2317.13
402.78	2162.66
402.97	2010.52
403.17	2157.97
403.36	2361.60
403.55	2373.30
403.74	2429.48
403.93	2333.51
404.13	2040.95
404.32	2174.36
404.51	2230.53
404.70	2422.45
404.89	2471.61
405.09	2319.47
405.28	2197.76
405.47	2235.21
405.66	2260.96
405.85	2214.15
406.05	2059.67
406.24	2197.76
406.43	2172.02
406.62	2202.44
406.81	2352.24
407.00	2328.83
407.20	2218.83
407.39	2260.96
407.58	2389.69
407.77	2352.24
407.96	2380.32
408.15	2525.44
408.34	2551.18
408.54	2621.40
408.73	2520.76
408.92	2607.36
409.11	2408.41
409.30	2275.00
409.49	2335.85
409.68	2172.02
409.87	2071.37
410.07	2200.10
410.26	2345.22
410.45	2532.46
410.64	2525.44
410.83	2686.94
411.02	2778.22
411.21	2782.90
411.40	2710.34
411.59	2675.23
411.78	2705.66
411.98	2635.44
412.17	2782.90
412.36	2658.85
412.55	2722.04
412.74	2499.69
412.93	2476.29
413.12	2581.61
413.31	2881.20
413.50	2909.29
413.69	2843.75
413.88	2689.28
414.07	2597.99
414.26	2773.53
414.45	2766.51
414.64	2883.54
414.83	2860.13
415.02	2745.45
415.22	2757.15
415.41	2839.07
415.60	2937.37
415.79	3124.62
415.98	3171.43
416.17	3056.74
416.36	3077.80
416.55	2951.42
416.74	2841.41
416.93	2743.11
417.12	2722.04
417.31	2740.77
417.50	2785.24
417.69	2885.88
417.88	2974.82
418.07	2848.43
418.26	2808.64
418.45	2839.07
418.64	2803.96
418.83	3007.59
419.02	2951.42
419.21	3014.61
419.39	2815.66
419.58	2855.45
419.77	2768.85
419.96	2862.48
420.15	2939.71
420.34	2998.23
420.53	3159.72
420.72	3199.51
420.91	3227.60
421.10	3187.81
421.29	3096.53
421.48	3047.38
421.67	3152.70
421.86	3019.29
422.05	2789.92
422.24	2511.39
422.43	2511.39
422.61	2700.98
422.80	3056.74
422.99	2897.58
423.18	2813.32
423.37	2796.94
423.56	2843.75
423.75	2942.05
423.94	2897.58
424.13	2815.66
424.32	2810.98
424.50	2822.69
424.69	2696.30
424.88	2672.89
425.07	2768.85
425.26	2640.12
425.45	2530.12
425.64	2656.51
425.83	2740.77
426.01	2860.13
426.20	2860.13
426.39	2782.90
426.58	2602.68
426.77	2359.26
426.96	2328.83
427.15	2438.84
427.33	2654.17
427.52	2724.38
427.71	2759.49
427.90	2668.21
428.09	2757.15
428.28	2705.66
428.46	2567.57
428.65	2286.70
428.84	2509.05
429.03	2513.74
429.22	2471.61
429.40	2249.25
429.59	1982.43
429.78	1767.10
429.97	1806.89
430.16	1764.76
430.34	1724.97
430.53	1771.79
430.72	1926.26
430.91	2043.29
431.10	2558.21
431.28	3038.02
431.47	3204.19
431.66	3260.37
431.85	2897.58
432.03	2623.74
432.22	2689.28
432.41	2614.38
432.60	3021.63
432.79	3082.49
432.97	3110.57
433.16	3019.29
433.35	2684.59
433.54	2452.88
433.72	2408.41
433.91	2422.45
434.10	2640.12
434.28	2759.49
434.47	2923.33
434.66	2916.31
434.85	2925.67
435.03	2920.99
435.22	3012.27
435.41	3138.66
435.59	3068.44
435.78	3251.00
435.97	3288.45
436.16	3225.26
436.34	3311.86
436.53	3080.14
436.72	3265.05
436.90	3026.31
437.09	3033.33
437.28	2841.41
437.46	3019.29
437.65	2960.78
437.84	2785.24
438.02	2513.74
438.21	2544.16
438.40	2630.76
438.58	2871.84
438.77	2876.52
438.96	3049.72
439.14	3101.21
439.33	3164.40
439.52	3213.56
439.70	3096.53
439.89	3096.53
440.08	2937.37
440.26	3080.14
440.45	3187.81
440.63	3379.73
440.82	3527.19
441.01	3349.31
441.19	3267.39
441.38	3478.04
441.57	3536.55
441.75	3595.06
441.94	3566.98
442.12	3585.70
442.31	3768.26
442.50	3744.86
442.68	3552.93
442.87	3463.99
443.05	3466.33
443.24	3517.83
443.43	3585.70
443.61	3646.55
443.80	3742.52
443.98	3576.34
444.17	3602.08
444.35	3639.53
444.54	3768.26
444.73	3630.17
444.91	3475.70
445.10	3274.41
445.28	3258.03
445.47	3066.10
445.65	3150.36
445.84	3222.92
446.02	3524.85
446.21	3529.53
446.39	3480.38
446.58	3487.40
446.77	3618.47
446.95	3679.32
447.14	3676.98
447.32	3801.03
447.51	3716.77
447.69	3478.04
447.88	3599.74
448.06	3604.42
448.25	3543.57
448.43	3676.98
448.62	3515.48
448.80	3583.36
448.99	3569.32
449.17	3606.77
449.36	3672.30
449.54	3676.98
449.73	3819.75
449.91	3836.14
450.10	3962.53
450.28	4011.68
450.46	3822.09
450.65	3840.82
450.83	3892.31
451.02	3889.97
451.20	3889.97
451.39	3812.73
451.57	3691.02
451.76	3632.51
451.94	3726.13
452.13	3686.34
452.31	3461.65
452.49	3248.66
452.68	3253.34
452.86	3281.43
453.05	3543.57
453.23	3538.89
453.42	3623.15
453.60	3791.67
453.78	3639.53
453.97	3492.08
454.15	3763.58
454.34	3632.51
454.52	3506.12
454.70	3480.38
454.89	3447.61
455.07	3508.46
455.26	3487.40
455.44	3702.73
455.62	3836.14
455.81	3782.31
455.99	3810.39
456.17	3571.66
456.36	3665.28
456.54	3833.80
456.73	3808.05
456.91	3854.86
457.09	3885.29
457.28	3978.91
457.46	3878.27
457.64	3955.51
457.83	3737.84
458.01	3487.40
458.19	3545.91
458.38	3681.66
458.56	3873.59
458.74	3681.66
458.93	3817.41
459.11	3695.71
459.29	3679.32
459.48	3620.81
459.66	3599.74
459.84	3763.58
460.03	3735.50
460.21	3702.73
460.39	3939.12
460.57	3896.99
460.76	3983.59
460.94	3939.12
461.12	3861.88
461.31	3758.90
461.49	3829.12
461.67	3805.71
461.85	3892.31
462.04	3915.72
462.22	3861.88
462.40	3824.44
462.59	3765.92
462.77	3854.86
462.95	3915.72
463.13	3852.52
463.32	3878.27
463.50	3669.96
463.68	3847.84
463.86	3791.67
464.05	3768.26
464.23	3576.34
464.41	3604.42
464.59	3541.23
464.78	3777.62
464.96	3726.13
465.14	3789.33
465.32	3611.45
465.50	3957.85
465.69	3810.39
465.87	3911.04
466.05	3833.80
466.23	3433.57
466.41	3445.27
466.60	3431.23
466.78	3515.48
466.96	3660.60
467.14	3728.47
467.32	3822.09
467.51	3733.15
467.69	3414.84
467.87	3442.93
468.05	3667.62
468.23	3627.83
468.41	3571.66
468.60	3599.74
468.78	3641.87
468.96	3655.92
469.14	3822.09
469.32	3875.93
469.50	3478.04
469.69	3480.38
469.87	3538.89
470.05	3459.31
470.23	3522.51
470.41	3520.17
470.59	3482.72
470.77	3639.53
470.95	3712.09
471.14	3749.54
471.32	3655.92
471.50	3913.38
471.68	3843.16
471.86	3904.01
472.04	3969.55
472.22	4002.32
472.40	3686.34
472.58	3859.54
472.77	3794.01
472.95	3887.63
473.13	3786.99
473.31	3758.90
473.49	3808.05
473.67	3838.48
473.85	3873.59
474.03	4037.42
474.21	4077.21
474.39	3962.53
474.57	4023.38
474.75	4032.74
474.93	4056.15
475.12	3992.95
475.30	3803.37
475.48	4011.68
475.66	4053.81
475.84	4004.66
476.02	3936.78
476.20	3808.05
476.38	3911.04
476.56	3953.16
476.74	4142.75
476.92	4056.15
477.10	4121.68
477.28	4229.35
477.46	4269.14
477.64	4250.41
477.82	4222.33
478.00	4362.76
478.18	4290.20
478.36	4215.30
478.54	4273.82
478.72	4177.86
478.90	4397.87
479.08	4566.39
479.26	4671.71
479.44	4402.55
479.62	4671.71
479.80	4451.70
479.98	4407.23
480.16	4545.32
480.34	4528.94
480.52	4631.92
480.70	4671.71
480.88	4641.28
481.06	4624.90
481.24	4711.50
481.41	4919.81
481.59	5018.11
481.77	4777.03
481.95	4683.41
482.13	4557.02
482.31	4514.89
482.49	4968.96
482.67	4725.54
482.85	4898.74
483.03	4952.57
483.21	5018.11
483.39	4882.36
483.57	4863.63
483.74	4854.27
483.92	4873.00
484.10	4758.31
484.28	5018.11
484.46	4931.51
484.64	5130.45
484.82	4858.95
485.00	4826.18
485.18	4725.54
485.35	4606.17
485.53	4273.82
485.71	3784.65
485.89	3885.29
486.07	3957.85
486.25	4402.55
486.43	4507.87
486.61	4765.33
486.78	4781.71
486.96	4683.41
487.14	5027.47
487.32	5004.07
487.50	5252.16
487.68	5329.40
487.85	5500.26
488.03	5378.55
488.21	5301.31
488.39	5217.05
488.57	5015.77
488.75	5032.15
488.92	5179.61
489.10	5689.84
489.28	5746.02
489.46	6008.16
489.64	6010.50
489.81	6033.90
489.99	6012.84
490.17	5788.14
490.35	5905.17
490.53	5802.19
490.70	5748.36
490.88	5633.67
491.06	6019.86
491.24	5905.17
491.41	5631.33
491.59	5270.89
491.77	5275.57
491.95	5636.01
492.13	5542.39
492.30	5912.19
492.48	6148.59
492.66	6148.59
492.84	6338.17
493.01	6129.86
493.19	6162.63
493.37	5886.45
493.54	5764.74
493.72	5970.71
493.90	6101.78
494.08	6331.15
494.25	6635.42
494.43	6494.99
494.61	6492.65
494.79	6614.35
494.96	6562.86
495.14	6431.79
495.32	6047.94
495.49	6129.86
495.67	6183.70
495.85	6628.40
496.02	6600.31
496.20	6604.99
496.38	6548.82
496.55	6392.00
496.73	6492.65
496.91	6464.56
497.09	6801.60
497.26	6827.34
497.44	6612.01
497.62	6502.01
497.79	6403.71
497.97	6164.97
498.14	6155.61
498.32	6312.42
498.50	6436.47
498.67	6600.31
498.85	6600.31
499.03	6530.09
499.20	6930.33
499.38	6665.85
499.56	6722.02
499.73	6492.65
499.91	6504.35
500.08	6356.90
500.26	6188.38
500.44	6230.51
500.61	6427.11
500.79	6321.79
500.97	6438.81
501.14	6237.53
501.32	6218.80
501.49	6209.44
501.67	6417.75
501.84	6319.45
502.02	6527.75
502.20	6637.76
502.37	6626.06
502.55	6604.99
502.72	6927.99
502.90	6698.61
503.07	6768.83
503.25	6551.16
503.43	6403.71
503.60	6211.78
503.78	5956.66
503.95	6097.10
504.13	6342.85
504.30	6757.13
504.48	6616.69
504.65	6628.40
504.83	6612.01
505.01	6846.07
505.18	6970.12
505.36	7117.57
505.53	7035.65
505.71	7000.54
505.88	6965.43
506.06	6977.14
506.23	6853.09
506.41	6726.70
506.58	6963.09
506.76	6719.68
506.93	6604.99
507.11	6609.67
507.28	6717.34
507.46	6595.63
507.63	6333.49
507.81	6497.33
507.98	6459.88
508.16	6829.68
508.33	6986.50
508.50	6995.86
508.68	7005.22
508.85	7136.29
509.03	6974.80
509.20	6977.14
509.38	6839.05
509.55	6576.91
509.73	6588.61
509.90	6806.28
510.08	6733.72
510.25	6745.42
510.42	6586.27
510.60	6677.55
510.77	6808.62
510.95	6960.75
511.12	6923.30
511.30	6998.20
511.47	7225.23
511.64	7075.44
511.82	7178.42
511.99	6860.11
512.17	6619.04
512.34	6628.40
512.51	6644.78
512.69	6399.02
512.86	6523.07
513.04	6808.62
513.21	6665.85
513.38	6546.48
513.56	6429.45
513.73	6448.18
513.90	6520.73
514.08	6483.28
514.25	6539.46
514.43	6590.95
514.60	6719.68
514.77	6771.17
514.95	6686.91
515.12	6817.98
515.29	6731.38
515.47	6836.70
515.64	6834.36
515.81	6785.21
515.99	6478.60
516.16	6162.63
516.33	5795.17
516.51	5392.59
516.68	5322.38
516.85	5186.63
517.03	5423.02
517.20	5865.38
517.37	6356.90
517.54	6647.12
517.72	6562.86
517.89	5921.56
518.06	5252.16
518.24	5514.30
518.41	5893.47
518.58	5987.09
518.75	6335.83
518.93	6361.58
519.10	6363.92
519.27	6555.84
519.45	6532.44
519.62	6691.59
519.79	6722.02
519.96	6614.35
520.14	6567.54
520.31	6424.77
520.48	6328.81
520.65	6380.30
520.83	6740.74
521.00	6719.68
521.17	6700.95
521.34	6583.93
521.52	6590.95
521.69	6895.22
521.86	6808.62
522.03	6944.37
522.20	6548.82
522.38	6230.51
522.55	6326.47
522.72	6293.70
522.89	6443.49
523.07	6651.80
523.24	6558.18
523.41	6782.87
523.58	6717.34
523.75	6836.70
523.92	6750.10
524.10	7033.31
524.27	6853.09
524.44	6789.89
524.61	6682.23
524.78	6906.92
524.96	6806.28
525.13	6541.80
525.30	6740.74
525.47	6752.45
525.64	6815.64
525.81	6616.69
525.98	6181.35
526.16	5902.83
526.33	5900.49
526.50	5762.40
526.67	5633.67
526.84	5912.19
527.01	6148.59
527.18	6228.17
527.36	6413.07
527.53	6651.80
527.70	6429.45
527.87	6600.31
528.04	6387.32
528.21	6520.73
528.38	6829.68
528.55	6808.62
528.72	6904.58
528.89	6920.96
529.07	6876.49
529.24	6715.00
529.41	6422.43
529.58	6314.77
529.75	6387.32
529.92	6551.16
530.09	6640.10
530.26	6642.44
530.43	6827.34
530.60	6916.28
530.77	7000.54
530.94	6899.90
531.11	6925.65
531.28	6878.83
531.46	6724.36
531.63	6722.02
531.80	6476.26
531.97	6527.75
532.14	6345.19
532.31	6214.12
532.48	5912.19
532.65	5970.71
532.82	6230.51
532.99	6502.01
533.16	6443.49
533.33	6604.99
533.50	6607.33
533.67	6455.20
533.84	6539.46
534.01	6384.98
534.18	6424.77
534.35	6511.37
534.52	6356.90
534.69	6408.39
534.86	6516.05
535.03	6658.82
535.20	6850.75
535.37	6820.32
535.54	6780.53
535.71	6801.60
535.88	6567.54
536.05	6368.60
536.22	6506.69
536.38	6429.45
536.55	6258.59
536.72	6122.84
536.89	6106.46
537.06	6368.60
537.23	6462.22
537.40	6483.28
537.57	6487.96
537.74	6434.13
537.91	6354.55
538.08	6448.18
538.25	6445.84
538.42	6487.96
538.59	6436.47
538.75	6286.68
538.92	6197.74
539.09	6284.34
539.26	6279.66
539.43	6090.07
539.60	6179.01
539.77	6197.74
539.94	6167.31
540.11	5982.41
540.28	5736.65
540.44	5724.95
540.61	5884.11
540.78	6038.58
540.95	6097.10
541.12	6101.78
541.29	6225.82
541.46	6073.69
541.62	6286.68
541.79	6232.85
541.96	6040.92
542.13	6092.41
542.30	6181.35
542.47	6200.08
542.63	6073.69
542.80	6054.97
542.97	6076.03
543.14	6221.14
543.31	6122.84
543.48	6160.29
543.64	6424.77
543.81	6628.40
543.98	6445.84
544.15	6389.66
544.32	6099.44
544.48	6204.76
544.65	6303.06
544.82	6363.92
544.99	6310.08
545.16	6239.87
545.32	6155.61
545.49	6200.08
545.66	6434.13
545.83	6263.27
546.00	6092.41
546.16	6010.50
546.33	6310.08
546.50	5973.05
546.67	6120.50
546.83	6104.12
547.00	6085.39
547.17	5940.28
547.34	5909.85
547.50	5956.66
547.67	5989.43
547.84	6022.20
548.00	6129.86
548.17	6045.60
548.34	6148.59
548.51	6174.33
548.67	6164.97
548.84	6120.50
549.01	6059.65
549.18	6279.66
549.34	6312.42
549.51	6202.42
549.68	6143.91
549.84	5963.68
550.01	5998.79
550.18	5827.93
550.34	6061.99
550.51	5919.21
550.68	6047.94
550.84	5846.66
551.01	5799.85
551.18	5963.68
551.34	6008.16
551.51	5916.87
551.68	6087.73
551.84	6047.94
552.01	5926.24
552.18	5944.96
552.34	5963.68
552.51	5600.90
552.68	5760.06
552.84	5905.17
553.01	5891.13
553.18	5834.96
553.34	5923.90
553.51	5905.17
553.67	5928.58
553.84	5998.79
554.01	6019.86
554.17	5942.62
554.34	5900.49
554.51	5975.39
554.67	6148.59
554.84	5980.07
555.00	5849.00
555.17	5970.71
555.33	5912.19
555.50	5982.41
555.67	5738.99
555.83	5689.84
556.00	5666.44
556.16	5764.74
556.33	5671.12
556.50	5605.58
556.66	5668.78
556.83	5584.52
556.99	5626.65
557.16	5591.54
557.32	5631.33
557.49	5694.52
557.65	5575.16
557.82	5717.93
557.98	5544.73
558.15	5708.57
558.32	5401.96
558.48	5305.99
558.65	5298.97
558.81	5418.34
558.98	5315.36
559.14	5320.04
559.31	5476.85
559.47	5451.11
559.64	5345.78
559.80	5444.09
559.97	5324.72
560.13	5308.34
560.30	5540.05
560.46	5671.12
560.63	5771.76
560.79	5659.42
560.96	5575.16
561.12	5455.79
561.29	5245.14
561.45	5252.16
561.61	5453.45
561.78	5439.40
561.94	5401.96
562.11	5411.32
562.27	5336.42
562.44	5416.00
562.60	5614.95
562.77	5547.07
562.93	5420.68
563.10	5507.28
563.26	5371.53
563.42	5380.89
563.59	5392.59
563.75	5322.38
563.92	5268.55
564.08	5469.83
564.24	5423.02
564.41	5296.63
564.57	5343.44
564.74	5432.38
564.90	5282.59
565.07	5378.55
565.23	5240.46
565.39	5172.58
565.56	5254.50
565.72	5067.26
565.88	5088.32
566.05	5085.98
566.21	5228.76
566.38	5172.58
566.54	5083.64
566.70	5219.39
566.87	5430.04
567.03	5313.02
567.19	5259.18
567.36	5380.89
567.52	5390.25
567.68	5268.55
567.85	5130.45
568.01	4997.04
568.17	5018.11
568.34	4994.70
568.50	5004.07
568.66	4926.83
568.83	5177.26
568.99	5188.97
569.15	5163.22
569.32	5043.85
569.48	5006.41
569.64	5142.16
569.81	4711.50
569.97	5032.15
570.13	4875.34
570.30	4704.48
570.46	4809.80
570.62	4709.16
570.78	4744.27
570.95	4856.61
571.11	4980.66
571.27	4968.96
571.43	4816.82
571.60	5011.09
571.76	4971.30
571.92	5015.77
572.09	4987.68
572.25	4917.47
572.41	4997.04
572.57	4980.66
572.74	4990.02
572.90	4961.94
573.06	4842.57
573.22	4994.70
573.38	4870.65
573.55	4997.04
573.71	4929.17
573.87	4884.70
574.03	4840.23
574.20	4849.59
574.36	4807.46
574.52	4854.27
574.68	4821.50
574.84	4884.70
575.01	4777.03
575.17	4732.56
575.33	4638.94
575.49	4617.88
575.65	4713.84
575.82	4744.27
575.98	4685.75
576.14	4671.71
576.30	4774.69
576.46	4723.20
576.62	4847.25
576.79	4699.80
576.95	4660.01
577.11	4823.84
577.27	4725.54
577.43	4732.56
577.59	4730.22
577.75	4723.20
577.92	4594.47
578.08	4535.96
578.24	4521.92
578.40	4585.11
578.56	4477.44
578.72	4367.44
578.88	4575.75
579.04	4606.17
579.21	4652.98
579.37	4540.64
579.53	4676.39
579.69	4641.28
579.85	4608.51
580.01	4762.99
580.17	4573.41
580.33	4702.14
580.49	4503.19
580.65	4608.51
580.82	4734.90
580.98	4535.96
581.14	4613.20
581.30	4603.83
581.46	4685.75
581.62	4475.10
581.78	4594.47
581.94	4718.52
582.10	4683.41
582.26	4702.14
582.42	4748.95
582.58	4660.01
582.74	4683.41
582.90	4622.56
583.06	4601.49
583.22	4702.14
583.38	4559.36
583.54	4568.73
583.70	4557.02
583.86	4624.90
584.02	4547.66
584.18	4662.35
584.34	4645.96
584.50	4561.70
584.66	4643.62
584.82	4423.61
584.98	4451.70
585.14	4610.86
585.30	4241.05
585.46	4205.94
585.62	4301.90
585.78	4397.87
585.94	4416.59
586.10	4477.44
586.26	4416.59
586.42	4461.06
586.58	4461.06
586.74	4564.04
586.90	4362.76
587.06	4376.80
587.22	4432.97
587.38	4245.73
587.54	4414.25
587.70	4329.99
587.86	4294.88
588.02	4278.50
588.18	4252.75
588.34	4086.58
588.49	3784.65
588.65	3588.04
588.81	3499.10
588.97	3728.47
589.13	3543.57
589.29	3520.17
589.45	3772.94
589.61	3777.62
589.77	3981.25
589.93	4009.34
590.08	4086.58
590.24	4161.47
590.40	4255.09
590.56	4124.02
590.72	4067.85
590.88	4011.68
591.04	4175.52
591.20	4177.86
591.35	4170.83
591.51	4035.08
591.67	3967.21
591.83	4037.42
591.99	4191.90
592.15	3990.61
592.31	4009.34
592.46	4063.17
592.62	3981.25
592.78	3997.64
592.94	3992.95
593.10	3932.10
593.26	4018.70
593.41	4058.49
593.57	4037.42
593.73	4042.11
593.89	3925.08
594.05	3971.89
594.20	3925.08
594.36	4058.49
594.52	3962.53
594.68	3896.99
594.84	3859.54
594.99	3833.80
595.15	3854.86
595.31	3943.80
595.47	4058.49
595.62	4049.13
595.78	4086.58
595.94	4067.85
596.10	3974.23
596.25	3995.29
596.41	4002.32
596.57	3971.89
596.73	3929.76
596.88	4011.68
597.04	3985.93
597.20	3880.61
597.36	3822.09
597.51	3864.22
