SpectraSuite Data File
++++++++++++++++++++++++++++++++++++
Date: Mon Oct 07 14:53:09 GMT-05:00 2013
User: price-jones
Dark Spectrum Present: No
Reference Spectrum Present: No
Number of Sampled Component Spectra: 1
Spectrometers: USB2+H05261
Integration Time (usec): 100000 (USB2+H05261)
Spectra Averaged: 1 (USB2+H05261)
Boxcar Smoothing: 0 (USB2+H05261)
Correct for Electrical Dark: No (USB2+H05261)
Strobe/Lamp Enabled: No (USB2+H05261)
Correct for Detector Non-linearity: No (USB2+H05261)
Correct for Stray Light: No (USB2+H05261)
Number of Pixels in Processed Spectrum: 2048
>>>>>Begin Processed Spectral Data<<<<<
365.73	0.00
365.92	0.00
366.12	0.00
366.32	0.00
366.52	0.00
366.72	0.00
366.91	0.00
367.11	0.00
367.31	0.00
367.51	0.00
367.70	0.00
367.90	0.00
368.10	0.00
368.30	0.00
368.49	0.00
368.69	0.00
368.89	0.00
369.09	0.00
369.28	0.00
369.48	0.00
369.68	0.00
369.87	0.00
370.07	0.00
370.27	0.00
370.47	938.55
370.66	3925.08
370.86	4648.30
371.06	4997.04
371.25	5203.01
371.45	4660.01
371.65	4344.03
371.84	3833.80
372.04	4304.25
372.24	4652.98
372.44	4924.49
372.63	4580.43
372.83	4301.90
373.03	3775.28
373.22	3508.46
373.42	3843.16
373.62	4285.52
373.81	4667.03
374.01	4699.80
374.21	4058.49
374.40	3840.82
374.60	4056.15
374.79	4599.15
374.99	5465.15
375.19	5755.38
375.38	5778.78
375.58	5420.68
375.78	5224.08
375.97	5479.19
376.17	5526.00
376.37	5621.97
376.56	5776.44
376.76	6059.65
376.95	6534.78
377.15	6722.02
377.35	7176.08
377.54	7389.07
377.74	7719.09
377.93	7751.85
378.13	7260.34
378.33	7133.95
378.52	6555.84
378.72	6232.85
378.91	6139.23
379.11	5970.71
379.31	5818.57
379.50	5621.97
379.70	6373.28
379.89	6981.82
380.09	7229.91
380.28	7611.42
380.48	7424.18
380.68	7307.15
380.87	7016.93
381.07	6579.25
381.26	6167.31
381.46	5769.42
381.65	5668.78
381.85	5465.15
382.04	5313.02
382.24	4882.36
382.43	4538.30
382.63	4423.61
382.83	4528.94
383.02	4372.12
383.22	4500.85
383.41	4606.17
383.61	4784.06
383.80	5631.33
384.00	6389.66
384.19	7190.13
384.39	7571.63
384.58	7349.28
384.78	7503.76
384.97	7260.34
385.17	6825.00
385.36	6478.60
385.56	6209.44
385.75	6450.52
385.95	6949.05
386.14	7597.38
386.34	7543.55
386.53	7169.06
386.72	6855.43
386.92	6925.65
387.11	7304.81
387.31	7611.42
387.50	7426.52
387.70	7243.96
387.89	7159.70
388.09	7119.91
388.28	7185.44
388.48	7339.92
388.67	7763.56
388.86	8784.03
389.06	9226.39
389.25	9685.14
389.45	9844.29
389.64	9778.76
389.84	9643.01
390.03	9397.25
390.22	9516.62
390.42	9982.38
390.61	10394.32
390.81	11066.05
391.00	11396.07
391.19	11215.85
391.39	10827.32
391.58	10366.23
391.78	9696.84
391.97	9249.80
392.16	8451.67
392.36	7934.42
392.55	6359.24
392.75	4950.23
392.94	4065.51
393.13	4238.71
393.33	4901.08
393.52	6494.99
393.71	7775.26
393.91	8571.04
394.10	9378.53
394.29	10253.89
394.49	11028.60
394.68	11934.39
394.88	11756.51
395.07	12528.89
395.26	12255.04
395.46	11763.53
395.65	11033.29
395.84	9614.92
396.04	8116.98
396.23	6560.52
396.42	5738.99
396.62	5341.10
396.81	6628.40
397.00	8100.59
397.19	10284.31
397.39	12315.90
397.58	13650.00
397.77	14523.02
397.97	14679.84
398.16	14949.00
398.35	15756.49
398.55	15992.88
398.74	16643.55
398.93	17418.27
399.12	16830.79
399.32	16362.69
399.51	16599.08
399.70	17884.03
399.90	17364.43
400.09	17425.29
400.28	17380.82
400.47	17462.74
400.67	18417.68
400.86	18696.20
401.05	18497.25
401.24	18693.86
401.44	19232.18
401.63	18934.93
401.82	19328.14
402.01	19293.04
402.21	19286.01
402.40	19711.99
402.59	19073.03
402.78	18127.45
402.97	17610.19
403.17	18153.20
403.36	19197.07
403.55	20032.65
403.74	20332.23
403.93	19541.13
404.13	17977.65
404.32	17799.77
404.51	18487.89
404.70	20093.50
404.89	19669.86
405.09	19480.28
405.28	18991.11
405.47	19440.49
405.66	18775.78
405.85	18600.24
406.05	18015.10
406.24	18160.22
406.43	19098.77
406.62	19637.09
406.81	19742.42
407.00	18881.10
407.20	18485.55
407.39	18829.61
407.58	19819.66
407.77	20238.61
407.96	21315.26
408.15	21282.49
408.34	21343.35
408.54	22630.64
408.73	22377.86
408.92	22089.98
409.11	21245.04
409.30	20334.57
409.49	19091.75
409.68	17937.87
409.87	17425.29
410.07	18558.11
410.26	20215.21
410.45	21411.22
410.64	21589.10
410.83	22714.90
411.02	23248.54
411.21	23847.72
411.40	23768.14
411.59	23782.18
411.78	23662.82
411.98	23143.22
412.17	23908.57
412.36	23122.15
412.55	23344.50
412.74	22862.35
412.93	22298.28
413.12	22494.89
413.31	24821.38
413.50	24999.26
413.69	25303.53
413.88	24123.90
414.07	23562.17
414.26	24247.95
414.45	24891.60
414.64	24917.34
414.83	24861.17
415.02	24154.33
415.22	24400.08
415.41	24926.71
415.60	25701.42
415.79	26588.49
415.98	27489.59
416.17	27344.48
416.36	26815.52
416.55	26178.89
416.74	25572.69
416.93	24545.20
417.12	24570.94
417.31	25123.31
417.50	25614.82
417.69	26494.86
417.88	26099.31
418.07	26019.74
418.26	25275.45
418.45	25736.53
418.64	26639.98
418.83	27384.27
419.02	27161.92
419.21	26927.86
419.39	26160.17
419.58	24737.12
419.77	24470.30
419.96	26017.40
420.15	27218.09
420.34	27967.06
420.53	28856.46
420.72	29486.07
420.91	29062.43
421.10	29158.39
421.29	28390.70
421.48	27585.55
421.67	28861.15
421.86	28297.08
422.05	26265.49
422.24	23927.30
422.43	23716.65
422.61	26309.96
422.80	28243.24
422.99	27948.34
423.18	27215.75
423.37	26410.60
423.56	26567.42
423.75	27182.98
423.94	27248.52
424.13	26153.15
424.32	26188.25
424.50	26230.38
424.69	26155.49
424.88	26267.83
425.07	26232.72
425.26	25792.70
425.45	25741.21
425.64	25336.30
425.83	25823.13
426.01	27044.89
426.20	27646.41
426.39	27206.39
426.58	25352.68
426.77	23372.59
426.96	22651.70
427.15	23583.24
427.33	25411.20
427.52	26340.39
427.71	26670.40
427.90	26256.13
428.09	26214.00
428.28	25240.34
428.46	24547.54
428.65	24297.10
428.84	25090.54
429.03	25312.89
429.22	23683.88
429.40	22445.74
429.59	20376.70
429.78	18167.24
429.97	18391.93
430.16	18548.75
430.34	18588.53
430.53	18588.53
430.72	19178.35
430.91	21151.42
431.10	24725.42
431.28	29495.43
431.47	31386.58
431.66	31281.26
431.85	28926.68
432.03	26272.51
432.22	25235.66
432.41	26471.46
432.60	29244.99
432.79	30459.73
432.97	30969.97
433.16	30649.32
433.35	27637.05
433.54	24877.55
433.72	23810.27
433.91	24545.20
434.10	27566.83
434.28	29160.73
434.47	30623.57
434.66	30181.21
434.85	29670.97
435.03	29212.23
435.22	30321.64
435.41	32182.37
435.59	31676.81
435.78	32332.16
435.97	33060.07
436.16	32936.02
436.34	33120.92
436.53	31938.95
436.72	32261.94
436.90	30377.81
437.09	30448.03
437.28	29771.61
437.46	30991.03
437.65	30998.06
437.84	28287.71
438.02	26651.68
438.21	26251.45
438.40	27749.39
438.58	30340.36
438.77	30986.35
438.96	30930.18
439.14	32739.41
439.33	32879.85
439.52	33881.60
439.70	32957.08
439.89	32095.77
440.08	31365.52
440.26	31241.47
440.45	32711.33
440.63	34511.20
440.82	36297.03
441.01	35461.46
441.19	35758.70
441.38	36278.30
441.57	37116.22
441.75	37352.61
441.94	38087.54
442.12	36957.06
442.31	38614.16
442.50	38768.63
442.68	38036.05
442.87	37071.75
443.05	36947.70
443.24	37266.01
443.43	38227.97
443.61	38892.68
443.80	39093.97
443.98	37296.44
444.17	37020.25
444.35	39133.76
444.54	39931.88
444.73	39501.22
444.91	37745.82
445.10	36486.61
445.28	34958.24
445.47	34780.36
445.65	34455.03
445.84	35452.09
446.02	37258.99
446.21	37720.07
446.39	37266.01
446.58	37916.68
446.77	38600.12
446.95	38909.07
447.14	39957.63
447.32	40575.53
447.51	39592.50
447.69	38520.54
447.88	38094.56
448.06	38047.75
448.25	39232.06
448.43	39491.86
448.62	38389.47
448.80	38256.06
448.99	38595.43
449.17	39091.63
449.36	38658.63
449.54	40395.31
449.73	41357.27
449.91	41640.47
450.10	42520.51
450.28	42735.84
450.46	42822.44
450.65	42838.83
450.83	42298.16
451.02	41748.14
451.20	41408.76
451.39	41553.87
451.57	41181.73
451.76	41743.45
451.94	40851.71
452.13	40329.77
452.31	38391.81
452.49	36809.61
452.68	37455.59
452.86	37261.33
453.05	37790.29
453.23	39077.58
453.42	40142.53
453.60	40912.56
453.78	41392.37
453.97	40884.48
454.15	40795.54
454.34	39966.99
454.52	40414.03
454.70	39414.62
454.89	39381.85
455.07	39798.47
455.26	40091.04
455.44	42071.13
455.62	42433.91
455.81	43002.66
455.99	43096.28
456.17	42078.15
456.36	42113.26
456.54	43292.89
456.73	42932.45
456.91	43761.00
457.09	44149.53
457.28	44996.80
457.46	43203.95
457.64	42902.02
457.83	41895.59
458.01	40917.25
458.19	42167.09
458.38	42080.49
458.56	43253.10
458.74	43426.30
458.93	42674.99
459.11	42572.00
459.29	42302.84
459.48	42932.45
459.66	42550.94
459.84	42927.77
460.03	43442.68
460.21	43466.09
460.39	44215.06
460.57	44304.00
460.76	44854.03
460.94	44769.77
461.12	43849.94
461.31	44449.11
461.49	44030.16
461.67	44194.00
461.85	45715.34
462.04	45034.25
462.22	45598.32
462.40	45233.19
462.59	45001.48
462.77	45003.82
462.95	45088.08
463.13	44973.39
463.32	43845.26
463.50	44016.11
463.68	44561.46
463.86	44339.11
464.05	43543.33
464.23	42997.98
464.41	43152.46
464.59	42241.99
464.78	44002.07
464.96	44137.82
465.14	43496.52
465.32	45013.18
465.50	45319.79
465.69	45343.20
465.87	44783.81
466.05	43852.28
466.23	42164.75
466.41	40828.30
466.60	42593.07
466.78	42216.24
466.96	43304.59
467.14	43835.89
467.32	44414.01
467.51	44559.12
467.69	42541.58
467.87	43433.32
468.05	44093.35
468.23	44105.06
468.41	44109.74
468.60	43805.47
468.78	44088.67
468.96	43709.50
469.14	45090.42
469.32	45027.23
469.50	43299.91
469.69	43728.23
469.87	42780.31
470.05	42644.56
470.23	42983.94
470.41	43360.76
470.59	43473.11
470.77	43374.81
470.95	44622.31
471.14	44940.63
471.32	45184.04
471.50	46927.74
471.68	47145.41
471.86	47550.32
472.04	47896.72
472.22	47728.20
472.40	45907.27
472.58	45483.63
472.77	45104.46
472.95	46197.49
473.13	47309.25
473.31	46258.35
473.49	45944.72
473.67	46848.16
473.85	47236.69
474.03	48130.78
474.21	47962.26
474.39	48926.56
474.57	48715.91
474.75	48985.07
474.93	48535.69
475.12	47402.87
475.30	47367.76
475.48	47739.91
475.66	48303.98
475.84	47889.70
476.02	47653.31
476.20	46890.29
476.38	47913.11
476.56	48839.96
476.74	49607.65
476.92	49509.35
477.10	50220.87
477.28	51288.16
477.46	51028.36
477.64	51550.30
477.82	51489.45
478.00	51536.26
478.18	51136.02
478.36	51126.66
478.54	51124.32
478.72	51459.02
478.90	52222.03
479.08	53057.60
479.26	53464.86
479.44	53551.46
479.62	52992.07
479.80	53006.11
479.98	53340.81
480.16	53361.87
480.34	52994.41
480.52	53502.31
480.70	53701.25
480.88	53813.60
481.06	54143.61
481.24	54298.09
481.41	55054.08
481.59	55732.84
481.77	55168.77
481.95	54948.76
482.13	55004.93
482.31	54794.28
482.49	55608.79
482.67	55121.96
482.85	55346.65
483.03	55882.63
483.21	56039.45
483.39	56037.11
483.57	55526.87
483.74	55330.26
483.92	55590.06
484.10	55711.77
484.28	56278.18
484.46	56512.23
484.64	57055.24
484.82	56226.69
485.00	55866.25
485.18	55370.05
485.35	54429.16
485.53	52023.09
485.71	48507.60
485.89	48392.92
486.07	50272.37
486.25	52835.25
486.43	55056.42
486.61	55543.25
486.78	55152.38
486.96	55337.29
487.14	56643.30
487.32	57095.03
487.50	57972.73
487.68	58499.35
487.85	58731.06
488.03	58866.81
488.21	58525.10
488.39	57862.72
488.57	57556.11
488.75	57425.04
488.92	58188.06
489.10	59838.14
489.28	60647.96
489.46	61317.35
489.64	61141.81
489.81	61174.58
489.99	60828.18
490.17	60933.51
490.35	61307.99
490.53	60982.66
490.70	60734.56
490.88	60654.98
491.06	61429.70
491.24	61207.35
491.41	60441.99
491.59	59119.59
491.77	58843.41
491.95	59770.26
492.13	60369.44
492.30	61520.98
492.48	62166.97
492.66	62485.28
492.84	62461.88
493.01	62429.11
493.19	61921.21
493.37	61525.66
493.54	61586.52
493.72	61881.42
493.90	62621.03
494.08	63304.47
494.25	63597.04
494.43	63643.85
494.61	63969.18
494.79	64182.17
494.96	64006.63
495.14	63374.69
495.32	62621.03
495.49	62092.07
495.67	63103.18
495.85	63987.91
496.02	64488.78
496.20	64329.62
496.38	63870.88
496.55	63891.94
496.73	64294.52
496.91	64224.30
497.09	64865.61
497.26	65043.49
497.44	64563.68
497.62	64233.66
497.79	63395.75
497.97	62389.32
498.14	62578.90
498.32	63564.27
498.50	64200.89
498.67	64739.22
498.85	64680.70
499.03	64587.08
499.20	65048.17
499.38	65003.70
499.56	64973.27
499.73	64420.90
499.91	64074.51
500.08	63753.85
500.26	63128.93
500.44	63634.48
500.61	64046.42
500.79	63842.79
500.97	63561.93
501.14	63472.99
501.32	63344.26
501.49	63494.05
501.67	63582.99
501.84	64072.17
502.02	64329.62
502.20	64521.55
502.37	64540.27
502.55	64706.45
502.72	65071.57
502.90	65535.00
503.07	65329.03
503.25	64769.64
503.43	64231.32
503.60	63655.55
503.78	63124.25
503.95	63590.01
504.13	64881.99
504.30	65450.74
504.48	65354.78
504.65	65029.44
504.83	64968.59
505.01	65535.00
505.18	65535.00
505.36	65535.00
505.53	65535.00
505.71	65535.00
505.88	65535.00
506.06	65535.00
506.23	65535.00
506.41	65439.04
506.58	65535.00
506.76	65535.00
506.93	65535.00
507.11	65389.89
507.28	65488.19
507.46	65097.32
507.63	64598.79
507.81	64484.10
507.98	64720.49
508.16	65366.48
508.33	65535.00
508.50	65535.00
508.68	65535.00
508.85	65535.00
509.03	65535.00
509.20	65535.00
509.38	65535.00
509.55	65338.40
509.73	65415.63
509.90	65535.00
510.08	65535.00
510.25	65535.00
510.42	65535.00
510.60	65535.00
510.77	65535.00
510.95	65535.00
511.12	65535.00
511.30	65535.00
511.47	65535.00
511.64	65535.00
511.82	65535.00
511.99	65535.00
512.17	65535.00
512.34	65403.93
512.51	65535.00
512.69	65535.00
512.86	65535.00
513.04	65535.00
513.21	65535.00
513.38	65535.00
513.56	65417.97
513.73	65073.91
513.90	65146.47
514.08	65195.62
514.25	65448.40
514.43	65535.00
514.60	65535.00
514.77	65535.00
514.95	65535.00
515.12	65535.00
515.29	65535.00
515.47	65535.00
515.64	65535.00
515.81	65535.00
515.99	65535.00
516.16	64563.68
516.33	62653.80
516.51	61478.85
516.68	60949.89
516.85	60556.68
517.03	61057.56
517.20	63175.74
517.37	65256.48
517.54	65535.00
517.72	65434.36
517.89	63320.85
518.06	61513.96
518.24	62005.47
518.41	63774.92
518.58	64823.48
518.75	65076.26
518.93	65069.23
519.10	65102.00
519.27	65432.02
519.45	65436.70
519.62	65535.00
519.79	65535.00
519.96	65535.00
520.14	65535.00
520.31	65289.24
520.48	65286.90
520.65	65535.00
520.83	65535.00
521.00	65535.00
521.17	65535.00
521.34	65535.00
521.52	65535.00
521.69	65535.00
521.86	65535.00
522.03	65535.00
522.20	65535.00
522.38	64830.50
522.55	65125.41
522.72	65385.21
522.89	65535.00
523.07	65535.00
523.24	65535.00
523.41	65535.00
523.58	65535.00
523.75	65535.00
523.92	65535.00
524.10	65535.00
524.27	65535.00
524.44	65535.00
524.61	65535.00
524.78	65535.00
524.96	65535.00
525.13	65535.00
525.30	65535.00
525.47	65535.00
525.64	65535.00
525.81	65535.00
525.98	65535.00
526.16	64540.27
526.33	63739.81
526.50	63351.28
526.67	63175.74
526.84	63674.27
527.01	64456.01
527.18	65106.68
527.36	65535.00
527.53	65535.00
527.70	65535.00
527.87	65535.00
528.04	65535.00
528.21	65535.00
528.38	65535.00
528.55	65535.00
528.72	65535.00
528.89	65535.00
529.07	65535.00
529.24	65535.00
529.41	65535.00
529.58	65535.00
529.75	65535.00
529.92	65535.00
530.09	65535.00
530.26	65535.00
530.43	65535.00
530.60	65535.00
530.77	65535.00
530.94	65535.00
531.11	65535.00
531.28	65535.00
531.46	65535.00
531.63	65535.00
531.80	65535.00
531.97	65535.00
532.14	65535.00
532.31	65284.56
532.48	64460.69
532.65	64669.00
532.82	65345.42
532.99	65535.00
533.16	65535.00
533.33	65535.00
533.50	65535.00
533.67	65535.00
533.84	65535.00
534.01	65535.00
534.18	65535.00
534.35	65535.00
534.52	65535.00
534.69	65535.00
534.86	65535.00
535.03	65535.00
535.20	65535.00
535.37	65535.00
535.54	65535.00
535.71	65535.00
535.88	65535.00
536.05	65535.00
536.22	65535.00
536.38	65535.00
536.55	65535.00
536.72	65340.74
536.89	65153.49
537.06	65535.00
537.23	65535.00
537.40	65535.00
537.57	65535.00
537.74	65535.00
537.91	65535.00
538.08	65535.00
538.25	65535.00
538.42	65535.00
538.59	65535.00
538.75	65535.00
538.92	65535.00
539.09	65535.00
539.26	65535.00
539.43	65499.89
539.60	65535.00
539.77	65535.00
539.94	65502.23
540.11	64961.57
540.28	64528.57
540.44	64676.02
540.61	64853.90
540.78	65097.32
540.95	65399.25
541.12	65535.00
541.29	65535.00
541.46	65535.00
541.62	65535.00
541.79	65535.00
541.96	65535.00
542.13	65535.00
542.30	65535.00
542.47	65535.00
542.63	65535.00
542.80	65535.00
542.97	65535.00
543.14	65535.00
543.31	65535.00
543.48	65535.00
543.64	65535.00
543.81	65535.00
543.98	65535.00
544.15	65535.00
544.32	65535.00
544.48	65535.00
544.65	65535.00
544.82	65535.00
544.99	65535.00
545.16	65535.00
545.32	65535.00
545.49	65535.00
545.66	65535.00
545.83	65535.00
546.00	65535.00
546.16	65535.00
546.33	65535.00
546.50	65535.00
546.67	65535.00
546.83	65535.00
547.00	65535.00
547.17	65373.50
547.34	64842.20
547.50	64851.56
547.67	65188.60
547.84	65298.61
548.00	65535.00
548.17	65535.00
548.34	65535.00
548.51	65535.00
548.67	65535.00
548.84	65535.00
549.01	65535.00
549.18	65535.00
549.34	65535.00
549.51	65535.00
549.68	65535.00
549.84	65399.25
550.01	65387.55
550.18	65389.89
550.34	65396.91
550.51	65535.00
550.68	65535.00
550.84	65226.05
551.01	65357.12
551.18	65221.37
551.34	65378.18
551.51	65535.00
551.68	65535.00
551.84	65535.00
552.01	65535.00
552.18	65535.00
552.34	64942.84
552.51	64591.76
552.68	64505.16
552.84	65116.04
553.01	65338.40
553.18	65268.18
553.34	65254.14
553.51	65532.66
553.67	65535.00
553.84	65535.00
554.01	65535.00
554.17	65300.95
554.34	65523.30
554.51	65535.00
554.67	65535.00
554.84	65535.00
555.00	65380.52
555.17	65368.82
555.33	65261.16
555.50	65226.05
555.67	65347.76
555.83	65080.94
556.00	65027.10
556.16	64650.28
556.33	64640.92
556.50	64411.54
556.66	64479.42
556.83	64196.21
556.99	64411.54
557.16	64594.10
557.32	64729.86
557.49	64860.93
557.65	64849.22
557.82	64622.19
557.98	64589.42
558.15	64282.81
558.32	63510.44
558.48	63007.22
558.65	62981.48
558.81	63267.02
558.98	63798.32
559.14	63936.41
559.31	63980.88
559.47	63898.97
559.64	63667.25
559.80	63281.06
559.97	63664.91
560.13	63894.28
560.30	64484.10
560.46	64956.89
560.63	65457.76
560.79	65116.04
560.96	64767.30
561.12	63798.32
561.29	63243.62
561.45	63295.11
561.61	63749.17
561.78	64193.87
561.94	63917.69
562.11	63821.73
562.27	63753.85
562.44	64123.66
562.60	64341.33
562.77	64556.66
562.93	64427.93
563.10	64329.62
563.26	63891.94
563.42	63910.67
563.59	63688.32
563.75	63917.69
563.92	64008.97
564.08	63700.02
564.24	64104.93
564.41	63833.43
564.57	63987.91
564.74	63898.97
564.90	63615.76
565.07	63489.37
565.23	63121.91
565.39	62681.89
565.56	62609.33
565.72	62494.64
565.88	62962.75
566.05	62672.52
566.21	63084.46
566.38	63222.55
566.54	63072.76
566.70	63355.96
566.87	63772.58
567.03	63718.74
567.19	63945.78
567.36	63669.59
567.52	63545.54
567.68	63269.36
567.85	62843.38
568.01	62515.71
568.17	62379.96
568.34	62293.36
568.50	62326.13
568.66	62312.08
568.83	62454.86
568.99	62660.82
569.15	62958.07
569.32	62918.28
569.48	62646.78
569.64	62480.60
569.81	62218.46
569.97	62171.65
570.13	62195.06
570.30	61598.22
570.46	61439.06
570.62	61137.13
570.78	60926.49
570.95	61354.80
571.11	61726.95
571.27	62068.67
571.43	61998.45
571.60	62342.51
571.76	62473.58
571.92	62754.44
572.09	62733.38
572.25	62684.23
572.41	62705.29
572.57	62553.16
572.74	62529.75
572.90	62176.33
573.06	62244.21
573.22	62159.95
573.38	62375.28
573.55	62092.07
573.71	62583.58
573.87	62375.28
574.03	62164.63
574.20	62377.62
574.36	61930.58
574.52	61949.30
574.68	61499.92
574.84	61394.59
575.01	61284.59
575.17	61022.45
575.33	61345.44
575.49	61495.24
575.65	61553.75
575.82	61464.81
575.98	61160.54
576.14	61385.23
576.30	61523.32
576.46	61488.21
576.62	61483.53
576.79	61645.03
576.95	61455.45
577.11	61441.40
577.27	61532.68
577.43	61616.94
577.59	61008.40
577.75	60535.62
577.92	60383.48
578.08	60250.07
578.24	60175.17
578.40	60549.66
578.56	60687.75
578.72	60669.03
578.88	60907.76
579.04	60940.53
579.21	61212.03
579.37	60980.32
579.53	61020.11
579.69	61155.86
579.85	61300.97
580.01	61085.64
580.17	60615.19
580.33	60467.74
580.49	60809.46
580.65	61071.60
580.82	60982.66
580.98	61034.15
581.14	60985.00
581.30	61104.37
581.46	61001.38
581.62	61137.13
581.78	61062.24
581.94	61315.01
582.10	61387.57
582.26	61455.45
582.42	61144.16
582.58	61268.20
582.74	61111.39
582.90	61406.30
583.06	61167.56
583.22	61027.13
583.38	60949.89
583.54	61045.85
583.70	60886.70
583.86	61055.21
584.02	61062.24
584.18	61008.40
584.34	60996.70
584.50	60636.26
584.66	60809.46
584.82	60339.01
584.98	60385.82
585.14	60140.07
