SpectraSuite Data File
++++++++++++++++++++++++++++++++++++
Date: Mon Oct 07 14:52:53 GMT-05:00 2013
User: price-jones
Dark Spectrum Present: No
Reference Spectrum Present: No
Number of Sampled Component Spectra: 1
Spectrometers: USB2+H05261
Integration Time (usec): 100000 (USB2+H05261)
Spectra Averaged: 1 (USB2+H05261)
Boxcar Smoothing: 0 (USB2+H05261)
Correct for Electrical Dark: No (USB2+H05261)
Strobe/Lamp Enabled: No (USB2+H05261)
Correct for Detector Non-linearity: No (USB2+H05261)
Correct for Stray Light: No (USB2+H05261)
Number of Pixels in Processed Spectrum: 2048
>>>>>Begin Processed Spectral Data<<<<<
365.73	0.00
365.92	0.00
366.12	0.00
366.32	0.00
366.52	0.00
366.72	0.00
366.91	0.00
367.11	0.00
367.31	0.00
367.51	0.00
367.70	0.00
367.90	0.00
368.10	0.00
368.30	0.00
368.49	0.00
368.69	0.00
368.89	0.00
369.09	0.00
369.28	0.00
369.48	0.00
369.68	0.00
369.87	0.00
370.07	0.00
370.27	0.00
370.47	830.89
370.66	3925.08
370.86	4484.47
371.06	4711.50
371.25	4826.18
371.45	4423.61
371.65	4032.74
371.84	3702.73
372.04	3981.25
372.24	4447.02
372.44	4486.81
372.63	4332.33
372.83	4222.33
373.03	3501.44
373.22	3351.65
373.42	3625.49
373.62	4126.36
373.81	4407.23
374.01	4409.57
374.21	3805.71
374.40	3768.26
374.60	3997.64
374.79	4374.46
374.99	5165.56
375.19	5451.11
375.38	5313.02
375.58	5008.75
375.78	4978.32
375.97	5172.58
376.17	5111.73
376.37	5095.35
376.56	5467.49
376.76	5741.33
376.95	5956.66
377.15	6373.28
377.35	6633.08
377.54	7084.80
377.74	7112.89
377.93	6974.80
378.13	6932.67
378.33	6490.31
378.52	6059.65
378.72	5844.32
378.91	5856.02
379.11	5518.98
379.31	5252.16
379.50	5434.72
379.70	6003.47
379.89	6436.47
380.09	6780.53
380.28	6956.07
380.48	6829.68
380.68	6731.38
380.87	6647.12
381.07	6076.03
381.26	5720.27
381.46	5179.61
381.65	5158.54
381.85	5102.37
382.04	4709.16
382.24	4552.34
382.43	4301.90
382.63	4152.11
382.83	4170.83
383.02	4187.22
383.22	4145.09
383.41	4376.80
383.61	4587.45
383.80	5273.23
384.00	5762.40
384.19	6483.28
384.39	6815.64
384.58	6860.11
384.78	6509.03
384.97	6581.59
385.17	6289.02
385.36	5947.30
385.56	5746.02
385.75	6059.65
385.95	6597.97
386.14	6918.62
386.34	6949.05
386.53	6553.50
386.72	6272.64
386.92	6375.62
387.11	6698.61
387.31	6965.43
387.50	6841.39
387.70	6612.01
387.89	6450.52
388.09	6672.87
388.28	6829.68
388.48	6717.34
388.67	7169.06
388.86	7929.74
389.06	8449.33
389.25	8919.78
389.45	9097.66
389.64	8929.14
389.84	8842.54
390.03	8692.75
390.22	8823.82
390.42	9121.07
390.61	9696.84
390.81	10277.29
391.00	10551.14
391.19	10509.01
391.39	10001.11
391.58	9467.47
391.78	8685.73
391.97	8575.72
392.16	7929.74
392.36	7082.46
392.55	5652.39
392.75	4571.07
392.94	3754.22
393.13	3782.31
393.33	4484.47
393.52	5856.02
393.71	6939.69
393.91	8175.49
394.10	8482.10
394.29	9376.19
394.49	10202.40
394.68	10944.34
394.88	10867.11
395.07	11176.06
395.26	11183.08
395.46	10752.42
395.65	9816.21
395.84	8868.29
396.04	7435.88
396.23	5987.09
396.42	5224.08
396.62	5034.49
396.81	5977.73
397.00	7613.76
397.19	9324.69
397.39	11276.70
397.58	12332.28
397.77	13114.02
397.97	13752.99
398.16	13572.77
398.35	14324.08
398.55	14764.10
398.74	15159.65
398.93	15704.99
399.12	15503.71
399.32	14665.80
399.51	15281.36
399.70	16184.80
399.90	15709.68
400.09	15922.66
400.28	15796.28
400.47	16049.05
400.67	16798.02
400.86	16992.29
401.05	16861.22
401.24	17135.06
401.44	17371.46
401.63	17451.03
401.82	17596.15
402.01	17184.21
402.21	17816.16
402.40	17958.93
402.59	17301.24
402.78	16444.60
402.97	16032.67
403.17	16772.28
403.36	17811.48
403.55	18155.54
403.74	18527.68
403.93	17291.88
404.13	16196.51
404.32	16091.18
404.51	17102.29
404.70	17923.82
404.89	17689.77
405.09	17961.27
405.28	17343.37
405.47	17195.92
405.66	16816.75
405.85	16896.33
406.05	16524.18
406.24	16641.21
406.43	17425.29
406.62	17991.70
406.81	18024.47
407.00	17179.53
407.20	16982.93
407.39	16908.03
407.58	18235.11
407.77	18717.26
407.96	19267.29
408.15	19271.97
408.34	19386.66
408.54	20257.34
408.73	20318.19
408.92	19953.07
409.11	19374.95
409.30	18581.51
409.49	17071.87
409.68	16271.40
409.87	16009.26
410.07	17081.23
410.26	18047.87
410.45	19489.64
410.64	19803.27
410.83	20306.49
411.02	20945.45
411.21	21902.73
411.40	21324.62
411.59	21762.30
411.78	21408.88
411.98	21102.27
412.17	21486.12
412.36	20879.92
412.55	21174.83
412.74	20456.28
412.93	20152.01
413.12	20402.45
413.31	22555.74
413.50	22204.66
413.69	22670.43
413.88	21940.18
414.07	21373.77
414.26	21759.96
414.45	22427.01
414.64	22539.36
414.83	22537.02
415.02	21788.05
415.22	21839.54
415.41	22408.29
415.60	23484.94
415.79	24184.76
415.98	24610.73
416.17	24755.85
416.36	23974.11
416.55	23695.58
416.74	23033.21
416.93	22396.59
417.12	22434.03
417.31	23016.83
417.50	22899.80
417.69	23646.43
417.88	23475.57
418.07	23440.47
418.26	23019.17
418.45	23517.70
418.64	24397.74
418.83	24945.43
419.02	24554.56
419.21	24308.80
419.39	23112.79
419.58	22146.15
419.77	22427.01
419.96	23456.85
420.15	24992.24
420.34	25439.28
420.53	26036.12
420.72	26749.98
420.91	26504.23
421.10	26132.08
421.29	25979.95
421.48	25216.93
421.67	26157.83
421.86	25481.41
422.05	23531.75
422.24	21479.10
422.43	21371.43
422.61	23346.84
422.80	25296.51
422.99	25219.27
423.18	24294.76
423.37	23747.08
423.56	24135.60
423.75	24056.03
423.94	24786.27
424.13	23735.37
424.32	23814.95
424.50	24072.41
424.69	23278.97
424.88	23541.11
425.07	24025.60
425.26	23442.81
425.45	23192.37
425.64	23026.19
425.83	22829.59
426.01	24556.90
426.20	24812.02
426.39	24540.52
426.58	22644.68
426.77	20959.50
426.96	20372.02
427.15	21172.49
427.33	23178.33
427.52	23908.57
427.71	23903.89
427.90	23737.71
428.09	23686.22
428.28	23110.45
428.46	22511.27
428.65	21893.37
428.84	22565.10
429.03	22881.08
429.22	21212.28
429.40	20198.82
429.59	18382.57
429.78	16400.13
429.97	16723.13
430.16	16828.45
430.34	16734.83
430.53	16814.41
430.72	17224.00
430.91	19246.23
431.10	22534.68
431.28	26267.83
431.47	28266.65
431.66	28446.87
431.85	25874.62
432.03	23786.86
432.22	22953.63
432.41	24175.39
432.60	26607.21
432.79	27538.74
432.97	28283.03
433.16	27316.39
433.35	25235.66
433.54	22534.68
433.72	21771.66
433.91	22520.63
434.10	24482.00
434.28	25986.97
434.47	27477.89
434.66	26632.96
434.85	26494.86
435.03	26813.18
435.22	26995.74
435.41	28678.58
435.59	28884.55
435.78	29144.35
435.97	29806.72
436.16	29200.52
436.34	29149.03
436.53	29399.47
436.72	29024.98
436.90	27503.64
437.09	26979.36
437.28	26466.78
437.46	27974.08
437.65	27070.64
437.84	25680.36
438.02	23761.12
438.21	23346.84
438.40	25095.22
438.58	27063.61
438.77	27967.06
438.96	28023.23
439.14	29296.49
439.33	29874.60
439.52	30309.94
439.70	29247.33
439.89	28711.35
440.08	28301.76
440.26	28245.58
440.45	29795.02
440.63	31044.87
440.82	32378.97
441.01	32070.02
441.19	31950.65
441.38	32496.00
441.57	33895.64
441.75	33752.87
441.94	34115.65
442.12	33593.71
442.31	34525.24
442.50	34424.60
442.68	34157.78
442.87	33605.41
443.05	32917.29
443.24	33928.41
443.43	34375.45
443.61	34862.28
443.80	35611.25
443.98	33429.87
444.17	33394.76
444.35	35529.33
444.54	35758.70
444.73	35566.78
444.91	33839.47
445.10	32575.58
445.28	31236.79
445.47	30749.96
445.65	31201.68
445.84	32395.35
446.02	33174.75
446.21	33605.41
446.39	33729.46
446.58	34284.17
446.77	34983.99
446.95	34972.28
447.14	36400.01
447.32	36521.72
447.51	35402.94
447.69	34511.20
447.88	34057.14
448.06	34906.75
448.25	35330.39
448.43	35147.82
448.62	34733.55
448.80	34775.68
448.99	34899.73
449.17	35297.62
449.36	35283.58
449.54	36818.97
449.73	36917.27
449.91	37474.32
450.10	38532.24
450.28	38845.87
450.46	38799.06
450.65	38897.36
450.83	38183.50
451.02	37425.17
451.20	37593.68
451.39	37216.86
451.57	37221.54
451.76	37411.12
451.94	37001.53
452.13	35903.82
452.31	34590.78
452.49	33415.83
452.68	33507.11
452.86	33766.91
453.05	34462.05
453.23	35618.27
453.42	36191.70
453.60	37038.98
453.78	37015.57
453.97	36521.72
454.15	36861.10
454.34	36165.96
454.52	36299.37
454.70	35875.73
454.89	35681.47
455.07	36177.66
455.26	36748.75
455.44	37972.85
455.62	38373.08
455.81	39082.27
455.99	38136.69
456.17	38110.94
456.36	38040.73
456.54	39147.80
456.73	39351.43
456.91	39929.54
457.09	40416.37
457.28	40612.98
457.46	38780.34
457.64	38569.69
457.83	37336.23
458.01	37544.53
458.19	38022.00
458.38	38480.75
458.56	39620.59
458.74	38962.90
458.93	38733.53
459.11	38239.67
459.29	38274.78
459.48	38124.99
459.66	38209.25
459.84	38820.13
460.03	39133.76
460.21	39203.97
460.39	40114.44
460.57	39852.30
460.76	40507.65
460.94	40168.27
461.12	39976.35
461.31	40533.40
461.49	39997.41
461.67	39856.98
461.85	41228.54
462.04	40795.54
462.22	41490.68
462.40	40837.67
462.59	41090.44
462.77	40952.35
462.95	40978.10
463.13	40711.28
463.32	40449.14
463.50	40198.70
463.68	40116.78
463.86	40046.57
464.05	39580.80
464.23	38359.04
464.41	38398.83
464.59	38279.46
464.78	39828.90
464.96	39852.30
465.14	39531.65
465.32	40481.91
465.50	41448.55
465.69	41720.05
465.87	40350.84
466.05	39606.55
466.23	37869.87
466.41	37244.94
466.60	38546.28
466.78	38600.12
466.96	39351.43
467.14	39899.11
467.32	40222.11
467.51	40254.87
467.69	39000.35
467.87	38941.83
468.05	40027.84
468.23	40055.93
468.41	39784.43
468.60	40217.43
468.78	40062.95
468.96	39697.83
469.14	40938.31
469.32	40652.76
469.50	39351.43
469.69	39232.06
469.87	39065.88
470.05	38565.01
470.23	38787.36
470.41	38850.55
470.59	39452.07
470.77	39838.26
470.95	40701.92
471.14	40715.96
471.32	40935.97
471.50	42721.80
471.68	43239.06
471.86	43206.29
472.04	43374.81
472.22	43461.41
472.40	41703.67
472.58	41029.59
472.77	41036.61
472.95	41724.73
473.13	42909.04
473.31	41509.40
473.49	41698.98
473.67	42892.66
473.85	43089.26
474.03	43985.69
474.21	44168.25
474.39	44301.66
474.57	44767.43
474.75	44851.69
474.93	43952.92
475.12	43548.01
475.30	43576.09
475.48	43908.45
475.66	44098.03
475.84	43732.91
476.02	43686.10
476.20	42621.16
476.38	43810.15
476.56	45020.20
476.74	45579.59
476.92	45638.11
477.10	46223.24
477.28	47192.22
477.46	47236.69
477.64	47398.19
477.82	47880.34
478.00	47973.96
478.18	47704.80
478.36	46817.74
478.54	47791.40
478.72	47461.38
478.90	48802.51
479.08	49607.65
479.26	49743.41
479.44	49748.09
479.62	49572.55
479.80	49602.97
479.98	49670.85
480.16	49951.71
480.34	49092.74
480.52	50188.11
480.70	50117.89
480.88	50323.86
481.06	50871.54
481.24	50906.65
481.41	52317.99
481.59	52306.29
481.77	51936.49
481.95	51419.23
482.13	51477.74
482.31	51721.16
482.49	52053.51
482.67	51990.32
482.85	52540.35
483.03	52837.59
483.21	53029.52
483.39	52846.96
483.57	52392.89
483.74	52165.86
483.92	52701.84
484.10	52734.61
484.28	53366.55
484.46	53827.64
484.64	53563.16
484.82	52992.07
485.00	52809.51
485.18	52343.74
485.35	51168.79
485.53	47854.59
485.71	44318.04
485.89	44739.34
486.07	47154.77
486.25	49663.83
486.43	51929.47
486.61	51756.27
486.78	52294.59
486.96	52245.44
487.14	53450.81
487.32	54419.80
487.50	55107.91
487.68	55470.70
487.85	56109.66
488.03	55994.98
488.21	55772.63
488.39	54850.45
488.57	54403.41
488.75	54593.00
488.92	55290.48
489.10	57207.37
489.28	58178.70
489.46	58679.57
489.64	58487.65
489.81	58555.52
489.99	58487.65
490.17	58522.76
490.35	58717.02
490.53	58335.51
490.70	57970.39
490.88	57939.96
491.06	58597.65
491.24	58749.79
491.41	57820.59
491.59	56484.15
491.77	55765.60
491.95	56858.63
492.13	57841.66
492.30	58798.94
492.48	59786.64
492.66	60048.78
492.84	59835.80
493.01	59763.24
493.19	59370.03
493.37	58934.69
493.54	58930.01
493.72	59648.55
493.90	60493.49
494.08	60874.99
494.25	61226.07
494.43	61291.61
494.61	61628.65
494.79	61652.05
494.96	61272.88
495.14	61038.83
495.32	60219.64
495.49	59730.47
495.67	60739.24
495.85	61792.48
496.02	61991.43
496.20	61757.38
496.38	61523.32
496.55	61469.49
496.73	61925.89
496.91	61916.53
497.09	62508.69
497.26	62672.52
497.44	62059.30
497.62	61656.73
497.79	60882.02
497.97	59842.82
498.14	59882.61
498.32	60891.38
498.50	61647.37
498.67	62293.36
498.85	62176.33
499.03	62438.47
499.20	62672.52
499.38	62522.73
499.56	62438.47
499.73	61928.23
499.91	61558.43
500.08	61069.26
500.26	60552.00
500.44	61045.85
500.61	61586.52
500.79	61455.45
500.97	61258.84
501.14	60879.67
501.32	60931.17
501.49	61050.53
501.67	61141.81
501.84	61549.07
502.02	61691.84
502.20	61928.23
502.37	62122.50
502.55	62262.93
502.72	62665.50
502.90	63241.28
503.07	62721.68
503.25	62424.43
503.43	61619.28
503.60	61106.71
503.78	60622.22
503.95	61233.10
504.13	62496.98
504.30	63089.14
504.48	62822.32
504.65	62426.77
504.83	62693.59
505.01	63164.04
505.18	63416.82
505.36	63931.73
505.53	63962.16
505.71	64095.57
505.88	64095.57
506.06	63538.52
506.23	63489.37
506.41	62904.24
506.58	63227.23
506.76	63196.80
506.93	63093.82
507.11	62901.90
507.28	63161.70
507.46	62658.48
507.63	62223.14
507.81	62258.25
507.98	62230.16
508.16	62929.98
508.33	63309.15
508.50	63498.73
508.68	63852.15
508.85	64280.47
509.03	64228.98
509.20	63966.84
509.38	63384.05
509.55	62763.81
509.73	62979.14
509.90	63395.75
510.08	63627.46
510.25	63531.50
510.42	63496.39
510.60	63395.75
510.77	63402.77
510.95	64034.72
511.12	64079.19
511.30	64516.87
511.47	64701.77
511.64	64554.32
511.82	64257.07
511.99	63704.70
512.17	63381.71
512.34	62937.01
512.51	63194.46
512.69	63189.78
512.86	63245.96
513.04	63936.41
513.21	63475.33
513.38	63388.73
513.56	62864.45
513.73	62443.15
513.90	62714.65
514.08	62784.87
514.25	62986.16
514.43	63215.53
514.60	63206.17
514.77	63227.23
514.95	63351.28
515.12	63215.53
515.29	63739.81
515.47	64044.08
515.64	64193.87
515.81	63800.66
515.99	63264.68
516.16	61951.64
516.33	60067.51
516.51	58855.11
516.68	58169.33
516.85	57942.30
517.03	58801.28
517.20	60692.43
517.37	62775.51
517.54	63655.55
517.72	62869.13
517.89	60884.36
518.06	58965.12
518.24	59683.66
518.41	61223.73
518.58	62213.78
518.75	62452.51
518.93	62735.72
519.10	62599.97
519.27	63035.31
519.45	63016.58
519.62	63592.36
519.79	64156.42
519.96	63547.89
520.14	63365.32
520.31	62555.50
520.48	62761.47
520.65	63309.15
520.83	63913.01
521.00	64083.87
521.17	63732.79
521.34	63426.18
521.52	63784.28
521.69	64233.66
521.86	64423.25
522.03	64308.56
522.20	63147.65
522.38	62504.01
522.55	62599.97
522.72	63002.54
522.89	63185.10
523.07	63271.70
523.24	63636.83
523.41	64399.84
523.58	64568.36
523.75	65139.45
523.92	64814.12
524.10	64968.59
524.27	64931.14
524.44	64673.68
524.61	64530.91
524.78	64327.28
524.96	64186.85
525.13	64303.88
525.30	64479.42
525.47	64830.50
525.64	64863.27
525.81	64027.70
525.98	62686.57
526.16	61684.82
526.33	61090.32
526.50	60818.82
526.67	60650.30
526.84	61179.26
527.01	61851.00
527.18	62665.50
527.36	63594.70
527.53	64217.28
527.70	64418.56
527.87	63908.33
528.04	63412.13
528.21	63964.50
528.38	64725.17
528.55	65062.21
528.72	65375.84
528.89	65310.31
529.07	65123.07
529.24	64582.40
529.41	64041.74
529.58	63348.94
529.75	63702.36
529.92	64008.97
530.09	64357.71
530.26	64664.32
530.43	65064.55
530.60	65076.26
530.77	65233.07
530.94	65284.56
531.11	64940.50
531.28	64589.42
531.46	64364.73
531.63	64448.99
531.80	64488.78
531.97	64044.08
532.14	63440.22
532.31	62166.97
532.48	61984.41
532.65	62166.97
532.82	63077.44
532.99	63969.18
533.16	64147.06
533.33	64584.74
533.50	64353.03
533.67	63941.10
533.84	63550.23
534.01	63655.55
534.18	63854.50
534.35	63985.57
534.52	63620.44
534.69	64109.61
534.86	64535.59
535.03	64783.69
535.20	64977.95
535.37	65298.61
535.54	65359.46
535.71	64938.16
535.88	64594.10
536.05	64144.72
536.22	63896.62
536.38	63536.18
536.55	63028.29
536.72	62639.76
536.89	62852.75
537.06	63522.14
537.23	64250.05
537.40	64376.43
537.57	64444.31
537.74	64219.62
537.91	64104.93
538.08	64093.23
538.25	64219.62
538.42	64357.71
538.59	64081.53
538.75	63407.45
538.92	63149.99
539.09	63021.26
539.26	63016.58
539.43	63032.97
539.60	63236.59
539.77	63089.14
539.94	62817.64
540.11	62466.56
540.28	62103.77
540.44	62183.35
540.61	62410.38
540.78	62714.65
540.95	62866.79
541.12	63285.75
541.29	63501.07
541.46	63662.57
541.62	63632.14
541.79	63334.90
541.96	63011.90
542.13	63154.68
542.30	63325.53
542.47	63496.39
542.63	63257.66
542.80	62920.62
542.97	63285.75
543.14	63124.25
543.31	63133.61
543.48	63582.99
543.64	64404.52
543.81	64528.57
543.98	64308.56
544.15	63735.13
544.32	63252.98
544.48	63498.73
544.65	63908.33
544.82	64048.76
544.99	63657.89
545.16	63512.78
545.32	63285.75
545.49	64020.67
545.66	64168.13
545.83	63994.93
546.00	63693.00
546.16	63334.90
546.33	63231.91
546.50	63477.67
546.67	63543.20
546.83	63166.38
547.00	63344.26
547.17	62756.78
547.34	62302.72
547.50	62401.02
547.67	62911.26
547.84	62695.93
548.00	63145.31
548.17	63566.61
548.34	63543.20
548.51	63512.78
548.67	63346.60
548.84	63430.86
549.01	63388.73
549.18	63264.68
549.34	63395.75
549.51	63407.45
549.68	63227.23
549.84	63032.97
550.01	63065.73
550.18	62857.43
550.34	62997.86
550.51	63147.65
550.68	62972.11
550.84	62553.16
551.01	62635.08
551.18	62740.40
551.34	62883.17
551.51	63103.18
551.68	63393.41
551.84	63384.05
552.01	63098.50
552.18	63093.82
552.34	62539.11
552.51	62389.32
552.68	62272.29
552.84	62674.87
553.01	62866.79
553.18	62754.44
553.34	62805.94
553.51	62789.55
553.67	63142.97
553.84	63451.92
554.01	63157.02
554.17	62988.50
554.34	63243.62
554.51	63178.08
554.67	63465.97
554.84	63274.04
555.00	62932.32
555.17	62831.68
555.33	62693.59
555.50	62827.00
555.67	62717.00
555.83	62489.96
556.00	62279.31
556.16	62349.53
556.33	62010.15
556.50	61993.77
556.66	62031.22
556.83	61825.25
556.99	61853.34
557.16	62021.86
557.32	62148.24
557.49	62450.17
557.65	62274.63
557.82	62344.85
557.98	62042.92
558.15	61530.34
558.32	61090.32
558.48	60322.63
558.65	60495.83
558.81	60727.54
558.98	61155.86
559.14	61347.78
559.31	61261.18
559.47	61324.38
559.64	61055.21
559.80	60994.36
559.97	60907.76
560.13	61478.85
560.30	62087.39
560.46	62269.95
560.63	62763.81
560.79	62698.27
560.96	62326.13
561.12	61141.81
561.29	60451.36
561.45	60603.49
561.61	61275.22
561.78	61490.55
561.94	61223.73
562.11	61216.71
562.27	61289.27
562.44	61315.01
562.60	61633.33
562.77	61888.45
562.93	61733.97
563.10	61783.12
563.26	61261.18
563.42	61219.05
563.59	61078.62
563.75	61169.90
563.92	61268.20
564.08	61064.58
564.24	61326.72
564.41	61474.17
564.57	61216.71
564.74	61134.79
564.90	61038.83
565.07	60994.36
565.23	60807.12
565.39	60245.39
565.56	59985.59
565.72	59884.95
565.88	60130.70
566.05	60336.67
566.21	60446.68
566.38	60540.30
566.54	60619.88
566.70	60664.35
566.87	61050.53
567.03	61148.84
567.19	61403.95
567.36	61132.45
567.52	61015.43
567.68	60750.94
567.85	60182.19
568.01	59901.33
568.17	59669.62
568.34	59606.42
568.50	59491.74
568.66	59650.89
568.83	59847.50
568.99	59987.93
569.15	60186.88
569.32	60334.33
569.48	60018.36
569.64	59831.11
569.81	59681.32
569.97	59473.01
570.13	59477.69
570.30	58930.01
570.46	58763.83
570.62	58148.27
570.78	58150.61
570.95	58457.22
571.11	59021.29
571.27	59224.92
571.43	59545.57
571.60	59845.16
571.76	60051.12
571.92	60322.63
572.09	60329.65
572.25	60299.22
572.41	60186.88
572.57	59948.14
572.74	59929.42
572.90	59819.41
573.06	59611.10
573.22	59662.60
573.38	59639.19
573.55	59585.36
573.71	59931.76
573.87	59702.38
574.03	59421.52
574.20	59561.95
574.36	59182.79
574.52	59171.08
574.68	58925.33
574.84	58583.61
575.01	58361.26
575.17	58351.90
575.33	58541.48
575.49	58918.31
575.65	59044.69
575.82	58660.85
575.98	58520.41
576.14	58784.90
576.30	58815.32
576.46	58941.71
576.62	58892.56
576.79	59079.80
576.95	58733.40
577.11	58707.66
577.27	58796.60
577.43	58752.13
577.59	58281.68
577.75	57925.92
577.92	57694.21
578.08	57696.55
578.24	57584.20
578.40	57741.02
578.56	57785.49
578.72	57914.22
578.88	58082.73
579.04	58302.74
579.21	58431.47
579.37	58508.71
579.53	58527.44
579.69	58277.00
579.85	58567.23
580.01	58148.27
580.17	57886.13
580.33	57900.17
580.49	57907.19
580.65	58232.53
580.82	58529.78
580.98	58412.75
581.14	58415.09
581.30	58396.37
581.46	58344.87
581.62	58478.28
581.78	58302.74
581.94	58707.66
582.10	58808.30
582.26	58665.53
582.42	58621.06
582.58	58590.63
582.74	58478.28
582.90	58576.59
583.06	58630.42
583.22	58445.52
583.38	58349.56
583.54	58239.55
583.70	58239.55
583.86	58178.70
584.02	57954.00
584.18	58529.78
584.34	58368.28
584.50	57928.26
584.66	58103.80
584.82	57701.23
584.98	57560.79
585.14	57148.86
