SpectraSuite Data File
++++++++++++++++++++++++++++++++++++
Date: Mon Oct 07 14:53:47 GMT-05:00 2013
User: price-jones
Dark Spectrum Present: No
Reference Spectrum Present: No
Number of Sampled Component Spectra: 1
Spectrometers: USB2+H05261
Integration Time (usec): 100000 (USB2+H05261)
Spectra Averaged: 1 (USB2+H05261)
Boxcar Smoothing: 0 (USB2+H05261)
Correct for Electrical Dark: No (USB2+H05261)
Strobe/Lamp Enabled: No (USB2+H05261)
Correct for Detector Non-linearity: No (USB2+H05261)
Correct for Stray Light: No (USB2+H05261)
Number of Pixels in Processed Spectrum: 2048
>>>>>Begin Processed Spectral Data<<<<<
365.73	0.00
365.92	0.00
366.12	0.00
366.32	0.00
366.52	0.00
366.72	0.00
366.91	0.00
367.11	0.00
367.31	0.00
367.51	0.00
367.70	0.00
367.90	0.00
368.10	0.00
368.30	0.00
368.49	0.00
368.69	0.00
368.89	0.00
369.09	0.00
369.28	0.00
369.48	0.00
369.68	0.00
369.87	0.00
370.07	0.00
370.27	0.00
370.47	620.24
370.66	2965.46
370.86	3581.02
371.06	3817.41
371.25	4163.81
371.45	3602.08
371.65	3321.22
371.84	2885.88
372.04	3197.17
372.24	3520.17
372.44	3751.88
372.63	3566.98
372.83	3225.26
373.03	2932.69
373.22	2757.15
373.42	2806.30
373.62	3365.69
373.81	3714.43
374.01	3651.24
374.21	3316.54
374.40	2923.33
374.60	3080.14
374.79	3520.17
374.99	4194.24
375.19	4451.70
375.38	4428.29
375.58	4297.22
375.78	4194.24
375.97	3976.57
376.17	4374.46
376.37	4224.67
376.56	4440.00
376.76	4711.50
376.95	4950.23
377.15	5341.10
377.35	5633.67
377.54	5914.53
377.74	5874.74
377.93	6057.31
378.13	5806.87
378.33	5453.45
378.52	5020.45
378.72	4830.87
378.91	4915.12
379.11	4587.45
379.31	4329.99
379.50	4477.44
379.70	4947.89
379.89	5331.74
380.09	5811.55
380.28	5870.06
380.48	5893.47
380.68	5701.54
380.87	5589.20
381.07	5011.09
381.26	4823.84
381.46	4561.70
381.65	4346.37
381.85	4306.59
382.04	4058.49
382.24	3772.94
382.43	3536.55
382.63	3447.61
382.83	3571.66
383.02	3562.30
383.22	3574.00
383.41	3454.63
383.61	3854.86
383.80	4266.80
384.00	4812.14
384.19	5509.62
384.39	5867.72
384.58	5837.30
384.78	5774.10
384.97	5694.52
385.17	5401.96
385.36	5125.77
385.56	4760.65
385.75	5055.56
385.95	5577.50
386.14	6012.84
386.34	6010.50
386.53	5640.69
386.72	5364.51
386.92	5500.26
387.11	5731.97
387.31	5937.94
387.50	5977.73
387.70	5750.70
387.89	5444.09
388.09	5776.44
388.28	5673.46
388.48	5591.54
388.67	6298.38
388.86	6942.03
389.06	7218.21
389.25	7882.92
389.45	7936.76
389.64	7693.34
389.84	7492.05
390.03	7503.76
390.22	7611.42
390.42	7889.95
390.61	8411.89
390.81	8800.41
391.00	9193.62
391.19	9041.49
391.39	8709.13
391.58	8180.17
391.78	7686.32
391.97	7499.08
392.16	6888.20
392.36	6363.92
392.55	5090.67
392.75	4086.58
392.94	3318.88
393.13	3164.40
393.33	3854.86
393.52	4929.17
393.71	6167.31
393.91	6958.41
394.10	7489.71
394.29	8121.66
394.49	8739.56
394.68	9554.07
394.88	9530.66
395.07	9977.70
395.26	9710.88
395.46	9472.15
395.65	8924.46
395.84	7756.54
396.04	6733.72
396.23	5488.56
396.42	4505.53
396.62	4227.01
396.81	4821.50
397.00	6356.90
397.19	7913.35
397.39	9612.58
397.58	10647.10
397.77	11363.30
397.97	11903.96
398.16	11775.24
398.35	12196.53
398.55	12828.48
398.74	13298.92
398.93	13640.64
399.12	13238.07
399.32	12627.19
399.51	13018.06
399.70	14045.55
399.90	13631.28
400.09	13902.78
400.28	13692.13
400.47	13818.52
400.67	14427.06
400.86	15021.56
401.05	14977.09
401.24	14738.35
401.44	15243.91
401.63	15119.86
401.82	15288.38
402.01	15178.37
402.21	15508.39
402.40	15494.35
402.59	14960.70
402.78	14303.01
402.97	14066.62
403.17	14527.71
403.36	15367.96
403.55	15908.62
403.74	16290.13
403.93	15452.22
404.13	14132.15
404.32	13907.46
404.51	14546.43
404.70	15812.66
404.89	15630.10
405.09	15611.37
405.28	15035.60
405.47	14895.17
405.66	15098.80
405.85	14672.82
406.05	14445.79
406.24	14420.04
406.43	15091.77
406.62	15772.87
406.81	15695.63
407.00	15484.98
407.20	14953.68
407.39	15016.88
407.58	15541.16
407.77	16154.38
407.96	16769.94
408.15	16863.56
408.34	17083.57
408.54	17844.24
408.73	18111.07
408.92	17624.23
409.11	17205.28
409.30	16386.09
409.49	15513.07
409.68	14331.10
409.87	14022.15
410.07	14649.41
410.26	15910.96
410.45	17006.33
410.64	17486.14
410.83	17912.12
411.02	18401.29
411.21	18810.89
411.40	18726.63
411.59	18675.13
411.78	18916.21
411.98	18794.50
412.17	18764.07
412.36	18506.62
412.55	18548.75
412.74	18122.77
412.93	17563.38
413.12	18080.64
413.31	19580.92
413.50	19843.06
413.69	20109.88
413.88	19365.59
414.07	18855.36
414.26	19040.26
414.45	19646.46
414.64	20088.82
414.83	19742.42
415.02	19271.97
415.22	19597.31
415.41	20013.92
415.60	20245.63
415.79	21336.32
415.98	21979.97
416.17	22001.04
416.36	21247.38
416.55	20669.27
416.74	20161.37
416.93	19571.56
417.12	19637.09
417.31	20093.50
417.50	20430.54
417.69	21137.38
417.88	20552.24
418.07	20737.15
418.26	20086.48
418.45	20580.33
418.64	21418.24
418.83	21734.21
419.02	21722.51
419.21	21600.80
419.39	20753.53
419.58	19609.01
419.77	19976.47
419.96	20709.06
420.15	21820.81
420.34	21982.31
420.53	23002.78
420.72	23562.17
420.91	23431.10
421.10	22520.63
421.29	22810.86
421.48	21792.73
421.67	23201.73
421.86	22707.88
422.05	21043.76
422.24	18911.53
422.43	18534.70
422.61	20341.60
422.80	22188.28
422.99	22527.66
423.18	21497.82
423.37	21020.35
423.56	21090.57
423.75	21310.58
423.94	21846.56
424.13	20795.66
424.32	20798.00
424.50	21242.70
424.69	20713.74
424.88	21053.12
425.07	20697.36
425.26	20936.09
425.45	20538.20
425.64	19992.86
425.83	20320.53
426.01	21097.59
426.20	22094.66
426.39	21832.52
426.58	20285.42
426.77	18518.32
426.96	18015.10
427.15	18611.94
427.33	20123.93
427.52	20891.62
427.71	20917.37
427.90	20753.53
428.09	20599.05
428.28	20016.26
428.46	19267.29
428.65	18986.43
428.84	19515.39
429.03	20046.69
429.22	18841.31
429.40	18040.85
429.59	16428.22
429.78	14450.47
429.97	14370.89
430.16	14600.26
430.34	14569.83
430.53	14618.99
430.72	14909.21
430.91	16594.40
431.10	19337.51
431.28	22738.30
431.47	24599.03
431.66	25439.28
431.85	23021.51
432.03	20828.43
432.22	20023.28
432.41	21120.99
432.60	23332.80
432.79	24105.18
432.97	24713.72
433.16	24018.58
433.35	22024.44
433.54	19819.66
433.72	18405.97
433.91	19276.65
434.10	21329.30
434.28	23047.26
434.47	24360.30
434.66	23702.61
434.85	23101.09
435.03	23047.26
435.22	23793.89
435.41	24954.79
435.59	25261.40
435.78	25598.44
435.97	26340.39
436.16	26281.88
436.34	25781.00
436.53	25544.61
436.72	25348.00
436.90	23960.06
437.09	23924.96
437.28	23733.03
437.46	24594.35
437.65	24304.12
437.84	22635.32
438.02	20613.10
438.21	20650.55
438.40	21776.34
438.58	23796.23
438.77	24159.01
438.96	24694.99
439.14	25568.01
439.33	26185.91
439.52	26883.39
439.70	26134.42
439.89	25507.16
440.08	24851.81
440.26	24676.27
440.45	25458.01
440.63	27056.59
440.82	28627.09
441.01	28231.54
441.19	27789.18
441.38	28297.08
441.57	29390.11
441.75	29991.62
441.94	30354.41
442.12	29762.25
442.31	30185.89
442.50	30176.53
442.68	29858.21
442.87	29743.53
443.05	28957.11
443.24	29298.83
443.43	29727.14
443.61	30733.57
443.80	31075.29
443.98	29305.85
444.17	29252.02
444.35	31208.70
444.54	31821.92
444.73	31201.68
444.91	30352.07
445.10	28907.96
445.28	27803.22
445.47	27037.87
445.65	27175.96
445.84	27894.50
446.02	29198.18
446.21	29553.94
446.39	29720.12
446.58	29937.79
446.77	30389.52
446.95	30637.61
447.14	31669.79
447.32	31985.76
447.51	31679.15
447.69	30415.26
447.88	29972.90
448.06	30050.14
448.25	31007.42
448.43	31213.38
448.62	30216.32
448.80	30169.51
448.99	30789.75
449.17	30700.81
449.36	30658.68
449.54	31669.79
449.73	32446.85
449.91	32634.09
450.10	34106.29
450.28	34511.20
450.46	34160.12
450.65	34019.69
450.83	33727.12
451.02	33076.45
451.20	32542.81
451.39	32800.27
451.57	32613.02
451.76	32577.92
451.94	32556.85
452.13	31892.14
452.31	30473.78
452.49	28840.08
452.68	29263.72
452.86	29350.32
453.05	30040.78
453.23	30714.85
453.42	31421.69
453.60	32421.10
453.78	32247.90
453.97	32327.48
454.15	31754.05
454.34	31529.36
454.52	31646.38
454.70	30827.20
454.89	31599.57
455.07	31594.89
455.26	32285.35
455.44	32840.06
455.62	33572.64
455.81	33935.43
455.99	33638.18
456.17	33308.16
456.36	33600.73
456.54	34382.47
456.73	34363.75
456.91	34794.40
457.09	35285.92
457.28	35826.58
457.46	34169.48
457.64	34096.92
457.83	32929.00
458.01	31910.86
458.19	33083.47
458.38	33041.34
458.56	34593.12
458.74	34359.06
458.93	33383.06
459.11	33479.02
459.29	32870.48
459.48	33385.40
459.66	33343.27
459.84	33818.40
460.03	34183.52
460.21	34176.50
460.39	34567.37
460.57	34836.53
460.76	35232.08
460.94	35515.29
461.12	34590.78
461.31	35171.23
461.49	35091.65
461.67	34953.56
461.85	36025.53
462.04	36053.61
462.22	36130.85
462.40	35840.62
462.59	35548.06
462.77	35950.63
462.95	35744.66
463.13	35215.70
463.32	35178.25
463.50	34747.59
463.68	35201.66
463.86	35061.22
464.05	34525.24
464.23	33783.29
464.41	33479.02
464.59	32945.38
464.78	34534.60
464.96	34799.08
465.14	34415.24
465.32	34953.56
465.50	35810.20
465.69	35842.96
465.87	35695.51
466.05	34682.06
466.23	33219.22
466.41	32191.73
466.60	33268.37
466.78	32678.56
466.96	34061.82
467.14	34609.50
467.32	35023.78
467.51	35101.01
467.69	33298.80
467.87	34089.90
468.05	34511.20
468.23	34696.10
468.41	34803.77
468.60	34733.55
468.78	35051.86
468.96	34366.09
469.14	35374.86
469.32	35501.25
469.50	33708.40
469.69	34394.17
469.87	34019.69
470.05	33668.61
470.23	33240.29
470.41	33450.94
470.59	34181.18
470.77	34305.23
470.95	35204.00
471.14	35168.89
471.32	35306.98
471.50	37848.80
471.68	37322.18
471.86	37954.13
472.04	38218.61
472.22	38122.65
472.40	36306.39
472.58	36130.85
472.77	35672.10
472.95	36271.28
473.13	37432.19
473.31	36364.90
473.49	36439.80
473.67	37467.30
473.85	37567.94
474.03	38277.12
474.21	38314.57
474.39	38801.40
474.57	38941.83
474.75	39044.82
474.93	38602.46
475.12	37322.18
475.30	37886.25
475.48	38209.25
475.66	38199.88
475.84	38087.54
476.02	37876.89
476.20	36884.50
476.38	38108.60
476.56	39108.01
476.74	39456.75
476.92	39552.71
477.10	40212.74
477.28	41455.57
477.46	41532.81
477.64	41572.60
477.82	42122.62
478.00	42314.55
478.18	41450.89
478.36	41567.91
478.54	41144.28
478.72	41691.96
478.90	42473.70
479.08	43983.35
479.26	43948.24
479.44	44093.35
479.62	43842.92
479.80	44109.74
479.98	43662.69
480.16	44535.71
480.34	43697.80
480.52	44524.01
480.70	44596.57
480.88	44395.28
481.06	45588.95
481.24	45081.06
481.41	46562.62
481.59	47232.01
481.77	46962.85
481.95	45975.14
482.13	45731.73
482.31	46270.05
482.49	46890.29
482.67	46337.93
482.85	46721.77
483.03	47503.51
483.21	48011.41
483.39	47782.04
483.57	46876.25
483.74	47056.47
483.92	46951.15
484.10	46913.70
484.28	48217.38
484.46	48406.96
484.64	49066.99
484.82	48098.01
485.00	47363.08
485.18	47030.72
485.35	45373.63
485.53	42279.44
485.71	38543.94
485.89	38033.71
486.07	40299.34
486.25	43398.21
486.43	45581.93
486.61	46403.46
486.78	46319.20
486.96	46969.87
487.14	48830.60
487.32	49085.72
487.50	50363.65
487.68	50920.70
487.85	51503.49
488.03	51634.56
488.21	50916.01
488.39	50312.16
488.57	49883.84
488.75	49755.11
488.92	50761.54
489.10	52610.56
489.28	53825.30
489.46	54335.54
489.64	54380.01
489.81	54478.31
489.99	54103.82
490.17	53961.05
490.35	54639.81
490.53	54064.03
490.70	53588.91
490.88	53806.58
491.06	54527.46
491.24	54798.96
491.41	53490.60
491.59	51861.59
491.77	51044.74
491.95	52367.15
492.13	53118.46
492.30	54518.10
492.48	55456.65
492.66	56067.53
492.84	55985.61
493.01	55828.80
493.19	55007.27
493.37	54843.43
493.54	54450.22
493.72	55044.72
493.90	56114.34
494.08	56743.95
494.25	57160.56
494.43	57343.12
494.61	57656.76
494.79	57717.61
494.96	57457.81
495.14	56956.94
495.32	55838.16
495.49	55416.86
495.67	56460.74
495.85	57839.32
496.02	58241.89
496.20	57961.03
496.38	57532.71
496.55	57415.68
496.73	57874.43
496.91	58033.58
497.09	58365.94
497.26	58702.98
497.44	58244.23
497.62	57722.29
497.79	57069.28
497.97	55922.42
498.14	55730.50
498.32	57078.64
498.50	57715.27
498.67	58379.98
498.85	58108.48
499.03	58520.41
499.20	58710.00
499.38	58592.97
499.56	58412.75
499.73	58007.84
499.91	57771.44
500.08	57228.44
500.26	56467.76
500.44	56893.74
500.61	57537.39
500.79	57509.30
500.97	57038.86
501.14	56837.57
501.32	56842.25
501.49	57048.22
501.67	57120.77
501.84	57577.18
502.02	57979.75
502.20	58129.54
502.37	58073.37
502.55	58358.92
502.72	58801.28
502.90	59131.29
503.07	58880.86
503.25	58585.95
503.43	57813.57
503.60	57272.91
503.78	56580.11
503.95	57055.24
504.13	58312.11
504.30	59128.95
504.48	58829.37
504.65	58548.50
504.83	58461.90
505.01	59178.10
505.18	59379.39
505.36	60109.64
505.53	59990.27
505.71	60301.56
505.88	60315.61
506.06	59831.11
506.23	59346.62
506.41	59037.67
506.58	59351.30
506.76	59288.11
506.93	59173.42
507.11	58899.58
507.28	59140.66
507.46	58607.01
507.63	58061.67
507.81	57935.28
507.98	58164.65
508.16	58827.02
508.33	59330.24
508.50	59709.41
508.68	59838.14
508.85	60563.70
509.03	60477.10
509.20	60207.94
509.38	59810.05
509.55	58745.11
509.73	58955.75
509.90	59320.88
510.08	59812.39
510.25	59533.87
510.42	59393.43
510.60	59377.05
510.77	59690.68
510.95	60172.83
511.12	60179.85
511.30	60619.88
511.47	60654.98
511.64	60594.13
511.82	60474.76
511.99	59363.01
512.17	59194.49
512.34	58866.81
512.51	59210.87
512.69	59164.06
512.86	59377.05
513.04	59458.97
513.21	59779.62
513.38	59334.92
513.56	58944.05
513.73	58492.33
513.90	58663.19
514.08	58707.66
514.25	58988.52
514.43	59002.56
514.60	59040.01
514.77	59536.21
514.95	59327.90
515.12	59405.14
515.29	59653.23
515.47	60116.66
515.64	60264.11
515.81	59950.48
515.99	59306.83
516.16	58178.70
516.33	55929.44
516.51	54417.46
516.68	53703.59
516.85	53270.59
517.03	53605.29
517.20	55791.35
517.37	58443.18
517.54	59578.34
517.72	59231.94
517.89	56783.74
518.06	54492.35
518.24	54679.60
518.41	56741.61
518.58	58012.52
518.75	58363.60
518.93	58452.54
519.10	58300.40
519.27	58801.28
519.45	58934.69
519.62	59494.08
519.79	60226.66
519.96	59774.94
520.14	59632.17
520.31	58396.37
520.48	58543.82
520.65	58848.09
520.83	59728.13
521.00	60168.15
521.17	59678.98
521.34	59475.35
521.52	59887.29
521.69	60177.51
521.86	60573.06
522.03	60453.70
522.20	59093.85
522.38	58258.27
522.55	58110.82
522.72	58883.20
522.89	59037.67
523.07	59297.47
523.24	59409.82
523.41	60229.01
523.58	60505.19
523.75	60985.00
523.92	60781.37
524.10	60743.92
524.27	60739.24
524.44	60484.12
524.61	60411.57
524.78	60252.41
524.96	59955.16
525.13	60210.28
525.30	60282.84
525.47	60837.54
525.64	60664.35
525.81	60046.44
525.98	58869.15
526.16	57312.70
526.33	56554.36
526.50	56364.78
526.67	56065.19
526.84	56823.53
527.01	57579.52
527.18	58412.75
527.36	59157.04
527.53	59882.61
527.70	60088.57
527.87	59983.25
528.04	59089.16
528.21	59875.58
528.38	60278.16
528.55	61034.15
528.72	61127.77
528.89	61403.95
529.07	61153.52
529.24	60406.89
529.41	59739.83
529.58	59231.94
529.75	59309.18
529.92	59985.59
530.09	60102.62
530.26	60626.90
530.43	61022.45
530.60	60956.91
530.77	61205.01
530.94	61165.22
531.11	60959.25
531.28	60547.32
531.46	60306.24
531.63	60533.28
531.80	60229.01
531.97	60182.19
532.14	59124.27
532.31	58340.19
532.48	57474.20
532.65	57476.54
532.82	58543.82
532.99	59735.15
533.16	59983.25
533.33	60360.08
533.50	60294.54
533.67	59604.08
533.84	59147.68
534.01	59536.21
534.18	59522.16
534.35	59875.58
534.52	59714.09
534.69	59833.46
534.86	60079.21
535.03	60320.29
535.20	60746.26
535.37	61202.67
535.54	61291.61
535.71	60750.94
535.88	60636.26
536.05	60107.30
536.22	59468.33
536.38	59313.86
536.55	58965.12
536.72	58394.03
536.89	58314.45
537.06	59077.46
537.23	60196.24
537.40	60102.62
537.57	60128.36
537.74	59807.71
537.91	59796.01
538.08	59676.64
538.25	59889.63
538.42	60083.89
538.59	60133.04
538.75	59299.81
538.92	59037.67
539.09	58969.80
539.26	58611.70
539.43	58447.86
539.60	58731.06
539.77	58798.94
539.94	58922.99
540.11	58047.63
540.28	57406.32
540.44	57659.10
540.61	57923.58
540.78	57996.13
540.95	58497.01
541.12	58958.09
541.29	59051.72
541.46	59379.39
541.62	59391.09
541.79	59224.92
541.96	58583.61
542.13	58635.10
542.30	58972.14
542.47	59217.89
542.63	58761.49
542.80	58649.14
542.97	58913.62
543.14	58759.15
543.31	58731.06
543.48	59281.09
543.64	60055.81
543.81	60339.01
543.98	60135.38
544.15	59461.31
544.32	58590.63
544.48	58955.75
544.65	59407.48
544.82	59695.36
544.99	59260.02
545.16	59042.35
545.32	58775.53
545.49	59451.95
545.66	59838.14
545.83	59613.44
546.00	59131.29
546.16	58808.30
546.33	59054.06
546.50	58798.94
546.67	59393.43
546.83	59091.51
547.00	59075.12
547.17	58333.17
547.34	58005.50
547.50	57836.98
547.67	58218.49
547.84	58391.68
548.00	58534.46
548.17	59023.63
548.34	58724.04
548.51	58937.03
548.67	58897.24
548.84	59166.40
549.01	58951.07
549.18	58990.86
549.34	58670.21
549.51	58927.67
549.68	58621.06
549.84	58515.73
550.01	58548.50
550.18	58351.90
550.34	58365.94
550.51	58595.31
550.68	58607.01
550.84	57968.05
551.01	58136.57
551.18	58103.80
551.34	58262.96
551.51	58857.45
551.68	59047.04
551.84	58997.88
552.01	58841.07
552.18	58904.26
552.34	58106.14
552.51	57631.01
552.68	57434.41
552.84	57844.00
553.01	58089.76
553.18	57909.53
553.34	58237.21
553.51	58473.60
553.67	58482.97
553.84	58541.48
554.01	58433.81
554.17	58499.35
554.34	58379.98
554.51	58326.15
554.67	58808.30
554.84	58731.06
555.00	58305.09
555.17	58356.58
555.33	58122.52
555.50	58138.91
555.67	57911.88
555.83	58038.26
556.00	57806.55
556.16	57818.25
556.33	57373.55
556.50	57268.23
556.66	57219.08
556.83	56753.31
556.99	57174.61
557.16	57162.90
557.32	57450.79
557.49	57523.35
557.65	57804.21
557.82	57553.77
557.98	57579.52
558.15	57308.02
558.32	56264.14
558.48	55454.31
558.65	55587.72
558.81	55873.27
558.98	56257.12
559.14	56528.62
559.31	56552.02
559.47	56603.52
559.64	56409.25
559.80	55957.53
559.97	55597.09
560.13	56435.00
560.30	57378.23
560.46	57925.92
560.63	57888.47
560.79	58038.26
560.96	57570.16
561.12	56514.58
561.29	55746.88
561.45	55856.88
561.61	56285.20
561.78	56598.83
561.94	56603.52
562.11	56100.30
562.27	56282.86
562.44	56685.43
562.60	56938.21
562.77	57148.86
562.93	56989.70
563.10	57148.86
563.26	56289.88
563.42	56193.92
563.59	56175.20
563.75	56348.40
563.92	56467.76
564.08	56184.56
564.24	56566.07
564.41	56474.79
564.57	56198.60
564.74	56198.60
564.90	56020.72
565.07	55959.87
565.23	55440.27
565.39	55150.04
565.56	54787.26
565.72	54660.87
565.88	55250.69
566.05	55346.65
566.21	55480.06
566.38	55606.45
566.54	55601.77
566.70	56095.62
566.87	56233.71
567.03	56142.43
567.19	56371.80
567.36	55964.55
567.52	56163.50
567.68	55810.07
567.85	55014.29
568.01	54831.73
568.17	54735.77
568.34	54763.85
568.50	54508.74
568.66	54499.37
568.83	54824.71
568.99	54962.80
569.15	55077.49
569.32	54789.60
569.48	54869.18
569.64	54691.30
569.81	54412.77
569.97	54174.04
570.13	54298.09
570.30	53818.28
570.46	53111.44
570.62	52797.80
570.78	52858.66
570.95	52830.57
571.11	53846.36
571.27	53972.75
571.43	54354.26
571.60	54473.63
571.76	54897.27
571.92	54848.11
572.09	55089.19
572.25	54869.18
572.41	55047.06
572.57	54583.63
572.74	54934.71
572.90	54382.35
573.06	54443.20
573.22	54344.90
573.38	54380.01
573.55	54417.46
573.71	54475.97
573.87	54487.67
574.03	54279.36
574.20	54410.43
574.36	53867.43
574.52	53867.43
574.68	53329.11
574.84	53249.53
575.01	52683.12
575.17	52694.82
575.33	52875.04
575.49	53467.20
575.65	53586.57
575.82	53317.40
575.98	53034.20
576.14	53317.40
576.30	53392.30
576.46	53935.30
576.62	53359.53
576.79	53336.13
576.95	53188.67
577.11	53006.11
577.27	53008.45
577.43	53188.67
577.59	52769.72
577.75	52406.94
577.92	52004.36
578.08	51522.21
578.24	51749.24
578.40	52193.95
578.56	52521.62
578.72	52299.27
578.88	52516.94
579.04	52697.16
579.21	52547.37
579.37	52772.06
579.53	52783.76
579.69	52903.13
579.85	53174.63
580.01	52774.40
580.17	52360.12
580.33	52505.24
580.49	52254.80
580.65	52619.92
580.82	52956.96
580.98	52903.13
581.14	52626.95
581.30	52636.31
581.46	52559.07
581.62	52882.06
581.78	52729.93
581.94	52959.30
582.10	53102.07
582.26	53113.78
582.42	53017.82
582.58	52912.49
582.74	52949.94
582.90	52804.83
583.06	52856.32
583.22	52729.93
583.38	52793.12
583.54	52575.45
583.70	52282.89
583.86	52750.99
584.02	52310.97
584.18	52601.20
584.34	52519.28
584.50	52556.73
584.66	52170.54
584.82	51901.38
584.98	51655.62
585.14	51227.31
585.30	50962.82
