SpectraSuite Data File
++++++++++++++++++++++++++++++++++++
Date: Mon Oct 07 14:54:02 GMT-05:00 2013
User: price-jones
Dark Spectrum Present: No
Reference Spectrum Present: No
Number of Sampled Component Spectra: 1
Spectrometers: USB2+H05261
Integration Time (usec): 100000 (USB2+H05261)
Spectra Averaged: 1 (USB2+H05261)
Boxcar Smoothing: 0 (USB2+H05261)
Correct for Electrical Dark: No (USB2+H05261)
Strobe/Lamp Enabled: No (USB2+H05261)
Correct for Detector Non-linearity: No (USB2+H05261)
Correct for Stray Light: No (USB2+H05261)
Number of Pixels in Processed Spectrum: 2048
>>>>>Begin Processed Spectral Data<<<<<
365.73	0.00
365.92	0.00
366.12	0.00
366.32	0.00
366.52	0.00
366.72	0.00
366.91	0.00
367.11	0.00
367.31	0.00
367.51	0.00
367.70	0.00
367.90	0.00
368.10	0.00
368.30	0.00
368.49	0.00
368.69	0.00
368.89	0.00
369.09	0.00
369.28	0.00
369.48	0.00
369.68	0.00
369.87	0.00
370.07	0.00
370.27	0.00
370.47	660.03
370.66	3566.98
370.86	4201.26
371.06	4767.67
371.25	4690.43
371.45	4304.25
371.65	3756.56
371.84	3531.87
372.04	3695.71
372.24	4255.09
372.44	4346.37
372.63	4241.05
372.83	4058.49
373.03	3571.66
373.22	3243.98
373.42	3361.01
373.62	3920.40
373.81	4112.32
374.01	4360.42
374.21	3941.46
374.40	3522.51
374.60	3789.33
374.79	4154.45
374.99	4840.23
375.19	5247.48
375.38	5224.08
375.58	4919.81
375.78	4868.31
375.97	4744.27
376.17	5025.13
376.37	4985.34
376.56	5282.59
376.76	5659.42
376.95	5874.74
377.15	6256.25
377.35	6448.18
377.54	6509.03
377.74	7054.37
377.93	7023.95
378.13	6785.21
378.33	6497.33
378.52	5746.02
378.72	5743.67
378.91	5617.29
379.11	5514.30
379.31	5198.33
379.50	5313.02
379.70	5547.07
379.89	6289.02
380.09	6581.59
380.28	6808.62
380.48	6825.00
380.68	6640.10
380.87	6754.79
381.07	6059.65
381.26	5528.35
381.46	5165.56
381.65	4987.68
381.85	4973.64
382.04	4634.26
382.24	4400.21
382.43	4182.54
382.63	3997.64
382.83	4105.30
383.02	4100.62
383.22	4187.22
383.41	4297.22
383.61	4409.57
383.80	5078.96
384.00	5687.50
384.19	6420.09
384.39	6647.12
384.58	6569.88
384.78	6525.41
384.97	6466.90
385.17	6197.74
385.36	5671.12
385.56	5441.75
385.75	5717.93
385.95	6296.04
386.14	6972.46
386.34	6871.81
386.53	6682.23
386.72	6108.80
386.92	6127.52
387.11	6691.59
387.31	6754.79
387.50	6705.63
387.70	6530.09
387.89	6443.49
388.09	6478.60
388.28	6696.27
388.48	6703.29
388.67	7206.51
388.86	7913.35
389.06	8568.70
389.25	8919.78
389.45	8908.08
389.64	9043.83
389.84	8833.18
390.03	8514.87
390.22	8627.21
390.42	8957.23
390.61	9310.65
390.81	10216.44
391.00	10436.45
391.19	10225.80
391.39	9905.15
391.58	9256.82
391.78	8678.71
391.97	8470.40
392.16	8006.97
392.36	7368.01
392.55	5633.67
392.75	4849.59
392.94	3796.35
393.13	3627.83
393.33	4339.35
393.52	5792.83
393.71	6951.39
393.91	7740.15
394.10	8479.76
394.29	9210.01
394.49	10125.16
394.68	10780.51
394.88	10689.23
395.07	11190.10
395.26	10895.19
395.46	10883.49
395.65	10420.06
395.84	8926.80
396.04	7480.35
396.23	6076.03
396.42	4959.60
396.62	4772.35
396.81	5661.76
397.00	7342.26
397.19	9165.54
397.39	10988.82
397.58	12306.54
397.77	13011.04
397.97	13399.57
398.16	13523.62
398.35	14040.87
398.55	14188.33
398.74	15047.30
398.93	15232.21
399.12	14939.64
399.32	14815.59
399.51	14932.62
399.70	15697.97
399.90	15798.62
400.09	15602.01
400.28	15585.63
400.47	15840.75
400.67	16269.06
400.86	16975.91
401.05	16912.71
401.24	17034.42
401.44	17167.83
401.63	16910.37
401.82	17422.95
402.01	17041.44
402.21	17752.96
402.40	17586.79
402.59	17275.49
402.78	16418.86
402.97	15812.66
403.17	16299.49
403.36	17584.44
403.55	18263.20
403.74	18167.24
403.93	17397.20
404.13	16212.89
404.32	15948.41
404.51	16524.18
404.70	17797.43
404.89	17994.04
405.09	17568.06
405.28	17062.51
405.47	16926.75
405.66	17170.17
405.85	16638.87
406.05	16063.10
406.24	16350.98
406.43	16898.67
406.62	17605.51
406.81	17862.97
407.00	16957.18
407.20	16681.00
407.39	16519.50
407.58	17539.97
407.77	18326.39
407.96	18892.80
408.15	19009.83
408.34	19218.14
408.54	20170.74
408.73	20123.93
408.92	19824.34
409.11	19243.88
409.30	18246.82
409.49	17156.13
409.68	16301.83
409.87	15470.94
410.07	16905.69
410.26	18192.98
410.45	19286.01
410.64	19557.52
410.83	19999.88
411.02	20374.36
411.21	21579.74
411.40	20975.88
411.59	20966.52
411.78	21125.68
411.98	20870.56
412.17	21261.43
412.36	20802.68
412.55	20830.77
412.74	19920.30
412.93	19644.12
413.12	19995.20
413.31	21827.84
413.50	22108.70
413.69	22497.23
413.88	21570.38
414.07	20966.52
414.26	21493.14
414.45	21909.75
414.64	22338.07
414.83	22417.65
415.02	21502.50
415.22	21827.84
415.41	22012.74
415.60	22888.10
415.79	23623.03
415.98	24346.25
416.17	24332.21
416.36	24044.32
416.55	23253.22
416.74	22726.60
416.93	21893.37
417.12	21827.84
417.31	22071.25
417.50	22614.26
417.69	23351.52
417.88	23068.32
418.07	23101.09
418.26	22462.12
418.45	23044.91
418.64	23578.56
418.83	24493.71
419.02	24318.17
419.21	24018.58
419.39	22902.14
419.58	21462.71
419.77	21900.39
419.96	22590.85
420.15	24051.34
420.34	24718.40
420.53	25895.69
420.72	25797.38
420.91	25656.95
421.10	25546.95
421.29	25270.76
421.48	24584.99
421.67	25598.44
421.86	25193.53
422.05	23550.47
422.24	20903.32
422.43	20533.52
422.61	22995.76
422.80	24620.10
422.99	24957.13
423.18	24191.78
423.37	23470.89
423.56	23438.12
423.75	23637.07
423.94	24624.78
424.13	23110.45
424.32	23332.80
424.50	23201.73
424.69	23002.78
424.88	23037.89
425.07	22925.55
425.26	22899.80
425.45	22967.68
425.64	22012.74
425.83	22246.79
426.01	23482.59
426.20	23770.48
426.39	24156.67
426.58	22405.95
426.77	20496.07
426.96	19803.27
427.15	20692.68
427.33	22380.20
427.52	23154.92
427.71	23466.21
427.90	23101.09
428.09	22944.27
428.28	22272.54
428.46	21518.89
428.65	21025.03
428.84	21979.97
429.03	21895.71
429.22	20819.07
429.40	20053.71
429.59	17930.84
429.78	15569.24
429.97	16084.16
430.16	16051.39
430.34	16245.66
430.53	16173.10
430.72	16561.63
430.91	18237.45
431.10	21488.46
431.28	25179.48
431.47	27402.99
431.66	28072.39
431.85	25511.84
432.03	23536.43
432.22	22047.85
432.41	23028.53
432.60	25654.61
432.79	26235.06
432.97	27388.95
433.16	26529.97
433.35	24341.57
433.54	21757.62
433.72	20437.56
433.91	21142.06
434.10	23669.84
434.28	25228.63
434.47	26642.32
434.66	26450.39
434.85	25357.36
435.03	25233.32
435.22	25731.85
435.41	27665.13
435.59	27494.27
435.78	27756.41
435.97	28222.18
436.16	28884.55
436.34	28276.01
436.53	27917.91
436.72	27917.91
436.90	26295.92
437.09	26647.00
437.28	25748.23
437.46	26941.91
437.65	26995.74
437.84	25008.62
438.02	23197.05
438.21	22455.10
438.40	23873.46
438.58	26143.78
438.77	26848.29
438.96	27042.55
439.14	28266.65
439.33	28360.27
439.52	29123.29
439.70	28673.90
439.89	28063.02
440.08	27161.92
440.26	26972.33
440.45	27953.02
440.63	29872.26
440.82	31421.69
441.01	31014.44
441.19	30359.09
441.38	30843.58
441.57	32299.39
441.75	32788.56
441.94	32746.44
442.12	32261.94
442.31	33397.10
442.50	32818.99
442.68	32933.68
442.87	32306.41
443.05	31634.68
443.24	32320.46
443.43	32964.10
443.61	33390.08
443.80	33893.30
443.98	32430.46
444.17	31945.97
444.35	33766.91
444.54	33897.98
444.73	34106.29
444.91	32924.32
445.10	31342.11
445.28	30675.06
445.47	29340.96
445.65	29481.39
445.84	31119.76
446.02	31812.56
446.21	31854.69
446.39	32074.70
446.58	32531.11
446.77	32966.45
446.95	33106.88
447.14	34169.48
447.32	34932.50
447.51	34202.25
447.69	33186.46
447.88	32606.00
448.06	32809.63
448.25	33111.56
448.43	34249.06
448.62	33104.54
448.80	32882.19
448.99	33584.35
449.17	33261.35
449.36	33319.87
449.54	34838.87
449.73	35250.81
449.91	35632.32
450.10	36554.49
450.28	37104.51
450.46	36725.35
450.65	36685.56
450.83	36510.02
451.02	35653.38
451.20	35466.14
451.39	35473.16
451.57	35239.11
451.76	35222.72
451.94	35023.78
452.13	34363.75
452.31	32493.66
452.49	31288.28
452.68	31938.95
452.86	31639.36
453.05	32327.48
453.23	33464.98
453.42	34033.73
453.60	34597.80
453.78	35328.05
453.97	34920.79
454.15	34558.01
454.34	33928.41
454.52	34387.15
454.70	33483.70
454.89	33797.34
455.07	34202.25
455.26	34513.54
455.44	35821.90
455.62	36091.06
455.81	36411.71
455.99	36669.17
456.17	35487.20
456.36	36161.28
456.54	36802.58
456.73	36451.50
456.91	37551.56
457.09	37832.42
457.28	38464.36
457.46	37099.83
457.64	36287.67
457.83	35449.75
458.01	34719.51
458.19	35433.37
458.38	35779.77
458.56	37022.59
458.74	36662.15
458.93	35985.74
459.11	36418.74
459.29	36252.56
459.48	36428.10
459.66	35704.87
459.84	36137.87
460.03	36987.49
460.21	36786.20
460.39	37989.24
460.57	37415.80
460.76	38192.86
460.94	38518.20
461.12	37593.68
461.31	37809.01
461.49	37741.14
461.67	37516.45
461.85	39000.35
462.04	38700.76
462.22	38946.51
462.40	38684.37
462.59	38419.89
462.77	38279.46
462.95	38536.92
463.13	37722.41
463.32	37834.76
463.50	37776.25
463.68	37610.07
463.86	37912.00
464.05	36992.17
464.23	36250.22
464.41	36479.59
464.59	35248.47
464.78	37617.09
464.96	36924.29
465.14	36491.29
465.32	37511.77
465.50	38281.80
465.69	38607.14
465.87	38050.09
466.05	37200.47
466.23	35510.61
466.41	34892.71
466.60	35648.70
466.78	35374.86
466.96	36147.23
467.14	37116.22
467.32	37544.53
467.51	37762.20
467.69	35796.15
467.87	36488.95
468.05	36961.74
468.23	36900.89
468.41	37310.48
468.60	36959.40
468.78	37535.17
468.96	36891.52
469.14	37605.39
469.32	37916.68
469.50	36442.14
469.69	36933.65
469.87	35978.72
470.05	35779.77
470.23	35943.61
470.41	36488.95
470.59	36428.10
470.77	36774.50
470.95	37294.10
471.14	37993.92
471.32	37963.49
471.50	40144.87
471.68	39803.15
471.86	40278.28
472.04	40088.70
472.22	40659.79
472.40	38492.45
472.58	38410.53
472.77	37944.76
472.95	39005.03
473.13	39629.95
473.31	38663.31
473.49	39136.10
473.67	39529.31
473.85	39875.71
474.03	40414.03
474.21	41057.68
474.39	41284.71
474.57	41214.49
474.75	41464.93
474.93	41048.32
475.12	40430.41
475.30	39913.16
475.48	40467.86
475.66	40942.99
475.84	40882.14
476.02	39564.42
476.20	39533.99
476.38	40268.92
476.56	41408.76
476.74	41949.42
476.92	41972.83
477.10	42745.20
477.28	43903.77
477.46	43824.19
477.64	44381.24
477.82	44069.95
478.00	44830.62
478.18	43856.96
478.36	43543.33
478.54	43952.92
478.72	44318.04
478.90	44971.05
479.08	46115.58
479.26	46609.43
479.44	46443.25
479.62	46302.82
479.80	46101.53
479.98	46515.81
480.16	46497.08
480.34	46358.99
480.52	46574.32
480.70	46663.26
480.88	47175.84
481.06	47814.80
481.24	47800.76
481.41	48896.13
481.59	49315.09
481.77	49038.90
481.95	48741.66
482.13	48313.34
482.31	48655.06
482.49	49116.14
482.67	48601.22
482.85	49380.62
483.03	49794.90
483.21	50162.36
483.39	50138.96
483.57	49186.36
483.74	48907.83
483.92	49177.00
484.10	49642.76
484.28	50478.33
484.46	50431.52
484.64	51166.45
484.82	50234.92
485.00	49879.16
485.18	49265.94
485.35	47828.85
485.53	44617.63
485.71	41212.15
485.89	39864.00
486.07	41984.53
486.25	45752.79
486.43	48130.78
486.61	48788.47
486.78	48659.74
486.96	49038.90
487.14	50600.04
487.32	51363.06
487.50	52058.20
487.68	52797.80
487.85	53249.53
488.03	53240.17
488.21	52949.94
488.39	52041.81
488.57	51423.91
488.75	51473.06
488.92	52362.46
489.10	54143.61
489.28	55477.72
489.46	55987.95
489.64	55742.20
489.81	55966.89
489.99	55494.10
490.17	55763.26
490.35	56109.66
490.53	55585.38
490.70	55360.69
490.88	55138.34
491.06	56226.69
491.24	55833.48
491.41	55253.03
491.59	53413.37
491.77	52966.32
491.95	54192.76
492.13	54852.80
492.30	56200.94
492.48	56868.00
492.66	57401.64
492.84	57329.08
493.01	57104.39
493.19	56704.16
493.37	56367.12
493.54	56093.28
493.72	56699.48
493.90	57614.63
494.08	58375.30
494.25	58525.10
494.43	58532.12
494.61	58990.86
494.79	59016.61
494.96	58880.86
495.14	58387.00
495.32	57443.77
495.49	56741.61
495.67	57834.64
495.85	58901.92
496.02	59302.15
496.20	59398.12
496.38	59032.99
496.55	58672.55
496.73	59346.62
496.91	59348.96
497.09	59650.89
497.26	59997.29
497.44	59433.22
497.62	59103.21
497.79	58342.53
497.97	57195.67
498.14	57268.23
498.32	58082.73
498.50	59166.40
498.67	59611.10
498.85	59512.80
499.03	59718.77
499.20	59845.16
499.38	59835.80
499.56	59884.95
499.73	59309.18
499.91	58948.73
500.08	58550.84
500.26	58068.69
500.44	58298.06
500.61	59007.25
500.79	58836.39
500.97	58506.37
501.14	58459.56
501.32	57993.79
501.49	58101.46
501.67	58286.36
501.84	58677.23
502.02	59056.40
502.20	59398.12
502.37	59458.97
502.55	59447.27
502.72	60111.98
502.90	60430.29
503.07	60203.26
503.25	59744.51
503.43	58841.07
503.60	58344.87
503.78	57846.34
503.95	58141.25
504.13	59423.86
504.30	60240.71
504.48	60135.38
504.65	59648.55
504.83	59941.12
505.01	60430.29
505.18	60638.60
505.36	61223.73
505.53	61162.88
505.71	61347.78
505.88	61361.82
506.06	60926.49
506.23	60594.13
506.41	60055.81
506.58	60175.17
506.76	60308.58
506.93	60229.01
507.11	60111.98
507.28	60346.03
507.46	59866.22
507.63	59133.63
507.81	59035.33
507.98	59320.88
508.16	59826.43
508.33	60418.59
508.50	60781.37
508.68	61013.08
508.85	61549.07
509.03	61518.64
509.20	61387.57
509.38	60650.30
509.55	60055.81
509.73	60095.60
509.90	60669.03
510.08	60725.20
510.25	60767.33
510.42	60521.57
510.60	60346.03
510.77	60690.09
510.95	61240.12
511.12	61385.23
511.30	61523.32
511.47	61869.72
511.64	61549.07
511.82	61506.94
511.99	60814.14
512.17	60406.89
512.34	59994.95
512.51	60280.50
512.69	60254.75
512.86	60451.36
513.04	60755.63
513.21	60926.49
513.38	60587.11
513.56	60053.47
513.73	59468.33
513.90	59522.16
514.08	59742.17
514.25	60097.94
514.43	59964.52
514.60	59999.63
514.77	60500.51
514.95	60615.19
515.12	60353.05
515.29	60491.15
515.47	61090.32
515.64	61205.01
515.81	60643.28
515.99	60453.70
516.16	59168.74
516.33	57055.24
516.51	55578.36
516.68	54946.42
516.85	54351.92
517.03	54724.07
517.20	57460.15
517.37	59477.69
517.54	60500.51
517.72	59840.48
517.89	57778.46
518.06	55590.06
518.24	55779.65
518.41	57881.45
518.58	59110.23
518.75	59299.81
518.93	59388.75
519.10	59358.33
519.27	59615.79
519.45	59751.54
519.62	60638.60
519.79	60942.87
519.96	60774.35
520.14	60357.74
520.31	59618.13
520.48	59547.91
520.65	59868.56
520.83	60999.04
521.00	61249.48
521.17	60874.99
521.34	60275.82
521.52	60713.50
521.69	61282.25
521.86	61544.39
522.03	61270.54
522.20	60151.77
522.38	59173.42
522.55	59028.31
522.72	59796.01
522.89	60018.36
523.07	60121.34
523.24	60381.14
523.41	60994.36
523.58	61523.32
523.75	61843.98
523.92	61740.99
524.10	61675.46
524.27	61528.00
524.44	61427.36
524.61	61293.95
524.78	61048.19
524.96	60795.42
525.13	61167.56
525.30	61282.25
525.47	61689.50
525.64	61642.69
525.81	60690.09
525.98	59622.81
526.16	58049.97
526.33	57689.52
526.50	57457.81
526.67	56982.68
526.84	57518.67
527.01	58450.20
527.18	59049.38
527.36	60109.64
527.53	60926.49
527.70	61174.58
527.87	60526.25
528.04	60378.80
528.21	60479.44
528.38	61300.97
528.55	61750.35
528.72	62181.01
528.89	62066.33
529.07	61820.57
529.24	61385.23
529.41	60725.20
529.58	60027.72
529.75	60149.43
529.92	60552.00
530.09	61097.34
530.26	61513.96
530.43	61708.22
530.60	61745.67
530.77	62071.01
530.94	62178.67
531.11	61574.81
531.28	61312.67
531.46	61111.39
531.63	61113.73
531.80	61202.67
531.97	60626.90
532.14	60114.32
532.31	59196.83
532.48	58583.61
532.65	58520.41
532.82	59248.32
532.99	60320.29
533.16	60762.65
533.33	61221.39
533.50	61083.30
533.67	60397.52
533.84	59866.22
534.01	60416.25
534.18	60397.52
534.35	60552.00
534.52	60273.48
534.69	60479.44
534.86	60889.04
535.03	61237.78
535.20	61577.15
535.37	61921.21
535.54	61979.73
535.71	61682.48
535.88	61497.58
536.05	60640.94
536.22	60533.28
536.38	60018.36
536.55	59456.63
536.72	59243.64
536.89	59185.13
537.06	59840.48
537.23	60615.19
537.40	60914.78
537.57	60945.21
537.74	60521.57
537.91	60521.57
538.08	60580.09
538.25	60629.24
538.42	60935.85
538.59	60680.73
538.75	60018.36
538.92	59842.82
539.09	59517.48
539.26	59531.53
539.43	59274.07
539.60	59365.35
539.77	59550.25
539.94	59643.87
540.11	58808.30
540.28	58300.40
540.44	58515.73
540.61	58583.61
540.78	58700.64
540.95	59292.79
541.12	59772.60
541.29	59718.77
541.46	59969.21
541.62	60135.38
541.79	59945.80
541.96	59222.58
542.13	59391.09
542.30	59620.47
542.47	59929.42
542.63	59632.17
542.80	59391.09
542.97	59606.42
543.14	59463.65
543.31	59468.33
543.48	59976.23
543.64	60715.84
543.81	60865.63
543.98	60706.47
544.15	59985.59
544.32	59400.46
544.48	59552.59
544.65	59973.89
544.82	60460.72
544.99	60048.78
545.16	59604.08
545.32	59487.06
545.49	59985.59
545.66	60416.25
545.83	60076.87
546.00	59814.73
546.16	59634.51
546.33	59510.46
546.50	59487.06
546.67	59959.84
546.83	59587.70
547.00	59533.87
547.17	58784.90
547.34	58494.67
547.50	58513.39
547.67	58955.75
547.84	58993.20
548.00	59313.86
548.17	59784.30
548.34	59646.21
548.51	59629.83
548.67	59512.80
548.84	59657.91
549.01	59470.67
549.18	59437.90
549.34	59643.87
549.51	59318.54
549.68	59426.20
549.84	59089.16
550.01	59016.61
550.18	59063.42
550.34	59121.93
550.51	58953.41
550.68	59114.91
550.84	58665.53
551.01	58817.66
551.18	58731.06
551.34	58871.49
551.51	59271.73
551.68	59341.94
551.84	59496.42
552.01	59295.13
552.18	59196.83
552.34	58450.20
552.51	58141.25
552.68	57977.41
552.84	58468.92
553.01	58918.31
553.18	58810.64
553.34	58787.24
553.51	58899.58
553.67	59140.66
553.84	59367.69
554.01	59032.99
554.17	58920.65
554.34	59082.14
554.51	59063.42
554.67	59475.35
554.84	59152.36
555.00	58836.39
555.17	58770.85
555.33	58583.61
555.50	58532.12
555.67	58754.47
555.83	58440.84
556.00	58136.57
556.16	58272.32
556.33	57902.51
556.50	57851.02
556.66	57886.13
556.83	57736.34
556.99	57666.12
557.16	57605.26
557.32	58113.16
557.49	58052.31
557.65	58143.59
557.82	58265.30
557.98	58101.46
558.15	57591.22
558.32	56870.34
558.48	56090.94
558.65	56135.41
558.81	56563.73
558.98	56662.03
559.14	57041.20
559.31	56905.44
559.47	57146.52
559.64	56547.34
559.80	56633.94
559.97	56589.47
560.13	56781.40
560.30	57806.55
560.46	58216.14
560.63	58534.46
560.79	58520.41
560.96	58150.61
561.12	56959.28
561.29	56184.56
561.45	56261.80
561.61	56755.65
561.78	57146.52
561.94	57160.56
562.11	56865.66
562.27	56704.16
562.44	57092.69
562.60	57399.30
562.77	57544.41
562.93	57476.54
563.10	57530.37
563.26	56713.52
563.42	56715.86
563.59	56647.99
563.75	56643.30
563.92	57043.54
564.08	56652.67
564.24	56949.92
564.41	57188.65
564.57	56945.23
564.74	56666.71
564.90	56554.36
565.07	56442.02
565.23	56018.38
565.39	55594.74
565.56	55440.27
565.72	54908.97
565.88	55379.42
566.05	55327.92
566.21	55810.07
566.38	55756.24
566.54	55831.14
566.70	56301.59
566.87	56683.09
567.03	56488.83
567.19	56924.17
567.36	56294.56
567.52	56493.51
567.68	55966.89
567.85	55348.99
568.01	55182.81
568.17	54937.05
568.34	55093.87
568.50	54934.71
568.66	54827.05
568.83	55400.48
568.99	55339.63
569.15	55592.40
569.32	55381.76
569.48	55166.43
569.64	55030.68
569.81	54688.96
569.97	54611.72
570.13	54527.46
570.30	54309.79
570.46	53881.47
570.62	53181.65
570.78	53081.01
570.95	53265.91
571.11	54071.06
571.27	54365.96
571.43	54328.52
571.60	54906.63
571.76	54887.90
571.92	55231.96
572.09	55449.63
572.25	55157.06
572.41	55014.29
572.57	55004.93
572.74	55086.85
572.90	54742.79
573.06	54604.70
573.22	54845.77
573.38	54684.28
573.55	54714.70
573.71	54981.52
573.87	54871.52
574.03	54564.91
574.20	54712.36
574.36	54277.02
574.52	54075.74
574.68	53858.07
574.84	53476.56
575.01	53191.01
575.17	52985.05
575.33	53345.49
575.49	53696.57
575.65	53729.34
575.82	53558.48
575.98	53200.38
576.14	53745.72
576.30	53783.17
576.46	53792.53
576.62	53846.36
576.79	53731.68
576.95	53432.09
577.11	53102.07
577.27	53375.92
577.43	53495.28
577.59	53137.18
577.75	52589.50
577.92	52530.98
578.08	52217.35
578.24	51885.00
578.40	52538.01
578.56	52790.78
578.72	52423.32
578.88	52715.89
579.04	53183.99
579.21	53207.40
579.37	53113.78
579.53	53076.33
579.69	53343.15
579.85	53258.89
580.01	53090.37
580.17	52374.17
580.33	52453.75
580.49	52828.23
580.65	52935.90
580.82	53059.94
580.98	53436.77
581.14	53200.38
581.30	53333.79
581.46	52683.12
581.62	53132.50
581.78	53200.38
581.94	53095.05
582.10	53359.53
582.26	53368.90
582.42	53191.01
582.58	53183.99
582.74	52973.34
582.90	53001.43
583.06	53118.46
583.22	52858.66
583.38	53347.83
583.54	53006.11
583.70	52781.42
583.86	52659.71
584.02	52774.40
584.18	52966.32
584.34	52540.35
584.50	52769.72
584.66	52392.89
584.82	52067.56
584.98	52067.56
585.14	51840.53
