SpectraSuite Data File
++++++++++++++++++++++++++++++++++++
Date: Mon Oct 07 14:52:56 GMT-05:00 2013
User: price-jones
Dark Spectrum Present: No
Reference Spectrum Present: No
Number of Sampled Component Spectra: 1
Spectrometers: USB2+H05261
Integration Time (usec): 100000 (USB2+H05261)
Spectra Averaged: 1 (USB2+H05261)
Boxcar Smoothing: 0 (USB2+H05261)
Correct for Electrical Dark: No (USB2+H05261)
Strobe/Lamp Enabled: No (USB2+H05261)
Correct for Detector Non-linearity: No (USB2+H05261)
Correct for Stray Light: No (USB2+H05261)
Number of Pixels in Processed Spectrum: 2048
>>>>>Begin Processed Spectral Data<<<<<
365.73	0.00
365.92	0.00
366.12	0.00
366.32	0.00
366.52	0.00
366.72	0.00
366.91	0.00
367.11	0.00
367.31	0.00
367.51	0.00
367.70	0.00
367.90	0.00
368.10	0.00
368.30	0.00
368.49	0.00
368.69	0.00
368.89	0.00
369.09	0.00
369.28	0.00
369.48	0.00
369.68	0.00
369.87	0.00
370.07	0.00
370.27	0.00
370.47	449.38
370.66	2396.71
370.86	2913.97
371.06	3251.00
371.25	3148.02
371.45	2825.03
371.65	2473.95
371.84	2485.65
372.04	2480.97
372.24	2799.28
372.44	2899.92
372.63	2743.11
372.83	2778.22
373.03	2319.47
373.22	2181.38
373.42	2394.37
373.62	2764.17
373.81	2986.52
374.01	2862.48
374.21	2485.65
374.40	2410.75
374.60	2518.42
374.79	3089.51
374.99	3318.88
375.19	3620.81
375.38	3669.96
375.58	3356.33
375.78	3262.71
375.97	3368.03
376.17	3461.65
376.37	3435.91
376.56	3555.27
376.76	3831.46
376.95	3971.89
377.15	4276.16
377.35	4554.68
377.54	4812.14
377.74	4695.11
377.93	4814.48
378.13	4711.50
378.33	4304.25
378.52	3911.04
378.72	3889.97
378.91	3840.82
379.11	3740.18
379.31	3555.27
379.50	3449.95
379.70	3875.93
379.89	4278.50
380.09	4746.61
380.28	4798.10
380.48	4627.24
380.68	4540.64
380.87	4414.25
381.07	4322.97
381.26	3861.88
381.46	3707.41
381.65	3602.08
381.85	3534.21
382.04	3328.24
382.24	3052.06
382.43	2862.48
382.63	2724.38
382.83	2888.22
383.02	2995.89
383.22	2864.82
383.41	2850.77
383.61	3042.70
383.80	3461.65
384.00	3906.35
384.19	4428.29
384.39	4660.01
384.58	4660.01
384.78	4533.62
384.97	4482.13
385.17	3969.55
385.36	3995.29
385.56	4035.08
385.75	4025.72
385.95	4388.50
386.14	4713.84
386.34	4926.83
386.53	4524.26
386.72	4187.22
386.92	4397.87
387.11	4517.23
387.31	4685.75
387.50	4711.50
387.70	4535.96
387.89	4594.47
388.09	4578.09
388.28	4685.75
388.48	4601.49
388.67	5104.71
388.86	5518.98
389.06	5788.14
389.25	6153.27
389.45	6265.61
389.64	6310.08
389.84	6256.25
390.03	5830.27
390.22	6001.13
390.42	6225.82
390.61	6843.73
390.81	7155.02
391.00	7225.23
391.19	7155.02
391.39	7000.54
391.58	6478.60
391.78	6289.02
391.97	5837.30
392.16	5516.64
392.36	5022.79
392.55	4002.32
392.75	3295.47
392.94	2626.08
393.13	2607.36
393.33	3084.83
393.52	4030.40
393.71	4954.91
393.91	5514.30
394.10	6113.48
394.29	6560.52
394.49	7080.12
394.68	7639.51
394.88	7583.34
395.07	7885.26
395.26	7932.08
395.46	7503.76
395.65	7155.02
395.84	6181.35
396.04	5252.16
396.23	4156.79
396.42	3517.83
396.62	3485.06
396.81	3995.29
397.00	5226.42
397.19	6492.65
397.39	7815.05
397.58	8652.96
397.77	9053.19
397.97	9640.67
398.16	9516.62
398.35	9912.17
398.55	10097.07
398.74	10712.63
398.93	10867.11
399.12	10602.63
399.32	10003.45
399.51	10675.18
399.70	11159.67
399.90	11089.46
400.09	11178.40
400.28	10920.94
400.47	11236.91
400.67	11576.29
400.86	12067.80
401.05	12072.48
401.24	11889.92
401.44	12269.09
401.63	12210.57
401.82	12215.26
402.01	12351.01
402.21	12500.80
402.40	12271.43
402.59	12077.16
402.78	11382.03
402.97	11262.66
403.17	11784.60
403.36	12456.33
403.55	12894.01
403.74	12898.69
403.93	12423.56
404.13	11606.72
404.32	11232.23
404.51	11679.27
404.70	12702.09
404.89	12762.94
405.09	12608.47
405.28	12175.47
405.47	12304.20
405.66	12093.55
405.85	12025.67
406.05	11480.33
406.24	11625.44
406.43	12182.49
406.62	12741.88
406.81	12872.95
407.00	11992.90
407.20	11847.79
407.39	12224.62
407.58	12833.16
407.77	13163.17
407.96	13179.56
408.15	13497.87
408.34	13703.84
408.54	14347.48
408.73	14441.11
408.92	14171.94
409.11	13940.23
409.30	13032.10
409.49	12063.12
409.68	11487.35
409.87	11379.68
410.07	12243.34
410.26	13282.54
410.45	13631.28
410.64	14064.28
410.83	14541.75
411.02	14796.87
411.21	15484.98
411.40	15260.29
411.59	15587.97
411.78	15475.62
411.98	14853.04
412.17	15370.30
412.36	15021.56
412.55	14949.00
412.74	15044.96
412.93	14480.89
413.12	14415.36
413.31	15784.57
413.50	15887.56
413.69	16510.14
413.88	15829.04
414.07	15262.63
414.26	15510.73
414.45	15833.72
414.64	16051.39
414.83	16390.77
415.02	15536.48
415.22	15768.19
415.41	16152.04
415.60	16554.61
415.79	17247.41
415.98	17544.66
416.17	18024.47
416.36	17125.70
416.55	17102.29
416.74	16243.32
416.93	15868.83
417.12	15843.09
417.31	15960.11
417.50	16582.70
417.69	17193.58
417.88	16865.90
418.07	16542.91
418.26	16411.84
418.45	16594.40
418.64	17507.21
418.83	17968.29
419.02	17692.11
419.21	17369.12
419.39	16650.57
419.58	16004.58
419.77	15953.09
419.96	16786.32
420.15	17497.84
420.34	18090.00
420.53	18909.19
420.72	18972.38
420.91	18733.65
421.10	18520.66
421.29	18513.64
421.48	17961.27
421.67	18705.56
421.86	18111.07
422.05	16950.16
422.24	15246.25
422.43	15030.92
422.61	17055.48
422.80	18085.32
422.99	17951.91
423.18	17383.16
423.37	17172.51
423.56	17315.28
423.75	17455.72
423.94	17783.39
424.13	17128.04
424.32	16809.73
424.50	17303.58
424.69	16840.15
424.88	17238.05
425.07	17282.52
425.26	16840.15
425.45	16706.74
425.64	16542.91
425.83	16365.03
426.01	17228.68
426.20	17764.67
426.39	17968.29
426.58	16280.77
426.77	15241.57
426.96	14731.33
427.15	15161.99
427.33	16622.48
427.52	17266.13
427.71	17177.19
427.90	16783.98
428.09	16788.66
428.28	16505.46
428.46	15913.30
428.65	15447.54
428.84	15901.60
429.03	16547.59
429.22	15307.10
429.40	14604.94
429.59	12989.97
429.78	11707.36
429.97	11971.84
430.16	11955.46
430.34	12133.34
430.53	11939.07
430.72	12311.22
430.91	13687.45
431.10	16070.12
431.28	19236.86
431.47	20252.66
431.66	20262.02
431.85	18586.19
432.03	17219.32
432.22	16257.36
432.41	17074.21
432.60	19000.47
432.79	19503.68
432.97	20414.15
433.16	19648.80
433.35	18256.18
433.54	16067.78
433.72	15243.91
433.91	15929.69
434.10	17687.43
434.28	18979.40
434.47	19838.38
434.66	19604.33
434.85	19194.73
435.03	19138.56
435.22	19618.37
435.41	20645.87
435.59	20840.13
435.78	21305.90
435.97	21467.39
436.16	21729.53
436.34	21310.58
436.53	20498.41
436.72	21139.72
436.90	19737.74
437.09	19688.59
437.28	19700.29
437.46	20025.62
437.65	19974.13
437.84	18515.98
438.02	17106.98
438.21	17207.62
438.40	18167.24
438.58	19419.42
438.77	19990.52
438.96	20032.65
439.14	21149.08
439.33	21722.51
439.52	21664.00
439.70	21525.91
439.89	21090.57
440.08	20297.13
440.26	20463.30
440.45	21010.99
440.63	22757.03
440.82	23339.82
441.01	23054.28
441.19	22876.40
441.38	23639.41
441.57	23880.49
441.75	24734.78
441.94	24671.59
442.12	24379.02
442.31	24943.09
442.50	25282.47
442.68	24439.87
442.87	24505.41
443.05	24034.96
443.24	24276.04
443.43	25074.16
443.61	25406.52
443.80	25792.70
443.98	24400.08
444.17	24140.29
444.35	25532.90
444.54	25846.54
444.73	25722.49
444.91	24947.77
445.10	23651.11
445.28	22541.70
445.47	22583.83
445.65	22579.15
445.84	23084.70
446.02	23772.82
446.21	24594.35
446.39	24552.22
446.58	24783.93
446.77	25340.98
446.95	25102.25
447.14	26052.50
447.32	26384.86
447.51	25862.92
447.69	25088.20
447.88	24369.66
448.06	25216.93
448.25	25703.76
448.43	25542.27
448.62	25104.59
448.80	25001.60
448.99	25443.96
449.17	25556.31
449.36	25450.99
449.54	26469.12
449.73	26960.63
449.91	27487.25
450.10	28144.94
450.28	28547.51
450.46	28313.46
450.65	28261.97
450.83	28250.27
451.02	27604.28
451.20	27328.10
451.39	27157.24
451.57	27026.17
451.76	27187.66
451.94	26876.37
452.13	26422.31
452.31	25006.28
452.49	24020.92
452.68	24386.04
452.86	24507.75
453.05	24624.78
453.23	25696.74
453.42	26295.92
453.60	26473.80
453.78	26686.79
453.97	26714.87
454.15	26759.34
454.34	26143.78
454.52	26277.19
454.70	25965.90
454.89	25837.17
455.07	26331.03
455.26	26705.51
455.44	27288.31
455.62	27594.92
455.81	28390.70
455.99	28142.60
456.17	27557.47
456.36	27693.22
456.54	28177.71
456.73	28496.02
456.91	29156.05
457.09	29120.95
457.28	29472.03
457.46	28638.80
457.64	28353.25
457.83	27117.45
458.01	26822.54
458.19	27623.00
458.38	27473.21
458.56	28779.23
458.74	28624.75
458.93	28002.17
459.11	27957.70
459.29	27793.86
459.48	27892.16
459.66	27749.39
459.84	28222.18
460.03	28606.03
460.21	28187.07
460.39	29460.32
460.57	29095.20
460.76	29397.13
460.94	29642.88
461.12	29310.53
461.31	29668.63
461.49	29453.30
461.67	29134.99
461.85	30216.32
462.04	29912.05
462.22	30286.53
462.40	30087.59
462.59	29921.41
462.77	29577.35
462.95	29958.86
463.13	29713.10
463.32	29511.81
463.50	29385.43
463.68	29120.95
463.86	29156.05
464.05	28652.84
464.23	27929.61
464.41	28233.88
464.59	27559.81
464.78	28599.01
464.96	28765.18
465.14	28737.10
465.32	29677.99
465.50	30366.11
465.69	30396.54
465.87	29834.81
466.05	28863.49
466.23	27709.60
466.41	27084.68
466.60	28336.87
466.78	27950.68
466.96	28371.97
467.14	28819.02
467.32	29385.43
467.51	29205.20
467.69	28325.16
467.87	28549.85
468.05	28788.59
468.23	29134.99
468.41	29350.32
468.60	29039.03
468.78	29170.10
468.96	28982.85
469.14	29345.64
469.32	30005.67
469.50	28926.68
469.69	28673.90
469.87	28304.10
470.05	28507.72
470.23	28180.05
470.41	28514.75
470.59	28706.67
470.77	29149.03
470.95	29635.86
471.14	29830.13
471.32	29804.38
471.50	31721.28
471.68	31318.71
471.86	31999.80
472.04	31999.80
472.22	32224.50
472.40	30256.11
472.58	30242.06
472.77	29928.43
472.95	30932.52
473.13	31576.17
473.31	30480.80
473.49	30632.93
473.67	31257.85
473.85	31463.82
474.03	32079.38
474.21	32460.89
474.39	32713.67
474.57	32421.10
474.75	32952.40
474.93	32339.18
475.12	31700.22
475.30	31725.96
475.48	32210.45
475.66	32264.28
475.84	32053.64
476.02	32004.49
476.20	31241.47
476.38	31950.65
476.56	33088.15
476.74	33422.85
476.92	33614.77
477.10	33984.58
477.28	34941.86
477.46	35641.68
477.64	35211.02
477.82	35494.22
478.00	35744.66
478.18	34981.65
478.36	35166.55
478.54	35356.13
478.72	35117.40
478.90	36154.26
479.08	36872.80
479.26	37832.42
479.44	37181.75
479.62	37118.56
479.80	37434.53
479.98	37858.17
480.16	38087.54
480.34	37404.10
480.52	37713.05
480.70	37928.38
480.88	37628.79
481.06	38995.67
481.24	39407.60
481.41	39840.60
481.59	40650.42
481.77	40762.77
481.95	39533.99
482.13	39643.99
482.31	39501.22
482.49	39985.71
482.67	39789.11
482.85	40116.78
483.03	40938.31
483.21	40821.28
483.39	40671.49
483.57	40360.20
483.74	40596.59
483.92	40725.32
484.10	40947.67
484.28	41757.50
484.46	42124.96
484.64	42150.71
484.82	41296.41
485.00	41034.27
485.18	40486.59
485.35	38953.54
485.53	36062.97
485.71	32570.90
485.89	32374.29
486.07	34412.90
486.25	37223.88
486.43	39552.71
486.61	40088.70
486.78	40238.49
486.96	40055.93
487.14	42040.70
487.32	42745.20
487.50	44069.95
487.68	44486.56
487.85	45560.87
488.03	45483.63
488.21	44737.00
488.39	43962.28
488.57	43402.89
488.75	42581.37
488.92	44699.55
489.10	46892.63
489.28	47969.28
489.46	49169.97
489.64	48935.92
489.81	48973.37
489.99	48535.69
490.17	48706.55
490.35	48879.75
490.53	48598.88
490.70	48105.03
490.88	48374.19
491.06	49237.85
491.24	48931.24
491.41	47906.08
491.59	46026.63
491.77	44898.50
491.95	46653.90
492.13	48210.35
492.30	49792.56
492.48	50302.79
492.66	51222.62
492.84	50958.14
493.01	50590.68
493.19	49944.69
493.37	49354.88
493.54	48973.37
493.72	50101.51
493.90	51412.21
494.08	52226.71
494.25	52545.03
494.43	52828.23
494.61	53202.72
494.79	53523.37
494.96	52748.65
495.14	52280.55
495.32	51510.51
495.49	50312.16
495.67	51875.63
495.85	53109.10
496.02	53530.39
496.20	53567.84
496.38	52877.38
496.55	52619.92
496.73	53471.88
496.91	53560.82
497.09	54164.68
497.26	54274.68
497.44	53748.06
497.62	52872.70
497.79	52264.16
497.97	50908.99
498.14	51285.82
498.32	52509.92
498.50	53174.63
498.67	54021.90
498.85	53804.24
499.03	53890.83
499.20	54466.61
499.38	54408.09
499.56	54164.68
499.73	53242.51
499.91	53073.99
500.08	52687.80
500.26	51695.41
500.44	52193.95
500.61	53148.88
500.79	53071.65
500.97	52535.66
501.14	52762.70
501.32	52189.27
501.49	52428.00
501.67	52538.01
501.84	53010.79
502.02	53392.30
502.20	53663.80
502.37	53883.81
502.55	54061.69
502.72	54490.01
502.90	55051.74
503.07	54836.41
503.25	54195.10
503.43	53198.04
503.60	52493.54
503.78	51863.93
503.95	52538.01
504.13	54262.98
504.30	54869.18
504.48	54731.09
504.65	54302.77
504.83	54391.71
505.01	54674.91
505.18	55414.52
505.36	55714.11
505.53	55791.35
505.71	56168.18
505.88	56175.20
506.06	55510.49
506.23	55250.69
506.41	54827.05
506.58	55157.06
506.76	55035.36
506.93	54969.82
507.11	54749.81
507.28	55126.64
507.46	54471.29
507.63	53923.60
507.81	53675.51
507.98	53860.41
508.16	54611.72
508.33	55428.57
508.50	55707.09
508.68	55901.36
508.85	56200.94
509.03	56273.50
509.20	56123.71
509.38	55398.14
509.55	54487.67
509.73	54871.52
509.90	55234.30
510.08	55690.71
510.25	55653.26
510.42	55288.13
510.60	55311.54
510.77	55725.81
510.95	56271.16
511.12	56261.80
511.30	56793.10
511.47	56893.74
511.64	56727.56
511.82	56287.54
511.99	55494.10
512.17	55318.56
512.34	54817.69
512.51	55248.35
512.69	55213.24
512.86	55306.86
513.04	56002.00
513.21	55620.49
513.38	55128.98
513.56	54742.79
513.73	54237.23
513.90	54501.71
514.08	54480.65
514.25	54829.39
514.43	55161.75
514.60	55051.74
514.77	55234.30
514.95	55325.58
515.12	55243.66
515.29	55430.91
515.47	56193.92
515.64	56224.35
515.81	55746.88
515.99	55276.43
516.16	53602.95
516.33	51040.06
516.51	49499.99
516.68	48559.09
516.85	47814.80
517.03	49111.46
517.20	52095.64
517.37	54698.32
517.54	55269.41
517.72	54801.30
517.89	51910.74
518.06	49301.04
518.24	50045.33
518.41	52594.18
518.58	53921.26
518.75	54042.97
518.93	54433.84
519.10	54255.96
519.27	54946.42
519.45	54967.48
519.62	55725.81
519.79	56198.60
519.96	55805.39
520.14	55217.92
520.31	54291.07
520.48	54305.11
520.65	54997.91
520.83	55927.10
521.00	56463.08
521.17	55767.94
521.34	55571.34
521.52	55980.93
521.69	56500.53
521.86	56687.78
522.03	56406.91
522.20	55337.29
522.38	54155.32
522.55	54314.47
522.72	54759.17
522.89	55154.72
523.07	55309.20
523.24	55952.85
523.41	56587.13
523.58	56797.78
523.75	57385.25
523.92	56882.04
524.10	57095.03
524.27	57027.15
524.44	56690.12
524.61	56552.02
524.78	56470.11
524.96	56149.45
525.13	56570.75
525.30	56774.37
525.47	57162.90
525.64	56849.27
525.81	56282.86
525.98	54714.70
526.16	53064.63
526.33	52554.39
526.50	51920.10
526.67	51641.58
526.84	52493.54
527.01	53368.90
527.18	54452.56
527.36	55435.59
527.53	56044.13
527.70	56479.47
527.87	55739.86
528.04	55482.40
528.21	56112.00
528.38	56886.72
528.55	57272.91
528.72	57422.70
528.89	57804.21
529.07	57357.17
529.24	56647.99
529.41	56048.81
529.58	55545.59
529.75	55620.49
529.92	56243.07
530.09	56505.21
530.26	56910.13
530.43	57368.87
530.60	57418.02
530.77	57581.86
530.94	57836.98
531.11	57132.48
531.28	56872.68
531.46	56521.60
531.63	56671.39
531.80	56676.07
531.97	56257.12
532.14	55082.17
532.31	54260.64
532.48	53677.85
532.65	53708.27
532.82	54944.08
532.99	55922.42
533.16	56259.46
533.33	56938.21
533.50	56605.86
533.67	55971.57
533.84	55435.59
534.01	55667.30
534.18	55803.05
534.35	56116.68
534.52	55814.76
534.69	56495.85
534.86	56481.81
535.03	56856.29
535.20	57034.17
535.37	57717.61
535.54	57780.81
535.71	57308.02
535.88	56825.87
536.05	56313.29
536.22	55760.92
536.38	55456.65
536.55	55114.94
536.72	54536.82
536.89	54583.63
537.06	55482.40
537.23	56299.25
537.40	56580.11
537.57	56582.45
537.74	56177.54
537.91	56219.67
538.08	56292.22
538.25	56275.84
538.42	56413.93
538.59	56149.45
538.75	55351.33
538.92	55131.32
539.09	55215.58
539.26	55016.63
539.43	55023.65
539.60	54747.47
539.77	55103.23
539.94	54960.46
540.11	54099.14
540.28	53455.50
540.44	53914.24
540.61	53804.24
540.78	54136.59
540.95	54770.88
541.12	55070.46
541.29	55168.77
541.46	55667.30
541.62	55852.20
541.79	55517.51
541.96	54880.88
542.13	54923.01
542.30	55367.71
542.47	55370.05
542.63	55227.28
542.80	54990.89
542.97	55405.16
543.14	54892.58
543.31	55292.82
543.48	55592.40
543.64	56271.16
543.81	56552.02
543.98	56523.94
544.15	55767.94
544.32	55201.53
544.48	55554.96
544.65	55870.93
544.82	56327.33
544.99	55702.41
545.16	55466.02
545.32	54930.03
545.49	56037.11
545.66	56348.40
545.83	55821.78
546.00	55669.64
546.16	55231.96
546.33	55311.54
546.50	55353.67
546.67	55597.09
546.83	55210.90
547.00	55201.53
547.17	54590.66
547.34	54143.61
547.50	54012.54
547.67	54567.25
547.84	54581.29
548.00	55133.66
548.17	55571.34
548.34	55042.38
548.51	55496.44
548.67	55285.79
548.84	55372.39
549.01	55458.99
549.18	55267.07
549.34	55058.76
549.51	55304.52
549.68	54880.88
549.84	54948.76
550.01	54665.55
550.18	54492.35
550.34	54761.51
550.51	54841.09
550.68	54915.99
550.84	54138.93
551.01	54581.29
551.18	54396.39
551.34	54499.37
551.51	54890.24
551.68	55231.96
551.84	55128.98
552.01	55182.81
552.18	54817.69
552.34	54181.06
552.51	53759.76
552.68	53565.50
552.84	54099.14
553.01	54447.88
553.18	54574.27
553.34	54302.77
553.51	54937.05
553.67	54813.01
553.84	54960.46
554.01	54890.24
554.17	54834.07
554.34	54815.35
554.51	55030.68
554.67	55327.92
554.84	55035.36
555.00	54691.30
555.17	54382.35
555.33	54351.92
555.50	54508.74
555.67	54497.03
555.83	54169.36
556.00	54096.80
556.16	53790.19
556.33	53537.41
556.50	53336.13
556.66	53546.78
556.83	52914.83
556.99	53396.98
557.16	53581.88
557.32	53631.04
557.49	54071.06
557.65	53811.26
557.82	54033.61
557.98	53511.67
558.15	52832.91
558.32	52210.33
558.48	51594.77
558.65	51632.22
558.81	52289.91
558.98	52346.08
559.14	52432.68
559.31	52577.79
559.47	52554.39
559.64	52130.75
559.80	51803.08
559.97	52086.28
560.13	52540.35
560.30	53443.79
560.46	54162.34
560.63	54494.69
560.79	54230.21
560.96	53645.08
561.12	52575.45
561.29	51597.11
561.45	51863.93
561.61	52395.23
561.78	52687.80
561.94	52617.58
562.11	52659.71
562.27	52294.59
562.44	52687.80
562.60	53193.36
562.77	53294.00
562.93	53120.80
563.10	53329.11
563.26	52406.94
563.42	52343.74
563.59	52121.39
563.75	52137.77
563.92	52500.56
564.08	52325.02
564.24	52921.85
564.41	52788.44
564.57	52662.05
564.74	52388.21
564.90	52222.03
565.07	51950.53
565.23	51505.83
565.39	50876.22
565.56	50691.32
565.72	50483.01
565.88	50969.85
566.05	51426.25
566.21	51206.24
566.38	51477.74
566.54	51585.41
566.70	52041.81
566.87	51866.27
567.03	52484.17
567.19	52507.58
567.36	52346.08
567.52	52121.39
567.68	51695.41
567.85	51063.47
568.01	50586.00
568.17	49963.42
568.34	50255.98
568.50	50103.85
568.66	50520.46
568.83	50515.78
568.99	50663.24
569.15	51379.44
569.32	51288.16
569.48	50642.17
569.64	50686.64
569.81	50361.31
569.97	49956.39
570.13	49911.92
570.30	49354.88
570.46	48683.14
570.62	48208.01
570.78	48090.99
570.95	48736.98
571.11	49523.40
571.27	49762.13
571.43	50099.17
571.60	50534.51
571.76	50845.80
571.92	50962.82
572.09	51271.78
572.25	51007.29
572.41	51182.84
572.57	50667.92
572.74	50595.36
572.90	50454.93
573.06	50543.87
573.22	50614.08
573.38	50162.36
573.55	50307.47
573.71	50415.14
573.87	50183.43
574.03	50157.68
574.20	49633.40
574.36	49977.46
574.52	49553.82
574.68	49069.33
574.84	48685.48
575.01	48362.49
575.17	48308.66
575.33	48736.98
575.49	49013.16
575.65	48964.01
575.82	48949.96
575.98	48596.54
576.14	48795.49
576.30	48999.12
576.46	49106.78
576.62	49052.95
576.79	48961.67
576.95	49109.12
577.11	48708.89
577.27	49106.78
577.43	49205.08
577.59	48399.94
577.75	48147.16
577.92	47377.12
578.08	47100.94
578.24	47021.36
578.40	47686.07
578.56	47339.68
578.72	47992.68
578.88	48259.51
579.04	48423.34
579.21	48861.02
579.37	48411.64
579.53	48643.35
579.69	48671.44
579.85	48472.49
580.01	48360.15
580.17	48133.12
580.33	47936.51
580.49	48046.52
580.65	48556.75
580.82	48839.96
580.98	48699.53
581.14	48559.09
581.30	48631.65
581.46	47978.64
581.62	48856.34
581.78	48294.61
581.94	48980.39
582.10	48687.82
582.26	48891.45
582.42	48926.56
582.58	48718.25
582.74	48861.02
582.90	48765.06
583.06	48633.99
583.22	48341.42
583.38	48231.42
583.54	48378.87
583.70	48069.92
583.86	48334.40
584.02	47969.28
584.18	48088.65
584.34	47952.90
584.50	47878.00
584.66	47990.34
584.82	47040.09
584.98	47550.32
585.14	46501.76
585.30	46127.28
