SpectraSuite Data File
++++++++++++++++++++++++++++++++++++
Date: Mon Oct 07 14:54:54 GMT-05:00 2013
User: price-jones
Dark Spectrum Present: No
Reference Spectrum Present: No
Number of Sampled Component Spectra: 1
Spectrometers: USB2+H05261
Integration Time (usec): 10000 (USB2+H05261)
Spectra Averaged: 1 (USB2+H05261)
Boxcar Smoothing: 0 (USB2+H05261)
Correct for Electrical Dark: No (USB2+H05261)
Strobe/Lamp Enabled: No (USB2+H05261)
Correct for Detector Non-linearity: No (USB2+H05261)
Correct for Stray Light: No (USB2+H05261)
Number of Pixels in Processed Spectrum: 2048
>>>>>Begin Processed Spectral Data<<<<<
365.73	0.00
365.92	0.00
366.12	0.00
366.32	0.00
366.52	0.00
366.72	0.00
366.91	0.00
367.11	0.00
367.31	0.00
367.51	0.00
367.70	0.00
367.90	0.00
368.10	0.00
368.30	0.00
368.49	0.00
368.69	0.00
368.89	0.00
369.09	0.00
369.28	0.00
369.48	0.00
369.68	0.00
369.87	0.00
370.07	0.00
370.27	0.00
370.47	0.00
370.66	0.00
370.86	2.34
371.06	0.00
371.25	0.00
371.45	0.00
371.65	0.00
371.84	0.00
372.04	0.00
372.24	0.00
372.44	0.00
372.63	65.54
372.83	0.00
373.03	0.00
373.22	0.00
373.42	0.00
373.62	2.34
373.81	0.00
374.01	42.13
374.21	0.00
374.40	2.34
374.60	0.00
374.79	0.00
374.99	112.35
375.19	53.83
375.38	91.28
375.58	18.72
375.78	72.56
375.97	98.30
376.17	98.30
376.37	35.11
376.56	119.37
376.76	98.30
376.95	112.35
377.15	170.86
377.35	163.84
377.54	208.31
377.74	159.16
377.93	191.92
378.13	91.28
378.33	110.01
378.52	131.07
378.72	67.88
378.91	100.64
379.11	46.81
379.31	23.41
379.50	81.92
379.70	105.32
379.89	126.39
380.09	138.09
380.28	145.11
380.48	212.99
380.68	168.52
380.87	173.20
381.07	142.77
381.26	177.88
381.46	30.43
381.65	21.06
381.85	11.70
382.04	21.06
382.24	53.83
382.43	0.00
382.63	0.00
382.83	0.00
383.02	0.00
383.22	0.00
383.41	0.00
383.61	0.00
383.80	67.88
384.00	84.26
384.19	138.09
384.39	159.16
384.58	163.84
384.78	222.35
384.97	154.48
385.17	102.98
385.36	145.11
385.56	184.90
385.75	156.82
385.95	124.05
386.14	285.55
386.34	140.43
386.53	105.32
386.72	227.03
386.92	184.90
387.11	191.92
387.31	70.22
387.50	63.19
387.70	227.03
387.89	159.16
388.09	170.86
388.28	128.73
388.48	205.97
388.67	196.60
388.86	320.65
389.06	297.25
389.25	313.63
389.45	355.76
389.64	372.15
389.84	322.99
390.03	285.55
390.22	311.29
390.42	418.96
390.61	315.97
390.81	425.98
391.00	458.74
391.19	444.70
391.39	381.51
391.58	301.93
391.78	276.18
391.97	220.01
392.16	276.18
392.36	271.50
392.55	107.66
392.75	0.00
392.94	0.00
393.13	0.00
393.33	16.38
393.52	110.01
393.71	191.92
393.91	238.73
394.10	224.69
394.29	306.61
394.49	346.40
394.68	395.55
394.88	416.62
395.07	418.96
395.26	449.38
395.46	486.83
395.65	386.19
395.84	313.63
396.04	301.93
396.23	138.09
396.42	0.00
396.62	58.51
396.81	58.51
397.00	248.10
397.19	440.02
397.39	348.74
397.58	524.28
397.77	554.71
397.97	557.05
398.16	636.63
398.35	678.76
398.55	601.52
398.74	751.31
398.93	702.16
399.12	617.90
399.32	650.67
399.51	664.71
399.70	690.46
399.90	695.14
400.09	657.69
400.28	711.52
400.47	720.88
400.67	744.29
400.86	812.17
401.05	791.10
401.24	737.27
401.44	898.77
401.63	784.08
401.82	720.88
402.01	795.78
402.21	849.61
402.40	802.80
402.59	732.59
402.78	720.88
402.97	725.57
403.17	800.46
403.36	791.10
403.55	812.17
403.74	863.66
403.93	805.14
404.13	816.85
404.32	709.18
404.51	772.38
404.70	877.70
404.89	819.19
405.09	884.72
405.28	788.76
405.47	770.04
405.66	755.99
405.85	807.48
406.05	767.70
406.24	779.40
406.43	840.25
406.62	884.72
406.81	863.66
407.00	875.36
407.20	830.89
407.39	814.51
407.58	765.36
407.77	873.02
407.96	999.41
408.15	931.53
408.34	940.90
408.54	873.02
408.73	1034.52
408.92	950.26
409.11	966.64
409.30	744.29
409.49	875.36
409.68	755.99
409.87	744.29
410.07	755.99
410.26	858.98
410.45	861.32
410.64	945.58
410.83	940.90
411.02	968.98
411.21	1025.15
411.40	1011.11
411.59	1053.24
411.78	1034.52
411.98	1048.56
412.17	1046.22
412.36	1055.58
412.55	985.37
412.74	903.45
412.93	851.96
413.12	985.37
413.31	1041.54
413.50	1100.05
413.69	1076.65
413.88	1022.81
414.07	961.96
414.26	1027.50
414.45	1118.78
414.64	1078.99
414.83	1013.45
415.02	1100.05
415.22	1130.48
415.41	1050.90
415.60	1111.75
415.79	1217.08
415.98	1207.72
416.17	1137.50
416.36	1142.18
416.55	1158.57
416.74	1144.52
416.93	968.98
417.12	1039.20
417.31	1057.92
417.50	1057.92
417.69	1167.93
417.88	1078.99
418.07	1128.14
418.26	1167.93
418.45	1064.94
418.64	1137.50
418.83	1210.06
419.02	1156.22
419.21	1132.82
419.39	1060.26
419.58	1069.62
419.77	1048.56
419.96	1210.06
420.15	1214.74
420.34	1172.61
420.53	1128.14
420.72	1245.16
420.91	1306.02
421.10	1277.93
421.29	1266.23
421.48	1263.89
421.67	1334.11
421.86	1200.69
422.05	1196.01
422.24	1001.75
422.43	1022.81
422.61	1111.75
422.80	1231.12
422.99	1207.72
423.18	1170.27
423.37	1081.33
423.56	1284.95
423.75	1191.33
423.94	1228.78
424.13	1170.27
424.32	1062.60
424.50	1132.82
424.69	1165.59
424.88	1116.44
425.07	1142.18
425.26	1165.59
425.45	1011.11
425.64	1125.80
425.83	1020.47
426.01	1153.88
426.20	1198.35
426.39	1160.91
426.58	1142.18
426.77	952.60
426.96	978.34
427.15	877.70
427.33	1088.35
427.52	1100.05
427.71	1078.99
427.90	1163.25
428.09	1076.65
428.28	1053.24
428.46	976.00
428.65	1118.78
428.84	1015.79
429.03	1090.69
429.22	968.98
429.40	940.90
429.59	858.98
429.78	706.84
429.97	702.16
430.16	770.04
430.34	631.94
430.53	767.70
430.72	711.52
430.91	837.91
431.10	968.98
431.28	1198.35
431.47	1392.62
431.66	1343.47
431.85	1214.74
432.03	1233.46
432.22	992.39
432.41	1144.52
432.60	1188.99
432.79	1310.70
432.97	1331.76
433.16	1343.47
433.35	1200.69
433.54	1025.15
433.72	987.71
433.91	959.62
434.10	1083.67
434.28	1149.20
434.47	1306.02
434.66	1315.38
434.85	1306.02
435.03	1240.48
435.22	1270.91
435.41	1289.64
435.59	1420.71
435.78	1401.98
435.97	1341.13
436.16	1420.71
436.34	1462.83
436.53	1411.34
436.72	1350.49
436.90	1256.87
437.09	1296.66
437.28	1240.48
437.46	1348.15
437.65	1301.34
437.84	1207.72
438.02	1067.28
438.21	1015.79
438.40	1125.80
438.58	1256.87
438.77	1277.93
438.96	1280.27
439.14	1394.96
439.33	1490.92
439.52	1394.96
439.70	1362.19
439.89	1378.58
440.08	1291.98
440.26	1247.51
440.45	1397.30
440.63	1554.12
440.82	1671.14
441.01	1507.30
441.19	1619.65
441.38	1579.86
441.57	1547.09
441.75	1661.78
441.94	1687.53
442.12	1715.61
442.31	1664.12
442.50	1659.44
442.68	1713.27
442.87	1605.61
443.05	1551.78
443.24	1603.27
443.43	1638.38
443.61	1603.27
443.80	1762.42
443.98	1547.09
444.17	1533.05
444.35	1696.89
444.54	1675.82
444.73	1729.66
444.91	1568.16
445.10	1584.54
445.28	1500.28
445.47	1483.90
445.65	1430.07
445.84	1554.12
446.02	1502.62
446.21	1671.14
446.39	1614.97
446.58	1643.06
446.77	1621.99
446.95	1757.74
447.14	1736.68
447.32	1732.00
447.51	1668.80
447.69	1582.20
447.88	1593.90
448.06	1706.25
448.25	1685.19
448.43	1760.08
448.62	1554.12
448.80	1570.50
448.99	1687.53
449.17	1621.99
449.36	1717.95
449.54	1865.41
449.73	1687.53
449.91	1778.81
450.10	1802.21
450.28	1830.30
450.46	1769.44
450.65	1916.90
450.83	1811.57
451.02	1739.02
451.20	1760.08
451.39	1813.92
451.57	1788.17
451.76	1720.29
451.94	1750.72
452.13	1699.23
452.31	1713.27
452.49	1526.03
452.68	1575.18
452.86	1640.72
453.05	1593.90
453.23	1593.90
453.42	1732.00
453.60	1788.17
453.78	1713.27
453.97	1647.74
454.15	1636.03
454.34	1636.03
454.52	1638.38
454.70	1547.09
454.89	1626.67
455.07	1605.61
455.26	1811.57
455.44	1785.83
455.62	1856.04
455.81	1830.30
455.99	1940.30
456.17	1895.83
456.36	1802.21
456.54	1811.57
456.73	1781.15
456.91	1842.00
457.09	1813.92
457.28	1916.90
457.46	1785.83
457.64	1928.60
457.83	1746.04
458.01	1692.21
458.19	1717.95
458.38	1732.00
458.56	1879.45
458.74	1820.94
458.93	1788.17
459.11	1755.40
459.29	1755.40
459.48	1844.34
459.66	1839.66
459.84	1806.89
460.03	1767.10
460.21	1846.68
460.39	1856.04
460.57	1881.79
460.76	1952.01
460.94	1891.15
461.12	1846.68
461.31	1877.11
461.49	1757.74
461.67	1858.39
461.85	1998.82
462.04	1797.53
462.22	2054.99
462.40	1937.96
462.59	1921.58
462.77	1937.96
462.95	1825.62
463.13	1975.41
463.32	1867.75
463.50	1792.85
463.68	1888.81
463.86	1839.66
464.05	1865.41
464.23	1706.25
464.41	1764.76
464.59	1753.06
464.78	1823.28
464.96	1825.62
465.14	1874.77
465.32	1902.86
465.50	1940.30
465.69	1942.64
465.87	1919.24
466.05	1769.44
466.23	1687.53
466.41	1645.40
466.60	1804.55
466.78	1825.62
466.96	1778.81
467.14	1790.51
467.32	1769.44
467.51	1905.20
467.69	1680.50
467.87	1750.72
468.05	1809.23
468.23	1764.76
468.41	1783.49
468.60	1785.83
468.78	1720.29
468.96	1930.94
469.14	1937.96
469.32	1923.92
469.50	1682.85
469.69	1802.21
469.87	1820.94
470.05	1621.99
470.23	1659.44
470.41	1739.02
470.59	1671.14
470.77	1696.89
470.95	1760.08
471.14	1872.43
471.32	1837.32
471.50	1944.99
471.68	2026.90
471.86	1975.41
472.04	2031.58
472.22	1949.67
472.40	1849.02
472.58	1827.96
472.77	1888.81
472.95	1940.30
473.13	1952.01
473.31	1799.87
473.49	1980.09
473.67	1884.13
473.85	1998.82
474.03	2031.58
474.21	1909.88
474.39	1991.80
474.57	1987.11
474.75	1989.46
474.93	2092.44
475.12	1952.01
475.30	2038.61
475.48	2036.27
475.66	2008.18
475.84	1874.77
476.02	1956.69
476.20	1853.70
476.38	2038.61
476.56	2008.18
476.74	2160.31
476.92	2209.47
477.10	2118.18
477.28	2078.40
477.46	2003.50
477.64	2148.61
477.82	2218.83
478.00	2195.42
478.18	2282.02
478.36	2148.61
478.54	2050.31
478.72	2249.25
478.90	2211.81
479.08	2237.55
479.26	2326.49
479.44	2214.15
479.62	2342.88
479.80	2291.38
479.98	2319.47
480.16	2382.67
480.34	2377.98
480.52	2286.70
480.70	2326.49
480.88	2235.21
481.06	2312.45
481.24	2399.05
481.41	2523.10
481.59	2483.31
481.77	2452.88
481.95	2389.69
482.13	2333.51
482.31	2441.18
482.49	2504.37
482.67	2487.99
482.85	2335.85
483.03	2605.02
483.21	2574.59
483.39	2457.56
483.57	2394.37
483.74	2450.54
483.92	2464.58
484.10	2361.60
484.28	2572.25
484.46	2616.72
484.64	2597.99
484.82	2609.70
485.00	2509.05
485.18	2373.30
485.35	2305.43
485.53	2310.11
485.71	2026.90
485.89	1994.14
486.07	2064.35
486.25	2258.62
486.43	2455.22
486.61	2342.88
486.78	2427.14
486.96	2420.11
487.14	2644.81
487.32	2579.27
487.50	2848.43
487.68	2715.02
487.85	2818.00
488.03	2715.02
488.21	2813.32
488.39	2757.15
488.57	2759.49
488.75	2633.10
488.92	2745.45
489.10	2960.78
489.28	3038.02
489.46	3063.76
489.64	3070.78
489.81	3068.44
489.99	3176.11
490.17	2932.69
490.35	3157.38
490.53	3084.83
490.70	3108.23
490.88	3007.59
491.06	3157.38
491.24	3122.27
491.41	2918.65
491.59	2871.84
491.77	2846.09
491.95	2953.76
492.13	2942.05
492.30	3218.24
492.48	3204.19
492.66	3208.87
492.84	3342.28
493.01	3241.64
493.19	3126.96
493.37	3258.03
493.54	3148.02
493.72	3176.11
493.90	3215.90
494.08	3419.52
494.25	3407.82
494.43	3541.23
494.61	3510.80
494.79	3550.59
494.96	3510.80
495.14	3365.69
495.32	3239.30
495.49	3152.70
495.67	3391.44
495.85	3534.21
496.02	3536.55
496.20	3545.91
496.38	3499.10
496.55	3442.93
496.73	3351.65
496.91	3468.67
497.09	3410.16
497.26	3669.96
497.44	3634.85
497.62	3468.67
497.79	3332.92
497.97	3166.74
498.14	3393.78
498.32	3330.58
498.50	3382.07
498.67	3536.55
498.85	3529.53
499.03	3562.30
499.20	3620.81
499.38	3609.11
499.56	3641.87
499.73	3435.91
499.91	3543.57
500.08	3386.76
500.26	3386.76
500.44	3391.44
500.61	3508.46
500.79	3389.10
500.97	3321.22
501.14	3438.25
501.32	3330.58
501.49	3494.42
501.67	3356.33
501.84	3325.90
502.02	3463.99
502.20	3543.57
502.37	3508.46
502.55	3538.89
502.72	3489.74
502.90	3639.53
503.07	3637.19
503.25	3639.53
503.43	3370.37
503.60	3316.54
503.78	3318.88
503.95	3459.31
504.13	3604.42
504.30	3632.51
504.48	3524.85
504.65	3421.86
504.83	3459.31
505.01	3662.94
505.18	3733.15
505.36	3742.52
505.53	3756.56
505.71	3744.86
505.88	3829.12
506.06	3852.52
506.23	3730.81
506.41	3637.19
506.58	3775.28
506.76	3747.20
506.93	3669.96
507.11	3604.42
507.28	3644.21
507.46	3679.32
507.63	3562.30
507.81	3562.30
507.98	3552.93
508.16	3667.62
508.33	3700.39
508.50	3772.94
508.68	3810.39
508.85	3969.55
509.03	3948.48
509.20	3705.07
509.38	3742.52
509.55	3534.21
509.73	3541.23
509.90	3648.90
510.08	3754.22
510.25	3669.96
510.42	3606.77
510.60	3777.62
510.77	3733.15
510.95	3838.48
511.12	3772.94
511.30	3817.41
511.47	3922.74
511.64	3796.35
511.82	3777.62
511.99	3714.43
512.17	3658.26
512.34	3550.59
512.51	3646.55
512.69	3742.52
512.86	3529.53
513.04	3763.58
513.21	3634.85
513.38	3742.52
513.56	3616.13
513.73	3705.07
513.90	3506.12
514.08	3550.59
514.25	3508.46
514.43	3602.08
514.60	3597.40
514.77	3735.50
514.95	3676.98
515.12	3686.34
515.29	3630.17
515.47	3838.48
515.64	3691.02
515.81	3789.33
515.99	3651.24
516.16	3353.99
516.33	3028.65
516.51	2974.82
516.68	2923.33
516.85	2871.84
517.03	2920.99
517.20	3157.38
517.37	3618.47
517.54	3576.34
517.72	3475.70
517.89	3400.80
518.06	2897.58
518.24	2981.84
518.41	3267.39
518.58	3417.18
518.75	3386.76
518.93	3482.72
519.10	3494.42
519.27	3445.27
519.45	3611.45
519.62	3648.90
519.79	3728.47
519.96	3749.54
520.14	3597.40
520.31	3454.63
520.48	3510.80
520.65	3478.04
520.83	3660.60
521.00	3737.84
521.17	3695.71
521.34	3660.60
521.52	3602.08
521.69	3611.45
521.86	3812.73
522.03	3700.39
522.20	3609.11
522.38	3440.59
522.55	3377.39
522.72	3538.89
522.89	3435.91
523.07	3524.85
523.24	3581.02
523.41	3662.94
523.58	3779.97
523.75	4002.32
523.92	3829.12
524.10	3915.72
524.27	3770.60
524.44	3798.69
524.61	3779.97
524.78	3789.33
524.96	3726.13
525.13	3632.51
525.30	3836.14
525.47	3747.20
525.64	3871.25
525.81	3700.39
525.98	3471.01
526.16	3438.25
526.33	3199.51
526.50	3075.46
526.67	3162.06
526.84	3337.60
527.01	3314.20
527.18	3473.36
527.36	3461.65
527.53	3531.87
527.70	3758.90
527.87	3616.13
528.04	3681.66
528.21	3707.41
528.38	3770.60
528.55	3733.15
528.72	3798.69
528.89	3817.41
529.07	3864.22
529.24	3684.00
529.41	3721.45
529.58	3637.19
529.75	3564.64
529.92	3590.38
530.09	3583.36
530.26	3737.84
530.43	3632.51
530.60	3721.45
530.77	3899.33
530.94	3779.97
531.11	3716.77
531.28	3595.06
531.46	3630.17
531.63	3686.34
531.80	3646.55
531.97	3700.39
532.14	3379.73
532.31	3463.99
532.48	3375.05
532.65	3386.76
532.82	3602.08
532.99	3508.46
533.16	3599.74
533.33	3616.13
533.50	3599.74
533.67	3604.42
533.84	3410.16
534.01	3499.10
534.18	3618.47
534.35	3625.49
534.52	3550.59
534.69	3740.18
534.86	3721.45
535.03	3705.07
535.20	3777.62
535.37	3709.75
535.54	3843.16
535.71	3702.73
535.88	3707.41
536.05	3716.77
536.22	3684.00
536.38	3522.51
536.55	3545.91
536.72	3442.93
536.89	3452.29
537.06	3552.93
537.23	3536.55
537.40	3714.43
537.57	3576.34
537.74	3676.98
537.91	3688.68
538.08	3555.27
538.25	3630.17
538.42	3646.55
538.59	3712.09
538.75	3447.61
538.92	3475.70
539.09	3389.10
539.26	3506.12
539.43	3571.66
539.60	3494.42
539.77	3358.67
539.94	3475.70
540.11	3419.52
540.28	3215.90
540.44	3363.35
540.61	3276.75
540.78	3445.27
540.95	3438.25
541.12	3440.59
541.29	3494.42
541.46	3574.00
541.62	3559.95
541.79	3559.95
541.96	3487.40
542.13	3353.99
542.30	3417.18
542.47	3538.89
542.63	3353.99
542.80	3314.20
542.97	3398.46
543.14	3335.26
543.31	3375.05
543.48	3515.48
543.64	3459.31
543.81	3489.74
543.98	3616.13
544.15	3424.20
544.32	3459.31
544.48	3398.46
544.65	3377.39
544.82	3503.78
544.99	3501.44
545.16	3550.59
545.32	3363.35
545.49	3496.76
545.66	3564.64
545.83	3494.42
546.00	3286.11
546.16	3412.50
546.33	3386.76
546.50	3412.50
546.67	3288.45
546.83	3407.82
547.00	3384.41
547.17	3183.13
547.34	3108.23
547.50	3272.07
547.67	3377.39
547.84	3375.05
548.00	3325.90
548.17	3435.91
548.34	3515.48
548.51	3396.12
548.67	3431.23
548.84	3412.50
549.01	3307.18
549.18	3283.77
549.34	3372.71
549.51	3368.03
549.68	3459.31
549.84	3321.22
550.01	3274.41
550.18	3414.84
550.34	3309.52
550.51	3335.26
550.68	3358.67
550.84	3185.47
551.01	3318.88
551.18	3148.02
551.34	3353.99
551.51	3375.05
551.68	3438.25
551.84	3410.16
552.01	3382.07
552.18	3557.61
552.34	3206.53
552.51	3194.83
552.68	3251.00
552.84	3239.30
553.01	3389.10
553.18	3309.52
553.34	3342.28
553.51	3349.31
553.67	3276.75
553.84	3400.80
554.01	3386.76
554.17	3169.09
554.34	3269.73
554.51	3211.22
554.67	3243.98
554.84	3332.92
555.00	3286.11
555.17	3251.00
555.33	3267.39
555.50	3314.20
555.67	3361.01
555.83	3190.15
556.00	3267.39
556.16	3124.62
556.33	3162.06
556.50	3253.34
556.66	3052.06
556.83	3098.87
556.99	2965.46
557.16	3262.71
557.32	3236.96
557.49	3253.34
557.65	3283.77
557.82	3124.62
557.98	3218.24
558.15	3131.64
558.32	3023.97
558.48	2897.58
558.65	3021.63
558.81	3021.63
558.98	2998.23
559.14	3094.19
559.31	2913.97
559.47	3040.36
559.64	3014.61
559.80	2998.23
559.97	3038.02
560.13	3159.72
560.30	3187.81
560.46	3258.03
560.63	3124.62
560.79	3178.45
560.96	3157.38
561.12	3007.59
561.29	2899.92
561.45	3012.27
561.61	2939.71
561.78	2995.89
561.94	3026.31
562.11	2979.50
562.27	2993.55
562.44	3019.29
562.60	2993.55
562.77	3061.42
562.93	3045.04
563.10	2972.48
563.26	3030.99
563.42	2993.55
563.59	3007.59
563.75	3080.14
563.92	3035.67
564.08	2986.52
564.24	3009.93
564.41	2974.82
564.57	2958.44
564.74	3035.67
564.90	2918.65
565.07	2963.12
565.23	2874.18
565.39	2782.90
565.56	2768.85
565.72	2834.39
565.88	2904.60
566.05	2773.53
566.21	2764.17
566.38	2937.37
566.54	2813.32
566.70	2902.26
566.87	2920.99
567.03	2920.99
567.19	2974.82
567.36	3005.25
567.52	2972.48
567.68	2846.09
567.85	2925.67
568.01	2867.16
568.17	2658.85
568.34	2818.00
568.50	2775.88
568.66	2609.70
568.83	2803.96
568.99	2733.75
569.15	2960.78
569.32	2916.31
569.48	2740.77
569.64	2764.17
569.81	2789.92
569.97	2782.90
570.13	2773.53
570.30	2630.76
570.46	2628.42
570.62	2649.49
570.78	2651.83
570.95	2595.65
571.11	2703.32
571.27	2609.70
571.43	2616.72
571.60	2773.53
571.76	2787.58
571.92	2808.64
572.09	2808.64
572.25	2810.98
572.41	2850.77
572.57	2717.36
572.74	2696.30
572.90	2799.28
573.06	2708.00
573.22	2827.37
573.38	2719.70
573.55	2717.36
573.71	2754.81
573.87	2979.50
574.03	2647.15
574.20	2703.32
574.36	2719.70
574.52	2696.30
574.68	2731.41
574.84	2609.70
575.01	2548.84
575.17	2546.50
575.33	2670.55
575.49	2710.34
575.65	2560.55
575.82	2665.87
575.98	2562.89
576.14	2612.04
576.30	2757.15
576.46	2717.36
576.62	2822.69
576.79	2656.51
576.95	2703.32
577.11	2705.66
577.27	2588.63
577.43	2590.97
577.59	2576.93
577.75	2558.21
577.92	2506.71
578.08	2450.54
578.24	2520.76
578.40	2506.71
578.56	2558.21
578.72	2588.63
578.88	2583.95
579.04	2516.08
579.21	2647.15
579.37	2583.95
579.53	2574.59
579.69	2586.29
579.85	2605.02
580.01	2677.57
580.17	2523.10
580.33	2616.72
580.49	2539.48
580.65	2464.58
580.82	2509.05
580.98	2586.29
581.14	2511.39
581.30	2553.52
581.46	2497.35
581.62	2583.95
581.78	2448.20
581.94	2560.55
582.10	2663.53
582.26	2722.04
582.42	2525.44
582.58	2548.84
582.74	2597.99
582.90	2588.63
583.06	2619.06
583.22	2504.37
583.38	2628.42
583.54	2586.29
583.70	2541.82
583.86	2658.85
584.02	2513.74
584.18	2544.16
584.34	2487.99
584.50	2527.78
584.66	2518.42
584.82	2478.63
584.98	2466.92
585.14	2471.61
585.30	2356.92
585.46	2429.48
585.62	2499.69
585.78	2354.58
585.94	2373.30
586.10	2469.27
586.26	2413.09
586.42	2516.08
586.58	2462.24
586.74	2434.16
586.90	2370.96
587.06	2499.69
587.22	2541.82
587.38	2401.39
587.54	2363.94
587.70	2389.69
587.86	2452.88
588.02	2193.08
588.18	2305.43
588.34	2235.21
588.49	2160.31
588.65	2024.56
588.81	1961.37
588.97	1954.35
589.13	2015.20
589.29	1956.69
589.45	2012.86
589.61	2052.65
589.77	2188.40
589.93	2059.67
590.08	2342.88
590.24	2321.81
590.40	2363.94
590.56	2272.66
590.72	2310.11
590.88	2207.13
591.04	2136.91
591.20	2289.04
591.35	2338.20
591.51	2258.62
591.67	2286.70
591.83	2087.76
591.99	2134.57
592.15	2237.55
592.31	2221.17
592.46	2242.23
592.62	2272.66
592.78	2235.21
592.94	2244.57
593.10	2310.11
593.26	2272.66
593.41	2235.21
593.57	2272.66
593.73	2059.67
593.89	2092.44
594.05	2104.14
594.20	2200.10
594.36	2176.70
594.52	2239.89
594.68	2111.16
594.84	2059.67
594.99	2209.47
595.15	2160.31
595.31	2054.99
595.47	2225.85
595.62	2172.02
595.78	2216.49
595.94	2209.47
596.10	2275.00
596.25	2125.21
596.41	2174.36
596.57	2176.70
596.73	2181.38
596.88	2207.13
597.04	2286.70
597.20	2132.23
597.36	2179.04
597.51	2181.38
597.67	2113.50
597.83	2122.87
597.99	2108.82
598.14	2040.95
598.30	2242.23
598.46	2148.61
598.61	2094.78
598.77	2132.23
598.93	2097.12
599.09	2345.22
599.24	2101.80
599.40	2066.69
599.56	2129.89
599.71	2059.67
599.87	2083.08
