SpectraSuite Data File
++++++++++++++++++++++++++++++++++++
Date: Mon Oct 07 14:54:01 GMT-05:00 2013
User: price-jones
Dark Spectrum Present: No
Reference Spectrum Present: No
Number of Sampled Component Spectra: 1
Spectrometers: USB2+H05261
Integration Time (usec): 100000 (USB2+H05261)
Spectra Averaged: 1 (USB2+H05261)
Boxcar Smoothing: 0 (USB2+H05261)
Correct for Electrical Dark: No (USB2+H05261)
Strobe/Lamp Enabled: No (USB2+H05261)
Correct for Detector Non-linearity: No (USB2+H05261)
Correct for Stray Light: No (USB2+H05261)
Number of Pixels in Processed Spectrum: 2048
>>>>>Begin Processed Spectral Data<<<<<
365.73	0.00
365.92	0.00
366.12	0.00
366.32	0.00
366.52	0.00
366.72	0.00
366.91	0.00
367.11	0.00
367.31	0.00
367.51	0.00
367.70	0.00
367.90	0.00
368.10	0.00
368.30	0.00
368.49	0.00
368.69	0.00
368.89	0.00
369.09	0.00
369.28	0.00
369.48	0.00
369.68	0.00
369.87	0.00
370.07	0.00
370.27	0.00
370.47	653.01
370.66	3246.32
370.86	3791.67
371.06	4273.82
371.25	4304.25
371.45	3936.78
371.65	3281.43
371.84	3208.87
372.04	3513.14
372.24	3880.61
372.44	4014.02
372.63	4056.15
372.83	3653.58
373.03	3260.37
373.22	3016.95
373.42	3155.04
373.62	3541.23
373.81	4014.02
374.01	3904.01
374.21	3536.55
374.40	3325.90
374.60	3351.65
374.79	3801.03
374.99	4568.73
375.19	4730.22
375.38	4674.05
375.58	4503.19
375.78	4416.59
375.97	4599.15
376.17	4585.11
376.37	4786.40
376.56	4926.83
376.76	5165.56
376.95	5322.38
377.15	5907.51
377.35	5989.43
377.54	6340.51
377.74	6368.60
377.93	6174.33
378.13	6265.61
378.33	6155.61
378.52	5242.80
378.72	5158.54
378.91	5198.33
379.11	5057.90
379.31	5046.20
379.50	4807.46
379.70	5149.18
379.89	5863.04
380.09	6047.94
380.28	6197.74
380.48	6377.96
380.68	6040.92
380.87	6118.16
381.07	5507.28
381.26	5235.78
381.46	4720.86
381.65	4622.56
381.85	4650.64
382.04	4397.87
382.24	4056.15
382.43	3805.71
382.63	3651.24
382.83	3817.41
383.02	3936.78
383.22	3721.45
383.41	3833.80
383.61	4016.36
383.80	4678.73
384.00	5334.08
384.19	5748.36
384.39	6359.24
384.58	5982.41
384.78	6204.76
384.97	6031.56
385.17	5942.62
385.36	5437.06
385.56	5191.31
385.75	5502.60
385.95	5902.83
386.14	6345.19
386.34	6408.39
386.53	6087.73
386.72	5706.23
386.92	5790.49
387.11	6017.52
387.31	6434.13
387.50	6307.74
387.70	6090.07
387.89	6024.54
388.09	6099.44
388.28	6022.20
388.48	6069.01
388.67	6700.95
388.86	7375.03
389.06	7770.58
389.25	8362.73
389.45	8231.66
389.64	8180.17
389.84	7981.23
390.03	7969.52
390.22	8051.44
390.42	8318.26
390.61	8826.16
390.81	9451.08
391.00	9575.13
391.19	9462.79
391.39	9266.18
391.58	8737.22
391.78	7990.59
391.97	7698.02
392.16	7426.52
392.36	6569.88
392.55	5320.04
392.75	4381.48
392.94	3550.59
393.13	3435.91
393.33	3955.51
393.52	5195.99
393.71	6513.71
393.91	7461.63
394.10	7695.68
394.29	8606.15
394.49	9263.84
394.68	9891.10
394.88	9980.04
395.07	10401.34
395.26	10197.71
395.46	9980.04
395.65	9448.74
395.84	8086.55
396.04	7014.59
396.23	5687.50
396.42	4746.61
396.62	4648.30
396.81	5378.55
397.00	6799.26
397.19	8725.52
397.39	10118.14
397.58	11632.46
397.77	11918.01
397.97	12280.79
398.16	12561.66
398.35	13104.66
398.55	13518.93
398.74	13977.68
398.93	14169.60
399.12	13928.53
399.32	13350.42
399.51	13914.48
399.70	14796.87
399.90	14686.86
400.09	14658.78
400.28	14504.30
400.47	14469.19
400.67	15314.13
400.86	15981.18
401.05	15510.73
401.24	15695.63
401.44	16016.29
401.63	16114.59
401.82	15908.62
402.01	15868.83
402.21	16259.70
402.40	16446.94
402.59	15679.25
402.78	15255.61
402.97	14618.99
403.17	15414.77
403.36	16170.76
403.55	16606.10
403.74	17224.00
403.93	16367.37
404.13	15206.46
404.32	14752.40
404.51	15463.92
404.70	16613.12
404.89	16592.06
405.09	16547.59
405.28	16095.86
405.47	16102.89
405.66	15967.13
405.85	15690.95
406.05	14899.85
406.24	15367.96
406.43	15798.62
406.62	16292.47
406.81	16491.41
407.00	16074.80
407.20	15845.43
407.39	15559.88
407.58	16414.18
407.77	17104.64
407.96	17724.88
408.15	17764.67
408.34	17881.69
408.54	18845.99
408.73	19040.26
408.92	18487.89
409.11	18017.44
409.30	16999.31
409.49	15936.71
409.68	15161.99
409.87	14579.20
410.07	15510.73
410.26	16592.06
410.45	17516.57
410.64	17951.91
410.83	18523.00
411.02	19220.48
411.21	20091.16
411.40	19974.13
411.59	19784.55
411.78	19822.00
411.98	19286.01
412.17	19653.48
412.36	19508.37
412.55	19396.02
412.74	18771.10
412.93	18511.30
413.12	18988.77
413.31	20493.73
413.50	20552.24
413.69	21270.79
413.88	20152.01
414.07	19597.31
414.26	20243.29
414.45	20648.21
414.64	20517.14
414.83	20671.61
415.02	20203.50
415.22	20577.99
415.41	20926.73
415.60	21523.57
415.79	22314.67
415.98	22647.02
416.17	22726.60
416.36	22104.02
416.55	21879.33
416.74	21039.08
416.93	20559.27
417.12	20610.76
417.31	20833.11
417.50	21209.93
417.69	21654.64
417.88	21888.69
418.07	21795.07
418.26	21083.55
418.45	21415.90
418.64	22391.91
418.83	23098.75
419.02	22490.21
419.21	22513.61
419.39	21518.89
419.58	20489.05
419.77	20610.76
419.96	21474.42
420.15	22623.62
420.34	23318.76
420.53	24404.77
420.72	24650.52
420.91	24540.52
421.10	23943.68
421.29	23723.67
421.48	23105.77
421.67	24353.27
421.86	23285.99
422.05	21968.27
422.24	19599.65
422.43	18995.79
422.61	21635.91
422.80	23150.24
422.99	23278.97
423.18	22335.73
423.37	21797.41
423.56	21816.13
423.75	22408.29
423.94	23014.49
424.13	21469.73
424.32	21986.99
424.50	22054.87
424.69	21284.83
424.88	21713.15
425.07	21607.83
425.26	21778.68
425.45	21336.32
425.64	20936.09
425.83	20809.70
426.01	22218.71
426.20	22764.05
426.39	22405.95
426.58	21102.27
426.77	19108.13
426.96	18647.05
427.15	19403.04
427.33	21076.52
427.52	22108.70
427.71	22010.40
427.90	21563.36
428.09	21507.18
428.28	20954.82
428.46	20137.97
428.65	19758.80
428.84	20568.63
429.03	20992.26
429.22	19917.96
429.40	18831.95
429.59	16638.87
429.78	14958.36
429.97	14920.92
430.16	15428.81
430.34	15419.45
430.53	15384.34
430.72	15477.96
430.91	17282.52
431.10	20156.69
431.28	23927.30
431.47	25469.71
431.66	26101.65
431.85	23866.44
432.03	21811.45
432.22	20900.98
432.41	21745.92
432.60	23964.75
432.79	24800.32
432.97	25315.23
433.16	25362.04
433.35	22963.00
433.54	20559.27
433.72	19290.70
433.91	19782.21
434.10	22113.38
434.28	23672.18
434.47	24802.66
434.66	24496.05
434.85	23737.71
435.03	23611.32
435.22	24297.10
435.41	25783.34
435.59	25886.32
435.78	26345.07
435.97	26794.45
436.16	27194.68
436.34	26661.04
436.53	26342.73
436.72	26656.36
436.90	24587.33
437.09	25050.75
437.28	24163.69
437.46	25158.42
437.65	25179.48
437.84	23608.98
438.02	21664.00
438.21	21266.11
438.40	22665.75
438.58	24474.98
438.77	25174.80
438.96	25766.96
439.14	26373.16
439.33	26675.09
439.52	27262.56
439.70	27274.26
439.89	26263.15
440.08	25156.08
440.26	25731.85
440.45	26305.28
440.63	28123.88
440.82	29551.60
441.01	29050.73
441.19	28510.07
441.38	29057.75
441.57	30700.81
441.75	30742.94
441.94	30984.01
442.12	30527.61
442.31	30902.09
442.50	31077.63
442.68	30455.05
442.87	30506.54
443.05	30052.48
443.24	30445.69
443.43	30965.29
443.61	32149.60
443.80	31964.70
443.98	30331.00
444.17	30443.35
444.35	32011.51
444.54	32517.06
444.73	31557.44
444.91	30380.15
445.10	29621.82
445.28	28245.58
445.47	27639.39
445.65	27969.40
445.84	28664.54
446.02	29844.17
446.21	30127.38
446.39	30726.55
446.58	30780.39
446.77	31349.14
446.95	31192.32
447.14	32102.79
447.32	32931.34
447.51	32453.87
447.69	30948.90
447.88	30539.31
448.06	30955.93
448.25	31913.20
448.43	31543.40
448.62	31098.70
448.80	30939.54
448.99	31393.61
449.17	31679.15
449.36	31683.83
449.54	33017.94
449.73	32907.93
449.91	33900.32
450.10	34246.72
450.28	35103.35
450.46	34834.19
450.65	34412.90
450.83	34277.15
451.02	33591.37
451.20	33464.98
451.39	33488.38
451.57	33539.88
451.76	33273.06
451.94	33490.73
452.13	32393.01
452.31	30909.11
452.49	29621.82
452.68	30125.04
452.86	29858.21
453.05	30164.82
453.23	31077.63
453.42	32212.79
453.60	32926.66
453.78	33003.89
453.97	32545.15
454.15	32507.70
454.34	31952.99
454.52	32142.58
454.70	31807.88
454.89	32105.13
455.07	32189.39
455.26	32568.55
455.44	33914.36
455.62	34445.66
455.81	34696.10
455.99	34190.55
456.17	33968.19
456.36	33848.83
456.54	34782.70
456.73	34892.71
456.91	35550.40
457.09	35367.84
457.28	36524.06
457.46	34721.85
457.64	34609.50
457.83	33493.07
458.01	33050.70
458.19	33383.06
458.38	33776.27
458.56	34993.35
458.74	34890.37
458.93	34227.99
459.11	33853.51
459.29	33479.02
459.48	34223.31
459.66	33923.72
459.84	33954.15
460.03	34916.11
460.21	34630.57
460.39	35505.93
460.57	35353.79
460.76	36006.80
460.94	36158.94
461.12	35377.20
461.31	35351.45
461.49	35421.67
461.67	35110.38
461.85	37151.32
462.04	36107.44
462.22	37024.93
462.40	36439.80
462.59	36196.38
462.77	36189.36
462.95	36627.04
463.13	35983.40
463.32	35363.15
463.50	34955.90
463.68	35215.70
463.86	35611.25
464.05	35346.77
464.23	34286.51
464.41	34061.82
464.59	33331.57
464.78	34969.94
464.96	35112.72
465.14	34738.23
465.32	35580.82
465.50	36414.05
465.69	36664.49
465.87	36243.20
466.05	34923.13
466.23	33373.70
466.41	32498.34
466.60	33607.75
466.78	33727.12
466.96	34473.75
467.14	34969.94
467.32	35288.26
467.51	35737.64
467.69	33670.95
467.87	34469.07
468.05	35213.36
468.23	35117.40
468.41	35040.16
468.60	35601.89
468.78	35365.49
468.96	34852.92
469.14	35461.46
469.32	35735.30
469.50	34548.65
469.69	34384.81
469.87	34015.01
470.05	34263.10
470.23	34169.48
470.41	34038.41
470.59	34705.46
470.77	34534.60
470.95	35454.44
471.14	36189.36
471.32	35796.15
471.50	37738.80
471.68	38316.91
471.86	38050.09
472.04	37902.64
472.22	38288.82
472.40	36968.76
472.58	35798.49
472.77	35807.86
472.95	36472.57
473.13	37876.89
473.31	36278.30
473.49	36650.45
473.67	37099.83
473.85	37823.06
474.03	38667.99
474.21	38405.85
474.39	38553.30
474.57	39541.01
474.75	39208.65
474.93	39304.62
475.12	37830.08
475.30	37991.58
475.48	37851.14
475.66	38513.52
475.84	38279.46
476.02	38272.44
476.20	37167.71
476.38	38071.15
476.56	39136.10
476.74	40086.36
476.92	40292.32
477.10	40247.85
477.28	41951.76
477.46	42342.63
477.64	41874.52
477.82	42412.85
478.00	42068.79
478.18	41888.57
478.36	41268.33
478.54	41598.34
478.72	41687.28
478.90	42946.49
479.08	43854.62
479.26	44226.76
479.44	44507.63
479.62	43966.96
479.80	44203.36
479.98	43875.68
480.16	44313.36
480.34	44086.33
480.52	44493.58
480.70	44678.49
480.88	44350.81
481.06	45656.83
481.24	45738.75
481.41	46543.89
481.59	47105.62
481.77	46955.83
481.95	46073.45
482.13	46246.65
482.31	45963.44
482.49	46981.57
482.67	46862.21
482.85	47028.38
483.03	47690.76
483.21	47964.60
483.39	48107.37
483.57	47054.13
483.74	46831.78
483.92	46925.40
484.10	47428.62
484.28	48542.71
484.46	48931.24
484.64	48849.32
484.82	47791.40
485.00	47489.47
485.18	46775.61
485.35	45680.24
485.53	42302.84
485.71	38958.22
485.89	38590.75
486.07	40320.41
486.25	43484.81
486.43	45762.15
486.61	46433.89
486.78	46478.36
486.96	46869.23
487.14	48655.06
487.32	49462.54
487.50	50000.86
487.68	50906.65
487.85	51276.46
488.03	51367.74
488.21	51433.27
488.39	50452.59
488.57	49928.31
488.75	49558.50
488.92	50569.61
489.10	52495.88
489.28	53932.96
489.46	54789.60
489.64	54223.19
489.81	54611.72
489.99	54417.46
490.17	54190.42
490.35	54494.69
490.53	54141.27
490.70	53719.98
490.88	53490.60
491.06	54578.95
491.24	54389.37
491.41	53558.48
491.59	51929.47
491.77	50831.75
491.95	52465.45
492.13	53474.22
492.30	54562.57
492.48	55646.24
492.66	55973.91
492.84	55948.17
493.01	55648.58
493.19	55133.66
493.37	54705.34
493.54	54370.64
493.72	54997.91
493.90	56182.22
494.08	56877.36
494.25	56921.83
494.43	57179.29
494.61	57511.64
494.79	57715.27
494.96	57364.19
495.14	56917.15
495.32	56116.68
495.49	55199.19
495.67	56196.26
495.85	57535.05
496.02	57815.91
496.20	57841.66
496.38	57289.29
496.55	57242.48
496.73	57668.46
496.91	57738.68
497.09	58445.52
497.26	58450.20
497.44	58157.63
497.62	57476.54
497.79	56903.10
497.97	55475.38
498.14	55707.09
498.32	56825.87
498.50	57911.88
498.67	58323.81
498.85	58258.27
499.03	58232.53
499.20	58541.48
499.38	58492.33
499.56	58384.66
499.73	57921.24
499.91	57471.85
500.08	57043.54
500.26	56381.16
500.44	56928.85
500.61	57429.72
500.79	57284.61
500.97	56905.44
501.14	56868.00
501.32	56779.06
501.49	56725.22
501.67	56891.40
501.84	57357.17
502.02	57640.37
502.20	57773.78
502.37	58068.69
502.55	58113.16
502.72	58445.52
502.90	59040.01
503.07	58880.86
503.25	58333.17
503.43	57556.11
503.60	56821.19
503.78	56109.66
503.95	56690.12
504.13	58099.12
504.30	58915.96
504.48	58550.84
504.65	58319.13
504.83	58120.18
505.01	58843.41
505.18	59245.98
505.36	59744.51
505.53	59962.18
505.71	59976.23
505.88	60214.96
506.06	59302.15
506.23	59220.23
506.41	58838.73
506.58	59159.38
506.76	58871.49
506.93	59025.97
507.11	58639.78
507.28	58908.94
507.46	58356.58
507.63	57909.53
507.81	57670.80
507.98	57939.96
508.16	58525.10
508.33	59096.19
508.50	59393.43
508.68	59842.82
508.85	60086.23
509.03	60095.60
509.20	59894.31
509.38	59402.80
509.55	58396.37
509.73	58499.35
509.90	59295.13
510.08	59634.51
510.25	59402.80
510.42	59250.66
510.60	58869.15
510.77	59295.13
510.95	59714.09
511.12	59994.95
511.30	60350.71
511.47	60463.06
511.64	60535.62
511.82	60212.62
511.99	59355.99
512.17	58845.75
512.34	58529.78
512.51	58773.19
512.69	58754.47
512.86	58918.31
513.04	59592.38
513.21	59355.99
513.38	59032.99
513.56	58574.25
513.73	58192.74
513.90	58223.17
514.08	58166.99
514.25	58616.38
514.43	58679.57
514.60	58801.28
514.77	59103.21
514.95	59147.68
515.12	59011.93
515.29	59260.02
515.47	59657.91
515.64	59800.69
515.81	59571.32
515.99	59133.63
516.16	57542.07
516.33	55634.53
516.51	53996.16
516.68	53368.90
516.85	52828.23
517.03	53125.48
517.20	55648.58
517.37	58073.37
517.54	59143.00
517.72	58436.16
517.89	56537.98
518.06	53916.58
518.24	54138.93
518.41	56474.79
518.58	57645.05
518.75	57895.49
518.93	58021.88
519.10	57813.57
519.27	58358.92
519.45	58569.57
519.62	59372.37
519.79	59475.35
519.96	59465.99
520.14	58880.86
520.31	58281.68
520.48	57904.85
520.65	58438.50
520.83	59370.03
521.00	59728.13
521.17	59290.45
521.34	58925.33
521.52	59196.83
521.69	59744.51
521.86	60111.98
522.03	59852.18
522.20	58834.05
522.38	57773.78
522.55	57631.01
522.72	58269.98
522.89	58578.93
523.07	58798.94
523.24	59196.83
523.41	59859.20
523.58	60339.01
523.75	60425.61
523.92	60643.28
524.10	60423.27
524.27	60196.24
524.44	60292.20
524.61	59924.74
524.78	59772.60
524.96	59545.57
525.13	59526.84
525.30	60079.21
525.47	60505.19
525.64	60144.75
525.81	59746.86
525.98	58433.81
526.16	56863.32
526.33	56285.20
526.50	55959.87
526.67	55451.97
526.84	56126.05
527.01	57219.08
527.18	57818.25
527.36	58726.38
527.53	59491.74
527.70	59781.96
527.87	59072.78
528.04	58805.96
528.21	59278.75
528.38	59906.01
528.55	60631.58
528.72	60764.99
528.89	60626.90
529.07	60643.28
529.24	59987.93
529.41	59465.99
529.58	58742.77
529.75	58946.39
529.92	59260.02
530.09	59924.74
530.26	60306.24
530.43	60392.84
530.60	60390.50
530.77	60619.88
530.94	60797.76
531.11	60390.50
531.28	59943.46
531.46	59732.81
531.63	59884.95
531.80	59725.79
531.97	59311.52
532.14	58609.35
532.31	57570.16
532.48	57048.22
532.65	57036.51
532.82	57944.64
532.99	58890.22
533.16	59367.69
533.33	59943.46
533.50	59505.78
533.67	59077.46
533.84	58553.18
534.01	58775.53
534.18	58932.35
534.35	59405.14
534.52	58862.13
534.69	59358.33
534.86	59480.03
535.03	59868.56
535.20	60451.36
535.37	60601.15
535.54	60722.86
535.71	60479.44
535.88	59915.37
536.05	59337.26
536.22	59009.59
536.38	58782.55
536.55	58183.38
536.72	57841.66
536.89	57680.16
537.06	58567.23
537.23	59482.37
537.40	59494.08
537.57	59393.43
537.74	59269.39
537.91	59229.60
538.08	59213.21
538.25	59250.66
538.42	59257.68
538.59	59089.16
538.75	58691.27
538.92	58356.58
539.09	58347.21
539.26	57991.45
539.43	57895.49
539.60	57935.28
539.77	58181.04
539.94	57996.13
540.11	57303.34
540.28	56732.25
540.44	57022.47
540.61	57104.39
540.78	57226.10
540.95	57808.89
541.12	58150.61
541.29	58520.41
541.46	58731.06
541.62	58885.54
541.79	58717.02
541.96	58010.18
542.13	58017.20
542.30	58398.71
542.47	58408.07
542.63	57975.07
542.80	58047.63
542.97	58176.36
543.14	57954.00
543.31	58166.99
543.48	58478.28
543.64	59227.26
543.81	59512.80
543.98	59358.33
544.15	58560.20
544.32	57822.93
544.48	58206.78
544.65	58522.76
544.82	58967.46
544.99	58567.23
545.16	58248.91
545.32	58281.68
545.49	58836.39
545.66	59245.98
545.83	58742.77
546.00	58562.54
546.16	58351.90
546.33	58185.72
546.50	58134.23
546.67	58651.48
546.83	58475.94
547.00	58192.74
547.17	57623.99
547.34	57298.65
547.50	57020.13
547.67	57492.92
547.84	57661.44
548.00	57965.71
548.17	58209.12
548.34	57977.41
548.51	58333.17
548.67	58190.40
548.84	58342.53
549.01	58241.89
549.18	57958.69
549.34	58064.01
549.51	58082.73
549.68	58010.18
549.84	57691.86
550.01	57939.96
550.18	57724.63
550.34	57584.20
550.51	57640.37
550.68	57921.24
550.84	57141.84
551.01	57322.06
551.18	57183.97
551.34	57621.65
551.51	57993.79
551.68	58108.48
551.84	57984.43
552.01	57865.06
552.18	57876.77
552.34	57116.09
552.51	56884.38
552.68	56310.95
552.84	57010.77
553.01	57092.69
553.18	57183.97
553.34	57183.97
553.51	57549.09
553.67	57731.65
553.84	57970.39
554.01	57874.43
554.17	57556.11
554.34	57738.68
554.51	57750.38
554.67	58005.50
554.84	57890.81
555.00	57539.73
555.17	57364.19
555.33	57263.55
555.50	57181.63
555.67	57373.55
555.83	57066.94
556.00	56781.40
556.16	56727.56
556.33	56296.91
556.50	56191.58
556.66	56390.53
556.83	55971.57
556.99	56275.84
557.16	56163.50
557.32	56633.94
557.49	56949.92
557.65	56662.03
557.82	56678.41
557.98	56474.79
558.15	56023.06
558.32	55356.01
558.48	54581.29
558.65	54813.01
558.81	55121.96
558.98	55437.93
559.14	55533.89
559.31	55707.09
559.47	55508.14
559.64	55222.60
559.80	55028.34
559.97	55054.08
560.13	55449.63
560.30	56423.29
560.46	56589.47
560.63	57085.67
560.79	56966.30
560.96	56774.37
561.12	55449.63
561.29	54707.68
561.45	54548.53
561.61	55208.56
561.78	55594.74
561.94	55664.96
562.11	55442.61
562.27	55110.25
562.44	55547.93
562.60	55819.44
562.77	56332.01
562.93	56058.17
563.10	56025.40
563.26	55533.89
563.42	55519.85
563.59	55145.36
563.75	55271.75
563.92	55222.60
564.08	55058.76
564.24	55599.43
564.41	55419.20
564.57	55269.41
564.74	55229.62
564.90	55070.46
565.07	55173.45
565.23	54855.14
565.39	54115.53
565.56	53776.15
565.72	53523.37
565.88	53673.16
566.05	54129.57
566.21	54171.70
566.38	54424.48
566.54	54475.97
566.70	54967.48
566.87	55105.57
567.03	54815.35
567.19	55131.32
567.36	55023.65
567.52	55138.34
567.68	54768.54
567.85	53652.10
568.01	53593.59
568.17	53340.81
568.34	53174.63
568.50	53015.47
568.66	53455.50
568.83	53867.43
568.99	54000.84
569.15	53848.71
569.32	53837.00
569.48	53581.88
569.64	53354.85
569.81	53207.40
569.97	53130.16
570.13	52879.72
570.30	52640.99
570.46	51828.82
570.62	51475.40
570.78	51384.12
570.95	51955.21
571.11	52495.88
571.27	52685.46
571.43	52933.56
571.60	53268.25
571.76	53017.82
571.92	53624.01
572.09	53867.43
572.25	53911.90
572.41	53727.00
572.57	53729.34
572.74	53506.99
572.90	53113.78
573.06	53251.87
573.22	53127.82
573.38	53254.21
573.55	52956.96
573.71	53277.61
573.87	53223.78
574.03	52865.68
574.20	52772.06
574.36	52538.01
574.52	52568.43
574.68	52016.07
574.84	51952.87
575.01	51358.38
575.17	51159.43
575.33	51751.59
575.49	51910.74
575.65	51995.00
575.82	51833.50
575.98	51388.80
576.14	52032.45
576.30	52247.78
576.46	52299.27
576.62	52282.89
576.79	51992.66
576.95	51564.34
577.11	51550.30
577.27	51892.02
577.43	51985.64
577.59	51601.79
577.75	51313.90
577.92	50464.29
578.08	50185.77
578.24	50129.59
578.40	50618.77
578.56	51093.89
578.72	50946.44
578.88	51199.22
579.04	51255.39
579.21	50913.67
579.37	50974.53
579.53	51452.00
579.69	51299.86
579.85	51618.17
580.01	51334.97
580.17	50857.50
580.33	50852.82
580.49	50686.64
580.65	51517.53
580.82	51072.83
580.98	51437.95
581.14	51192.20
581.30	51295.18
581.46	50923.04
581.62	51831.16
581.78	51292.84
581.94	51547.96
582.10	51508.17
582.26	51452.00
582.42	51489.45
582.58	51250.71
582.74	51428.59
582.90	51311.56
583.06	51384.12
583.22	51199.22
583.38	51454.34
583.54	50892.61
583.70	51168.79
583.86	50972.19
584.02	50841.12
584.18	50946.44
584.34	50672.60
584.50	50871.54
584.66	50873.88
584.82	50340.24
584.98	50150.66
585.14	49558.50
