SpectraSuite Data File
++++++++++++++++++++++++++++++++++++
Date: Mon Oct 07 14:53:05 GMT-05:00 2013
User: price-jones
Dark Spectrum Present: No
Reference Spectrum Present: No
Number of Sampled Component Spectra: 1
Spectrometers: USB2+H05261
Integration Time (usec): 100000 (USB2+H05261)
Spectra Averaged: 1 (USB2+H05261)
Boxcar Smoothing: 0 (USB2+H05261)
Correct for Electrical Dark: No (USB2+H05261)
Strobe/Lamp Enabled: No (USB2+H05261)
Correct for Detector Non-linearity: No (USB2+H05261)
Correct for Stray Light: No (USB2+H05261)
Number of Pixels in Processed Spectrum: 2048
>>>>>Begin Processed Spectral Data<<<<<
365.73	0.00
365.92	0.00
366.12	0.00
366.32	0.00
366.52	0.00
366.72	0.00
366.91	0.00
367.11	0.00
367.31	0.00
367.51	0.00
367.70	0.00
367.90	0.00
368.10	0.00
368.30	0.00
368.49	0.00
368.69	0.00
368.89	0.00
369.09	0.00
369.28	0.00
369.48	0.00
369.68	0.00
369.87	0.00
370.07	0.00
370.27	0.00
370.47	531.30
370.66	2698.64
370.86	3145.68
371.06	3550.59
371.25	3433.57
371.45	3192.49
371.65	2888.22
371.84	2661.19
372.04	2754.81
372.24	3110.57
372.44	3349.31
372.63	3304.84
372.83	2888.22
373.03	2558.21
373.22	2525.44
373.42	2616.72
373.62	2984.18
373.81	3255.69
374.01	3199.51
374.21	2892.90
374.40	2567.57
374.60	2825.03
374.79	3253.34
374.99	3714.43
375.19	4002.32
375.38	3934.44
375.58	3681.66
375.78	3590.38
375.97	3620.81
376.17	3871.25
376.37	3941.46
376.56	3791.67
376.76	4292.54
376.95	4418.93
377.15	4718.52
377.35	4929.17
377.54	5203.01
377.74	5387.91
377.93	5397.28
378.13	5036.83
378.33	4833.21
378.52	4491.49
378.72	4304.25
378.91	4205.94
379.11	4147.43
379.31	3988.27
379.50	3995.29
379.70	4306.59
379.89	4734.90
380.09	4858.95
380.28	5029.81
380.48	5121.09
380.68	5074.28
380.87	4877.68
381.07	4592.13
381.26	4180.20
381.46	3875.93
381.65	3836.14
381.85	3712.09
382.04	3503.78
382.24	3314.20
382.43	3234.62
382.63	3068.44
382.83	3082.49
383.02	3009.93
383.22	3185.47
383.41	3246.32
383.61	3417.18
383.80	3882.95
384.00	4402.55
384.19	4922.15
384.39	5170.24
384.58	5067.26
384.78	4997.04
384.97	4938.53
385.17	4674.05
385.36	4526.60
385.56	4250.41
385.75	4418.93
385.95	4901.08
386.14	5320.04
386.34	5298.97
386.53	5090.67
386.72	4713.84
386.92	4784.06
387.11	4968.96
387.31	5247.48
387.50	5125.77
387.70	4990.02
387.89	5032.15
388.09	4980.66
388.28	5043.85
388.48	5231.10
388.67	5462.81
388.86	5975.39
389.06	6534.78
389.25	6717.34
389.45	6888.20
389.64	6813.30
389.84	6710.32
390.03	6506.69
390.22	6855.43
390.42	6995.86
390.61	7215.87
390.81	7630.15
391.00	8112.30
391.19	7857.18
391.39	7581.00
391.58	7155.02
391.78	6803.94
391.97	6574.56
392.16	6092.41
392.36	5582.18
392.55	4379.14
392.75	3316.54
392.94	2806.30
393.13	2991.20
393.33	3454.63
393.52	4400.21
393.71	5371.53
393.91	6127.52
394.10	6527.75
394.29	7178.42
394.49	7681.64
394.68	8386.14
394.88	8510.19
395.07	8622.53
395.26	8585.08
395.46	8451.67
395.65	7709.72
395.84	6796.92
396.04	5764.74
396.23	4784.06
396.42	4046.79
396.62	3819.75
396.81	4437.66
397.00	5760.06
397.19	6993.52
397.39	8468.06
397.58	9575.13
397.77	9886.42
397.97	10415.38
398.16	10338.15
398.35	10944.34
398.55	11040.31
398.74	11686.29
398.93	11969.50
399.12	11763.53
399.32	11389.05
399.51	11552.88
399.70	12666.98
399.90	12217.60
400.09	12154.40
400.28	12159.08
400.47	12395.48
400.67	13053.17
400.86	13249.77
401.05	13151.47
401.24	13053.17
401.44	13460.42
401.63	13184.24
401.82	13404.25
402.01	13509.57
402.21	13664.05
402.40	13790.44
402.59	13301.26
402.78	12580.38
402.97	12205.89
403.17	12936.14
403.36	13532.98
403.55	14246.84
403.74	14738.35
403.93	13631.28
404.13	12732.51
404.32	12528.89
404.51	13191.26
404.70	13961.30
404.89	14136.84
405.09	13680.43
405.28	13406.59
405.47	13235.73
405.66	13177.22
405.85	13004.02
406.05	12491.44
406.24	12751.24
406.43	13460.42
406.62	13984.70
406.81	14160.24
407.00	13310.63
407.20	13036.78
407.39	13214.66
407.58	13877.04
407.77	14185.99
407.96	14864.74
408.15	14998.15
408.34	15059.01
408.54	15894.58
408.73	15906.28
408.92	15700.31
409.11	15250.93
409.30	14183.65
409.49	13429.99
409.68	12503.14
409.87	12257.39
410.07	13006.36
410.26	14286.63
410.45	14970.07
410.64	15487.32
410.83	15836.06
411.02	16119.27
411.21	16982.93
411.40	16851.86
411.59	16910.37
411.78	16629.51
411.98	16353.32
412.17	16517.16
412.36	16276.09
412.55	16439.92
412.74	16098.20
412.93	15880.53
413.12	15770.53
413.31	17465.08
413.50	17490.82
413.69	17837.22
413.88	16982.93
414.07	16603.76
414.26	17078.89
414.45	17554.02
414.64	17385.50
414.83	17673.39
415.02	16938.46
415.22	17362.09
415.41	17626.57
415.60	18319.37
415.79	18981.74
415.98	19339.85
416.17	19344.53
416.36	18848.33
416.55	18548.75
416.74	17937.87
416.93	17310.60
417.12	17525.93
417.31	17621.89
417.50	17987.02
417.69	18640.03
417.88	18183.62
418.07	17877.01
418.26	18132.13
418.45	18345.12
418.64	18647.05
418.83	19314.10
419.02	19283.67
419.21	19108.13
419.39	17893.40
419.58	17432.31
419.77	17308.26
419.96	17991.70
420.15	19066.00
420.34	19634.75
420.53	20573.31
420.72	20929.07
420.91	20507.77
421.10	20034.99
421.29	20133.29
421.48	19702.63
421.67	20622.46
421.86	19840.72
422.05	18640.03
422.24	16690.36
422.43	16542.91
422.61	18036.17
422.80	19903.92
422.99	20142.65
423.18	19115.16
423.37	18920.89
423.56	18583.85
423.75	19140.90
423.94	19316.44
424.13	18569.81
424.32	18335.76
424.50	18588.53
424.69	18258.52
424.88	18518.32
425.07	18307.67
425.26	18499.59
425.45	18122.77
425.64	18157.88
425.83	17816.16
426.01	19051.96
426.20	19496.66
426.39	19276.65
426.58	17659.34
426.77	16343.96
426.96	15943.73
427.15	16561.63
427.33	18270.22
427.52	18743.01
427.71	18707.90
427.90	18405.97
428.09	17970.63
428.28	17961.27
428.46	17202.94
428.65	16994.63
428.84	17390.18
429.03	17912.12
429.22	16723.13
429.40	15702.65
429.59	14448.13
429.78	12681.02
429.97	12823.80
430.16	13219.35
430.34	13111.68
430.53	13123.38
430.72	13198.28
430.91	14897.51
431.10	17483.80
431.28	20709.06
431.47	22125.08
431.66	22300.62
431.85	20343.94
432.03	18490.23
432.22	17886.37
432.41	19047.28
432.60	20842.47
432.79	21394.84
432.97	22356.80
433.16	21252.06
433.35	19286.01
433.54	17439.33
433.72	16690.36
433.91	17111.66
434.10	19168.99
434.28	20580.33
434.47	21507.18
434.66	21001.63
434.85	20739.49
435.03	20559.27
435.22	21165.46
435.41	22644.68
435.59	22490.21
435.78	23136.20
435.97	23557.49
436.16	23246.20
436.34	22927.89
436.53	22480.85
436.72	22576.81
436.90	21238.02
437.09	21163.12
437.28	21083.55
437.46	21860.60
437.65	21788.05
437.84	20280.74
438.02	18583.85
438.21	18719.60
438.40	19531.77
438.58	21392.50
438.77	21696.77
438.96	22071.25
439.14	22686.81
439.33	23171.30
439.52	24154.33
439.70	23318.76
439.89	22586.17
440.08	21996.35
440.26	22153.17
440.45	22735.96
440.63	24318.17
440.82	25565.67
441.01	25118.63
441.19	25123.31
441.38	25528.22
441.57	26253.79
441.75	26995.74
441.94	26717.22
442.12	26583.80
442.31	27058.93
442.50	27213.41
442.68	26815.52
442.87	26457.42
443.05	26195.28
443.24	26466.78
443.43	27042.55
443.61	27456.82
443.80	27814.93
443.98	26473.80
444.17	25949.52
444.35	27777.48
444.54	28158.99
444.73	27789.18
444.91	26782.75
445.10	25743.55
445.28	24816.70
445.47	24327.53
445.65	24350.93
445.84	24954.79
446.02	25886.32
446.21	26305.28
446.39	26511.25
446.58	26771.05
446.77	27435.76
446.95	27824.29
447.14	28107.49
447.32	28863.49
447.51	28077.07
447.69	26969.99
447.88	26478.48
448.06	27061.27
448.25	27784.50
448.43	27941.32
448.62	27290.65
448.80	26831.90
448.99	27667.47
449.17	27871.10
449.36	27641.73
449.54	28650.50
449.73	29413.51
449.91	29347.98
450.10	30625.91
450.28	30450.37
450.46	30160.14
450.65	30438.67
450.83	30066.52
451.02	29795.02
451.20	29560.97
451.39	29544.58
451.57	29329.25
451.76	29097.54
451.94	29099.88
452.13	28479.64
452.31	27346.82
452.49	26045.48
452.68	26368.48
452.86	26146.12
453.05	26850.63
453.23	27393.63
453.42	28273.67
453.60	29132.65
453.78	29235.63
453.97	28985.19
454.15	28655.18
454.34	28362.61
454.52	28280.69
454.70	27943.66
454.89	28217.50
455.07	28535.81
455.26	28643.48
455.44	29624.16
455.62	30019.71
455.81	30338.02
455.99	30120.35
456.17	30108.65
456.36	29844.17
456.54	30775.70
456.73	30775.70
456.91	31611.28
457.09	31152.53
457.28	31910.86
457.46	30316.96
457.64	30611.87
457.83	29687.36
458.01	28954.77
458.19	29731.83
458.38	29888.64
458.56	31028.48
458.74	30441.01
458.93	30380.15
459.11	30483.14
459.29	30141.42
459.48	29715.44
459.66	29937.79
459.84	30396.54
460.03	30405.90
460.21	30841.24
460.39	31372.54
460.57	31704.90
460.76	31620.64
460.94	31632.34
461.12	31267.22
461.31	31566.81
461.49	31454.46
461.67	31517.65
461.85	32760.48
462.04	32383.65
462.22	32723.03
462.40	32463.23
462.59	32030.23
462.77	32112.15
462.95	32320.46
463.13	31964.70
463.32	31807.88
463.50	31405.31
463.68	31538.72
463.86	31218.07
464.05	31094.02
464.23	30300.58
464.41	30263.13
464.59	29776.30
464.78	31065.93
464.96	31255.51
465.14	31143.17
465.32	31735.32
465.50	32596.64
465.69	33003.89
465.87	31835.97
466.05	31299.98
466.23	29544.58
466.41	28912.64
466.60	30054.82
466.78	29916.73
466.96	30782.73
467.14	31110.40
467.32	31407.65
467.51	31426.37
467.69	29844.17
467.87	30806.13
468.05	31424.03
468.23	31374.88
468.41	31185.30
468.60	31232.11
468.78	31693.19
468.96	31349.14
469.14	31964.70
469.32	32194.07
469.50	30768.68
469.69	30974.65
469.87	30415.26
470.05	30347.39
470.23	30433.99
470.41	30646.97
470.59	31033.16
470.77	31208.70
470.95	31929.59
471.14	32147.26
471.32	31964.70
471.50	34284.17
471.68	33692.01
471.86	34199.91
472.04	34455.03
472.22	34431.62
472.40	32594.30
472.58	32659.84
472.77	32254.92
472.95	32561.53
473.13	33715.42
473.31	32816.65
473.49	33039.00
473.67	33312.84
473.85	33682.65
474.03	34300.55
474.21	35002.71
474.39	35124.42
474.57	35475.50
474.75	35405.28
474.93	35012.07
475.12	34064.16
475.30	33975.22
475.48	34536.94
475.66	34899.73
475.84	34609.50
476.02	34368.43
476.20	33785.63
476.38	34043.09
476.56	35627.63
476.74	35779.77
476.92	36392.99
477.10	36505.34
477.28	37652.20
477.46	37937.74
477.64	37996.26
477.82	38057.11
478.00	38391.81
478.18	37663.90
478.36	37558.58
478.54	37523.47
478.72	38017.32
478.90	38761.61
479.08	39894.43
479.26	40500.63
479.44	39924.86
479.62	40053.59
479.80	39789.11
479.98	40236.15
480.16	40313.39
480.34	40119.12
480.52	40273.60
480.70	40727.66
480.88	40439.78
481.06	41230.88
481.24	41837.08
481.41	42904.36
481.59	42923.08
481.77	42857.55
481.95	42036.02
482.13	42440.93
482.31	42548.60
482.49	43189.91
482.67	42651.58
482.85	43351.40
483.03	43913.13
483.21	43941.22
483.39	43805.47
483.57	43007.34
483.74	42890.32
483.92	43353.74
484.10	43363.11
484.28	44687.85
484.46	45052.97
484.64	45336.18
484.82	44474.86
485.00	43665.03
485.18	42829.46
485.35	41633.45
485.53	38611.82
485.71	35218.04
485.89	34862.28
486.07	36884.50
486.25	40072.31
486.43	42389.44
486.61	42773.29
486.78	42337.95
486.96	43110.33
487.14	44973.39
487.32	45500.01
487.50	46581.34
487.68	47739.91
487.85	48247.80
488.03	48027.79
488.21	47634.58
488.39	47093.92
488.57	45911.95
488.75	46033.66
488.92	47316.27
489.10	49705.96
489.28	50635.15
489.46	51693.07
489.64	51229.65
489.81	51732.86
489.99	51159.43
490.17	51636.90
490.35	51576.04
490.53	51126.66
490.70	50726.43
490.88	50543.87
491.06	51828.82
491.24	51398.16
491.41	50630.47
491.59	48835.28
491.77	48114.39
491.95	49373.60
492.13	50548.55
492.30	52023.09
492.48	52683.12
492.66	53130.16
492.84	53167.61
493.01	52982.71
493.19	52512.26
493.37	51995.00
493.54	51786.69
493.72	52523.96
493.90	53509.33
494.08	54508.74
494.25	54747.47
494.43	54932.37
494.61	55154.72
494.79	55100.89
494.96	54995.57
495.14	54042.97
495.32	53549.12
495.49	53036.54
495.67	53916.58
495.85	55533.89
496.02	55758.58
496.20	55496.44
496.38	55201.53
496.55	54958.12
496.73	55503.46
496.91	55503.46
497.09	56116.68
497.26	56495.85
497.44	55594.74
497.62	55269.41
497.79	54431.50
497.97	53066.97
498.14	53404.00
498.32	54557.89
498.50	55224.94
498.67	56095.62
498.85	55807.73
499.03	56083.92
499.20	56357.76
499.38	56254.78
499.56	56095.62
499.73	55760.92
499.91	55058.76
500.08	54628.10
500.26	54049.99
500.44	54628.10
500.61	55290.48
500.79	55248.35
500.97	54820.03
501.14	54501.71
501.32	54342.56
501.49	54433.84
501.67	54464.27
501.84	55503.46
502.02	55601.77
502.20	55641.56
502.37	55744.54
502.55	55875.61
502.72	56633.94
502.90	57066.94
503.07	56617.56
503.25	56273.50
503.43	55391.12
503.60	54876.20
503.78	53942.33
503.95	54775.56
504.13	56030.08
504.30	56837.57
504.48	56512.23
504.65	56362.44
504.83	56327.33
505.01	57034.17
505.18	57336.10
505.36	57846.34
505.53	58019.54
505.71	58014.86
505.88	58003.16
506.06	57560.79
506.23	57123.11
506.41	56671.39
506.58	56973.32
506.76	56999.07
506.93	57216.74
507.11	56811.82
507.28	56886.72
507.46	56591.81
507.63	55910.72
507.81	55669.64
507.98	55978.59
508.16	56610.54
508.33	57057.58
508.50	57607.61
508.68	57733.99
508.85	58316.79
509.03	58492.33
509.20	58122.52
509.38	57403.98
509.55	56715.86
509.73	57043.54
509.90	57230.78
510.08	57539.73
510.25	57389.94
510.42	57230.78
510.60	57361.85
510.77	57579.52
510.95	58255.93
511.12	58365.94
511.30	58365.94
511.47	58649.14
511.64	58681.91
511.82	58543.82
511.99	57598.24
512.17	57083.33
512.34	56935.87
512.51	57116.09
512.69	57174.61
512.86	57502.28
513.04	57619.31
513.21	57588.88
513.38	57174.61
513.56	56809.48
513.73	56161.15
513.90	56435.00
514.08	56961.62
514.25	57076.30
514.43	56853.95
514.60	57183.97
514.77	57401.64
514.95	57411.00
515.12	57198.01
515.29	57378.23
515.47	57972.73
515.64	58333.17
515.81	57818.25
515.99	57291.63
516.16	55702.41
516.33	53329.11
516.51	51903.72
516.68	51100.92
516.85	50532.17
517.03	51180.49
517.20	54117.87
517.37	56537.98
517.54	57333.76
517.72	56839.91
517.89	54230.21
518.06	51599.45
518.24	52598.86
518.41	54775.56
518.58	55962.21
518.75	56133.07
518.93	56250.09
519.10	56032.42
519.27	56563.73
519.45	57041.20
519.62	57741.02
519.79	58087.42
519.96	57918.90
520.14	57415.68
520.31	56317.97
520.48	56378.82
520.65	57003.75
520.83	58127.20
521.00	58026.56
521.17	57808.89
521.34	57340.78
521.52	57909.53
521.69	58447.86
521.86	58726.38
522.03	58244.23
522.20	56973.32
522.38	56044.13
522.55	56285.20
522.72	56811.82
522.89	56975.66
523.07	57418.02
523.24	57649.74
523.41	58262.96
523.58	58721.70
523.75	59138.32
523.92	58901.92
524.10	58885.54
524.27	58852.77
524.44	58585.95
524.61	58387.00
524.78	58239.55
524.96	58382.32
525.13	58206.78
525.30	58539.14
525.47	58960.44
525.64	58773.19
525.81	57879.11
525.98	56676.07
526.16	55082.17
526.33	54876.20
526.50	54124.89
526.67	54026.59
526.84	54791.94
527.01	55613.47
527.18	56287.54
527.36	57659.10
527.53	58169.33
527.70	58328.49
527.87	58073.37
528.04	57462.49
528.21	58033.58
528.38	58480.63
528.55	59021.29
528.72	59437.90
528.89	59377.05
529.07	59086.82
529.24	58497.01
529.41	58026.56
529.58	57469.51
529.75	57556.11
529.92	58134.23
530.09	58412.75
530.26	58747.45
530.43	59032.99
530.60	59238.96
530.77	59393.43
530.94	59505.78
531.11	59007.25
531.28	58555.52
531.46	58550.84
531.63	58695.95
531.80	58536.80
531.97	58157.63
532.14	57226.10
532.31	56116.68
532.48	55751.56
532.65	55980.93
532.82	56753.31
532.99	57752.72
533.16	58204.44
533.33	58674.89
533.50	58450.20
533.67	57848.68
533.84	57436.75
534.01	57815.91
534.18	57836.98
534.35	57972.73
534.52	57757.40
534.69	58227.85
534.86	58522.76
535.03	58754.47
535.20	59128.95
535.37	59639.19
535.54	59269.39
535.71	59000.22
535.88	58817.66
536.05	58148.27
536.22	57771.44
536.38	57331.42
536.55	56893.74
536.72	56329.67
536.89	56563.73
537.06	57396.96
537.23	58401.05
537.40	58560.20
537.57	58382.32
537.74	58092.10
537.91	58056.99
538.08	57909.53
538.25	58272.32
538.42	58422.11
538.59	58218.49
538.75	57303.34
538.92	57378.23
539.09	57193.33
539.26	56875.02
539.43	56783.74
539.60	56807.14
539.77	57064.60
539.94	56816.50
540.11	56130.73
540.28	55824.12
540.44	55735.18
540.61	56025.40
540.78	56341.38
540.95	56650.33
541.12	57069.28
541.29	57434.41
541.46	57574.84
541.62	57642.71
541.79	57591.22
541.96	56807.14
542.13	56954.60
542.30	57190.99
542.47	57462.49
542.63	56940.55
542.80	56910.13
542.97	56982.68
543.14	56949.92
543.31	56968.64
543.48	57666.12
543.64	58246.57
543.81	58548.50
543.98	58213.80
544.15	57645.05
544.32	57038.86
544.48	57190.99
544.65	57806.55
544.82	58202.10
544.99	57677.82
545.16	57228.44
545.32	57223.76
545.49	57970.39
545.66	58312.11
545.83	57752.72
546.00	57282.27
546.16	57120.77
546.33	57357.17
546.50	57308.02
546.67	57703.57
546.83	57228.44
547.00	57305.68
547.17	56556.70
547.34	56086.26
547.50	56236.05
547.67	56397.55
547.84	56638.62
548.00	56931.19
548.17	57558.45
548.34	57333.76
548.51	57286.95
548.67	57296.31
548.84	57535.05
549.01	57244.82
549.18	57198.01
549.34	57097.37
549.51	57146.52
549.68	57151.20
549.84	56931.19
550.01	56938.21
550.18	56664.37
550.34	56788.42
550.51	56844.59
550.68	57045.88
550.84	56294.56
551.01	56495.85
551.18	56535.64
551.34	56769.69
551.51	57066.94
551.68	57425.04
551.84	57303.34
552.01	57282.27
552.18	56931.19
552.34	56280.52
552.51	55749.22
552.68	55742.20
552.84	56629.26
553.01	56336.69
553.18	56353.08
553.34	56477.13
553.51	56755.65
553.67	56992.04
553.84	57045.88
554.01	57088.01
554.17	56711.18
554.34	56954.60
554.51	57024.81
554.67	57258.87
554.84	57155.88
555.00	56816.50
555.17	56549.68
555.33	56435.00
555.50	56638.62
555.67	56542.66
555.83	56198.60
556.00	56055.83
556.16	55826.46
556.33	55515.17
556.50	55297.50
556.66	55597.09
556.83	55260.05
556.99	55395.80
557.16	55519.85
557.32	55891.99
557.49	56172.86
557.65	55767.94
557.82	55725.81
557.98	55887.31
558.15	55189.83
558.32	54419.80
558.48	53542.10
558.65	54024.25
558.81	54148.29
558.98	54618.74
559.14	55021.31
559.31	54908.97
559.47	54829.39
559.64	54637.47
559.80	54248.94
559.97	54492.35
560.13	54911.31
560.30	55798.37
560.46	56266.48
560.63	56514.58
560.79	56317.97
560.96	55922.42
561.12	54688.96
561.29	54101.48
561.45	53965.73
561.61	54941.74
561.78	55035.36
561.94	55131.32
562.11	54717.04
562.27	54588.31
562.44	54958.12
562.60	55313.88
562.77	55587.72
562.93	55384.10
563.10	55423.89
563.26	54820.03
563.42	54588.31
563.59	54831.73
563.75	54691.30
563.92	54843.43
564.08	54602.36
564.24	55192.17
564.41	54810.67
564.57	54667.89
564.74	54672.57
564.90	54557.89
565.07	53970.41
565.23	53991.48
565.39	53420.39
565.56	53179.31
565.72	52980.37
565.88	53612.31
566.05	53443.79
566.21	53769.13
566.38	53883.81
566.54	54239.57
566.70	54251.28
566.87	54862.16
567.03	54768.54
567.19	54677.25
567.36	54473.63
567.52	54319.15
567.68	54157.66
567.85	53216.76
568.01	53251.87
568.17	52549.71
568.34	52680.78
568.50	53153.57
568.66	52872.70
568.83	53226.12
568.99	53090.37
569.15	53631.04
569.32	53719.98
569.48	53097.39
569.64	52935.90
569.81	52713.55
569.97	52624.60
570.13	52484.17
570.30	51739.88
570.46	51590.09
570.62	50871.54
570.78	50768.56
570.95	51274.12
571.11	52264.16
571.27	52243.10
571.43	52500.56
571.60	53015.47
571.76	52989.73
571.92	53291.66
572.09	53492.94
572.25	53485.92
572.41	53411.02
572.57	53593.59
572.74	52963.98
572.90	52963.98
573.06	52762.70
573.22	52940.58
573.38	52928.87
573.55	52865.68
573.71	52945.26
573.87	52971.00
574.03	52753.33
574.20	52533.32
574.36	52147.14
574.52	52320.34
574.68	51704.77
574.84	51393.48
575.01	51037.72
575.17	51229.65
575.33	51267.09
575.49	51690.73
575.65	52156.50
575.82	51419.23
575.98	51229.65
576.14	51515.19
576.30	51870.95
576.46	52217.35
576.62	51913.08
576.79	52126.07
576.95	51608.81
577.11	51250.71
577.27	51540.94
577.43	51714.14
577.59	51168.79
577.75	50820.05
577.92	50064.06
578.08	49858.09
578.24	50075.76
578.40	50445.57
578.56	50321.52
578.72	50646.85
578.88	50796.65
579.04	50719.41
579.21	50939.42
579.37	50976.87
579.53	51276.46
579.69	51377.10
579.85	51498.81
580.01	51068.15
580.17	50773.24
580.33	50571.96
580.49	50609.40
580.65	51187.52
580.82	51679.03
580.98	51208.58
581.14	51129.00
581.30	51281.14
581.46	51143.05
581.62	51360.72
581.78	51208.58
581.94	51250.71
582.10	51934.15
582.26	51461.36
582.42	51426.25
582.58	51414.55
582.74	51356.03
582.90	51470.72
583.06	51255.39
583.22	51103.26
583.38	51171.13
583.54	51475.40
583.70	50635.15
583.86	51360.72
584.02	50824.73
584.18	50967.51
584.34	50632.81
584.50	50614.08
584.66	50586.00
584.82	50167.04
584.98	50206.83
585.14	49364.24
585.30	48942.94
