SpectraSuite Data File
++++++++++++++++++++++++++++++++++++
Date: Mon Oct 07 14:55:43 GMT-05:00 2013
User: price-jones
Dark Spectrum Present: No
Reference Spectrum Present: No
Number of Sampled Component Spectra: 1
Spectrometers: USB2+H05261
Integration Time (usec): 1000000 (USB2+H05261)
Spectra Averaged: 1 (USB2+H05261)
Boxcar Smoothing: 0 (USB2+H05261)
Correct for Electrical Dark: No (USB2+H05261)
Strobe/Lamp Enabled: No (USB2+H05261)
Correct for Detector Non-linearity: No (USB2+H05261)
Correct for Stray Light: No (USB2+H05261)
Number of Pixels in Processed Spectrum: 2048
>>>>>Begin Processed Spectral Data<<<<<
365.73	0.00
365.92	0.00
366.12	0.00
366.32	0.00
366.52	0.00
366.72	234.05
366.91	0.00
367.11	159.16
367.31	25.75
367.51	170.86
367.70	259.80
367.90	491.51
368.10	145.11
368.30	184.90
368.49	0.00
368.69	425.98
368.89	156.82
369.09	0.00
369.28	53.83
369.48	0.00
369.68	72.56
369.87	231.71
370.07	28.09
370.27	547.69
370.47	1820.94
370.66	6054.97
370.86	7110.55
371.06	8009.31
371.25	8042.08
371.45	7033.31
371.65	6565.20
371.84	5720.27
372.04	6118.16
372.24	6970.12
372.44	7101.19
372.63	7108.21
372.83	7131.61
373.03	5940.28
373.22	5423.02
373.42	5650.05
373.62	6389.66
373.81	7068.42
374.01	7222.89
374.21	6462.22
374.40	5891.13
374.60	6443.49
374.79	6960.75
374.99	7960.16
375.19	8486.78
375.38	8606.15
375.58	8032.72
375.78	7903.99
375.97	8182.51
376.17	9062.55
376.37	8311.24
376.56	8587.43
376.76	8762.97
376.95	9352.78
377.15	10118.14
377.35	10366.23
377.54	10942.00
377.74	10731.36
377.93	10967.75
378.13	10754.76
378.33	10682.20
378.52	9444.06
378.72	9245.12
378.91	9263.84
379.11	8547.64
379.31	8472.74
379.50	8184.85
379.70	9383.21
379.89	10256.23
380.09	10424.75
380.28	10586.24
380.48	10740.72
380.68	10406.02
380.87	10106.43
381.07	9441.72
381.26	9366.82
381.46	8638.92
381.65	8358.05
381.85	7808.03
382.04	7836.11
382.24	7208.85
382.43	6888.20
382.63	6590.95
382.83	6579.25
383.02	7077.78
383.22	7119.91
383.41	6736.06
383.61	7215.87
383.80	8538.27
384.00	9067.24
384.19	9935.57
384.39	10359.21
384.58	10579.22
384.78	10548.79
384.97	10401.34
385.17	9666.41
385.36	9139.79
385.56	9165.54
385.75	8931.48
385.95	9975.36
386.14	10867.11
386.34	10787.53
386.53	10305.38
386.72	9790.46
386.92	10038.56
387.11	10394.32
387.31	10920.94
387.50	10644.76
387.70	9870.04
387.89	10314.74
388.09	10064.30
388.28	10010.47
388.48	10277.29
388.67	11356.28
388.86	12411.86
389.06	13034.44
389.25	13774.05
389.45	14171.94
389.64	13577.45
389.84	13680.43
390.03	13631.28
390.22	13408.93
390.42	13781.07
390.61	14291.31
390.81	15150.29
391.00	15929.69
391.19	15779.89
391.39	14766.44
391.58	14499.62
391.78	13462.76
391.97	13139.77
392.16	11999.93
392.36	11571.61
392.55	9191.28
392.75	7382.05
392.94	6146.25
393.13	6225.82
393.33	6956.07
393.52	8887.01
393.71	11002.86
393.91	12086.53
394.10	12978.27
394.29	13965.98
394.49	15154.97
394.68	16374.39
394.88	16517.16
395.07	17078.89
395.26	16755.90
395.46	16098.20
395.65	15571.58
395.84	13472.12
396.04	12325.26
396.23	9591.52
396.42	8021.02
396.62	7896.97
396.81	8971.27
397.00	11300.11
397.19	14003.43
397.39	16210.55
397.58	18661.09
397.77	19353.89
397.97	20166.06
398.16	20189.46
398.35	21092.91
398.55	21579.74
398.74	22616.60
398.93	22682.13
399.12	22263.18
399.32	21493.14
399.51	22017.42
399.70	23903.89
399.90	23260.24
400.09	23220.45
400.28	23372.59
400.47	23239.18
400.67	24540.52
400.86	25118.63
401.05	25034.37
401.24	25523.54
401.44	25848.88
401.63	25181.82
401.82	25813.77
402.01	25200.55
402.21	25830.15
402.40	26005.69
402.59	24823.72
402.78	24149.65
402.97	23419.40
403.17	24484.34
403.36	25514.18
403.55	26628.27
403.74	27274.26
403.93	25968.24
404.13	24613.07
404.32	23695.58
404.51	25212.25
404.70	26991.06
404.89	26169.53
405.09	26611.89
405.28	24957.13
405.47	25053.09
405.66	25207.57
405.85	24643.50
406.05	24109.86
406.24	24250.29
406.43	25074.16
406.62	26029.10
406.81	26815.52
407.00	25633.55
407.20	24648.18
407.39	24954.79
407.58	25783.34
407.77	26871.69
407.96	28060.68
408.15	27960.04
408.34	28180.05
408.54	29310.53
408.73	29289.46
408.92	28872.85
409.11	28425.81
409.30	27147.87
409.49	25429.92
409.68	23831.33
409.87	23138.54
410.07	24105.18
410.26	26141.44
410.45	28086.43
410.64	28332.18
410.83	29177.12
411.02	29881.62
411.21	30885.71
411.40	30539.31
411.59	30850.60
411.78	30553.35
411.98	30057.16
412.17	30733.57
412.36	30132.06
412.55	30251.42
412.74	29493.09
412.93	29483.73
413.12	29106.90
413.31	31976.40
413.50	32343.86
413.69	32568.55
413.88	31440.42
414.07	30347.39
414.26	30799.11
414.45	31765.75
414.64	32023.21
414.83	32037.25
415.02	31641.70
415.22	31552.76
415.41	32287.69
415.60	32783.88
415.79	34291.19
415.98	35580.82
416.17	34969.94
416.36	34202.25
416.55	33710.74
416.74	32428.12
416.93	31786.82
417.12	31419.35
417.31	32074.70
417.50	32425.78
417.69	34012.66
417.88	33188.80
418.07	32755.80
418.26	32013.85
418.45	32673.88
418.64	34417.58
418.83	35234.42
419.02	34450.35
419.21	34373.11
419.39	32430.46
419.58	31070.61
419.77	31281.26
419.96	32947.72
420.15	35058.88
420.34	35737.64
420.53	36554.49
420.72	36858.76
420.91	36931.31
421.10	36388.31
421.29	35686.15
421.48	34983.99
421.67	36818.97
421.86	35211.02
422.05	33448.60
422.24	29996.31
422.43	29956.52
422.61	32503.02
422.80	35271.87
422.99	35091.65
423.18	33617.11
423.37	33411.15
423.56	33460.30
423.75	33912.02
423.94	34340.34
424.13	32704.31
424.32	32767.50
424.50	33130.28
424.69	32369.61
424.88	33263.69
425.07	32638.77
425.26	32898.57
425.45	32362.59
425.64	31484.89
425.83	32055.98
426.01	33926.07
426.20	34007.98
426.39	34000.96
426.58	31480.21
426.77	29457.98
426.96	28369.63
427.15	29401.81
427.33	31882.78
427.52	32723.03
427.71	32943.04
427.90	32610.68
428.09	31800.86
428.28	31543.40
428.46	30490.16
428.65	30504.20
428.84	30331.00
429.03	32112.15
429.22	29556.28
429.40	28084.09
429.59	25600.78
429.78	23449.83
429.97	23154.92
430.16	22920.87
430.34	23276.63
430.53	23098.75
430.72	23955.38
430.91	26382.52
431.10	30436.33
431.28	36011.48
431.47	38822.47
431.66	38452.66
431.85	35220.38
432.03	32524.08
432.22	31838.31
432.41	32697.28
432.60	36350.86
432.79	37038.98
432.97	37844.12
433.16	37102.17
433.35	33895.64
433.54	30780.39
433.72	29450.96
433.91	30092.27
434.10	33715.42
434.28	35821.90
434.47	37439.21
434.66	37106.85
434.85	35812.54
435.03	36301.71
435.22	39585.48
435.41	43255.44
435.59	42824.78
435.78	41881.55
435.97	40898.52
436.16	40486.59
436.34	40081.67
436.53	38721.82
436.72	39096.31
436.90	36919.61
437.09	37319.84
437.28	35962.33
437.46	37277.71
437.65	37408.78
437.84	34794.40
438.02	32325.14
438.21	31730.64
438.40	33532.86
438.58	36212.77
438.77	37144.30
438.96	37635.81
439.14	38864.60
439.33	40421.05
439.52	40760.43
439.70	39503.56
439.89	39157.16
440.08	37631.13
440.26	37584.32
440.45	39543.35
440.63	41031.93
440.82	42586.05
441.01	42611.79
441.19	42052.41
441.38	42462.00
441.57	43992.71
441.75	45031.91
441.94	44226.76
442.12	43863.98
442.31	45074.04
442.50	44533.37
442.68	44446.77
442.87	44055.90
443.05	43356.08
443.24	44282.94
443.43	44847.00
443.61	46274.73
443.80	45783.22
443.98	43615.88
444.17	43793.76
444.35	46162.39
444.54	46527.51
444.73	46176.43
444.91	44634.02
445.10	42820.10
445.28	41270.67
445.47	40556.80
445.65	41244.92
445.84	41591.32
446.02	42986.28
446.21	43906.11
446.39	43667.37
446.58	44130.80
446.77	44605.93
446.95	45324.47
447.14	46134.30
447.32	47356.06
447.51	45862.80
447.69	44694.87
447.88	43981.01
448.06	44624.65
448.25	45055.31
448.43	45530.44
448.62	44758.06
448.80	44205.70
448.99	44957.01
449.17	45067.02
449.36	44921.90
449.54	46667.94
449.73	46674.96
449.91	47491.81
450.10	48804.85
450.28	49478.92
450.46	48844.64
450.65	48907.83
450.83	48390.58
451.02	48027.79
451.20	47365.42
451.39	47569.05
451.57	47124.35
451.76	47035.41
451.94	46740.50
452.13	45614.70
452.31	44680.83
452.49	42436.25
452.68	42897.34
452.86	42997.98
453.05	43721.21
453.23	45006.16
453.42	44949.99
453.60	46602.41
453.78	47309.25
453.97	46415.16
454.15	46071.10
454.34	45228.51
454.52	45448.52
454.70	44992.12
454.89	45476.61
455.07	45921.31
455.26	45942.38
455.44	47334.99
455.62	47983.32
455.81	48446.75
455.99	48095.67
456.17	48055.88
456.36	47562.03
456.54	48673.78
456.73	48868.05
456.91	49371.26
457.09	49563.18
457.28	50103.85
457.46	48580.16
457.64	48287.59
457.83	47014.34
458.01	46122.60
458.19	47002.64
458.38	47023.70
458.56	48980.39
458.74	48034.81
458.93	47917.79
459.11	47639.26
459.29	47379.46
459.48	47503.51
459.66	47885.02
459.84	47976.30
460.03	49279.98
460.21	47934.17
460.39	49333.81
460.57	49298.70
460.76	49851.07
460.94	49879.16
461.12	48802.51
461.31	49233.17
461.49	48973.37
461.67	48821.23
461.85	50445.57
462.04	50092.15
462.22	54038.29
462.40	49705.96
462.59	49993.84
462.77	49822.98
462.95	49951.71
463.13	48664.42
463.32	49153.59
463.50	48655.06
463.68	48903.15
463.86	48975.71
464.05	48245.46
464.23	47660.33
464.41	47264.78
464.59	46780.29
464.78	48842.30
464.96	48229.08
465.14	48165.88
465.32	49095.08
465.50	49921.29
465.69	49958.73
465.87	49235.51
466.05	48896.13
466.23	46408.14
466.41	46115.58
466.60	47171.16
466.78	46745.18
466.96	47782.04
467.14	48076.94
467.32	48736.98
467.51	48722.93
467.69	46639.86
467.87	48210.35
468.05	48193.97
468.23	48531.01
468.41	48697.19
468.60	48662.08
468.78	48942.94
468.96	48734.63
469.14	49212.10
469.32	48849.32
469.50	47349.04
469.69	47732.89
469.87	47140.73
470.05	46752.20
470.23	46862.21
470.41	46710.07
470.59	47538.62
470.77	47854.59
470.95	48198.65
471.14	49191.04
471.32	49120.82
471.50	51421.57
471.68	50976.87
471.86	50618.77
472.04	50934.74
472.22	51089.21
472.40	49790.22
472.58	49598.29
472.77	48774.42
472.95	49680.21
473.13	51028.36
473.31	49771.49
473.49	49359.56
473.67	49947.03
473.85	50883.25
474.03	51922.44
474.21	51091.55
474.39	52243.10
474.57	51976.28
474.75	51980.96
474.93	51477.74
475.12	50539.19
475.30	50696.00
475.48	50983.89
475.66	51657.96
475.84	50890.27
476.02	50852.82
476.20	50267.69
476.38	51124.32
476.56	51641.58
476.74	51847.55
476.92	52865.68
477.10	53008.45
477.28	53757.42
477.46	53839.34
477.64	53411.02
477.82	53977.43
478.00	53968.07
478.18	53535.07
478.36	53977.43
478.54	53675.51
478.72	53984.46
478.90	54630.44
479.08	55285.79
479.26	55386.44
479.44	55346.65
479.62	54805.98
479.80	55437.93
479.98	55229.62
480.16	55613.47
480.34	55641.56
480.52	55805.39
480.70	56207.97
480.88	55709.43
481.06	56245.41
481.24	56430.32
481.41	56907.79
481.59	57556.11
481.77	57464.83
481.95	56849.27
482.13	57209.71
482.31	56514.58
482.49	57441.43
482.67	57123.11
482.85	57623.99
483.03	57897.83
483.21	58150.61
483.39	57844.00
483.57	57420.36
483.74	57003.75
483.92	57558.45
484.10	57041.20
484.28	58019.54
484.46	58562.54
484.64	58745.11
484.82	58234.87
485.00	57773.78
485.18	57132.48
485.35	56406.91
485.53	53914.24
485.71	51779.67
485.89	50777.92
486.07	53247.19
486.25	55421.55
486.43	57069.28
486.61	57027.15
486.78	56985.02
486.96	57078.64
487.14	58293.38
487.32	58958.09
487.50	59545.57
487.68	59746.86
487.85	59997.29
488.03	60301.56
488.21	60126.02
488.39	59611.10
488.57	59025.97
488.75	58948.73
488.92	60346.03
489.10	61099.68
489.28	62267.61
489.46	62323.78
489.64	62459.54
489.81	62326.13
489.99	62199.74
490.17	61881.42
490.35	62527.41
490.53	61916.53
490.70	61422.68
490.88	61588.86
491.06	62464.22
491.24	62527.41
491.41	61722.27
491.59	60577.75
491.77	59891.97
491.95	60919.46
492.13	61600.56
492.30	62724.02
492.48	63061.05
492.66	63346.60
492.84	63419.16
493.01	62969.77
493.19	62777.85
493.37	62618.69
493.54	62475.92
493.72	62948.71
493.90	63704.70
494.08	64142.38
494.25	64404.52
494.43	64137.70
494.61	64205.58
494.79	64566.02
494.96	64762.62
495.14	63739.81
495.32	63582.99
495.49	62719.34
495.67	64065.14
495.85	64781.35
496.02	65181.58
496.20	65176.90
496.38	64587.08
496.55	64757.94
496.73	64903.06
496.91	64748.58
497.09	65535.00
497.26	65188.60
497.44	64814.12
497.62	64362.39
497.79	64083.87
497.97	62794.23
498.14	63220.21
498.32	63889.60
498.50	64519.21
498.67	65506.91
498.85	65076.26
499.03	65083.28
499.20	65413.29
499.38	65535.00
499.56	65293.92
499.73	65179.24
499.91	64886.67
500.08	64257.07
500.26	63498.73
500.44	64097.91
500.61	64903.06
500.79	64186.85
500.97	63905.99
501.14	64074.51
501.32	63613.42
501.49	63905.99
501.67	64416.22
501.84	64559.00
502.02	64722.83
502.20	65233.07
502.37	65303.29
502.55	65216.69
502.72	65317.33
502.90	65535.00
503.07	65535.00
503.25	65410.95
503.43	64573.04
503.60	63964.50
503.78	63419.16
503.95	64107.27
504.13	65010.72
504.30	65535.00
504.48	65345.42
504.65	64898.37
504.83	64956.89
505.01	65509.25
505.18	64879.65
505.36	65535.00
505.53	65535.00
505.71	65535.00
505.88	65535.00
506.06	65535.00
506.23	65535.00
506.41	65535.00
506.58	65535.00
506.76	65535.00
506.93	65535.00
507.11	65535.00
507.28	65263.50
507.46	65228.39
507.63	64406.86
507.81	64526.23
507.98	65307.97
508.16	65434.36
508.33	65535.00
508.50	65535.00
508.68	65535.00
508.85	65535.00
509.03	65535.00
509.20	65535.00
509.38	65535.00
509.55	65413.29
509.73	65535.00
509.90	65535.00
510.08	65535.00
510.25	65535.00
510.42	65535.00
510.60	65535.00
510.77	65535.00
510.95	65535.00
511.12	65535.00
511.30	65535.00
511.47	65535.00
511.64	65535.00
511.82	65535.00
511.99	65535.00
512.17	65535.00
512.34	65535.00
512.51	65535.00
512.69	65497.55
512.86	65535.00
513.04	65535.00
513.21	65535.00
513.38	65535.00
513.56	65535.00
513.73	64811.77
513.90	65291.58
514.08	64720.49
514.25	64970.93
514.43	65535.00
514.60	65216.69
514.77	65417.97
514.95	65535.00
515.12	65535.00
515.29	65535.00
515.47	65535.00
515.64	65535.00
515.81	65535.00
515.99	65535.00
516.16	64771.99
516.33	62742.74
516.51	61542.05
516.68	61102.03
516.85	61001.38
517.03	61179.26
517.20	63571.29
517.37	64907.74
517.54	65535.00
517.72	65172.22
517.89	63725.77
518.06	61794.82
518.24	62330.81
518.41	63913.01
518.58	64910.08
518.75	64961.57
518.93	65118.38
519.10	64711.13
519.27	65188.60
519.45	65424.99
519.62	65535.00
519.79	65535.00
519.96	65535.00
520.14	65535.00
520.31	65092.64
520.48	65279.88
520.65	65518.62
520.83	65535.00
521.00	65535.00
521.17	65535.00
521.34	65535.00
521.52	65535.00
521.69	65535.00
521.86	65535.00
522.03	65535.00
522.20	65535.00
522.38	64851.56
522.55	65202.64
522.72	65200.30
522.89	65071.57
523.07	65535.00
523.24	65535.00
523.41	65535.00
523.58	65535.00
523.75	65535.00
523.92	65535.00
524.10	65535.00
524.27	65535.00
524.44	65535.00
524.61	65535.00
524.78	65535.00
524.96	65535.00
525.13	65535.00
525.30	65535.00
525.47	65535.00
525.64	65535.00
525.81	65535.00
525.98	65504.57
526.16	64189.19
526.33	63676.61
526.50	62709.97
526.67	62976.79
526.84	63573.63
527.01	63779.60
527.18	64900.71
527.36	65535.00
527.53	65535.00
527.70	65535.00
527.87	65535.00
528.04	65057.53
528.21	65535.00
528.38	65535.00
528.55	65535.00
528.72	65535.00
528.89	65535.00
529.07	65535.00
529.24	65535.00
529.41	65535.00
529.58	65535.00
529.75	65535.00
529.92	65535.00
530.09	65535.00
530.26	65535.00
530.43	65535.00
530.60	65535.00
530.77	65535.00
530.94	65535.00
531.11	65535.00
531.28	65535.00
531.46	65535.00
531.63	65535.00
531.80	65535.00
531.97	65535.00
532.14	65242.43
532.31	64940.50
532.48	64179.83
532.65	64631.55
532.82	64959.23
532.99	65535.00
533.16	65535.00
533.33	65535.00
533.50	65535.00
533.67	65535.00
533.84	65535.00
534.01	65097.32
534.18	65535.00
534.35	65535.00
534.52	65535.00
534.69	65535.00
534.86	65535.00
535.03	65535.00
535.20	65535.00
535.37	65535.00
535.54	65535.00
535.71	65535.00
535.88	65535.00
536.05	65535.00
536.22	65535.00
536.38	65535.00
536.55	65535.00
536.72	65153.49
536.89	65073.91
537.06	65535.00
537.23	65535.00
537.40	65535.00
537.57	65535.00
537.74	65535.00
537.91	65535.00
538.08	65535.00
538.25	65535.00
538.42	65535.00
538.59	65535.00
538.75	65535.00
538.92	65535.00
539.09	65535.00
539.26	65535.00
539.43	65535.00
539.60	65535.00
539.77	65535.00
539.94	65535.00
540.11	65535.00
540.28	65087.96
540.44	65045.83
540.61	65069.23
540.78	65535.00
540.95	65535.00
541.12	65535.00
541.29	65535.00
541.46	65535.00
541.62	65535.00
541.79	65535.00
541.96	65535.00
542.13	65535.00
542.30	65535.00
542.47	65535.00
542.63	65535.00
542.80	65535.00
542.97	65535.00
543.14	65535.00
543.31	65535.00
543.48	65535.00
543.64	65535.00
543.81	65535.00
543.98	65535.00
544.15	65535.00
544.32	65535.00
544.48	65535.00
544.65	65535.00
544.82	65535.00
544.99	65535.00
545.16	65535.00
545.32	65535.00
545.49	65535.00
545.66	65535.00
545.83	65535.00
546.00	65535.00
546.16	65535.00
546.33	65535.00
546.50	65535.00
546.67	65535.00
546.83	65535.00
547.00	65535.00
547.17	65535.00
547.34	65113.70
547.50	65006.04
547.67	65495.21
547.84	65535.00
548.00	65535.00
548.17	65535.00
548.34	65535.00
548.51	65535.00
548.67	65535.00
548.84	65535.00
549.01	65535.00
549.18	65535.00
549.34	65535.00
549.51	65535.00
549.68	65535.00
549.84	65476.49
550.01	65392.23
550.18	65535.00
550.34	65535.00
550.51	65151.15
550.68	65113.70
550.84	64711.13
551.01	65048.17
551.18	65034.13
551.34	65230.73
551.51	65378.18
551.68	65535.00
551.84	65535.00
552.01	65066.89
552.18	65460.10
552.34	64715.81
552.51	64694.75
552.68	64081.53
552.84	64982.63
553.01	65022.42
553.18	65006.04
553.34	64921.78
553.51	65099.66
553.67	65251.80
553.84	65535.00
554.01	65333.71
554.17	65364.14
554.34	65137.11
554.51	65275.20
554.67	65329.03
554.84	65130.09
555.00	65087.96
555.17	64767.30
555.33	64704.11
555.50	64554.32
555.67	64640.92
555.83	64654.96
556.00	64427.93
556.16	65050.51
556.33	63826.41
556.50	63772.58
556.66	64240.68
556.83	63756.19
556.99	63875.56
557.16	64032.38
557.32	64168.13
557.49	64423.25
557.65	64505.16
557.82	64465.38
557.98	64205.58
558.15	63856.84
558.32	63187.44
558.48	62574.22
558.65	62422.09
558.81	62920.62
558.98	63112.55
559.14	63159.36
559.31	63117.23
559.47	63627.46
559.64	63047.01
559.80	62660.82
559.97	62773.17
560.13	62932.32
560.30	63653.21
560.46	64224.30
560.63	64526.23
560.79	64360.05
560.96	63978.54
561.12	63000.20
561.29	62054.62
561.45	62159.95
561.61	62475.92
561.78	63660.23
561.94	63348.94
562.11	63030.63
562.27	63011.90
562.44	63440.22
562.60	63707.04
562.77	63683.64
562.93	63489.37
563.10	63400.43
563.26	62894.88
563.42	63009.56
563.59	62763.81
563.75	62660.82
563.92	63164.04
564.08	62955.73
564.24	63164.04
564.41	62972.11
564.57	62962.75
564.74	62759.12
564.90	62401.02
565.07	62616.35
565.23	62473.58
565.39	61900.15
565.56	61740.99
565.72	61542.05
565.88	62028.88
566.05	61979.73
566.21	62049.94
566.38	62300.38
566.54	62152.93
566.70	62637.42
566.87	62927.64
567.03	62801.25
567.19	62920.62
567.36	62569.54
567.52	62520.39
567.68	62251.23
567.85	61867.38
568.01	61600.56
568.17	61415.66
568.34	61190.97
568.50	61254.16
568.66	61427.36
568.83	62021.86
568.99	61670.78
569.15	61724.61
569.32	61609.92
569.48	61551.41
569.64	61396.93
569.81	61015.43
569.97	60856.27
570.13	60949.89
570.30	60666.69
570.46	60317.95
570.62	60149.43
570.78	59798.35
570.95	59884.95
571.11	60573.06
571.27	60893.72
571.43	60769.67
571.60	61453.11
571.76	60748.60
571.92	61623.96
572.09	61867.38
572.25	61710.56
572.41	61607.58
572.57	61291.61
572.74	61605.24
572.90	61097.34
573.06	61193.31
573.22	60867.97
573.38	61092.66
573.55	61160.54
573.71	61453.11
573.87	61366.51
574.03	60800.10
574.20	61179.26
574.36	60907.76
574.52	60760.31
574.68	60563.70
574.84	60467.74
575.01	60088.57
575.17	59629.83
575.33	60151.77
575.49	60151.77
575.65	60502.85
575.82	60488.80
575.98	60336.67
576.14	60083.89
576.30	60774.35
576.46	61141.81
576.62	61408.64
576.79	60917.12
576.95	60591.79
577.11	60090.91
577.27	60257.09
577.43	60559.02
577.59	59868.56
577.75	59791.33
577.92	58981.50
578.08	58735.74
578.24	59040.01
578.40	59650.89
578.56	59966.87
578.72	60278.16
578.88	60168.15
579.04	59807.71
579.21	60165.81
579.37	59948.14
579.53	60058.15
579.69	59924.74
579.85	60210.28
580.01	59929.42
580.17	59484.72
580.33	59543.23
580.49	59716.43
580.65	59723.45
580.82	60224.32
580.98	59849.84
581.14	59718.77
581.30	60027.72
581.46	59758.56
581.62	60168.15
581.78	59629.83
581.94	60322.63
582.10	59927.08
582.26	60252.41
582.42	60168.15
582.58	60282.84
582.74	59700.04
582.90	60252.41
583.06	60353.05
583.22	59716.43
583.38	59856.86
583.54	59962.18
583.70	60051.12
583.86	59990.27
584.02	59943.46
584.18	60226.66
584.34	59700.04
