SpectraSuite Data File
++++++++++++++++++++++++++++++++++++
Date: Mon Oct 07 14:53:04 GMT-05:00 2013
User: price-jones
Dark Spectrum Present: No
Reference Spectrum Present: No
Number of Sampled Component Spectra: 1
Spectrometers: USB2+H05261
Integration Time (usec): 100000 (USB2+H05261)
Spectra Averaged: 1 (USB2+H05261)
Boxcar Smoothing: 0 (USB2+H05261)
Correct for Electrical Dark: No (USB2+H05261)
Strobe/Lamp Enabled: No (USB2+H05261)
Correct for Detector Non-linearity: No (USB2+H05261)
Correct for Stray Light: No (USB2+H05261)
Number of Pixels in Processed Spectrum: 2048
>>>>>Begin Processed Spectral Data<<<<<
365.73	0.00
365.92	0.00
366.12	0.00
366.32	0.00
366.52	0.00
366.72	0.00
366.91	0.00
367.11	0.00
367.31	0.00
367.51	0.00
367.70	0.00
367.90	0.00
368.10	0.00
368.30	0.00
368.49	0.00
368.69	0.00
368.89	0.00
369.09	0.00
369.28	0.00
369.48	0.00
369.68	0.00
369.87	0.00
370.07	0.00
370.27	0.00
370.47	418.96
370.66	2420.11
370.86	2810.98
371.06	3110.57
371.25	3070.78
371.45	2815.66
371.65	2457.56
371.84	2377.98
372.04	2441.18
372.24	2972.48
372.44	3052.06
372.63	2949.08
372.83	2572.25
373.03	2319.47
373.22	2001.16
373.42	2354.58
373.62	2686.94
373.81	2897.58
374.01	2883.54
374.21	2487.99
374.40	2413.09
374.60	2544.16
374.79	2822.69
374.99	3372.71
375.19	3578.68
375.38	3597.40
375.58	3300.16
375.78	3290.79
375.97	3234.62
376.17	3496.76
376.37	3478.04
376.56	3632.51
376.76	3803.37
376.95	3985.93
377.15	4152.11
377.35	4662.35
377.54	4531.28
377.74	4699.80
377.93	4762.99
378.13	4770.01
378.33	4440.00
378.52	4100.62
378.72	3960.19
378.91	3896.99
379.11	3761.24
379.31	3545.91
379.50	3604.42
379.70	3894.65
379.89	4196.58
380.09	4505.53
380.28	4690.43
380.48	4540.64
380.68	4470.42
380.87	4435.32
381.07	4039.76
381.26	3789.33
381.46	3613.79
381.65	3595.06
381.85	3440.59
382.04	3218.24
382.24	3054.40
382.43	2850.77
382.63	2745.45
382.83	2691.62
383.02	2759.49
383.22	2658.85
383.41	2928.01
383.61	3002.91
383.80	3428.88
384.00	3899.33
384.19	4404.89
384.39	4681.07
384.58	4561.70
384.78	4479.79
384.97	4409.57
385.17	4126.36
385.36	4142.75
385.56	3794.01
385.75	3971.89
385.95	4421.27
386.14	4772.35
386.34	4873.00
386.53	4580.43
386.72	4203.60
386.92	4217.65
387.11	4461.06
387.31	4695.11
387.50	4709.16
387.70	4486.81
387.89	4414.25
388.09	4470.42
388.28	4606.17
388.48	4531.28
388.67	4938.53
388.86	5483.88
389.06	5937.94
389.25	6080.71
389.45	6188.38
389.64	6190.72
389.84	6111.14
390.03	6045.60
390.22	6076.03
390.42	6291.36
390.61	6527.75
390.81	6846.07
391.00	7164.38
391.19	7033.31
391.39	6974.80
391.58	6445.84
391.78	6148.59
391.97	5846.66
392.16	5455.79
392.36	4922.15
392.55	4009.34
392.75	3220.58
392.94	2595.65
393.13	2595.65
393.33	2977.16
393.52	4028.06
393.71	4805.12
393.91	5460.47
394.10	5764.74
394.29	6473.92
394.49	6918.62
394.68	7513.12
394.88	7480.35
395.07	7826.75
395.26	7660.57
395.46	7557.59
395.65	7136.29
395.84	6108.80
396.04	5142.16
396.23	4227.01
396.42	3569.32
396.62	3265.05
396.81	3927.42
397.00	5369.19
397.19	6258.59
397.39	7627.81
397.58	8667.00
397.77	9067.24
397.97	9200.65
398.16	9514.28
398.35	9591.52
398.55	9996.43
398.74	10324.10
398.93	10691.57
399.12	10441.13
399.32	10204.74
399.51	10164.95
399.70	10888.17
399.90	10644.76
400.09	10949.03
400.28	11190.10
400.47	10953.71
400.67	11573.95
400.86	11861.84
401.05	11829.07
401.24	11871.20
401.44	12205.89
401.63	11637.14
401.82	11918.01
402.01	11906.31
402.21	12006.95
402.40	12273.77
402.59	11800.98
402.78	11447.56
402.97	10979.45
403.17	11459.26
403.36	12053.76
403.55	12547.61
403.74	12861.24
403.93	12219.94
404.13	11225.21
404.32	10932.64
404.51	11641.82
404.70	12402.50
404.89	12376.75
405.09	12297.17
405.28	11665.23
405.47	11948.43
405.66	11915.67
405.85	11627.78
406.05	11206.48
406.24	11407.77
406.43	11599.70
406.62	12379.09
406.81	12397.82
407.00	11887.58
407.20	11698.00
407.39	11782.26
407.58	12355.69
407.77	13011.04
407.96	13219.35
408.15	13380.84
408.34	13631.28
408.54	14043.21
408.73	14207.05
408.92	13687.45
409.11	13748.31
409.30	12762.94
409.49	12205.89
409.68	11290.74
409.87	10925.62
410.07	11522.46
410.26	12325.26
410.45	13514.25
410.64	13823.20
410.83	14216.41
411.02	14443.45
411.21	14925.60
411.40	14743.03
411.59	14839.00
411.78	14647.07
411.98	14417.70
412.17	14993.47
412.36	14558.13
412.55	14712.61
412.74	14193.01
412.93	14104.07
413.12	14209.39
413.31	15321.15
413.50	15648.82
413.69	15712.02
413.88	15192.42
414.07	14642.39
414.26	15082.41
414.45	15173.69
414.64	15660.52
414.83	15852.45
415.02	15190.08
415.22	15138.58
415.41	15906.28
415.60	16121.61
415.79	16823.77
415.98	17015.69
416.17	17322.30
416.36	16739.51
416.55	16727.81
416.74	15793.94
416.93	15440.51
417.12	15520.09
417.31	15892.24
417.50	15679.25
417.69	16287.79
417.88	16369.71
418.07	16035.01
418.26	15894.58
418.45	16081.82
418.64	16563.97
418.83	17249.75
419.02	17032.08
419.21	17025.06
419.39	16416.52
419.58	15667.55
419.77	15424.13
419.96	15985.86
420.15	17132.72
420.34	17619.55
420.53	18305.33
420.72	18427.04
420.91	18417.68
421.10	17841.90
421.29	17902.76
421.48	17263.79
421.67	18354.48
421.86	17647.64
422.05	16212.89
422.24	14508.98
422.43	14675.16
422.61	16060.76
422.80	17570.40
422.99	17795.09
423.18	17088.25
423.37	16589.72
423.56	16716.11
423.75	17165.49
423.94	17315.28
424.13	16086.50
424.32	16542.91
424.50	16491.41
424.69	16673.98
424.88	16800.37
425.07	16573.33
425.26	16079.48
425.45	16119.27
425.64	15756.49
425.83	16002.24
426.01	16959.52
426.20	17242.73
426.39	17216.98
426.58	15735.42
426.77	14668.14
426.96	14054.92
427.15	14785.16
427.33	16016.29
427.52	16552.27
427.71	16776.96
427.90	16367.37
428.09	16240.98
428.28	15761.17
428.46	15428.81
428.65	15213.48
428.84	15646.48
429.03	15529.45
429.22	14677.50
429.40	14033.85
429.59	12704.43
429.78	11281.38
429.97	11080.10
430.16	11367.98
430.34	11712.04
430.53	11609.06
430.72	11857.15
430.91	13383.18
431.10	15330.51
431.28	18073.62
431.47	19672.20
431.66	19669.86
431.85	18001.06
432.03	16444.60
432.22	15917.98
432.41	16950.16
432.60	18167.24
432.79	18857.70
432.97	19386.66
433.16	18890.46
433.35	17011.01
433.54	15676.91
433.72	14721.97
433.91	15234.55
434.10	17003.99
434.28	18239.79
434.47	18824.93
434.66	19108.13
434.85	18373.21
435.03	18396.61
435.22	18794.50
435.41	20093.50
435.59	20065.41
435.78	20329.89
435.97	20692.68
436.16	20608.42
436.34	20269.04
436.53	19955.41
436.72	20250.32
436.90	19026.21
437.09	19229.84
437.28	18728.97
437.46	19215.80
437.65	19096.43
437.84	18080.64
438.02	16271.40
438.21	16533.54
438.40	17207.62
438.58	18663.43
438.77	19253.25
438.96	19222.82
439.14	20243.29
439.33	20982.90
439.52	21135.04
439.70	20748.85
439.89	20046.69
440.08	19517.73
440.26	19585.60
440.45	20379.04
440.63	21666.34
440.82	22644.68
441.01	22670.43
441.19	22490.21
441.38	22789.80
441.57	23346.84
441.75	23887.51
441.94	23817.29
442.12	23388.97
442.31	24350.93
442.50	23978.79
442.68	23454.51
442.87	23559.83
443.05	23267.27
443.24	23346.84
443.43	24194.12
443.61	24505.41
443.80	24847.13
443.98	23346.84
444.17	23494.30
444.35	24519.45
444.54	24793.29
444.73	24989.90
444.91	23726.01
445.10	22544.04
445.28	22111.04
445.47	21666.34
445.65	21916.78
445.84	22291.26
446.02	22794.48
446.21	23555.15
446.39	23587.92
446.58	23737.71
446.77	24032.62
446.95	24175.39
447.14	25160.76
447.32	25453.33
447.51	24786.27
447.69	23899.21
447.88	23737.71
448.06	24121.56
448.25	24627.12
448.43	25043.73
448.62	24175.39
448.80	24498.39
448.99	24360.30
449.17	24535.84
449.36	24559.24
449.54	25226.29
449.73	25755.26
449.91	26216.34
450.10	26742.96
450.28	26995.74
450.46	27337.46
450.65	26859.99
450.83	26834.24
451.02	26309.96
451.20	25921.43
451.39	25876.96
451.57	26111.02
451.76	25898.03
451.94	25741.21
452.13	25308.21
452.31	24170.71
452.49	23021.51
452.68	23288.33
452.86	23777.50
453.05	23857.08
453.23	24442.21
453.42	25146.72
453.60	25458.01
453.78	26005.69
453.97	25497.80
454.15	25568.01
454.34	25137.35
454.52	24882.24
454.70	24404.77
454.89	24662.22
455.07	25116.29
455.26	25371.41
455.44	26506.57
455.62	26972.33
455.81	27190.00
455.99	26480.82
456.17	26696.15
456.36	26579.12
456.54	27395.97
456.73	27037.87
456.91	27999.83
457.09	28133.24
457.28	28261.97
457.46	26878.71
457.64	26754.66
457.83	26455.08
458.01	25727.17
458.19	26338.05
458.38	26249.11
458.56	27419.38
458.74	27115.11
458.93	26923.18
459.11	26806.16
459.29	26520.61
459.48	26670.40
459.66	26609.55
459.84	26855.31
460.03	27033.19
460.21	27337.46
460.39	27878.12
460.57	28072.39
460.76	28334.53
460.94	28308.78
461.12	27793.86
461.31	28025.57
461.49	28093.45
461.67	27749.39
461.85	28730.08
462.04	28577.94
462.22	28884.55
462.40	28636.45
462.59	28699.65
462.77	28606.03
462.95	28795.61
463.13	28280.69
463.32	28217.50
463.50	27931.95
463.68	27754.07
463.86	28140.26
464.05	27510.66
464.23	27002.76
464.41	27407.67
464.59	26473.80
464.78	27587.89
464.96	27620.66
465.14	27433.42
465.32	28238.56
465.50	28692.63
465.69	29347.98
465.87	28189.41
466.05	27445.12
466.23	25958.88
466.41	25350.34
466.60	26775.73
466.78	27047.23
466.96	27014.46
467.14	27562.15
467.32	28140.26
467.51	28079.41
467.69	26485.50
467.87	27615.98
468.05	27957.70
468.23	27810.25
468.41	27723.65
468.60	27969.40
468.78	28245.58
468.96	27337.46
469.14	28058.34
469.32	28676.24
469.50	27239.15
469.69	27309.37
469.87	27199.37
470.05	26902.12
470.23	26803.82
470.41	27145.53
470.59	27405.33
470.77	27800.88
470.95	27931.95
471.14	28517.09
471.32	28849.44
471.50	29982.26
471.68	29858.21
471.86	30153.12
472.04	30464.41
472.22	30576.76
472.40	28725.39
472.58	28769.86
472.77	28327.50
472.95	29181.80
473.13	30050.14
473.31	28826.04
473.49	29338.62
473.67	29572.67
473.85	30061.84
474.03	30672.72
474.21	30590.80
474.39	31005.08
474.57	31021.46
474.75	31325.73
474.93	30866.98
475.12	30300.58
475.30	29947.15
475.48	30211.64
475.66	30747.62
475.84	30586.12
476.02	30230.36
476.20	29659.27
476.38	30368.45
476.56	31360.84
476.74	32093.43
476.92	32245.56
477.10	32540.47
477.28	33696.69
477.46	33303.48
477.64	33425.19
477.82	33666.27
478.00	33858.19
478.18	33457.96
478.36	33329.23
478.54	33298.80
478.72	33574.98
478.90	34256.08
479.08	35173.57
479.26	35402.94
479.44	35536.35
479.62	35566.78
479.80	35208.68
479.98	35395.92
480.16	35924.88
480.34	35637.00
480.52	35938.93
480.70	36224.47
480.88	36409.37
481.06	37020.25
481.24	37291.76
481.41	37832.42
481.59	38579.05
481.77	38085.20
481.95	37539.85
482.13	37354.95
482.31	37504.74
482.49	38249.03
482.67	37654.54
482.85	38408.19
483.03	38995.67
483.21	39140.78
483.39	39323.34
483.57	38623.52
483.74	38749.91
483.92	38333.29
484.10	38515.86
484.28	39690.80
484.46	39966.99
484.64	40531.06
484.82	39201.63
485.00	38789.70
485.18	37818.38
485.35	36872.80
485.53	34227.99
485.71	31157.21
485.89	31087.00
486.07	32875.16
486.25	35482.52
486.43	37923.70
486.61	38157.75
486.78	38206.90
486.96	38504.15
487.14	39845.28
487.32	40720.64
487.50	41736.43
487.68	43110.33
487.85	43318.64
488.03	42822.44
488.21	42546.26
488.39	42108.58
488.57	41228.54
488.75	41144.28
488.92	42763.93
489.10	44512.31
489.28	46543.89
489.46	47068.17
489.64	46904.34
489.81	47016.68
489.99	46768.58
490.17	47159.45
490.35	46941.78
490.53	46904.34
490.70	46237.28
490.88	45958.76
491.06	47119.66
491.24	47103.28
491.41	46019.61
491.59	43686.10
491.77	43391.19
491.95	44870.41
492.13	45713.00
492.30	47288.18
492.48	48650.38
492.66	49205.08
492.84	48825.92
493.01	48631.65
493.19	47955.24
493.37	47938.85
493.54	47196.90
493.72	48285.25
493.90	49226.15
494.08	50323.86
494.25	50560.25
494.43	50955.80
494.61	51494.13
494.79	51402.85
494.96	51028.36
495.14	50356.63
495.32	49244.87
495.49	48919.54
495.67	50216.19
495.85	51562.00
496.02	52060.54
496.20	51529.23
496.38	51136.02
496.55	50644.51
496.73	51969.26
496.91	51803.08
497.09	52500.56
497.26	52495.88
497.44	52306.29
497.62	51435.61
497.79	50373.01
497.97	48884.43
498.14	49401.69
498.32	50887.93
498.50	52081.60
498.67	52353.10
498.85	52004.36
499.03	52378.85
499.20	52678.44
499.38	52575.45
499.56	52596.52
499.73	51725.84
499.91	51470.72
500.08	51037.72
500.26	50096.83
500.44	51054.11
500.61	51784.35
500.79	51358.38
500.97	50665.58
501.14	50419.82
501.32	50197.47
501.49	50433.86
501.67	50850.48
501.84	51501.15
502.02	51531.57
502.20	52224.37
502.37	52514.60
502.55	52516.94
502.72	53153.57
502.90	53420.39
503.07	53111.44
503.25	52945.26
503.43	51503.49
503.60	50791.97
503.78	50106.19
503.95	50866.86
504.13	52456.09
504.30	53085.69
504.48	52875.04
504.65	53041.22
504.83	52442.04
505.01	53375.92
505.18	53844.02
505.36	54335.54
505.53	54529.80
505.71	54782.58
505.88	54834.07
506.06	54000.84
506.23	53506.99
506.41	53317.40
506.58	53736.36
506.76	53385.28
506.93	53420.39
507.11	53457.84
507.28	53598.27
507.46	53059.94
507.63	52182.24
507.81	52030.11
507.98	52378.85
508.16	53169.95
508.33	53909.56
508.50	54349.58
508.68	54354.26
508.85	55140.68
509.03	54880.88
509.20	54653.85
509.38	53869.77
509.55	52879.72
509.73	53504.65
509.90	53684.87
510.08	54028.93
510.25	54092.12
510.42	53635.72
510.60	53551.46
510.77	54007.86
510.95	54532.14
511.12	54742.79
511.30	54955.78
511.47	55363.03
511.64	55356.01
511.82	55007.27
511.99	54017.22
512.17	53621.67
512.34	53385.28
512.51	53279.96
512.69	53722.32
512.86	53670.82
513.04	54026.59
513.21	54047.65
513.38	53661.46
513.56	53249.53
513.73	52676.10
513.90	52919.51
514.08	52893.77
514.25	53176.97
514.43	53359.53
514.60	53783.17
514.77	53921.26
514.95	53876.79
515.12	53691.89
515.29	53942.33
515.47	54677.25
515.64	54651.51
515.81	54391.71
515.99	53813.60
516.16	51943.51
516.33	48994.43
516.51	47608.84
516.68	46199.83
516.85	45485.97
517.03	46646.88
517.20	49909.58
517.37	52868.02
517.54	53998.50
517.72	53109.10
517.89	50099.17
518.06	47304.57
518.24	48177.59
518.41	50450.25
518.58	52542.69
518.75	52432.68
518.93	52657.37
519.10	52479.49
519.27	53153.57
519.45	53483.58
519.62	54291.07
519.79	54672.57
519.96	54054.67
520.14	53703.59
520.31	52809.51
520.48	52472.47
520.65	53347.83
520.83	54480.65
521.00	54731.09
521.17	54321.49
521.34	54026.59
521.52	54513.42
521.69	54834.07
521.86	55208.56
522.03	55037.70
522.20	53689.55
522.38	52566.09
522.55	52556.73
522.72	53406.34
522.89	53268.25
523.07	53609.97
523.24	54122.55
523.41	55295.16
523.58	55309.20
523.75	55812.41
523.92	55627.51
524.10	55674.32
524.27	55402.82
524.44	55299.84
524.61	54941.74
524.78	54944.08
524.96	54557.89
525.13	54885.56
525.30	55304.52
525.47	55702.41
525.64	55494.10
525.81	54614.06
525.98	53085.69
526.16	51290.50
526.33	50045.33
526.50	50113.21
526.67	49851.07
526.84	50600.04
527.01	51863.93
527.18	52652.69
527.36	53722.32
527.53	54646.83
527.70	54967.48
527.87	54424.48
528.04	53865.09
528.21	54541.50
528.38	55304.52
528.55	55711.77
528.72	56013.70
528.89	56435.00
529.07	55952.85
529.24	55255.37
529.41	54578.95
529.58	54028.93
529.75	54092.12
529.92	54681.94
530.09	55033.02
530.26	55533.89
530.43	55938.80
530.60	55763.26
530.77	56034.77
530.94	56011.36
531.11	55353.67
531.28	55386.44
531.46	55414.52
531.63	55138.34
531.80	55159.41
531.97	54234.89
532.14	53656.78
532.31	52596.52
532.48	52006.70
532.65	51732.86
532.82	53102.07
532.99	54377.67
533.16	54784.92
533.33	55002.59
533.50	55023.65
533.67	54447.88
533.84	53797.21
534.01	54262.98
534.18	54087.44
534.35	54628.10
534.52	54384.69
534.69	54761.51
534.86	54869.18
535.03	55093.87
535.20	55770.28
535.37	56083.92
535.54	56144.77
535.71	55679.00
535.88	55367.71
536.05	54581.29
536.22	54057.01
536.38	54024.25
536.55	53291.66
536.72	53078.67
536.89	52669.08
537.06	53958.71
537.23	54915.99
537.40	54918.33
537.57	54841.09
537.74	54672.57
537.91	54672.57
538.08	54667.89
538.25	54810.67
538.42	54862.16
538.59	54726.41
538.75	53951.69
538.92	53888.49
539.09	53661.46
539.26	53406.34
539.43	53198.04
539.60	53602.95
539.77	53874.45
539.94	53277.61
540.11	52446.72
540.28	52058.20
540.44	52006.70
540.61	52177.56
540.78	52842.27
540.95	53258.89
541.12	53345.49
541.29	53879.13
541.46	54223.19
541.62	54054.67
541.79	54225.53
541.96	53338.47
542.13	53357.19
542.30	53780.83
542.47	53757.42
542.63	53525.71
542.80	53312.72
542.97	53792.53
543.14	53212.08
543.31	53352.51
543.48	54010.20
543.64	54724.07
543.81	55147.70
543.98	54569.59
544.15	54012.54
544.32	53476.56
544.48	54024.25
544.65	54403.41
544.82	54546.18
544.99	54033.61
545.16	53577.20
545.32	53347.83
545.49	54471.29
545.66	54798.96
545.83	54274.68
546.00	53516.35
546.16	53373.58
546.33	53656.78
546.50	53631.04
546.67	54178.72
546.83	53670.82
547.00	53876.79
547.17	52931.22
547.34	52184.58
547.50	52198.63
547.67	52683.12
547.84	52968.66
548.00	53577.20
548.17	54129.57
548.34	53614.65
548.51	53881.47
548.67	53757.42
548.84	53982.12
549.01	53586.57
549.18	53584.22
549.34	53556.14
549.51	53471.88
549.68	53497.62
549.84	53317.40
550.01	53286.98
550.18	53202.72
550.34	52872.70
550.51	53242.51
550.68	53357.19
550.84	52631.63
551.01	52924.19
551.18	52861.00
551.34	52837.59
551.51	53176.97
551.68	53560.82
551.84	53759.76
552.01	53333.79
552.18	53427.41
552.34	52563.75
552.51	52334.38
552.68	51934.15
552.84	52528.64
553.01	52835.25
553.18	52971.00
553.34	52435.02
553.51	53017.82
553.67	53240.17
553.84	53642.74
554.01	53146.54
554.17	53186.33
554.34	53048.24
554.51	53418.05
554.67	53773.81
554.84	53635.72
555.00	53169.95
555.17	52839.93
555.33	52907.81
555.50	52942.92
555.67	52853.98
555.83	52374.17
556.00	52119.05
556.16	52411.62
556.33	51686.05
556.50	51700.09
556.66	51819.46
556.83	50941.76
556.99	51552.64
557.16	51721.16
557.32	51908.40
557.49	52238.42
557.65	51948.19
557.82	52217.35
557.98	52069.90
558.15	51253.05
558.32	50609.40
558.48	49577.23
558.65	49701.28
558.81	50380.03
558.98	50838.78
559.14	50834.10
559.31	51143.05
559.47	50930.06
559.64	50422.16
559.80	50054.70
559.97	50375.35
560.13	50806.01
560.30	51758.61
560.46	52655.03
560.63	52748.65
560.79	52708.86
560.96	52397.57
561.12	50857.50
561.29	50040.65
561.45	50026.61
561.61	50916.01
561.78	51220.28
561.94	50794.31
562.11	50497.06
562.27	51140.71
562.44	50986.23
562.60	51435.61
562.77	51763.29
562.93	51765.63
563.10	51320.93
563.26	50892.61
563.42	50749.84
563.59	50747.50
563.75	50529.83
563.92	50939.42
564.08	50625.79
564.24	50883.25
564.41	51075.17
564.57	50939.42
564.74	50567.27
564.90	50501.74
565.07	50129.59
565.23	49464.88
565.39	49088.06
565.56	48935.92
565.72	48795.49
565.88	49284.66
566.05	49385.30
566.21	49413.39
566.38	49876.82
566.54	50014.91
566.70	50195.13
566.87	50756.86
567.03	50672.60
567.19	50806.01
567.36	50375.35
567.52	50160.02
567.68	50239.60
567.85	49186.36
568.01	48449.09
568.17	47917.79
568.34	48196.31
568.50	48275.89
568.66	48383.55
568.83	48846.98
568.99	49036.56
569.15	49354.88
569.32	49387.64
569.48	48900.81
569.64	48664.42
569.81	48226.74
569.97	48172.91
570.13	47791.40
570.30	47023.70
570.46	46897.31
570.62	46314.52
570.78	46330.90
570.95	46756.88
571.11	47459.04
571.27	47594.79
571.43	47861.61
571.60	48500.58
571.76	48781.45
571.92	49162.95
572.09	48978.05
572.25	49102.10
572.41	49158.27
572.57	48708.89
572.74	48816.55
572.90	48547.39
573.06	48430.36
573.22	48741.66
573.38	48418.66
573.55	48240.78
573.71	48706.55
573.87	48495.90
574.03	48360.15
574.20	48341.42
574.36	47290.52
574.52	47824.17
574.68	47276.48
574.84	46838.80
575.01	46174.09
575.17	46511.13
575.33	46873.91
575.49	46965.19
575.65	47213.29
575.82	46883.27
575.98	46588.36
576.14	46974.55
576.30	46906.68
576.46	47342.02
576.62	47358.40
576.79	47227.33
576.95	46993.28
577.11	46871.57
577.27	46955.83
577.43	46873.91
577.59	46525.17
577.75	45654.49
577.92	45191.06
578.08	44879.77
578.24	45233.19
578.40	45525.76
578.56	45904.93
578.72	45687.26
578.88	46206.86
579.04	46391.76
579.21	46384.74
579.37	46639.86
579.53	46227.92
579.69	46546.23
579.85	46703.05
580.01	46499.42
580.17	46073.45
580.33	45900.25
580.49	46153.02
580.65	46635.17
580.82	46700.71
580.98	46326.22
581.14	46469.00
581.30	46735.82
581.46	46382.40
581.62	46775.61
581.78	46211.54
581.94	46752.20
582.10	46890.29
582.26	47040.09
582.42	46700.71
582.58	46504.10
582.74	47070.51
582.90	46562.62
583.06	46576.66
583.22	46351.97
583.38	46410.48
583.54	45736.41
583.70	46103.87
583.86	46571.98
584.02	46536.87
584.18	46508.79
584.34	45935.35
584.50	45764.49
584.66	46377.72
584.82	45359.58
584.98	45310.43
585.14	44526.35
585.30	43578.43
