SpectraSuite Data File
++++++++++++++++++++++++++++++++++++
Date: Mon Oct 07 14:53:19 GMT-05:00 2013
User: price-jones
Dark Spectrum Present: No
Reference Spectrum Present: No
Number of Sampled Component Spectra: 1
Spectrometers: USB2+H05261
Integration Time (usec): 100000 (USB2+H05261)
Spectra Averaged: 1 (USB2+H05261)
Boxcar Smoothing: 0 (USB2+H05261)
Correct for Electrical Dark: No (USB2+H05261)
Strobe/Lamp Enabled: No (USB2+H05261)
Correct for Detector Non-linearity: No (USB2+H05261)
Correct for Stray Light: No (USB2+H05261)
Number of Pixels in Processed Spectrum: 2048
>>>>>Begin Processed Spectral Data<<<<<
365.73	0.00
365.92	0.00
366.12	0.00
366.32	0.00
366.52	0.00
366.72	0.00
366.91	0.00
367.11	0.00
367.31	0.00
367.51	0.00
367.70	0.00
367.90	0.00
368.10	0.00
368.30	0.00
368.49	0.00
368.69	0.00
368.89	0.00
369.09	0.00
369.28	0.00
369.48	0.00
369.68	0.00
369.87	0.00
370.07	0.00
370.27	0.00
370.47	802.80
370.66	3719.11
370.86	4456.38
371.06	4844.91
371.25	4737.24
371.45	4484.47
371.65	3803.37
371.84	3768.26
372.04	3824.44
372.24	4407.23
372.44	4421.27
372.63	4418.93
372.83	4121.68
373.03	3604.42
373.22	3410.16
373.42	3660.60
373.62	4109.98
373.81	4315.95
374.01	4360.42
374.21	3999.98
374.40	3723.79
374.60	3899.33
374.79	4393.19
374.99	5048.54
375.19	5488.56
375.38	5481.53
375.58	5055.56
375.78	5020.45
375.97	5034.49
376.17	5210.03
376.37	5240.46
376.56	5460.47
376.76	5687.50
376.95	6071.35
377.15	6546.48
377.35	6686.91
377.54	6993.52
377.74	7068.42
377.93	7332.90
378.13	7054.37
378.33	6710.32
378.52	6026.88
378.72	5940.28
378.91	5830.27
379.11	5666.44
379.31	5521.32
379.50	5317.70
379.70	5788.14
379.89	6403.71
380.09	6902.24
380.28	7089.48
380.48	7112.89
380.68	7009.90
380.87	6768.83
381.07	6396.68
381.26	5743.67
381.46	5371.53
381.65	5135.14
381.85	5238.12
382.04	4882.36
382.24	4416.59
382.43	4341.69
382.63	4175.52
382.83	4341.69
383.02	4440.00
383.22	4147.43
383.41	4248.07
383.61	4542.98
383.80	5195.99
384.00	5928.58
384.19	6497.33
384.39	7045.01
384.58	6918.62
384.78	6792.23
384.97	6644.78
385.17	6438.81
385.36	6038.58
385.56	5781.12
385.75	6012.84
385.95	6590.95
386.14	7002.88
386.34	7339.92
386.53	7033.31
386.72	6424.77
386.92	6443.49
387.11	6932.67
387.31	7288.43
387.50	7190.13
387.70	6932.67
387.89	6815.64
388.09	6707.98
388.28	6661.16
388.48	6834.36
388.67	7183.10
388.86	8203.58
389.06	8711.47
389.25	9219.37
389.45	9434.70
389.64	9128.09
389.84	9221.71
390.03	8982.98
390.22	9062.55
390.42	9191.28
390.61	9912.17
390.81	10480.92
391.00	10895.19
391.19	10558.16
391.39	10544.11
391.58	9687.48
391.78	9104.68
391.97	8781.69
392.16	8173.15
392.36	7494.40
392.55	5944.96
392.75	4887.04
392.94	3901.67
393.13	3997.64
393.33	4589.79
393.52	6040.92
393.71	7279.07
393.91	8273.79
394.10	8751.26
394.29	9694.50
394.49	10464.54
394.68	11236.91
394.88	11145.63
395.07	11812.68
395.26	11620.76
395.46	11164.36
395.65	10628.37
395.84	9254.48
396.04	7889.95
396.23	6476.26
396.42	5423.02
396.62	5172.58
396.81	6113.48
397.00	7735.47
397.19	9593.86
397.39	11358.62
397.58	13092.96
397.77	13511.91
397.97	13963.64
398.16	14300.67
398.35	14651.75
398.55	15112.84
398.74	15758.83
398.93	16142.67
399.12	15868.83
399.32	15070.71
399.51	15585.63
399.70	16421.20
399.90	16397.79
400.09	16507.80
400.28	16308.85
400.47	16580.36
400.67	17308.26
400.86	17846.58
401.05	17635.94
401.24	17666.36
401.44	18281.92
401.63	18221.07
401.82	18307.67
402.01	18012.76
402.21	18267.88
402.40	18679.82
402.59	17741.26
402.78	17563.38
402.97	16821.43
403.17	17181.87
403.36	18593.22
403.55	19005.15
403.74	19676.88
403.93	18321.71
404.13	17198.26
404.32	16826.11
404.51	17380.82
404.70	18960.68
404.89	18710.24
405.09	18565.13
405.28	18310.01
405.47	17912.12
405.66	17940.21
405.85	17359.75
406.05	17036.76
406.24	17109.32
406.43	17893.40
406.62	18780.46
406.81	18932.59
407.00	18026.81
407.20	17701.47
407.39	18054.89
407.58	18728.97
407.77	19573.90
407.96	19826.68
408.15	20163.72
408.34	20233.93
408.54	21305.90
408.73	21647.61
408.92	21200.57
409.11	20119.24
409.30	19440.49
409.49	18265.54
409.68	17256.77
409.87	16711.42
410.07	17771.69
410.26	19166.65
410.45	20262.02
410.64	20601.40
410.83	21329.30
411.02	21757.62
411.21	22850.65
411.40	22221.05
411.59	22555.74
411.78	22459.78
411.98	22181.26
412.17	22515.95
412.36	22061.89
412.55	21944.86
412.74	21717.83
412.93	21151.42
413.12	21553.99
413.31	23456.85
413.50	23651.11
413.69	23873.46
413.88	22991.08
414.07	22373.18
414.26	23016.83
414.45	23847.72
414.64	23513.02
414.83	24004.53
415.02	23527.06
415.22	23314.08
415.41	23962.40
415.60	24535.84
415.79	25493.12
415.98	26546.36
416.17	26005.69
416.36	25649.93
416.55	25345.66
416.74	24130.92
416.93	23503.66
417.12	23381.95
417.31	23620.69
417.50	24049.00
417.69	25036.71
417.88	24933.73
418.07	24692.65
418.26	24383.70
418.45	24631.80
418.64	25558.65
418.83	26183.57
419.02	26001.01
419.21	25617.16
419.39	24568.60
419.58	23419.40
419.77	23662.82
419.96	24526.47
420.15	26094.63
420.34	26499.55
420.53	27763.43
420.72	28311.12
420.91	28409.42
421.10	27690.88
421.29	27227.45
421.48	26115.70
421.67	27735.35
421.86	26885.73
422.05	24989.90
422.24	22405.95
422.43	22328.71
422.61	24479.66
422.80	26611.89
422.99	26508.91
423.18	25820.79
423.37	25048.41
423.56	25376.09
423.75	25846.54
423.94	26403.58
424.13	24769.89
424.32	25270.76
424.50	25167.78
424.69	24814.36
424.88	24950.11
425.07	25369.07
425.26	24828.40
425.45	24482.00
425.64	24315.83
425.83	24301.78
426.01	25331.62
426.20	26391.88
426.39	26171.87
426.58	24109.86
426.77	22356.80
426.96	21561.02
427.15	22972.36
427.33	24198.80
427.52	25130.33
427.71	25165.44
427.90	24865.85
428.09	24606.05
428.28	24318.17
428.46	23454.51
428.65	22827.24
428.84	23740.05
429.03	24360.30
429.22	22632.98
429.40	21507.18
429.59	19241.54
429.78	17057.82
429.97	17881.69
430.16	17762.33
430.34	17242.73
430.53	17736.58
430.72	18258.52
430.91	20013.92
431.10	23751.76
431.28	27576.19
431.47	29481.39
431.66	30010.35
431.85	27552.79
432.03	25153.74
432.22	24154.33
432.41	25252.04
432.60	27765.78
432.79	29212.23
432.97	29745.87
433.16	29352.66
433.35	26485.50
433.54	23814.95
433.72	22588.51
433.91	23138.54
434.10	25956.54
434.28	27992.81
434.47	29390.11
434.66	28804.97
434.85	27718.96
435.03	27754.07
435.22	28538.15
435.41	30471.43
435.59	30382.49
435.78	30600.16
435.97	31662.77
436.16	31662.77
436.34	31271.90
436.53	30274.83
436.72	30665.70
436.90	28505.38
437.09	29130.31
437.28	28222.18
437.46	29191.16
437.65	29296.49
437.84	27063.61
438.02	25294.17
438.21	25078.84
438.40	26438.69
438.58	29104.56
438.77	29275.42
438.96	29404.15
439.14	30600.16
439.33	31482.55
439.52	32018.53
439.70	31608.93
439.89	30658.68
440.08	29916.73
440.26	29427.56
440.45	30607.19
440.63	32851.76
440.82	34691.42
441.01	34218.63
441.19	33912.02
441.38	34464.39
441.57	35653.38
441.75	35983.40
441.94	36074.68
442.12	36189.36
442.31	36292.35
442.50	36418.74
442.68	36077.02
442.87	35667.42
443.05	35239.11
443.24	35910.84
443.43	35992.76
443.61	36694.92
443.80	37640.50
443.98	35328.05
444.17	35543.38
444.35	37226.22
444.54	37738.80
444.73	37214.52
444.91	36353.20
445.10	34590.78
445.28	33249.65
445.47	32730.05
445.65	33263.69
445.84	33659.24
446.02	34927.81
446.21	35812.54
446.39	35576.14
446.58	36135.53
446.77	37006.21
446.95	36802.58
447.14	37996.26
447.32	38553.30
447.51	37642.84
447.69	36521.72
447.88	35882.75
448.06	36472.57
448.25	37364.31
448.43	37310.48
448.62	37024.93
448.80	36615.34
448.99	36980.46
449.17	37502.40
449.36	37469.64
449.54	38644.59
449.73	38909.07
449.91	39306.96
450.10	40964.06
450.28	41207.47
450.46	40809.58
450.65	41163.00
450.83	40945.33
451.02	39613.57
451.20	39929.54
451.39	39639.31
451.57	39501.22
451.76	39648.68
451.94	38675.01
452.13	38359.04
452.31	36648.11
452.49	35051.86
452.68	35920.20
452.86	35543.38
453.05	36301.71
453.23	37099.83
453.42	38445.64
453.60	39047.16
453.78	39131.42
453.97	38962.90
454.15	38810.76
454.34	37933.06
454.52	38143.71
454.70	37333.89
454.89	37610.07
455.07	38494.79
455.26	38426.92
455.44	39957.63
455.62	40687.87
455.81	41027.25
455.99	40755.75
456.17	40428.07
456.36	40481.91
456.54	41404.08
456.73	41263.64
456.91	42169.43
457.09	42256.03
457.28	42822.44
457.46	41436.84
457.64	41263.64
457.83	39775.06
458.01	38972.26
458.19	40112.10
458.38	40238.49
458.56	41502.38
458.74	41198.11
458.93	40999.16
459.11	40498.29
459.29	40224.45
459.48	40404.67
459.66	40245.51
459.84	40540.42
460.03	40978.10
460.21	40879.80
460.39	42218.58
460.57	41984.53
460.76	42618.81
460.94	43009.68
461.12	42340.29
461.31	42258.37
461.49	42295.82
461.67	42021.98
461.85	43388.85
462.04	42960.53
462.22	43503.54
462.40	43311.61
462.59	42960.53
462.77	43344.38
462.95	43615.88
463.13	43021.39
463.32	42422.21
463.50	42656.26
463.68	42380.08
463.86	42387.10
464.05	41490.68
464.23	41148.96
464.41	40453.82
464.59	40238.49
464.78	41914.31
464.96	41965.81
465.14	41574.94
465.32	42232.63
465.50	43430.98
465.69	43676.74
465.87	43028.41
466.05	41722.39
466.23	40289.98
466.41	39215.68
466.60	40575.53
466.78	40577.87
466.96	41390.03
467.14	42071.13
467.32	42553.28
467.51	42529.87
467.69	40367.22
467.87	41158.32
468.05	42108.58
468.23	42295.82
468.41	42148.37
468.60	42246.67
468.78	42188.16
468.96	41755.16
469.14	42438.59
469.32	42775.63
469.50	41366.63
469.69	41460.25
469.87	40863.41
470.05	40392.97
470.23	40858.73
470.41	41006.19
470.59	41406.42
470.77	42031.34
470.95	42078.15
471.14	43033.09
471.32	43138.41
471.50	45261.28
471.68	45382.99
471.86	45448.52
472.04	46136.64
472.22	45925.99
472.40	43627.59
472.58	43772.70
472.77	42955.85
472.95	43955.26
473.13	44774.45
473.31	43835.89
473.49	44154.21
473.67	44610.61
473.85	44921.90
474.03	46344.95
474.21	46335.59
474.39	46761.56
474.57	47220.31
474.75	46721.77
474.93	46555.60
475.12	45544.48
475.30	45628.74
475.48	45755.13
475.66	46309.84
475.84	45841.73
476.02	45942.38
476.20	45422.78
476.38	45745.77
476.56	46855.18
476.74	47739.91
476.92	47739.91
477.10	48060.56
477.28	49457.86
477.46	49151.25
477.64	49666.17
477.82	49460.20
478.00	49773.83
478.18	49357.22
478.36	49366.58
478.54	49378.28
478.72	49305.73
478.90	50485.36
479.08	51370.08
479.26	51889.68
479.44	51487.10
479.62	51393.48
479.80	51501.15
479.98	51828.82
480.16	51885.00
480.34	51374.76
480.52	51641.58
480.70	52004.36
480.88	51824.14
481.06	52711.20
481.24	53057.60
481.41	53724.66
481.59	54192.76
481.77	53858.07
481.95	53432.09
482.13	53258.89
482.31	53116.12
482.49	53965.73
482.67	53731.68
482.85	53792.53
483.03	54284.04
483.21	54583.63
483.39	54621.08
483.57	54073.40
483.74	54033.61
483.92	54300.43
484.10	54277.02
484.28	54873.86
484.46	55341.97
484.64	55419.20
484.82	54883.22
485.00	54482.99
485.18	53963.39
485.35	52753.33
485.53	50452.59
485.71	46894.97
485.89	46679.64
486.07	48851.66
486.25	51239.01
486.43	53165.27
486.61	53860.41
486.78	53741.04
486.96	54258.30
487.14	54925.35
487.32	55739.86
487.50	56603.52
487.68	57029.49
487.85	57478.88
488.03	57476.54
488.21	57153.54
488.39	56542.66
488.57	56116.68
488.75	55973.91
488.92	56779.06
489.10	58637.44
489.28	59465.99
489.46	60006.65
489.64	59765.58
489.81	60030.06
489.99	59524.50
490.17	59786.64
490.35	60140.07
490.53	59487.06
490.70	59337.26
490.88	59178.10
491.06	59945.80
491.24	59894.31
491.41	59075.12
491.59	57689.52
491.77	57284.61
491.95	58244.23
492.13	59049.38
492.30	60060.49
492.48	60912.44
492.66	61146.50
492.84	61256.50
493.01	60886.70
493.19	60446.68
493.37	60210.28
493.54	60177.51
493.72	60704.13
493.90	61399.27
494.08	61996.11
494.25	62520.39
494.43	62635.08
494.61	62922.96
494.79	62782.53
494.96	62742.74
495.14	62349.53
495.32	61469.49
495.49	60760.31
495.67	61804.19
495.85	62808.28
496.02	63157.02
496.20	62995.52
496.38	62515.71
496.55	62475.92
496.73	63065.73
496.91	63281.06
497.09	63798.32
497.26	63955.14
497.44	63339.58
497.62	62927.64
497.79	62239.53
497.97	61188.63
498.14	61415.66
498.32	61963.34
498.50	62934.66
498.67	63440.22
498.85	63503.42
499.03	63428.52
499.20	63608.74
499.38	63833.43
499.56	63674.27
499.73	63164.04
499.91	62920.62
500.08	62525.07
500.26	61766.74
500.44	62253.57
500.61	62794.23
500.79	62609.33
500.97	62471.24
501.14	62408.04
501.32	62199.74
501.49	62026.54
501.67	62405.70
501.84	62824.66
502.02	63023.61
502.20	63140.63
502.37	63358.30
502.55	63683.64
502.72	63891.94
502.90	64336.65
503.07	64140.04
503.25	63732.79
503.43	62871.47
503.60	62487.62
503.78	61942.28
503.95	62302.72
504.13	63489.37
504.30	64430.27
504.48	64046.42
504.65	63767.90
504.83	63641.51
505.01	64327.28
505.18	64582.40
505.36	65186.26
505.53	65144.13
505.71	65312.65
505.88	65207.32
506.06	64781.35
506.23	64411.54
506.41	64247.71
506.58	64519.21
506.76	64456.01
506.93	64346.01
507.11	64104.93
507.28	64324.94
507.46	63704.70
507.63	63372.34
507.81	63178.08
507.98	63442.56
508.16	64147.06
508.33	64448.99
508.50	64907.74
508.68	65076.26
508.85	65497.55
509.03	65509.25
509.20	65314.99
509.38	64678.36
509.55	63994.93
509.73	64254.73
509.90	64680.70
510.08	64896.03
510.25	64776.67
510.42	64619.85
510.60	64477.08
510.77	64708.79
510.95	65261.16
511.12	65233.07
511.30	65429.68
511.47	65535.00
511.64	65535.00
511.82	65535.00
511.99	64919.44
512.17	64448.99
512.34	64259.41
512.51	64261.75
512.69	64338.99
512.86	64521.55
513.04	64905.40
513.21	64795.39
513.38	64467.72
513.56	64135.36
513.73	63744.49
513.90	63908.33
514.08	63842.79
514.25	64238.34
514.43	64313.24
514.60	64530.91
514.77	64757.94
514.95	64643.26
515.12	64556.66
515.29	64867.95
515.47	65125.41
515.64	65535.00
515.81	65031.78
515.99	64416.22
516.16	63192.12
516.33	61415.66
516.51	60331.99
516.68	59568.97
516.85	59292.79
517.03	59618.13
517.20	61958.66
517.37	63877.90
517.54	64704.11
517.72	64130.68
517.89	62063.99
518.06	60226.66
518.24	60727.54
518.41	62377.62
518.58	63505.76
518.75	63749.17
518.93	63920.03
519.10	63777.26
519.27	64193.87
519.45	64327.28
519.62	64889.01
519.79	65322.01
519.96	65043.49
520.14	64619.85
520.31	63983.22
520.48	63908.33
520.65	64303.88
520.83	65102.00
521.00	65462.44
521.17	64982.63
521.34	64584.74
521.52	64996.68
521.69	65535.00
521.86	65535.00
522.03	65535.00
522.20	64547.29
522.38	63627.46
522.55	63709.38
522.72	64247.71
522.89	64364.73
523.07	64577.72
523.24	64816.46
523.41	65535.00
523.58	65535.00
523.75	65535.00
523.92	65535.00
524.10	65535.00
524.27	65535.00
524.44	65535.00
524.61	65535.00
524.78	65488.19
524.96	65483.51
525.13	65361.80
525.30	65535.00
525.47	65535.00
525.64	65535.00
525.81	65469.46
525.98	64114.29
526.16	62857.43
526.33	62293.36
526.50	62012.49
526.67	61773.76
526.84	62305.06
527.01	63091.48
527.18	63973.86
527.36	64608.15
527.53	65441.38
527.70	65511.59
527.87	65050.51
528.04	64701.77
528.21	65169.88
528.38	65535.00
528.55	65535.00
528.72	65535.00
528.89	65535.00
529.07	65535.00
529.24	65535.00
529.41	65038.81
529.58	64631.55
529.75	64818.80
529.92	64982.63
530.09	65497.55
530.26	65535.00
530.43	65535.00
530.60	65535.00
530.77	65535.00
530.94	65535.00
531.11	65535.00
531.28	65535.00
531.46	65535.00
531.63	65535.00
531.80	65535.00
531.97	65347.76
532.14	64559.00
532.31	63838.11
532.48	63325.53
532.65	63395.75
532.82	64100.25
532.99	64910.08
533.16	65249.45
533.33	65535.00
533.50	65495.21
533.67	65085.62
533.84	64676.02
534.01	64818.80
534.18	65034.13
534.35	65146.47
534.52	65038.81
534.69	65298.61
534.86	65535.00
535.03	65535.00
535.20	65535.00
535.37	65535.00
535.54	65535.00
535.71	65535.00
535.88	65535.00
536.05	65516.28
536.22	65013.06
536.38	64807.09
536.55	64362.39
536.72	63950.46
536.89	63913.01
537.06	64729.86
537.23	65427.34
537.40	65499.89
537.57	65429.68
537.74	65284.56
537.91	65319.67
538.08	65291.58
538.25	65312.65
538.42	65469.46
538.59	65296.27
538.75	64605.81
538.92	64619.85
539.09	64390.48
539.26	64367.07
539.43	64053.44
539.60	64341.33
539.77	64238.34
539.94	64296.86
540.11	63512.78
540.28	63180.42
540.44	63175.74
540.61	63309.15
540.78	63519.80
540.95	64086.21
541.12	64434.95
541.29	64540.27
541.46	64807.09
541.62	64788.37
541.79	64919.44
541.96	64051.10
542.13	64114.29
542.30	64582.40
542.47	64633.89
542.63	64336.65
542.80	64287.49
542.97	64446.65
543.14	64137.70
543.31	64121.32
543.48	64711.13
543.64	65429.68
543.81	65535.00
543.98	65338.40
544.15	64743.90
544.32	64341.33
544.48	64392.82
544.65	64926.46
544.82	65188.60
544.99	64872.63
545.16	64582.40
545.32	64306.22
545.49	65090.30
545.66	65446.06
545.83	65031.78
546.00	64704.11
546.16	64460.69
546.33	64395.16
546.50	64528.57
546.67	64800.07
546.83	64472.40
547.00	64526.23
547.17	64051.10
547.34	63571.29
547.50	63491.71
547.67	63791.30
547.84	63887.26
548.00	64067.48
548.17	64582.40
548.34	64617.51
548.51	64521.55
548.67	64647.94
548.84	64624.53
549.01	64598.79
549.18	64519.21
549.34	64310.90
549.51	64451.33
549.68	64430.27
549.84	64329.62
550.01	64023.01
550.18	63824.07
550.34	64081.53
550.51	64168.13
550.68	64203.24
550.84	63774.92
551.01	63969.18
551.18	63852.15
551.34	63952.80
551.51	64186.85
551.68	64809.43
551.84	64575.38
552.01	64320.26
552.18	64289.84
552.34	63582.99
552.51	63313.83
552.68	63220.21
552.84	63791.30
553.01	63824.07
553.18	63648.53
553.34	63847.47
553.51	64079.19
553.67	64299.20
553.84	64257.07
554.01	64334.31
554.17	64086.21
554.34	64013.65
554.51	64081.53
554.67	64549.63
554.84	64456.01
555.00	64114.29
555.17	63976.20
555.33	63760.87
555.50	63903.65
555.67	63634.48
555.83	63913.01
556.00	63430.86
556.16	63512.78
556.33	63199.15
556.50	63072.76
556.66	63128.93
556.83	62822.32
556.99	62958.07
557.16	63159.36
557.32	63351.28
557.49	63620.44
557.65	63365.32
557.82	63330.22
557.98	63323.19
558.15	62934.66
558.32	62042.92
558.48	61506.94
558.65	61733.97
558.81	61925.89
558.98	62143.56
559.14	62438.47
559.31	62590.61
559.47	62555.50
559.64	62398.68
559.80	61663.75
559.97	61951.64
560.13	62199.74
560.30	63171.06
560.46	63573.63
560.63	63887.26
560.79	63702.36
560.96	63465.97
561.12	62415.07
561.29	61797.16
561.45	61778.44
561.61	62234.84
561.78	62585.92
561.94	62494.64
562.11	62386.98
562.27	62532.09
562.44	62576.56
562.60	62906.58
562.77	62967.43
562.93	62990.84
563.10	62829.34
563.26	62323.78
563.42	62288.68
563.59	62188.03
563.75	62216.12
563.92	62382.30
564.08	62166.97
564.24	62389.32
564.41	62609.33
564.57	62506.35
564.74	62312.08
564.90	62239.53
565.07	61949.30
565.23	61773.76
565.39	61307.99
565.56	61071.60
565.72	61003.72
565.88	61305.65
566.05	61256.50
566.21	61659.07
566.38	61778.44
566.54	61876.74
566.70	62045.26
566.87	62197.40
567.03	62255.91
567.19	62394.00
567.36	62258.25
567.52	62169.31
567.68	61661.41
567.85	61289.27
568.01	61214.37
568.17	60713.50
568.34	60741.58
568.50	60764.99
568.66	60837.54
568.83	61361.82
568.99	61212.03
569.15	61305.65
569.32	61322.04
569.48	60987.34
569.64	60992.02
569.81	60701.79
569.97	60540.30
570.13	60657.32
570.30	59971.55
570.46	59908.35
570.62	59384.07
570.78	59391.09
570.95	59716.43
571.11	60142.41
571.27	60353.05
571.43	60601.15
571.60	60980.32
571.76	61015.43
571.92	61130.11
572.09	61275.22
572.25	61258.84
572.41	61132.45
572.57	61095.00
572.74	61066.92
572.90	60659.66
573.06	60645.62
573.22	60760.31
573.38	60872.65
573.55	60683.07
573.71	60966.27
573.87	60772.01
574.03	60748.60
574.20	60673.71
574.36	60285.18
574.52	60327.31
574.68	60203.26
574.84	59709.41
575.01	59473.01
575.17	59421.52
575.33	59725.79
575.49	59779.62
575.65	60018.36
575.82	59800.69
575.98	59491.74
576.14	59639.19
576.30	59957.50
576.46	60006.65
576.62	59969.21
576.79	60069.85
576.95	59564.29
577.11	59817.07
577.27	59475.35
577.43	59732.81
577.59	59674.30
577.75	59185.13
577.92	58777.87
578.08	58555.52
578.24	58431.47
578.40	58958.09
578.56	59173.42
578.72	59241.30
578.88	59334.92
579.04	59337.26
579.21	59571.32
579.37	59667.28
579.53	59592.38
579.69	59721.11
579.85	59632.17
580.01	59753.88
580.17	58974.48
580.33	59215.55
580.49	59185.13
580.65	59473.01
580.82	59625.15
580.98	59323.22
581.14	59405.14
581.30	59536.21
581.46	59442.59
581.62	59657.91
581.78	59531.53
581.94	59620.47
582.10	59805.37
582.26	59774.94
582.42	59774.94
582.58	59856.86
582.74	59632.17
582.90	59835.80
583.06	59578.34
583.22	59370.03
583.38	59346.62
583.54	59473.01
583.70	59358.33
583.86	59318.54
584.02	59140.66
584.18	59454.29
584.34	59327.90
584.50	59274.07
584.66	59044.69
584.82	58712.34
584.98	58787.24
585.14	58651.48
