SpectraSuite Data File
++++++++++++++++++++++++++++++++++++
Date: Mon Oct 07 14:53:59 GMT-05:00 2013
User: price-jones
Dark Spectrum Present: No
Reference Spectrum Present: No
Number of Sampled Component Spectra: 1
Spectrometers: USB2+H05261
Integration Time (usec): 100000 (USB2+H05261)
Spectra Averaged: 1 (USB2+H05261)
Boxcar Smoothing: 0 (USB2+H05261)
Correct for Electrical Dark: No (USB2+H05261)
Strobe/Lamp Enabled: No (USB2+H05261)
Correct for Detector Non-linearity: No (USB2+H05261)
Correct for Stray Light: No (USB2+H05261)
Number of Pixels in Processed Spectrum: 2048
>>>>>Begin Processed Spectral Data<<<<<
365.73	0.00
365.92	0.00
366.12	0.00
366.32	0.00
366.52	0.00
366.72	0.00
366.91	0.00
367.11	0.00
367.31	0.00
367.51	0.00
367.70	0.00
367.90	0.00
368.10	0.00
368.30	0.00
368.49	0.00
368.69	0.00
368.89	0.00
369.09	0.00
369.28	0.00
369.48	0.00
369.68	0.00
369.87	0.00
370.07	0.00
370.27	0.00
370.47	732.59
370.66	3524.85
370.86	4191.90
371.06	4489.15
371.25	4615.54
371.45	4140.41
371.65	3606.77
371.84	3531.87
372.04	3623.15
372.24	3995.29
372.44	4236.37
372.63	4091.26
372.83	3957.85
373.03	3272.07
373.22	3143.34
373.42	3318.88
373.62	3789.33
373.81	4131.05
374.01	4173.18
374.21	3733.15
374.40	3548.25
374.60	3515.48
374.79	4198.92
374.99	4557.02
375.19	4978.32
375.38	5032.15
375.58	4561.70
375.78	4730.22
375.97	4716.18
376.17	4980.66
376.37	4828.53
376.56	5125.77
376.76	5500.26
376.95	5659.42
377.15	6017.52
377.35	6410.73
377.54	6609.67
377.74	6670.53
377.93	6899.90
378.13	6532.44
378.33	6296.04
378.52	5799.85
378.72	5528.35
378.91	5352.81
379.11	5242.80
379.31	5165.56
379.50	4954.91
379.70	5687.50
379.89	6061.99
380.09	6480.94
380.28	6670.53
380.48	6754.79
380.68	6431.79
380.87	6349.87
381.07	5909.85
381.26	5352.81
381.46	5151.52
381.65	5032.15
381.85	4788.74
382.04	4587.45
382.24	4367.44
382.43	4091.26
382.63	3882.95
382.83	4081.89
383.02	3981.25
383.22	3978.91
383.41	4021.04
383.61	4248.07
383.80	4828.53
384.00	5612.60
384.19	6291.36
384.39	6607.33
384.58	6504.35
384.78	6415.41
384.97	6232.85
385.17	6005.81
385.36	5865.38
385.56	5516.64
385.75	5626.65
385.95	6171.99
386.14	6689.25
386.34	6827.34
386.53	6375.62
386.72	6066.67
386.92	6061.99
387.11	6384.98
387.31	6684.57
387.50	6576.91
387.70	6338.17
387.89	6375.62
388.09	6431.79
388.28	6317.11
388.48	6546.48
388.67	6949.05
388.86	7660.57
389.06	8238.69
389.25	8622.53
389.45	8723.18
389.64	8624.87
389.84	8631.90
390.03	8587.43
390.22	8479.76
390.42	9020.42
390.61	9312.99
390.81	9933.23
391.00	10101.75
391.19	9930.89
391.39	9736.63
391.58	9074.26
391.78	8575.72
391.97	8161.45
392.16	7637.17
392.36	7009.90
392.55	5722.61
392.75	4585.11
392.94	3763.58
393.13	3618.47
393.33	4131.05
393.52	5493.24
393.71	6654.14
393.91	7698.02
394.10	8159.11
394.29	9100.00
394.49	9535.34
394.68	10541.77
394.88	10457.51
395.07	10775.83
395.26	10745.40
395.46	10513.69
395.65	9994.09
395.84	8622.53
396.04	7372.69
396.23	5907.51
396.42	4828.53
396.62	4652.98
396.81	5568.13
397.00	7164.38
397.19	9036.81
397.39	10476.24
397.58	12046.74
397.77	12444.63
397.97	13202.96
398.16	13364.46
398.35	13626.60
398.55	14106.41
398.74	14712.61
398.93	14972.41
399.12	14387.27
399.32	14134.50
399.51	14438.76
399.70	15625.42
399.90	15232.21
400.09	15358.60
400.28	15119.86
400.47	15295.40
400.67	16105.23
400.86	16484.39
401.05	16400.13
401.24	16563.97
401.44	17043.78
401.63	16814.41
401.82	17167.83
402.01	16889.31
402.21	17008.67
402.40	17193.58
402.59	16552.27
402.78	15812.66
402.97	15536.48
403.17	16229.27
403.36	16980.59
403.55	17652.32
403.74	18019.78
403.93	17053.14
404.13	15758.83
404.32	15412.43
404.51	16147.36
404.70	17465.08
404.89	17221.66
405.09	17064.85
405.28	16652.91
405.47	16526.52
405.66	16704.40
405.85	16170.76
406.05	15623.08
406.24	15990.54
406.43	16676.32
406.62	17312.94
406.81	17504.87
407.00	16816.75
407.20	16332.26
407.39	16498.44
407.58	16952.50
407.77	17860.63
407.96	18527.68
408.15	18665.77
408.34	18544.06
408.54	19726.04
408.73	19817.32
408.92	19428.79
409.11	19150.26
409.30	17956.59
409.49	16872.92
409.68	15747.12
409.87	15140.93
410.07	16327.58
410.26	17657.00
410.45	18759.39
410.64	19229.84
410.83	19843.06
411.02	20116.90
411.21	21088.23
411.40	20737.15
411.59	20704.38
411.78	20798.00
411.98	20027.96
412.17	20816.72
412.36	20130.95
412.55	20350.96
412.74	20049.03
412.93	19302.40
413.12	19527.09
413.31	21472.07
413.50	21617.19
413.69	22082.95
413.88	21284.83
414.07	20505.43
414.26	20858.85
414.45	21607.83
414.64	21668.68
414.83	22099.34
415.02	21186.53
415.22	21268.45
415.41	21876.99
415.60	22218.71
415.79	23236.84
415.98	23957.72
416.17	23789.20
416.36	23054.28
416.55	22537.02
416.74	22352.12
416.93	21231.00
417.12	21043.76
417.31	21755.28
417.50	22239.77
417.69	23168.96
417.88	22876.40
418.07	22340.41
418.26	22085.30
418.45	22415.31
418.64	23073.00
418.83	23852.40
419.02	23569.19
419.21	23330.46
419.39	22663.41
419.58	20856.51
419.77	21254.40
419.96	22113.38
420.15	23295.35
420.34	24109.86
420.53	24718.40
420.72	25525.88
420.91	25277.79
421.10	24896.28
421.29	24922.02
421.48	24088.79
421.67	25455.67
421.86	24404.77
422.05	22984.06
422.24	20339.26
422.43	20210.53
422.61	22469.14
422.80	24184.76
422.99	24304.12
423.18	23370.25
423.37	22806.18
423.56	23094.07
423.75	23484.94
423.94	23604.30
424.13	22522.98
424.32	22731.28
424.50	22857.67
424.69	22258.49
424.88	22499.57
425.07	22333.39
425.26	22099.34
425.45	22354.46
425.64	22075.93
425.83	21825.50
426.01	23119.81
426.20	23564.51
426.39	23737.71
426.58	21928.48
426.77	20383.73
426.96	19391.34
427.15	20219.89
427.33	21537.61
427.52	22499.57
427.71	22740.64
427.90	22487.87
428.09	22312.33
428.28	22354.46
428.46	21336.32
428.65	20493.73
428.84	21434.63
429.03	21764.64
429.22	20723.10
429.40	19253.25
429.59	17757.64
429.78	15594.99
429.97	15529.45
430.16	15906.28
430.34	16002.24
430.53	15868.83
430.72	16262.04
430.91	18050.21
431.10	21392.50
431.28	24704.35
431.47	26567.42
431.66	27154.90
431.85	25048.41
432.03	22808.52
432.22	21507.18
432.41	22434.03
432.60	24851.81
432.79	26277.19
432.97	26735.94
433.16	26068.89
433.35	23868.78
433.54	21535.27
433.72	20365.00
433.91	20954.82
434.10	23255.56
434.28	24559.24
434.47	26003.35
434.66	26059.52
434.85	25179.48
435.03	25003.94
435.22	25502.48
435.41	26895.10
435.59	26668.06
435.78	27461.51
435.97	28360.27
436.16	28477.30
436.34	27866.42
436.53	27316.39
436.72	27407.67
436.90	26197.62
437.09	25869.94
437.28	25212.25
437.46	26494.86
437.65	26113.36
437.84	24374.34
438.02	22537.02
438.21	22242.11
438.40	23381.95
438.58	25301.19
438.77	26300.60
438.96	26316.98
439.14	27608.96
439.33	28053.66
439.52	28577.94
439.70	28266.65
439.89	27405.33
440.08	26483.16
440.26	26459.76
440.45	27667.47
440.63	29366.70
440.82	30546.33
441.01	30022.05
441.19	30022.05
441.38	30279.51
441.57	31644.04
441.75	32376.63
441.94	31920.23
442.12	31852.35
442.31	32685.58
442.50	32381.31
442.68	31880.44
442.87	31620.64
443.05	31101.04
443.24	32034.91
443.43	32299.39
443.61	33184.12
443.80	33207.52
443.98	31594.89
444.17	31597.23
444.35	33027.30
444.54	33919.04
444.73	33436.89
444.91	32231.52
445.10	30511.22
445.28	29551.60
445.47	28982.85
445.65	29404.15
445.84	30099.29
446.02	31138.49
446.21	31852.35
446.39	31421.69
446.58	31955.33
446.77	32465.57
446.95	33085.81
447.14	34300.55
447.32	34232.68
447.51	33282.42
447.69	31978.74
447.88	32072.36
448.06	32142.58
448.25	32980.49
448.43	33275.40
448.62	32584.94
448.80	32238.54
448.99	32898.57
449.17	32624.73
449.36	33127.94
449.54	34038.41
449.73	34733.55
449.91	35161.87
450.10	35976.37
450.28	36531.08
450.46	36123.83
450.65	36264.26
450.83	35929.56
451.02	35173.57
451.20	35007.39
451.39	34742.91
451.57	34773.34
451.76	34452.69
451.94	34391.83
452.13	34047.77
452.31	32727.71
452.49	31285.94
452.68	31384.24
452.86	31676.81
453.05	31477.86
453.23	32765.16
453.42	33326.89
453.60	34410.56
453.78	34270.12
453.97	34089.90
454.15	34394.17
454.34	33212.20
454.52	33809.04
454.70	33008.58
454.89	33219.22
455.07	33446.26
455.26	34560.35
455.44	34859.94
455.62	35503.59
455.81	36084.04
455.99	35737.64
456.17	35674.45
456.36	35096.33
456.54	35967.01
456.73	36306.39
456.91	36814.29
457.09	36964.08
457.28	37769.22
457.46	36390.65
457.64	35665.08
457.83	34930.16
458.01	34073.52
458.19	35161.87
458.38	35044.84
458.56	36465.55
458.74	36292.35
458.93	35456.78
459.11	35161.87
459.29	35232.08
459.48	35669.76
459.66	35655.72
459.84	35992.76
460.03	36041.91
460.21	36421.08
460.39	36994.51
460.57	36945.36
460.76	37118.56
460.94	37338.57
461.12	36842.37
461.31	37130.26
461.49	36844.71
461.67	37148.98
461.85	37830.08
462.04	37626.45
462.22	38490.11
462.40	37827.74
462.59	37668.58
462.77	38059.45
462.95	38073.49
463.13	37535.17
463.32	37177.07
463.50	36669.17
463.68	36898.55
463.86	36982.80
464.05	36385.97
464.23	35644.02
464.41	35627.63
464.59	34862.28
464.78	36701.94
464.96	36935.99
465.14	36374.27
465.32	36603.64
465.50	37811.35
465.69	38174.14
465.87	37406.44
466.05	36339.16
466.23	34944.20
466.41	33577.33
466.60	34677.38
466.78	35227.40
466.96	36009.14
467.14	36062.97
467.32	36807.26
467.51	36718.32
467.69	34944.20
467.87	35592.53
468.05	36526.40
468.23	36320.43
468.41	36477.25
468.60	36683.22
468.78	36954.72
468.96	36112.13
469.14	37015.57
469.32	37469.64
469.50	35810.20
469.69	36058.29
469.87	35878.07
470.05	35337.41
470.23	35150.17
470.41	35498.91
470.59	36210.43
470.77	35791.47
470.95	36683.22
471.14	37586.66
471.32	37380.70
471.50	39126.74
471.68	39140.78
471.86	39763.36
472.04	40100.40
472.22	39866.34
472.40	38199.88
472.58	37607.73
472.77	37443.89
472.95	38312.23
473.13	38829.49
473.31	37886.25
473.49	38436.28
473.67	39147.80
473.85	39447.39
474.03	39824.22
474.21	40435.10
474.39	40535.74
474.57	40521.69
474.75	40964.06
474.93	40339.13
475.12	39658.04
475.30	39849.96
475.48	39524.63
475.66	39999.76
475.84	39768.04
476.02	39777.40
476.20	38888.00
476.38	39962.31
476.56	40811.92
476.74	40889.16
476.92	41310.46
477.10	41893.25
477.28	43536.30
477.46	43414.60
477.64	43744.61
477.82	43608.86
478.00	44140.16
478.18	43079.90
478.36	43171.18
478.54	43180.54
478.72	43952.92
478.90	44552.10
479.08	45610.02
479.26	45930.67
479.44	45783.22
479.62	45436.82
479.80	45593.64
479.98	45530.44
480.16	45968.12
480.34	45338.52
480.52	45954.08
480.70	46153.02
480.88	46340.27
481.06	46773.27
481.24	47316.27
481.41	48289.93
481.59	48940.60
481.77	48727.61
481.95	47885.02
482.13	47543.30
482.31	47611.18
482.49	48205.67
482.67	48142.48
482.85	48767.40
483.03	49207.42
483.21	49647.44
483.39	49303.38
483.57	48608.25
483.74	48273.55
483.92	48449.09
484.10	49144.23
484.28	49698.94
484.46	49893.20
484.64	50490.04
484.82	49411.05
485.00	49294.02
485.18	48463.13
485.35	46925.40
485.53	44439.75
485.71	40114.44
485.89	39775.06
486.07	41759.84
486.25	45233.19
486.43	47887.36
486.61	48416.32
486.78	48130.78
486.96	48458.45
487.14	50171.72
487.32	50375.35
487.50	51554.98
487.68	52294.59
487.85	53017.82
488.03	52739.29
488.21	52435.02
488.39	51767.97
488.57	51346.67
488.75	50972.19
488.92	51774.99
489.10	53886.15
489.28	55290.48
489.46	55664.96
489.64	55393.46
489.81	55772.63
489.99	55203.88
490.17	55391.12
490.35	55742.20
490.53	55267.07
490.70	54759.17
490.88	54703.00
491.06	55639.22
491.24	55711.77
491.41	55007.27
491.59	53284.64
491.77	52711.20
491.95	53455.50
492.13	54780.24
492.30	55613.47
492.48	56542.66
492.66	56949.92
492.84	56809.48
493.01	56554.36
493.19	56149.45
493.37	55910.72
493.54	55655.60
493.72	56416.27
493.90	57378.23
494.08	57890.81
494.25	58199.76
494.43	58447.86
494.61	58639.78
494.79	58553.18
494.96	58342.53
495.14	57932.94
495.32	56989.70
495.49	56439.68
495.67	57546.75
495.85	58632.76
496.02	59119.59
496.20	58951.07
496.38	58508.71
496.55	58197.42
496.73	58714.68
496.91	58880.86
497.09	59573.66
497.26	59723.45
497.44	59175.76
497.62	58651.48
497.79	58099.12
497.97	56821.19
498.14	56961.62
498.32	58005.50
498.50	58850.43
498.67	59377.05
498.85	59056.40
499.03	59098.53
499.20	59491.74
499.38	59482.37
499.56	59304.49
499.73	58759.15
499.91	58763.83
500.08	58000.82
500.26	57506.96
500.44	57839.32
500.61	58497.01
500.79	58253.59
500.97	57869.75
501.14	57687.18
501.32	57797.19
501.49	57549.09
501.67	57876.77
501.84	58494.67
502.02	58630.42
502.20	58761.49
502.37	59112.57
502.55	59327.90
502.72	59695.36
502.90	60046.44
503.07	59707.07
503.25	59381.73
503.43	58890.22
503.60	57921.24
503.78	57432.07
503.95	57773.78
504.13	59313.86
504.30	59840.48
504.48	59714.09
504.65	59309.18
504.83	59402.80
505.01	59894.31
505.18	60336.67
505.36	60846.91
505.53	60814.14
505.71	60975.64
505.88	61015.43
506.06	60437.31
506.23	60236.03
506.41	59746.86
506.58	60158.79
506.76	59924.74
506.93	59906.01
507.11	59683.66
507.28	59880.27
507.46	59594.72
507.63	59100.87
507.81	58824.68
507.98	58983.84
508.16	59678.98
508.33	59971.55
508.50	60430.29
508.68	60823.50
508.85	61179.26
509.03	60889.04
509.20	60842.23
509.38	60357.74
509.55	59601.74
509.73	59749.20
509.90	60280.50
510.08	60390.50
510.25	60456.04
510.42	60072.19
510.60	59971.55
510.77	60486.46
510.95	60767.33
511.12	60886.70
511.30	61158.20
511.47	61509.28
511.64	61495.24
511.82	61095.00
511.99	60383.48
512.17	59952.82
512.34	59730.47
512.51	59767.92
512.69	59957.50
512.86	60090.91
513.04	60547.32
513.21	60477.10
513.38	60275.82
513.56	59601.74
513.73	59007.25
513.90	59351.30
514.08	59433.22
514.25	59524.50
514.43	59643.87
514.60	59924.74
514.77	59985.59
514.95	60121.34
515.12	59908.35
515.29	60409.23
515.47	60542.64
515.64	60968.61
515.81	60523.91
515.99	60095.60
516.16	58784.90
516.33	56346.06
516.51	55229.62
516.68	54389.37
516.85	54085.10
517.03	54382.35
517.20	57013.11
517.37	59117.25
517.54	59978.57
517.72	59571.32
517.89	57462.49
518.06	55299.84
518.24	55372.39
518.41	57329.08
518.58	58780.21
518.75	58920.65
518.93	59096.19
519.10	58974.48
519.27	59309.18
519.45	59730.47
519.62	60287.52
519.79	60629.24
519.96	60339.01
520.14	59948.14
520.31	59107.89
520.48	59093.85
520.65	59650.89
520.83	60406.89
521.00	60725.20
521.17	60598.81
521.34	60121.34
521.52	60322.63
521.69	60713.50
521.86	61116.07
522.03	60743.92
522.20	59533.87
522.38	58925.33
522.55	58784.90
522.72	59412.16
522.89	59732.81
523.07	59744.51
523.24	60062.83
523.41	60917.12
523.58	61083.30
523.75	61364.17
523.92	61462.47
524.10	61403.95
524.27	61378.21
524.44	61038.83
524.61	61010.74
524.78	60959.25
524.96	60720.52
525.13	60769.67
525.30	60926.49
525.47	61338.42
525.64	61261.18
525.81	60654.98
525.98	59234.28
526.16	58047.63
526.33	57228.44
526.50	56842.25
526.67	56781.40
526.84	57319.72
527.01	57968.05
527.18	58838.73
527.36	59629.83
527.53	60603.49
527.70	60807.12
527.87	60214.96
528.04	59824.09
528.21	60308.58
528.38	60879.67
528.55	61415.66
528.72	61801.85
528.89	62068.67
529.07	61469.49
529.24	61116.07
529.41	60285.18
529.58	59877.93
529.75	59847.50
529.92	60385.82
530.09	60715.84
530.26	61137.13
530.43	61413.32
530.60	61394.59
530.77	61635.67
530.94	61841.63
531.11	61513.96
531.28	61048.19
531.46	60842.23
531.63	61116.07
531.80	60903.08
531.97	60339.01
532.14	59606.42
532.31	58588.29
532.48	57839.32
532.65	57991.45
532.82	58944.05
532.99	60083.89
533.16	60507.53
533.33	60739.24
533.50	60776.69
533.67	60142.41
533.84	59503.44
534.01	59920.05
534.18	59985.59
534.35	60231.35
534.52	60226.66
534.69	60378.80
534.86	60624.56
535.03	60898.40
535.20	61396.93
535.37	61574.81
535.54	61909.51
535.71	61359.48
535.88	60907.76
536.05	60460.72
536.22	60090.91
536.38	59868.56
536.55	59355.99
536.72	59011.93
536.89	58651.48
537.06	59606.42
537.23	60390.50
537.40	60559.02
537.57	60566.04
537.74	60418.59
537.91	60130.70
538.08	60259.43
538.25	60348.37
538.42	60523.91
538.59	60416.25
538.75	59700.04
538.92	59428.54
539.09	59281.09
539.26	59133.63
539.43	59011.93
539.60	59164.06
539.77	59143.00
539.94	59250.66
540.11	58379.98
540.28	57677.82
540.44	57986.77
540.61	58122.52
540.78	58473.60
540.95	58871.49
541.12	59145.34
541.29	59295.13
541.46	59831.11
541.62	59700.04
541.79	59568.97
541.96	58845.75
542.13	58927.67
542.30	59512.80
542.47	59580.68
542.63	59100.87
542.80	59182.79
542.97	59231.94
543.14	59133.63
543.31	59180.45
543.48	59568.97
543.64	60203.26
543.81	60652.64
543.98	60308.58
544.15	59784.30
544.32	58948.73
544.48	59288.11
544.65	59538.55
544.82	60238.37
544.99	59704.73
545.16	59309.18
545.32	59054.06
545.49	59945.80
545.66	60044.10
545.83	59908.35
546.00	59430.88
546.16	59241.30
546.33	59175.76
546.50	59257.68
546.67	59784.30
546.83	59276.41
547.00	59311.52
547.17	58721.70
547.34	58262.96
547.50	57968.05
547.67	58567.23
547.84	58518.07
548.00	58862.13
548.17	59444.93
548.34	59245.98
548.51	59295.13
548.67	59213.21
548.84	59236.62
549.01	59306.83
549.18	59145.34
549.34	59215.55
549.51	59164.06
549.68	58965.12
549.84	59091.51
550.01	58560.20
550.18	58614.04
550.34	58768.51
550.51	58918.31
550.68	58866.81
550.84	58347.21
551.01	58368.28
551.18	58365.94
551.34	58592.97
551.51	59011.93
551.68	59171.08
551.84	59140.66
552.01	58965.12
552.18	58990.86
552.34	58152.95
552.51	57839.32
552.68	57539.73
552.84	58277.00
553.01	58583.61
553.18	58157.63
553.34	58548.50
553.51	58646.80
553.67	58616.38
553.84	58960.44
554.01	58642.12
554.17	58787.24
554.34	58628.08
554.51	58688.93
554.67	59166.40
554.84	58836.39
555.00	58695.95
555.17	58529.78
555.33	58522.76
555.50	58337.85
555.67	58382.32
555.83	58042.95
556.00	57954.00
556.16	57886.13
556.33	57380.57
556.50	57345.47
556.66	57422.70
556.83	57097.37
556.99	57373.55
557.16	57212.06
557.32	57602.92
557.49	58117.84
557.65	57752.72
557.82	57844.00
557.98	57745.70
558.15	57392.28
558.32	56594.15
558.48	55718.79
558.65	55950.51
558.81	56303.93
558.98	56413.93
559.14	56720.54
559.31	56638.62
559.47	56956.94
559.64	56456.06
559.80	56102.64
559.97	56074.55
560.13	56383.51
560.30	57392.28
560.46	58005.50
560.63	58117.84
560.79	58120.18
560.96	57783.15
561.12	56753.31
561.29	55639.22
561.45	55772.63
561.61	56446.70
561.78	56790.76
561.94	56729.90
562.11	56540.32
562.27	56357.76
562.44	56961.62
562.60	57132.48
562.77	57396.96
562.93	56956.94
563.10	56725.22
563.26	56685.43
563.42	56566.07
563.59	56362.44
563.75	56399.89
563.92	56392.87
564.08	56217.33
564.24	56556.70
564.41	56530.96
564.57	56385.85
564.74	56357.76
564.90	56212.65
565.07	56072.21
565.23	55772.63
565.39	55379.42
565.56	54946.42
565.72	55121.96
565.88	55007.27
566.05	55178.13
566.21	55405.16
566.38	55456.65
566.54	55756.24
566.70	56046.47
566.87	56425.64
567.03	56222.01
567.19	56453.72
567.36	56205.62
567.52	56161.15
567.68	55833.48
567.85	55330.26
568.01	54773.22
568.17	54665.55
568.34	54415.11
568.50	54326.17
568.66	54728.75
568.83	54953.44
568.99	54733.43
569.15	55049.40
569.32	55114.94
569.48	54635.13
569.64	54541.50
569.81	54670.23
569.97	54213.83
570.13	54241.92
570.30	53815.94
570.46	53254.21
570.62	52921.85
570.78	52917.17
570.95	53219.10
571.11	53839.34
571.27	54143.61
571.43	54169.36
571.60	54490.01
571.76	54560.23
571.92	54920.67
572.09	55035.36
572.25	54850.45
572.41	54798.96
572.57	54536.82
572.74	54738.11
572.90	54457.24
573.06	54370.64
573.22	54216.17
573.38	54356.60
573.55	54429.16
573.71	54794.28
573.87	54396.39
574.03	54410.43
574.20	54270.00
574.36	53813.60
574.52	53972.75
574.68	53551.46
574.84	53118.46
575.01	52685.46
575.17	52563.75
575.33	52875.04
575.49	53254.21
575.65	53502.31
575.82	53270.59
575.98	52870.36
576.14	53296.34
576.30	53462.52
576.46	53600.61
576.62	53703.59
576.79	53420.39
576.95	53020.16
577.11	53162.93
577.27	53263.57
577.43	53247.19
577.59	52828.23
577.75	52514.60
577.92	51700.09
578.08	51480.08
578.24	51629.88
578.40	51805.42
578.56	52378.85
578.72	52495.88
578.88	52683.12
579.04	52175.22
579.21	52762.70
579.37	52758.02
579.53	53003.77
579.69	52734.61
579.85	52992.07
580.01	52797.80
580.17	52439.70
580.33	52425.66
580.49	52285.23
580.65	52416.30
580.82	52786.10
580.98	52823.55
581.14	52671.42
581.30	52704.18
581.46	52477.15
581.62	52671.42
581.78	52760.36
581.94	52851.64
582.10	52769.72
582.26	52926.53
582.42	52968.66
582.58	52619.92
582.74	52683.12
582.90	52760.36
583.06	52821.21
583.22	52680.78
583.38	52612.90
583.54	52512.26
583.70	52369.49
583.86	52659.71
584.02	52285.23
584.18	52102.67
584.34	52126.07
584.50	52233.74
584.66	52207.99
584.82	51887.34
584.98	51489.45
585.14	51189.86
