SpectraSuite Data File
++++++++++++++++++++++++++++++++++++
Date: Mon Oct 07 14:54:59 GMT-05:00 2013
User: price-jones
Dark Spectrum Present: No
Reference Spectrum Present: No
Number of Sampled Component Spectra: 1
Spectrometers: USB2+H05261
Integration Time (usec): 10000 (USB2+H05261)
Spectra Averaged: 1 (USB2+H05261)
Boxcar Smoothing: 0 (USB2+H05261)
Correct for Electrical Dark: No (USB2+H05261)
Strobe/Lamp Enabled: No (USB2+H05261)
Correct for Detector Non-linearity: No (USB2+H05261)
Correct for Stray Light: No (USB2+H05261)
Number of Pixels in Processed Spectrum: 2048
>>>>>Begin Processed Spectral Data<<<<<
365.73	0.00
365.92	0.00
366.12	0.00
366.32	0.00
366.52	0.00
366.72	0.00
366.91	0.00
367.11	0.00
367.31	0.00
367.51	0.00
367.70	0.00
367.90	0.00
368.10	0.00
368.30	0.00
368.49	0.00
368.69	0.00
368.89	0.00
369.09	0.00
369.28	0.00
369.48	0.00
369.68	0.00
369.87	0.00
370.07	0.00
370.27	0.00
370.47	128.73
370.66	1411.34
370.86	1645.40
371.06	1827.96
371.25	1823.28
371.45	1575.18
371.65	1409.00
371.84	1380.92
372.04	1406.66
372.24	1579.86
372.44	1703.91
372.63	1717.95
372.83	1486.24
373.03	1425.39
373.22	1247.51
373.42	1413.68
373.62	1781.15
373.81	1706.25
374.01	1575.18
374.21	1472.20
374.40	1380.92
374.60	1481.56
374.79	1729.66
374.99	1933.28
375.19	2054.99
375.38	2162.66
375.58	1928.60
375.78	1963.71
375.97	2052.65
376.17	1954.35
376.37	2097.12
376.56	2239.89
376.76	2279.68
376.95	2466.92
377.15	2612.04
377.35	2719.70
377.54	2848.43
377.74	2881.20
377.93	2895.24
378.13	2691.62
378.33	2630.76
378.52	2422.45
378.72	2347.56
378.91	2363.94
379.11	2115.84
379.31	1996.48
379.50	2097.12
379.70	2438.84
379.89	2502.03
380.09	2717.36
380.28	2736.09
380.48	2832.05
380.68	2796.94
380.87	2703.32
381.07	2286.70
381.26	2244.57
381.46	2071.37
381.65	2122.87
381.85	1977.75
382.04	1888.81
382.24	1701.57
382.43	1582.20
382.63	1680.50
382.83	1694.55
383.02	1575.18
383.22	1715.61
383.41	1589.22
383.61	1870.09
383.80	2242.23
384.00	2443.52
384.19	2647.15
384.39	2794.60
384.58	2801.62
384.78	2668.21
384.97	2658.85
385.17	2445.86
385.36	2246.91
385.56	2326.49
385.75	2366.28
385.95	2796.94
386.14	2946.73
386.34	2984.18
386.53	2693.96
386.72	2525.44
386.92	2616.72
387.11	2808.64
387.31	2958.44
387.50	2782.90
387.70	2803.96
387.89	2771.19
388.09	2710.34
388.28	2761.83
388.48	2867.16
388.67	3180.79
388.86	3445.27
389.06	3473.36
389.25	3812.73
389.45	3826.78
389.64	3742.52
389.84	3707.41
390.03	3761.24
390.22	3805.71
390.42	3911.04
390.61	4201.26
390.81	4252.75
391.00	4554.68
391.19	4351.06
391.39	4184.88
391.58	4004.66
391.78	3688.68
391.97	3634.85
392.16	3361.01
392.36	2981.84
392.55	2349.90
392.75	1682.85
392.94	1460.49
393.13	1659.44
393.33	1980.09
393.52	2537.14
393.71	3054.40
393.91	3482.72
394.10	3824.44
394.29	4138.07
394.49	4393.19
394.68	4723.20
394.88	4887.04
395.07	4765.33
395.26	4975.98
395.46	4725.54
395.65	4161.47
395.84	3744.86
396.04	3005.25
396.23	2427.14
396.42	2033.93
396.62	2193.08
396.81	2747.79
397.00	3311.86
397.19	4241.05
397.39	4922.15
397.58	5570.48
397.77	5720.27
397.97	5991.77
398.16	6113.48
398.35	6370.94
398.55	6530.09
398.74	6607.33
398.93	6651.80
399.12	6513.71
399.32	6377.96
399.51	6705.63
399.70	7077.78
399.90	6803.94
400.09	6876.49
400.28	6972.46
400.47	6923.30
400.67	7382.05
400.86	7440.56
401.05	7485.03
401.24	7510.78
401.44	7644.19
401.63	7805.69
401.82	7808.03
402.01	7733.13
402.21	7901.65
402.40	7698.02
402.59	7393.75
402.78	7012.24
402.97	6920.96
403.17	7393.75
403.36	7627.81
403.55	8021.02
403.74	8032.72
403.93	7681.64
404.13	7272.04
404.32	7344.60
404.51	7681.64
404.70	8032.72
404.89	7922.71
405.09	7901.65
405.28	7573.97
405.47	7707.38
405.66	7562.27
405.85	7332.90
406.05	7180.76
406.24	7499.08
406.43	7662.91
406.62	8058.46
406.81	7892.29
407.00	7660.57
407.20	7400.77
407.39	7644.19
407.58	8049.10
407.77	8482.10
407.96	8643.60
408.15	8964.25
408.34	8732.54
408.54	8992.34
408.73	9018.08
408.92	8695.09
409.11	8713.81
409.30	8430.61
409.49	7761.22
409.68	7370.35
409.87	7372.69
410.07	7658.23
410.26	8219.96
410.45	8620.19
410.64	9032.13
410.83	9156.18
411.02	9373.85
411.21	9729.61
411.40	9591.52
411.59	9706.20
411.78	9720.24
411.98	9518.96
412.17	9764.72
412.36	9483.85
412.55	9558.75
412.74	9224.05
412.93	9280.22
413.12	9408.95
413.31	10263.25
413.50	9933.23
413.69	10171.97
413.88	9575.13
414.07	9659.39
414.26	9619.60
414.45	10057.28
414.64	9940.26
414.83	10122.82
415.02	10113.45
415.22	9902.81
415.41	10281.97
415.60	10663.48
415.79	11021.58
415.98	11108.18
416.17	11178.40
416.36	10883.49
416.55	10548.79
416.74	10207.08
416.93	10066.64
417.12	10193.03
417.31	10125.16
417.50	10555.82
417.69	10794.55
417.88	10911.58
418.07	10843.70
418.26	10314.74
418.45	10642.42
418.64	11094.14
418.83	11499.05
419.02	10988.82
419.21	10932.64
419.39	10415.38
419.58	10408.36
419.77	10178.99
419.96	10670.50
420.15	11262.66
420.34	11587.99
420.53	11644.17
420.72	11805.66
420.91	11826.73
421.10	11611.40
421.29	11939.07
421.48	11463.94
421.67	11939.07
421.86	11213.51
422.05	10654.12
422.24	9699.18
422.43	10181.33
422.61	11044.99
422.80	11669.91
422.99	11417.13
423.18	10693.91
423.37	10792.21
423.56	11070.73
423.75	11302.45
423.94	11372.66
424.13	10586.24
424.32	10736.04
424.50	10569.86
424.69	10693.91
424.88	10609.65
425.07	10581.56
425.26	10731.36
425.45	10506.66
425.64	10333.47
425.83	10729.02
426.01	11154.99
426.20	11250.96
426.39	11417.13
426.58	10328.78
426.77	9523.64
426.96	9408.95
427.15	10038.56
427.33	10754.76
427.52	11047.33
427.71	10846.04
427.90	10623.69
428.09	10656.46
428.28	10270.27
428.46	9947.28
428.65	10111.11
428.84	10235.16
429.03	10321.76
429.22	9664.07
429.40	9109.36
429.59	8367.42
429.78	7503.76
429.97	7489.71
430.16	7585.68
430.34	7714.41
430.53	7761.22
430.72	8189.53
430.91	9165.54
431.10	10829.66
431.28	12372.07
431.47	13046.15
431.66	13015.72
431.85	11447.56
432.03	10750.08
432.22	10752.42
432.41	11494.37
432.60	12367.39
432.79	12872.95
432.97	13018.06
433.16	12374.41
433.35	11281.38
433.54	9977.70
433.72	9813.87
433.91	10494.96
434.10	11861.84
434.28	12325.26
434.47	12697.41
434.66	12336.96
434.85	12269.09
435.03	12355.69
435.22	12348.67
435.41	13387.86
435.59	13081.25
435.78	13252.11
435.97	13748.31
436.16	14106.41
436.34	13544.68
436.53	13366.80
436.72	13467.44
436.90	12662.30
437.09	13060.19
437.28	12414.20
437.46	12896.35
437.65	12650.60
437.84	11779.92
438.02	11021.58
438.21	11007.54
438.40	11351.60
438.58	12849.54
438.77	12908.05
438.96	12975.93
439.14	13914.48
439.33	13738.94
439.52	13666.39
439.70	13582.13
439.89	13116.36
440.08	12922.10
440.26	13315.31
440.45	13816.18
440.63	14630.69
440.82	15119.86
441.01	14768.78
441.19	14923.26
441.38	15400.72
441.57	15372.64
441.75	15609.03
441.94	15756.49
442.12	15829.04
442.31	15964.79
442.50	15948.41
442.68	15613.71
442.87	15721.38
443.05	15403.07
443.24	15735.42
443.43	16049.05
443.61	16156.72
443.80	16280.77
443.98	15543.50
444.17	15499.03
444.35	16205.87
444.54	16599.08
444.73	16901.01
444.91	15871.17
445.10	15147.95
445.28	14338.12
445.47	14499.62
445.65	14614.30
445.84	15190.08
446.02	15503.71
446.21	15641.80
446.39	15566.90
446.58	15672.23
446.77	16262.04
446.95	16248.00
447.14	16924.41
447.32	16903.35
447.51	16388.43
447.69	16044.37
447.88	16070.12
448.06	16421.20
448.25	16350.98
448.43	16498.44
448.62	16248.00
448.80	16376.73
448.99	16203.53
449.17	16379.07
449.36	16573.33
449.54	16999.31
449.73	17397.20
449.91	17554.02
450.10	17879.35
450.28	18436.40
450.46	18146.17
450.65	17975.31
450.83	17841.90
451.02	17624.23
451.20	17551.68
451.39	17886.37
451.57	17364.43
451.76	17233.36
451.94	17003.99
452.13	16868.24
452.31	16067.78
452.49	15351.57
452.68	15768.19
452.86	15613.71
453.05	15838.41
453.23	16673.98
453.42	17053.14
453.60	16762.92
453.78	17102.29
453.97	16805.05
454.15	16751.21
454.34	16273.74
454.52	16655.25
454.70	16744.19
454.89	16826.11
455.07	16823.77
455.26	16989.95
455.44	17860.63
455.62	18230.43
455.81	17888.71
455.99	17940.21
456.17	17853.61
456.36	17980.00
456.54	18656.41
456.73	17972.97
456.91	18665.77
457.09	18712.58
457.28	19183.03
457.46	18302.99
457.64	17577.42
457.83	17446.35
458.01	17315.28
458.19	17692.11
458.38	18052.55
458.56	18195.32
458.74	18436.40
458.93	17919.14
459.11	17668.70
459.29	17657.00
459.48	17734.24
459.66	17448.69
459.84	18148.51
460.03	18115.75
460.21	18389.59
460.39	19185.37
460.57	18874.08
460.76	18717.26
460.94	18782.80
461.12	18630.66
461.31	18904.51
461.49	18920.89
461.67	18909.19
461.85	19164.31
462.04	19449.85
462.22	19704.97
462.40	19374.95
462.59	19683.91
462.77	19262.61
462.95	19693.27
463.13	19105.79
463.32	18775.78
463.50	18813.23
463.68	18717.26
463.86	18782.80
464.05	18118.09
464.23	18157.88
464.41	18129.79
464.59	17764.67
464.78	18743.01
464.96	19087.07
465.14	18714.92
465.32	19152.60
465.50	19459.21
465.69	19330.48
465.87	19192.39
466.05	18347.46
466.23	17383.16
466.41	17312.94
466.60	18314.69
466.78	18094.68
466.96	18417.68
467.14	18649.39
467.32	18539.38
467.51	18511.30
467.69	17429.97
467.87	18345.12
468.05	18412.99
468.23	18497.25
468.41	18981.74
468.60	18911.53
468.78	18824.93
468.96	18548.75
469.14	19164.31
469.32	19426.45
469.50	18174.26
469.69	18171.92
469.87	17884.03
470.05	18410.65
470.23	18380.23
470.41	18204.69
470.59	18420.02
470.77	18408.31
470.95	18932.59
471.14	19199.41
471.32	19330.48
471.50	20030.30
471.68	20208.19
471.86	20301.81
472.04	20430.54
472.22	20215.21
472.40	19283.67
472.58	19117.50
472.77	19168.99
472.95	19424.11
473.13	20240.95
473.31	19585.60
473.49	19793.91
473.67	20063.07
473.85	19953.07
474.03	20664.59
474.21	21214.62
474.39	21315.26
474.57	21099.93
474.75	21413.56
474.93	20856.51
475.12	20718.42
475.30	20561.61
475.48	20620.12
475.66	20411.81
475.84	20662.25
476.02	19978.81
476.20	19894.55
476.38	20737.15
476.56	21277.81
476.74	21626.55
476.92	21572.72
477.10	21825.50
477.28	22955.97
477.46	22494.89
477.64	22565.10
477.82	22869.37
478.00	23262.58
478.18	22607.23
478.36	22361.48
478.54	22883.42
478.72	22904.48
478.90	23936.66
479.08	24489.03
479.26	23828.99
479.44	23999.85
479.62	23667.50
479.80	23571.54
479.98	24196.46
480.16	24308.80
480.34	23894.53
480.52	24664.57
480.70	24922.02
480.88	24631.80
481.06	24854.15
481.24	24694.99
481.41	25434.60
481.59	25926.11
481.77	25862.92
481.95	25792.70
482.13	25425.24
482.31	26040.80
482.49	26595.51
482.67	26326.35
482.85	26253.79
483.03	27356.18
483.21	27269.58
483.39	27012.12
483.57	25961.22
483.74	25500.14
483.92	26352.09
484.10	26434.01
484.28	26686.79
484.46	27290.65
484.64	27278.94
484.82	26668.06
485.00	26448.05
485.18	25764.62
485.35	24404.77
485.53	21855.92
485.71	20847.15
485.89	20744.17
486.07	22008.06
486.25	24093.47
486.43	25249.70
486.61	25628.87
486.78	26141.44
486.96	26658.70
487.14	27339.80
487.32	27351.50
487.50	28659.86
487.68	29041.37
487.85	29626.50
488.03	29481.39
488.21	29804.38
488.39	28498.36
488.57	27796.20
488.75	28339.21
488.92	30033.75
489.10	31103.38
489.28	31608.93
489.46	32849.42
489.64	32381.31
489.81	32774.52
489.99	32215.13
490.17	32781.54
490.35	32673.88
490.53	31541.06
490.70	31140.83
490.88	30953.58
491.06	32393.01
491.24	31988.10
491.41	30742.94
491.59	29610.12
491.77	29142.01
491.95	30946.56
492.13	32105.13
492.30	32987.51
492.48	34007.98
492.66	34019.69
492.84	33319.87
493.01	33619.46
493.19	33294.12
493.37	33415.83
493.54	33015.60
493.72	34398.85
493.90	34993.35
494.08	34824.83
494.25	35990.42
494.43	36245.54
494.61	36439.80
494.79	36278.30
494.96	36084.04
495.14	34913.77
495.32	34330.98
495.49	34223.31
495.67	35220.38
495.85	36734.71
496.02	37418.14
496.20	36863.44
496.38	36170.64
496.55	36275.96
496.73	37205.16
496.91	36535.76
497.09	37628.79
497.26	38136.69
497.44	37214.52
497.62	36510.02
497.79	35683.81
497.97	34239.70
498.14	35138.46
498.32	37284.73
498.50	37317.50
498.67	37471.98
498.85	38057.11
499.03	37991.58
499.20	38719.48
499.38	38682.03
499.56	37855.82
499.73	37415.80
499.91	36011.48
500.08	35660.40
500.26	34705.46
500.44	35447.41
500.61	36510.02
500.79	36133.19
500.97	35473.16
501.14	35365.49
501.32	34862.28
501.49	35384.22
501.67	36620.02
501.84	36708.96
502.02	37163.03
502.20	37628.79
502.37	37647.52
502.55	37518.79
502.72	38054.77
502.90	38478.41
503.07	37673.26
503.25	36624.70
503.43	35730.62
503.60	35910.84
503.78	34813.13
503.95	36435.12
504.13	38059.45
504.30	39063.54
504.48	38139.03
504.65	37127.92
504.83	37553.90
505.01	38445.64
505.18	38724.16
505.36	39129.08
505.53	39491.86
505.71	40652.76
505.88	41308.11
506.06	39807.83
506.23	39669.74
506.41	38906.73
506.58	39454.41
506.76	38153.07
506.93	38602.46
507.11	37713.05
507.28	38497.13
507.46	38391.81
507.63	37696.67
507.81	36786.20
507.98	37621.77
508.16	38410.53
508.33	39906.13
508.50	39566.76
508.68	39971.67
508.85	40821.28
509.03	40435.10
509.20	39384.19
509.38	38347.34
509.55	38689.06
509.73	39215.68
509.90	39288.23
510.08	38424.57
510.25	38714.80
510.42	38047.75
510.60	39388.88
510.77	40065.29
510.95	41390.03
511.12	40854.05
511.30	42185.82
511.47	40706.60
511.64	40327.43
511.82	40088.70
511.99	38937.15
512.17	38562.67
512.34	38511.17
512.51	38857.57
512.69	38260.74
512.86	38464.36
513.04	39791.45
513.21	39562.08
513.38	38508.83
513.56	36903.23
513.73	36800.24
513.90	37703.69
514.08	36704.28
514.25	38447.98
514.43	38532.24
514.60	37778.59
514.77	38216.27
514.95	39491.86
515.12	39086.95
515.29	38270.10
515.47	39475.48
515.64	40205.72
515.81	39966.99
515.99	37656.88
516.16	35639.34
516.33	33153.69
516.51	32795.59
516.68	31220.41
516.85	31297.64
517.03	32219.81
517.20	35784.45
517.37	38234.99
517.54	38298.19
517.72	36825.99
517.89	34274.80
518.06	33055.39
518.24	33855.85
518.41	35253.15
518.58	37848.80
518.75	38321.59
518.93	37301.12
519.10	37963.49
519.27	37694.33
519.45	38632.88
519.62	38976.94
519.79	39821.87
519.96	39697.83
520.14	38471.39
520.31	37443.89
520.48	37542.19
520.65	38457.34
520.83	40273.60
521.00	39952.94
521.17	39023.75
521.34	39950.60
521.52	39906.13
521.69	39613.57
521.86	39873.37
522.03	39791.45
522.20	38103.92
522.38	37303.46
522.55	38487.77
522.72	38298.19
522.89	37900.29
523.07	38499.47
523.24	38377.76
523.41	40044.23
523.58	39725.91
523.75	40594.25
523.92	40978.10
524.10	40971.08
524.27	40699.58
524.44	40886.82
524.61	40318.07
524.78	39924.86
524.96	39058.86
525.13	39091.63
525.30	40191.68
525.47	40811.92
525.64	41191.09
525.81	38906.73
525.98	37060.04
526.16	35805.52
526.33	34485.45
526.50	33855.85
526.67	33331.57
526.84	35101.01
527.01	36505.34
527.18	37944.76
527.36	38911.41
527.53	38728.84
527.70	39416.96
527.87	38246.69
528.04	39072.90
528.21	39515.26
528.38	40788.52
528.55	42061.77
528.72	42115.60
528.89	41869.84
529.07	41397.06
529.24	39283.55
529.41	38892.68
529.58	39337.38
529.75	39346.75
529.92	40603.61
530.09	40816.60
530.26	40898.52
530.43	41722.39
530.60	40732.34
530.77	41216.83
530.94	41361.95
531.11	40212.74
531.28	39948.26
531.46	39435.69
531.63	39599.52
531.80	39620.59
531.97	37944.76
532.14	36917.27
532.31	35735.30
532.48	37347.93
532.65	36999.19
532.82	37024.93
532.99	39658.04
533.16	39821.87
533.33	39615.91
533.50	38249.03
533.67	38623.52
533.84	38918.43
534.01	38986.30
534.18	38813.10
534.35	39660.38
534.52	38492.45
534.69	40109.76
534.86	40032.52
535.03	39150.14
535.20	40421.05
535.37	41488.34
535.54	41553.87
535.71	40797.88
535.88	39761.02
536.05	38651.61
536.22	39267.17
536.38	38309.89
536.55	37193.45
536.72	37001.53
536.89	37095.15
537.06	37996.26
537.23	39945.92
537.40	39931.88
537.57	40261.90
537.74	39777.40
537.91	39873.37
538.08	38508.83
538.25	38445.64
538.42	39278.87
538.59	39086.95
538.75	38394.15
538.92	37621.77
539.09	37680.28
539.26	38242.01
539.43	37338.57
539.60	37696.67
539.77	39014.39
539.94	37549.21
540.11	36402.35
540.28	35981.06
540.44	36002.12
540.61	36746.41
540.78	38000.94
540.95	38878.64
541.12	38705.44
541.29	38656.29
541.46	38501.81
541.62	38857.57
541.79	39573.78
541.96	38501.81
542.13	37289.42
542.30	36940.68
542.47	37179.41
542.63	37446.23
542.80	37207.50
542.97	37834.76
543.14	37247.29
543.31	38527.56
543.48	38642.24
543.64	39072.90
543.81	39344.41
543.98	39978.69
544.15	38267.76
544.32	37088.13
544.48	38253.72
544.65	38682.03
544.82	39136.10
544.99	37661.56
545.16	37380.70
545.32	37727.10
545.49	39365.47
545.66	38162.43
545.83	37570.28
546.00	37429.85
546.16	37858.17
546.33	37816.04
546.50	37542.19
546.67	39262.49
546.83	37596.03
547.00	37368.99
547.17	36694.92
547.34	36051.27
547.50	37249.63
547.67	37666.24
547.84	36999.19
548.00	37729.44
548.17	38188.18
548.34	37247.29
548.51	37336.23
548.67	38478.41
548.84	38831.83
549.01	38895.02
549.18	38579.05
549.34	38256.06
549.51	37895.61
549.68	38476.07
549.84	37694.33
550.01	37720.07
550.18	37326.86
550.34	36465.55
550.51	36933.65
550.68	37471.98
550.84	37034.30
551.01	37291.76
551.18	37694.33
551.34	37919.02
551.51	37153.66
551.68	37951.79
551.84	38394.15
552.01	38099.24
552.18	37287.07
552.34	37116.22
552.51	36893.86
552.68	37195.79
552.84	37549.21
553.01	36629.38
553.18	36577.89
553.34	36613.00
553.51	37722.41
553.67	37303.46
553.84	36540.44
554.01	36840.03
554.17	37038.98
554.34	37984.55
554.51	36952.38
554.67	37048.34
554.84	37514.11
555.00	37516.45
555.17	36912.59
555.33	36271.28
555.50	37432.19
555.67	36357.88
555.83	35409.96
556.00	34707.80
556.16	35374.86
556.33	34497.16
556.50	35934.24
556.66	35711.89
556.83	36830.67
556.99	35938.93
557.16	35501.25
557.32	36140.21
557.49	36676.19
557.65	36659.81
557.82	36313.41
557.98	36381.29
558.15	36121.49
558.32	35168.89
558.48	33338.59
558.65	33488.38
558.81	33020.28
558.98	33558.60
559.14	35213.36
559.31	35438.05
559.47	34370.77
559.64	33507.11
559.80	32620.05
559.97	33490.73
560.13	35131.44
560.30	35325.71
560.46	36404.69
560.63	37233.24
560.79	37481.34
560.96	35641.68
561.12	34220.97
561.29	33490.73
561.45	33095.18
561.61	33778.61
561.78	34129.69
561.94	34431.62
562.11	34749.93
562.27	35206.34
562.44	35356.13
562.60	35880.41
562.77	35861.69
562.93	35428.69
563.10	34089.90
563.26	34216.29
563.42	34609.50
563.59	33298.80
563.75	33771.59
563.92	34050.11
564.08	34497.16
564.24	33921.38
564.41	33474.34
564.57	34700.78
564.74	34295.87
564.90	33429.87
565.07	33013.26
565.23	32559.19
565.39	32804.95
565.56	32589.62
565.72	32107.47
565.88	31660.43
566.05	32921.98
566.21	33795.00
566.38	32779.20
566.54	33350.29
566.70	33525.83
566.87	34057.14
567.03	33553.92
567.19	33748.18
567.36	33715.42
567.52	32847.08
567.68	33481.36
567.85	32538.13
568.01	30937.20
568.17	31985.76
568.34	32961.76
568.50	32584.94
568.66	33312.84
568.83	33502.43
568.99	32830.69
569.15	33046.02
569.32	33425.19
569.48	32577.92
569.64	31805.54
569.81	32463.23
569.97	31901.50
570.13	32460.89
570.30	32116.83
570.46	31681.49
570.62	30829.54
570.78	30895.07
570.95	31498.93
571.11	31763.41
571.27	32680.90
571.43	32332.16
571.60	32318.12
571.76	32451.53
571.92	32671.54
572.09	32313.44
572.25	33308.16
572.41	34242.04
572.57	34103.95
572.74	34080.54
572.90	33207.52
573.06	32809.63
573.22	31512.97
573.38	31344.45
573.55	31732.98
573.71	30911.46
573.87	31351.48
574.03	31962.36
574.20	32147.26
574.36	32423.44
574.52	32669.20
574.68	31599.57
574.84	30401.22
575.01	30679.74
575.17	31321.05
575.33	30965.29
575.49	30199.93
575.65	31431.05
575.82	31424.03
575.98	30672.72
576.14	30883.37
576.30	30588.46
576.46	30651.66
576.62	31330.41
576.79	31208.70
576.95	30764.00
577.11	29919.07
577.27	30614.21
577.43	31016.78
577.59	30534.63
577.75	30389.52
577.92	29399.47
578.08	29312.87
578.24	30057.16
578.40	29186.48
578.56	29673.31
578.72	30300.58
578.88	30492.50
579.04	30515.90
579.21	30242.06
579.37	30536.97
579.53	31431.05
579.69	31943.63
579.85	30756.98
580.01	30237.38
580.17	30164.82
580.33	30513.56
580.49	30686.76
580.65	29827.79
580.82	29752.89
580.98	30160.14
581.14	31028.48
581.30	30249.08
581.46	30506.54
581.62	30192.91
581.78	30270.15
581.94	30782.73
582.10	30925.50
582.26	30895.07
582.42	30843.58
582.58	30448.03
582.74	30698.47
582.90	30904.43
583.06	30841.24
583.22	30410.58
583.38	30902.09
583.54	30504.20
583.70	31227.43
583.86	30569.74
584.02	30518.25
584.18	30513.56
584.34	30677.40
584.50	30410.58
584.66	30038.44
584.82	29546.92
584.98	30291.21
585.14	28781.57
585.30	29193.50
585.46	28884.55
585.62	28414.10
585.78	29284.78
585.94	29362.02
586.10	28364.95
586.26	28669.22
