SpectraSuite Data File
++++++++++++++++++++++++++++++++++++
Date: Mon Oct 07 14:53:24 GMT-05:00 2013
User: price-jones
Dark Spectrum Present: No
Reference Spectrum Present: No
Number of Sampled Component Spectra: 1
Spectrometers: USB2+H05261
Integration Time (usec): 100000 (USB2+H05261)
Spectra Averaged: 1 (USB2+H05261)
Boxcar Smoothing: 0 (USB2+H05261)
Correct for Electrical Dark: No (USB2+H05261)
Strobe/Lamp Enabled: No (USB2+H05261)
Correct for Detector Non-linearity: No (USB2+H05261)
Correct for Stray Light: No (USB2+H05261)
Number of Pixels in Processed Spectrum: 2048
>>>>>Begin Processed Spectral Data<<<<<
365.73	0.00
365.92	0.00
366.12	0.00
366.32	0.00
366.52	0.00
366.72	0.00
366.91	0.00
367.11	0.00
367.31	0.00
367.51	0.00
367.70	0.00
367.90	0.00
368.10	0.00
368.30	0.00
368.49	0.00
368.69	0.00
368.89	0.00
369.09	0.00
369.28	0.00
369.48	0.00
369.68	0.00
369.87	0.00
370.07	0.00
370.27	0.00
370.47	538.32
370.66	2820.35
370.86	3204.19
371.06	3637.19
371.25	3604.42
371.45	3218.24
371.65	2963.12
371.84	2729.06
372.04	2937.37
372.24	3255.69
372.44	3433.57
372.63	3272.07
372.83	3143.34
373.03	2651.83
373.22	2583.95
373.42	2801.62
373.62	3038.02
373.81	3421.86
374.01	3363.35
374.21	3066.10
374.40	2738.43
374.60	2920.99
374.79	3274.41
374.99	3779.97
375.19	4091.26
375.38	4051.47
375.58	3761.24
375.78	3758.90
375.97	3918.06
376.17	4049.13
376.37	3981.25
376.56	4156.79
376.76	4337.01
376.95	4727.88
377.15	4884.70
377.35	5036.83
377.54	5387.91
377.74	5713.25
377.93	5614.95
378.13	5280.25
378.33	5294.29
378.52	4695.11
378.72	4620.22
378.91	4468.08
379.11	4432.97
379.31	4175.52
379.50	4154.45
379.70	4526.60
379.89	4915.12
380.09	5350.46
380.28	5401.96
380.48	5430.04
380.68	5310.68
380.87	5203.01
381.07	4835.55
381.26	4329.99
381.46	4081.89
381.65	4032.74
381.85	3957.85
382.04	3770.60
382.24	3382.07
382.43	3325.90
382.63	3208.87
382.83	3377.39
383.02	3307.18
383.22	3468.67
383.41	3353.99
383.61	3386.76
383.80	4058.49
384.00	4592.13
384.19	4975.98
384.39	5434.72
384.58	5289.61
384.78	5149.18
384.97	5320.04
385.17	4945.55
385.36	4732.56
385.56	4655.33
385.75	4648.30
385.95	4954.91
386.14	5518.98
386.34	5455.79
386.53	5174.92
386.72	4980.66
386.92	5102.37
387.11	5214.71
387.31	5626.65
387.50	5380.89
387.70	5322.38
387.89	5296.63
388.09	5277.91
388.28	5224.08
388.48	5446.43
388.67	5907.51
388.86	6335.83
389.06	6719.68
389.25	7059.06
389.45	7246.30
389.64	7112.89
389.84	7183.10
390.03	7035.65
390.22	6984.16
390.42	7208.85
390.61	7705.04
390.81	8187.19
391.00	8250.39
391.19	8219.96
391.39	8056.12
391.58	7538.87
391.78	7075.44
391.97	6794.58
392.16	6497.33
392.36	6008.16
392.55	4770.01
392.75	3726.13
392.94	2970.14
393.13	2993.55
393.33	3602.08
393.52	4524.26
393.71	5600.90
393.91	6274.98
394.10	7030.97
394.29	7428.86
394.49	8224.64
394.68	8674.03
394.88	8912.76
395.07	9011.06
395.26	8940.85
395.46	8805.10
395.65	8184.85
395.84	7211.19
396.04	6146.25
396.23	4945.55
396.42	4154.45
396.62	4081.89
396.81	4660.01
397.00	6033.90
397.19	7428.86
397.39	8706.79
397.58	9781.10
397.77	10581.56
397.97	11000.52
398.16	11178.40
398.35	11421.81
398.55	11995.25
398.74	12334.62
398.93	12540.59
399.12	12205.89
399.32	11730.76
399.51	12133.34
399.70	12973.59
399.90	12957.21
400.09	12748.90
400.28	12547.61
400.47	12662.30
400.67	13226.37
400.86	13825.54
401.05	13455.74
401.24	13837.25
401.44	13891.08
401.63	13783.41
401.82	14176.62
402.01	14111.09
402.21	14080.66
402.40	14668.14
402.59	13905.12
402.78	13312.97
402.97	12950.18
403.17	13341.05
403.36	14293.65
403.55	14640.05
403.74	14960.70
403.93	14295.99
404.13	13231.05
404.32	12791.03
404.51	13418.29
404.70	14792.19
404.89	14424.72
405.09	14410.68
405.28	13886.40
405.47	13820.86
405.66	13848.95
405.85	13783.41
406.05	13287.22
406.24	13081.25
406.43	14054.92
406.62	14445.79
406.81	14548.77
407.00	13802.14
407.20	13804.48
407.39	13956.61
407.58	14415.36
407.77	14820.27
407.96	15431.15
408.15	15468.60
408.34	15613.71
408.54	16423.54
408.73	16561.63
408.92	16255.02
409.11	15906.28
409.30	15091.77
409.49	13827.88
409.68	13294.24
409.87	12858.90
410.07	13724.90
410.26	14457.49
410.45	15704.99
410.64	15943.73
410.83	16545.25
411.02	17008.67
411.21	17596.15
411.40	17331.67
411.59	17329.33
411.78	17268.47
411.98	17179.53
412.17	17589.13
412.36	17003.99
412.55	17006.33
412.74	16739.51
412.93	16280.77
413.12	16500.78
413.31	18136.81
413.50	18080.64
413.69	18307.67
413.88	17818.50
414.07	17289.54
414.26	17584.44
414.45	18167.24
414.64	18038.51
414.83	18202.35
415.02	18001.06
415.22	17935.53
415.41	18424.70
415.60	19056.64
415.79	19503.68
415.98	20238.61
416.17	20428.20
416.36	19424.11
416.55	19358.57
416.74	18757.05
416.93	18071.28
417.12	18188.30
417.31	18384.91
417.50	18679.82
417.69	19318.78
417.88	19222.82
418.07	19150.26
418.26	18710.24
418.45	18958.34
418.64	19726.04
418.83	20093.50
419.02	20100.52
419.21	19861.79
419.39	18862.38
419.58	17949.57
419.77	17790.41
419.96	19218.14
420.15	20156.69
420.34	20517.14
420.53	21474.42
420.72	21682.72
420.91	21380.79
421.10	21462.71
421.29	20943.11
421.48	20002.22
421.67	21418.24
421.86	20819.07
422.05	19494.32
422.24	17259.11
422.43	16933.78
422.61	19192.39
422.80	20641.18
422.99	20299.47
423.18	19793.91
423.37	19517.73
423.56	19452.19
423.75	19831.36
423.94	20355.64
424.13	19302.40
424.32	19356.23
424.50	19363.25
424.69	19075.37
424.88	19435.81
425.07	19222.82
425.26	19033.24
425.45	19075.37
425.64	18698.54
425.83	18717.26
426.01	19426.45
426.20	20453.94
426.39	20037.33
426.58	18541.72
426.77	17202.94
426.96	16468.01
427.15	17116.34
427.33	18625.98
427.52	19185.37
427.71	19218.14
427.90	19281.33
428.09	19042.60
428.28	18448.10
428.46	18073.62
428.65	17673.39
428.84	18024.47
429.03	18609.60
429.22	17371.46
429.40	16650.57
429.59	15096.46
429.78	13397.23
429.97	13406.59
430.16	13420.63
430.34	13610.22
430.53	13537.66
430.72	13895.76
430.91	15190.08
431.10	18127.45
431.28	21247.38
431.47	23063.64
431.66	23314.08
431.85	20980.56
432.03	19491.98
432.22	18897.49
432.41	19566.88
432.60	21488.46
432.79	22197.64
432.97	22810.86
433.16	22436.38
433.35	20482.03
433.54	18305.33
433.72	17334.01
433.91	17846.58
434.10	19639.44
434.28	21102.27
434.47	22150.83
434.66	21818.47
434.85	21642.93
435.03	21113.97
435.22	21769.32
435.41	23302.37
435.59	23185.35
435.78	23789.20
435.97	24074.75
436.16	24297.10
436.34	23985.81
436.53	23534.09
436.72	23730.69
436.90	22469.14
437.09	22040.82
437.28	21600.80
437.46	22527.66
437.65	22747.67
437.84	21062.48
438.02	19061.32
438.21	19194.73
438.40	20173.08
438.58	21975.29
438.77	22611.92
438.96	22799.16
439.14	23707.29
439.33	24084.11
439.52	24720.74
439.70	24360.30
439.89	23506.00
440.08	23049.60
440.26	22705.54
440.45	23669.84
440.63	25074.16
440.82	26298.26
441.01	26092.29
441.19	25977.61
441.38	26160.17
441.57	27077.66
441.75	27604.28
441.94	27707.26
442.12	27353.84
442.31	27971.74
442.50	27992.81
442.68	27931.95
442.87	27321.07
443.05	26771.05
443.24	27241.50
443.43	27831.31
443.61	28650.50
443.80	28683.27
443.98	27227.45
444.17	26827.22
444.35	28535.81
444.54	29661.61
444.73	28734.76
444.91	27761.09
445.10	26764.03
445.28	25238.00
445.47	25113.95
445.65	25373.75
445.84	25961.22
446.02	27068.30
446.21	27421.72
446.39	27615.98
446.58	27964.72
446.77	28039.62
446.95	28730.08
447.14	29181.80
447.32	29689.70
447.51	28971.15
447.69	27800.88
447.88	27468.53
448.06	27901.53
448.25	28591.98
448.43	28517.09
448.62	28446.87
448.80	27882.80
448.99	28474.96
449.17	28489.00
449.36	28669.22
449.54	29340.96
449.73	30181.21
449.91	30604.84
450.10	31412.33
450.28	31747.03
450.46	31557.44
450.65	31484.89
450.83	31283.60
451.02	30333.34
451.20	30403.56
451.39	30572.08
451.57	30164.82
451.76	30118.01
451.94	30073.54
452.13	29675.65
452.31	28023.23
452.49	26417.63
452.68	27070.64
452.86	27374.91
453.05	27662.79
453.23	28400.06
453.42	29092.86
453.60	29888.64
453.78	30045.46
453.97	29654.59
454.15	29703.74
454.34	28940.72
454.52	29303.51
454.70	28730.08
454.89	28865.83
455.07	29186.48
455.26	29544.58
455.44	30864.64
455.62	31227.43
455.81	31283.60
455.99	30621.23
456.17	30618.89
456.36	31197.00
456.54	31866.39
456.73	31583.19
456.91	32650.47
457.09	32348.54
457.28	32603.66
457.46	31702.56
457.64	31519.99
457.83	30462.07
458.01	29809.06
458.19	30588.46
458.38	30745.28
458.56	31800.86
458.74	31676.81
458.93	31370.20
459.11	31152.53
459.29	30347.39
459.48	30988.69
459.66	30843.58
459.84	31309.35
460.03	31512.97
460.21	31431.05
460.39	32002.14
460.57	32500.68
460.76	32809.63
460.94	32533.45
461.12	32123.85
461.31	32603.66
461.49	32467.91
461.67	32264.28
461.85	33305.82
462.04	33237.95
462.22	33757.55
462.40	33626.48
462.59	32896.23
462.77	33046.02
462.95	33425.19
463.13	32865.80
463.32	32264.28
463.50	32418.76
463.68	32187.05
463.86	32500.68
464.05	31779.79
464.23	31101.04
464.41	31110.40
464.59	30567.40
464.78	32025.55
464.96	31784.48
465.14	31580.85
465.32	32458.55
465.50	33425.19
465.69	33514.13
465.87	32847.08
466.05	31945.97
466.23	30476.12
466.41	29886.30
466.60	30728.89
466.78	30794.43
466.96	31096.36
467.14	31950.65
467.32	32233.86
467.51	32414.08
467.69	31044.87
467.87	31592.55
468.05	32163.64
468.23	32128.53
468.41	32032.57
468.60	31990.44
468.78	32615.37
468.96	31908.52
469.14	32816.65
469.32	32924.32
469.50	31543.40
469.69	31723.62
469.87	31480.21
470.05	31187.64
470.23	30918.48
470.41	30916.14
470.59	31431.05
470.77	31751.71
470.95	32680.90
471.14	32870.48
471.32	32863.46
471.50	34314.59
471.68	34925.47
471.86	35234.42
472.04	35316.34
472.22	35534.01
472.40	33972.88
472.58	33329.23
472.77	33071.77
472.95	33450.94
473.13	34354.38
473.31	33525.83
473.49	33694.35
473.67	34611.84
473.85	34466.73
474.03	35402.94
474.21	35637.00
474.39	35889.77
474.57	36081.70
474.75	36037.23
474.93	36088.72
475.12	34857.60
475.30	35005.05
475.48	35257.83
475.66	35627.63
475.84	35253.15
476.02	34677.38
476.20	34363.75
476.38	35309.32
476.56	35915.52
476.74	36371.92
476.92	37003.87
477.10	37626.45
477.28	38270.10
477.46	38672.67
477.64	38965.24
477.82	38927.79
478.00	39173.55
478.18	38122.65
478.36	38590.75
478.54	38375.42
478.72	38691.40
478.90	39716.55
479.08	40589.57
479.26	41212.15
479.44	41223.86
479.62	40381.26
479.80	40509.99
479.98	40718.30
480.16	41045.97
480.34	41008.53
480.52	41027.25
480.70	41174.70
480.88	41476.63
481.06	42164.75
481.24	42424.55
481.41	43681.42
481.59	43906.11
481.77	43597.16
481.95	43210.97
482.13	42918.40
482.31	42794.36
482.49	44100.37
482.67	43665.03
482.85	43941.22
483.03	44287.62
483.21	45027.23
483.39	45186.38
483.57	44332.09
483.74	43803.13
483.92	43751.63
484.10	44091.01
484.28	44821.26
484.46	45553.85
484.64	45612.36
484.82	45186.38
485.00	44758.06
485.18	43660.35
485.35	42934.79
485.53	39599.52
485.71	36077.02
485.89	35587.85
486.07	37413.46
486.25	40194.02
486.43	43398.21
486.61	43620.56
486.78	43632.27
486.96	43793.76
487.14	45394.69
487.32	45989.19
487.50	47290.52
487.68	48032.47
487.85	48596.54
488.03	49158.27
488.21	48147.16
488.39	47517.56
488.57	46843.48
488.75	46314.52
488.92	47653.31
489.10	49963.42
489.28	51374.76
489.46	52102.67
489.64	51653.28
489.81	52102.67
489.99	51833.50
490.17	51533.92
490.35	52385.87
490.53	51744.56
490.70	51091.55
490.88	51208.58
491.06	52074.58
491.24	52018.41
491.41	51295.18
491.59	49329.13
491.77	48488.88
491.95	49844.05
492.13	50806.01
492.30	52062.88
492.48	53291.66
492.66	53677.85
492.84	53577.20
493.01	53219.10
493.19	52797.80
493.37	52474.81
493.54	52123.73
493.72	52961.64
493.90	53942.33
494.08	54820.03
494.25	55140.68
494.43	55178.13
494.61	55561.98
494.79	55702.41
494.96	55412.18
495.14	54777.90
495.32	53705.93
495.49	53059.94
495.67	54368.30
495.85	55620.49
496.02	56247.75
496.20	56002.00
496.38	55482.40
496.55	55470.70
496.73	55746.88
496.91	56053.49
497.09	56362.44
497.26	56472.45
497.44	56048.81
497.62	55950.51
497.79	54829.39
497.97	53584.22
498.14	53628.69
498.32	54782.58
498.50	55791.35
498.67	56341.38
498.85	56268.82
499.03	56633.94
499.20	56676.07
499.38	56615.22
499.56	56573.09
499.73	56074.55
499.91	55554.96
500.08	54915.99
500.26	54405.75
500.44	54911.31
500.61	55463.67
500.79	55313.88
500.97	54930.03
501.14	54906.63
501.32	54623.42
501.49	54621.08
501.67	54958.12
501.84	55400.48
502.02	55896.67
502.20	56205.62
502.37	56285.20
502.55	56189.24
502.72	56891.40
502.90	57429.72
503.07	56767.35
503.25	56577.77
503.43	55781.99
503.60	55044.72
503.78	54433.84
503.95	54808.32
504.13	56435.00
504.30	57118.43
504.48	56945.23
504.65	56699.48
504.83	56673.73
505.01	57228.44
505.18	57394.62
505.36	58071.03
505.53	58134.23
505.71	58412.75
505.88	58497.01
506.06	57687.18
506.23	57537.39
506.41	57139.50
506.58	57352.49
506.76	57453.13
506.93	57223.76
507.11	57207.37
507.28	57104.39
507.46	56645.65
507.63	56048.81
507.81	56095.62
507.98	56140.09
508.16	56776.72
508.33	57460.15
508.50	57733.99
508.68	57888.47
508.85	58422.11
509.03	58534.46
509.20	58408.07
509.38	57453.13
509.55	56718.20
509.73	56875.02
509.90	57347.81
510.08	57736.34
510.25	57818.25
510.42	57577.18
510.60	57635.69
510.77	57607.61
510.95	58323.81
511.12	58529.78
511.30	58681.91
511.47	58749.79
511.64	58754.47
511.82	58536.80
511.99	57710.59
512.17	57481.22
512.34	56889.06
512.51	57155.88
512.69	57153.54
512.86	57485.90
513.04	57888.47
513.21	57855.70
513.38	57619.31
513.56	56954.60
513.73	56341.38
513.90	56816.50
514.08	56832.89
514.25	56851.61
514.43	57378.23
514.60	57434.41
514.77	57546.75
514.95	57593.56
515.12	57387.60
515.29	57668.46
515.47	58328.49
515.64	58379.98
515.81	58005.50
515.99	57387.60
516.16	55880.29
516.33	53518.69
516.51	51943.51
516.68	51501.15
516.85	50873.88
517.03	51426.25
517.20	53951.69
517.37	56629.26
517.54	57556.11
517.72	57017.79
517.89	54672.57
518.06	52165.86
518.24	52575.45
518.41	54717.04
518.58	55906.04
518.75	56081.58
518.93	56516.92
519.10	56402.23
519.27	56914.81
519.45	57155.88
519.62	57883.79
519.79	58150.61
519.96	58026.56
520.14	57504.62
520.31	56432.66
520.48	56591.81
520.65	56750.97
520.83	58019.54
521.00	58220.83
521.17	57961.03
521.34	57539.73
521.52	57853.36
521.69	58459.56
521.86	58871.49
522.03	58468.92
522.20	57317.38
522.38	56570.75
522.55	56442.02
522.72	56896.08
522.89	57102.05
523.07	57162.90
523.24	57836.98
523.41	58590.63
523.58	58539.14
523.75	59297.47
523.92	58976.82
524.10	59089.16
524.27	58862.13
524.44	58642.12
524.61	58501.69
524.78	58433.81
524.96	58309.77
525.13	58333.17
525.30	58457.22
525.47	58908.94
525.64	58836.39
525.81	58185.72
525.98	56963.96
526.16	55288.13
526.33	54667.89
526.50	54312.13
526.67	53921.26
526.84	54866.84
527.01	55496.44
527.18	56474.79
527.36	57633.35
527.53	58171.67
527.70	58478.28
527.87	57806.55
528.04	57415.68
528.21	57780.81
528.38	58461.90
528.55	59121.93
528.72	59414.50
528.89	59613.44
529.07	59276.41
529.24	58663.19
529.41	58017.20
529.58	57296.31
529.75	57513.98
529.92	57918.90
530.09	58286.36
530.26	58791.92
530.43	59138.32
530.60	59082.14
530.77	59444.93
530.94	59557.27
531.11	59089.16
531.28	58672.55
531.46	58527.44
531.63	58653.82
531.80	58141.25
531.97	58220.83
532.14	57504.62
532.31	56392.87
532.48	55948.17
532.65	55807.73
532.82	56474.79
532.99	57757.40
533.16	57991.45
533.33	58733.40
533.50	58246.57
533.67	57687.18
533.84	57546.75
534.01	57616.97
534.18	57623.99
534.35	57968.05
534.52	57654.42
534.69	58234.87
534.86	58251.25
535.03	58447.86
535.20	59011.93
535.37	59290.45
535.54	59365.35
535.71	59164.06
535.88	58735.74
536.05	58136.57
536.22	57881.45
536.38	57432.07
536.55	57158.22
536.72	56610.54
536.89	56580.11
537.06	57343.12
537.23	58106.14
537.40	58220.83
537.57	58316.79
537.74	58138.91
537.91	57996.13
538.08	58145.93
538.25	57986.77
538.42	58277.00
538.59	57986.77
538.75	57158.22
538.92	57240.14
539.09	57326.74
539.26	56636.28
539.43	56678.41
539.60	56736.93
539.77	57052.90
539.94	56821.19
540.11	56104.98
540.28	55662.62
540.44	55599.43
540.61	55901.36
540.78	56095.62
540.95	56708.84
541.12	57095.03
541.29	57237.80
541.46	57499.94
541.62	57602.92
541.79	57359.51
541.96	57036.51
542.13	56746.29
542.30	57020.13
542.47	57350.15
542.63	56924.17
542.80	56772.03
542.97	57151.20
543.14	57045.88
543.31	56591.81
543.48	57371.21
543.64	58014.86
543.81	58192.74
543.98	58134.23
544.15	57649.74
544.32	56821.19
544.48	56992.04
544.65	57528.03
544.82	57956.35
544.99	57558.45
545.16	57125.46
545.32	57045.88
545.49	57904.85
545.66	58138.91
545.83	57687.18
546.00	57256.53
546.16	57123.11
546.33	57127.80
546.50	57038.86
546.67	57556.11
546.83	57064.60
547.00	57200.35
547.17	56383.51
547.34	56023.06
547.50	55920.08
547.67	56418.61
547.84	56362.44
548.00	56825.87
548.17	57282.27
548.34	56935.87
548.51	57099.71
548.67	57270.57
548.84	57186.31
549.01	57078.64
549.18	56956.94
549.34	56865.66
549.51	56975.66
549.68	56715.86
549.84	56619.90
550.01	56659.69
550.18	56516.92
550.34	56643.30
550.51	56413.93
550.68	56722.88
550.84	56133.07
551.01	56465.42
551.18	56280.52
551.34	56554.36
551.51	56844.59
551.68	57190.99
551.84	57212.06
552.01	56921.83
552.18	56746.29
552.34	55959.87
552.51	55599.43
552.68	55744.54
552.84	56104.98
553.01	56460.74
553.18	56236.05
553.34	56186.90
553.51	56339.04
553.67	56612.88
553.84	56809.48
554.01	56655.01
554.17	56624.58
554.34	56451.38
554.51	56619.90
554.67	57322.06
554.84	56875.02
555.00	56437.34
555.17	56191.58
555.33	56460.74
555.50	56360.10
555.67	56294.56
555.83	56247.75
556.00	55639.22
556.16	55863.91
556.33	55426.23
556.50	55117.28
556.66	55412.18
556.83	54972.16
556.99	55011.95
557.16	55206.22
557.32	55714.11
557.49	55931.78
557.65	55650.92
557.82	55606.45
557.98	55613.47
558.15	54930.03
558.32	54103.82
558.48	53542.10
558.65	53584.22
558.81	53932.96
558.98	54358.94
559.14	54614.06
559.31	54553.21
559.47	54426.82
559.64	54148.29
559.80	53904.88
559.97	53804.24
560.13	54681.94
560.30	55295.16
560.46	55618.15
560.63	56037.11
560.79	55969.23
560.96	55772.63
561.12	54480.65
561.29	53488.26
561.45	53614.65
561.61	54286.39
561.78	54951.10
561.94	54422.14
562.11	54281.70
562.27	54246.60
562.44	54590.66
562.60	54869.18
562.77	55224.94
562.93	54990.89
563.10	54899.61
563.26	54270.00
563.42	54494.69
563.59	54157.66
563.75	54134.25
563.92	54394.05
564.08	54141.27
564.24	54335.54
564.41	54543.84
564.57	54457.24
564.74	54174.04
564.90	54302.77
565.07	54033.61
565.23	53748.06
565.39	52842.27
565.56	52732.27
565.72	52690.14
565.88	52907.81
566.05	53045.90
566.21	53373.58
566.38	53497.62
566.54	53535.07
566.70	53837.00
566.87	54431.50
567.03	54028.93
567.19	54447.88
567.36	54031.27
567.52	53778.49
567.68	53677.85
567.85	53095.05
568.01	52793.12
568.17	52196.29
568.34	52329.70
568.50	52381.19
568.66	52420.98
568.83	52584.82
568.99	52750.99
569.15	52935.90
569.32	52907.81
569.48	52624.60
569.64	52533.32
569.81	52257.14
569.97	51882.66
570.13	51870.95
570.30	51498.81
570.46	51143.05
570.62	50665.58
570.78	50539.19
570.95	50763.88
571.11	51435.61
571.27	51784.35
571.43	51987.98
571.60	52210.33
571.76	52449.06
571.92	52498.22
572.09	52858.66
572.25	52882.06
572.41	52772.06
572.57	52722.91
572.74	52989.73
572.90	52065.22
573.06	52100.32
573.22	52100.32
573.38	52294.59
573.55	52542.69
573.71	52589.50
573.87	52397.57
574.03	51908.40
574.20	52268.84
574.36	51601.79
574.52	51365.40
574.68	51463.70
574.84	50859.84
575.01	50801.33
575.17	50326.20
575.33	50667.92
575.49	51016.66
575.65	51276.46
575.82	50997.93
575.98	50492.38
576.14	50831.75
576.30	51302.20
576.46	51309.22
576.62	51178.15
576.79	51051.76
576.95	50703.03
577.11	50593.02
577.27	50904.31
577.43	50958.14
577.59	50581.32
577.75	50005.55
577.92	49516.37
578.08	49343.17
578.24	48823.58
578.40	49511.69
578.56	50042.99
578.72	50087.46
578.88	50394.07
579.04	50438.54
579.21	50270.03
579.37	50525.14
579.53	50632.81
579.69	50686.64
579.85	50759.20
580.01	50543.87
580.17	50000.86
580.33	49530.42
580.49	49820.64
580.65	50227.90
580.82	50447.91
580.98	50368.33
581.14	50218.53
581.30	50775.58
581.46	50562.59
581.62	50698.34
581.78	50270.03
581.94	50897.29
582.10	50920.70
582.26	50691.32
582.42	50827.07
582.58	51042.40
582.74	50546.21
582.90	50258.32
583.06	50595.36
583.22	50211.51
583.38	50050.02
583.54	50117.89
583.70	50199.81
583.86	50398.76
584.02	49883.84
584.18	50192.79
584.34	49834.69
584.50	49687.23
584.66	49684.89
584.82	49427.43
584.98	49226.15
585.14	48938.26
585.30	48034.81
