SpectraSuite Data File
++++++++++++++++++++++++++++++++++++
Date: Mon Oct 07 14:55:01 GMT-05:00 2013
User: price-jones
Dark Spectrum Present: No
Reference Spectrum Present: No
Number of Sampled Component Spectra: 1
Spectrometers: USB2+H05261
Integration Time (usec): 10000 (USB2+H05261)
Spectra Averaged: 1 (USB2+H05261)
Boxcar Smoothing: 0 (USB2+H05261)
Correct for Electrical Dark: No (USB2+H05261)
Strobe/Lamp Enabled: No (USB2+H05261)
Correct for Detector Non-linearity: No (USB2+H05261)
Correct for Stray Light: No (USB2+H05261)
Number of Pixels in Processed Spectrum: 2048
>>>>>Begin Processed Spectral Data<<<<<
365.73	0.00
365.92	0.00
366.12	0.00
366.32	0.00
366.52	0.00
366.72	0.00
366.91	0.00
367.11	0.00
367.31	0.00
367.51	0.00
367.70	0.00
367.90	0.00
368.10	0.00
368.30	0.00
368.49	0.00
368.69	0.00
368.89	0.00
369.09	0.00
369.28	0.00
369.48	0.00
369.68	0.00
369.87	0.00
370.07	0.00
370.27	0.00
370.47	301.93
370.66	2267.98
370.86	2698.64
371.06	2843.75
371.25	2750.13
371.45	2565.23
371.65	2466.92
371.84	2214.15
372.04	2385.01
372.24	2693.96
372.44	2789.92
372.63	2534.80
372.83	2424.80
373.03	2104.14
373.22	2064.35
373.42	2190.74
373.62	2628.42
373.81	2628.42
374.01	2558.21
374.21	2300.75
374.40	2071.37
374.60	2338.20
374.79	2787.58
374.99	3045.04
375.19	3300.16
375.38	3330.58
375.58	3009.93
375.78	3098.87
375.97	3117.59
376.17	3229.94
376.37	3272.07
376.56	3363.35
376.76	3428.88
376.95	3726.13
377.15	4070.19
377.35	4156.79
377.54	4304.25
377.74	4402.55
377.93	4507.87
378.13	4170.83
378.33	3948.48
378.52	3836.14
378.72	3672.30
378.91	3684.00
379.11	3555.27
379.31	3251.00
379.50	3318.88
379.70	3730.81
379.89	4093.60
380.09	4212.96
380.28	4430.63
380.48	4184.88
380.68	4344.03
380.87	4028.06
381.07	3801.03
381.26	3496.76
381.46	3398.46
381.65	3192.49
381.85	3063.76
382.04	2965.46
382.24	2848.43
382.43	2693.96
382.63	2616.72
382.83	2647.15
383.02	2654.17
383.22	2640.12
383.41	2633.10
383.61	3016.95
383.80	3311.86
384.00	3709.75
384.19	4257.43
384.39	4285.52
384.58	4280.84
384.78	4053.81
384.97	4250.41
385.17	3817.41
385.36	3791.67
385.56	3599.74
385.75	3786.99
385.95	4334.67
386.14	4507.87
386.34	4383.82
386.53	4170.83
386.72	4009.34
386.92	4081.89
387.11	4479.79
387.31	4498.51
387.50	4538.30
387.70	4184.88
387.89	4271.48
388.09	4358.08
388.28	4428.29
388.48	4432.97
388.67	4905.76
388.86	5303.65
389.06	5607.92
389.25	5991.77
389.45	6031.56
389.64	5968.37
389.84	5760.06
390.03	5895.81
390.22	5912.19
390.42	6155.61
390.61	6363.92
390.81	6810.96
391.00	7052.03
391.19	6761.81
391.39	6534.78
391.58	6202.42
391.78	5713.25
391.97	5783.46
392.16	5219.39
392.36	4554.68
392.55	3625.49
392.75	2679.91
392.94	2370.96
393.13	2569.91
393.33	3300.16
393.52	4231.69
393.71	4816.82
393.91	5331.74
394.10	5832.62
394.29	6413.07
394.49	6960.75
394.68	7344.60
394.88	7056.72
395.07	7595.04
395.26	7435.88
395.46	7236.94
395.65	6609.67
395.84	5748.36
396.04	4713.84
396.23	3936.78
396.42	3393.78
396.62	3389.10
396.81	4236.37
397.00	5308.34
397.19	6593.29
397.39	7845.48
397.58	8442.31
397.77	8933.82
397.97	9193.62
398.16	9465.13
398.35	9783.44
398.55	10115.80
398.74	10424.75
398.93	10349.85
399.12	10438.79
399.32	9753.01
399.51	10408.36
399.70	10906.90
399.90	10693.91
400.09	10848.38
400.28	10427.09
400.47	10731.36
400.67	11218.19
400.86	11459.26
401.05	11683.95
401.24	11571.61
401.44	12013.97
401.63	11985.88
401.82	11866.52
402.01	12065.46
402.21	12521.87
402.40	12283.13
402.59	11623.10
402.78	11147.97
402.97	11147.97
403.17	11850.13
403.36	12208.23
403.55	12477.40
403.74	12638.89
403.93	11726.08
404.13	10888.17
404.32	11316.49
404.51	11669.91
404.70	12372.07
404.89	12229.30
405.09	12098.23
405.28	11686.29
405.47	11880.56
405.66	11950.78
405.85	11295.43
406.05	11302.45
406.24	11424.15
406.43	12056.10
406.62	12285.47
406.81	12456.33
407.00	12030.35
407.20	11674.59
407.39	11733.11
407.58	12512.50
407.77	12924.44
407.96	13198.28
408.15	13387.86
408.34	13565.74
408.54	14097.05
408.73	14373.23
408.92	13886.40
409.11	13060.19
409.30	12781.67
409.49	11918.01
409.68	11344.58
409.87	11164.36
410.07	12067.80
410.26	12664.64
410.45	13626.60
410.64	13811.50
410.83	14223.44
411.02	14459.83
411.21	15073.05
411.40	14981.77
411.59	14995.81
411.78	15054.33
411.98	15218.16
412.17	15035.60
412.36	14698.56
412.55	15087.09
412.74	14464.51
412.93	13998.74
413.12	14614.30
413.31	15742.44
413.50	16355.66
413.69	15936.71
413.88	15349.23
414.07	15068.37
414.26	15728.40
414.45	16123.95
414.64	16025.65
414.83	15618.39
415.02	15543.50
415.22	15646.48
415.41	16388.43
415.60	16510.14
415.79	17123.36
415.98	17425.29
416.17	17074.21
416.36	16870.58
416.55	16753.55
416.74	16030.33
416.93	15845.43
417.12	15878.19
417.31	16175.44
417.50	16297.15
417.69	16896.33
417.88	16709.08
418.07	16453.97
418.26	16226.93
418.45	16746.53
418.64	17296.56
418.83	17888.71
419.02	17341.03
419.21	16940.80
419.39	16444.60
419.58	15819.68
419.77	16449.28
419.96	16966.54
420.15	17872.33
420.34	18427.04
420.53	18565.13
420.72	19391.34
420.91	18808.54
421.10	18487.89
421.29	18558.11
421.48	18319.37
421.67	18750.03
421.86	18061.91
422.05	16308.85
422.24	15054.33
422.43	15946.07
422.61	17275.49
422.80	18118.09
422.99	17795.09
423.18	17118.68
423.37	17301.24
423.56	17425.29
423.75	17514.23
423.94	18225.75
424.13	16879.94
424.32	17338.69
424.50	17348.05
424.69	17226.34
424.88	17542.32
425.07	17427.63
425.26	16938.46
425.45	16435.24
425.64	16554.61
425.83	16968.88
426.01	17771.69
426.20	17727.22
426.39	17338.69
426.58	16035.01
426.77	15187.74
426.96	15054.33
427.15	15400.72
427.33	17231.02
427.52	17102.29
427.71	17483.80
427.90	17179.53
428.09	16943.14
428.28	16264.38
428.46	15641.80
428.65	15742.44
428.84	16367.37
429.03	16505.46
429.22	15653.50
429.40	14312.38
429.59	12954.87
429.78	11817.36
429.97	12074.82
430.16	11866.52
430.34	11871.20
430.53	12163.76
430.72	13055.51
430.91	14441.11
431.10	16901.01
431.28	19447.51
431.47	20959.50
431.66	20666.93
431.85	18122.77
432.03	16882.28
432.22	16819.09
432.41	18298.31
432.60	19569.22
432.79	19978.81
432.97	20369.68
433.16	19445.17
433.35	17516.57
433.54	16152.04
433.72	15625.42
433.91	16479.71
434.10	18431.72
434.28	19349.21
434.47	20383.73
434.66	19302.40
434.85	19005.15
435.03	19648.80
435.22	19704.97
435.41	20922.05
435.59	20872.90
435.78	21170.15
435.97	21720.17
436.16	21680.38
436.34	21144.40
436.53	21156.10
436.72	21095.25
436.90	20053.71
437.09	19908.60
437.28	19613.69
437.46	20535.86
437.65	19728.38
437.84	18384.91
438.02	17273.15
438.21	17820.84
438.40	18401.29
438.58	19852.42
438.77	20257.34
438.96	20493.73
439.14	21785.71
439.33	22174.24
439.52	22129.77
439.70	21380.79
439.89	20933.75
440.08	20236.27
440.26	20486.71
440.45	21373.77
440.63	23166.62
440.82	24095.82
441.01	23489.62
441.19	23524.72
441.38	24159.01
441.57	24854.15
441.75	24940.75
441.94	25228.63
442.12	25034.37
442.31	25479.07
442.50	25401.83
442.68	24570.94
442.87	24615.41
443.05	24423.49
443.24	24790.95
443.43	25408.86
443.61	25582.06
443.80	26487.84
443.98	25001.60
444.17	24292.42
444.35	26045.48
444.54	26899.78
444.73	25972.92
444.91	24524.13
445.10	23798.57
445.28	22977.04
445.47	22984.06
445.65	22965.34
445.84	23992.83
446.02	24482.00
446.21	24800.32
446.39	24884.58
446.58	25476.73
446.77	25881.64
446.95	25731.85
447.14	26731.26
447.32	26808.50
447.51	26256.13
447.69	25263.74
447.88	25254.38
448.06	25591.42
448.25	26033.78
448.43	26118.04
448.62	25682.70
448.80	25399.49
448.99	25458.01
449.17	26228.04
449.36	26705.51
449.54	27014.46
449.73	27349.16
449.91	27798.54
450.10	28002.17
450.28	28166.01
450.46	28596.67
450.65	28811.99
450.83	28308.78
451.02	27985.79
451.20	27559.81
451.39	27789.18
451.57	27934.29
451.76	27854.72
451.94	27138.51
452.13	26792.11
452.31	25062.46
452.49	24341.57
452.68	24926.71
452.86	25207.57
453.05	25546.95
453.23	27035.53
453.42	26927.86
453.60	27552.79
453.78	27454.48
453.97	27222.77
454.15	26764.03
454.34	25895.69
454.52	25858.24
454.70	25696.74
454.89	26733.60
455.07	26955.95
455.26	26913.82
455.44	28063.02
455.62	28524.11
455.81	28187.07
455.99	28367.29
456.17	28779.23
456.36	29179.46
456.54	29259.04
456.73	28865.83
456.91	29331.59
457.09	29486.07
457.28	30080.56
457.46	28816.68
457.64	28350.91
457.83	28013.87
458.01	27646.41
458.19	28435.17
458.38	28716.03
458.56	29757.57
458.74	29432.24
458.93	29041.37
459.11	28311.12
459.29	27892.16
459.48	28622.41
459.66	28409.42
459.84	28313.46
460.03	29106.90
460.21	29605.44
460.39	30143.76
460.57	29270.74
460.76	29982.26
460.94	30162.48
461.12	29912.05
461.31	30192.91
461.49	29823.11
461.67	29563.31
461.85	30562.72
462.04	30309.94
462.22	30340.36
462.40	30536.97
462.59	29919.07
462.77	30164.82
462.95	30354.41
463.13	29738.85
463.32	29600.76
463.50	29439.26
463.68	29603.10
463.86	29736.51
464.05	28950.09
464.23	28364.95
464.41	28889.23
464.59	28486.66
464.78	29921.41
464.96	29668.63
465.14	28936.04
465.32	30354.41
465.50	30834.22
465.69	31335.09
465.87	30438.67
466.05	29474.37
466.23	27716.62
466.41	27630.02
466.60	28699.65
466.78	28524.11
466.96	29205.20
467.14	29385.43
467.32	29680.33
467.51	30017.37
467.69	28383.68
467.87	29083.50
468.05	29759.91
468.23	29766.93
468.41	29151.37
468.60	29766.93
468.78	30405.90
468.96	30134.40
469.14	29724.80
469.32	30508.88
469.50	28662.20
469.69	29500.11
469.87	28912.64
470.05	28877.53
470.23	28844.76
470.41	29408.83
470.59	29020.30
470.77	29366.70
470.95	30188.23
471.14	30469.09
471.32	30806.13
471.50	31817.24
471.68	32456.21
471.86	32467.91
472.04	31840.65
472.22	32304.07
472.40	31281.26
472.58	30923.16
472.77	31232.11
472.95	31204.02
473.13	32004.49
473.31	30363.77
473.49	30738.26
473.67	31728.30
473.85	31948.31
474.03	33338.59
474.21	33921.38
474.39	33556.26
474.57	33537.54
474.75	33755.21
474.93	33106.88
475.12	32868.14
475.30	33326.89
475.48	32414.08
475.66	32505.36
475.84	32046.62
476.02	32081.72
476.20	32198.75
476.38	32814.31
476.56	34036.07
476.74	34553.33
476.92	34649.29
477.10	34431.62
477.28	35592.53
477.46	35438.05
477.64	36495.97
477.82	36547.47
478.00	36800.24
478.18	35166.55
478.36	34923.13
478.54	35697.85
478.72	36095.74
478.90	37820.72
479.08	39185.25
479.26	38534.58
479.44	39030.77
479.62	38089.88
479.80	39051.84
479.98	38770.97
480.16	39393.56
480.34	38234.99
480.52	39541.01
480.70	39746.98
480.88	38948.85
481.06	40011.46
481.24	39887.41
481.41	40971.08
481.59	42005.59
481.77	41036.61
481.95	40257.21
482.13	40156.57
482.31	40509.99
482.49	41134.92
482.67	40823.62
482.85	40554.46
483.03	40945.33
483.21	42408.17
483.39	41490.68
483.57	40627.02
483.74	40903.20
483.92	41734.09
484.10	41710.69
484.28	41701.32
484.46	41923.68
484.64	43590.14
484.82	42494.77
485.00	41607.70
485.18	40610.64
485.35	39491.86
485.53	34707.80
485.71	32835.38
485.89	32758.14
486.07	35512.95
486.25	38199.88
486.43	40432.75
486.61	40271.26
486.78	40222.11
486.96	41476.63
487.14	42955.85
487.32	43363.11
487.50	44289.96
487.68	46038.34
487.85	46536.87
488.03	45469.59
488.21	45425.12
488.39	45024.89
488.57	43863.98
488.75	43421.62
488.92	45682.58
489.10	47641.60
489.28	49052.95
489.46	50178.75
489.64	50101.51
489.81	50031.29
489.99	48783.79
490.17	49045.93
490.35	49558.50
490.53	48608.25
490.70	48093.33
490.88	48100.35
491.06	49879.16
491.24	49921.29
491.41	48348.45
491.59	46349.63
491.77	46607.09
491.95	48348.45
492.13	49914.26
492.30	50726.43
492.48	51220.28
492.66	51732.86
492.84	51433.27
493.01	50934.74
493.19	50838.78
493.37	50071.08
493.54	50813.03
493.72	51550.30
493.90	52154.16
494.08	52523.96
494.25	52512.26
494.43	53092.71
494.61	53993.82
494.79	53656.78
494.96	53727.00
495.14	53509.33
495.32	52006.70
495.49	52149.48
495.67	53450.81
495.85	54323.83
496.02	54623.42
496.20	54344.90
496.38	54113.19
496.55	53975.09
496.73	54712.36
496.91	54815.35
497.09	54473.63
497.26	54908.97
497.44	54412.77
497.62	53448.47
497.79	52568.43
497.97	51620.52
498.14	52547.37
498.32	54087.44
498.50	54085.10
498.67	53851.05
498.85	54471.29
499.03	54979.18
499.20	55320.90
499.38	54719.38
499.56	54436.18
499.73	53982.12
499.91	53682.53
500.08	52921.85
500.26	52320.34
500.44	53415.71
500.61	53949.35
500.79	53294.00
500.97	53806.58
501.14	52388.21
501.32	52289.91
501.49	52666.73
501.67	52767.38
501.84	53261.23
502.02	54082.76
502.20	55016.63
502.37	55042.38
502.55	54927.69
502.72	55224.94
502.90	55723.47
503.07	55503.46
503.25	54183.40
503.43	53338.47
503.60	52622.26
503.78	52788.44
503.95	53097.39
504.13	54611.72
504.30	55096.21
504.48	54452.56
504.65	54714.70
504.83	54986.21
505.01	55604.11
505.18	56032.42
505.36	56100.30
505.53	56317.97
505.71	56662.03
505.88	56491.17
506.06	55969.23
506.23	55789.01
506.41	55622.83
506.58	56161.15
506.76	56100.30
506.93	55271.75
507.11	55028.34
507.28	55306.86
507.46	54829.39
507.63	54932.37
507.81	53764.45
507.98	54562.57
508.16	55889.65
508.33	55781.99
508.50	55910.72
508.68	56500.53
508.85	57132.48
509.03	57167.58
509.20	56484.15
509.38	54976.84
509.55	54960.46
509.73	55475.38
509.90	55681.34
510.08	55973.91
510.25	55398.14
510.42	55737.52
510.60	56086.26
510.77	56640.96
510.95	56563.73
511.12	56666.71
511.30	57254.18
511.47	57532.71
511.64	57265.89
511.82	57443.77
511.99	56095.62
512.17	56271.16
512.34	55962.21
512.51	55770.28
512.69	56058.17
512.86	55992.64
513.04	56044.13
513.21	55536.23
513.38	54904.29
513.56	54401.07
513.73	54108.50
513.90	54960.46
514.08	54717.04
514.25	54548.53
514.43	55159.41
514.60	55674.32
514.77	55906.04
514.95	55814.76
515.12	55896.67
515.29	56229.03
515.47	57045.88
515.64	56753.31
515.81	56233.71
515.99	55091.53
516.16	53137.18
516.33	50438.54
516.51	50197.47
516.68	48854.00
516.85	48114.39
517.03	50433.86
517.20	52839.93
517.37	55077.49
517.54	56184.56
517.72	54564.91
517.89	51098.58
518.06	49663.83
518.24	51559.66
518.41	53446.13
518.58	54316.81
518.75	54326.17
518.93	54642.15
519.10	53860.41
519.27	54995.57
519.45	55395.80
519.62	56119.02
519.79	56217.33
519.96	55753.90
520.14	55203.88
520.31	53888.49
520.48	54789.60
520.65	55807.73
520.83	56254.78
521.00	56350.74
521.17	55807.73
521.34	55765.60
521.52	56261.80
521.69	56324.99
521.86	56783.74
522.03	56999.07
522.20	55288.13
522.38	54543.84
522.55	55051.74
522.72	55873.27
522.89	55161.75
523.07	55608.79
523.24	56285.20
523.41	57513.98
523.58	57726.97
523.75	57977.41
523.92	57453.13
524.10	57045.88
524.27	56832.89
524.44	56786.08
524.61	56470.11
524.78	57064.60
524.96	56797.78
525.13	57062.26
525.30	57219.08
525.47	57490.58
525.64	57050.56
525.81	56301.59
525.98	54335.54
526.16	53090.37
526.33	53549.12
526.50	52732.27
526.67	52910.15
526.84	53228.46
527.01	54227.87
527.18	54974.50
527.36	56079.24
527.53	56828.21
527.70	56072.21
527.87	54946.42
528.04	55938.80
528.21	56612.88
528.38	57310.36
528.55	58246.57
528.72	57588.88
528.89	57212.06
529.07	56788.42
529.24	55772.63
529.41	55695.39
529.58	55702.41
529.75	56430.32
529.92	56706.50
530.09	56743.95
530.26	57303.34
530.43	58113.16
530.60	57066.94
530.77	57537.39
530.94	57822.93
531.11	57057.58
531.28	57460.15
531.46	57361.85
531.63	56996.73
531.80	56486.49
531.97	55714.11
532.14	55793.69
532.31	54295.75
532.48	53921.26
532.65	53928.28
532.82	54822.37
532.99	56161.15
533.16	56769.69
533.33	56530.96
533.50	56720.54
533.67	56973.32
533.84	55868.59
534.01	56360.10
534.18	56507.55
534.35	56339.04
534.52	55501.12
534.69	56362.44
534.86	56996.73
535.03	57188.65
535.20	56856.29
535.37	57726.97
535.54	57993.79
535.71	57799.53
535.88	58143.59
536.05	56570.75
536.22	55908.38
536.38	55580.70
536.55	54492.35
536.72	54307.45
536.89	55182.81
537.06	55503.46
537.23	56343.72
537.40	56367.12
537.57	55894.33
537.74	56416.27
537.91	56254.78
538.08	55927.10
538.25	55882.63
538.42	56786.08
538.59	55863.91
538.75	54829.39
538.92	54560.23
539.09	54614.06
539.26	54857.48
539.43	55058.76
539.60	55264.73
539.77	55667.30
539.94	55442.61
540.11	54623.42
540.28	54101.48
540.44	53682.53
540.61	53792.53
540.78	54527.46
540.95	55374.73
541.12	55597.09
541.29	56149.45
541.46	56392.87
541.62	56147.11
541.79	55105.57
541.96	54405.75
542.13	54534.48
542.30	54890.24
542.47	55561.98
542.63	55030.68
542.80	55056.42
542.97	54677.25
543.14	54387.03
543.31	54321.49
543.48	55803.05
543.64	56177.54
543.81	57181.63
543.98	56868.00
544.15	54901.95
544.32	55639.22
544.48	55470.70
544.65	55538.57
544.82	56058.17
544.99	54342.56
545.16	53991.48
545.32	54417.46
545.49	55262.39
545.66	55381.76
545.83	55290.48
546.00	55700.07
546.16	55601.77
546.33	55585.38
546.50	55454.31
546.67	56186.90
546.83	54873.86
547.00	55784.33
547.17	54316.81
547.34	53291.66
547.50	53939.99
547.67	54925.35
547.84	55660.28
548.00	55430.91
548.17	55222.60
548.34	55363.03
548.51	55536.23
548.67	56278.18
548.84	55767.94
549.01	55786.67
549.18	55210.90
549.34	55377.08
549.51	55281.11
549.68	55210.90
549.84	54752.15
550.01	54258.30
550.18	54075.74
550.34	54391.71
550.51	54841.09
550.68	55054.08
550.84	54911.31
551.01	54129.57
551.18	54150.63
551.34	53591.25
551.51	55210.90
551.68	54756.83
551.84	54892.58
552.01	55077.49
552.18	54120.21
552.34	53326.77
552.51	53495.28
552.68	53277.61
552.84	53616.99
553.01	53832.32
553.18	54941.74
553.34	55063.44
553.51	54927.69
553.67	54440.86
553.84	53977.43
554.01	54501.71
554.17	53862.75
554.34	54511.08
554.51	54611.72
554.67	53834.66
554.84	53874.45
555.00	53867.43
555.17	54024.25
555.33	53579.54
555.50	52999.09
555.67	54064.03
555.83	53722.32
556.00	53509.33
556.16	52963.98
556.33	52449.06
556.50	53422.73
556.66	53560.82
556.83	52956.96
556.99	52573.11
557.16	53298.68
557.32	52790.78
557.49	52823.55
557.65	52776.74
557.82	53499.97
557.98	53869.77
558.15	52409.28
558.32	51327.95
558.48	51075.17
558.65	50948.78
558.81	51576.04
558.98	52411.62
559.14	52776.74
559.31	52282.89
559.47	51812.44
559.64	51370.08
559.80	50796.65
559.97	51880.31
560.13	53249.53
560.30	54035.95
560.46	54539.16
560.63	54747.47
560.79	54656.19
560.96	53418.05
561.12	52121.39
561.29	51435.61
561.45	51725.84
561.61	53249.53
561.78	52598.86
561.94	53272.93
562.11	53326.77
562.27	51966.91
562.44	52706.52
562.60	53043.56
562.77	53429.75
562.93	51999.68
563.10	52100.32
563.26	52065.22
563.42	52919.51
563.59	51999.68
563.75	52041.81
563.92	51957.55
564.08	51114.96
564.24	52416.30
564.41	51863.93
564.57	52521.62
564.74	52252.46
564.90	51288.16
565.07	51613.49
565.23	50688.98
565.39	50468.97
565.56	50642.17
565.72	50602.38
565.88	48928.90
566.05	51688.39
566.21	52526.30
566.38	51496.47
566.54	51547.96
566.70	52226.71
566.87	52051.17
567.03	51213.26
567.19	52556.73
567.36	52818.87
567.52	51594.77
567.68	50925.38
567.85	49762.13
568.01	50085.12
568.17	50639.83
568.34	51381.78
568.50	50761.54
568.66	51351.35
568.83	50024.27
568.99	49923.63
569.15	50183.43
569.32	50754.52
569.48	49635.74
569.64	49343.17
569.81	50021.93
569.97	49258.91
570.13	48856.34
570.30	48844.64
570.46	47587.77
570.62	46604.75
570.78	47004.98
570.95	48465.47
571.11	47962.26
571.27	47648.63
571.43	48177.59
571.60	47917.79
571.76	49694.25
571.92	49467.22
572.09	50361.31
572.25	50115.55
572.41	51402.85
572.57	50742.81
572.74	50990.91
572.90	51332.63
573.06	50471.31
573.22	50794.31
573.38	50499.40
573.55	51906.06
573.71	50653.87
573.87	50319.18
574.03	50321.52
574.20	49837.03
574.36	50155.34
574.52	48809.53
574.68	48428.02
574.84	47662.67
575.01	48301.64
575.17	48598.88
575.33	49146.57
575.49	49347.86
575.65	47882.68
575.82	48540.37
575.98	47976.30
576.14	49066.99
576.30	49509.35
576.46	47868.64
576.62	48481.86
576.79	48371.85
576.95	48318.02
577.11	48648.03
577.27	48947.62
577.43	48971.03
577.59	47655.65
577.75	46396.44
577.92	46611.77
578.08	47042.43
578.24	48081.63
578.40	47601.82
578.56	47119.66
578.72	47058.81
578.88	46724.11
579.04	47557.35
579.21	46944.12
579.37	47358.40
579.53	47791.40
579.69	46745.18
579.85	47236.69
580.01	47536.28
580.17	47086.90
580.33	47983.32
580.49	48685.48
580.65	46176.43
580.82	47138.39
580.98	48184.61
581.14	48193.97
581.30	47672.03
581.46	47264.78
581.62	47508.19
581.78	48444.41
581.94	48259.51
582.10	48910.17
582.26	48781.45
582.42	49036.56
582.58	46539.21
582.74	46494.74
582.90	46880.93
583.06	47271.80
583.22	47433.30
583.38	47838.21
583.54	47870.98
583.70	48425.68
583.86	47440.32
584.02	47805.44
584.18	47180.52
584.34	46232.60
584.50	45933.01
584.66	45787.90
584.82	47000.30
584.98	46831.78
585.14	45460.23
585.30	46141.32
