SpectraSuite Data File
++++++++++++++++++++++++++++++++++++
Date: Mon Oct 07 14:53:52 GMT-05:00 2013
User: price-jones
Dark Spectrum Present: No
Reference Spectrum Present: No
Number of Sampled Component Spectra: 1
Spectrometers: USB2+H05261
Integration Time (usec): 100000 (USB2+H05261)
Spectra Averaged: 1 (USB2+H05261)
Boxcar Smoothing: 0 (USB2+H05261)
Correct for Electrical Dark: No (USB2+H05261)
Strobe/Lamp Enabled: No (USB2+H05261)
Correct for Detector Non-linearity: No (USB2+H05261)
Correct for Stray Light: No (USB2+H05261)
Number of Pixels in Processed Spectrum: 2048
>>>>>Begin Processed Spectral Data<<<<<
365.73	0.00
365.92	0.00
366.12	0.00
366.32	0.00
366.52	0.00
366.72	0.00
366.91	0.00
367.11	0.00
367.31	0.00
367.51	0.00
367.70	0.00
367.90	0.00
368.10	0.00
368.30	0.00
368.49	0.00
368.69	0.00
368.89	0.00
369.09	0.00
369.28	0.00
369.48	0.00
369.68	0.00
369.87	0.00
370.07	0.00
370.27	0.00
370.47	545.34
370.66	2818.00
370.86	3339.94
371.06	3630.17
371.25	3627.83
371.45	3302.50
371.65	2876.52
371.84	2841.41
372.04	2881.20
372.24	3243.98
372.44	3566.98
372.63	3438.25
372.83	3171.43
373.03	2670.55
373.22	2562.89
373.42	2689.28
373.62	3192.49
373.81	3283.77
374.01	3356.33
374.21	3220.58
374.40	2740.77
374.60	2883.54
374.79	3335.26
374.99	3784.65
375.19	4140.41
375.38	4065.51
375.58	3887.63
375.78	3817.41
375.97	3922.74
376.17	4018.70
376.37	4046.79
376.56	4147.43
376.76	4451.70
376.95	4451.70
377.15	4882.36
377.35	5146.84
377.54	5289.61
377.74	5453.45
377.93	5441.75
378.13	5472.17
378.33	5233.44
378.52	4648.30
378.72	4458.72
378.91	4669.37
379.11	4315.95
379.31	4212.96
379.50	4009.34
379.70	4428.29
379.89	4957.25
380.09	5179.61
380.28	5392.59
380.48	5305.99
380.68	5308.34
380.87	5128.11
381.07	4931.51
381.26	4435.32
381.46	4088.92
381.65	4067.85
381.85	4133.39
382.04	3950.82
382.24	3466.33
382.43	3349.31
382.63	3176.11
382.83	3164.40
383.02	3236.96
383.22	3248.66
383.41	3353.99
383.61	3468.67
383.80	4014.02
384.00	4634.26
384.19	5048.54
384.39	5408.98
384.58	5444.09
384.78	5231.10
384.97	5128.11
385.17	5048.54
385.36	4650.64
385.56	4388.50
385.75	4777.03
385.95	5151.52
386.14	5408.98
386.34	5518.98
386.53	5408.98
386.72	4938.53
386.92	5064.92
387.11	5205.35
387.31	5481.53
387.50	5352.81
387.70	5256.84
387.89	5259.18
388.09	5151.52
388.28	5303.65
388.48	5282.59
388.67	5526.00
388.86	6335.83
389.06	6712.66
389.25	7014.59
389.45	7304.81
389.64	6911.60
389.84	6993.52
390.03	6841.39
390.22	6930.33
390.42	7243.96
390.61	7667.60
390.81	8084.21
391.00	8327.63
391.19	8203.58
391.39	8030.38
391.58	7515.46
391.78	7140.97
391.97	6815.64
392.16	6263.27
392.36	5785.80
392.55	4655.33
392.75	3634.85
392.94	3096.53
393.13	3023.97
393.33	3405.48
393.52	4430.63
393.71	5570.48
393.91	6289.02
394.10	6635.42
394.29	7506.10
394.49	7941.44
394.68	8688.07
394.88	8638.92
395.07	9156.18
395.26	8915.10
395.46	8725.52
395.65	8004.63
395.84	7176.08
396.04	6073.69
396.23	4905.76
396.42	4028.06
396.62	3892.31
396.81	4510.21
397.00	5867.72
397.19	7162.04
397.39	8856.59
397.58	9760.03
397.77	10469.22
397.97	10789.87
398.16	10967.75
398.35	11358.62
398.55	11660.55
398.74	11847.79
398.93	12484.42
399.12	12163.76
399.32	11864.18
399.51	11843.11
399.70	13006.36
399.90	12671.66
400.09	12877.63
400.28	12526.55
400.47	12685.70
400.67	13116.36
400.86	13584.47
401.05	13369.14
401.24	13600.85
401.44	14001.08
401.63	13809.16
401.82	14068.96
402.01	14090.02
402.21	14218.75
402.40	14291.31
402.59	13942.57
402.78	13172.54
402.97	12849.54
403.17	13413.61
403.36	13879.38
403.55	14626.01
403.74	14836.66
403.93	14417.70
404.13	13053.17
404.32	12966.57
404.51	13310.63
404.70	14473.87
404.89	14214.07
405.09	14483.24
405.28	13968.32
405.47	13907.46
405.66	13954.27
405.85	13441.70
406.05	12936.14
406.24	13170.19
406.43	13750.65
406.62	14373.23
406.81	14478.55
407.00	14317.06
407.20	13497.87
407.39	13963.64
407.58	14249.18
407.77	14684.52
407.96	15133.90
408.15	15482.64
408.34	15499.03
408.54	16322.90
408.73	16451.63
408.92	16107.57
409.11	15602.01
409.30	14588.56
409.49	14136.84
409.68	13331.69
409.87	12798.05
410.07	13696.82
410.26	14537.07
410.45	15414.77
410.64	15899.26
410.83	16322.90
411.02	16587.38
411.21	17341.03
411.40	17214.64
411.59	17050.80
411.78	17296.56
411.98	16854.20
412.17	17214.64
412.36	16989.95
412.55	16704.40
412.74	16517.16
412.93	16236.30
413.12	16107.57
413.31	17930.84
413.50	17991.70
413.69	18342.78
413.88	17926.16
414.07	16884.62
414.26	17762.33
414.45	17837.22
414.64	18190.64
414.83	17888.71
415.02	17860.63
415.22	17767.01
415.41	18068.94
415.60	18773.44
415.79	19403.04
415.98	19953.07
416.17	19777.53
416.36	19536.45
416.55	19302.40
416.74	18281.92
416.93	17818.50
417.12	17820.84
417.31	18207.03
417.50	18398.95
417.69	18834.29
417.88	19035.58
418.07	18553.43
418.26	18618.96
418.45	18546.40
418.64	19283.67
418.83	20135.63
419.02	19843.06
419.21	19559.86
419.39	18860.04
419.58	18118.09
419.77	17853.61
419.96	18824.93
420.15	19627.73
420.34	20503.09
420.53	20978.22
420.72	21296.53
420.91	21029.71
421.10	20673.95
421.29	20493.73
421.48	19861.79
421.67	21020.35
421.86	20519.48
422.05	19412.40
422.24	17252.09
422.43	17006.33
422.61	18326.39
422.80	20327.55
422.99	20039.67
423.18	19651.14
423.37	18991.11
423.56	19005.15
423.75	19543.47
423.94	19840.72
424.13	18874.08
424.32	18948.98
424.50	19180.69
424.69	18977.06
424.88	18710.24
425.07	18707.90
425.26	18920.89
425.45	18796.84
425.64	18246.82
425.83	18082.98
426.01	19557.52
426.20	19751.78
426.39	19978.81
426.58	18424.70
426.77	16931.44
426.96	16163.74
427.15	16840.15
427.33	18111.07
427.52	18878.76
427.71	19110.47
427.90	18941.96
428.09	18782.80
428.28	18546.40
428.46	17579.76
428.65	17350.39
428.84	17827.86
429.03	18019.78
429.22	17043.78
429.40	16489.07
429.59	14679.84
429.78	13013.38
429.97	13174.88
430.16	13362.12
430.34	13488.51
430.53	13247.43
430.72	13642.98
430.91	14878.79
431.10	17528.27
431.28	20372.02
431.47	22773.41
431.66	22628.30
431.85	20678.63
432.03	19164.31
432.22	18333.42
432.41	18726.63
432.60	21268.45
432.79	22024.44
432.97	22464.46
433.16	21806.77
433.35	19932.00
433.54	18071.28
433.72	16851.86
433.91	17287.20
434.10	19644.12
434.28	20769.91
434.47	21750.60
434.66	21586.76
434.85	21013.33
435.03	20732.47
435.22	21322.28
435.41	22867.03
435.59	22712.56
435.78	23154.92
435.97	23468.55
436.16	23913.25
436.34	23454.51
436.53	23014.49
436.72	23302.37
436.90	21532.93
437.09	21825.50
437.28	21116.31
437.46	22251.47
437.65	21825.50
437.84	20652.89
438.02	18972.38
438.21	19145.58
438.40	19976.47
438.58	21685.06
438.77	21947.20
438.96	22455.10
439.14	23187.69
439.33	23735.37
439.52	24077.09
439.70	23332.80
439.89	23012.15
440.08	22199.98
440.26	22253.81
440.45	23143.22
440.63	24922.02
440.82	26167.19
441.01	25731.85
441.19	25266.08
441.38	25764.62
441.57	26518.27
441.75	26822.54
441.94	26855.31
442.12	26668.06
442.31	27620.66
442.50	27281.28
442.68	26988.72
442.87	26630.62
443.05	26326.35
443.24	26506.57
443.43	27056.59
443.61	27910.89
443.80	28121.54
443.98	26682.11
444.17	26096.97
444.35	28280.69
444.54	28526.45
444.73	28044.30
444.91	27082.34
445.10	25792.70
445.28	24898.62
445.47	24620.10
445.65	24905.64
445.84	25097.56
446.02	26235.06
446.21	26672.74
446.39	27002.76
446.58	27023.83
446.77	27309.37
446.95	27655.77
447.14	28355.59
447.32	28994.56
447.51	28474.96
447.69	27080.00
447.88	26724.24
448.06	27384.27
448.25	28133.24
448.43	28423.47
448.62	27445.12
448.80	27030.85
448.99	27424.06
449.17	27805.56
449.36	27910.89
449.54	29118.60
449.73	28865.83
449.91	29474.37
450.10	30466.75
450.28	30721.87
450.46	30146.10
450.65	30740.60
450.83	30433.99
451.02	29589.05
451.20	29832.47
451.39	29291.80
451.57	29170.10
451.76	29514.16
451.94	29359.68
452.13	28584.96
452.31	27461.51
452.49	26150.81
452.68	26576.78
452.86	26487.84
453.05	27007.44
453.23	27505.98
453.42	28102.81
453.60	28858.81
453.78	29104.56
453.97	28725.39
454.15	29053.07
454.34	28023.23
454.52	28795.61
454.70	28116.86
454.89	27866.42
455.07	28037.28
455.26	28807.31
455.44	29418.19
455.62	30305.26
455.81	30340.36
455.99	30506.54
456.17	29612.46
456.36	30160.14
456.54	31103.38
456.73	30597.82
456.91	31318.71
457.09	31271.90
457.28	32308.76
457.46	30916.14
457.64	30485.48
457.83	29483.73
458.01	29125.63
458.19	29549.26
458.38	29855.87
458.56	30895.07
458.74	31150.19
458.93	30249.08
459.11	29900.34
459.29	29986.94
459.48	30073.54
459.66	29769.27
459.84	30099.29
460.03	30476.12
460.21	30609.53
460.39	31456.80
460.57	31208.70
460.76	31517.65
460.94	31784.48
461.12	31260.20
461.31	31545.74
461.49	31618.30
461.67	31393.61
461.85	32299.39
462.04	32357.91
462.22	32959.42
462.40	32053.64
462.59	31763.41
462.77	32158.96
462.95	32130.87
463.13	31482.55
463.32	31620.64
463.50	31173.60
463.68	31332.75
463.86	31480.21
464.05	30913.80
464.23	30403.56
464.41	30515.90
464.59	29448.62
464.78	31199.34
464.96	31119.76
465.14	30637.61
465.32	31316.37
465.50	32257.26
465.69	32304.07
465.87	31960.02
466.05	30920.82
466.23	29296.49
466.41	28900.94
466.60	30043.12
466.78	29757.57
466.96	30321.64
467.14	30796.77
467.32	31487.23
467.51	30911.46
467.69	29663.95
467.87	30260.79
468.05	31199.34
468.23	30979.33
468.41	30801.45
468.60	31192.32
468.78	31529.36
468.96	31096.36
469.14	31524.68
469.32	31747.03
469.50	30696.13
469.69	30642.29
469.87	30228.02
470.05	29654.59
470.23	30298.23
470.41	30059.50
470.59	30534.63
470.77	31049.55
470.95	31405.31
471.14	32100.45
471.32	31723.62
471.50	33539.88
471.68	33586.69
471.86	33708.40
472.04	34134.37
472.22	34328.64
472.40	32290.03
472.58	31828.95
472.77	31999.80
472.95	32505.36
473.13	33076.45
473.31	32252.58
473.49	32879.85
473.67	33046.02
473.85	33684.99
474.03	34218.63
474.21	33979.90
474.39	34675.04
474.57	35178.25
474.75	34492.47
474.93	34703.12
475.12	34043.09
475.30	33743.50
475.48	33862.87
475.66	34494.82
475.84	34033.73
476.02	34235.02
476.20	32828.35
476.38	34017.35
476.56	34937.18
476.74	35433.37
476.92	35571.46
477.10	35679.13
477.28	36989.83
477.46	37404.10
477.64	37593.68
477.82	37755.18
478.00	37738.80
478.18	37170.05
478.36	37277.71
478.54	37163.03
478.72	37242.60
478.90	37996.26
479.08	39002.69
479.26	39423.98
479.44	39718.89
479.62	39316.32
479.80	39316.32
479.98	39054.18
480.16	39966.99
480.34	39077.58
480.52	39992.73
480.70	40098.06
480.88	40301.68
481.06	40694.89
481.24	40758.09
481.41	42050.06
481.59	42878.61
481.77	42487.74
481.95	41617.07
482.13	41600.68
482.31	41305.77
482.49	42183.48
482.67	41972.83
482.85	42541.58
483.03	42958.19
483.21	43276.51
483.39	43100.97
483.57	42258.37
483.74	42263.05
483.92	42384.76
484.10	42665.63
484.28	43746.95
484.46	44175.27
484.64	44252.51
484.82	43360.76
485.00	42784.99
485.18	42611.79
485.35	40638.72
485.53	37610.07
485.71	34742.91
485.89	34033.73
486.07	35686.15
486.25	38859.91
486.43	41289.39
486.61	42071.13
486.78	42171.77
486.96	42141.35
487.14	43313.95
487.32	44598.91
487.50	45738.75
487.68	46796.67
487.85	47349.04
488.03	47122.01
488.21	46564.96
488.39	46038.34
488.57	45076.38
488.75	45034.25
488.92	46232.60
489.10	48243.12
489.28	50293.43
489.46	50815.37
489.64	50571.96
489.81	50719.41
489.99	50365.99
490.17	50464.29
490.35	50946.44
490.53	50506.42
490.70	49731.70
490.88	49778.51
491.06	50698.34
491.24	51037.72
491.41	49696.59
491.59	47885.02
491.77	47037.75
491.95	48254.82
492.13	49481.27
492.30	50925.38
492.48	51606.47
492.66	52589.50
492.84	52271.18
493.01	52137.77
493.19	51337.31
493.37	50815.37
493.54	50504.08
493.72	51292.84
493.90	52556.73
494.08	53588.91
494.25	53497.62
494.43	53717.64
494.61	54480.65
494.79	54602.36
494.96	54152.97
495.14	53591.25
495.32	52343.74
495.49	52074.58
495.67	52898.45
495.85	54408.09
496.02	54864.50
496.20	54639.81
496.38	54131.91
496.55	54150.63
496.73	54651.51
496.91	54693.64
497.09	55231.96
497.26	55215.58
497.44	54981.52
497.62	54195.10
497.79	53441.45
497.97	52172.88
498.14	52264.16
498.32	53375.92
498.50	54600.02
498.67	55011.95
498.85	54976.84
499.03	55070.46
499.20	55501.12
499.38	55365.37
499.56	55358.35
499.73	54670.23
499.91	54508.74
500.08	53769.13
500.26	53198.04
500.44	53202.72
500.61	54349.58
500.79	54164.68
500.97	53696.57
501.14	53474.22
501.32	53113.78
501.49	53549.12
501.67	53673.16
501.84	54010.20
502.02	54513.42
502.20	54859.82
502.37	54997.91
502.55	54794.28
502.72	55442.61
502.90	55910.72
503.07	55922.42
503.25	55416.86
503.43	54375.33
503.60	53631.04
503.78	52912.49
503.95	53354.85
504.13	55196.85
504.30	55718.79
504.48	55667.30
504.65	55372.39
504.83	55419.20
505.01	55786.67
505.18	56095.62
505.36	57085.67
505.53	56788.42
505.71	57305.68
505.88	57109.07
506.06	56470.11
506.23	56090.94
506.41	55618.15
506.58	56179.88
506.76	55955.19
506.93	55873.27
507.11	55749.22
507.28	55606.45
507.46	55341.97
507.63	54681.94
507.81	54471.29
507.98	54686.62
508.16	55473.04
508.33	56072.21
508.50	56608.20
508.68	56875.02
508.85	57333.76
509.03	57205.03
509.20	57216.74
509.38	56294.56
509.55	55765.60
509.73	55725.81
509.90	56154.13
510.08	56662.03
510.25	56381.16
510.42	56156.47
510.60	55910.72
510.77	56395.21
510.95	56860.97
511.12	57109.07
511.30	57457.81
511.47	57649.74
511.64	57403.98
511.82	57308.02
511.99	56692.46
512.17	55910.72
512.34	55426.23
512.51	55917.74
512.69	55854.54
512.86	56151.79
513.04	56699.48
513.21	56495.85
513.38	56261.80
513.56	55554.96
513.73	54752.15
513.90	55227.28
514.08	55430.91
514.25	55585.38
514.43	55875.61
514.60	55973.91
514.77	56013.70
514.95	56231.37
515.12	56128.39
515.29	56324.99
515.47	56669.05
515.64	57125.46
515.81	56659.69
515.99	56023.06
516.16	54759.17
516.33	52027.77
516.51	50424.50
516.68	49233.17
516.85	48870.39
517.03	49352.54
517.20	52453.75
517.37	54997.91
517.54	56292.22
517.72	55817.10
517.89	52896.11
518.06	50230.24
518.24	50969.85
518.41	53277.61
518.58	54562.57
518.75	54920.67
518.93	55030.68
519.10	54581.29
519.27	55402.82
519.45	55852.20
519.62	56341.38
519.79	56596.49
519.96	56591.81
520.14	56119.02
520.31	55187.49
520.48	55363.03
520.65	55550.27
520.83	56369.46
521.00	57041.20
521.17	56624.58
521.34	56074.55
521.52	56385.85
521.69	57155.88
521.86	57415.68
522.03	57116.09
522.20	55882.63
522.38	54733.43
522.55	54583.63
522.72	55470.70
522.89	55327.92
523.07	55711.77
523.24	56231.37
523.41	57090.35
523.58	57523.35
523.75	57827.62
523.92	57544.41
524.10	57577.18
524.27	57694.21
524.44	57291.63
524.61	57134.82
524.78	56954.60
524.96	57057.58
525.13	56638.62
525.30	57088.01
525.47	57616.97
525.64	57403.98
525.81	56617.56
525.98	55348.99
526.16	53497.62
526.33	53167.61
526.50	52807.17
526.67	52086.28
526.84	52910.15
527.01	53986.80
527.18	54735.77
527.36	56032.42
527.53	56652.67
527.70	56942.89
527.87	56399.89
528.04	56081.58
528.21	56259.46
528.38	57258.87
528.55	57860.38
528.72	57839.32
528.89	58052.31
529.07	57764.42
529.24	57057.58
529.41	56708.84
529.58	55868.59
529.75	55894.33
529.92	56432.66
530.09	57043.54
530.26	57750.38
530.43	57607.61
530.60	57872.09
530.77	58019.54
530.94	58033.58
531.11	57525.69
531.28	57176.95
531.46	56797.78
531.63	57127.80
531.80	57174.61
531.97	56584.79
532.14	56025.40
532.31	54827.05
532.48	54054.67
532.65	54010.20
532.82	55136.00
532.99	56254.78
533.16	56388.19
533.33	57230.78
533.50	56865.66
533.67	56243.07
533.84	55913.06
534.01	55821.78
534.18	56119.02
534.35	56472.45
534.52	56144.77
534.69	56636.28
534.86	56905.44
535.03	57043.54
535.20	57427.38
535.37	57968.05
535.54	57918.90
535.71	57570.16
535.88	57380.57
536.05	56423.29
536.22	56322.65
536.38	55945.83
536.55	55515.17
536.72	54735.77
536.89	54798.96
537.06	55732.84
537.23	56886.72
537.40	56643.30
537.57	56933.53
537.74	56310.95
537.91	56678.41
538.08	56093.28
538.25	56568.41
538.42	56879.70
538.59	56418.61
538.75	56023.06
538.92	55498.78
539.09	55344.31
539.26	55229.62
539.43	55136.00
539.60	55049.40
539.77	55409.84
539.94	55150.04
540.11	54543.84
540.28	53741.04
540.44	53879.13
540.61	54012.54
540.78	54239.57
540.95	55004.93
541.12	55253.03
541.29	55763.26
541.46	55922.42
541.62	55980.93
541.79	55695.39
541.96	55131.32
542.13	54976.84
542.30	55370.05
542.47	55564.32
542.63	55257.71
542.80	55110.25
542.97	55297.50
543.14	55154.72
543.31	55238.98
543.48	55662.62
543.64	56430.32
543.81	56783.74
543.98	56622.24
544.15	55770.28
544.32	55044.72
544.48	55093.87
544.65	55929.44
544.82	56341.38
544.99	55899.01
545.16	55526.87
545.32	55332.60
545.49	56048.81
545.66	56458.40
545.83	55962.21
546.00	55728.16
546.16	55215.58
546.33	55407.50
546.50	55477.72
546.67	56011.36
546.83	55157.06
547.00	55569.00
547.17	54815.35
547.34	54204.47
547.50	53968.07
547.67	54546.18
547.84	54618.74
548.00	55028.34
548.17	55419.20
548.34	55339.63
548.51	55323.24
548.67	55412.18
548.84	55416.86
549.01	55613.47
549.18	55351.33
549.34	55192.17
549.51	55182.81
549.68	55159.41
549.84	54997.91
550.01	54944.08
550.18	54796.62
550.34	54752.15
550.51	55147.70
550.68	55061.10
550.84	54227.87
551.01	54323.83
551.18	54450.22
551.34	54742.79
551.51	55018.97
551.68	55435.59
551.84	55316.22
552.01	55215.58
552.18	54817.69
552.34	54225.53
552.51	53998.50
552.68	53521.03
552.84	54239.57
553.01	54550.87
553.18	54356.60
553.34	54560.23
553.51	54621.08
553.67	54953.44
553.84	54948.76
554.01	54635.13
554.17	54529.80
554.34	54663.21
554.51	54885.56
554.67	55384.10
554.84	55215.58
555.00	54838.75
555.17	54478.31
555.33	54457.24
555.50	54506.40
555.67	54576.61
555.83	54342.56
556.00	53773.81
556.16	54134.25
556.33	53354.85
556.50	53270.59
556.66	53415.71
556.83	52912.49
556.99	53258.89
557.16	53572.52
557.32	53771.47
557.49	53975.09
557.65	53820.62
557.82	53724.66
557.98	53504.65
558.15	52971.00
558.32	52018.41
558.48	51246.03
558.65	51477.74
558.81	52222.03
558.98	52264.16
559.14	52472.47
559.31	52500.56
559.47	52474.81
559.64	52200.97
559.80	52011.38
559.97	51955.21
560.13	52303.95
560.30	53265.91
560.46	53853.39
560.63	54206.81
560.79	54110.85
560.96	53741.04
561.12	52505.24
561.29	51821.80
561.45	51278.80
561.61	52217.35
561.78	52624.60
561.94	52472.47
562.11	52264.16
562.27	52327.36
562.44	52879.72
562.60	52907.81
562.77	53034.20
562.93	52891.43
563.10	53165.27
563.26	52523.96
563.42	52582.48
563.59	51868.61
563.75	52065.22
563.92	52044.15
564.08	52097.98
564.24	52449.06
564.41	52626.95
564.57	52320.34
564.74	52317.99
564.90	52170.54
565.07	51777.33
565.23	51774.99
565.39	50735.79
565.56	50555.57
565.72	50246.62
565.88	50672.60
566.05	50747.50
566.21	51475.40
566.38	51274.12
566.54	51463.70
566.70	51847.55
566.87	52048.83
567.03	52158.84
567.19	52308.63
567.36	51922.44
567.52	51786.69
567.68	51349.01
567.85	50864.52
568.01	50284.07
568.17	49893.20
568.34	50148.32
568.50	49965.76
568.66	50124.91
568.83	50333.22
568.99	50548.55
569.15	50504.08
569.32	50576.64
569.48	50071.08
569.64	50253.64
569.81	49659.15
569.97	49965.76
570.13	49628.72
570.30	49331.47
570.46	48542.71
570.62	48161.20
570.78	47615.86
570.95	47959.92
571.11	49485.95
571.27	49237.85
571.43	49495.31
571.60	49979.80
571.76	50265.34
571.92	50258.32
572.09	50794.31
572.25	50092.15
572.41	50513.44
572.57	50440.89
572.74	50080.44
572.90	49815.96
573.06	49883.84
573.22	49797.24
573.38	49998.52
573.55	50026.61
573.71	50162.36
573.87	49825.32
574.03	49556.16
574.20	49617.02
574.36	49095.08
574.52	49095.08
574.68	48844.64
574.84	48697.19
575.01	47971.62
575.17	47412.23
575.33	48273.55
575.49	48404.62
575.65	48854.00
575.82	48643.35
575.98	47906.08
576.14	48406.96
576.30	48610.59
576.46	48837.62
576.62	48828.26
576.79	48540.37
576.95	48334.40
577.11	48123.75
577.27	48526.33
577.43	48804.85
577.59	47978.64
577.75	47505.85
577.92	47100.94
578.08	46405.80
578.24	46642.20
578.40	47161.79
578.56	47299.89
578.72	47182.86
578.88	47489.47
579.04	47503.51
579.21	48336.74
579.37	47746.93
579.53	48018.43
579.69	48336.74
579.85	48261.85
580.01	47856.93
580.17	47117.32
580.33	47232.01
580.49	47536.28
580.65	47739.91
580.82	47608.84
580.98	48062.90
581.14	47526.92
581.30	47723.52
581.46	47276.48
581.62	47700.12
581.78	47786.72
581.94	47980.98
582.10	47878.00
582.26	48102.69
582.42	48266.53
582.58	48336.74
582.74	47929.49
582.90	47700.12
583.06	47854.59
583.22	47742.25
583.38	47468.40
583.54	47756.29
583.70	47580.75
583.86	47751.61
584.02	47686.07
584.18	47557.35
584.34	47421.59
584.50	47248.39
584.66	46986.25
584.82	46581.34
584.98	46773.27
585.14	46010.25
585.30	45617.04
