SpectraSuite Data File
++++++++++++++++++++++++++++++++++++
Date: Mon Oct 07 14:53:33 GMT-05:00 2013
User: price-jones
Dark Spectrum Present: No
Reference Spectrum Present: No
Number of Sampled Component Spectra: 1
Spectrometers: USB2+H05261
Integration Time (usec): 100000 (USB2+H05261)
Spectra Averaged: 1 (USB2+H05261)
Boxcar Smoothing: 0 (USB2+H05261)
Correct for Electrical Dark: No (USB2+H05261)
Strobe/Lamp Enabled: No (USB2+H05261)
Correct for Detector Non-linearity: No (USB2+H05261)
Correct for Stray Light: No (USB2+H05261)
Number of Pixels in Processed Spectrum: 2048
>>>>>Begin Processed Spectral Data<<<<<
365.73	0.00
365.92	0.00
366.12	0.00
366.32	0.00
366.52	0.00
366.72	0.00
366.91	0.00
367.11	0.00
367.31	0.00
367.51	0.00
367.70	0.00
367.90	0.00
368.10	0.00
368.30	0.00
368.49	0.00
368.69	0.00
368.89	0.00
369.09	0.00
369.28	0.00
369.48	0.00
369.68	0.00
369.87	0.00
370.07	0.00
370.27	0.00
370.47	449.38
370.66	2944.39
370.86	3571.66
371.06	3840.82
371.25	3812.73
371.45	3391.44
371.65	3164.40
371.84	2972.48
372.04	3162.06
372.24	3581.02
372.44	3606.77
372.63	3595.06
372.83	3473.36
373.03	2871.84
373.22	2623.74
373.42	2750.13
373.62	3302.50
373.81	3609.11
374.01	3510.80
374.21	3192.49
374.40	2925.67
374.60	3150.36
374.79	3506.12
374.99	4114.66
375.19	4362.76
375.38	4432.97
375.58	3992.95
375.78	4011.68
375.97	4053.81
376.17	4383.82
376.37	4159.13
376.56	4428.29
376.76	4716.18
376.95	4936.19
377.15	5345.78
377.35	5530.69
377.54	5659.42
377.74	5872.40
377.93	5837.30
378.13	5863.04
378.33	5476.85
378.52	5172.58
378.72	4823.84
378.91	4816.82
379.11	4645.96
379.31	4456.38
379.50	4589.79
379.70	4823.84
379.89	5327.06
380.09	5490.90
380.28	5975.39
380.48	5923.90
380.68	5774.10
380.87	5563.45
381.07	5067.26
381.26	4830.87
381.46	4531.28
381.65	4475.10
381.85	4259.78
382.04	3929.76
382.24	3871.25
382.43	3637.19
382.63	3487.40
382.83	3616.13
383.02	3646.55
383.22	3461.65
383.41	3576.34
383.61	3779.97
383.80	4266.80
384.00	4884.70
384.19	5540.05
384.39	5928.58
384.58	5593.88
384.78	5645.37
384.97	5650.05
385.17	5366.85
385.36	4983.00
385.56	4983.00
385.75	4961.94
385.95	5427.70
386.14	5949.64
386.34	5949.64
386.53	5563.45
386.72	5394.93
386.92	5507.28
387.11	5701.54
387.31	6022.20
387.50	5820.91
387.70	5537.71
387.89	5598.56
388.09	5600.90
388.28	5598.56
388.48	5612.60
388.67	6057.31
388.86	6719.68
389.06	7321.20
389.25	7665.25
389.45	7889.95
389.64	7768.24
389.84	7754.19
390.03	7356.30
390.22	7536.52
390.42	7779.94
390.61	8138.04
390.81	8720.84
391.00	9020.42
391.19	8805.10
391.39	8622.53
391.58	8133.36
391.78	7581.00
391.97	7133.95
392.16	6841.39
392.36	6258.59
392.55	5146.84
392.75	4074.87
392.94	3276.75
393.13	3117.59
393.33	3765.92
393.52	4926.83
393.71	6223.48
393.91	6801.60
394.10	7295.45
394.29	8035.06
394.49	8631.90
394.68	9565.77
394.88	9432.36
395.07	9877.06
395.26	9568.11
395.46	9537.68
395.65	8664.66
395.84	7726.11
396.04	6483.28
396.23	5413.66
396.42	4519.57
396.62	4161.47
396.81	5008.75
397.00	6293.70
397.19	7782.28
397.39	9490.87
397.58	10651.78
397.77	11389.05
397.97	11690.98
398.16	11845.45
398.35	12374.41
398.55	12500.80
398.74	13090.62
398.93	13444.04
399.12	13125.72
399.32	12692.73
399.51	13268.50
399.70	13713.20
399.90	13748.31
400.09	13666.39
400.28	13729.58
400.47	13659.37
400.67	14637.71
400.86	14806.23
401.05	14754.74
401.24	14986.45
401.44	15080.07
401.63	15309.44
401.82	15115.18
402.01	15283.70
402.21	15468.60
402.40	15541.16
402.59	15044.96
402.78	14139.18
402.97	13851.29
403.17	14417.70
403.36	15234.55
403.55	15822.02
403.74	16226.93
403.93	15501.37
404.13	14462.17
404.32	14050.24
404.51	14663.46
404.70	15901.60
404.89	15550.52
405.09	15501.37
405.28	15129.22
405.47	14937.30
405.66	14733.67
405.85	14452.81
406.05	13994.06
406.24	14480.89
406.43	14899.85
406.62	15510.73
406.81	15737.76
407.00	15124.54
407.20	14789.85
407.39	14839.00
407.58	15389.02
407.77	16112.25
407.96	16652.91
408.15	16655.25
408.34	16992.29
408.54	17298.90
408.73	17977.65
408.92	17685.09
409.11	17130.38
409.30	16566.31
409.49	15396.04
409.68	14527.71
409.87	13947.25
410.07	14750.06
410.26	15957.77
410.45	16884.62
410.64	17514.23
410.83	17647.64
411.02	18464.49
411.21	19054.30
411.40	18824.93
411.59	18948.98
411.78	18794.50
411.98	18405.97
412.17	18993.45
412.36	18284.26
412.55	18588.53
412.74	17909.78
412.93	17853.61
413.12	17937.87
413.31	19583.26
413.50	19733.06
413.69	20187.12
413.88	19143.24
414.07	18972.38
414.26	18977.06
414.45	19843.06
414.64	19726.04
414.83	19929.66
415.02	19592.62
415.22	19438.15
415.41	19831.36
415.60	20407.13
415.79	21458.03
415.98	22003.38
416.17	21834.86
416.36	21202.91
416.55	21071.84
416.74	20252.66
416.93	19754.12
417.12	19517.73
417.31	20018.60
417.50	20320.53
417.69	20800.34
417.88	20711.40
418.07	20545.22
418.26	20460.96
418.45	20402.45
418.64	21029.71
418.83	22001.04
419.02	21827.84
419.21	21439.31
419.39	20758.21
419.58	19695.61
419.77	19208.78
419.96	20540.54
420.15	21366.75
420.34	22218.71
420.53	22822.56
420.72	23314.08
420.91	23316.42
421.10	22995.76
421.29	23077.68
421.48	21923.80
421.67	23019.17
421.86	22750.01
422.05	20973.54
422.24	18579.17
422.43	18340.44
422.61	20409.47
422.80	22050.19
422.99	22363.82
423.18	21490.80
423.37	21109.29
423.56	21067.16
423.75	21881.67
423.94	21949.54
424.13	20779.28
424.32	20851.83
424.50	21036.74
424.69	20617.78
424.88	21015.67
425.07	20858.85
425.26	20765.23
425.45	20720.76
425.64	19953.07
425.83	20240.95
426.01	21240.36
426.20	21874.65
426.39	21902.73
426.58	20156.69
426.77	18593.22
426.96	17865.31
427.15	18721.95
427.33	20046.69
427.52	20814.38
427.71	20954.82
427.90	20765.23
428.09	20809.70
428.28	20105.20
428.46	19466.24
428.65	19157.28
428.84	19410.06
429.03	20269.04
429.22	18635.35
429.40	18010.42
429.59	16468.01
429.78	14279.61
429.97	14494.94
430.16	14925.60
430.34	14663.46
430.53	14558.13
430.72	15091.77
430.91	16531.20
431.10	19372.61
431.28	22604.89
431.47	24840.11
431.66	25331.62
431.85	22836.61
432.03	20985.24
432.22	20039.67
432.41	20879.92
432.60	23241.52
432.79	24105.18
432.97	24727.76
433.16	24044.32
433.35	22160.19
433.54	19765.82
433.72	18633.00
433.91	19218.14
434.10	21577.40
434.28	23260.24
434.47	24093.47
434.66	23995.17
434.85	23255.56
435.03	23105.77
435.22	23798.57
435.41	25256.72
435.59	25315.23
435.78	25455.67
435.97	26087.61
436.16	26536.99
436.34	26092.29
436.53	25397.15
436.72	25383.11
436.90	24266.67
437.09	23997.51
437.28	23878.15
437.46	24500.73
437.65	24423.49
437.84	23103.43
438.02	20961.84
438.21	20776.94
438.40	21832.52
438.58	23887.51
438.77	24397.74
438.96	24896.28
439.14	25582.06
439.33	26270.17
439.52	27030.85
439.70	26192.94
439.89	25546.95
440.08	25160.76
440.26	24676.27
440.45	25680.36
440.63	27253.20
440.82	28638.80
441.01	28217.50
441.19	27772.80
441.38	28414.10
441.57	29750.55
441.75	30213.98
441.94	30394.20
442.12	29743.53
442.31	30436.33
442.50	30162.48
442.68	29869.92
442.87	29717.78
443.05	29418.19
443.24	29699.06
443.43	30094.61
443.61	31094.02
443.80	31517.65
443.98	29422.87
444.17	29507.13
444.35	31503.61
444.54	31693.19
444.73	31290.62
444.91	30003.33
445.10	28882.21
445.28	27683.86
445.47	27129.15
445.65	27531.72
445.84	28730.08
446.02	29338.62
446.21	29322.23
446.39	29778.64
446.58	30249.08
446.77	30682.08
446.95	31023.80
447.14	31707.24
447.32	32194.07
447.51	31920.23
447.69	30457.39
447.88	29675.65
448.06	30106.31
448.25	30927.84
448.43	31545.74
448.62	30639.95
448.80	30417.60
448.99	30890.39
449.17	31098.70
449.36	31168.91
449.54	31988.10
449.73	33144.33
449.91	33502.43
450.10	33956.49
450.28	34127.35
450.46	34136.71
450.65	34078.20
450.83	33879.25
451.02	33130.28
451.20	33280.08
451.39	33277.74
451.57	32907.93
451.76	32779.20
451.94	32650.47
452.13	31995.12
452.31	30455.05
452.49	29364.36
452.68	29336.27
452.86	29572.67
453.05	30033.75
453.23	30801.45
453.42	31534.04
453.60	32329.82
453.78	32500.68
453.97	32442.17
454.15	32416.42
454.34	31625.32
454.52	31796.18
454.70	31037.84
454.89	31634.68
455.07	31608.93
455.26	32393.01
455.44	33521.15
455.62	34286.51
455.81	34087.56
455.99	34157.78
456.17	33184.12
456.36	33509.45
456.54	34436.30
456.73	34216.29
456.91	34803.77
457.09	35030.80
457.28	35676.79
457.46	34614.18
457.64	34611.84
457.83	33006.23
458.01	32109.81
458.19	33324.55
458.38	33666.27
458.56	34646.95
458.74	34663.33
458.93	33722.44
459.11	33785.63
459.29	33586.69
459.48	33783.29
459.66	33305.82
459.84	34211.61
460.03	34064.16
460.21	34359.06
460.39	34852.92
460.57	35419.33
460.76	35538.69
460.94	35660.40
461.12	35117.40
461.31	35332.73
461.49	35065.91
461.67	34958.24
461.85	36385.97
462.04	35950.63
462.22	36615.34
462.40	36151.91
462.59	35751.68
462.77	35903.82
462.95	35840.62
463.13	35754.02
463.32	35534.01
463.50	34965.26
463.68	35159.53
463.86	35725.94
464.05	34787.38
464.23	34359.06
464.41	33729.46
464.59	33397.10
464.78	35098.67
464.96	34850.58
465.14	34199.91
465.32	35482.52
465.50	36128.51
465.69	36395.33
465.87	35728.28
466.05	35023.78
466.23	33654.56
466.41	32549.83
466.60	33303.48
466.78	33226.24
466.96	34209.27
467.14	34787.38
467.32	35255.49
467.51	35576.14
467.69	34000.96
467.87	34771.00
468.05	34838.87
468.23	34834.19
468.41	34717.17
468.60	35330.39
468.78	35012.07
468.96	34553.33
469.14	35763.39
469.32	35793.81
469.50	34469.07
469.69	34595.46
469.87	34382.47
470.05	33621.80
470.23	34155.44
470.41	34263.10
470.59	34766.32
470.77	34543.97
470.95	35459.12
471.14	36037.23
471.32	35487.20
471.50	37467.30
471.68	37879.23
471.86	38080.52
472.04	38548.62
472.22	38218.61
472.40	36856.42
472.58	36203.41
472.77	35873.39
472.95	36442.14
473.13	37851.14
473.31	36446.82
473.49	36734.71
473.67	37783.27
473.85	37600.71
474.03	38810.76
474.21	38593.09
474.39	38763.95
474.57	39187.59
474.75	39140.78
474.93	38724.16
475.12	38096.90
475.30	38239.67
475.48	38553.30
475.66	39054.18
475.84	38464.36
476.02	37933.06
476.20	37380.70
476.38	38314.57
476.56	39285.89
476.74	39438.03
476.92	40268.92
477.10	40701.92
477.28	41656.85
477.46	41647.49
477.64	42389.44
477.82	42188.16
478.00	42632.86
478.18	41902.61
478.36	41577.28
478.54	41581.96
478.72	42651.58
478.90	43269.48
479.08	44161.23
479.26	44500.61
479.44	44474.86
479.62	44669.12
479.80	44044.20
479.98	44481.88
480.16	45013.18
480.34	44322.72
480.52	44622.31
480.70	44982.76
480.88	44669.12
481.06	45614.70
481.24	45858.12
481.41	46944.12
481.59	47854.59
481.77	47613.52
481.95	46520.49
482.13	46625.81
482.31	46522.83
482.49	47753.95
482.67	47140.73
482.85	47533.94
483.03	47452.02
483.21	48266.53
483.39	48081.63
483.57	47540.96
483.74	46958.17
483.92	47604.16
484.10	47386.49
484.28	48678.46
484.46	48753.36
484.64	49193.38
484.82	48706.55
485.00	48353.13
485.18	47302.23
485.35	46188.13
485.53	43082.24
485.71	39037.80
485.89	38347.34
486.07	40252.53
486.25	44055.90
486.43	46199.83
486.61	47173.50
486.78	46955.83
486.96	47374.78
487.14	48725.27
487.32	49745.75
487.50	50300.45
487.68	51393.48
487.85	51845.21
488.03	51882.66
488.21	51496.47
488.39	50770.90
488.57	50518.12
488.75	49951.71
488.92	50862.18
489.10	53111.44
489.28	53979.78
489.46	54995.57
489.64	54934.71
489.81	54997.91
489.99	54728.75
490.17	54480.65
490.35	54883.22
490.53	54438.52
490.70	54038.29
490.88	54033.61
491.06	54852.80
491.24	54892.58
491.41	54026.59
491.59	52383.53
491.77	51674.35
491.95	53008.45
492.13	53794.87
492.30	54808.32
492.48	55742.20
492.66	56219.67
492.84	55971.57
493.01	55894.33
493.19	55580.70
493.37	55042.38
493.54	54913.65
493.72	55416.86
493.90	56409.25
494.08	57120.77
494.25	57394.62
494.43	57673.14
494.61	58000.82
494.79	58092.10
494.96	57649.74
495.14	57134.82
495.32	56465.42
495.49	55908.38
495.67	56865.66
495.85	58068.69
496.02	58445.52
496.20	58312.11
496.38	57862.72
496.55	57895.49
496.73	58391.68
496.91	58272.32
497.09	58934.69
497.26	59042.35
497.44	58553.18
497.62	58120.18
497.79	57296.31
497.97	56079.24
498.14	56474.79
498.32	57441.43
498.50	58230.19
498.67	58728.72
498.85	58663.19
499.03	58688.93
499.20	58871.49
499.38	58979.16
499.56	58801.28
499.73	58335.51
499.91	58094.44
500.08	57771.44
500.26	57020.13
500.44	57343.12
500.61	57956.35
500.79	57860.38
500.97	57380.57
501.14	57286.95
501.32	57069.28
501.49	57329.08
501.67	57230.78
501.84	57895.49
502.02	58064.01
502.20	58497.01
502.37	58796.60
502.55	58494.67
502.72	59105.55
502.90	59592.38
503.07	59405.14
503.25	59044.69
503.43	58251.25
503.60	57574.84
503.78	56856.29
503.95	57303.34
504.13	58557.86
504.30	59494.08
504.48	59194.49
504.65	58590.63
504.83	58817.66
505.01	59484.72
505.18	59852.18
505.36	60357.74
505.53	60519.23
505.71	60662.00
505.88	60652.64
506.06	60069.85
506.23	59833.46
506.41	59550.25
506.58	59686.00
506.76	59592.38
506.93	59702.38
507.11	59402.80
507.28	59435.56
507.46	59007.25
507.63	58740.42
507.81	58258.27
507.98	58529.78
508.16	59215.55
508.33	59767.92
508.50	60130.70
508.68	60383.48
508.85	60804.78
509.03	60762.65
509.20	60647.96
509.38	59999.63
509.55	59093.85
509.73	59313.86
509.90	60027.72
510.08	60013.68
510.25	60102.62
510.42	59889.63
510.60	59634.51
510.77	59824.09
510.95	60477.10
511.12	60676.05
511.30	60865.63
511.47	61127.77
511.64	61219.05
511.82	60711.16
511.99	60142.41
512.17	59536.21
512.34	59236.62
512.51	59353.65
512.69	59494.08
512.86	59889.63
513.04	60278.16
513.21	60088.57
513.38	60037.08
513.56	59393.43
513.73	59065.76
513.90	59164.06
514.08	58831.71
514.25	59391.09
514.43	59742.17
514.60	59590.04
514.77	59671.96
514.95	59915.37
515.12	59735.15
515.29	59842.82
515.47	60549.66
515.64	60654.98
515.81	60413.91
515.99	59662.60
516.16	58295.72
516.33	56294.56
516.51	54852.80
516.68	54129.57
516.85	53928.28
517.03	53975.09
517.20	56582.45
517.37	58990.86
517.54	59922.40
517.72	59496.42
517.89	56975.66
518.06	54742.79
518.24	54974.50
518.41	57319.72
518.58	58396.37
518.75	58789.58
518.93	58761.49
519.10	58815.32
519.27	59285.77
519.45	59295.13
519.62	60060.49
519.79	60484.12
519.96	60203.26
520.14	59863.88
520.31	59171.08
520.48	58974.48
520.65	59458.97
520.83	60259.43
521.00	60514.55
521.17	60418.59
521.34	59873.24
521.52	60128.36
521.69	60685.41
521.86	61006.06
522.03	60917.12
522.20	59742.17
522.38	58604.67
522.55	58595.31
522.72	59353.65
522.89	59304.49
523.07	59620.47
523.24	59941.12
523.41	60795.42
523.58	61038.83
523.75	61523.32
523.92	61263.52
524.10	61216.71
524.27	61188.63
524.44	61050.53
524.61	60760.31
524.78	60615.19
524.96	60516.89
525.13	60481.78
525.30	60722.86
525.47	61265.86
525.64	61097.34
525.81	60603.49
525.98	59407.48
526.16	57874.43
526.33	57373.55
526.50	56809.48
526.67	56755.65
526.84	57010.77
527.01	58056.99
527.18	58829.37
527.36	59646.21
527.53	60617.53
527.70	60786.05
527.87	60011.34
528.04	59798.35
528.21	60090.91
528.38	60811.80
528.55	61539.71
528.72	61708.22
528.89	61890.79
529.07	61502.26
529.24	60921.80
529.41	60203.26
529.58	59737.49
529.75	59903.67
529.92	60322.63
530.09	60537.96
530.26	61080.96
530.43	61439.06
530.60	61504.60
530.77	61626.31
530.94	61799.50
531.11	61322.04
531.28	60942.87
531.46	60851.59
531.63	60942.87
531.80	60647.96
531.97	60383.48
532.14	59763.24
532.31	58829.37
532.48	58281.68
532.65	57836.98
532.82	59051.72
532.99	59877.93
533.16	60519.23
533.33	60800.10
533.50	60643.28
533.67	60135.38
533.84	59753.88
534.01	60119.00
534.18	60095.60
534.35	60514.55
534.52	60053.47
534.69	60362.42
534.86	60505.19
535.03	60837.54
535.20	61202.67
535.37	61619.28
535.54	61670.78
535.71	61371.19
535.88	61153.52
536.05	60308.58
536.22	60214.96
536.38	59814.73
536.55	59260.02
536.72	58986.18
536.89	58747.45
537.06	59583.02
537.23	60488.80
537.40	60633.92
537.57	60769.67
537.74	60268.79
537.91	60273.48
538.08	60374.12
538.25	60449.02
538.42	60413.91
538.59	60357.74
538.75	59796.01
538.92	59473.01
539.09	59384.07
539.26	59138.32
539.43	58911.28
539.60	59107.89
539.77	59260.02
539.94	59269.39
540.11	58415.09
540.28	58103.80
540.44	57928.26
540.61	58550.84
540.78	58429.13
540.95	59147.68
541.12	59327.90
541.29	59494.08
541.46	59936.44
541.62	59887.29
541.79	59681.32
541.96	59147.68
542.13	59196.83
542.30	59381.73
542.47	59550.25
542.63	59437.90
542.80	59262.36
542.97	59409.82
543.14	59234.28
543.31	59189.81
543.48	59749.20
543.64	60437.31
543.81	60509.87
543.98	60629.24
544.15	59920.05
544.32	59264.70
544.48	59353.65
544.65	59891.97
544.82	59908.35
544.99	59952.82
545.16	59533.87
545.32	59166.40
545.49	60034.74
545.66	60552.00
545.83	60018.36
546.00	59604.08
546.16	59412.16
546.33	59381.73
546.50	59449.61
546.67	59917.71
546.83	59538.55
547.00	59271.73
547.17	58845.75
547.34	58279.34
547.50	58340.19
547.67	58665.53
547.84	58759.15
548.00	59281.09
548.17	59613.44
548.34	59414.50
548.51	59477.69
548.67	59372.37
548.84	59601.74
549.01	59576.00
549.18	59377.05
549.34	59311.52
549.51	59285.77
549.68	59330.24
549.84	59124.27
550.01	59068.10
550.18	58953.41
550.34	58951.07
550.51	59047.04
550.68	59028.31
550.84	58550.84
551.01	58922.99
551.18	58798.94
551.34	58810.64
551.51	59269.39
551.68	59381.73
551.84	59573.66
552.01	59330.24
552.18	59084.48
552.34	58803.62
552.51	58152.95
552.68	58110.82
552.84	58515.73
553.01	58890.22
553.18	58691.27
553.34	58768.51
553.51	58927.67
553.67	59051.72
553.84	59210.87
554.01	59105.55
554.17	58948.73
554.34	59175.76
554.51	59337.26
554.67	59400.46
554.84	59332.58
555.00	58995.54
555.17	58766.17
555.33	58707.66
555.50	58946.39
555.67	58710.00
555.83	58457.22
556.00	58422.11
556.16	58234.87
556.33	57876.77
556.50	57752.72
556.66	57623.99
556.83	57528.03
556.99	57558.45
557.16	57694.21
557.32	58064.01
557.49	58185.72
557.65	58216.14
557.82	58323.81
557.98	58078.05
558.15	57851.02
558.32	56821.19
558.48	56023.06
558.65	56320.31
558.81	56671.39
558.98	57118.43
559.14	57235.46
559.31	57270.57
559.47	56992.04
559.64	56907.79
559.80	56617.56
559.97	56512.23
560.13	57006.09
560.30	57956.35
560.46	58269.98
560.63	58578.93
560.79	58426.79
560.96	58197.42
561.12	57144.18
561.29	56130.73
561.45	56259.46
561.61	56914.81
561.78	57106.73
561.94	57165.24
562.11	57038.86
562.27	57160.56
562.44	57162.90
562.60	57701.23
562.77	57553.77
562.93	57743.36
563.10	57586.54
563.26	56905.44
563.42	56975.66
563.59	56804.80
563.75	56830.55
563.92	57064.60
564.08	56961.62
564.24	57078.64
564.41	57144.18
564.57	56872.68
564.74	56975.66
564.90	56832.89
565.07	56860.97
565.23	56350.74
565.39	55891.99
565.56	55660.28
565.72	55297.50
565.88	55906.04
566.05	55732.84
566.21	56016.04
566.38	56315.63
566.54	56273.50
566.70	56409.25
566.87	56954.60
567.03	56755.65
567.19	57153.54
567.36	56683.09
567.52	56835.23
567.68	56547.34
567.85	55746.88
568.01	55508.14
568.17	54948.76
568.34	55159.41
568.50	55065.78
568.66	55030.68
568.83	55704.75
568.99	55655.60
569.15	55842.84
569.32	55742.20
569.48	55632.19
569.64	55393.46
569.81	55318.56
569.97	55096.21
570.13	55051.74
570.30	54705.34
570.46	53893.18
570.62	53750.40
570.78	53331.45
570.95	53535.07
571.11	54649.17
571.27	54836.41
571.43	54829.39
571.60	55192.17
571.76	55157.06
571.92	55449.63
572.09	55711.77
572.25	55636.87
572.41	55585.38
572.57	55622.83
572.74	55454.31
572.90	55058.76
573.06	55021.31
573.22	55220.26
573.38	55215.58
573.55	55014.29
573.71	55423.89
573.87	55161.75
574.03	54894.92
574.20	55203.88
574.36	54700.66
574.52	54464.27
574.68	54323.83
574.84	53944.67
575.01	53666.14
575.17	53794.87
575.33	53982.12
575.49	54017.22
575.65	54284.04
575.82	54064.03
575.98	53687.21
576.14	54209.15
576.30	53984.46
576.46	54162.34
576.62	54216.17
576.79	54206.81
576.95	53904.88
577.11	54094.46
577.27	53954.03
577.43	54138.93
577.59	53818.28
577.75	53546.78
577.92	52488.85
578.08	52271.18
578.24	52753.33
578.40	52734.61
578.56	52912.49
578.72	53268.25
578.88	53326.77
579.04	53286.98
579.21	53286.98
579.37	53624.01
579.53	54092.12
579.69	53635.72
579.85	53734.02
580.01	53567.84
580.17	53219.10
580.33	52608.22
580.49	53270.59
580.65	53160.59
580.82	53581.88
580.98	53769.13
581.14	53488.26
581.30	53647.42
581.46	53345.49
581.62	53883.81
581.78	53586.57
581.94	53846.36
582.10	53785.51
582.26	53844.02
582.42	53797.21
582.58	53581.88
582.74	53696.57
582.90	53778.49
583.06	53535.07
583.22	53422.73
583.38	53254.21
583.54	53485.92
583.70	53357.19
583.86	53373.58
584.02	53371.24
584.18	53577.20
584.34	53361.87
584.50	53226.12
584.66	52842.27
584.82	52767.38
584.98	52535.66
585.14	52252.46
585.30	51599.45
