SpectraSuite Data File
++++++++++++++++++++++++++++++++++++
Date: Mon Oct 07 14:55:40 GMT-05:00 2013
User: price-jones
Dark Spectrum Present: No
Reference Spectrum Present: No
Number of Sampled Component Spectra: 1
Spectrometers: USB2+H05261
Integration Time (usec): 1000000 (USB2+H05261)
Spectra Averaged: 1 (USB2+H05261)
Boxcar Smoothing: 0 (USB2+H05261)
Correct for Electrical Dark: No (USB2+H05261)
Strobe/Lamp Enabled: No (USB2+H05261)
Correct for Detector Non-linearity: No (USB2+H05261)
Correct for Stray Light: No (USB2+H05261)
Number of Pixels in Processed Spectrum: 2048
>>>>>Begin Processed Spectral Data<<<<<
365.73	0.00
365.92	0.00
366.12	0.00
366.32	0.00
366.52	0.00
366.72	236.39
366.91	0.00
367.11	210.65
367.31	0.00
367.51	203.63
367.70	313.63
367.90	468.11
368.10	222.35
368.30	220.01
368.49	0.00
368.69	428.32
368.89	201.29
369.09	25.75
369.28	182.56
369.48	39.79
369.68	128.73
369.87	189.58
370.07	9.36
370.27	482.15
370.47	2572.25
370.66	9427.68
370.86	10494.96
371.06	11618.42
371.25	11798.64
371.45	10366.23
371.65	9783.44
371.84	8531.25
372.04	8917.44
372.24	10193.03
372.44	10331.12
372.63	10569.86
372.83	9994.09
373.03	8603.81
373.22	7861.86
373.42	8315.92
373.62	9687.48
373.81	10305.38
374.01	10679.86
374.21	9472.15
374.40	8578.06
374.60	9376.19
374.79	9886.42
374.99	11592.67
375.19	12479.74
375.38	12676.34
375.58	11730.76
375.78	11901.62
375.97	11894.60
376.17	12517.18
376.37	12095.89
376.56	12285.47
376.76	12978.27
376.95	13650.00
377.15	15087.09
377.35	15424.13
377.54	16128.63
377.74	16053.73
377.93	16542.91
378.13	16072.46
378.33	15185.40
378.52	14019.81
378.72	13731.92
378.91	13781.07
379.11	12912.74
379.31	12578.04
379.50	12255.04
379.70	13752.99
379.89	14909.21
380.09	15360.94
380.28	15967.13
380.48	16093.52
380.68	15433.49
380.87	15161.99
381.07	14448.13
381.26	13738.94
381.46	12622.51
381.65	12175.47
381.85	11857.15
382.04	11438.20
382.24	10712.63
382.43	9963.66
382.63	9661.73
382.83	9851.31
383.02	9975.36
383.22	10267.93
383.41	9811.53
383.61	10815.62
383.80	12049.08
384.00	13441.70
384.19	14944.32
384.39	15573.92
384.58	15662.86
384.78	15440.51
384.97	15321.15
385.17	14427.06
385.36	13774.05
385.56	13018.06
385.75	13202.96
385.95	15044.96
386.14	16264.38
386.34	15906.28
386.53	15112.84
386.72	14202.37
386.92	14808.57
387.11	15363.28
387.31	15871.17
387.50	15372.64
387.70	14867.08
387.89	14965.39
388.09	15012.20
388.28	15066.03
388.48	15166.67
388.67	16341.62
388.86	17727.22
389.06	19042.60
389.25	20556.93
389.45	20299.47
389.64	19985.83
389.84	20276.06
390.03	19704.97
390.22	19515.39
390.42	20184.78
390.61	21238.02
390.81	22597.87
391.00	23592.60
391.19	23365.57
391.39	22366.16
391.58	20769.91
391.78	19814.98
391.97	19215.80
392.16	17884.03
392.36	16868.24
392.55	13486.17
392.75	10647.10
392.94	9022.77
393.13	8966.59
393.33	10331.12
393.52	12999.34
393.71	16276.09
393.91	17554.02
394.10	18932.59
394.29	20755.87
394.49	22148.49
394.68	23831.33
394.88	24341.57
395.07	25078.84
395.26	24678.61
395.46	23786.86
395.65	22780.43
395.84	19960.09
396.04	17661.68
396.23	13570.43
396.42	11878.22
396.62	11470.97
396.81	13165.51
397.00	16620.14
397.19	20414.15
397.39	23880.49
397.58	27461.51
397.77	28467.94
397.97	29535.22
398.16	29584.37
398.35	31122.10
398.55	31292.96
398.74	32961.76
398.93	33577.33
399.12	33031.98
399.32	31421.69
399.51	32215.13
399.70	35204.00
399.90	34330.98
400.09	34220.97
400.28	34380.13
400.47	34089.90
400.67	36055.95
400.86	36549.81
401.05	36421.08
401.24	36943.02
401.44	37305.80
401.63	37167.71
401.82	37904.98
402.01	37479.00
402.21	37954.13
402.40	38178.82
402.59	36465.55
402.78	35433.37
402.97	34373.11
403.17	35243.79
403.36	37888.59
403.55	38721.82
403.74	39571.44
403.93	38160.09
404.13	35461.46
404.32	34302.89
404.51	36137.87
404.70	38913.75
404.89	38293.50
405.09	38462.02
405.28	36392.99
405.47	36540.44
405.66	37036.64
405.85	36177.66
406.05	34759.30
406.24	35328.05
406.43	37062.38
406.62	38354.36
406.81	39002.69
407.00	36992.17
407.20	36175.32
407.39	36664.49
407.58	37724.75
407.77	39524.63
407.96	40907.88
408.15	40421.05
408.34	41450.89
408.54	42593.07
408.73	43019.05
408.92	42218.58
409.11	41420.46
409.30	39533.99
409.49	36889.18
409.68	34696.10
409.87	33916.70
410.07	35754.02
410.26	38794.38
410.45	40694.89
410.64	41542.17
410.83	42604.77
411.02	43459.07
411.21	44945.31
411.40	44559.12
411.59	44507.63
411.78	44327.41
411.98	43765.68
412.17	44769.77
412.36	43880.36
412.55	43758.66
412.74	43154.80
412.93	42560.30
413.12	42185.82
413.31	45909.61
413.50	46714.75
413.69	46614.11
413.88	45471.93
414.07	43997.39
414.26	44343.79
414.45	46270.05
414.64	46361.33
414.83	46492.40
415.02	45893.22
415.22	45853.44
415.41	46789.65
415.60	47409.89
415.79	48554.41
415.98	50017.25
416.17	49382.96
416.36	48914.86
416.55	48378.87
416.74	47203.92
416.93	45593.64
417.12	45752.79
417.31	46452.61
417.50	47035.41
417.69	48233.76
417.88	47482.45
418.07	47182.86
418.26	46478.36
418.45	47571.39
418.64	48837.62
418.83	49670.85
419.02	49429.77
419.21	48912.52
419.39	47035.41
419.58	45326.81
419.77	45434.48
419.96	47594.79
420.15	49584.25
420.34	49738.72
420.53	51058.79
420.72	51435.61
420.91	51477.74
421.10	51119.64
421.29	50468.97
421.48	49422.75
421.67	51405.19
421.86	50216.19
422.05	48039.50
422.24	43557.37
422.43	43267.14
422.61	46986.25
422.80	49832.35
422.99	49563.18
423.18	48697.19
423.37	47735.23
423.56	47899.06
423.75	48680.80
423.94	48987.41
424.13	47304.57
424.32	47173.50
424.50	48037.16
424.69	46899.65
424.88	47775.02
425.07	47040.09
425.26	47044.77
425.45	46951.15
425.64	46506.44
425.83	46288.77
426.01	48491.22
426.20	48987.41
426.39	49045.93
426.58	45881.52
426.77	43084.58
426.96	41717.71
427.15	42630.52
427.33	46148.34
427.52	47828.85
427.71	47777.36
427.90	47117.32
428.09	47037.75
428.28	45638.11
428.46	44519.33
428.65	44095.69
428.84	44617.63
429.03	46162.39
429.22	43817.17
429.40	41373.65
429.59	37989.24
429.78	34073.52
429.97	33799.68
430.16	34309.91
430.34	34398.85
430.53	34431.62
430.72	35264.85
430.91	39035.45
431.10	44236.12
431.28	50768.56
431.47	52741.63
431.66	52992.07
431.85	50230.24
432.03	47421.59
432.22	45563.21
432.41	47344.36
432.60	50836.44
432.79	51957.55
432.97	52704.18
433.16	52205.65
433.35	49296.36
433.54	45057.65
433.72	42906.70
433.91	44191.65
434.10	48088.65
434.28	50597.70
434.47	51805.42
434.66	51948.19
434.85	50845.80
435.03	51035.38
435.22	52903.13
435.41	54721.72
435.59	54642.15
435.78	54300.43
435.97	54494.69
436.16	54244.26
436.34	54143.61
436.53	53595.93
436.72	53319.74
436.90	51758.61
437.09	51896.70
437.28	51222.62
437.46	52317.99
437.65	52079.26
437.84	50160.02
438.02	46948.81
438.21	46504.10
438.40	48296.95
438.58	51370.08
438.77	52016.07
438.96	52521.62
439.14	53460.18
439.33	54157.66
439.52	54944.08
439.70	53846.36
439.89	53876.79
440.08	52732.27
440.26	52411.62
440.45	53654.44
440.63	54960.46
440.82	56093.28
441.01	56250.09
441.19	55910.72
441.38	56282.86
441.57	56889.06
441.75	57764.42
441.94	57579.52
442.12	57340.78
442.31	57982.09
442.50	57530.37
442.68	57202.69
442.87	57301.00
443.05	56921.83
443.24	57160.56
443.43	57736.34
443.61	58536.80
443.80	58396.37
443.98	57006.09
444.17	57228.44
444.35	58487.65
444.54	58815.32
444.73	58506.37
444.91	57705.91
445.10	56563.73
445.28	55316.22
445.47	55021.31
445.65	55016.63
445.84	55789.01
446.02	56683.09
446.21	56996.73
446.39	57169.93
446.58	56914.81
446.77	57846.34
446.95	58012.52
447.14	58583.61
447.32	59587.70
447.51	58166.99
447.69	57759.74
447.88	57174.61
448.06	57588.88
448.25	58159.97
448.43	58438.50
448.62	57820.59
448.80	57755.06
448.99	57722.29
449.17	58117.84
449.36	57996.13
449.54	59173.42
449.73	58934.69
449.91	59323.22
450.10	60299.22
450.28	60786.05
450.46	60554.34
450.65	60275.82
450.83	60123.68
451.02	59753.88
451.20	59400.46
451.39	59461.31
451.57	59241.30
451.76	59374.71
451.94	58972.14
452.13	57869.75
452.31	57832.30
452.49	56343.72
452.68	56493.51
452.86	56800.12
453.05	56687.78
453.23	57766.76
453.42	57642.71
453.60	58951.07
453.78	59316.20
453.97	58894.90
454.15	58939.37
454.34	58005.50
454.52	58328.49
454.70	57764.42
454.89	58239.55
455.07	58363.60
455.26	58450.20
455.44	59554.93
455.62	59964.52
455.81	60044.10
455.99	59913.03
456.17	59746.86
456.36	59505.78
456.54	60453.70
456.73	60416.25
456.91	60746.26
457.09	60945.21
457.28	61336.08
457.46	60184.54
457.64	60067.51
457.83	59278.75
458.01	58801.28
458.19	59075.12
458.38	59313.86
458.56	60418.59
458.74	59896.65
458.93	59868.56
459.11	60041.76
459.29	59587.70
459.48	59760.90
459.66	59592.38
459.84	59929.42
460.03	60617.53
460.21	59721.11
460.39	60987.34
460.57	60659.66
460.76	60956.91
460.94	60921.80
461.12	60292.20
461.31	60722.86
461.49	60743.92
461.67	60409.23
461.85	61169.90
462.04	60903.08
462.22	63220.21
462.40	60980.32
462.59	61240.12
462.77	61076.28
462.95	60985.00
463.13	60797.76
463.32	60828.18
463.50	60254.75
463.68	60348.37
463.86	60729.88
464.05	60212.62
464.23	59730.47
464.41	59620.47
464.59	59007.25
464.78	60624.56
464.96	60079.21
465.14	60409.23
465.32	60708.82
465.50	61310.33
465.69	60989.68
465.87	61144.16
466.05	60516.89
466.23	59395.77
466.41	58592.97
466.60	59348.96
466.78	59299.81
466.96	59653.23
467.14	59678.98
467.32	60624.56
467.51	60451.36
467.69	59084.48
467.87	60245.39
468.05	60224.32
468.23	60446.68
468.41	60552.00
468.60	60158.79
468.78	60542.64
468.96	60350.71
469.14	60734.56
469.32	60748.60
469.50	59536.21
469.69	59987.93
469.87	59531.53
470.05	59133.63
470.23	59281.09
470.41	59625.15
470.59	59957.50
470.77	59608.76
470.95	60172.83
471.14	60870.31
471.32	60395.18
471.50	62087.39
471.68	62368.26
471.86	61418.00
472.04	62075.69
472.22	62059.30
472.40	61087.98
472.58	60781.37
472.77	60563.70
472.95	61418.00
473.13	61916.53
473.31	61036.49
473.49	60900.74
473.67	61336.08
473.85	61921.21
474.03	62644.44
474.21	62136.54
474.39	62782.53
474.57	62773.17
474.75	62822.32
474.93	62260.59
475.12	61663.75
475.30	61520.98
475.48	62031.22
475.66	62468.90
475.84	61914.19
476.02	61815.89
476.20	61422.68
476.38	62075.69
476.56	61968.02
476.74	62487.62
476.92	63362.98
477.10	63650.87
477.28	64008.97
477.46	64142.38
477.64	63465.97
477.82	64441.97
478.00	64441.97
478.18	63917.69
478.36	64203.24
478.54	64343.67
478.72	64278.13
478.90	64626.87
479.08	65497.55
479.26	65279.88
479.44	65303.29
479.62	64973.27
479.80	65443.72
479.98	65104.34
480.16	65483.51
480.34	65478.83
480.52	65359.46
480.70	65535.00
480.88	65535.00
481.06	65535.00
481.24	65535.00
481.41	65535.00
481.59	65535.00
481.77	65535.00
481.95	65535.00
482.13	65535.00
482.31	65535.00
482.49	65535.00
482.67	65535.00
482.85	65535.00
483.03	65535.00
483.21	65535.00
483.39	65535.00
483.57	65535.00
483.74	65535.00
483.92	65535.00
484.10	65535.00
484.28	65535.00
484.46	65535.00
484.64	65535.00
484.82	65535.00
485.00	65535.00
485.18	65535.00
485.35	65535.00
485.53	64900.71
485.71	62836.36
485.89	62047.60
486.07	63575.97
486.25	65102.00
486.43	65535.00
486.61	65535.00
486.78	65535.00
486.96	65535.00
487.14	65535.00
487.32	65535.00
487.50	65535.00
487.68	65535.00
487.85	65535.00
488.03	65535.00
488.21	65535.00
488.39	65535.00
488.57	65535.00
488.75	65535.00
488.92	65535.00
489.10	65535.00
489.28	65535.00
489.46	65535.00
489.64	65535.00
489.81	65535.00
489.99	65535.00
490.17	65535.00
490.35	65535.00
490.53	65535.00
490.70	65535.00
490.88	65535.00
491.06	65535.00
491.24	65535.00
491.41	65535.00
491.59	65535.00
491.77	65535.00
491.95	65535.00
492.13	65535.00
492.30	65535.00
492.48	65535.00
492.66	65535.00
492.84	65535.00
493.01	65535.00
493.19	65535.00
493.37	65535.00
493.54	65535.00
493.72	65535.00
493.90	65535.00
494.08	65535.00
494.25	65535.00
494.43	65535.00
494.61	65535.00
494.79	65535.00
494.96	65535.00
495.14	65535.00
495.32	65535.00
495.49	65535.00
495.67	65535.00
495.85	65535.00
496.02	65535.00
496.20	65535.00
496.38	65535.00
496.55	65535.00
496.73	65535.00
496.91	65535.00
497.09	65535.00
497.26	65535.00
497.44	65535.00
497.62	65535.00
497.79	65535.00
497.97	65535.00
498.14	65535.00
498.32	65535.00
498.50	65535.00
498.67	65535.00
498.85	65535.00
499.03	65535.00
499.20	65535.00
499.38	65535.00
499.56	65535.00
499.73	65535.00
499.91	65535.00
500.08	65535.00
500.26	65535.00
500.44	65535.00
500.61	65535.00
500.79	65535.00
500.97	65535.00
501.14	65535.00
501.32	65535.00
501.49	65535.00
501.67	65535.00
501.84	65535.00
502.02	65535.00
502.20	65535.00
502.37	65535.00
502.55	65535.00
502.72	65535.00
502.90	65535.00
503.07	65535.00
503.25	65535.00
503.43	65535.00
503.60	65535.00
503.78	65535.00
503.95	65535.00
504.13	65535.00
504.30	65535.00
504.48	65535.00
504.65	65535.00
504.83	65535.00
505.01	65535.00
505.18	65535.00
505.36	65535.00
505.53	65535.00
505.71	65535.00
505.88	65535.00
506.06	65535.00
506.23	65535.00
506.41	65535.00
506.58	65535.00
506.76	65535.00
506.93	65535.00
507.11	65535.00
507.28	65535.00
507.46	65535.00
507.63	65535.00
507.81	65535.00
507.98	65535.00
508.16	65535.00
508.33	65535.00
508.50	65535.00
508.68	65535.00
508.85	65535.00
509.03	65535.00
509.20	65535.00
509.38	65535.00
509.55	65535.00
509.73	65535.00
509.90	65535.00
510.08	65535.00
510.25	65535.00
510.42	65535.00
510.60	65535.00
510.77	65535.00
510.95	65535.00
511.12	65535.00
511.30	65535.00
511.47	65535.00
511.64	65535.00
511.82	65535.00
511.99	65535.00
512.17	65535.00
512.34	65535.00
512.51	65535.00
512.69	65535.00
512.86	65535.00
513.04	65535.00
513.21	65535.00
513.38	65535.00
513.56	65535.00
513.73	65535.00
513.90	65535.00
514.08	65535.00
514.25	65535.00
514.43	65535.00
514.60	65535.00
514.77	65535.00
514.95	65535.00
515.12	65535.00
515.29	65535.00
515.47	65535.00
515.64	65535.00
515.81	65535.00
515.99	65535.00
516.16	65535.00
516.33	65535.00
516.51	65535.00
516.68	65535.00
516.85	65535.00
517.03	65535.00
517.20	65535.00
517.37	65535.00
517.54	65535.00
517.72	65535.00
517.89	65535.00
518.06	65535.00
518.24	65535.00
518.41	65535.00
518.58	65535.00
518.75	65535.00
518.93	65535.00
519.10	65535.00
519.27	65535.00
519.45	65535.00
519.62	65535.00
519.79	65535.00
519.96	65535.00
520.14	65535.00
520.31	65535.00
520.48	65535.00
520.65	65535.00
520.83	65535.00
521.00	65535.00
521.17	65535.00
521.34	65535.00
521.52	65535.00
521.69	65535.00
521.86	65535.00
522.03	65535.00
522.20	65535.00
522.38	65535.00
522.55	65535.00
522.72	65535.00
522.89	65535.00
523.07	65535.00
523.24	65535.00
523.41	65535.00
523.58	65535.00
523.75	65535.00
523.92	65535.00
524.10	65535.00
524.27	65535.00
524.44	65535.00
524.61	65535.00
524.78	65535.00
524.96	65535.00
525.13	65535.00
525.30	65535.00
525.47	65535.00
525.64	65535.00
525.81	65535.00
525.98	65535.00
526.16	65535.00
526.33	65535.00
526.50	65535.00
526.67	65535.00
526.84	65535.00
527.01	65535.00
527.18	65535.00
527.36	65535.00
527.53	65535.00
527.70	65535.00
527.87	65535.00
528.04	65535.00
528.21	65535.00
528.38	65535.00
528.55	65535.00
528.72	65535.00
528.89	65535.00
529.07	65535.00
529.24	65535.00
529.41	65535.00
529.58	65535.00
529.75	65535.00
529.92	65535.00
530.09	65535.00
530.26	65535.00
530.43	65535.00
530.60	65535.00
530.77	65535.00
530.94	65535.00
531.11	65535.00
531.28	65535.00
531.46	65535.00
531.63	65535.00
531.80	65535.00
531.97	65535.00
532.14	65535.00
532.31	65535.00
532.48	65535.00
532.65	65535.00
532.82	65535.00
532.99	65535.00
533.16	65535.00
533.33	65535.00
533.50	65535.00
533.67	65535.00
533.84	65535.00
534.01	65535.00
534.18	65535.00
534.35	65535.00
534.52	65535.00
534.69	65535.00
534.86	65535.00
535.03	65535.00
535.20	65535.00
535.37	65535.00
535.54	65535.00
535.71	65535.00
535.88	65535.00
536.05	65535.00
536.22	65535.00
536.38	65535.00
536.55	65535.00
536.72	65535.00
536.89	65535.00
537.06	65535.00
537.23	65535.00
537.40	65535.00
537.57	65535.00
537.74	65535.00
537.91	65535.00
538.08	65535.00
538.25	65535.00
538.42	65535.00
538.59	65535.00
538.75	65535.00
538.92	65535.00
539.09	65535.00
539.26	65535.00
539.43	65535.00
539.60	65535.00
539.77	65535.00
539.94	65535.00
540.11	65535.00
540.28	65535.00
540.44	65535.00
540.61	65535.00
540.78	65535.00
540.95	65535.00
541.12	65535.00
541.29	65535.00
541.46	65535.00
541.62	65535.00
541.79	65535.00
541.96	65535.00
542.13	65535.00
542.30	65535.00
542.47	65535.00
542.63	65535.00
542.80	65535.00
542.97	65535.00
543.14	65535.00
543.31	65535.00
543.48	65535.00
543.64	65535.00
543.81	65535.00
543.98	65535.00
544.15	65535.00
544.32	65535.00
544.48	65535.00
544.65	65535.00
544.82	65535.00
544.99	65535.00
545.16	65535.00
545.32	65535.00
545.49	65535.00
545.66	65535.00
545.83	65535.00
546.00	65535.00
546.16	65535.00
546.33	65535.00
546.50	65535.00
546.67	65535.00
546.83	65535.00
547.00	65535.00
547.17	65535.00
547.34	65535.00
547.50	65535.00
547.67	65535.00
547.84	65535.00
548.00	65535.00
548.17	65535.00
548.34	65535.00
548.51	65535.00
548.67	65535.00
548.84	65535.00
549.01	65535.00
549.18	65535.00
549.34	65535.00
549.51	65535.00
549.68	65535.00
549.84	65535.00
550.01	65535.00
550.18	65535.00
550.34	65535.00
550.51	65535.00
550.68	65535.00
550.84	65535.00
551.01	65535.00
551.18	65535.00
551.34	65535.00
551.51	65535.00
551.68	65535.00
551.84	65535.00
552.01	65535.00
552.18	65535.00
552.34	65535.00
552.51	65535.00
552.68	65535.00
552.84	65535.00
553.01	65535.00
553.18	65535.00
553.34	65535.00
553.51	65535.00
553.67	65535.00
553.84	65535.00
554.01	65535.00
554.17	65535.00
554.34	65535.00
554.51	65535.00
554.67	65535.00
554.84	65535.00
555.00	65535.00
555.17	65535.00
555.33	65535.00
555.50	65535.00
555.67	65535.00
555.83	65535.00
556.00	65535.00
556.16	65535.00
556.33	65535.00
556.50	65535.00
556.66	65535.00
556.83	65535.00
556.99	65535.00
557.16	65535.00
557.32	65535.00
557.49	65535.00
557.65	65535.00
557.82	65535.00
557.98	65535.00
558.15	65535.00
558.32	65535.00
558.48	65535.00
558.65	65535.00
558.81	65535.00
558.98	65535.00
559.14	65535.00
559.31	65535.00
559.47	65535.00
559.64	65535.00
559.80	65535.00
559.97	65535.00
560.13	65535.00
560.30	65535.00
560.46	65535.00
560.63	65535.00
560.79	65535.00
560.96	65535.00
561.12	65535.00
561.29	65535.00
561.45	65535.00
561.61	65535.00
561.78	65535.00
561.94	65535.00
562.11	65535.00
562.27	65535.00
562.44	65535.00
562.60	65535.00
562.77	65535.00
562.93	65535.00
563.10	65535.00
563.26	65535.00
563.42	65535.00
563.59	65535.00
563.75	65535.00
563.92	65535.00
564.08	65535.00
564.24	65535.00
564.41	65535.00
564.57	65535.00
564.74	65535.00
564.90	65535.00
565.07	65535.00
565.23	65535.00
565.39	65535.00
565.56	65535.00
565.72	65535.00
565.88	65535.00
566.05	65535.00
566.21	65535.00
566.38	65535.00
566.54	65535.00
566.70	65535.00
566.87	65535.00
567.03	65535.00
567.19	65535.00
567.36	65535.00
567.52	65535.00
567.68	65535.00
567.85	65535.00
568.01	65535.00
568.17	65535.00
568.34	65535.00
568.50	65535.00
568.66	65535.00
568.83	65535.00
568.99	65535.00
569.15	65535.00
569.32	65535.00
569.48	65535.00
569.64	65535.00
569.81	65535.00
569.97	65535.00
570.13	65535.00
570.30	65535.00
570.46	65535.00
570.62	65535.00
570.78	65535.00
570.95	65535.00
571.11	65535.00
571.27	65535.00
571.43	65535.00
571.60	65535.00
571.76	65535.00
571.92	65535.00
572.09	65535.00
572.25	65535.00
572.41	65535.00
572.57	65535.00
572.74	65535.00
572.90	65535.00
573.06	65535.00
573.22	65535.00
573.38	65535.00
573.55	65535.00
573.71	65535.00
573.87	65535.00
574.03	65535.00
574.20	65535.00
574.36	65535.00
574.52	65535.00
574.68	65535.00
574.84	65535.00
575.01	65535.00
575.17	65535.00
575.33	65535.00
575.49	65535.00
575.65	65535.00
575.82	65535.00
575.98	65535.00
576.14	65535.00
576.30	65535.00
576.46	65535.00
576.62	65535.00
576.79	65535.00
576.95	65535.00
577.11	65535.00
577.27	65535.00
577.43	65535.00
577.59	65535.00
577.75	65535.00
577.92	65535.00
578.08	65535.00
578.24	65535.00
578.40	65535.00
578.56	65535.00
578.72	65535.00
578.88	65535.00
579.04	65535.00
579.21	65535.00
579.37	65535.00
579.53	65535.00
579.69	65535.00
579.85	65535.00
580.01	65535.00
580.17	65535.00
580.33	65535.00
580.49	65535.00
580.65	65535.00
580.82	65535.00
580.98	65535.00
581.14	65535.00
581.30	65535.00
581.46	65535.00
581.62	65535.00
581.78	65535.00
581.94	65535.00
582.10	65535.00
582.26	65535.00
582.42	65535.00
582.58	65535.00
582.74	65535.00
582.90	65535.00
583.06	65535.00
583.22	65535.00
583.38	65535.00
583.54	65535.00
583.70	65535.00
