SpectraSuite Data File
++++++++++++++++++++++++++++++++++++
Date: Mon Oct 07 14:53:29 GMT-05:00 2013
User: price-jones
Dark Spectrum Present: No
Reference Spectrum Present: No
Number of Sampled Component Spectra: 1
Spectrometers: USB2+H05261
Integration Time (usec): 100000 (USB2+H05261)
Spectra Averaged: 1 (USB2+H05261)
Boxcar Smoothing: 0 (USB2+H05261)
Correct for Electrical Dark: No (USB2+H05261)
Strobe/Lamp Enabled: No (USB2+H05261)
Correct for Detector Non-linearity: No (USB2+H05261)
Correct for Stray Light: No (USB2+H05261)
Number of Pixels in Processed Spectrum: 2048
>>>>>Begin Processed Spectral Data<<<<<
365.73	0.00
365.92	0.00
366.12	0.00
366.32	0.00
366.52	0.00
366.72	0.00
366.91	0.00
367.11	0.00
367.31	0.00
367.51	0.00
367.70	0.00
367.90	0.00
368.10	0.00
368.30	0.00
368.49	0.00
368.69	0.00
368.89	0.00
369.09	0.00
369.28	0.00
369.48	0.00
369.68	0.00
369.87	0.00
370.07	0.00
370.27	0.00
370.47	620.24
370.66	3157.38
370.86	3822.09
371.06	4257.43
371.25	4170.83
371.45	3819.75
371.65	3307.18
371.84	3211.22
372.04	3442.93
372.24	3829.12
372.44	3896.99
372.63	3899.33
372.83	3684.00
373.03	3131.64
373.22	2913.97
373.42	3103.55
373.62	3655.92
373.81	3836.14
374.01	3885.29
374.21	3501.44
374.40	3232.28
374.60	3375.05
374.79	3805.71
374.99	4510.21
375.19	4812.14
375.38	4690.43
375.58	4486.81
375.78	4521.92
375.97	4540.64
376.17	4603.83
376.37	4589.79
376.56	4734.90
376.76	4985.34
376.95	5366.85
377.15	5813.89
377.35	6017.52
377.54	6153.27
377.74	6347.53
377.93	6466.90
378.13	6118.16
378.33	5820.91
378.52	5401.96
378.72	5156.20
378.91	4943.21
379.11	5034.49
379.31	4798.10
379.50	4746.61
379.70	5430.04
379.89	5729.63
380.09	6066.67
380.28	6148.59
380.48	6171.99
380.68	6230.51
380.87	6043.26
381.07	5628.99
381.26	5235.78
381.46	4903.42
381.65	4685.75
381.85	4580.43
382.04	4421.27
382.24	4093.60
382.43	3892.31
382.63	3801.03
382.83	3777.62
383.02	3840.82
383.22	3812.73
383.41	3866.56
383.61	4074.87
383.80	4585.11
384.00	5240.46
384.19	5898.15
384.39	6347.53
384.58	6310.08
384.78	6118.16
384.97	6083.05
385.17	5771.76
385.36	5575.16
385.56	5380.89
385.75	5352.81
385.95	5825.59
386.14	6317.11
386.34	6328.81
386.53	6022.20
386.72	5930.92
386.92	5827.93
387.11	6125.18
387.31	6420.09
387.50	6223.48
387.70	6113.48
387.89	6136.88
388.09	6052.63
388.28	6033.90
388.48	6150.93
388.67	6607.33
388.86	7246.30
389.06	7765.90
389.25	8245.71
389.45	8264.43
389.64	8243.37
389.84	8128.68
390.03	8121.66
390.22	8081.87
390.42	8676.37
390.61	8793.39
390.81	9406.61
391.00	9633.64
391.19	9561.09
391.39	9383.21
391.58	8683.39
391.78	8100.59
391.97	7920.37
392.16	7365.67
392.36	6628.40
392.55	5406.64
392.75	4280.84
392.94	3588.04
393.13	3337.60
393.33	4049.13
393.52	5305.99
393.71	6401.37
393.91	7260.34
394.10	7936.76
394.29	8777.01
394.49	9451.08
394.68	9928.55
394.88	10164.95
395.07	10534.75
395.26	10214.10
395.46	10155.58
395.65	9418.32
395.84	8327.63
396.04	7054.37
396.23	5654.73
396.42	4851.93
396.62	4430.63
396.81	5277.91
397.00	7012.24
397.19	8542.96
397.39	10178.99
397.58	11363.30
397.77	12128.66
397.97	12624.85
398.16	12666.98
398.35	12884.65
398.55	13516.59
398.74	14174.28
398.93	14497.28
399.12	14216.41
399.32	13530.64
399.51	13884.06
399.70	14930.28
399.90	14780.48
400.09	14939.64
400.28	14848.36
400.47	14675.16
400.67	15929.69
400.86	15847.77
401.05	15726.06
401.24	16030.33
401.44	16315.87
401.63	16130.97
401.82	16308.85
402.01	16360.34
402.21	16388.43
402.40	16655.25
402.59	15983.52
402.78	15669.89
402.97	14766.44
403.17	15445.20
403.36	16306.51
403.55	17235.70
403.74	17411.25
403.93	16446.94
404.13	15234.55
404.32	14731.33
404.51	15377.32
404.70	17029.74
404.89	16826.11
405.09	16475.03
405.28	16088.84
405.47	15908.62
405.66	16339.28
405.85	15747.12
406.05	15374.98
406.24	15431.15
406.43	16304.17
406.62	16678.66
406.81	16840.15
407.00	16311.19
407.20	15613.71
407.39	16145.02
407.58	16769.94
407.77	17153.79
407.96	18043.19
408.15	18178.94
408.34	18162.56
408.54	19007.49
408.73	19014.51
408.92	18993.45
409.11	18363.84
409.30	17242.73
409.49	16259.70
409.68	15264.97
409.87	14822.61
410.07	16121.61
410.26	17174.85
410.45	18295.97
410.64	18558.11
410.83	18991.11
411.02	19866.47
411.21	20182.44
411.40	19803.27
411.59	20016.26
411.78	20383.73
411.98	19955.41
412.17	20201.16
412.36	19831.36
412.55	19829.02
412.74	19349.21
412.93	19157.28
413.12	19442.83
413.31	20758.21
413.50	21109.29
413.69	21645.27
413.88	20446.92
414.07	20229.25
414.26	20311.17
414.45	21123.33
414.64	21254.40
414.83	21404.20
415.02	21001.63
415.22	20819.07
415.41	21317.60
415.60	22040.82
415.79	22831.93
415.98	22986.40
416.17	23428.76
416.36	22834.27
416.55	22462.12
416.74	22036.14
416.93	20889.28
417.12	21144.40
417.31	21158.44
417.50	21495.48
417.69	22309.99
417.88	22691.49
418.07	22162.53
418.26	21935.50
418.45	21839.54
418.64	22803.84
418.83	23590.26
419.02	23257.90
419.21	22885.76
419.39	22099.34
419.58	20748.85
419.77	20842.47
419.96	21762.30
420.15	23229.82
420.34	23889.85
420.53	24706.70
420.72	25090.54
420.91	24903.30
421.10	24884.58
421.29	24491.37
421.48	23370.25
421.67	24933.73
421.86	23981.13
422.05	22593.19
422.24	20381.38
422.43	20149.67
422.61	21947.20
422.80	23580.90
422.99	24144.97
423.18	23007.47
423.37	22497.23
423.56	22752.35
423.75	22984.06
423.94	23346.84
424.13	22106.36
424.32	22242.11
424.50	22429.35
424.69	22260.84
424.88	22569.79
425.07	22359.14
425.26	22279.56
425.45	21909.75
425.64	21420.58
425.83	21598.46
426.01	22888.10
426.20	23419.40
426.39	23227.48
426.58	21692.08
426.77	19798.59
426.96	19145.58
427.15	19936.68
427.33	21502.50
427.52	22593.19
427.71	22820.22
427.90	22368.50
428.09	22209.34
428.28	21556.33
428.46	20947.79
428.65	20512.46
428.84	21048.44
429.03	21324.62
429.22	19985.83
429.40	19096.43
429.59	17619.55
429.78	15454.56
429.97	15403.07
430.16	15426.47
430.34	15683.93
430.53	15555.20
430.72	16020.97
430.91	17832.54
431.10	20924.39
431.28	24224.54
431.47	26747.64
431.66	26778.07
431.85	24599.03
432.03	22338.07
432.22	21504.84
432.41	22249.13
432.60	24723.08
432.79	25888.67
432.97	26522.95
433.16	26118.04
433.35	23913.25
433.54	21144.40
433.72	19679.22
433.91	20350.96
434.10	23054.28
434.28	24538.18
434.47	25984.63
434.66	25364.39
434.85	24943.09
435.03	24404.77
435.22	25502.48
435.41	27002.76
435.59	26806.16
435.78	27005.10
435.97	27861.74
436.16	28133.24
436.34	27655.77
436.53	26937.23
436.72	26991.06
436.90	25785.68
437.09	25741.21
437.28	25001.60
437.46	26373.16
437.65	26249.11
437.84	24261.99
438.02	21965.93
438.21	21788.05
438.40	23002.78
438.58	25450.99
438.77	26263.15
438.96	26560.40
439.14	27185.32
439.33	28173.03
439.52	28180.05
439.70	28002.17
439.89	27175.96
440.08	26284.22
440.26	26436.35
440.45	27005.10
440.63	29177.12
440.82	30539.31
441.01	30529.95
441.19	29909.71
441.38	30010.35
441.57	31431.05
441.75	31859.37
441.94	31842.99
442.12	31871.07
442.31	32158.96
442.50	32460.89
442.68	32299.39
442.87	31782.13
443.05	31264.88
443.24	31847.67
443.43	32051.30
443.61	32940.70
443.80	33230.93
443.98	31351.48
444.17	31302.32
444.35	32889.21
444.54	33717.76
444.73	33378.38
444.91	32275.99
445.10	30618.89
445.28	29916.73
445.47	29200.52
445.65	29046.05
445.84	29996.31
446.02	30862.30
446.21	31625.32
446.39	31714.26
446.58	31529.36
446.77	32624.73
446.95	32645.79
447.14	33584.35
447.32	34281.83
447.51	33303.48
447.69	32460.89
447.88	31440.42
448.06	32168.32
448.25	32891.55
448.43	33195.82
448.62	32318.12
448.80	32409.40
448.99	32369.61
449.17	33469.66
449.36	32875.16
449.54	34190.55
449.73	34321.62
449.91	35288.26
450.10	36247.88
450.28	36371.92
450.46	36240.86
450.65	36362.56
450.83	35552.74
451.02	35199.32
451.20	35424.01
451.39	34780.36
451.57	34773.34
451.76	34845.90
451.94	34497.16
452.13	34108.63
452.31	32402.38
452.49	30948.90
452.68	31646.38
452.86	31487.23
453.05	31711.92
453.23	32811.97
453.42	33977.56
453.60	34342.68
453.78	34574.39
453.97	34455.03
454.15	34377.79
454.34	33802.02
454.52	34466.73
454.70	32676.22
454.89	33652.22
455.07	33551.58
455.26	34209.27
455.44	35255.49
455.62	36105.10
455.81	36165.96
455.99	36292.35
456.17	35484.86
456.36	35335.07
456.54	36400.01
456.73	36507.68
456.91	37273.03
457.09	37338.57
457.28	37940.08
457.46	36833.01
457.64	36098.08
457.83	35409.96
458.01	34171.82
458.19	35646.36
458.38	35494.22
458.56	36774.50
458.74	36692.58
458.93	36163.62
459.11	36217.45
459.29	35337.41
459.48	35920.20
459.66	35578.48
459.84	36294.69
460.03	36437.46
460.21	36512.36
460.39	37198.13
460.57	37038.98
460.76	37532.83
460.94	38232.65
461.12	37284.73
461.31	37539.85
461.49	37373.67
461.67	37441.55
461.85	38766.29
462.04	38139.03
462.22	38925.45
462.40	38618.84
462.59	38277.12
462.77	38415.21
462.95	38466.70
463.13	37912.00
463.32	37790.29
463.50	37116.22
463.68	37174.73
463.86	37434.53
464.05	36872.80
464.23	35852.33
464.41	35838.28
464.59	35182.93
464.78	37446.23
464.96	36872.80
465.14	36996.85
465.32	37233.24
465.50	38246.69
465.69	38284.14
465.87	38026.68
466.05	36811.95
466.23	35742.32
466.41	34752.27
466.60	35587.85
466.78	35653.38
466.96	36582.57
467.14	36517.04
467.32	37090.47
467.51	37324.52
467.69	35522.31
467.87	36664.49
468.05	37205.16
468.23	37177.07
468.41	37083.45
468.60	37186.43
468.78	37029.62
468.96	36961.74
469.14	37823.06
469.32	38153.07
469.50	36598.96
469.69	36617.68
469.87	36034.89
470.05	35737.64
470.23	35976.37
470.41	36236.17
470.59	36589.59
470.77	36816.63
470.95	37661.56
471.14	37895.61
471.32	37890.93
471.50	40289.98
471.68	39833.58
471.86	40554.46
472.04	40327.43
472.22	40418.71
472.40	39035.45
472.58	38700.76
472.77	37937.74
472.95	38925.45
473.13	39515.26
473.31	38981.62
473.49	39351.43
473.67	40027.84
473.85	39941.24
474.03	40790.86
474.21	41291.73
474.39	41558.55
474.57	41823.03
474.75	41460.25
474.93	41029.59
475.12	40357.86
475.30	40161.25
475.48	40584.89
475.66	41368.97
475.84	40678.51
476.02	40458.50
476.20	39938.90
476.38	40713.62
476.56	41504.72
476.74	42424.55
476.92	42604.77
477.10	43054.15
477.28	44072.29
477.46	43812.49
477.64	44514.65
477.82	44957.01
478.00	44493.58
478.18	44072.29
478.36	43662.69
478.54	44179.95
478.72	44037.18
478.90	45090.42
479.08	46300.48
479.26	46576.66
479.44	46625.81
479.62	46131.96
479.80	46431.55
479.98	46691.35
480.16	47416.91
480.34	46541.55
480.52	46831.78
480.70	47203.92
480.88	47454.36
481.06	48137.80
481.24	48238.44
481.41	48802.51
481.59	49748.09
481.77	49287.00
481.95	48751.02
482.13	48865.70
482.31	48582.50
482.49	49670.85
482.67	49478.92
482.85	49652.12
483.03	50237.26
483.21	50408.12
483.39	50131.93
483.57	49579.57
483.74	49436.80
483.92	49745.75
484.10	49764.47
484.28	50806.01
484.46	51231.99
484.64	51449.66
484.82	50541.53
485.00	50120.23
485.18	49514.03
485.35	48437.39
485.53	45490.65
485.71	41394.71
485.89	40580.21
486.07	42845.85
486.25	46501.76
486.43	48437.39
486.61	48889.11
486.78	49081.03
486.96	49172.31
487.14	50618.77
487.32	51346.67
487.50	52631.63
487.68	53183.99
487.85	53619.33
488.03	53621.67
488.21	53160.59
488.39	52713.55
488.57	51936.49
488.75	51772.65
488.92	52963.98
489.10	54380.01
489.28	55936.46
489.46	56533.30
489.64	56222.01
489.81	56385.85
489.99	56133.07
490.17	56102.64
490.35	56666.71
490.53	56184.56
490.70	55613.47
490.88	55721.13
491.06	56458.40
491.24	56603.52
491.41	55716.45
491.59	54003.18
491.77	53434.43
491.95	54490.01
492.13	55657.94
492.30	56481.81
492.48	57347.81
492.66	57771.44
492.84	57649.74
493.01	57546.75
493.19	57125.46
493.37	56795.44
493.54	56526.28
493.72	57038.86
493.90	58120.18
494.08	58656.17
494.25	59159.38
494.43	59054.06
494.61	59405.14
494.79	59487.06
494.96	59117.25
495.14	58667.87
495.32	57984.43
495.49	57476.54
495.67	58398.71
495.85	59290.45
496.02	59730.47
496.20	59641.53
496.38	59367.69
496.55	59180.45
496.73	59693.02
496.91	59597.06
497.09	60420.93
497.26	60521.57
497.44	59821.75
497.62	59552.59
497.79	58735.74
497.97	57628.67
498.14	57558.45
498.32	58979.16
498.50	59496.42
498.67	60074.53
498.85	60238.37
499.03	60135.38
499.20	60341.35
499.38	60463.06
499.56	60315.61
499.73	59898.99
499.91	59395.77
500.08	59021.29
500.26	58192.74
500.44	58834.05
500.61	59299.81
500.79	59245.98
500.97	58937.03
501.14	58738.08
501.32	58440.84
501.49	58599.99
501.67	58810.64
501.84	59475.35
502.02	59547.91
502.20	60013.68
502.37	60023.04
502.55	59880.27
502.72	60535.62
502.90	60889.04
503.07	60657.32
503.25	60357.74
503.43	59580.68
503.60	59023.63
503.78	58515.73
503.95	58569.57
504.13	60250.07
504.30	60989.68
504.48	60622.22
504.65	60266.45
504.83	60245.39
505.01	60837.54
505.18	61235.44
505.36	61766.74
505.53	61769.08
505.71	62103.77
505.88	62038.24
506.06	61413.32
506.23	61331.40
506.41	60786.05
506.58	61106.71
506.76	61073.94
506.93	61003.72
507.11	60645.62
507.28	60832.86
507.46	60456.04
507.63	60051.12
507.81	59805.37
507.98	59906.01
508.16	60493.49
508.33	61041.17
508.50	61415.66
508.68	61659.07
508.85	62082.71
509.03	62206.76
509.20	61982.07
509.38	61244.80
509.55	60676.05
509.73	60736.90
509.90	61141.81
510.08	61436.72
510.25	61364.17
510.42	61261.18
510.60	61148.84
510.77	61532.68
510.95	61783.12
511.12	61972.70
511.30	62309.74
511.47	62386.98
511.64	62363.57
511.82	62150.59
511.99	61460.13
512.17	61048.19
512.34	60706.47
512.51	61062.24
512.69	61097.34
512.86	61209.69
513.04	61574.81
513.21	61457.79
513.38	61312.67
513.56	60762.65
513.73	60259.43
513.90	60280.50
514.08	60528.59
514.25	60769.67
514.43	60926.49
514.60	61024.79
514.77	61221.39
514.95	61226.07
515.12	61151.18
515.29	61315.01
515.47	61799.50
515.64	61893.13
515.81	61750.35
515.99	61071.60
516.16	59891.97
516.33	57820.59
516.51	56502.87
516.68	55571.34
516.85	55536.23
517.03	55765.60
517.20	58082.73
517.37	60238.37
517.54	61315.01
517.72	60786.05
517.89	58426.79
518.06	56425.64
518.24	56846.93
518.41	58429.13
518.58	60090.91
518.75	60229.01
518.93	60231.35
519.10	60236.03
519.27	60711.16
519.45	60764.99
519.62	61228.41
519.79	61696.52
519.96	61586.52
520.14	61080.96
520.31	60395.18
520.48	60245.39
520.65	60727.54
520.83	61495.24
521.00	62063.99
521.17	61581.84
521.34	61317.35
521.52	61600.56
521.69	61860.36
521.86	62543.80
522.03	62085.05
522.20	61146.50
522.38	60210.28
522.55	60170.49
522.72	60570.72
522.89	60849.25
523.07	60893.72
523.24	61212.03
523.41	62080.37
523.58	62230.16
523.75	62836.36
523.92	62639.76
524.10	62628.05
524.27	62405.70
524.44	62232.50
524.61	62138.88
524.78	61818.23
524.96	61965.68
525.13	61860.36
525.30	62326.13
525.47	62677.21
525.64	62401.02
525.81	61808.87
525.98	60718.18
526.16	59304.49
526.33	58562.54
526.50	58667.87
526.67	57942.30
526.84	58365.94
527.01	59526.84
527.18	60093.25
527.36	60996.70
527.53	61972.70
527.70	61996.11
527.87	61457.79
528.04	61045.85
528.21	61623.96
528.38	62195.06
528.55	62630.40
528.72	63037.65
528.89	63075.10
529.07	62869.13
529.24	62274.63
529.41	61654.39
529.58	61141.81
529.75	61078.62
529.92	61790.14
530.09	61993.77
530.26	62555.50
530.43	62721.68
530.60	62801.25
530.77	63032.97
530.94	63180.42
531.11	62700.61
531.28	62326.13
531.46	62031.22
531.63	62312.08
531.80	62162.29
531.97	61801.85
532.14	61139.47
532.31	60182.19
532.48	59477.69
532.65	59657.91
532.82	60378.80
532.99	61420.34
533.16	61745.67
533.33	62218.46
533.50	62061.64
533.67	61436.72
533.84	61265.86
534.01	61176.92
534.18	61389.91
534.35	61626.31
534.52	61453.11
534.69	61724.61
534.86	62061.64
535.03	62131.86
535.20	62745.08
535.37	63032.97
535.54	63107.86
535.71	62759.12
535.88	62511.03
536.05	61815.89
536.22	61558.43
536.38	61207.35
536.55	60832.86
536.72	60296.88
536.89	60179.85
537.06	60977.98
537.23	61832.27
537.40	62101.43
537.57	61991.43
537.74	61804.19
537.91	61801.85
538.08	61628.65
538.25	61743.33
538.42	61921.21
538.59	61815.89
538.75	60956.91
538.92	60800.10
539.09	60769.67
539.26	60458.38
539.43	60540.30
539.60	60561.36
539.77	60671.37
539.94	60526.25
540.11	59908.35
540.28	59433.22
540.44	59594.72
540.61	59922.40
540.78	60034.74
540.95	60528.59
541.12	60638.60
541.29	60874.99
541.46	61298.63
541.62	61282.25
541.79	61254.16
541.96	60589.45
542.13	60659.66
542.30	60896.06
542.47	60935.85
542.63	60795.42
542.80	60659.66
542.97	60722.86
543.14	60516.89
543.31	60488.80
543.48	61017.77
543.64	61743.33
543.81	62113.14
543.98	61886.10
544.15	61378.21
544.32	60743.92
544.48	61076.28
544.65	61188.63
544.82	61462.47
544.99	61212.03
545.16	60865.63
545.32	60713.50
545.49	61315.01
545.66	61729.29
545.83	61310.33
546.00	61022.45
546.16	60790.73
546.33	60996.70
546.50	60884.36
546.67	61443.74
546.83	60814.14
547.00	60889.04
547.17	60196.24
547.34	59650.89
547.50	59929.42
547.67	60048.78
547.84	60203.26
548.00	60622.22
548.17	60867.97
548.34	60783.71
548.51	60856.27
548.67	60910.10
548.84	60800.10
549.01	60942.87
549.18	60837.54
549.34	60727.54
549.51	60748.60
549.68	60612.85
549.84	60584.77
550.01	60278.16
550.18	60203.26
550.34	60303.90
550.51	60425.61
550.68	60570.72
550.84	59952.82
551.01	60189.22
551.18	60261.77
551.34	60343.69
551.51	60676.05
551.68	60842.23
551.84	61050.53
552.01	60772.01
552.18	60594.13
552.34	59784.30
552.51	59594.72
552.68	59526.84
552.84	59859.20
553.01	60287.52
553.18	59983.25
553.34	60219.64
553.51	60254.75
553.67	60423.27
553.84	60573.06
554.01	60617.53
554.17	60505.19
554.34	60416.25
554.51	60378.80
554.67	60921.80
554.84	60530.93
555.00	60264.11
555.17	60240.71
555.33	60053.47
555.50	59891.97
555.67	60072.19
555.83	60060.49
556.00	59803.03
556.16	59690.68
556.33	59175.76
556.50	59327.90
556.66	59421.52
556.83	59037.67
556.99	59096.19
557.16	59203.85
557.32	59285.77
557.49	59746.86
557.65	59578.34
557.82	59444.93
557.98	59449.61
558.15	59107.89
558.32	58316.79
558.48	57460.15
558.65	57815.91
558.81	58052.31
558.98	58478.28
559.14	58740.42
559.31	58735.74
559.47	58473.60
559.64	58267.64
559.80	57965.71
559.97	58150.61
560.13	58501.69
560.30	59360.67
560.46	59781.96
560.63	59704.73
560.79	59915.37
560.96	59271.73
561.12	58667.87
561.29	57673.14
561.45	57808.89
561.61	58328.49
561.78	58817.66
561.94	58520.41
562.11	58571.91
562.27	58658.51
562.44	58698.30
562.60	58899.58
562.77	59011.93
562.93	59040.01
563.10	58981.50
563.26	58379.98
563.42	58438.50
563.59	58239.55
563.75	58337.85
563.92	58344.87
564.08	58342.53
564.24	58384.66
564.41	58714.68
564.57	58417.43
564.74	58295.72
564.90	58478.28
565.07	58143.59
565.23	57956.35
565.39	57481.22
565.56	57132.48
565.72	57008.43
565.88	57272.91
566.05	57069.28
566.21	57563.14
566.38	57773.78
566.54	57708.25
566.70	58064.01
566.87	58375.30
567.03	58255.93
567.19	58433.81
567.36	58115.50
567.52	58054.65
567.68	58024.22
567.85	57181.63
568.01	57013.11
568.17	56795.44
568.34	56804.80
568.50	56605.86
568.66	56617.56
568.83	57085.67
568.99	57109.07
569.15	57506.96
569.32	57315.04
569.48	57083.33
569.64	56968.64
569.81	56545.00
569.97	56467.76
570.13	56470.11
570.30	56013.70
570.46	55543.25
570.62	55267.07
570.78	55157.06
570.95	55543.25
571.11	55842.84
571.27	56367.12
571.43	56154.13
571.60	56638.62
571.76	56757.99
571.92	57024.81
572.09	57366.53
572.25	57293.97
572.41	57001.41
572.57	57066.94
572.74	56910.13
572.90	56720.54
573.06	56636.28
573.22	56853.95
573.38	56743.95
573.55	56605.86
573.71	56860.97
573.87	56795.44
574.03	56385.85
574.20	56514.58
574.36	55821.78
574.52	56360.10
574.68	55948.17
574.84	55730.50
575.01	55253.03
575.17	55110.25
575.33	55416.86
575.49	55646.24
575.65	55791.35
575.82	55545.59
575.98	55262.39
576.14	55650.92
576.30	55798.37
576.46	56079.24
576.62	55868.59
576.79	55796.03
576.95	55554.96
577.11	55531.55
577.27	55524.53
577.43	55370.05
577.59	55206.22
577.75	54901.95
577.92	54405.75
578.08	54302.77
578.24	54230.21
578.40	54721.72
578.56	54817.69
578.72	54805.98
578.88	54932.37
579.04	55037.70
579.21	55234.30
579.37	55136.00
579.53	55243.66
579.69	55360.69
579.85	55421.55
580.01	55327.92
580.17	54904.29
580.33	54766.20
580.49	54801.30
580.65	55030.68
580.82	55363.03
580.98	55154.72
581.14	54990.89
581.30	55124.30
581.46	55068.12
581.62	55140.68
581.78	55159.41
581.94	55377.08
582.10	55330.26
582.26	55522.19
582.42	55351.33
582.58	55604.11
582.74	55405.16
582.90	55487.08
583.06	55269.41
583.22	55395.80
583.38	55217.92
583.54	55040.04
583.70	54988.55
583.86	54990.89
584.02	54777.90
584.18	54857.48
584.34	55154.72
584.50	54805.98
584.66	54773.22
584.82	54281.70
584.98	54351.92
585.14	54155.32
