SpectraSuite Data File
++++++++++++++++++++++++++++++++++++
Date: Mon Oct 07 14:53:24 GMT-05:00 2013
User: price-jones
Dark Spectrum Present: No
Reference Spectrum Present: No
Number of Sampled Component Spectra: 1
Spectrometers: USB2+H05261
Integration Time (usec): 100000 (USB2+H05261)
Spectra Averaged: 1 (USB2+H05261)
Boxcar Smoothing: 0 (USB2+H05261)
Correct for Electrical Dark: No (USB2+H05261)
Strobe/Lamp Enabled: No (USB2+H05261)
Correct for Detector Non-linearity: No (USB2+H05261)
Correct for Stray Light: No (USB2+H05261)
Number of Pixels in Processed Spectrum: 2048
>>>>>Begin Processed Spectral Data<<<<<
365.73	0.00
365.92	0.00
366.12	0.00
366.32	0.00
366.52	0.00
366.72	0.00
366.91	0.00
367.11	0.00
367.31	0.00
367.51	0.00
367.70	0.00
367.90	0.00
368.10	0.00
368.30	0.00
368.49	0.00
368.69	0.00
368.89	0.00
369.09	0.00
369.28	0.00
369.48	0.00
369.68	0.00
369.87	0.00
370.07	0.00
370.27	0.00
370.47	589.82
370.66	2710.34
370.86	3281.43
371.06	3463.99
371.25	3728.47
371.45	3187.81
371.65	2885.88
371.84	2567.57
372.04	2972.48
372.24	3222.92
372.44	3229.94
372.63	3222.92
372.83	3171.43
373.03	2761.83
373.22	2438.84
373.42	2609.70
373.62	3045.04
373.81	3332.92
374.01	3204.19
374.21	3082.49
374.40	2712.68
374.60	2818.00
374.79	3192.49
374.99	3885.29
375.19	4198.92
375.38	4241.05
375.58	3803.37
375.78	3705.07
375.97	3796.35
376.17	3967.21
376.37	4009.34
376.56	4252.75
376.76	4236.37
376.95	4557.02
377.15	5074.28
377.35	5233.44
377.54	5394.93
377.74	5420.68
377.93	5439.40
378.13	5315.36
378.33	5273.23
378.52	4596.81
378.72	4652.98
378.91	4613.20
379.11	4250.41
379.31	4159.13
379.50	4088.92
379.70	4533.62
379.89	4901.08
380.09	5224.08
380.28	5327.06
380.48	5369.19
380.68	5195.99
380.87	5123.43
381.07	4746.61
381.26	4421.27
381.46	4126.36
381.65	4011.68
381.85	3838.48
382.04	3875.93
382.24	3419.52
382.43	3342.28
382.63	3241.64
382.83	3105.89
383.02	3356.33
383.22	3288.45
383.41	3307.18
383.61	3531.87
383.80	3985.93
384.00	4458.72
384.19	4971.30
384.39	5261.52
384.58	5399.62
384.78	5273.23
384.97	5200.67
385.17	4912.78
385.36	4660.01
385.56	4503.19
385.75	4428.29
385.95	5020.45
386.14	5362.17
386.34	5589.20
386.53	5301.31
386.72	4947.89
386.92	5018.11
387.11	5191.31
387.31	5462.81
387.50	5350.46
387.70	5151.52
387.89	5193.65
388.09	5266.21
388.28	5104.71
388.48	5060.24
388.67	5696.86
388.86	6181.35
389.06	6668.19
389.25	7119.91
389.45	7185.44
389.64	7122.25
389.84	7066.08
390.03	6850.75
390.22	7007.56
390.42	7148.00
390.61	7552.91
390.81	8145.06
391.00	8472.74
391.19	8028.04
391.39	7974.21
391.58	7538.87
391.78	6942.03
391.97	6766.49
392.16	6384.98
392.36	5947.30
392.55	4629.58
392.75	3817.41
392.94	3009.93
393.13	3038.02
393.33	3382.07
393.52	4561.70
393.71	5495.58
393.91	6223.48
394.10	6817.98
394.29	7576.31
394.49	8030.38
394.68	8486.78
394.88	8664.66
395.07	8936.17
395.26	8887.01
395.46	8606.15
395.65	8002.29
395.84	7059.06
396.04	6045.60
396.23	4966.62
396.42	4016.36
396.62	3901.67
396.81	4671.71
397.00	5795.17
397.19	7379.71
397.39	8830.84
397.58	9734.29
397.77	10293.68
397.97	10904.56
398.16	10843.70
398.35	11459.26
398.55	11660.55
398.74	12313.56
398.93	12222.28
399.12	12271.43
399.32	11817.36
399.51	11929.71
399.70	12872.95
399.90	12704.43
400.09	12814.43
400.28	12655.28
400.47	12758.26
400.67	13603.19
400.86	13844.27
401.05	13446.38
401.24	13781.07
401.44	13944.91
401.63	13963.64
401.82	13905.12
402.01	13949.59
402.21	14204.71
402.40	14022.15
402.59	13708.52
402.78	13247.43
402.97	12755.92
403.17	13322.33
403.36	14141.52
403.55	14682.18
403.74	15213.48
403.93	14300.67
404.13	12769.96
404.32	12851.88
404.51	13558.72
404.70	14373.23
404.89	14487.92
405.09	13965.98
405.28	13654.69
405.47	13846.61
405.66	13877.04
405.85	13149.13
406.05	12929.12
406.24	13556.38
406.43	13694.47
406.62	14235.14
406.81	14295.99
407.00	13757.67
407.20	13593.83
407.39	13916.83
407.58	14298.33
407.77	14857.72
407.96	15220.50
408.15	15604.35
408.34	15714.36
408.54	16493.76
408.73	16278.43
408.92	16184.80
409.11	15728.40
409.30	15054.33
409.49	13977.68
409.68	13205.30
409.87	12709.11
410.07	13500.21
410.26	14595.58
410.45	15332.85
410.64	15744.78
410.83	16594.40
411.02	16718.45
411.21	17336.35
411.40	17420.61
411.59	17317.62
411.78	16954.84
411.98	17013.35
412.17	17032.08
412.36	17050.80
412.55	17050.80
412.74	16627.17
412.93	16030.33
413.12	16367.37
413.31	18120.43
413.50	17961.27
413.69	18185.96
413.88	17858.29
414.07	17085.91
414.26	17310.60
414.45	17757.64
414.64	17996.38
414.83	18361.50
415.02	17797.43
415.22	17848.93
415.41	18171.92
415.60	18829.61
415.79	19466.24
415.98	20116.90
416.17	19906.26
416.36	19201.76
416.55	19356.23
416.74	18520.66
416.93	17949.57
417.12	18010.42
417.31	18057.23
417.50	18693.86
417.69	19023.87
417.88	19126.86
418.07	18827.27
418.26	18665.77
418.45	18778.12
418.64	19314.10
418.83	20423.51
419.02	19964.77
419.21	19995.20
419.39	18899.83
419.58	17907.44
419.77	18031.49
419.96	18883.44
420.15	19845.40
420.34	20411.81
420.53	20926.73
420.72	21488.46
420.91	21228.66
421.10	21025.03
421.29	20746.51
421.48	20074.77
421.67	21247.38
421.86	20748.85
422.05	19379.64
422.24	17291.88
422.43	16989.95
422.61	18775.78
422.80	20240.95
422.99	20685.65
423.18	19611.35
423.37	19054.30
423.56	19468.58
423.75	19747.10
423.94	20034.99
424.13	19084.73
424.32	19124.52
424.50	19185.37
424.69	19164.31
424.88	19311.76
425.07	18654.07
425.26	18838.97
425.45	18567.47
425.64	18750.03
425.83	18518.32
426.01	19637.09
426.20	19978.81
426.39	19697.95
426.58	18356.82
426.77	17064.85
426.96	16315.87
427.15	16985.27
427.33	18115.75
427.52	19021.53
427.71	19002.81
427.90	19379.64
428.09	18625.98
428.28	18462.15
428.46	17839.56
428.65	17507.21
428.84	17795.09
429.03	18569.81
429.22	17319.96
429.40	16451.63
429.59	14874.10
429.78	13170.19
429.97	13500.21
430.16	13362.12
430.34	13556.38
430.53	13415.95
430.72	13799.80
430.91	15131.56
431.10	17942.55
431.28	20903.32
431.47	22857.67
431.66	23276.63
431.85	21156.10
432.03	19367.93
432.22	18267.88
432.41	19044.94
432.60	21284.83
432.79	22052.53
432.97	22560.42
433.16	22192.96
433.35	20130.95
433.54	18321.71
433.72	17228.68
433.91	17577.42
434.10	19573.90
434.28	20994.61
434.47	22256.15
434.66	22167.21
434.85	21537.61
435.03	21310.58
435.22	21546.97
435.41	23028.53
435.59	23061.30
435.78	23138.54
435.97	24135.60
436.16	24072.41
436.34	23976.45
436.53	23129.17
436.72	23431.10
436.90	22221.05
437.09	22057.21
437.28	21593.78
437.46	22670.43
437.65	22401.27
437.84	20870.56
438.02	19183.03
438.21	18731.31
438.40	20229.25
438.58	21928.48
438.77	22508.93
438.96	22623.62
439.14	23599.62
439.33	24065.39
439.52	24556.90
439.70	23922.62
439.89	23204.07
440.08	22611.92
440.26	23000.44
440.45	23686.22
440.63	25050.75
440.82	26295.92
441.01	25968.24
441.19	25993.99
441.38	25900.37
441.57	27014.46
441.75	27246.18
441.94	28025.57
442.12	27215.75
442.31	27917.91
442.50	27672.15
442.68	27716.62
442.87	26541.68
443.05	26518.27
443.24	26934.88
443.43	27257.88
443.61	28273.67
443.80	28538.15
443.98	26773.39
444.17	26909.14
444.35	28435.17
444.54	28973.49
444.73	28566.24
444.91	27445.12
445.10	26096.97
445.28	25158.42
445.47	25177.14
445.65	25130.33
445.84	25706.10
446.02	26675.09
446.21	26806.16
446.39	27288.31
446.58	27545.76
446.77	27819.61
446.95	28154.30
447.14	29001.58
447.32	29343.30
447.51	28821.36
447.69	27571.51
447.88	27381.93
448.06	27440.44
448.25	28362.61
448.43	28814.34
448.62	27901.53
448.80	27580.87
448.99	28032.60
449.17	28638.80
449.36	28407.08
449.54	29095.20
449.73	30218.66
449.91	30162.48
450.10	31414.67
450.28	31681.49
450.46	30595.48
450.65	31253.17
450.83	30665.70
451.02	29916.73
451.20	30171.85
451.39	30003.33
451.57	29923.75
451.76	29876.94
451.94	29731.83
452.13	28982.85
452.31	27913.23
452.49	26609.55
452.68	27131.49
452.86	26405.92
453.05	27351.50
453.23	28393.04
453.42	28638.80
453.60	29247.33
453.78	29687.36
453.97	29371.38
454.15	29275.42
454.34	28800.29
454.52	29151.37
454.70	28278.35
454.89	28847.10
455.07	28795.61
455.26	29455.64
455.44	30412.92
455.62	30885.71
455.81	30918.48
455.99	30932.52
456.17	30221.00
456.36	30581.44
456.54	31304.67
456.73	31480.21
456.91	32002.14
457.09	32070.02
457.28	32610.68
457.46	31630.00
457.64	31197.00
457.83	30277.17
458.01	29706.08
458.19	30492.50
458.38	30246.74
458.56	32006.83
458.74	31321.05
458.93	30859.96
459.11	30391.86
459.29	30190.57
459.48	30836.56
459.66	30700.81
459.84	30960.61
460.03	31164.23
460.21	31292.96
460.39	32032.57
460.57	31814.90
460.76	32734.73
460.94	32587.28
461.12	31868.73
461.31	32095.77
461.49	32151.94
461.67	32020.87
461.85	33055.39
462.04	33469.66
462.22	33385.40
462.40	32776.86
462.59	32423.44
462.77	33230.93
462.95	33111.56
463.13	32418.76
463.32	32163.64
463.50	31749.37
463.68	32105.13
463.86	32453.87
464.05	31470.84
464.23	31014.44
464.41	31122.10
464.59	30309.94
464.78	31798.52
464.96	31470.84
465.14	31477.86
465.32	32336.84
465.50	32877.51
465.69	32952.40
465.87	32362.59
466.05	31435.74
466.23	30279.51
466.41	29685.01
466.60	30307.60
466.78	30258.45
466.96	31386.58
467.14	31599.57
467.32	32292.37
467.51	32395.35
467.69	30691.44
467.87	31641.70
468.05	31749.37
468.23	32079.38
468.41	31564.46
468.60	31981.08
468.78	32034.91
468.96	31667.45
469.14	32701.96
469.32	32414.08
469.50	31187.64
469.69	31360.84
469.87	30876.35
470.05	30897.41
470.23	31056.57
470.41	31255.51
470.59	31419.35
470.77	31826.60
470.95	32030.23
471.14	32266.63
471.32	32566.21
471.50	34192.89
471.68	34480.77
471.86	34593.12
472.04	35033.14
472.22	34801.43
472.40	32980.49
472.58	33015.60
472.77	32765.16
472.95	33120.92
473.13	34256.08
473.31	33319.87
473.49	33474.34
473.67	34092.24
473.85	34607.16
474.03	35508.27
474.21	35459.12
474.39	35639.34
474.57	35847.64
474.75	35667.42
474.93	35812.54
475.12	34644.61
475.30	34658.65
475.48	34892.71
475.66	35274.21
475.84	35161.87
476.02	34621.20
476.20	34239.70
476.38	34850.58
476.56	35931.90
476.74	36353.20
476.92	36596.62
477.10	36987.49
477.28	38565.01
477.46	38256.06
477.64	38555.64
477.82	38986.30
478.00	39180.57
478.18	38225.63
478.36	38162.43
478.54	38164.78
478.72	38852.89
478.90	39335.04
479.08	40371.90
479.26	41043.63
479.44	40828.30
479.62	40442.12
479.80	40657.45
479.98	40409.35
480.16	40580.21
480.34	40247.85
480.52	41233.22
480.70	41305.77
480.88	41221.52
481.06	41881.55
481.24	41844.10
481.41	43232.04
481.59	43662.69
481.77	43276.51
481.95	42810.74
482.13	42457.32
482.31	42745.20
482.49	43058.84
482.67	43313.95
482.85	43597.16
483.03	44488.90
483.21	44776.79
483.39	44357.83
483.57	43856.96
483.74	43456.73
483.92	43817.17
484.10	44641.04
484.28	44928.92
484.46	45315.11
484.64	45640.45
484.82	44608.27
485.00	44086.33
485.18	43339.70
485.35	42307.52
485.53	39555.05
485.71	35496.56
485.89	35206.34
486.07	37036.64
486.25	39835.92
486.43	42909.04
486.61	43012.02
486.78	43192.25
486.96	43426.30
487.14	45354.90
487.32	45666.19
487.50	46672.62
487.68	47943.53
487.85	48793.15
488.03	48378.87
488.21	47938.85
488.39	47182.86
488.57	46995.62
488.75	46096.85
488.92	47262.44
489.10	49560.84
489.28	51239.01
489.46	51840.53
489.64	51662.64
489.81	52130.75
489.99	51206.24
490.17	51501.15
490.35	51943.51
490.53	51145.39
490.70	51229.65
490.88	51189.86
491.06	51845.21
491.24	51831.16
491.41	50742.81
491.59	49347.86
491.77	48069.92
491.95	49523.40
492.13	50604.72
492.30	52051.17
492.48	53146.54
492.66	53418.05
492.84	53277.61
493.01	53099.73
493.19	52643.33
493.37	52072.24
493.54	51910.74
493.72	52994.41
493.90	53778.49
494.08	54508.74
494.25	54738.11
494.43	54976.84
494.61	55351.33
494.79	55351.33
494.96	55489.42
495.14	54628.10
495.32	53506.99
495.49	52753.33
495.67	54115.53
495.85	55358.35
496.02	55828.80
496.20	55828.80
496.38	55210.90
496.55	55040.04
496.73	55496.44
496.91	55742.20
497.09	56324.99
497.26	56409.25
497.44	56011.36
497.62	55522.19
497.79	54642.15
497.97	53291.66
498.14	53563.16
498.32	54532.14
498.50	55557.30
498.67	56259.46
498.85	56172.86
499.03	56053.49
499.20	56233.71
499.38	56547.34
499.56	56154.13
499.73	55929.44
499.91	55440.27
500.08	54983.86
500.26	54064.03
500.44	54536.82
500.61	55311.54
500.79	55250.69
500.97	54639.81
501.14	54738.11
501.32	54550.87
501.49	54782.58
501.67	54480.65
501.84	55107.91
502.02	55409.84
502.20	55922.42
502.37	56039.45
502.55	56088.60
502.72	56718.20
502.90	56952.26
503.07	56800.12
503.25	56179.88
503.43	55681.34
503.60	54585.97
503.78	53851.05
503.95	54581.29
504.13	55835.82
504.30	57038.86
504.48	56645.65
504.65	56282.86
504.83	56601.18
505.01	56905.44
505.18	57434.41
505.36	57799.53
505.53	57783.15
505.71	58085.07
505.88	58157.63
506.06	57481.22
506.23	57331.42
506.41	56968.64
506.58	57162.90
506.76	57052.90
506.93	57139.50
507.11	56877.36
507.28	57001.41
507.46	56573.09
507.63	55870.93
507.81	55826.46
507.98	55760.92
508.16	56610.54
508.33	57144.18
508.50	57752.72
508.68	57890.81
508.85	58337.85
509.03	58190.40
509.20	58124.86
509.38	57577.18
509.55	56734.59
509.73	56860.97
509.90	57190.99
510.08	57659.10
510.25	57602.92
510.42	57237.80
510.60	57577.18
510.77	57652.08
510.95	58251.25
511.12	58143.59
511.30	58398.71
511.47	58726.38
511.64	58616.38
511.82	58419.77
511.99	57525.69
512.17	57291.63
512.34	56708.84
512.51	56739.27
512.69	57289.29
512.86	57080.98
513.04	57745.70
513.21	57488.24
513.38	57420.36
513.56	56809.48
513.73	56381.16
513.90	56306.27
514.08	56435.00
514.25	56619.90
514.43	57176.95
514.60	57038.86
514.77	57167.58
514.95	57247.16
515.12	57291.63
515.29	57532.71
515.47	57951.66
515.64	58078.05
515.81	57623.99
515.99	57212.06
516.16	55653.26
516.33	53427.41
516.51	51676.69
516.68	51185.18
516.85	50459.61
517.03	50913.67
517.20	53947.01
517.37	56376.48
517.54	57443.77
517.72	56886.72
517.89	54262.98
518.06	52086.28
518.24	52275.87
518.41	54335.54
518.58	55875.61
518.75	55983.27
518.93	56257.12
519.10	56044.13
519.27	56664.37
519.45	56856.29
519.62	57654.42
519.79	58035.92
519.96	57853.36
520.14	57205.03
520.31	56315.63
520.48	56238.39
520.65	56701.82
520.83	57572.50
521.00	58190.40
521.17	57904.85
521.34	57209.71
521.52	57811.23
521.69	58253.59
521.86	58738.08
522.03	58248.91
522.20	57034.17
522.38	56175.20
522.55	56081.58
522.72	57066.94
522.89	56858.63
523.07	57249.50
523.24	57284.61
523.41	58143.59
523.58	58557.86
523.75	59032.99
523.92	58726.38
524.10	58749.79
524.27	58775.53
524.44	58525.10
524.61	58379.98
524.78	58024.22
524.96	58078.05
525.13	58078.05
525.30	58368.28
525.47	58848.09
525.64	58672.55
525.81	57991.45
525.98	56631.60
526.16	55016.63
526.33	54485.33
526.50	54117.87
526.67	53682.53
526.84	54525.12
527.01	55559.64
527.18	56385.85
527.36	57104.39
527.53	58113.16
527.70	58052.31
527.87	57588.88
528.04	57542.07
528.21	57893.15
528.38	58497.01
528.55	58871.49
528.72	59145.34
528.89	59243.64
529.07	58796.60
529.24	58279.34
529.41	57794.85
529.58	57244.82
529.75	57499.94
529.92	57661.44
530.09	58174.02
530.26	58595.31
530.43	58941.71
530.60	58922.99
530.77	59068.10
530.94	59285.77
531.11	58827.02
531.28	58382.32
531.46	58159.97
531.63	58590.63
531.80	58445.52
531.97	57888.47
532.14	57125.46
532.31	56041.79
532.48	55674.32
532.65	55348.99
532.82	56545.00
532.99	57495.26
533.16	57841.66
533.33	58433.81
533.50	58075.71
533.67	57640.37
533.84	57270.57
534.01	57448.45
534.18	57490.58
534.35	57621.65
534.52	57673.14
534.69	57743.36
534.86	58178.70
535.03	58262.96
535.20	58883.20
535.37	59302.15
535.54	59056.40
535.71	58766.17
535.88	58478.28
536.05	57769.10
536.22	57432.07
536.38	57038.86
536.55	56816.50
536.72	55997.32
536.89	56200.94
537.06	57010.77
537.23	58085.07
537.40	58078.05
537.57	58333.17
537.74	57942.30
537.91	57738.68
538.08	57776.12
538.25	57764.42
538.42	58181.04
538.59	57911.88
538.75	57106.73
538.92	56882.04
539.09	56729.90
539.26	56729.90
539.43	56437.34
539.60	56673.73
539.77	56734.59
539.94	56584.79
540.11	56051.15
540.28	55040.04
540.44	55348.99
540.61	55496.44
540.78	56133.07
540.95	56327.33
541.12	56750.97
541.29	57090.35
541.46	57408.66
541.62	57411.00
541.79	57247.16
541.96	56690.12
542.13	56554.36
542.30	56743.95
542.47	56996.73
542.63	56973.32
542.80	56559.05
542.97	56903.10
543.14	56631.60
543.31	56545.00
543.48	57148.86
543.64	57930.60
543.81	58302.74
543.98	58019.54
544.15	57270.57
544.32	56655.01
544.48	56797.78
544.65	57282.27
544.82	57546.75
544.99	57125.46
545.16	56837.57
545.32	56947.57
545.49	57506.96
545.66	58071.03
545.83	57591.22
546.00	57181.63
546.16	56900.76
546.33	56898.42
546.50	56961.62
546.67	57193.33
546.83	56800.12
547.00	56797.78
547.17	56259.46
547.34	55466.02
547.50	55660.28
547.67	56034.77
547.84	56191.58
548.00	56591.81
548.17	56966.30
548.34	56903.10
548.51	56900.76
548.67	56884.38
548.84	56994.39
549.01	57027.15
549.18	56839.91
549.34	56736.93
549.51	56804.80
549.68	56690.12
549.84	56430.32
550.01	56273.50
550.18	56404.57
550.34	56348.40
550.51	56388.19
550.68	56453.72
550.84	55765.60
551.01	55950.51
551.18	56170.52
551.34	56226.69
551.51	56603.52
551.68	56849.27
551.84	56797.78
552.01	56554.36
552.18	56647.99
552.34	55856.88
552.51	55236.64
552.68	55215.58
552.84	55803.05
553.01	56086.26
553.18	55966.89
553.34	56163.50
553.51	56149.45
553.67	56669.05
553.84	56718.20
554.01	56640.96
554.17	56030.08
554.34	56367.12
554.51	56336.69
554.67	56853.95
554.84	56669.05
555.00	56285.20
555.17	55847.52
555.33	56081.58
555.50	55807.73
555.67	56023.06
555.83	55838.16
556.00	55615.81
556.16	55707.09
556.33	55283.45
556.50	54782.58
556.66	54951.10
556.83	54707.68
556.99	54927.69
557.16	55257.71
557.32	55489.42
557.49	55379.42
557.65	55323.24
557.82	55693.05
557.98	55224.94
558.15	54843.43
558.32	53872.11
558.48	53134.84
558.65	53434.43
558.81	53869.77
558.98	54000.84
559.14	54148.29
559.31	54508.74
559.47	54305.11
559.64	53869.77
559.80	53581.88
559.97	53825.30
560.13	54564.91
560.30	55079.83
560.46	55515.17
560.63	55803.05
560.79	55873.27
560.96	55510.49
561.12	54270.00
561.29	53460.18
561.45	53160.59
561.61	54220.85
561.78	54609.38
561.94	54426.82
562.11	54417.46
562.27	53993.82
562.44	54394.05
562.60	54787.26
562.77	55021.31
562.93	54665.55
563.10	54862.16
563.26	54323.83
563.42	54251.28
563.59	53876.79
563.75	53989.14
563.92	53841.68
564.08	54026.59
564.24	54155.32
564.41	54391.71
564.57	54246.60
564.74	53719.98
564.90	53865.09
565.07	53586.57
565.23	53502.31
565.39	53059.94
565.56	52474.81
565.72	52126.07
565.88	52669.08
566.05	52617.58
566.21	53392.30
566.38	53382.94
566.54	53205.06
566.70	53586.57
566.87	54042.97
567.03	53822.96
567.19	54071.06
567.36	54195.10
567.52	53656.78
567.68	53340.81
567.85	52577.79
568.01	52519.28
568.17	52060.54
568.34	52009.04
568.50	51791.37
568.66	52060.54
568.83	52432.68
568.99	52629.29
569.15	52879.72
569.32	52961.64
569.48	52552.05
569.64	52582.48
569.81	51920.10
569.97	51786.69
570.13	51700.09
570.30	51416.89
570.46	50602.38
570.62	50014.91
570.78	50209.17
570.95	50740.47
571.11	51260.07
571.27	51166.45
571.43	51669.67
571.60	51941.17
571.76	52161.18
571.92	52512.26
572.09	52608.22
572.25	52648.01
572.41	52577.79
572.57	52402.25
572.74	52521.62
572.90	51774.99
573.06	51955.21
573.22	51767.97
573.38	51817.12
573.55	51793.71
573.71	52018.41
573.87	51805.42
574.03	51716.48
574.20	51870.95
574.36	51452.00
574.52	51325.61
574.68	51182.84
574.84	50649.19
575.01	50052.36
575.17	49839.37
575.33	50564.93
575.49	50773.24
575.65	50948.78
575.82	50871.54
575.98	50656.21
576.14	50679.62
576.30	51133.68
576.46	51112.62
576.62	50995.59
576.79	50979.21
576.95	50333.22
577.11	50340.24
577.27	50616.43
577.43	50885.59
577.59	50408.12
577.75	50197.47
577.92	49074.01
578.08	48956.99
578.24	48809.53
578.40	49172.31
578.56	49478.92
578.72	49448.50
578.88	49717.66
579.04	50005.55
579.21	50436.20
579.37	50157.68
579.53	49865.11
579.69	50490.04
579.85	50291.09
580.01	50246.62
580.17	50000.86
580.33	49581.91
580.49	49663.83
580.65	50050.02
580.82	50246.62
580.98	50347.26
581.14	50019.59
581.30	50291.09
581.46	50171.72
581.62	50024.27
581.78	50358.97
581.94	50677.28
582.10	50382.37
582.26	50511.10
582.42	50300.45
582.58	50157.68
582.74	50387.05
582.90	50401.10
583.06	50185.77
583.22	50202.15
583.38	50277.05
583.54	49876.82
583.70	49708.30
583.86	49886.18
584.02	49684.89
584.18	50153.00
584.34	49602.97
584.50	50040.65
584.66	49404.03
584.82	49212.10
584.98	49052.95
585.14	48486.54
585.30	47922.47
