SpectraSuite Data File
++++++++++++++++++++++++++++++++++++
Date: Mon Oct 07 14:53:34 GMT-05:00 2013
User: price-jones
Dark Spectrum Present: No
Reference Spectrum Present: No
Number of Sampled Component Spectra: 1
Spectrometers: USB2+H05261
Integration Time (usec): 100000 (USB2+H05261)
Spectra Averaged: 1 (USB2+H05261)
Boxcar Smoothing: 0 (USB2+H05261)
Correct for Electrical Dark: No (USB2+H05261)
Strobe/Lamp Enabled: No (USB2+H05261)
Correct for Detector Non-linearity: No (USB2+H05261)
Correct for Stray Light: No (USB2+H05261)
Number of Pixels in Processed Spectrum: 2048
>>>>>Begin Processed Spectral Data<<<<<
365.73	0.00
365.92	0.00
366.12	0.00
366.32	0.00
366.52	0.00
366.72	0.00
366.91	0.00
367.11	0.00
367.31	0.00
367.51	0.00
367.70	0.00
367.90	0.00
368.10	0.00
368.30	0.00
368.49	0.00
368.69	0.00
368.89	0.00
369.09	0.00
369.28	0.00
369.48	0.00
369.68	0.00
369.87	0.00
370.07	0.00
370.27	0.00
370.47	840.25
370.66	3824.44
370.86	4496.17
371.06	4896.40
371.25	4938.53
371.45	4550.00
371.65	3990.61
371.84	3735.50
372.04	3932.10
372.24	4512.55
372.44	4662.35
372.63	4608.51
372.83	4304.25
373.03	3831.46
373.22	3417.18
373.42	3590.38
373.62	4229.35
373.81	4622.56
374.01	4411.91
374.21	4086.58
374.40	3826.78
374.60	4119.34
374.79	4472.76
374.99	5142.16
375.19	5518.98
375.38	5565.79
375.58	5210.03
375.78	5153.86
375.97	5167.90
376.17	5469.83
376.37	5390.25
376.56	5659.42
376.76	5886.45
376.95	6153.27
377.15	6715.00
377.35	6946.71
377.54	7265.02
377.74	7508.44
377.93	7412.48
378.13	7066.08
378.33	6965.43
378.52	6373.28
378.72	6040.92
378.91	6052.63
379.11	5900.49
379.31	5540.05
379.50	5661.76
379.70	6033.90
379.89	6504.35
380.09	7117.57
380.28	7248.64
380.48	7162.04
380.68	7211.19
380.87	7080.12
381.07	6499.67
381.26	5863.04
381.46	5621.97
381.65	5565.79
381.85	5406.64
382.04	5095.35
382.24	4807.46
382.43	4475.10
382.63	4451.70
382.83	4528.94
383.02	4367.44
383.22	4325.31
383.41	4458.72
383.61	4770.01
383.80	5411.32
384.00	6115.82
384.19	6850.75
384.39	7192.47
384.58	7150.34
384.78	7073.10
384.97	6984.16
385.17	6778.19
385.36	6305.40
385.56	6108.80
385.75	6284.34
385.95	6972.46
386.14	7456.95
386.34	7510.78
386.53	7215.87
386.72	6942.03
386.92	6719.68
387.11	7185.44
387.31	7339.92
387.50	7351.62
387.70	6956.07
387.89	6951.39
388.09	7155.02
388.28	7229.91
388.48	7131.61
388.67	7688.66
388.86	8571.04
389.06	8952.55
389.25	9493.21
389.45	9689.82
389.64	9554.07
389.84	9558.75
390.03	9415.98
390.22	9275.54
390.42	9874.72
390.61	10197.71
390.81	11089.46
391.00	10977.11
391.19	11143.29
391.39	10740.72
391.58	10150.90
391.78	9530.66
391.97	9231.07
392.16	8599.13
392.36	7899.31
392.55	6420.09
392.75	5069.60
392.94	4194.24
393.13	4086.58
393.33	4690.43
393.52	5998.79
393.71	7454.61
393.91	8465.72
394.10	8990.00
394.29	10111.11
394.49	10810.93
394.68	11438.20
394.88	11885.24
395.07	12105.25
395.26	11946.09
395.46	11672.25
395.65	10808.59
395.84	9804.50
396.04	8234.00
396.23	6525.41
396.42	5675.80
396.62	5280.25
396.81	6235.19
397.00	7857.18
397.19	9757.69
397.39	11871.20
397.58	13121.04
397.77	14066.62
397.97	14679.84
398.16	14752.40
398.35	15243.91
398.55	15943.73
398.74	16238.64
398.93	16746.53
399.12	16592.06
399.32	15887.56
399.51	16053.73
399.70	17355.07
399.90	17125.70
400.09	17294.22
400.28	16779.30
400.47	16870.58
400.67	17930.84
400.86	18555.77
401.05	18375.55
401.24	18260.86
401.44	18623.64
401.63	18775.78
401.82	18956.00
402.01	18806.20
402.21	19140.90
402.40	19445.17
402.59	18675.13
402.78	17631.26
402.97	17128.04
403.17	17764.67
403.36	18752.37
403.55	19594.96
403.74	20119.24
403.93	18981.74
404.13	17874.67
404.32	17261.45
404.51	17926.16
404.70	19531.77
404.89	19576.24
405.09	19372.61
405.28	18518.32
405.47	18782.80
405.66	18675.13
405.85	18017.44
406.05	17586.79
406.24	17907.44
406.43	18604.92
406.62	19248.57
406.81	19372.61
407.00	18661.09
407.20	18398.95
407.39	18548.75
407.58	19164.31
407.77	19894.55
407.96	20582.67
408.15	20828.43
408.34	21209.93
408.54	21991.67
408.73	22064.23
408.92	21696.77
409.11	21008.65
409.30	20276.06
409.49	18899.83
409.68	17738.92
409.87	17263.79
410.07	18237.45
410.26	19728.38
410.45	20891.62
410.64	21425.26
410.83	21731.87
411.02	22478.50
411.21	23419.40
411.40	23147.90
411.59	23342.16
411.78	23372.59
411.98	23152.58
412.17	23449.83
412.36	22637.66
412.55	23061.30
412.74	22452.76
412.93	21724.85
413.12	21942.52
413.31	24142.63
413.50	24659.88
413.69	24868.19
413.88	23847.72
414.07	23098.75
414.26	23302.37
414.45	24315.83
414.64	24250.29
414.83	24339.23
415.02	24102.84
415.22	23843.04
415.41	24526.47
415.60	25340.98
415.79	26230.38
415.98	26864.67
416.17	26869.35
416.36	25935.48
416.55	25678.02
416.74	25062.46
416.93	24039.64
417.12	24336.89
417.31	24414.13
417.50	24802.66
417.69	25867.60
417.88	25640.57
418.07	25340.98
418.26	25221.61
418.45	25532.90
418.64	26078.25
418.83	27091.70
419.02	26855.31
419.21	26672.74
419.39	25142.03
419.58	24187.10
419.77	24353.27
419.96	25385.45
420.15	26387.20
420.34	27482.57
420.53	28339.21
420.72	28849.44
420.91	28662.20
421.10	28290.06
421.29	28217.50
421.48	27028.51
421.67	28418.78
421.86	27742.37
422.05	25806.75
422.24	23136.20
422.43	22920.87
422.61	25228.63
422.80	27761.09
422.99	27482.57
423.18	26539.33
423.37	25738.87
423.56	26197.62
423.75	26125.06
423.94	26986.38
424.13	25495.46
424.32	25638.23
424.50	25860.58
424.69	25631.21
424.88	25844.20
425.07	25558.65
425.26	25783.34
425.45	25291.83
425.64	25017.99
425.83	24950.11
426.01	26534.65
426.20	26717.22
426.39	26871.69
426.58	24718.40
426.77	23009.81
426.96	22164.87
427.15	23143.22
427.33	24414.13
427.52	25759.94
427.71	26122.72
427.90	25851.22
428.09	25638.23
428.28	24753.51
428.46	24081.77
428.65	23737.71
428.84	24215.18
429.03	24709.04
429.22	23290.67
429.40	21986.99
429.59	20123.93
429.78	17619.55
429.97	17614.87
430.16	17848.93
430.34	17853.61
430.53	18075.96
430.72	18810.89
430.91	20404.79
431.10	24039.64
431.28	28191.75
431.47	30431.65
431.66	31136.15
431.85	28381.34
432.03	26342.73
432.22	24629.46
432.41	26057.18
432.60	28615.39
432.79	29661.61
432.97	30188.23
433.16	29757.57
433.35	27173.62
433.54	24559.24
433.72	22904.48
433.91	23864.10
434.10	26445.71
434.28	28240.90
434.47	29647.57
434.66	29549.26
434.85	28428.15
435.03	28428.15
435.22	29259.04
435.41	31089.34
435.59	30962.95
435.78	31255.51
435.97	31765.75
436.16	32472.59
436.34	31821.92
436.53	31435.74
436.72	31480.21
436.90	29584.37
437.09	29380.74
437.28	28793.27
437.46	30024.39
437.65	30213.98
437.84	28170.69
438.02	26174.21
438.21	25593.76
438.40	27201.71
438.58	29514.16
438.77	30146.10
438.96	30581.44
439.14	31672.13
439.33	32407.06
439.52	33195.82
439.70	32414.08
439.89	31697.88
440.08	30511.22
440.26	30637.61
440.45	31328.07
440.63	33275.40
440.82	35372.52
441.01	34955.90
441.19	34562.69
441.38	35093.99
441.57	36142.55
441.75	36301.71
441.94	37064.72
442.12	36142.55
442.31	37193.45
442.50	36868.12
442.68	36964.08
442.87	36514.70
443.05	35920.20
443.24	36238.51
443.43	37015.57
443.61	37865.19
443.80	38426.92
443.98	36100.42
444.17	35791.47
444.35	38183.50
444.54	38913.75
444.73	38497.13
444.91	36659.81
445.10	35681.47
445.28	34059.48
445.47	33619.46
445.65	33656.90
445.84	34581.42
446.02	35831.26
446.21	36261.92
446.39	36755.77
446.58	36481.93
446.77	37790.29
446.95	37776.25
447.14	38803.74
447.32	39852.30
447.51	38635.22
447.69	37322.18
447.88	36304.05
448.06	37038.98
448.25	37827.74
448.43	38174.14
448.62	37661.56
448.80	37095.15
448.99	37488.36
449.17	38120.31
449.36	37504.74
449.54	39325.68
449.73	39931.88
449.91	40308.71
450.10	41390.03
450.28	42117.94
450.46	41361.95
450.65	41680.26
450.83	41228.54
451.02	40409.35
451.20	40130.83
451.39	40486.59
451.57	39831.24
451.76	40158.91
451.94	39721.23
452.13	39278.87
452.31	37586.66
452.49	35592.53
452.68	35878.07
452.86	36168.30
453.05	36741.73
453.23	37596.03
453.42	38574.37
453.60	39489.52
453.78	39707.19
453.97	39627.61
454.15	39681.44
454.34	38513.52
454.52	38902.04
454.70	37890.93
454.89	39122.05
455.07	38902.04
455.26	39208.65
455.44	40837.67
455.62	41333.86
455.81	41476.63
455.99	41497.70
456.17	40498.29
456.36	40753.41
456.54	41895.59
456.73	41890.91
456.91	42986.28
457.09	43033.09
457.28	43433.32
457.46	42185.82
457.64	41668.56
457.83	40683.19
458.01	39482.50
458.19	40612.98
458.38	40701.92
458.56	42391.78
458.74	41563.23
458.93	41116.19
459.11	41251.94
459.29	40692.55
459.48	41188.75
459.66	40664.47
459.84	41596.00
460.03	41883.89
460.21	41897.93
460.39	42630.52
460.57	42721.80
460.76	43180.54
460.94	43372.47
461.12	42962.87
461.31	42600.09
461.49	43070.54
461.67	42878.61
461.85	44051.22
462.04	43536.30
462.22	44830.62
462.40	43976.33
462.59	43662.69
462.77	44013.77
462.95	43772.70
463.13	43449.70
463.32	43267.14
463.50	42454.98
463.68	42520.51
463.86	42658.60
464.05	42160.07
464.23	41876.86
464.41	41284.71
464.59	40584.89
464.78	42429.23
464.96	41816.01
465.14	41748.14
465.32	43005.00
465.50	43842.92
465.69	44346.13
465.87	43260.12
466.05	42869.25
466.23	40900.86
466.41	39959.97
466.60	41020.23
466.78	40863.41
466.96	41666.22
467.14	42541.58
467.32	42761.59
467.51	42995.64
467.69	40973.42
467.87	41769.20
468.05	42450.30
468.23	42412.85
468.41	42274.76
468.60	42763.93
468.78	42944.15
468.96	42321.57
469.14	43267.14
469.32	43496.52
469.50	42326.25
469.69	41893.25
469.87	41631.11
470.05	41060.02
470.23	41319.82
470.41	41598.34
470.59	42185.82
470.77	41947.08
470.95	42897.34
471.14	43536.30
471.32	43143.09
471.50	45539.80
471.68	46003.23
471.86	45750.45
472.04	46536.87
472.22	46351.97
472.40	44519.33
472.58	44360.17
472.77	43086.92
472.95	44659.76
473.13	45230.85
473.31	44332.09
473.49	44062.93
473.67	45109.14
473.85	45689.60
474.03	46445.59
474.21	46483.04
474.39	47187.54
474.57	47185.20
474.75	47508.19
474.93	47304.57
475.12	46127.28
475.30	46028.98
475.48	46387.08
475.66	47229.67
475.84	46412.82
476.02	46410.48
476.20	45343.20
476.38	46466.66
476.56	47234.35
476.74	48041.84
476.92	48229.08
477.10	49001.46
477.28	50038.31
477.46	49771.49
477.64	50000.86
477.82	50384.71
478.00	50300.45
478.18	49808.94
478.36	49481.27
478.54	49668.51
478.72	49914.26
478.90	50782.60
479.08	51737.54
479.26	52306.29
479.44	52069.90
479.62	51875.63
479.80	51423.91
479.98	51924.78
480.16	52465.45
480.34	51728.18
480.52	52090.96
480.70	52568.43
480.88	52540.35
481.06	52921.85
481.24	53352.51
481.41	53900.20
481.59	54504.06
481.77	53991.48
481.95	53694.23
482.13	53724.66
482.31	53645.08
482.49	54225.53
482.67	53975.09
482.85	54309.79
483.03	54817.69
483.21	54967.48
483.39	54700.66
483.57	54506.40
483.74	54040.63
483.92	54560.23
484.10	54181.06
484.28	55119.62
484.46	55456.65
484.64	55927.10
484.82	55107.91
485.00	54995.57
485.18	54298.09
485.35	53340.81
485.53	50424.50
485.71	47407.55
485.89	46593.04
486.07	48692.50
486.25	51714.14
486.43	53677.85
486.61	53925.94
486.78	54099.14
486.96	54066.38
487.14	55217.92
487.32	56161.15
487.50	56842.25
487.68	57151.20
487.85	57687.18
488.03	57783.15
488.21	57350.15
488.39	56666.71
488.57	56327.33
488.75	56027.74
488.92	56886.72
489.10	58607.01
489.28	59594.72
489.46	60212.62
489.64	60055.81
489.81	60097.94
489.99	59863.88
490.17	59913.03
490.35	60165.81
490.53	59840.48
490.70	59632.17
490.88	59245.98
491.06	60245.39
491.24	60238.37
491.41	59358.33
491.59	57921.24
491.77	57394.62
491.95	58419.77
492.13	59255.34
492.30	60336.67
492.48	60912.44
492.66	61333.74
492.84	61359.48
493.01	61254.16
493.19	60757.97
493.37	60317.95
493.54	59973.89
493.72	60879.67
493.90	61593.54
494.08	62239.53
494.25	62408.04
494.43	62543.80
494.61	62873.81
494.79	63023.61
494.96	62642.10
495.14	62073.35
495.32	61469.49
495.49	60882.02
495.67	61867.38
495.85	63009.56
496.02	63358.30
496.20	63351.28
496.38	62824.66
496.55	62747.42
496.73	63086.80
496.91	63058.71
497.09	63739.81
497.26	63831.09
497.44	63449.58
497.62	63021.26
497.79	62492.30
497.97	61326.72
498.14	61331.40
498.32	62239.53
498.50	63121.91
498.67	63718.74
498.85	63475.33
499.03	63681.30
499.20	63973.86
499.38	63835.77
499.56	63622.78
499.73	63545.54
499.91	62960.41
500.08	62597.63
500.26	62073.35
500.44	62333.15
500.61	62887.85
500.79	62803.59
500.97	62478.26
501.14	62246.55
501.32	62192.72
501.49	62197.40
501.67	62459.54
501.84	63016.58
502.02	63023.61
502.20	63430.86
502.37	63758.53
502.55	63407.45
502.72	64179.83
502.90	64441.97
503.07	64170.47
503.25	63959.82
503.43	62997.86
503.60	62450.17
503.78	61869.72
503.95	62344.85
504.13	63531.50
504.30	64287.49
504.48	64243.02
504.65	63608.74
504.83	63791.30
505.01	64268.77
505.18	64638.57
505.36	65111.36
505.53	65104.34
505.71	65450.74
505.88	65324.35
506.06	64788.37
506.23	64683.04
506.41	64238.34
506.58	64661.98
506.76	64498.14
506.93	64556.66
507.11	64191.53
507.28	64399.84
507.46	63833.43
507.63	63372.34
507.81	63175.74
507.98	63566.61
508.16	64161.11
508.33	64673.68
508.50	64865.61
508.68	65268.18
508.85	65535.00
509.03	65535.00
509.20	65469.46
509.38	64924.12
509.55	64004.29
509.73	64156.42
509.90	64746.24
510.08	64963.91
510.25	64933.48
510.42	64676.02
510.60	64608.15
510.77	64839.86
510.95	65420.31
511.12	65352.44
511.30	65535.00
511.47	65535.00
511.64	65535.00
511.82	65535.00
511.99	64774.33
512.17	64643.26
512.34	64320.26
512.51	64432.61
512.69	64448.99
512.86	64537.93
513.04	64956.89
513.21	64891.35
513.38	64573.04
513.56	64324.94
513.73	63721.08
513.90	63870.88
514.08	63992.59
514.25	64243.02
514.43	64214.94
514.60	64470.06
514.77	64584.74
514.95	64694.75
515.12	64530.91
515.29	64769.64
515.47	65204.98
515.64	65488.19
515.81	65111.36
515.99	64530.91
516.16	63419.16
516.33	61263.52
516.51	60088.57
516.68	59737.49
516.85	59175.76
517.03	59517.48
517.20	61829.93
517.37	63688.32
517.54	64671.34
517.72	64250.05
517.89	62340.17
518.06	60226.66
518.24	60177.51
518.41	62251.23
518.58	63590.01
518.75	63723.43
518.93	63835.77
519.10	63634.48
519.27	64086.21
519.45	64231.32
519.62	64910.08
519.79	65226.05
519.96	65027.10
520.14	64638.57
520.31	63695.34
520.48	63842.79
520.65	64285.15
520.83	64949.87
521.00	65371.16
521.17	65087.96
521.34	64561.34
521.52	64947.53
521.69	65286.90
521.86	65535.00
522.03	65535.00
522.20	64535.59
522.38	63711.72
522.55	63519.80
522.72	64006.63
522.89	64254.73
523.07	64329.62
523.24	64666.66
523.41	65385.21
523.58	65535.00
523.75	65535.00
523.92	65535.00
524.10	65535.00
524.27	65535.00
524.44	65535.00
524.61	65535.00
524.78	65509.25
524.96	65535.00
525.13	65535.00
525.30	65535.00
525.47	65535.00
525.64	65535.00
525.81	65277.54
525.98	63884.92
526.16	62857.43
526.33	62141.22
526.50	62082.71
526.67	61715.25
526.84	62267.61
527.01	63098.50
527.18	63835.77
527.36	64460.69
527.53	65284.56
527.70	65490.53
527.87	65017.74
528.04	64697.09
528.21	64996.68
528.38	65535.00
528.55	65535.00
528.72	65535.00
528.89	65535.00
529.07	65535.00
529.24	65535.00
529.41	64921.78
529.58	64612.83
529.75	64526.23
529.92	65048.17
530.09	65403.93
530.26	65535.00
530.43	65535.00
530.60	65535.00
530.77	65535.00
530.94	65535.00
531.11	65535.00
531.28	65535.00
531.46	65535.00
531.63	65535.00
531.80	65535.00
531.97	65216.69
532.14	64603.47
532.31	63845.13
532.48	63154.68
532.65	63077.44
532.82	63730.45
532.99	64900.71
533.16	65197.96
533.33	65535.00
533.50	65535.00
533.67	64984.97
533.84	64551.98
534.01	64568.36
534.18	64816.46
534.35	65197.96
534.52	65127.75
534.69	65174.56
534.86	65448.40
535.03	65535.00
535.20	65535.00
535.37	65535.00
535.54	65535.00
535.71	65535.00
535.88	65535.00
536.05	65469.46
536.22	64924.12
536.38	64739.22
536.55	64350.69
536.72	63845.13
536.89	63749.17
537.06	64413.88
537.23	65293.92
537.40	65443.72
537.57	65408.61
537.74	65137.11
537.91	65120.73
538.08	65127.75
538.25	65209.67
538.42	65406.27
538.59	65094.98
538.75	64474.74
538.92	64432.61
539.09	64165.79
539.26	64093.23
539.43	64100.25
539.60	64018.33
539.77	64357.71
539.94	64257.07
540.11	63484.69
540.28	63070.42
540.44	63313.83
540.61	63154.68
540.78	63409.79
540.95	63826.41
541.12	64357.71
541.29	64493.46
541.46	64596.45
541.62	64837.52
541.79	64596.45
541.96	63824.07
542.13	64076.85
542.30	64310.90
542.47	64486.44
542.63	64376.43
542.80	63884.92
542.97	64327.28
543.14	64076.85
543.31	64065.14
543.48	64512.19
543.64	65336.05
543.81	65448.40
543.98	65322.01
544.15	64853.90
544.32	64168.13
544.48	64245.36
544.65	64530.91
544.82	64973.27
544.99	64685.39
545.16	64495.80
545.32	64186.85
545.49	64643.26
545.66	65188.60
545.83	64867.95
546.00	64608.15
546.16	64137.70
546.33	64395.16
546.50	64200.89
546.67	64802.41
546.83	64458.35
547.00	64488.78
547.17	63765.56
547.34	63302.13
547.50	63250.64
547.67	63632.14
547.84	63660.23
548.00	63936.41
548.17	64357.71
548.34	64353.03
548.51	64374.09
548.67	64383.46
548.84	64498.14
549.01	64374.09
549.18	64268.77
549.34	64116.64
549.51	64334.31
549.68	64142.38
549.84	63945.78
550.01	63985.57
550.18	63772.58
550.34	63898.97
550.51	63758.53
550.68	64013.65
550.84	63770.24
551.01	63700.02
551.18	63732.79
551.34	63861.52
551.51	64210.26
551.68	64268.77
551.84	64404.52
552.01	64231.32
552.18	64107.27
552.34	63564.27
552.51	63039.99
552.68	62859.77
552.84	63524.48
553.01	63744.49
553.18	63739.81
553.34	63669.59
553.51	63838.11
553.67	64030.04
553.84	64289.84
554.01	64027.70
554.17	63781.94
554.34	63887.26
554.51	63934.07
554.67	64439.63
554.84	64175.15
555.00	63877.90
555.17	63442.56
555.33	63737.47
555.50	63529.16
555.67	63725.77
555.83	63538.52
556.00	63316.17
556.16	63222.55
556.33	62871.47
556.50	62724.02
556.66	62834.02
556.83	62621.03
556.99	62712.31
557.16	62733.38
557.32	63128.93
557.49	63135.95
557.65	63271.70
557.82	62967.43
557.98	63164.04
558.15	62667.84
558.32	62003.13
558.48	61293.95
558.65	61429.70
558.81	61860.36
558.98	62005.47
559.14	62185.69
559.31	62124.84
559.47	62241.87
559.64	62068.67
559.80	61764.40
559.97	61647.37
560.13	62068.67
560.30	62660.82
560.46	63278.72
560.63	63454.26
560.79	63498.73
560.96	63100.84
561.12	62152.93
561.29	61354.80
561.45	61371.19
561.61	61930.58
561.78	62295.70
561.94	62248.89
562.11	62314.42
562.27	62237.19
562.44	62223.14
562.60	62478.26
562.77	62649.12
562.93	62672.52
563.10	62592.95
563.26	62117.82
563.42	62145.90
563.59	62073.35
563.75	61829.93
563.92	61932.92
564.08	61956.32
564.24	62347.19
564.41	62234.84
564.57	62269.95
564.74	61930.58
564.90	61932.92
565.07	61815.89
565.23	61326.72
565.39	61139.47
565.56	60790.73
565.72	60507.53
565.88	61020.11
566.05	61296.29
566.21	61303.31
566.38	61474.17
566.54	61310.33
566.70	61811.21
566.87	61930.58
567.03	61773.76
567.19	62106.12
567.36	61731.63
567.52	61722.27
567.68	61563.11
567.85	60996.70
568.01	60610.51
568.17	60601.15
568.34	60385.82
568.50	60331.99
568.66	60470.08
568.83	60853.93
568.99	60823.50
569.15	61106.71
569.32	60992.02
569.48	60830.52
569.64	60638.60
569.81	60243.05
569.97	60355.39
570.13	60367.10
570.30	59758.56
570.46	59550.25
570.62	59199.17
570.78	59255.34
570.95	59341.94
571.11	60041.76
571.27	60100.28
571.43	60076.87
571.60	60537.96
571.76	60638.60
571.92	60896.06
572.09	61001.38
572.25	60907.76
572.41	60912.44
572.57	60755.63
572.74	60739.24
572.90	60559.02
573.06	60231.35
573.22	60406.89
573.38	60573.06
573.55	60247.73
573.71	60645.62
573.87	60659.66
574.03	60142.41
574.20	60353.05
574.36	60182.19
574.52	59978.57
574.68	59936.44
574.84	59498.76
575.01	59107.89
575.17	59065.76
575.33	59311.52
575.49	59702.38
575.65	59484.72
575.82	59496.42
575.98	59096.19
576.14	59606.42
576.30	59646.21
576.46	59648.55
576.62	59728.13
576.79	59601.74
576.95	59515.14
577.11	59594.72
577.27	59512.80
577.43	59655.57
577.59	59103.21
577.75	58742.77
577.92	58230.19
578.08	58159.97
578.24	58155.29
578.40	58508.71
578.56	58834.05
578.72	58745.11
578.88	58880.86
579.04	59002.56
579.21	59274.07
579.37	59171.08
579.53	59264.70
579.69	59295.13
579.85	59316.20
580.01	59245.98
580.17	58967.46
580.33	58738.08
580.49	58787.24
580.65	59124.27
580.82	59014.27
580.98	59248.32
581.14	58815.32
581.30	58927.67
581.46	59068.10
581.62	59245.98
581.78	59267.05
581.94	59461.31
582.10	59243.64
582.26	59210.87
582.42	59306.83
582.58	59400.46
582.74	58967.46
582.90	59327.90
583.06	59377.05
583.22	58845.75
583.38	58918.31
583.54	58927.67
583.70	58930.01
583.86	58927.67
584.02	58815.32
584.18	59145.34
584.34	59065.76
584.50	58997.88
584.66	58614.04
584.82	58251.25
584.98	58314.45
585.14	58082.73
