SpectraSuite Data File
++++++++++++++++++++++++++++++++++++
Date: Mon Oct 07 14:53:43 GMT-05:00 2013
User: price-jones
Dark Spectrum Present: No
Reference Spectrum Present: No
Number of Sampled Component Spectra: 1
Spectrometers: USB2+H05261
Integration Time (usec): 100000 (USB2+H05261)
Spectra Averaged: 1 (USB2+H05261)
Boxcar Smoothing: 0 (USB2+H05261)
Correct for Electrical Dark: No (USB2+H05261)
Strobe/Lamp Enabled: No (USB2+H05261)
Correct for Detector Non-linearity: No (USB2+H05261)
Correct for Stray Light: No (USB2+H05261)
Number of Pixels in Processed Spectrum: 2048
>>>>>Begin Processed Spectral Data<<<<<
365.73	0.00
365.92	0.00
366.12	0.00
366.32	0.00
366.52	0.00
366.72	0.00
366.91	0.00
367.11	0.00
367.31	0.00
367.51	0.00
367.70	0.00
367.90	0.00
368.10	0.00
368.30	0.00
368.49	0.00
368.69	0.00
368.89	0.00
369.09	0.00
369.28	0.00
369.48	0.00
369.68	0.00
369.87	0.00
370.07	0.00
370.27	0.00
370.47	725.57
370.66	3466.33
370.86	4234.03
371.06	4507.87
371.25	4517.23
371.45	4119.34
371.65	3803.37
371.84	3342.28
372.04	3592.72
372.24	3999.98
372.44	4322.97
372.63	4102.96
372.83	3887.63
373.03	3475.70
373.22	3136.32
373.42	3283.77
373.62	3911.04
373.81	4140.41
374.01	4102.96
374.21	3733.15
374.40	3466.33
374.60	3585.70
374.79	4138.07
374.99	4828.53
375.19	5137.48
375.38	5217.05
375.58	4875.34
375.78	4737.24
375.97	4833.21
376.17	5116.41
376.37	5008.75
376.56	5203.01
376.76	5406.64
376.95	5715.59
377.15	6218.80
377.35	6464.56
377.54	6710.32
377.74	6998.20
377.93	6834.36
378.13	6677.55
378.33	6487.96
378.52	5846.66
378.72	5633.67
378.91	5542.39
379.11	5390.25
379.31	5228.76
379.50	5310.68
379.70	5430.04
379.89	6197.74
380.09	6471.58
380.28	6785.21
380.48	6703.29
380.68	6670.53
380.87	6619.04
381.07	5935.60
381.26	5572.82
381.46	5235.78
381.65	5093.01
381.85	4971.30
382.04	4760.65
382.24	4432.97
382.43	4315.95
382.63	4002.32
382.83	4121.68
383.02	4126.36
383.22	4117.00
383.41	4081.89
383.61	4402.55
383.80	4964.28
384.00	5631.33
384.19	6235.19
384.39	6691.59
384.58	6717.34
384.78	6506.69
384.97	6532.44
385.17	6228.17
385.36	6038.58
385.56	5748.36
385.75	5734.31
385.95	6153.27
386.14	7122.25
386.34	6918.62
386.53	6609.67
386.72	6274.98
386.92	6242.21
387.11	6516.05
387.31	6855.43
387.50	6710.32
387.70	6626.06
387.89	6595.63
388.09	6684.57
388.28	6672.87
388.48	6722.02
388.67	7171.40
388.86	8046.76
389.06	8388.48
389.25	8727.86
389.45	9109.36
389.64	8961.91
389.84	8884.67
390.03	8655.30
390.22	8772.33
390.42	9060.21
390.61	9586.83
390.81	10099.41
391.00	10382.62
391.19	10361.55
391.39	9991.75
391.58	9490.87
391.78	8992.34
391.97	8557.00
392.16	8060.80
392.36	7494.40
392.55	5935.60
392.75	4798.10
392.94	3836.14
393.13	3772.94
393.33	4337.01
393.52	5610.26
393.71	6860.11
393.91	7875.90
394.10	8568.70
394.29	9114.05
394.49	10010.47
394.68	11042.65
394.88	10857.75
395.07	11599.70
395.26	11164.36
395.46	10911.58
395.65	10413.04
395.84	9069.58
396.04	7602.06
396.23	6244.55
396.42	5142.16
396.62	4952.57
396.81	5694.52
397.00	7335.24
397.19	9116.39
397.39	10939.66
397.58	12489.10
397.77	13160.83
397.97	13640.64
398.16	14024.49
398.35	14314.72
398.55	14555.79
398.74	15178.37
398.93	15786.91
399.12	15353.91
399.32	14958.36
399.51	15124.54
399.70	16173.10
399.90	15784.57
400.09	15960.11
400.28	15768.19
400.47	15854.79
400.67	16683.34
400.86	17034.42
401.05	17013.35
401.24	17188.89
401.44	17720.20
401.63	17715.51
401.82	17631.26
402.01	17851.27
402.21	18075.96
402.40	18097.02
402.59	17561.04
402.78	16783.98
402.97	16294.81
403.17	16578.01
403.36	17750.62
403.55	18480.87
403.74	18724.29
403.93	18066.60
404.13	16636.53
404.32	16231.62
404.51	16985.27
404.70	18251.50
404.89	18436.40
405.09	18106.38
405.28	17324.65
405.47	17554.02
405.66	17666.36
405.85	17128.04
406.05	16521.84
406.24	16847.18
406.43	17394.86
406.62	17977.65
406.81	18361.50
407.00	17387.84
407.20	17224.00
407.39	17348.05
407.58	18263.20
407.77	18883.44
407.96	19328.14
408.15	19536.45
408.34	19697.95
408.54	20369.68
408.73	20521.82
408.92	20379.04
409.11	19988.18
409.30	19183.03
409.49	17951.91
409.68	16957.18
409.87	16065.44
410.07	17123.36
410.26	18420.02
410.45	19569.22
410.64	20418.83
410.83	21022.69
411.02	21120.99
411.21	22010.40
411.40	21795.07
411.59	22183.60
411.78	21881.67
411.98	21317.60
412.17	22078.27
412.36	21652.30
412.55	21298.88
412.74	21128.02
412.93	20414.15
413.12	20727.78
413.31	22635.32
413.50	23260.24
413.69	23768.14
413.88	22579.15
414.07	21862.94
414.26	22417.65
414.45	22775.75
414.64	22958.31
414.83	22963.00
415.02	22047.85
415.22	22466.80
415.41	22916.19
415.60	23789.20
415.79	25174.80
415.98	25273.10
416.17	25329.28
416.36	24884.58
416.55	24147.31
416.74	23873.46
416.93	22623.62
417.12	22572.13
417.31	23021.51
417.50	23456.85
417.69	24463.28
417.88	24451.58
418.07	23852.40
418.26	23531.75
418.45	23824.31
418.64	24683.29
418.83	25383.11
419.02	25149.06
419.21	24865.85
419.39	23992.83
419.58	22867.03
419.77	22920.87
419.96	24081.77
420.15	25348.00
420.34	25832.49
420.53	26911.48
420.72	27520.02
420.91	27295.33
421.10	26504.23
421.29	26410.60
421.48	25750.57
421.67	27026.17
421.86	26108.68
422.05	24613.07
422.24	21792.73
422.43	21631.23
422.61	23711.97
422.80	25942.50
422.99	26012.71
423.18	24940.75
423.37	24084.11
423.56	24491.37
423.75	24940.75
423.94	25530.56
424.13	23999.85
424.32	24386.04
424.50	24659.88
424.69	24130.92
424.88	24329.87
425.07	24341.57
425.26	23929.64
425.45	23779.84
425.64	23655.79
425.83	23248.54
426.01	24718.40
426.20	25565.67
426.39	25048.41
426.58	23665.16
426.77	21591.44
426.96	20678.63
427.15	21343.35
427.33	23232.16
427.52	24669.25
427.71	24615.41
427.90	24460.94
428.09	23845.38
428.28	23772.82
428.46	22661.07
428.65	22412.97
428.84	23005.13
429.03	23386.63
429.22	22492.55
429.40	21025.03
429.59	19337.51
429.78	16437.58
429.97	16889.31
430.16	17106.98
430.34	17064.85
430.53	16968.88
430.72	17303.58
430.91	19033.24
431.10	22314.67
431.28	26778.07
431.47	28919.66
431.66	29345.64
431.85	26780.41
432.03	24341.57
432.22	23276.63
432.41	24456.26
432.60	26974.67
432.79	27864.08
432.97	28423.47
433.16	28538.15
433.35	25479.07
433.54	23623.03
433.72	21577.40
433.91	22185.94
434.10	24999.26
434.28	26611.89
434.47	27960.04
434.66	27690.88
434.85	26930.20
435.03	26583.80
435.22	27115.11
435.41	29074.13
435.59	29137.33
435.78	29670.97
435.97	30677.40
436.16	30536.97
436.34	30183.55
436.53	29479.05
436.72	29472.03
436.90	28133.24
437.09	28334.53
437.28	27374.91
437.46	28341.55
437.65	28297.08
437.84	26742.96
438.02	24278.38
438.21	23964.75
438.40	25764.62
438.58	27618.32
438.77	28264.31
438.96	28776.89
439.14	29905.02
439.33	30609.53
439.52	30951.24
439.70	30710.17
439.89	29598.41
440.08	28744.12
440.26	28664.54
440.45	29825.45
440.63	31658.09
440.82	33523.49
441.01	33528.17
441.19	32505.36
441.38	33172.41
441.57	34211.61
441.75	34813.13
441.94	34955.90
442.12	34478.43
442.31	35065.91
442.50	35002.71
442.68	34560.35
442.87	34410.56
443.05	33851.17
443.24	34455.03
443.43	35009.73
443.61	35531.67
443.80	36093.40
443.98	34225.65
444.17	34157.78
444.35	36034.89
444.54	36872.80
444.73	36397.67
444.91	34981.65
445.10	33481.36
445.28	32453.87
445.47	31428.71
445.65	32154.28
445.84	32980.49
446.02	33926.07
446.21	34316.93
446.39	34309.91
446.58	35138.46
446.77	35658.06
446.95	35728.28
447.14	36732.37
447.32	37294.10
447.51	36498.31
447.69	35115.06
447.88	34448.00
448.06	35108.04
448.25	35957.65
448.43	36264.26
448.62	35480.18
448.80	35358.47
448.99	35704.87
449.17	35601.89
449.36	36011.48
449.54	36966.42
449.73	37706.03
449.91	38127.33
450.10	39072.90
450.28	39978.69
450.46	39550.37
450.65	39796.13
450.83	39313.98
451.02	38256.06
451.20	38202.22
451.39	38155.41
451.57	38000.94
451.76	37968.17
451.94	37947.11
452.13	37048.34
452.31	35445.07
452.49	33464.98
452.68	34146.08
452.86	34340.34
453.05	34859.94
453.23	35555.08
453.42	36425.76
453.60	37509.43
453.78	37624.11
453.97	37298.78
454.15	37256.65
454.34	36559.17
454.52	36542.78
454.70	36252.56
454.89	36488.95
455.07	36657.47
455.26	36800.24
455.44	38295.85
455.62	39255.46
455.81	39206.31
455.99	39250.78
456.17	38637.56
456.36	38738.21
456.54	39948.26
456.73	39590.16
456.91	40392.97
457.09	40737.02
457.28	41249.60
457.46	39768.04
457.64	40081.67
457.83	38630.54
458.01	37544.53
458.19	38227.97
458.38	39023.75
458.56	40297.00
458.74	39793.79
458.93	39124.40
459.11	39409.94
459.29	38471.39
459.48	38895.02
459.66	38834.17
459.84	39119.71
460.03	39910.82
460.21	39761.02
460.39	40304.02
460.57	40783.83
460.76	41081.08
460.94	40802.56
461.12	40545.10
461.31	40858.73
461.49	40519.35
461.67	40612.98
461.85	41832.39
462.04	41504.72
462.22	41191.09
462.40	41617.07
462.59	41570.25
462.77	41392.37
462.95	41551.53
463.13	41216.83
463.32	41130.23
463.50	40676.17
463.68	40074.65
463.86	40519.35
464.05	39962.31
464.23	39037.80
464.41	38831.83
464.59	38349.68
464.78	40074.65
464.96	40172.96
465.14	39966.99
465.32	40687.87
465.50	41881.55
465.69	42167.09
465.87	41462.59
466.05	40407.01
466.23	38679.69
466.41	37577.30
466.60	38988.64
466.78	38717.14
466.96	39213.34
467.14	39721.23
467.32	40673.83
467.51	40870.43
467.69	38895.02
467.87	39924.86
468.05	40402.33
468.23	40119.12
468.41	40477.22
468.60	40285.30
468.78	40999.16
468.96	40500.63
469.14	41303.43
469.32	41265.99
469.50	39433.35
469.69	39924.86
469.87	39246.10
470.05	39243.76
470.23	38902.04
470.41	39508.24
470.59	39772.72
470.77	39681.44
470.95	40708.94
471.14	41413.44
471.32	41078.74
471.50	43800.79
471.68	43318.64
471.86	44030.16
472.04	44196.34
472.22	44486.56
472.40	42534.56
472.58	41886.23
472.77	41207.47
472.95	42389.44
473.13	43199.27
473.31	41893.25
473.49	42251.35
473.67	43208.63
473.85	43152.46
474.03	44486.56
474.21	44311.02
474.39	45083.40
474.57	45492.99
474.75	45052.97
474.93	45174.68
475.12	44013.77
475.30	44280.60
475.48	44074.63
475.66	44765.09
475.84	44109.74
476.02	43871.00
476.20	43164.16
476.38	44243.15
476.56	45380.65
476.74	45783.22
476.92	45528.10
477.10	46450.27
477.28	47657.99
477.46	47756.29
477.64	48133.12
477.82	48259.51
478.00	48067.58
478.18	47634.58
478.36	47789.06
478.54	47423.93
478.72	47777.36
478.90	49059.97
479.08	49558.50
479.26	50316.84
479.44	50122.57
479.62	49595.95
479.80	49830.01
479.98	49911.92
480.16	50295.77
480.34	49970.44
480.52	50389.39
480.70	50354.29
480.88	50445.57
481.06	50941.76
481.24	51306.88
481.41	52177.56
481.59	52711.20
481.77	52437.36
481.95	51662.64
482.13	51873.29
482.31	51894.36
482.49	52477.15
482.67	51995.00
482.85	52507.58
483.03	52755.68
483.21	53139.52
483.39	53457.84
483.57	52498.22
483.74	52729.93
483.92	52512.26
484.10	53001.43
484.28	53443.79
484.46	53893.18
484.64	54234.89
484.82	53371.24
485.00	53268.25
485.18	52704.18
485.35	51657.96
485.53	48783.79
485.71	45411.07
485.89	44442.09
486.07	46174.09
486.25	49551.48
486.43	51587.75
486.61	52261.82
486.78	52320.34
486.96	52376.51
487.14	53935.30
487.32	54333.20
487.50	55295.16
487.68	55891.99
487.85	56254.78
488.03	56310.95
488.21	55994.98
488.39	55341.97
488.57	54990.89
488.75	54595.34
488.92	55407.50
489.10	57099.71
489.28	58387.00
489.46	58798.94
489.64	58637.44
489.81	58913.62
489.99	58688.93
490.17	58585.95
490.35	59072.78
490.53	58501.69
490.70	58220.83
490.88	57958.69
491.06	58972.14
491.24	58770.85
491.41	58138.91
491.59	56715.86
491.77	55828.80
491.95	56917.15
492.13	57762.08
492.30	58927.67
492.48	59557.27
492.66	60271.14
492.84	60111.98
493.01	59800.69
493.19	59402.80
493.37	59032.99
493.54	58920.65
493.72	59154.70
493.90	60111.98
494.08	60907.76
494.25	61116.07
494.43	61207.35
494.61	61558.43
494.79	61666.09
494.96	61516.30
495.14	60952.23
495.32	60046.44
495.49	59320.88
495.67	60526.25
495.85	61663.75
496.02	62073.35
496.20	61848.66
496.38	61595.88
496.55	61448.42
496.73	61813.55
496.91	61900.15
497.09	62588.27
497.26	62794.23
497.44	61977.39
497.62	61677.80
497.79	61036.49
497.97	60051.12
498.14	60076.87
498.32	61041.17
498.50	61848.66
498.67	62302.72
498.85	61991.43
499.03	62433.79
499.20	62323.78
499.38	62527.41
499.56	62454.86
499.73	61984.41
499.91	61715.25
500.08	61193.31
500.26	60544.98
500.44	60980.32
500.61	61745.67
500.79	61652.05
500.97	61034.15
501.14	61083.30
501.32	60994.36
501.49	60650.30
501.67	60985.00
501.84	61729.29
502.02	61771.42
502.20	62155.27
502.37	62157.61
502.55	62220.80
502.72	62733.38
502.90	63161.70
503.07	62932.32
503.25	62515.71
503.43	61638.01
503.60	61343.10
503.78	60713.50
503.95	60973.30
504.13	62447.83
504.30	62990.84
504.48	62831.68
504.65	62611.67
504.83	62365.91
505.01	63093.82
505.18	63213.19
505.36	63723.43
505.53	63861.52
505.71	64109.61
505.88	64051.10
506.06	63620.44
506.23	63327.87
506.41	62955.73
506.58	63313.83
506.76	63171.06
506.93	63217.87
507.11	62742.74
507.28	63103.18
507.46	62752.10
507.63	62314.42
507.81	61998.45
507.98	62197.40
508.16	62934.66
508.33	63234.25
508.50	63704.70
508.68	63922.37
508.85	64259.41
509.03	64161.11
509.20	64193.87
509.38	63510.44
509.55	62815.30
509.73	62829.34
509.90	63374.69
510.08	63774.92
510.25	63505.76
510.42	63384.05
510.60	63447.24
510.77	63590.01
510.95	63913.01
511.12	64292.18
511.30	64530.91
511.47	64647.94
511.64	64605.81
511.82	64416.22
511.99	63772.58
512.17	63264.68
512.34	62892.54
512.51	63037.65
512.69	63278.72
512.86	63292.77
513.04	63660.23
513.21	63587.67
513.38	63426.18
513.56	62819.98
513.73	62323.78
513.90	62529.75
514.08	62513.37
514.25	62852.75
514.43	63089.14
514.60	63098.50
514.77	63351.28
514.95	63365.32
515.12	63257.66
515.29	63487.03
515.47	63849.81
515.64	64104.93
515.81	63587.67
515.99	63243.62
516.16	62087.39
516.33	60055.81
516.51	58782.55
516.68	58073.37
516.85	57684.84
517.03	58202.10
517.20	60362.42
517.37	62433.79
517.54	63372.34
517.72	63028.29
517.89	61095.00
518.06	58810.64
518.24	58862.13
518.41	60921.80
518.58	62211.44
518.75	62403.36
518.93	62358.89
519.10	62323.78
519.27	62796.57
519.45	63121.91
519.62	63526.82
519.79	63936.41
519.96	63725.77
520.14	63494.05
520.31	62726.36
520.48	62604.65
520.65	62946.37
520.83	63756.19
521.00	64142.38
521.17	63770.24
521.34	63414.47
521.52	63891.94
521.69	64292.18
521.86	64488.78
522.03	64252.39
522.20	63047.01
522.38	62300.38
522.55	62302.72
522.72	62749.76
522.89	62948.71
523.07	63154.68
523.24	63419.16
523.41	64198.55
523.58	64381.12
523.75	64912.42
523.92	64699.43
524.10	64549.63
524.27	64683.04
524.44	64465.38
524.61	64254.73
524.78	64044.08
524.96	64027.70
525.13	64053.44
525.30	64322.60
525.47	64720.49
525.64	64692.41
525.81	64048.76
525.98	62733.38
526.16	61511.62
526.33	60938.19
526.50	60795.42
526.67	60505.19
526.84	60919.46
527.01	61801.85
527.18	62508.69
527.36	63262.34
527.53	63810.03
527.70	64144.72
527.87	63604.06
528.04	63458.94
528.21	63723.43
528.38	64301.54
528.55	64746.24
528.72	65055.19
528.89	65209.67
529.07	65059.87
529.24	64533.25
529.41	63880.24
529.58	63407.45
529.75	63400.43
529.92	63831.09
530.09	64069.82
530.26	64575.38
530.43	64938.16
530.60	64788.37
530.77	65038.81
530.94	65209.67
531.11	64753.26
531.28	64446.65
531.46	64135.36
531.63	64580.06
531.80	64287.49
531.97	63810.03
532.14	63054.03
532.31	62541.45
532.48	61689.50
532.65	61806.53
532.82	62621.03
532.99	63505.76
533.16	63833.43
533.33	64341.33
533.50	64306.22
533.67	63561.93
533.84	63091.48
534.01	63414.47
534.18	63545.54
534.35	63833.43
534.52	63477.67
534.69	63812.37
534.86	64205.58
535.03	64320.26
535.20	64968.59
535.37	65106.68
535.54	65247.11
535.71	64989.66
535.88	64692.41
536.05	63845.13
536.22	63594.70
536.38	63423.84
536.55	63002.54
536.72	62412.73
536.89	62466.56
537.06	63210.85
537.23	63833.43
537.40	63929.39
537.57	63952.80
537.74	63791.30
537.91	63908.33
538.08	63763.21
538.25	63896.62
538.42	64245.36
538.59	63978.54
538.75	63257.66
538.92	63098.50
539.09	62939.35
539.26	62859.77
539.43	62578.90
539.60	62724.02
539.77	63018.92
539.94	62873.81
540.11	62056.96
540.28	61329.06
540.44	61911.85
540.61	61989.09
540.78	62206.76
540.95	62459.54
541.12	62972.11
541.29	63260.00
541.46	63456.60
541.62	63370.00
541.79	63269.36
541.96	62904.24
542.13	62745.08
542.30	62831.68
542.47	63093.82
542.63	62962.75
542.80	62604.65
542.97	63009.56
543.14	62686.57
543.31	62702.95
543.48	63157.02
543.64	63985.57
543.81	64093.23
543.98	63992.59
544.15	63341.92
544.32	62864.45
544.48	62939.35
544.65	63318.51
544.82	63774.92
544.99	63334.90
545.16	63241.28
545.32	62728.70
545.49	63601.72
545.66	63957.48
545.83	63533.84
546.00	63168.72
546.16	62887.85
546.33	62927.64
546.50	63032.97
546.67	63402.77
546.83	63168.72
547.00	63079.78
547.17	62333.15
547.34	62033.56
547.50	61942.28
547.67	62368.26
547.84	62316.76
548.00	62585.92
548.17	63180.42
548.34	63175.74
548.51	62871.47
548.67	62983.82
548.84	63004.88
549.01	62976.79
549.18	63133.61
549.34	63025.95
549.51	62944.03
549.68	62894.88
549.84	62546.14
550.01	62637.42
550.18	62438.47
550.34	62485.28
550.51	62564.86
550.68	62738.06
550.84	62377.62
551.01	62260.59
551.18	62190.37
551.34	62546.14
551.51	62649.12
551.68	63032.97
551.84	63091.48
552.01	62960.41
552.18	62873.81
552.34	62031.22
552.51	61872.06
552.68	61492.89
552.84	62117.82
553.01	62468.90
553.18	62248.89
553.34	62246.55
553.51	62344.85
553.67	62679.55
553.84	62752.10
554.01	62691.25
554.17	62333.15
554.34	62377.62
554.51	62726.36
554.67	62986.16
554.84	62796.57
555.00	62405.70
555.17	62314.42
555.33	62260.59
555.50	62267.61
555.67	62351.87
555.83	62101.43
556.00	61757.38
556.16	61762.06
556.33	61497.58
556.50	61535.02
556.66	61586.52
556.83	61181.60
556.99	61354.80
557.16	61347.78
557.32	61883.76
557.49	62047.60
557.65	61790.14
557.82	61970.36
557.98	61867.38
558.15	61272.88
558.32	60509.87
558.48	59774.94
558.65	60100.28
558.81	60329.65
558.98	60652.64
559.14	60860.95
559.31	60947.55
559.47	60952.23
559.64	60633.92
559.80	60411.57
559.97	60184.54
560.13	60650.30
560.30	61483.53
560.46	61914.19
560.63	62206.76
560.79	62164.63
560.96	61874.40
561.12	60882.02
561.29	60203.26
561.45	59985.59
561.61	60687.75
561.78	60954.57
561.94	60900.74
562.11	60685.41
562.27	60793.07
562.44	60989.68
562.60	61333.74
562.77	61291.61
562.93	61160.54
563.10	61357.14
563.26	60732.22
563.42	60741.58
563.59	60526.25
563.75	60470.08
563.92	60844.57
564.08	60561.36
564.24	60853.93
564.41	60865.63
564.57	60774.35
564.74	60643.28
564.90	60638.60
565.07	60432.63
565.23	60093.25
565.39	59522.16
565.56	59381.73
565.72	59260.02
565.88	59721.11
566.05	59866.22
566.21	59929.42
566.38	59938.78
566.54	59929.42
566.70	60317.95
566.87	60449.02
567.03	60509.87
567.19	60830.52
567.36	60350.71
567.52	60329.65
567.68	60111.98
567.85	59547.91
568.01	59260.02
568.17	59110.23
568.34	59096.19
568.50	59093.85
568.66	59084.48
568.83	59578.34
568.99	59316.20
569.15	59805.37
569.32	59552.59
569.48	59484.72
569.64	59353.65
569.81	59035.33
569.97	58859.79
570.13	58934.69
570.30	58499.35
570.46	58218.49
570.62	57708.25
570.78	57642.71
570.95	57640.37
571.11	58480.63
571.27	58581.27
571.43	58801.28
571.60	58920.65
571.76	59084.48
571.92	59484.72
572.09	59526.84
572.25	59529.19
572.41	59344.28
572.57	59367.69
572.74	59348.96
572.90	59068.10
573.06	59072.78
573.22	59070.44
573.38	59004.91
573.55	58958.09
573.71	59178.10
573.87	58944.05
574.03	58883.20
574.20	59054.06
574.36	58494.67
574.52	58663.19
574.68	58251.25
574.84	58143.59
575.01	57792.51
575.17	57607.61
575.33	57914.22
575.49	58145.93
575.65	58230.19
575.82	58234.87
575.98	57804.21
576.14	57982.09
576.30	58433.81
576.46	58356.58
576.62	58298.06
576.79	58356.58
576.95	58010.18
577.11	57914.22
577.27	57939.96
577.43	58152.95
577.59	57748.04
577.75	57403.98
577.92	56769.69
578.08	56633.94
578.24	56673.73
578.40	57209.71
578.56	57289.29
578.72	57181.63
578.88	57392.28
579.04	57649.74
579.21	57712.93
579.37	57748.04
579.53	57717.61
579.69	57818.25
579.85	57879.11
580.01	58005.50
580.17	57179.29
580.33	57333.76
580.49	57425.04
580.65	57415.68
580.82	57780.81
580.98	57691.86
581.14	57392.28
581.30	57726.97
581.46	57371.21
581.62	57626.33
581.78	57750.38
581.94	57710.59
582.10	57717.61
582.26	57909.53
582.42	57703.57
582.58	57881.45
582.74	57881.45
582.90	57666.12
583.06	57890.81
583.22	57572.50
583.38	57675.48
583.54	57396.96
583.70	57432.07
583.86	57764.42
584.02	57528.03
584.18	57329.08
584.34	57553.77
584.50	57317.38
584.66	57240.14
584.82	56907.79
584.98	56966.30
585.14	56530.96
