SpectraSuite Data File
++++++++++++++++++++++++++++++++++++
Date: Mon Oct 07 14:53:55 GMT-05:00 2013
User: price-jones
Dark Spectrum Present: No
Reference Spectrum Present: No
Number of Sampled Component Spectra: 1
Spectrometers: USB2+H05261
Integration Time (usec): 100000 (USB2+H05261)
Spectra Averaged: 1 (USB2+H05261)
Boxcar Smoothing: 0 (USB2+H05261)
Correct for Electrical Dark: No (USB2+H05261)
Strobe/Lamp Enabled: No (USB2+H05261)
Correct for Detector Non-linearity: No (USB2+H05261)
Correct for Stray Light: No (USB2+H05261)
Number of Pixels in Processed Spectrum: 2048
>>>>>Begin Processed Spectral Data<<<<<
365.73	0.00
365.92	0.00
366.12	0.00
366.32	0.00
366.52	0.00
366.72	0.00
366.91	0.00
367.11	0.00
367.31	0.00
367.51	0.00
367.70	0.00
367.90	0.00
368.10	0.00
368.30	0.00
368.49	0.00
368.69	0.00
368.89	0.00
369.09	0.00
369.28	0.00
369.48	0.00
369.68	0.00
369.87	0.00
370.07	0.00
370.27	0.00
370.47	603.86
370.66	2906.95
370.86	3438.25
371.06	3936.78
371.25	3747.20
371.45	3520.17
371.65	3166.74
371.84	2967.80
372.04	3021.63
372.24	3501.44
372.44	3471.01
372.63	3508.46
372.83	3152.70
373.03	2789.92
373.22	2633.10
373.42	2785.24
373.62	3201.85
373.81	3454.63
374.01	3534.21
374.21	3119.93
374.40	2813.32
374.60	3105.89
374.79	3370.37
374.99	3997.64
375.19	4325.31
375.38	4395.53
375.58	4079.55
375.78	4079.55
375.97	4021.04
376.17	4266.80
376.37	4219.99
376.56	4383.82
376.76	4428.29
376.95	4730.22
377.15	5188.97
377.35	5348.12
377.54	5640.69
377.74	5849.00
377.93	5867.72
378.13	5762.40
378.33	5413.66
378.52	4999.38
378.72	4767.67
378.91	4564.04
379.11	4528.94
379.31	4308.93
379.50	4278.50
379.70	4650.64
379.89	5212.37
380.09	5455.79
380.28	5767.08
380.48	5640.69
380.68	5523.66
380.87	5376.21
381.07	5032.15
381.26	4770.01
381.46	4486.81
381.65	4219.99
381.85	4180.20
382.04	3880.61
382.24	3588.04
382.43	3517.83
382.63	3351.65
382.83	3412.50
383.02	3456.97
383.22	3368.03
383.41	3370.37
383.61	3583.36
383.80	4203.60
384.00	4699.80
384.19	5352.81
384.39	5605.58
384.58	5621.97
384.78	5327.06
384.97	5561.11
385.17	5018.11
385.36	4854.27
385.56	4690.43
385.75	4755.97
385.95	5336.42
386.14	5668.78
386.34	5738.99
386.53	5385.57
386.72	5132.79
386.92	5259.18
387.11	5605.58
387.31	5804.53
387.50	5516.64
387.70	5575.16
387.89	5322.38
388.09	5446.43
388.28	5416.00
388.48	5514.30
388.67	5914.53
388.86	6602.65
389.06	6974.80
389.25	7344.60
389.45	7400.77
389.64	7522.48
389.84	7173.74
390.03	7197.15
390.22	7171.40
390.42	7473.33
390.61	7990.59
390.81	8702.11
391.00	8716.16
391.19	8535.93
391.39	8369.76
391.58	7882.92
391.78	7250.98
391.97	7105.87
392.16	6609.67
392.36	6106.46
392.55	4819.16
392.75	3906.35
392.94	3201.85
393.13	3138.66
393.33	3623.15
393.52	4744.27
393.71	5893.47
393.91	6567.54
394.10	7148.00
394.29	7882.92
394.49	8205.92
394.68	9165.54
394.88	9001.70
395.07	9397.25
395.26	9224.05
395.46	8999.36
395.65	8507.85
395.84	7515.46
396.04	6359.24
396.23	5114.07
396.42	4184.88
396.62	4007.00
396.81	4660.01
397.00	6069.01
397.19	7637.17
397.39	9153.84
397.58	10115.80
397.77	10661.14
397.97	11286.06
398.16	11335.21
398.35	11840.77
398.55	12140.36
398.74	12706.77
398.93	12798.05
399.12	12599.10
399.32	12058.44
399.51	12278.45
399.70	13177.22
399.90	13013.38
400.09	13123.38
400.28	13074.23
400.47	13256.79
400.67	13895.76
400.86	14059.60
401.05	14146.20
401.24	14305.35
401.44	14537.07
401.63	14333.44
401.82	14492.60
402.01	14319.40
402.21	14579.20
402.40	14836.66
402.59	14270.25
402.78	13834.91
402.97	13408.93
403.17	13661.71
403.36	14862.40
403.55	15255.61
403.74	15508.39
403.93	14785.16
404.13	13607.87
404.32	13118.70
404.51	13886.40
404.70	15089.43
404.89	15063.69
405.09	14911.55
405.28	14319.40
405.47	14256.20
405.66	14249.18
405.85	13881.72
406.05	13715.54
406.24	13741.29
406.43	14410.68
406.62	14944.32
406.81	15220.50
407.00	14382.59
407.20	14178.97
407.39	14441.11
407.58	14621.33
407.77	15482.64
407.96	15880.53
408.15	16311.19
408.34	16266.72
408.54	16959.52
408.73	16910.37
408.92	16865.90
409.11	16276.09
409.30	15564.56
409.49	14771.12
409.68	13640.64
409.87	13186.58
410.07	13926.19
410.26	15314.13
410.45	15908.62
410.64	16264.38
410.83	17207.62
411.02	17315.28
411.21	18092.34
411.40	17624.23
411.59	17675.73
411.78	17916.80
411.98	17465.08
412.17	17898.08
412.36	17699.13
412.55	17741.26
412.74	17312.94
412.93	16922.07
413.12	16875.26
413.31	18583.85
413.50	18686.84
413.69	19044.94
413.88	18310.01
414.07	17507.21
414.26	18001.06
414.45	18391.93
414.64	18834.29
414.83	18752.37
415.02	18190.64
415.22	18237.45
415.41	18583.85
415.60	19232.18
415.79	20166.06
415.98	20929.07
416.17	20629.48
416.36	20322.87
416.55	20135.63
416.74	19154.94
416.93	18611.94
417.12	18511.30
417.31	18904.51
417.50	18972.38
417.69	19819.66
417.88	19609.01
418.07	19599.65
418.26	19314.10
418.45	19384.32
418.64	19950.73
418.83	20837.79
419.02	20540.54
419.21	20245.63
419.39	19487.30
419.58	18499.59
419.77	18340.44
419.96	19440.49
420.15	20449.26
420.34	21008.65
420.53	21752.94
420.72	22171.89
420.91	21750.60
421.10	21713.15
421.29	21500.16
421.48	20486.71
421.67	21916.78
421.86	21406.54
422.05	19707.31
422.24	17809.14
422.43	17539.97
422.61	19550.49
422.80	21139.72
422.99	20999.29
423.18	20435.22
423.37	19826.68
423.56	20292.44
423.75	20276.06
423.94	20783.96
424.13	19414.74
424.32	19768.16
424.50	19679.22
424.69	19398.36
424.88	19786.89
425.07	19728.38
425.26	19438.15
425.45	19398.36
425.64	18899.83
425.83	19176.01
426.01	20065.41
426.20	20573.31
426.39	20306.49
426.58	18848.33
426.77	17458.06
426.96	16891.65
427.15	17425.29
427.33	19105.79
427.52	19620.71
427.71	19749.44
427.90	19353.89
428.09	19438.15
428.28	18986.43
428.46	18293.63
428.65	18302.99
428.84	18410.65
429.03	18951.32
429.22	17551.68
429.40	17041.44
429.59	15257.95
429.78	13509.57
429.97	13542.34
430.16	13621.92
430.34	13958.96
430.53	13556.38
430.72	14115.77
430.91	15433.49
431.10	18129.79
431.28	21462.71
431.47	23405.36
431.66	23417.06
431.85	21811.45
432.03	19868.81
432.22	18864.72
432.41	19494.32
432.60	22031.46
432.79	22665.75
432.97	23304.71
433.16	22576.81
433.35	20589.69
433.54	18558.11
433.72	17575.08
433.91	18284.26
434.10	20130.95
434.28	21666.34
434.47	22703.20
434.66	22207.00
434.85	21809.11
435.03	21345.69
435.22	22199.98
435.41	23627.71
435.59	23611.32
435.78	23826.65
435.97	24374.34
436.16	24603.71
436.34	24039.64
436.53	23990.49
436.72	23740.05
436.90	22092.32
437.09	22551.06
437.28	22064.23
437.46	23002.78
437.65	22932.57
437.84	21441.65
438.02	19468.58
438.21	19536.45
438.40	20585.01
438.58	22162.53
438.77	22860.01
438.96	23007.47
439.14	24123.90
439.33	24428.17
439.52	24699.67
439.70	24140.29
439.89	23765.80
440.08	23332.80
440.26	23302.37
440.45	23981.13
440.63	25582.06
440.82	26869.35
441.01	26321.66
441.19	25799.73
441.38	26281.88
441.57	27857.06
441.75	28067.70
441.94	27997.49
442.12	27899.19
442.31	28383.68
442.50	28215.16
442.68	27934.29
442.87	27536.40
443.05	26984.04
443.24	27353.84
443.43	27850.03
443.61	28713.69
443.80	28804.97
443.98	27147.87
444.17	27136.17
444.35	29221.59
444.54	29614.80
444.73	29504.79
444.91	27840.67
445.10	26834.24
445.28	25937.82
445.47	25458.01
445.65	25692.06
445.84	26064.21
446.02	26925.52
446.21	27222.77
446.39	27541.08
446.58	27992.81
446.77	28423.47
446.95	28287.71
447.14	29694.38
447.32	29837.15
447.51	29116.26
447.69	28037.28
447.88	27826.63
448.06	27896.85
448.25	28711.35
448.43	28868.17
448.62	28276.01
448.80	28135.58
448.99	28568.58
449.17	28463.25
449.36	28687.95
449.54	29902.68
449.73	30328.66
449.91	30768.68
450.10	31253.17
450.28	32245.56
450.46	31646.38
450.65	31655.75
450.83	31531.70
451.02	30731.23
451.20	30295.89
451.39	30391.86
451.57	30110.99
451.76	30281.85
451.94	29907.37
452.13	29741.19
452.31	28442.19
452.49	27075.32
452.68	27119.79
452.86	27454.48
453.05	27618.32
453.23	28533.47
453.42	28868.17
453.60	29923.75
453.78	29612.46
453.97	29776.30
454.15	29902.68
454.34	29165.42
454.52	29364.36
454.70	29137.33
454.89	29092.86
455.07	29137.33
455.26	29535.22
455.44	30682.08
455.62	31426.37
455.81	31758.73
455.99	31274.24
456.17	31136.15
456.36	30848.26
456.54	31732.98
456.73	31948.31
456.91	32521.74
457.09	32275.99
457.28	32889.21
457.46	31550.42
457.64	31360.84
457.83	30836.56
458.01	30103.97
458.19	30630.59
458.38	30878.69
458.56	31882.78
458.74	31985.76
458.93	31311.69
459.11	31009.76
459.29	31091.68
459.48	31009.76
459.66	30955.93
459.84	31101.04
460.03	31381.90
460.21	31463.82
460.39	32341.52
460.57	32416.42
460.76	32727.71
460.94	32856.44
461.12	33113.90
461.31	32453.87
461.49	32177.68
461.67	32638.77
461.85	33631.16
462.04	32910.27
462.22	33841.81
462.40	33090.49
462.59	33369.02
462.77	32826.01
462.95	33502.43
463.13	32622.39
463.32	32566.21
463.50	32341.52
463.68	32655.15
463.86	32402.38
464.05	31948.31
464.23	31267.22
464.41	31094.02
464.59	30534.63
464.78	32222.16
464.96	31882.78
465.14	31700.22
465.32	32538.13
465.50	33350.29
465.69	33699.03
465.87	32816.65
466.05	32304.07
466.23	30611.87
466.41	30127.38
466.60	30429.30
466.78	30782.73
466.96	31358.50
467.14	31665.11
467.32	32423.44
467.51	32170.66
467.69	30686.76
467.87	31353.82
468.05	31646.38
468.23	32032.57
468.41	32044.27
468.60	31831.29
468.78	32512.38
468.96	32004.49
469.14	33144.33
469.32	32830.69
469.50	31243.81
469.69	31700.22
469.87	31304.67
470.05	31108.06
470.23	30927.84
470.41	31168.91
470.59	31648.72
470.77	31868.73
470.95	32149.60
471.14	32631.75
471.32	32893.89
471.50	34763.98
471.68	34581.42
471.86	34866.96
472.04	34981.65
472.22	35328.05
472.40	33666.27
472.58	33364.34
472.77	32854.10
472.95	33298.80
473.13	34171.82
473.31	33469.66
473.49	33425.19
473.67	33883.94
473.85	34621.20
474.03	35299.96
474.21	35697.85
474.39	35709.55
474.57	36020.84
474.75	35828.92
474.93	35213.36
475.12	34426.94
475.30	34944.20
475.48	34998.03
475.66	35487.20
475.84	35026.12
476.02	34937.18
476.20	34506.52
476.38	35019.10
476.56	35941.27
476.74	35920.20
476.92	36809.61
477.10	37177.07
477.28	38087.54
477.46	38223.29
477.64	38600.12
477.82	38691.40
478.00	39189.93
478.18	38366.06
478.36	38363.72
478.54	38033.71
478.72	38291.16
478.90	38930.13
479.08	40060.61
479.26	40751.07
479.44	40554.46
479.62	40327.43
479.80	40484.25
479.98	40472.54
480.16	40694.89
480.34	40437.44
480.52	40741.71
480.70	41165.34
480.88	41017.89
481.06	41893.25
481.24	42469.02
481.41	43028.41
481.59	43503.54
481.77	43423.96
481.95	42663.28
482.13	42703.07
482.31	42967.55
482.49	43496.52
482.67	43145.44
482.85	43269.48
483.03	44009.09
483.21	44259.53
483.39	44191.65
483.57	43702.48
483.74	43395.87
483.92	43810.15
484.10	43732.91
484.28	44914.88
484.46	45687.26
484.64	45799.60
484.82	44371.88
485.00	44502.95
485.18	43091.60
485.35	42398.80
485.53	39040.14
485.71	35786.79
485.89	34710.14
486.07	36849.39
486.25	39859.32
486.43	42401.14
486.61	43056.50
486.78	43178.20
486.96	43522.26
487.14	44673.81
487.32	45631.08
487.50	46789.65
487.68	47786.72
487.85	48617.61
488.03	48439.73
488.21	47730.54
488.39	47271.80
488.57	46202.18
488.75	46075.79
488.92	47220.31
489.10	49645.10
489.28	50941.76
489.46	51707.12
489.64	51550.30
489.81	51765.63
489.99	51386.46
490.17	51164.11
490.35	52048.83
490.53	51288.16
490.70	50518.12
490.88	50639.83
491.06	52182.24
491.24	51826.48
491.41	50873.88
491.59	48905.49
491.77	47885.02
491.95	49006.14
492.13	50513.44
492.30	51866.27
492.48	52676.10
492.66	53352.51
492.84	53092.71
493.01	53228.46
493.19	52130.75
493.37	52074.58
493.54	51922.44
493.72	52477.15
493.90	53483.58
494.08	54150.63
494.25	54646.83
494.43	54845.77
494.61	54866.84
494.79	55206.22
494.96	54913.65
495.14	54253.62
495.32	53581.88
495.49	52671.42
495.67	53834.66
495.85	55257.71
496.02	55515.17
496.20	55538.57
496.38	55164.09
496.55	55049.40
496.73	55313.88
496.91	55360.69
497.09	56179.88
497.26	56214.99
497.44	55908.38
497.62	55393.46
497.79	54628.10
497.97	52917.17
498.14	53155.91
498.32	54330.86
498.50	55391.12
498.67	56109.66
498.85	55770.28
499.03	55906.04
499.20	55969.23
499.38	55992.64
499.56	56041.79
499.73	55512.83
499.91	54899.61
500.08	54569.59
500.26	53663.80
500.44	54473.63
500.61	55079.83
500.79	55114.94
500.97	54513.42
501.14	54342.56
501.32	54220.85
501.49	54234.89
501.67	54419.80
501.84	55100.89
502.02	55433.25
502.20	55587.72
502.37	55744.54
502.55	55763.26
502.72	56186.90
502.90	56589.47
503.07	56388.19
503.25	55994.98
503.43	55194.51
503.60	54403.41
503.78	53787.85
503.95	54326.17
504.13	55732.84
504.30	56437.34
504.48	56278.18
504.65	55999.66
504.83	55941.14
505.01	56619.90
505.18	56830.55
505.36	57645.05
505.53	57535.05
505.71	57834.64
505.88	58045.29
506.06	57539.73
506.23	56954.60
506.41	56575.43
506.58	56671.39
506.76	56603.52
506.93	56987.36
507.11	56336.69
507.28	56633.94
507.46	56191.58
507.63	55540.91
507.81	55512.83
507.98	55407.50
508.16	56268.82
508.33	56757.99
508.50	57123.11
508.68	57659.10
508.85	58054.65
509.03	58007.84
509.20	57799.53
509.38	57036.51
509.55	56463.08
509.73	56472.45
509.90	57045.88
510.08	57240.14
510.25	57237.80
510.42	56718.20
510.60	57001.41
510.77	57144.18
510.95	57661.44
511.12	57865.06
511.30	58026.56
511.47	58372.96
511.64	58260.62
511.82	57860.38
511.99	57158.22
512.17	56823.53
512.34	56432.66
512.51	56645.65
512.69	56498.19
512.86	56790.76
513.04	57387.60
513.21	57373.55
513.38	56863.32
513.56	56385.85
513.73	55690.71
513.90	55980.93
514.08	56020.72
514.25	56271.16
514.43	56694.80
514.60	56617.56
514.77	56839.91
514.95	56961.62
515.12	56987.36
515.29	56921.83
515.47	57429.72
515.64	57951.66
515.81	57495.26
515.99	56708.84
516.16	55220.26
516.33	53038.88
516.51	51327.95
516.68	50770.90
516.85	49937.67
517.03	50265.34
517.20	53324.43
517.37	55901.36
517.54	56903.10
517.72	56395.21
517.89	54059.35
518.06	51040.06
518.24	51767.97
518.41	53914.24
518.58	55421.55
518.75	55707.09
518.93	55826.46
519.10	55695.39
519.27	56266.48
519.45	56268.82
519.62	57008.43
519.79	57422.70
519.96	57289.29
520.14	56891.40
520.31	55990.30
520.48	55997.32
520.65	56254.78
520.83	57111.41
521.00	57762.08
521.17	57263.55
521.34	56893.74
521.52	56963.96
521.69	57661.44
521.86	58103.80
522.03	57801.87
522.20	56460.74
522.38	55454.31
522.55	55299.84
522.72	56123.71
522.89	56388.19
523.07	56493.51
523.24	56868.00
523.41	57687.18
523.58	57975.07
523.75	58398.71
523.92	58197.42
524.10	58178.70
524.27	58152.95
524.44	57932.94
524.61	57717.61
524.78	57752.72
524.96	57542.07
525.13	57598.24
525.30	57820.59
525.47	58185.72
525.64	58185.72
525.81	57380.57
525.98	55835.82
526.16	54457.24
526.33	53689.55
526.50	53474.22
526.67	53137.18
526.84	53780.83
527.01	54913.65
527.18	55781.99
527.36	56371.80
527.53	57523.35
527.70	57836.98
527.87	57022.47
528.04	56516.92
528.21	57200.35
528.38	57879.11
528.55	58286.36
528.72	58599.99
528.89	58710.00
529.07	58597.65
529.24	57996.13
529.41	57305.68
529.58	56612.88
529.75	56732.25
529.92	57284.61
530.09	57682.50
530.26	58115.50
530.43	58351.90
530.60	58288.70
530.77	58592.97
530.94	58801.28
531.11	58185.72
531.28	57776.12
531.46	57586.54
531.63	57862.72
531.80	57799.53
531.97	57254.18
532.14	56575.43
532.31	55323.24
532.48	54611.72
532.65	55075.15
532.82	55702.41
532.99	56835.23
533.16	57181.63
533.33	57724.63
533.50	57598.24
533.67	56907.79
533.84	56289.88
534.01	56750.97
534.18	57085.67
534.35	57155.88
534.52	56868.00
534.69	57223.76
534.86	57532.71
535.03	57497.60
535.20	58328.49
535.37	58630.42
535.54	58595.31
535.71	58326.15
535.88	57961.03
536.05	57169.93
536.22	56760.33
536.38	56516.92
536.55	55917.74
536.72	55536.23
536.89	55353.67
537.06	56252.44
537.23	57139.50
537.40	57401.64
537.57	57392.28
537.74	57144.18
537.91	57008.43
538.08	56982.68
538.25	57190.99
538.42	57368.87
538.59	57008.43
538.75	56640.96
538.92	56273.50
539.09	56044.13
539.26	55980.93
539.43	55760.92
539.60	55758.58
539.77	55966.89
539.94	55870.93
540.11	54981.52
540.28	54490.01
540.44	54653.85
540.61	54803.64
540.78	54892.58
540.95	55444.95
541.12	55950.51
541.29	56266.48
541.46	56486.49
541.62	56687.78
541.79	56809.48
541.96	55419.20
542.13	55814.76
542.30	56229.03
542.47	56442.02
542.63	55854.54
542.80	55870.93
542.97	55845.18
543.14	55887.31
543.31	55920.08
543.48	56278.18
543.64	57403.98
543.81	57425.04
543.98	57305.68
544.15	56603.52
544.32	56006.68
544.48	56055.83
544.65	56404.57
544.82	56975.66
544.99	56420.95
545.16	56334.35
545.32	55805.39
545.49	56891.40
545.66	57151.20
545.83	56715.86
546.00	56252.44
546.16	55810.07
546.33	55732.84
546.50	56067.53
546.67	56617.56
546.83	55936.46
547.00	56207.97
547.17	55576.02
547.34	54850.45
547.50	54962.80
547.67	55381.76
547.84	55391.12
548.00	55721.13
548.17	56226.69
548.34	56023.06
548.51	56123.71
548.67	55906.04
548.84	56427.98
549.01	55749.22
549.18	56207.97
549.34	55936.46
549.51	56083.92
549.68	55704.75
549.84	55412.18
550.01	55463.67
550.18	55379.42
550.34	55746.88
550.51	55470.70
550.68	55571.34
550.84	55196.85
551.01	55210.90
551.18	55173.45
551.34	55194.51
551.51	55718.79
551.68	55955.19
551.84	56004.34
552.01	55861.57
552.18	55561.98
552.34	54768.54
552.51	54445.54
552.68	54227.87
552.84	54960.46
553.01	55082.17
553.18	54848.11
553.34	54979.18
553.51	55246.00
553.67	55569.00
553.84	55789.01
554.01	55664.96
554.17	55608.79
554.34	55264.73
554.51	55632.19
554.67	55767.94
554.84	55716.45
555.00	55564.32
555.17	55217.92
555.33	55222.60
555.50	55084.51
555.67	54988.55
555.83	54878.54
556.00	54490.01
556.16	54475.97
556.33	54288.73
556.50	54199.79
556.66	53949.35
556.83	53570.18
556.99	53893.18
557.16	54042.97
557.32	54316.81
557.49	54724.07
557.65	54522.78
557.82	54717.04
557.98	54550.87
558.15	53766.79
558.32	52931.22
558.48	51856.91
558.65	52271.18
558.81	52275.87
558.98	52905.47
559.14	53474.22
559.31	53069.31
559.47	53371.24
559.64	52694.82
559.80	52308.63
559.97	52479.49
560.13	53095.05
560.30	54017.22
560.46	54546.18
560.63	54857.48
560.79	54693.64
560.96	54433.84
561.12	53165.27
561.29	52222.03
561.45	52205.65
561.61	53083.35
561.78	53385.28
561.94	53198.04
562.11	53151.23
562.27	52900.79
562.44	53455.50
562.60	53748.06
562.77	53832.32
562.93	53930.62
563.10	53722.32
563.26	52865.68
563.42	52963.98
563.59	52507.58
563.75	52875.04
563.92	52603.54
564.08	52919.51
564.24	53066.97
564.41	53151.23
564.57	52903.13
564.74	52708.86
564.90	52832.91
565.07	52488.85
565.23	52250.12
565.39	51840.53
565.56	51281.14
565.72	50897.29
565.88	51356.03
566.05	51611.15
566.21	51819.46
566.38	51973.94
566.54	52215.01
566.70	52264.16
566.87	52879.72
567.03	52875.04
567.19	52858.66
567.36	52715.89
567.52	52179.90
567.68	52271.18
567.85	51533.92
568.01	51466.04
568.17	50740.47
568.34	50541.53
568.50	50941.76
568.66	50529.83
568.83	51147.73
568.99	51454.34
569.15	51337.31
569.32	51262.41
569.48	51164.11
569.64	50876.22
569.81	50777.92
569.97	50396.42
570.13	50681.96
570.30	49794.90
570.46	49429.77
570.62	48568.46
570.78	48484.20
570.95	48744.00
571.11	49694.25
571.27	49890.86
571.43	50174.06
571.60	50885.59
571.76	50916.01
571.92	51117.30
572.09	51435.61
572.25	51447.32
572.41	51372.42
572.57	50843.46
572.74	50901.97
572.90	50375.35
573.06	50553.23
573.22	50754.52
573.38	50967.51
573.55	50787.28
573.71	50670.26
573.87	50784.94
574.03	50195.13
574.20	50223.22
574.36	49783.19
574.52	49717.66
574.68	49602.97
574.84	49509.35
575.01	48437.39
575.17	48596.54
575.33	48973.37
575.49	48872.73
575.65	49628.72
575.82	49345.51
575.98	48626.97
576.14	49205.08
576.30	49792.56
576.46	49565.52
576.62	49483.61
576.79	49631.06
576.95	48907.83
577.11	49006.14
577.27	49111.46
577.43	49287.00
577.59	48491.22
577.75	48367.17
577.92	47847.57
578.08	47339.68
578.24	47222.65
578.40	47952.90
578.56	47852.25
578.72	48072.26
578.88	48732.29
579.04	48257.17
579.21	48313.34
579.37	48610.59
579.53	48657.40
579.69	48596.54
579.85	48715.91
580.01	48704.21
580.17	47760.97
580.33	48193.97
580.49	48196.31
580.65	48383.55
580.82	48790.81
580.98	48758.04
581.14	48463.13
581.30	48591.86
581.46	48488.88
581.62	48720.59
581.78	48446.75
581.94	48753.36
582.10	49001.46
582.26	48720.59
582.42	48580.16
582.58	48919.54
582.74	48509.94
582.90	48633.99
583.06	48554.41
583.22	48467.81
583.38	48605.91
583.54	48296.95
583.70	48430.36
583.86	48463.13
584.02	48168.22
584.18	48219.72
584.34	48184.61
584.50	47957.58
584.66	47498.83
584.82	47334.99
584.98	47487.13
585.14	46878.59
585.30	46555.60
