SpectraSuite Data File
++++++++++++++++++++++++++++++++++++
Date: Mon Oct 07 14:52:58 GMT-05:00 2013
User: price-jones
Dark Spectrum Present: No
Reference Spectrum Present: No
Number of Sampled Component Spectra: 1
Spectrometers: USB2+H05261
Integration Time (usec): 100000 (USB2+H05261)
Spectra Averaged: 1 (USB2+H05261)
Boxcar Smoothing: 0 (USB2+H05261)
Correct for Electrical Dark: No (USB2+H05261)
Strobe/Lamp Enabled: No (USB2+H05261)
Correct for Detector Non-linearity: No (USB2+H05261)
Correct for Stray Light: No (USB2+H05261)
Number of Pixels in Processed Spectrum: 2048
>>>>>Begin Processed Spectral Data<<<<<
365.73	0.00
365.92	0.00
366.12	0.00
366.32	0.00
366.52	0.00
366.72	0.00
366.91	0.00
367.11	0.00
367.31	0.00
367.51	0.00
367.70	0.00
367.90	0.00
368.10	0.00
368.30	0.00
368.49	0.00
368.69	0.00
368.89	0.00
369.09	0.00
369.28	0.00
369.48	0.00
369.68	0.00
369.87	0.00
370.07	0.00
370.27	0.00
370.47	587.47
370.66	2874.18
370.86	3386.76
371.06	3494.42
371.25	3653.58
371.45	3379.73
371.65	3030.99
371.84	2909.29
372.04	3052.06
372.24	3272.07
372.44	3541.23
372.63	3375.05
372.83	3236.96
373.03	2935.03
373.22	2614.38
373.42	2857.79
373.62	3169.09
373.81	3438.25
374.01	3361.01
374.21	3229.94
374.40	2864.82
374.60	2904.60
374.79	3279.09
374.99	3908.69
375.19	4271.48
375.38	4147.43
375.58	3829.12
375.78	3920.40
375.97	3843.16
376.17	4107.64
376.37	4100.62
376.56	4203.60
376.76	4512.55
376.95	4575.75
377.15	5001.72
377.35	5284.93
377.54	5575.16
377.74	5668.78
377.93	5537.71
378.13	5437.06
378.33	5188.97
378.52	4695.11
378.72	4596.81
378.91	4594.47
379.11	4383.82
379.31	4283.18
379.50	4205.94
379.70	4531.28
379.89	5130.45
380.09	5359.83
380.28	5570.48
380.48	5350.46
380.68	5472.17
380.87	5212.37
381.07	4968.96
381.26	4472.76
381.46	4184.88
381.65	4030.40
381.85	3892.31
382.04	3786.99
382.24	3471.01
382.43	3412.50
382.63	3295.47
382.83	3295.47
383.02	3236.96
383.22	3393.78
383.41	3328.24
383.61	3520.17
383.80	4016.36
384.00	4582.77
384.19	5142.16
384.39	5549.41
384.58	5509.62
384.78	5156.20
384.97	5371.53
385.17	5046.20
385.36	4662.35
385.56	4594.47
385.75	4725.54
385.95	5188.97
386.14	5568.13
386.34	5628.99
386.53	5481.53
386.72	5022.79
386.92	5121.09
387.11	5310.68
387.31	5696.86
387.50	5668.78
387.70	5530.69
387.89	5291.95
388.09	5345.78
388.28	5366.85
388.48	5364.51
388.67	5757.72
388.86	6436.47
389.06	6747.76
389.25	7243.96
389.45	7131.61
389.64	7117.57
389.84	7304.81
390.03	6986.50
390.22	7094.16
390.42	7236.94
390.61	7782.28
390.81	8346.35
391.00	8400.18
391.19	8411.89
391.39	8152.09
391.58	7433.54
391.78	7112.89
391.97	6902.24
392.16	6490.31
392.36	5813.89
392.55	4634.26
392.75	3740.18
392.94	2925.67
393.13	3117.59
393.33	3606.77
393.52	4631.92
393.71	5729.63
393.91	6373.28
394.10	7012.24
394.29	7744.83
394.49	8131.02
394.68	8943.19
394.88	8861.27
395.07	9109.36
395.26	8973.61
395.46	8751.26
395.65	8203.58
395.84	7059.06
396.04	6043.26
396.23	5034.49
396.42	4215.30
396.62	3988.27
396.81	4699.80
397.00	6022.20
397.19	7419.50
397.39	8994.68
397.58	10263.25
397.77	10635.39
397.97	10953.71
398.16	11117.54
398.35	11562.25
398.55	11901.62
398.74	12442.29
398.93	12620.17
399.12	12465.69
399.32	11964.82
399.51	12278.45
399.70	13205.30
399.90	12842.52
400.09	12896.35
400.28	12760.60
400.47	12807.41
400.67	13844.27
400.86	14017.47
401.05	13750.65
401.24	14106.41
401.44	14288.97
401.63	14331.10
401.82	14157.90
402.01	14312.38
402.21	14436.42
402.40	14740.69
402.59	14038.53
402.78	13542.34
402.97	12922.10
403.17	13626.60
403.36	14436.42
403.55	15140.93
403.74	15047.30
403.93	14574.52
404.13	13514.25
404.32	13064.87
404.51	13724.90
404.70	14789.85
404.89	14719.63
405.09	14567.49
405.28	14132.15
405.47	14017.47
405.66	14394.29
405.85	13638.30
406.05	13596.17
406.24	13717.88
406.43	14321.74
406.62	14705.59
406.81	14679.84
407.00	14134.50
407.20	13893.42
407.39	13928.53
407.58	14841.34
407.77	15290.72
407.96	15702.65
408.15	15836.06
408.34	15990.54
408.54	16570.99
408.73	16737.17
408.92	16833.13
409.11	16287.79
409.30	15047.30
409.49	14469.19
409.68	13345.73
409.87	13041.46
410.07	13954.27
410.26	14775.80
410.45	16011.60
410.64	16205.87
410.83	16893.99
411.02	17137.40
411.21	17413.59
411.40	17633.60
411.59	17722.54
411.78	17647.64
411.98	17432.31
412.17	17715.51
412.36	17411.25
412.55	17476.78
412.74	17048.46
412.93	16620.14
413.12	16931.44
413.31	18537.04
413.50	18490.23
413.69	19075.37
413.88	17884.03
414.07	17703.81
414.26	17998.72
414.45	18464.49
414.64	18455.12
414.83	18822.59
415.02	18333.42
415.22	18094.68
415.41	18841.31
415.60	19438.15
415.79	20198.82
415.98	20695.02
416.17	20606.08
416.36	20058.39
416.55	19662.84
416.74	18881.10
416.93	18305.33
417.12	18663.43
417.31	18939.62
417.50	19112.81
417.69	19702.63
417.88	19564.54
418.07	19318.78
418.26	19290.70
418.45	19321.12
418.64	19985.83
418.83	20849.49
419.02	20547.56
419.21	20077.12
419.39	19026.21
419.58	18576.83
419.77	18410.65
419.96	19269.63
420.15	20367.34
420.34	21238.02
420.53	21759.96
420.72	22073.59
420.91	22225.73
421.10	21202.91
421.29	21680.38
421.48	20631.82
421.67	21940.18
421.86	21013.33
422.05	19660.50
422.24	17722.54
422.43	17717.86
422.61	19501.34
422.80	21039.08
422.99	20718.42
423.18	20229.25
423.37	19896.89
423.56	19840.72
423.75	20135.63
423.94	20856.51
424.13	19651.14
424.32	19772.85
424.50	19901.58
424.69	19239.20
424.88	19569.22
425.07	19634.75
425.26	19737.74
425.45	19173.67
425.64	19178.35
425.83	19042.60
426.01	20137.97
426.20	20645.87
426.39	20512.46
426.58	19138.56
426.77	17605.51
426.96	16950.16
427.15	17687.43
427.33	19136.22
427.52	19922.64
427.71	19606.67
427.90	19700.29
428.09	19524.75
428.28	18937.27
428.46	18656.41
428.65	18108.72
428.84	18661.09
429.03	18892.80
429.22	17987.02
429.40	17011.01
429.59	15389.02
429.78	13668.73
429.97	13844.27
430.16	13785.76
430.34	13994.06
430.53	13799.80
430.72	14324.08
430.91	15737.76
431.10	18782.80
431.28	21766.98
431.47	23412.38
431.66	23587.92
431.85	21518.89
432.03	19721.35
432.22	19143.24
432.41	19908.60
432.60	22001.04
432.79	22998.10
432.97	23541.11
433.16	22703.20
433.35	20903.32
433.54	18778.12
433.72	17591.47
433.91	18476.19
434.10	20573.31
434.28	21659.32
434.47	23180.67
434.66	22434.03
434.85	21766.98
435.03	21958.91
435.22	22506.59
435.41	23789.20
435.59	23908.57
435.78	24287.74
435.97	24739.46
436.16	24835.42
436.34	24163.69
436.53	24201.14
436.72	24105.18
436.90	22522.98
437.09	22782.77
437.28	22546.38
437.46	22836.61
437.65	22963.00
437.84	21422.92
438.02	19721.35
438.21	19653.48
438.40	20662.25
438.58	22602.55
438.77	23070.66
438.96	23428.76
439.14	24648.18
439.33	25172.46
439.52	25340.98
439.70	24893.94
439.89	24247.95
440.08	23470.89
440.26	23976.45
440.45	24524.13
440.63	25771.64
440.82	27056.59
441.01	26696.15
441.19	27098.72
441.38	27084.68
441.57	28170.69
441.75	28566.24
441.94	28409.42
442.12	28283.03
442.31	28891.57
442.50	28690.29
442.68	28320.48
442.87	28226.86
443.05	27550.45
443.24	28301.76
443.43	29020.30
443.61	29504.79
443.80	29902.68
443.98	28142.60
444.17	27857.06
444.35	29603.10
444.54	30221.00
444.73	29738.85
444.91	28257.29
445.10	27475.55
445.28	26265.49
445.47	26520.61
445.65	26214.00
445.84	26632.96
446.02	27761.09
446.21	28121.54
446.39	28229.20
446.58	28662.20
446.77	29163.08
446.95	29357.34
447.14	30024.39
447.32	30604.84
447.51	29755.23
447.69	28641.14
447.88	28418.78
448.06	29010.94
448.25	29359.68
448.43	29565.65
448.62	28599.01
448.80	28950.09
448.99	29247.33
449.17	29427.56
449.36	29429.90
449.54	30382.49
449.73	31058.91
449.91	31283.60
450.10	32477.27
450.28	32603.66
450.46	32458.55
450.65	32842.40
450.83	32219.81
451.02	31700.22
451.20	31161.89
451.39	31585.53
451.57	31646.38
451.76	31498.93
451.94	30682.08
452.13	30541.65
452.31	29069.45
452.49	27667.47
452.68	28271.33
452.86	28315.80
453.05	28388.36
453.23	29617.14
453.42	29827.79
453.60	30656.34
453.78	30934.86
453.97	30848.26
454.15	30703.15
454.34	29993.97
454.52	30323.98
454.70	29848.85
454.89	29759.91
455.07	30328.66
455.26	30895.07
455.44	31716.60
455.62	32325.14
455.81	32847.08
455.99	32449.19
456.17	31859.37
456.36	32238.54
456.54	32673.88
456.73	33046.02
456.91	33610.09
457.09	33570.30
457.28	33888.62
457.46	32652.81
457.64	32964.10
457.83	31204.02
458.01	31098.70
458.19	31721.28
458.38	31683.83
458.56	32957.08
458.74	32708.99
458.93	32243.22
459.11	32332.16
459.29	31737.66
459.48	32393.01
459.66	31969.38
459.84	32451.53
460.03	33015.60
460.21	33057.73
460.39	33839.47
460.57	33724.78
460.76	34216.29
460.94	33839.47
461.12	33448.60
461.31	33640.52
461.49	33701.37
461.67	33748.18
461.85	34682.06
462.04	34260.76
462.22	35002.71
462.40	34644.61
462.59	34305.23
462.77	34445.66
462.95	34361.40
463.13	33834.78
463.32	34307.57
463.50	33823.08
463.68	33923.72
463.86	33617.11
464.05	33179.43
464.23	32280.67
464.41	32694.94
464.59	31913.20
464.78	33390.08
464.96	33120.92
465.14	33043.68
465.32	33677.97
465.50	34417.58
465.69	35058.88
465.87	34293.53
466.05	33160.71
466.23	31903.84
466.41	31087.00
466.60	32048.96
466.78	32233.86
466.96	32315.78
467.14	33191.14
467.32	33888.62
467.51	34068.84
467.69	32151.94
467.87	33039.00
468.05	33661.58
468.23	33553.92
468.41	33596.05
468.60	33638.18
468.78	33729.46
468.96	33460.30
469.14	34260.76
469.32	34508.86
469.50	33050.70
469.69	33146.67
469.87	32346.20
470.05	32594.30
470.23	32402.38
470.41	32643.45
470.59	33422.85
470.77	33235.61
470.95	33907.34
471.14	34005.64
471.32	34277.15
471.50	36519.38
471.68	36020.84
471.86	36652.79
472.04	36907.91
472.22	36708.96
472.40	35063.57
472.58	35028.46
472.77	34497.16
472.95	35377.20
473.13	35889.77
473.31	34939.52
473.49	35140.80
473.67	35892.12
473.85	36226.81
474.03	37514.11
474.21	37404.10
474.39	37677.94
474.57	37930.72
474.75	37958.81
474.93	37289.42
475.12	36334.48
475.30	36840.03
475.48	36622.36
475.66	37471.98
475.84	37076.43
476.02	36507.68
476.20	35878.07
476.38	37106.85
476.56	38005.62
476.74	38560.33
476.92	38848.21
477.10	39213.34
477.28	39882.73
477.46	40418.71
477.64	40435.10
477.82	40746.39
478.00	41118.53
478.18	40538.08
478.36	40086.36
478.54	40100.40
478.72	40168.27
478.90	41900.27
479.08	42548.60
479.26	43292.89
479.44	42958.19
479.62	42663.28
479.80	42557.96
479.98	42906.70
480.16	43089.26
480.34	42946.49
480.52	43157.14
480.70	43349.06
480.88	43487.15
481.06	44278.25
481.24	44559.12
481.41	45111.49
481.59	45970.46
481.77	45991.53
481.95	44783.81
482.13	44673.81
482.31	45434.48
482.49	45837.05
482.67	45652.15
482.85	46052.38
483.03	46887.95
483.21	46632.83
483.39	46457.29
483.57	46040.68
483.74	45954.08
483.92	46146.00
484.10	46382.40
484.28	47007.32
484.46	47391.17
484.64	48376.53
484.82	47150.09
485.00	46635.17
485.18	45741.09
485.35	44435.07
485.53	41092.79
485.71	37415.80
485.89	37855.82
486.07	39531.65
486.25	43049.47
486.43	45052.97
486.61	45663.85
486.78	45441.50
486.96	45949.40
487.14	47423.93
487.32	48076.94
487.50	49462.54
487.68	50174.06
487.85	51030.70
488.03	50681.96
488.21	50387.05
488.39	49593.61
488.57	48914.86
488.75	48732.29
488.92	49881.50
489.10	51868.61
489.28	53401.66
489.46	53729.34
489.64	53736.36
489.81	53839.34
489.99	53247.19
490.17	53659.12
490.35	53759.76
490.53	53244.85
490.70	53099.73
490.88	52769.72
491.06	53769.13
491.24	53471.88
491.41	52776.74
491.59	50894.95
491.77	50742.81
491.95	51737.54
492.13	52917.17
492.30	53989.14
492.48	54951.10
492.66	55337.29
492.84	55299.84
493.01	54838.75
493.19	54459.58
493.37	54160.00
493.54	54045.31
493.72	54621.08
493.90	55519.85
494.08	56439.68
494.25	56477.13
494.43	56919.49
494.61	57176.95
494.79	57317.38
494.96	56748.63
495.14	56371.80
495.32	55529.21
495.49	54892.58
495.67	55859.23
495.85	57139.50
496.02	57631.01
496.20	57497.60
496.38	57095.03
496.55	56842.25
496.73	57518.67
496.91	57535.05
497.09	57956.35
497.26	58185.72
497.44	57556.11
497.62	56959.28
497.79	56322.65
497.97	55299.84
498.14	55480.06
498.32	56715.86
498.50	57336.10
498.67	58003.16
498.85	57640.37
499.03	58054.65
499.20	58185.72
499.38	58092.10
499.56	57970.39
499.73	57567.82
499.91	57186.31
500.08	56580.11
500.26	56203.28
500.44	56453.72
500.61	57116.09
500.79	57146.52
500.97	56765.01
501.14	56556.70
501.32	56404.57
501.49	56362.44
501.67	56535.64
501.84	57048.22
502.02	57174.61
502.20	57542.07
502.37	58042.95
502.55	58078.05
502.72	58272.32
502.90	59107.89
503.07	58663.19
503.25	57750.38
503.43	57298.65
503.60	56521.60
503.78	56231.37
503.95	56612.88
504.13	58014.86
504.30	58433.81
504.48	58546.16
504.65	58262.96
504.83	58328.49
505.01	58775.53
505.18	59161.72
505.36	59854.52
505.53	59622.81
505.71	59934.10
505.88	60009.00
506.06	59365.35
506.23	58883.20
506.41	58616.38
506.58	58941.71
506.76	58812.98
506.93	58834.05
507.11	58672.55
507.28	58908.94
507.46	58405.73
507.63	57741.02
507.81	57605.26
507.98	58012.52
508.16	58588.29
508.33	58820.00
508.50	59444.93
508.68	59613.44
508.85	60280.50
509.03	59948.14
509.20	59770.26
509.38	59082.14
509.55	58607.01
509.73	58686.59
509.90	59112.57
510.08	59440.24
510.25	59461.31
510.42	59185.13
510.60	59126.61
510.77	59346.62
510.95	59831.11
511.12	59922.40
511.30	60119.00
511.47	60453.70
511.64	60350.71
511.82	60018.36
511.99	59236.62
512.17	58885.54
512.34	58632.76
512.51	58887.88
512.69	59075.12
512.86	59040.01
513.04	59355.99
513.21	59414.50
513.38	59061.08
513.56	58480.63
513.73	57916.56
513.90	58326.15
514.08	58405.73
514.25	58740.42
514.43	58850.43
514.60	59016.61
514.77	59180.45
514.95	59016.61
515.12	59189.81
515.29	59360.67
515.47	59807.71
515.64	60004.31
515.81	59568.97
515.99	58983.84
516.16	57710.59
516.33	55526.87
516.51	54302.77
516.68	53078.67
516.85	52905.47
517.03	53488.26
517.20	56416.27
517.37	58473.60
517.54	59318.54
517.72	58738.08
517.89	56280.52
518.06	54052.33
518.24	54808.32
518.41	56786.08
518.58	57848.68
518.75	58010.18
518.93	58358.92
519.10	58190.40
519.27	58590.63
519.45	58993.20
519.62	59442.59
519.79	59854.52
519.96	59494.08
520.14	59037.67
520.31	58326.15
520.48	58391.68
520.65	58646.80
520.83	59842.82
521.00	60025.38
521.17	59601.74
521.34	59334.92
521.52	59793.67
521.69	60041.76
521.86	60280.50
522.03	60097.94
522.20	58784.90
522.38	58080.39
522.55	58131.89
522.72	58803.62
522.89	58777.87
523.07	59143.00
523.24	59262.36
523.41	60308.58
523.58	60299.22
523.75	60811.80
523.92	60598.81
524.10	60654.98
524.27	60615.19
524.44	60343.69
524.61	60245.39
524.78	60229.01
524.96	59845.16
525.13	60151.77
525.30	60254.75
525.47	60666.69
525.64	60505.19
525.81	59730.47
525.98	58660.85
526.16	57209.71
526.33	56619.90
526.50	56079.24
526.67	55821.78
526.84	56802.46
527.01	57516.32
527.18	58452.54
527.36	59178.10
527.53	59999.63
527.70	60177.51
527.87	59564.29
528.04	59192.15
528.21	59758.56
528.38	60360.08
528.55	60755.63
528.72	61048.19
528.89	61329.06
529.07	60956.91
529.24	60392.84
529.41	59515.14
529.58	59089.16
529.75	59536.21
529.92	59803.03
530.09	60292.20
530.26	60573.06
530.43	60966.27
530.60	61090.32
530.77	61052.87
530.94	61146.50
531.11	60673.71
531.28	60383.48
531.46	60229.01
531.63	60434.97
531.80	60196.24
531.97	59889.63
532.14	58965.12
532.31	57949.32
532.48	57528.03
532.65	57776.12
532.82	58344.87
532.99	59550.25
533.16	59828.77
533.33	60430.29
533.50	60250.07
533.67	59730.47
533.84	59292.79
534.01	59538.55
534.18	59458.97
534.35	59786.64
534.52	59529.19
534.69	59856.86
534.86	60495.83
535.03	60402.21
535.20	60886.70
535.37	61303.31
535.54	61141.81
535.71	60823.50
535.88	60427.95
536.05	59906.01
536.22	59531.53
536.38	59274.07
536.55	58906.60
536.72	58288.70
536.89	58660.85
537.06	59407.48
537.23	59955.16
537.40	60069.85
537.57	60111.98
537.74	60018.36
537.91	59718.77
538.08	59901.33
538.25	60053.47
538.42	60039.42
538.59	59920.05
538.75	59049.38
538.92	59175.76
539.09	58981.50
539.26	58789.58
539.43	58693.61
539.60	58677.23
539.77	59054.06
539.94	58642.12
540.11	57949.32
540.28	57762.08
540.44	57605.26
540.61	57813.57
540.78	58150.61
540.95	58607.01
541.12	59180.45
541.29	59374.71
541.46	59461.31
541.62	59407.48
541.79	59327.90
541.96	58700.64
542.13	58850.43
542.30	59100.87
542.47	59143.00
542.63	58932.35
542.80	58766.17
542.97	58829.37
543.14	58754.47
543.31	58731.06
543.48	59093.85
543.64	59959.84
543.81	60537.96
543.98	59966.87
544.15	59384.07
544.32	59030.65
544.48	59103.21
544.65	59334.92
544.82	59718.77
544.99	59327.90
545.16	59079.80
545.32	58922.99
545.49	59751.54
545.66	59863.88
545.83	59470.67
546.00	59323.22
546.16	58864.47
546.33	59037.67
546.50	59096.19
546.67	59505.78
546.83	59023.63
547.00	59161.72
547.17	58461.90
547.34	58085.07
547.50	57872.09
547.67	58361.26
547.84	58403.39
548.00	58890.22
548.17	59164.06
548.34	59185.13
548.51	59082.14
548.67	59096.19
548.84	59299.81
549.01	59023.63
549.18	59131.29
549.34	58862.13
549.51	59168.74
549.68	58780.21
549.84	58658.51
550.01	58590.63
550.18	58571.91
550.34	58700.64
550.51	58717.02
550.68	58590.63
550.84	58054.65
551.01	58288.70
551.18	58298.06
551.34	58375.30
551.51	58721.70
551.68	59093.85
551.84	59093.85
552.01	58974.48
552.18	58749.79
552.34	57965.71
552.51	57804.21
552.68	57689.52
552.84	57982.09
553.01	58328.49
553.18	58213.80
553.34	58417.43
553.51	58616.38
553.67	58761.49
553.84	59018.95
554.01	58614.04
554.17	58803.62
554.34	58733.40
554.51	58688.93
554.67	59180.45
554.84	58908.94
555.00	58597.65
555.17	58447.86
555.33	58321.47
555.50	58525.10
555.67	58440.84
555.83	58061.67
556.00	57897.83
556.16	57935.28
556.33	57549.09
556.50	57719.95
556.66	57588.88
556.83	57293.97
556.99	57310.36
557.16	57406.32
557.32	57764.42
557.49	58101.46
557.65	58066.35
557.82	57916.56
557.98	57869.75
558.15	57183.97
558.32	56554.36
558.48	55749.22
558.65	55978.59
558.81	56257.12
558.98	56521.60
559.14	56809.48
559.31	56928.85
559.47	56743.95
559.64	56542.66
559.80	56076.90
559.97	56334.35
560.13	56860.97
560.30	57708.25
560.46	58092.10
560.63	58183.38
560.79	58333.17
560.96	57832.30
561.12	56809.48
561.29	56062.85
561.45	56287.54
561.61	56743.95
561.78	57148.86
561.94	56893.74
562.11	56739.27
562.27	56828.21
562.44	57073.96
562.60	57205.03
562.77	57703.57
562.93	57219.08
563.10	57249.50
563.26	56589.47
563.42	56694.80
563.59	56746.29
563.75	56633.94
563.92	56860.97
564.08	56853.95
564.24	57001.41
564.41	56945.23
564.57	56875.02
564.74	56804.80
564.90	56603.52
565.07	56467.76
565.23	55882.63
565.39	55522.19
565.56	55257.71
565.72	55253.03
565.88	55269.41
566.05	55650.92
566.21	55676.66
566.38	56013.70
566.54	56193.92
566.70	56381.16
566.87	56545.00
567.03	56786.08
567.19	56757.99
567.36	56804.80
567.52	56484.15
567.68	56048.81
567.85	55381.76
568.01	55274.09
568.17	54740.45
568.34	54810.67
568.50	54972.16
568.66	55070.46
568.83	55341.97
568.99	55215.58
569.15	55679.00
569.32	55559.64
569.48	55332.60
569.64	55206.22
569.81	55023.65
569.97	54562.57
570.13	54684.28
570.30	53829.98
570.46	53741.04
570.62	53333.79
570.78	53329.11
570.95	53673.16
571.11	54232.55
571.27	54452.56
571.43	54766.20
571.60	54965.14
571.76	55192.17
571.92	55374.73
572.09	55313.88
572.25	55482.40
572.41	55400.48
572.57	55253.03
572.74	55131.32
572.90	54791.94
573.06	54901.95
573.22	54698.32
573.38	54780.24
573.55	55004.93
573.71	54976.84
573.87	54972.16
574.03	54859.82
574.20	54637.47
574.36	54447.88
574.52	54255.96
574.68	54124.89
574.84	53577.20
575.01	53254.21
575.17	53485.92
575.33	53731.68
575.49	53883.81
575.65	53970.41
575.82	53570.18
575.98	53483.58
576.14	53769.13
576.30	53939.99
576.46	53968.07
576.62	54136.59
576.79	54141.27
576.95	53858.07
577.11	53818.28
577.27	53947.01
577.43	53822.96
577.59	53535.07
577.75	52849.30
577.92	52268.84
578.08	52472.47
578.24	52332.04
578.40	52699.50
578.56	52868.02
578.72	52807.17
578.88	53104.41
579.04	53249.53
579.21	53427.41
579.37	53443.79
579.53	53556.14
579.69	53146.54
579.85	53745.72
580.01	53478.90
580.17	53052.92
580.33	52619.92
580.49	52830.57
580.65	53242.51
580.82	53647.42
580.98	53462.52
581.14	53308.04
581.30	53478.90
581.46	53146.54
581.62	53553.80
581.78	53429.75
581.94	53858.07
582.10	53563.16
582.26	53832.32
582.42	53642.74
582.58	53829.98
582.74	53626.35
582.90	53829.98
583.06	53815.94
583.22	53488.26
583.38	53371.24
583.54	53340.81
583.70	53364.21
583.86	53338.47
584.02	53214.42
584.18	53279.96
584.34	53226.12
584.50	52846.96
584.66	52877.38
584.82	52615.24
584.98	52636.31
585.14	52198.63
585.30	51229.65
