SpectraSuite Data File
++++++++++++++++++++++++++++++++++++
Date: Mon Oct 07 14:53:55 GMT-05:00 2013
User: price-jones
Dark Spectrum Present: No
Reference Spectrum Present: No
Number of Sampled Component Spectra: 1
Spectrometers: USB2+H05261
Integration Time (usec): 100000 (USB2+H05261)
Spectra Averaged: 1 (USB2+H05261)
Boxcar Smoothing: 0 (USB2+H05261)
Correct for Electrical Dark: No (USB2+H05261)
Strobe/Lamp Enabled: No (USB2+H05261)
Correct for Detector Non-linearity: No (USB2+H05261)
Correct for Stray Light: No (USB2+H05261)
Number of Pixels in Processed Spectrum: 2048
>>>>>Begin Processed Spectral Data<<<<<
365.73	0.00
365.92	0.00
366.12	0.00
366.32	0.00
366.52	0.00
366.72	0.00
366.91	0.00
367.11	0.00
367.31	0.00
367.51	0.00
367.70	0.00
367.90	0.00
368.10	0.00
368.30	0.00
368.49	0.00
368.69	0.00
368.89	0.00
369.09	0.00
369.28	0.00
369.48	0.00
369.68	0.00
369.87	0.00
370.07	0.00
370.27	0.00
370.47	603.86
370.66	2963.12
370.86	3548.25
371.06	3953.16
371.25	3770.60
371.45	3627.83
371.65	3227.60
371.84	3066.10
372.04	3222.92
372.24	3548.25
372.44	3691.02
372.63	3702.73
372.83	3358.67
373.03	2904.60
373.22	2733.75
373.42	2991.20
373.62	3417.18
373.81	3599.74
374.01	3503.78
374.21	3344.63
374.40	2984.18
374.60	3192.49
374.79	3641.87
374.99	4198.92
375.19	4542.98
375.38	4393.19
375.58	4252.75
375.78	4156.79
375.97	4098.28
376.17	4411.91
376.37	4313.61
376.56	4475.10
376.76	4613.20
376.95	4828.53
377.15	5217.05
377.35	5451.11
377.54	5764.74
377.74	5802.19
377.93	5891.13
378.13	5673.46
378.33	5495.58
378.52	4983.00
378.72	4924.49
378.91	4739.58
379.11	4514.89
379.31	4674.05
379.50	4409.57
379.70	4608.51
379.89	5327.06
380.09	5806.87
380.28	5811.55
380.48	5823.25
380.68	5781.12
380.87	5387.91
381.07	5064.92
381.26	4669.37
381.46	4526.60
381.65	4205.94
381.85	4262.12
382.04	3990.61
382.24	3854.86
382.43	3585.70
382.63	3496.76
382.83	3463.99
383.02	3454.63
383.22	3473.36
383.41	3487.40
383.61	3772.94
383.80	4287.86
384.00	4912.78
384.19	5444.09
384.39	5727.29
384.58	5823.25
384.78	5549.41
384.97	5647.71
385.17	5341.10
385.36	5064.92
385.56	4837.89
385.75	5069.60
385.95	5359.83
386.14	5902.83
386.34	5902.83
386.53	5769.42
386.72	5238.12
386.92	5430.04
387.11	5551.75
387.31	5741.33
387.50	5502.60
387.70	5612.60
387.89	5542.39
388.09	5563.45
388.28	5654.73
388.48	5626.65
388.67	5970.71
388.86	6595.63
389.06	7243.96
389.25	7590.36
389.45	7679.30
389.64	7545.89
389.84	7236.94
390.03	7300.13
390.22	7360.98
390.42	7581.00
390.61	8009.31
390.81	8575.72
391.00	8840.20
391.19	8894.04
391.39	8582.74
391.58	8077.19
391.78	7482.69
391.97	7419.50
392.16	6883.52
392.36	6176.67
392.55	5057.90
392.75	3894.65
392.94	3279.09
393.13	3220.58
393.33	3721.45
393.52	4788.74
393.71	5867.72
393.91	6801.60
394.10	7183.10
394.29	8044.42
394.49	8861.27
394.68	9240.44
394.88	9324.69
395.07	9392.57
395.26	9504.92
395.46	9202.99
395.65	8667.00
395.84	7583.34
396.04	6450.52
396.23	5231.10
396.42	4348.72
396.62	4140.41
396.81	4926.83
397.00	6171.99
397.19	7911.01
397.39	9327.03
397.58	10335.81
397.77	11052.01
397.97	11520.12
398.16	11719.06
398.35	11868.86
398.55	12582.72
398.74	12837.84
398.93	13181.90
399.12	13020.40
399.32	12395.48
399.51	12933.80
399.70	13879.38
399.90	13411.27
400.09	13582.13
400.28	13287.22
400.47	13528.30
400.67	14272.59
400.86	14523.02
401.05	14256.20
401.24	14635.37
401.44	14874.10
401.63	14698.56
401.82	15187.74
402.01	14979.43
402.21	14827.29
402.40	15227.53
402.59	14750.06
402.78	13874.70
402.97	13584.47
403.17	14272.59
403.36	15115.18
403.55	15646.48
403.74	15793.94
403.93	15154.97
404.13	13788.10
404.32	13617.24
404.51	14448.13
404.70	15377.32
404.89	15157.31
405.09	15063.69
405.28	14647.07
405.47	14618.99
405.66	14310.04
405.85	14235.14
406.05	13811.50
406.24	14061.94
406.43	14644.73
406.62	15157.31
406.81	15279.02
407.00	14628.35
407.20	14366.21
407.39	14387.27
407.58	15047.30
407.77	15723.72
407.96	16065.44
408.15	16437.58
408.34	16343.96
408.54	17467.42
408.73	17029.74
408.92	17151.45
409.11	16528.86
409.30	15602.01
409.49	14710.27
409.68	13760.01
409.87	13474.46
410.07	14349.82
410.26	15374.98
410.45	16379.07
410.64	16791.00
410.83	17076.55
411.02	17713.17
411.21	18342.78
411.40	18281.92
411.59	18281.92
411.78	17860.63
411.98	17795.09
412.17	18047.87
412.36	18085.32
412.55	17713.17
412.74	17561.04
412.93	17011.01
413.12	17336.35
413.31	18892.80
413.50	19171.33
413.69	19538.79
413.88	18665.77
414.07	18256.18
414.26	18384.91
414.45	18979.40
414.64	19192.39
414.83	19084.73
415.02	18963.02
415.22	18658.75
415.41	19098.77
415.60	20030.30
415.79	20428.20
415.98	21013.33
416.17	21069.50
416.36	20599.05
416.55	20271.38
416.74	19564.54
416.93	18778.12
417.12	18941.96
417.31	19363.25
417.50	19442.83
417.69	20262.02
417.88	20187.12
418.07	19744.76
418.26	19405.38
418.45	19789.23
418.64	20407.13
418.83	21158.44
419.02	20533.52
419.21	20882.26
419.39	19578.58
419.58	18916.21
419.77	18838.97
419.96	19580.92
420.15	20989.92
420.34	21570.38
420.53	21954.22
420.72	22602.55
420.91	22324.03
421.10	22178.92
421.29	21862.94
421.48	21308.24
421.67	22309.99
421.86	21376.11
422.05	20219.89
422.24	18401.29
422.43	18087.66
422.61	19587.94
422.80	21266.11
422.99	21467.39
423.18	20638.84
423.37	20294.79
423.56	20437.56
423.75	20519.48
423.94	20889.28
424.13	19908.60
424.32	20039.67
424.50	20081.80
424.69	20144.99
424.88	19964.77
425.07	20063.07
425.26	20037.33
425.45	19730.72
425.64	19370.27
425.83	19391.34
426.01	20528.84
426.20	20863.54
426.39	21137.38
426.58	19412.40
426.77	17549.34
426.96	17298.90
427.15	17935.53
427.33	19351.55
427.52	20322.87
427.71	20135.63
427.90	20020.94
428.09	19953.07
428.28	19442.83
428.46	18553.43
428.65	18246.82
428.84	18733.65
429.03	19070.68
429.22	18082.98
429.40	17125.70
429.59	15812.66
429.78	13949.59
429.97	13837.25
430.16	14136.84
430.34	14204.71
430.53	14054.92
430.72	14562.81
430.91	15807.98
431.10	18682.16
431.28	21891.03
431.47	23723.67
431.66	24037.30
431.85	21907.41
432.03	20144.99
432.22	19496.66
432.41	19829.02
432.60	22216.36
432.79	22981.72
432.97	23524.72
433.16	23131.51
433.35	21177.17
433.54	19096.43
433.72	17783.39
433.91	18611.94
434.10	20744.17
434.28	21912.10
434.47	23229.82
434.66	22686.81
434.85	22429.35
435.03	22146.15
435.22	22981.72
435.41	24301.78
435.59	24322.85
435.78	24168.37
435.97	25291.83
436.16	25284.81
436.34	24952.45
436.53	24116.88
436.72	24762.87
436.90	22876.40
437.09	22640.00
437.28	22441.06
437.46	23353.87
437.65	23325.78
437.84	21518.89
438.02	19924.98
438.21	19625.39
438.40	21071.84
438.58	22782.77
438.77	23398.34
438.96	23466.21
439.14	24491.37
439.33	24706.70
439.52	25549.29
439.70	25013.31
439.89	24290.08
440.08	23580.90
440.26	23620.69
440.45	24278.38
440.63	26073.57
440.82	27402.99
441.01	27000.42
441.19	26649.34
441.38	27133.83
441.57	27969.40
441.75	28498.36
441.94	28704.33
442.12	28383.68
442.31	28889.23
442.50	29013.28
442.68	28620.07
442.87	28236.22
443.05	27714.28
443.24	28273.67
443.43	28664.54
443.61	29247.33
443.80	29521.18
443.98	27868.76
444.17	27814.93
444.35	29486.07
444.54	30342.70
444.73	29682.67
444.91	28821.36
445.10	27440.44
445.28	26314.64
445.47	25820.79
445.65	26368.48
445.84	26661.04
446.02	27578.53
446.21	27892.16
446.39	28149.62
446.58	28479.64
446.77	28594.32
446.95	29123.29
447.14	30000.99
447.32	30696.13
447.51	30178.87
447.69	28814.34
447.88	28498.36
448.06	28453.89
448.25	29783.32
448.43	29532.88
448.62	28797.95
448.80	28978.17
448.99	28940.72
449.17	29247.33
449.36	29095.20
449.54	29947.15
449.73	31211.04
449.91	30988.69
450.10	32390.67
450.28	32638.77
450.46	32165.98
450.65	32128.53
450.83	31915.54
451.02	31145.51
451.20	31103.38
451.39	31599.57
451.57	30614.21
451.76	31068.27
451.94	30345.05
452.13	30085.25
452.31	28837.74
452.49	27372.57
452.68	27906.21
452.86	27615.98
453.05	28105.15
453.23	29116.26
453.42	29654.59
453.60	30424.62
453.78	30892.73
453.97	30513.56
454.15	30307.60
454.34	29596.07
454.52	29823.11
454.70	29486.07
454.89	29338.62
455.07	29336.27
455.26	30536.97
455.44	31274.24
455.62	31548.08
455.81	31957.67
455.99	31960.02
456.17	31440.42
456.36	31548.08
456.54	32435.14
456.73	32510.04
456.91	32570.90
457.09	33179.43
457.28	33514.13
457.46	32453.87
457.64	31955.33
457.83	31075.29
458.01	30422.28
458.19	31388.92
458.38	31604.25
458.56	32905.59
458.74	32048.96
458.93	31810.22
459.11	31395.95
459.29	31634.68
459.48	31613.62
459.66	31126.78
459.84	31639.36
460.03	32271.31
460.21	32201.09
460.39	32795.59
460.57	33071.77
460.76	33240.29
460.94	33443.91
461.12	33102.20
461.31	33305.82
461.49	33106.88
461.67	32968.79
461.85	33722.44
462.04	34160.12
462.22	34572.05
462.40	34148.42
462.59	33855.85
462.77	33848.83
462.95	33851.17
463.13	33146.67
463.32	32760.48
463.50	32648.13
463.68	33228.59
463.86	32786.22
464.05	32753.46
464.23	32240.88
464.41	32018.53
464.59	31051.89
464.78	32797.93
464.96	32741.75
465.14	32208.11
465.32	33149.01
465.50	33743.50
465.69	34473.75
465.87	33420.51
466.05	32615.37
466.23	31274.24
466.41	30611.87
466.60	31637.02
466.78	30785.07
466.96	32107.47
467.14	32308.76
467.32	33001.55
467.51	32814.31
467.69	31096.36
467.87	31976.40
468.05	33020.28
468.23	32395.35
468.41	32322.80
468.60	32374.29
468.78	32783.88
468.96	32811.97
469.14	33303.48
469.32	33340.93
469.50	32074.70
469.69	32437.48
469.87	31702.56
470.05	31627.66
470.23	31894.48
470.41	32144.92
470.59	31957.67
470.77	32013.85
470.95	33195.82
471.14	33453.28
471.32	33371.36
471.50	35295.28
471.68	35384.22
471.86	36147.23
472.04	35660.40
472.22	35669.76
472.40	34162.46
472.58	34300.55
472.77	33333.91
472.95	34050.11
473.13	34649.29
473.31	34146.08
473.49	34398.85
473.67	34663.33
473.85	35309.32
474.03	36002.12
474.21	36072.34
474.39	36414.05
474.57	36046.59
474.75	36620.02
474.93	36121.49
475.12	35281.24
475.30	35875.73
475.48	36098.08
475.66	36252.56
475.84	35976.37
476.02	35704.87
476.20	35225.06
476.38	35391.24
476.56	36795.56
476.74	36935.99
476.92	37624.11
477.10	37844.12
477.28	39028.43
477.46	39100.99
477.64	39276.53
477.82	39428.66
478.00	40051.25
478.18	39250.78
478.36	39082.27
478.54	38628.20
478.72	39313.98
478.90	40229.13
479.08	41160.66
479.26	41280.03
479.44	42019.64
479.62	40945.33
479.80	41160.66
479.98	41787.92
480.16	41860.48
480.34	40847.03
480.52	41893.25
480.70	42052.41
480.88	41628.77
481.06	43068.20
481.24	42707.76
481.41	43873.34
481.59	44191.65
481.77	44165.91
481.95	43655.67
482.13	43145.44
482.31	43597.16
482.49	44259.53
482.67	43796.10
482.85	43966.96
483.03	44818.92
483.21	45453.20
483.39	45022.54
483.57	44505.29
483.74	44158.89
483.92	44177.61
484.10	44839.98
484.28	45415.76
484.46	46230.26
484.64	46419.84
484.82	45537.46
485.00	45059.99
485.18	44210.38
485.35	43175.86
485.53	39885.07
485.71	36072.34
485.89	35590.19
486.07	37413.46
486.25	40825.96
486.43	43140.75
486.61	43782.06
486.78	43828.87
486.96	44030.16
487.14	46014.93
487.32	46958.17
487.50	47966.94
487.68	48327.38
487.85	49294.02
488.03	49207.42
488.21	48502.92
488.39	47870.98
488.57	47133.71
488.75	46815.40
488.92	47959.92
489.10	50349.60
489.28	51622.86
489.46	52495.88
489.64	52083.94
489.81	52222.03
489.99	52158.84
490.17	52182.24
490.35	52729.93
490.53	51877.97
490.70	51384.12
490.88	51379.44
491.06	52481.83
491.24	52589.50
491.41	51103.26
491.59	49563.18
491.77	48863.36
491.95	50164.70
492.13	51164.11
492.30	52523.96
492.48	53619.33
492.66	53947.01
492.84	53874.45
493.01	53446.13
493.19	52978.03
493.37	52458.43
493.54	52303.95
493.72	52662.05
493.90	54164.68
494.08	54946.42
494.25	54887.90
494.43	55360.69
494.61	55676.66
494.79	55964.55
494.96	55363.03
495.14	55000.25
495.32	54073.40
495.49	53090.37
495.67	54157.66
495.85	55749.22
496.02	56093.28
496.20	56076.90
496.38	55814.76
496.55	55414.52
496.73	56376.48
496.91	56151.79
497.09	56633.94
497.26	56905.44
497.44	56385.85
497.62	55798.37
497.79	54834.07
497.97	53497.62
498.14	53904.88
498.32	54930.03
498.50	55742.20
498.67	56259.46
498.85	56456.06
499.03	56582.45
499.20	56655.01
499.38	56774.37
499.56	56650.33
499.73	56203.28
499.91	55700.07
500.08	55255.37
500.26	54611.72
500.44	55002.59
500.61	55620.49
500.79	55442.61
500.97	54972.16
501.14	55030.68
501.32	54735.77
501.49	54642.15
501.67	54958.12
501.84	55587.72
502.02	55730.50
502.20	56207.97
502.37	56196.26
502.55	56219.67
502.72	56846.93
502.90	57247.16
503.07	56898.42
503.25	56640.96
503.43	55786.67
503.60	55215.58
503.78	54330.86
503.95	54820.03
504.13	56399.89
504.30	57172.27
504.48	56774.37
504.65	56512.23
504.83	56460.74
505.01	57052.90
505.18	57553.77
505.36	58059.33
505.53	58220.83
505.71	58302.74
505.88	58478.28
506.06	57986.77
506.23	57336.10
506.41	57071.62
506.58	57492.92
506.76	57436.75
506.93	57207.37
507.11	56959.28
507.28	57284.61
507.46	56729.90
507.63	56133.07
507.81	56023.06
507.98	56034.77
508.16	56921.83
508.33	57240.14
508.50	57792.51
508.68	58089.76
508.85	58410.41
509.03	58454.88
509.20	58307.43
509.38	57647.39
509.55	56690.12
509.73	57003.75
509.90	57663.78
510.08	57776.12
510.25	57668.46
510.42	57394.62
510.60	57436.75
510.77	57968.05
510.95	58241.89
511.12	58405.73
511.30	58560.20
511.47	58763.83
511.64	58805.96
511.82	58468.92
511.99	57787.83
512.17	57396.96
512.34	56853.95
512.51	57003.75
512.69	57286.95
512.86	57453.13
513.04	57848.68
513.21	57783.15
513.38	57635.69
513.56	57059.92
513.73	56336.69
513.90	56570.75
514.08	56699.48
514.25	57057.58
514.43	57066.94
514.60	57289.29
514.77	57319.72
514.95	57595.90
515.12	57153.54
515.29	57668.46
515.47	57949.32
515.64	58202.10
515.81	57593.56
515.99	57169.93
516.16	55866.25
516.33	53680.19
516.51	51798.40
516.68	51168.79
516.85	50553.23
517.03	51330.29
517.20	53954.03
517.37	56467.76
517.54	57361.85
517.72	56989.70
517.89	54546.18
518.06	51866.27
518.24	52479.49
518.41	54644.49
518.58	56163.50
518.75	56163.50
518.93	56381.16
519.10	56334.35
519.27	56690.12
519.45	56959.28
519.62	57684.84
519.79	57923.58
519.96	57708.25
520.14	57329.08
520.31	56570.75
520.48	56580.11
520.65	56732.25
520.83	57616.97
521.00	57998.48
521.17	57752.72
521.34	57506.96
521.52	57719.95
521.69	58115.50
521.86	58506.37
522.03	58557.86
522.20	57139.50
522.38	55847.52
522.55	55999.66
522.72	56802.46
522.89	56879.70
523.07	57071.62
523.24	57291.63
523.41	57836.98
523.58	58642.12
523.75	58925.33
523.92	58731.06
524.10	58557.86
524.27	58688.93
524.44	58539.14
524.61	58246.57
524.78	58010.18
524.96	57790.17
525.13	58014.86
525.30	58461.90
525.47	58536.80
525.64	58728.72
525.81	58017.20
525.98	56788.42
526.16	55238.98
526.33	54358.94
526.50	54075.74
526.67	53797.21
526.84	54546.18
527.01	55391.12
527.18	56212.65
527.36	56868.00
527.53	57853.36
527.70	58183.38
527.87	57485.90
528.04	57022.47
528.21	57684.84
528.38	58237.21
528.55	58995.54
528.72	59128.95
528.89	59276.41
529.07	58930.01
529.24	58475.94
529.41	57748.04
529.58	57024.81
529.75	57333.76
529.92	57570.16
530.09	58089.76
530.26	58422.11
530.43	58904.26
530.60	58927.67
530.77	58820.00
530.94	59135.98
531.11	58707.66
531.28	58349.56
531.46	58056.99
531.63	58152.95
531.80	58174.02
531.97	57785.49
532.14	57024.81
532.31	56158.81
532.48	55627.51
532.65	55473.04
532.82	56474.79
532.99	57427.38
533.16	57741.02
533.33	58295.72
533.50	58197.42
533.67	57476.54
533.84	57148.86
534.01	57308.02
534.18	57279.93
534.35	57712.93
534.52	57530.37
534.69	57743.36
534.86	58080.39
535.03	58426.79
535.20	58997.88
535.37	59014.27
535.54	59264.70
535.71	58951.07
535.88	58658.51
536.05	57890.81
536.22	57722.29
536.38	57141.84
536.55	56868.00
536.72	56133.07
536.89	56023.06
537.06	57006.09
537.23	57733.99
537.40	57928.26
537.57	57904.85
537.74	57504.62
537.91	57638.03
538.08	57741.02
538.25	57731.65
538.42	57640.37
538.59	57710.59
538.75	57233.12
538.92	56987.36
539.09	56725.22
539.26	56371.80
539.43	56083.92
539.60	56460.74
539.77	56568.41
539.94	56470.11
540.11	55760.92
540.28	54831.73
540.44	55070.46
540.61	55442.61
540.78	55744.54
540.95	56163.50
541.12	56617.56
541.29	56769.69
541.46	57116.09
541.62	57120.77
541.79	57162.90
541.96	56423.29
542.13	56388.19
542.30	56814.16
542.47	56856.29
542.63	56486.49
542.80	56474.79
542.97	56444.36
543.14	56200.94
543.31	56491.17
543.48	56921.83
543.64	57607.61
543.81	57958.69
543.98	57598.24
544.15	57132.48
544.32	56411.59
544.48	56444.36
544.65	57083.33
544.82	57619.31
544.99	57209.71
545.16	56924.17
545.32	56411.59
545.49	57242.48
545.66	57717.61
545.83	57261.21
546.00	56807.14
546.16	56463.08
546.33	56652.67
546.50	56797.78
546.67	56931.19
546.83	56523.94
547.00	56666.71
547.17	56058.17
547.34	55599.43
547.50	55222.60
547.67	55814.76
547.84	55964.55
548.00	56046.47
548.17	56685.43
548.34	56629.26
548.51	56530.96
548.67	56617.56
548.84	56673.73
549.01	56762.67
549.18	56226.69
549.34	56657.35
549.51	56432.66
549.68	56332.01
549.84	56229.03
550.01	56137.75
550.18	55835.82
550.34	56112.00
550.51	56343.72
550.68	56163.50
550.84	55543.25
551.01	55751.56
551.18	55590.06
551.34	56074.55
551.51	56198.60
551.68	56624.58
551.84	56636.28
552.01	56289.88
552.18	56126.05
552.34	55739.86
552.51	55035.36
552.68	54712.36
552.84	55428.57
553.01	55760.92
553.18	55639.22
553.34	55536.23
553.51	55889.65
553.67	56151.79
553.84	56236.05
554.01	56130.73
554.17	55849.86
554.34	55880.29
554.51	56142.43
554.67	56519.26
554.84	56329.67
555.00	55814.76
555.17	55856.88
555.33	55671.98
555.50	55735.18
555.67	55756.24
555.83	55419.20
556.00	55105.57
556.16	55199.19
556.33	54979.18
556.50	54791.94
556.66	54691.30
556.83	54188.08
556.99	54714.70
557.16	54564.91
557.32	55075.15
557.49	55154.72
557.65	54810.67
557.82	55199.19
557.98	55166.43
558.15	54585.97
558.32	53492.94
558.48	52577.79
558.65	52814.19
558.81	53464.86
558.98	53717.64
559.14	54174.04
559.31	54000.84
559.47	53975.09
559.64	53368.90
559.80	53340.81
559.97	53144.20
560.13	53539.75
560.30	54621.08
560.46	55182.81
560.63	55360.69
560.79	55180.47
560.96	54869.18
561.12	53525.71
561.29	53071.65
561.45	53083.35
561.61	53605.29
561.78	53771.47
561.94	54197.44
562.11	53839.34
562.27	53492.94
562.44	53900.20
562.60	54047.65
562.77	54480.65
562.93	54319.15
563.10	54225.53
563.26	53822.96
563.42	53762.11
563.59	53420.39
563.75	53551.46
563.92	53593.59
564.08	53354.85
564.24	53750.40
564.41	53837.00
564.57	53502.31
564.74	53471.88
564.90	53602.95
565.07	53303.36
565.23	52753.33
565.39	52310.97
565.56	51985.64
565.72	51875.63
565.88	51875.63
566.05	52301.61
566.21	52617.58
566.38	52671.42
566.54	52774.40
566.70	53001.43
566.87	53389.96
567.03	53312.72
567.19	53523.37
567.36	53549.12
567.52	53195.70
567.68	52870.36
567.85	52121.39
568.01	51903.72
568.17	51239.01
568.34	51278.80
568.50	51224.96
568.66	51515.19
568.83	51877.97
568.99	52009.04
569.15	52301.61
569.32	52126.07
569.48	51573.70
569.64	52023.09
569.81	51519.87
569.97	51341.99
570.13	51306.88
570.30	50522.80
570.46	50340.24
570.62	49553.82
570.78	49216.78
570.95	49712.98
571.11	50452.59
571.27	50855.16
571.43	50852.82
571.60	51400.50
571.76	51491.79
571.92	51950.53
572.09	51915.42
572.25	51892.02
572.41	52081.60
572.57	51550.30
572.74	51812.44
572.90	51164.11
573.06	50969.85
573.22	51512.85
573.38	51121.98
573.55	51381.78
573.71	51409.87
573.87	51491.79
574.03	51110.28
574.20	51040.06
574.36	50817.71
574.52	50574.30
574.68	50698.34
574.84	49940.01
575.01	49474.24
575.17	49301.04
575.33	49928.31
575.49	49865.11
575.65	50068.74
575.82	49925.97
575.98	49450.84
576.14	49890.86
576.30	50232.58
576.46	50270.03
576.62	50188.11
576.79	50131.93
576.95	49921.29
577.11	49497.65
577.27	49858.09
577.43	50120.23
577.59	49607.65
577.75	49308.07
577.92	48371.85
578.08	48247.80
578.24	48034.81
578.40	48299.30
578.56	49027.20
578.72	48893.79
578.88	48903.15
579.04	49401.69
579.21	49120.82
579.37	49223.81
579.53	49759.79
579.69	49364.24
579.85	49586.59
580.01	49741.06
580.17	48528.67
580.33	48765.06
580.49	48715.91
580.65	49254.23
580.82	49104.44
580.98	49605.31
581.14	49137.21
581.30	48928.90
581.46	48863.36
581.62	49303.38
581.78	49174.66
581.94	49591.27
582.10	49219.13
582.26	49291.68
582.42	49305.73
582.58	49043.59
582.74	49460.20
582.90	49310.41
583.06	49476.58
583.22	49118.48
583.38	49174.66
583.54	49092.74
583.70	49095.08
583.86	49160.61
584.02	48940.60
584.18	48739.32
584.34	48959.33
584.50	48540.37
584.66	48940.60
584.82	48409.30
584.98	48151.84
585.14	47641.60
585.30	46995.62
