SpectraSuite Data File
++++++++++++++++++++++++++++++++++++
Date: Mon Oct 07 14:54:58 GMT-05:00 2013
User: price-jones
Dark Spectrum Present: No
Reference Spectrum Present: No
Number of Sampled Component Spectra: 1
Spectrometers: USB2+H05261
Integration Time (usec): 10000 (USB2+H05261)
Spectra Averaged: 1 (USB2+H05261)
Boxcar Smoothing: 0 (USB2+H05261)
Correct for Electrical Dark: No (USB2+H05261)
Strobe/Lamp Enabled: No (USB2+H05261)
Correct for Detector Non-linearity: No (USB2+H05261)
Correct for Stray Light: No (USB2+H05261)
Number of Pixels in Processed Spectrum: 2048
>>>>>Begin Processed Spectral Data<<<<<
365.73	0.00
365.92	0.00
366.12	0.00
366.32	0.00
366.52	0.00
366.72	0.00
366.91	0.00
367.11	0.00
367.31	0.00
367.51	0.00
367.70	0.00
367.90	0.00
368.10	0.00
368.30	0.00
368.49	0.00
368.69	0.00
368.89	0.00
369.09	0.00
369.28	0.00
369.48	0.00
369.68	0.00
369.87	0.00
370.07	0.00
370.27	0.00
370.47	0.00
370.66	135.75
370.86	241.08
371.06	241.08
371.25	222.35
371.45	140.43
371.65	205.97
371.84	88.94
372.04	170.86
372.24	184.90
372.44	241.08
372.63	170.86
372.83	222.35
373.03	142.77
373.22	166.18
373.42	205.97
373.62	227.03
373.81	175.54
374.01	264.48
374.21	241.08
374.40	163.84
374.60	205.97
374.79	189.58
374.99	308.95
375.19	421.30
375.38	355.76
375.58	381.51
375.78	283.20
375.97	330.02
376.17	325.33
376.37	259.80
376.56	318.31
376.76	423.64
376.95	379.17
377.15	418.96
377.35	533.64
377.54	411.93
377.74	580.45
377.93	580.45
378.13	528.96
378.33	489.17
378.52	301.93
378.72	325.33
378.91	360.44
379.11	379.17
379.31	241.08
379.50	224.69
379.70	437.68
379.89	421.30
380.09	510.24
380.28	440.02
380.48	416.62
380.68	454.06
380.87	470.45
381.07	390.87
381.26	341.72
381.46	339.38
381.65	365.12
381.85	269.16
382.04	243.42
382.24	252.78
382.43	215.33
382.63	145.11
382.83	203.63
383.02	208.31
383.22	86.60
383.41	126.39
383.61	217.67
383.80	376.83
384.00	299.59
384.19	442.36
384.39	470.45
384.58	470.45
384.78	411.93
384.97	397.89
385.17	475.13
385.36	430.66
385.56	367.46
385.75	292.57
385.95	322.99
386.14	440.02
386.34	477.47
386.53	486.83
386.72	456.40
386.92	402.57
387.11	425.98
387.31	470.45
387.50	425.98
387.70	475.13
387.89	372.15
388.09	449.38
388.28	463.43
388.48	418.96
388.67	559.39
388.86	645.99
389.06	699.82
389.25	730.25
389.45	645.99
389.64	657.69
389.84	725.57
390.03	657.69
390.22	683.44
390.42	676.41
390.61	674.07
390.81	887.06
391.00	847.27
391.19	805.14
391.39	758.33
391.58	641.31
391.78	709.18
391.97	655.35
392.16	568.75
392.36	547.69
392.55	388.53
392.75	318.31
392.94	220.01
393.13	105.32
393.33	161.50
393.52	383.85
393.71	444.70
393.91	561.73
394.10	638.97
394.29	669.39
394.49	814.51
394.68	866.00
394.88	898.77
395.07	858.98
395.26	943.24
395.46	812.17
395.65	821.53
395.84	613.22
396.04	510.24
396.23	463.43
396.42	222.35
396.62	271.50
396.81	311.29
397.00	489.17
397.19	690.46
397.39	828.55
397.58	924.51
397.77	1062.60
397.97	1041.54
398.16	1121.12
398.35	1174.95
398.55	1196.01
398.74	1240.48
398.93	1256.87
399.12	1270.91
399.32	1144.52
399.51	1235.80
399.70	1324.74
399.90	1245.16
400.09	1371.55
400.28	1263.89
400.47	1348.15
400.67	1317.72
400.86	1523.69
401.05	1420.71
401.24	1439.43
401.44	1451.13
401.63	1411.34
401.82	1479.22
402.01	1497.94
402.21	1467.52
402.40	1554.12
402.59	1376.24
402.78	1324.74
402.97	1317.72
403.17	1331.76
403.36	1472.20
403.55	1472.20
403.74	1563.48
403.93	1486.24
404.13	1261.55
404.32	1303.68
404.51	1341.13
404.70	1511.99
404.89	1460.49
405.09	1509.65
405.28	1509.65
405.47	1476.88
405.66	1345.81
405.85	1376.24
406.05	1446.45
406.24	1418.36
406.43	1467.52
406.62	1540.07
406.81	1481.56
407.00	1448.79
407.20	1387.94
407.39	1317.72
407.58	1486.24
407.77	1516.67
407.96	1593.90
408.15	1565.82
408.34	1584.54
408.54	1762.42
408.73	1792.85
408.92	1626.67
409.11	1607.95
409.30	1528.37
409.49	1409.00
409.68	1310.70
409.87	1299.00
410.07	1315.38
410.26	1589.22
410.45	1554.12
410.64	1631.35
410.83	1844.34
411.02	1750.72
411.21	1823.28
411.40	1949.67
411.59	1717.95
411.78	1762.42
411.98	1818.60
412.17	1792.85
412.36	1675.82
412.55	1746.04
412.74	1640.72
412.93	1694.55
413.12	1764.76
413.31	1818.60
413.50	1844.34
413.69	1909.88
413.88	1834.98
414.07	1760.08
414.26	1830.30
414.45	1909.88
414.64	1834.98
414.83	1900.52
415.02	1867.75
415.22	1802.21
415.41	1907.54
415.60	1977.75
415.79	2054.99
415.98	1984.77
416.17	2134.57
416.36	2050.31
416.55	1982.43
416.74	1900.52
416.93	1802.21
417.12	1909.88
417.31	1914.56
417.50	1874.77
417.69	2015.20
417.88	1956.69
418.07	1982.43
418.26	1858.39
418.45	1851.36
418.64	2057.33
418.83	2204.78
419.02	2054.99
419.21	2038.61
419.39	1921.58
419.58	1823.28
419.77	1870.09
419.96	1902.86
420.15	2139.25
420.34	2094.78
420.53	2129.89
420.72	2181.38
420.91	2270.32
421.10	2181.38
421.29	2160.31
421.48	2122.87
421.67	2101.80
421.86	2188.40
422.05	1952.01
422.24	1626.67
422.43	1657.10
422.61	1867.75
422.80	2097.12
422.99	2080.74
423.18	2134.57
423.37	1944.99
423.56	2012.86
423.75	1961.37
423.94	2080.74
424.13	1888.81
424.32	2047.97
424.50	1919.24
424.69	1898.17
424.88	1923.92
425.07	1982.43
425.26	1830.30
425.45	1926.26
425.64	1849.02
425.83	1842.00
426.01	1961.37
426.20	2015.20
426.39	2029.24
426.58	1823.28
426.77	1645.40
426.96	1617.31
427.15	1722.63
427.33	1935.62
427.52	1893.49
427.71	1949.67
427.90	1818.60
428.09	1783.49
428.28	1748.38
428.46	1795.19
428.65	1757.74
428.84	1776.47
429.03	1736.68
429.22	1760.08
429.40	1643.06
429.59	1462.83
429.78	1228.78
429.97	1320.06
430.16	1280.27
430.34	1282.61
430.53	1334.11
430.72	1289.64
430.91	1530.71
431.10	1703.91
431.28	2108.82
431.47	2242.23
431.66	2303.09
431.85	2225.85
432.03	1935.62
432.22	1767.10
432.41	1900.52
432.60	2033.93
432.79	2282.02
432.97	2230.53
433.16	2172.02
433.35	1970.73
433.54	1839.66
433.72	1671.14
433.91	1668.80
434.10	1888.81
434.28	2019.88
434.47	2120.53
434.66	2134.57
434.85	2132.23
435.03	2064.35
435.22	2169.68
435.41	2235.21
435.59	2270.32
435.78	2289.04
435.97	2370.96
436.16	2417.77
436.34	2354.58
436.53	2314.79
436.72	2303.09
436.90	2141.59
437.09	2209.47
437.28	2017.54
437.46	2218.83
437.65	2214.15
437.84	2017.54
438.02	1811.57
438.21	1900.52
438.40	2012.86
438.58	2139.25
438.77	2101.80
438.96	2165.00
439.14	2204.78
439.33	2380.32
439.52	2396.71
439.70	2356.92
439.89	2324.15
440.08	2209.47
440.26	2118.18
440.45	2282.02
440.63	2429.48
440.82	2600.34
441.01	2576.93
441.19	2558.21
441.38	2530.12
441.57	2628.42
441.75	2733.75
441.94	2700.98
442.12	2670.55
442.31	2782.90
442.50	2670.55
442.68	2850.77
442.87	2546.50
443.05	2630.76
443.24	2637.78
443.43	2677.57
443.61	2775.88
443.80	2801.62
443.98	2719.70
444.17	2778.22
444.35	2750.13
444.54	2750.13
444.73	2731.41
444.91	2731.41
445.10	2572.25
445.28	2483.31
445.47	2424.80
445.65	2417.77
445.84	2530.12
446.02	2593.31
446.21	2731.41
446.39	2553.52
446.58	2590.97
446.77	2726.72
446.95	2670.55
447.14	2867.16
447.32	2897.58
447.51	2724.38
447.69	2605.02
447.88	2600.34
448.06	2787.58
448.25	2768.85
448.43	2796.94
448.62	2668.21
448.80	2710.34
448.99	2703.32
449.17	2700.98
449.36	2761.83
449.54	2780.56
449.73	2860.13
449.91	2979.50
450.10	3124.62
450.28	3007.59
450.46	3094.19
450.65	3173.77
450.83	2906.95
451.02	3002.91
451.20	2925.67
451.39	2920.99
451.57	2864.82
451.76	2918.65
451.94	2813.32
452.13	2768.85
452.31	2544.16
452.49	2574.59
452.68	2487.99
452.86	2597.99
453.05	2595.65
453.23	2722.04
453.42	2871.84
453.60	2789.92
453.78	2953.76
453.97	2899.92
454.15	2874.18
454.34	2738.43
454.52	2792.26
454.70	2787.58
454.89	2750.13
455.07	2745.45
455.26	2806.30
455.44	2993.55
455.62	3047.38
455.81	2822.69
455.99	3073.12
456.17	2918.65
456.36	3042.70
456.54	3040.36
456.73	3021.63
456.91	3117.59
457.09	3157.38
457.28	3178.45
457.46	2998.23
457.64	3023.97
457.83	2857.79
458.01	2780.56
458.19	2911.63
458.38	2937.37
458.56	2935.03
458.74	2846.09
458.93	2958.44
459.11	2984.18
459.29	2881.20
459.48	2949.08
459.66	2825.03
459.84	2970.14
460.03	2972.48
460.21	2937.37
460.39	3049.72
460.57	3056.74
460.76	3042.70
460.94	3126.96
461.12	2935.03
461.31	2974.82
461.49	3059.08
461.67	3009.93
461.85	3084.83
462.04	3028.65
462.22	3068.44
462.40	3185.47
462.59	3096.53
462.77	3197.17
462.95	3211.22
463.13	3124.62
463.32	3047.38
463.50	3045.04
463.68	3012.27
463.86	3052.06
464.05	3000.57
464.23	2935.03
464.41	2878.86
464.59	2808.64
464.78	2977.16
464.96	2939.71
465.14	2904.60
465.32	3007.59
465.50	3152.70
465.69	3199.51
465.87	2979.50
466.05	2958.44
466.23	2916.31
466.41	2857.79
466.60	2897.58
466.78	2820.35
466.96	2920.99
467.14	3030.99
467.32	3014.61
467.51	3056.74
467.69	2857.79
467.87	3033.33
468.05	2991.20
468.23	2890.56
468.41	2967.80
468.60	2951.42
468.78	3009.93
468.96	2956.10
469.14	3059.08
469.32	3141.00
469.50	2916.31
469.69	2932.69
469.87	2958.44
470.05	2928.01
470.23	2953.76
470.41	2951.42
470.59	2946.73
470.77	2944.39
470.95	2979.50
471.14	3005.25
471.32	3082.49
471.50	3185.47
471.68	3262.71
471.86	3241.64
472.04	3318.88
472.22	3361.01
472.40	3038.02
472.58	3159.72
472.77	3028.65
472.95	3159.72
473.13	3199.51
473.31	3131.64
473.49	3204.19
473.67	3110.57
473.85	3248.66
474.03	3372.71
474.21	3344.63
474.39	3368.03
474.57	3311.86
474.75	3290.79
474.93	3349.31
475.12	3178.45
475.30	3311.86
475.48	3262.71
475.66	3346.97
475.84	3192.49
476.02	3124.62
476.20	3159.72
476.38	3276.75
476.56	3342.28
476.74	3527.19
476.92	3370.37
477.10	3445.27
477.28	3454.63
477.46	3597.40
477.64	3646.55
477.82	3599.74
478.00	3522.51
478.18	3604.42
478.36	3454.63
478.54	3566.98
478.72	3559.95
478.90	3693.37
479.08	3639.53
479.26	3824.44
479.44	3815.07
479.62	3791.67
479.80	3789.33
479.98	3721.45
480.16	3735.50
480.34	3791.67
480.52	3971.89
480.70	3904.01
480.88	3852.52
481.06	3981.25
481.24	4152.11
481.41	4109.98
481.59	4086.58
481.77	4021.04
481.95	3784.65
482.13	3999.98
482.31	4131.05
482.49	4142.75
482.67	4067.85
482.85	4156.79
483.03	4107.64
483.21	4177.86
483.39	4257.43
483.57	4112.32
483.74	3904.01
483.92	3941.46
484.10	4173.18
484.28	4290.20
484.46	4121.68
484.64	4259.78
484.82	4138.07
485.00	4142.75
485.18	4095.94
485.35	3878.27
485.53	3604.42
485.71	3215.90
485.89	3208.87
486.07	3403.14
486.25	3646.55
486.43	4088.92
486.61	3836.14
486.78	4042.11
486.96	4007.00
487.14	4276.16
487.32	4285.52
487.50	4475.10
487.68	4517.23
487.85	4657.67
488.03	4594.47
488.21	4517.23
488.39	4423.61
488.57	4339.35
488.75	4236.37
488.92	4489.15
489.10	4681.07
489.28	4950.23
489.46	5195.99
489.64	5034.49
489.81	5214.71
489.99	4901.08
490.17	4945.55
490.35	5083.64
490.53	4812.14
490.70	4863.63
490.88	4847.25
491.06	4966.62
491.24	5025.13
491.41	4884.70
491.59	4479.79
491.77	4542.98
491.95	4758.31
492.13	4880.02
492.30	5069.60
492.48	5219.39
492.66	5254.50
492.84	5366.85
493.01	5245.14
493.19	5132.79
493.37	5036.83
493.54	4858.95
493.72	5060.24
493.90	5191.31
494.08	5589.20
494.25	5507.28
494.43	5565.79
494.61	5717.93
494.79	5554.09
494.96	5591.54
495.14	5378.55
495.32	5507.28
495.49	5071.94
495.67	5357.49
495.85	5654.73
496.02	5724.95
496.20	5565.79
496.38	5561.11
496.55	5621.97
496.73	5645.37
496.91	5788.14
497.09	5830.27
497.26	5935.60
497.44	5783.46
497.62	5647.71
497.79	5465.15
497.97	5144.50
498.14	5348.12
498.32	5430.04
498.50	5591.54
498.67	5849.00
498.85	5863.04
499.03	5781.12
499.20	5820.91
499.38	5830.27
499.56	5846.66
499.73	5746.02
499.91	5621.97
500.08	5446.43
500.26	5378.55
500.44	5518.98
500.61	5731.97
500.79	5598.56
500.97	5430.04
501.14	5448.77
501.32	5385.57
501.49	5383.23
501.67	5488.56
501.84	5497.92
502.02	5617.29
502.20	5762.40
502.37	5692.18
502.55	5834.96
502.72	5872.40
502.90	5991.77
503.07	5746.02
503.25	5678.14
503.43	5469.83
503.60	5474.51
503.78	5542.39
503.95	5327.06
504.13	5832.62
504.30	5792.83
504.48	5664.10
504.65	5701.54
504.83	5802.19
505.01	5806.87
505.18	5951.98
505.36	6054.97
505.53	6239.87
505.71	6176.67
505.88	6232.85
506.06	5968.37
506.23	5949.64
506.41	5905.17
506.58	5877.09
506.76	5954.32
506.93	5771.76
507.11	5870.06
507.28	5856.02
507.46	5877.09
507.63	5528.35
507.81	5675.80
507.98	5724.95
508.16	5818.57
508.33	5935.60
508.50	5921.56
508.68	6174.33
508.85	6256.25
509.03	6239.87
509.20	6017.52
509.38	5994.11
509.55	5877.09
509.73	5916.87
509.90	5959.00
510.08	5998.79
510.25	6071.35
510.42	6005.81
510.60	5827.93
510.77	5863.04
510.95	5998.79
511.12	6164.97
511.30	6291.36
511.47	6129.86
511.64	6340.51
511.82	6129.86
511.99	6045.60
512.17	5968.37
512.34	5771.76
512.51	5776.44
512.69	5949.64
512.86	5699.20
513.04	5874.74
513.21	6012.84
513.38	5827.93
513.56	5738.99
513.73	5619.63
513.90	5844.32
514.08	5600.90
514.25	5699.20
514.43	5898.15
514.60	5696.86
514.77	5731.97
514.95	5975.39
515.12	5933.26
515.29	6108.80
515.47	5973.05
515.64	6059.65
515.81	6059.65
515.99	5809.21
516.16	5561.11
516.33	5107.05
516.51	4915.12
516.68	4732.56
516.85	4690.43
517.03	4716.18
517.20	5146.84
517.37	5764.74
517.54	5905.17
517.72	5771.76
517.89	5284.93
518.06	4917.47
518.24	4968.96
518.41	5212.37
518.58	5547.07
518.75	5710.91
518.93	5570.48
519.10	5523.66
519.27	5619.63
519.45	5748.36
519.62	5701.54
519.79	6047.94
519.96	6045.60
520.14	5804.53
520.31	5640.69
520.48	5628.99
520.65	5746.02
520.83	5905.17
521.00	5998.79
521.17	6033.90
521.34	5891.13
521.52	5921.56
521.69	6076.03
521.86	6132.20
522.03	5975.39
522.20	5748.36
522.38	5579.84
522.55	5392.59
522.72	5753.04
522.89	5856.02
523.07	5760.06
523.24	5874.74
523.41	6076.03
523.58	6017.52
523.75	6225.82
523.92	5991.77
524.10	6169.65
524.27	6080.71
524.44	6045.60
524.61	6073.69
524.78	6125.18
524.96	5916.87
525.13	5963.68
525.30	6038.58
525.47	6155.61
525.64	6094.76
525.81	5921.56
525.98	5701.54
526.16	5350.46
526.33	5181.95
526.50	5022.79
526.67	4884.70
526.84	5048.54
527.01	5413.66
527.18	5483.88
527.36	5652.39
527.53	5797.51
527.70	5926.24
527.87	5879.43
528.04	5760.06
528.21	5977.73
528.38	6010.50
528.55	6174.33
528.72	6150.93
528.89	6097.10
529.07	6211.78
529.24	5839.64
529.41	5874.74
529.58	5783.46
529.75	5830.27
529.92	5778.78
530.09	6047.94
530.26	6115.82
530.43	6162.63
530.60	6113.48
530.77	6258.59
530.94	6190.72
531.11	5973.05
531.28	6050.28
531.46	5921.56
531.63	6029.22
531.80	5966.03
531.97	5853.68
532.14	5654.73
532.31	5423.02
532.48	5472.17
532.65	5444.09
532.82	5579.84
532.99	5710.91
533.16	5706.23
533.33	5977.73
533.50	6104.12
533.67	5710.91
533.84	5554.09
534.01	5640.69
534.18	5776.44
534.35	5905.17
534.52	5799.85
534.69	5776.44
534.86	5940.28
535.03	5832.62
535.20	5944.96
535.37	6193.06
535.54	6181.35
535.71	6064.33
535.88	6097.10
536.05	5884.11
536.22	5846.66
536.38	5797.51
536.55	5481.53
536.72	5514.30
536.89	5383.23
537.06	5516.64
537.23	5738.99
537.40	5799.85
537.57	5731.97
537.74	5865.38
537.91	5841.98
538.08	5652.39
538.25	5944.96
538.42	5818.57
538.59	5795.17
538.75	5717.93
538.92	5654.73
539.09	5533.03
539.26	5628.99
539.43	5385.57
539.60	5516.64
539.77	5589.20
539.94	5533.03
540.11	5369.19
540.28	5334.08
540.44	5284.93
540.61	5303.65
540.78	5298.97
540.95	5430.04
541.12	5579.84
541.29	5502.60
541.46	5617.29
541.62	5647.71
541.79	5598.56
541.96	5526.00
542.13	5305.99
542.30	5685.16
542.47	5720.27
542.63	5586.86
542.80	5472.17
542.97	5607.92
543.14	5626.65
543.31	5554.09
543.48	5647.71
543.64	5778.78
543.81	5877.09
543.98	5621.97
544.15	5493.24
544.32	5486.22
544.48	5645.37
544.65	5760.06
544.82	5701.54
544.99	5607.92
545.16	5500.26
545.32	5577.50
545.49	5645.37
545.66	5785.80
545.83	5640.69
546.00	5666.44
546.16	5710.91
546.33	5526.00
546.50	5554.09
546.67	5605.58
546.83	5626.65
547.00	5636.01
547.17	5467.49
547.34	5301.31
547.50	5416.00
547.67	5420.68
547.84	5469.83
548.00	5453.45
548.17	5612.60
548.34	5430.04
548.51	5579.84
548.67	5460.47
548.84	5348.12
549.01	5479.19
549.18	5514.30
549.34	5441.75
549.51	5317.70
549.68	5408.98
549.84	5432.38
550.01	5411.32
550.18	5305.99
550.34	5369.19
550.51	5376.21
550.68	5418.34
550.84	5355.15
551.01	5446.43
551.18	5390.25
551.34	5439.40
551.51	5549.41
551.68	5633.67
551.84	5416.00
552.01	5570.48
552.18	5394.93
552.34	5240.46
552.51	5254.50
552.68	5275.57
552.84	5172.58
553.01	5305.99
553.18	5380.89
553.34	5270.89
553.51	5364.51
553.67	5291.95
553.84	5317.70
554.01	5455.79
554.17	5144.50
554.34	5486.22
554.51	5331.74
554.67	5394.93
554.84	5345.78
555.00	5439.40
555.17	5226.42
555.33	5343.44
555.50	5158.54
555.67	5385.57
555.83	5324.72
556.00	5100.03
556.16	5174.92
556.33	5144.50
556.50	5022.79
556.66	5036.83
556.83	5053.22
556.99	5109.39
557.16	5027.47
557.32	5153.86
557.49	5181.95
557.65	5128.11
557.82	5076.62
557.98	5132.79
558.15	5032.15
558.32	5053.22
558.48	4760.65
558.65	4910.44
558.81	4896.40
558.98	4777.03
559.14	4912.78
559.31	4924.49
559.47	4940.87
559.64	4952.57
559.80	4938.53
559.97	4830.87
560.13	5029.81
560.30	5111.73
560.46	5210.03
560.63	5282.59
560.79	5245.14
560.96	5076.62
561.12	5043.85
561.29	4755.97
561.45	4777.03
561.61	4777.03
561.78	5027.47
561.94	4961.94
562.11	5022.79
562.27	4952.57
562.44	4814.48
562.60	4985.34
562.77	4933.85
562.93	4865.97
563.10	4990.02
563.26	4786.40
563.42	4999.38
563.59	4788.74
563.75	4830.87
563.92	5067.26
564.08	4870.65
564.24	4734.90
564.41	4910.44
564.57	4842.57
564.74	4938.53
564.90	4746.61
565.07	4854.27
565.23	4762.99
565.39	4660.01
565.56	4676.39
565.72	4386.16
565.88	4643.62
566.05	4589.79
566.21	4718.52
566.38	4723.20
566.54	4641.28
566.70	4819.16
566.87	4830.87
567.03	4767.67
567.19	4753.63
567.36	4856.61
567.52	4873.00
567.68	4566.39
567.85	4870.65
568.01	4540.64
568.17	4540.64
568.34	4531.28
568.50	4482.13
568.66	4564.04
568.83	4524.26
568.99	4697.46
569.15	4650.64
569.32	4559.36
569.48	4617.88
569.64	4723.20
569.81	4505.53
569.97	4482.13
570.13	4477.44
570.30	4517.23
570.46	4475.10
570.62	4337.01
570.78	4154.45
570.95	4283.18
571.11	4449.36
571.27	4456.38
571.43	4430.63
571.60	4437.66
571.76	4465.74
571.92	4589.79
572.09	4638.94
572.25	4531.28
572.41	4507.87
572.57	4622.56
572.74	4505.53
572.90	4437.66
573.06	4465.74
573.22	4437.66
573.38	4606.17
573.55	4437.66
573.71	4533.62
573.87	4435.32
574.03	4332.33
574.20	4505.53
574.36	4353.40
574.52	4393.19
574.68	4287.86
574.84	4311.27
575.01	4224.67
575.17	4292.54
575.33	4355.74
575.49	4407.23
575.65	4276.16
575.82	4266.80
575.98	4276.16
576.14	4269.14
576.30	4451.70
576.46	4423.61
576.62	4329.99
576.79	4297.22
576.95	4339.35
577.11	4212.96
577.27	4227.01
577.43	4402.55
577.59	4222.33
577.75	4227.01
577.92	3911.04
578.08	4124.02
578.24	4074.87
578.40	4035.08
578.56	4201.26
578.72	4182.54
578.88	4142.75
579.04	4227.01
579.21	4128.70
579.37	4332.33
579.53	4217.65
579.69	4276.16
579.85	4360.42
580.01	4156.79
580.17	4102.96
580.33	4255.09
580.49	4147.43
580.65	4196.58
580.82	4327.65
580.98	4163.81
581.14	4180.20
581.30	4290.20
581.46	4147.43
581.62	4161.47
581.78	4367.44
581.94	4344.03
582.10	4224.67
582.26	4337.01
582.42	4203.60
582.58	4201.26
582.74	4236.37
582.90	4250.41
583.06	4159.13
583.22	4266.80
583.38	4194.24
583.54	4014.02
583.70	4180.20
583.86	4304.25
584.02	4269.14
584.18	4264.46
584.34	4119.34
584.50	4070.19
584.66	4095.94
584.82	4042.11
584.98	4046.79
585.14	4009.34
585.30	3880.61
585.46	3859.54
585.62	3819.75
585.78	3873.59
585.94	3990.61
586.10	3915.72
586.26	3847.84
586.42	3955.51
586.58	4135.73
586.74	4044.45
586.90	4067.85
587.06	4018.70
587.22	4112.32
587.38	3964.87
587.54	4007.00
587.70	3852.52
587.86	3899.33
588.02	3854.86
588.18	3847.84
588.34	3866.56
588.49	3522.51
588.65	3265.05
588.81	3232.28
588.97	3201.85
589.13	3283.77
589.29	3243.98
589.45	3386.76
589.61	3440.59
589.77	3662.94
589.93	3623.15
590.08	3784.65
590.24	3761.24
590.40	3784.65
590.56	3707.41
590.72	3655.92
590.88	3555.27
591.04	3665.28
591.20	3772.94
591.35	3590.38
591.51	3548.25
591.67	3578.68
591.83	3756.56
591.99	3707.41
592.15	3609.11
592.31	3751.88
592.46	3749.54
592.62	3772.94
592.78	3772.94
592.94	3625.49
593.10	3651.24
593.26	3662.94
593.41	3726.13
593.57	3660.60
593.73	3473.36
593.89	3588.04
594.05	3674.64
594.20	3597.40
594.36	3442.93
594.52	3538.89
594.68	3433.57
594.84	3574.00
594.99	3588.04
595.15	3480.38
595.31	3609.11
595.47	3602.08
595.62	3688.68
595.78	3611.45
595.94	3574.00
596.10	3702.73
596.25	3602.08
596.41	3581.02
596.57	3672.30
596.73	3534.21
596.88	3679.32
597.04	3566.98
597.20	3632.51
597.36	3527.19
597.51	3510.80
597.67	3527.19
597.83	3499.10
597.99	3428.88
