SpectraSuite Data File
++++++++++++++++++++++++++++++++++++
Date: Mon Oct 07 14:54:56 GMT-05:00 2013
User: price-jones
Dark Spectrum Present: No
Reference Spectrum Present: No
Number of Sampled Component Spectra: 1
Spectrometers: USB2+H05261
Integration Time (usec): 10000 (USB2+H05261)
Spectra Averaged: 1 (USB2+H05261)
Boxcar Smoothing: 0 (USB2+H05261)
Correct for Electrical Dark: No (USB2+H05261)
Strobe/Lamp Enabled: No (USB2+H05261)
Correct for Detector Non-linearity: No (USB2+H05261)
Correct for Stray Light: No (USB2+H05261)
Number of Pixels in Processed Spectrum: 2048
>>>>>Begin Processed Spectral Data<<<<<
365.73	0.00
365.92	0.00
366.12	0.00
366.32	0.00
366.52	0.00
366.72	0.00
366.91	0.00
367.11	0.00
367.31	0.00
367.51	0.00
367.70	0.00
367.90	0.00
368.10	0.00
368.30	0.00
368.49	0.00
368.69	0.00
368.89	0.00
369.09	0.00
369.28	0.00
369.48	0.00
369.68	0.00
369.87	0.00
370.07	0.00
370.27	0.00
370.47	407.25
370.66	2799.28
370.86	3152.70
371.06	3297.81
371.25	3239.30
371.45	2939.71
371.65	2684.59
371.84	2593.31
372.04	2743.11
372.24	3063.76
372.44	3119.93
372.63	2984.18
372.83	2738.43
373.03	2478.63
373.22	2279.68
373.42	2469.27
373.62	2815.66
373.81	3005.25
374.01	3009.93
374.21	2705.66
374.40	2511.39
374.60	2719.70
374.79	3105.89
374.99	3494.42
375.19	3756.56
375.38	3562.30
375.58	3616.13
375.78	3529.53
375.97	3630.17
376.17	3779.97
376.37	3772.94
376.56	3786.99
376.76	4119.34
376.95	4358.08
377.15	4706.82
377.35	4842.57
377.54	5135.14
377.74	5238.12
377.93	5263.86
378.13	5032.15
378.33	4770.01
378.52	4386.16
378.72	4297.22
378.91	4112.32
379.11	4067.85
379.31	3871.25
379.50	3824.44
379.70	4259.78
379.89	4882.36
380.09	4868.31
380.28	5170.24
380.48	5104.71
380.68	4957.25
380.87	4706.82
381.07	4297.22
381.26	4021.04
381.46	3915.72
381.65	3721.45
381.85	3695.71
382.04	3419.52
382.24	3274.41
382.43	3021.63
382.63	2935.03
382.83	3021.63
383.02	2932.69
383.22	3035.67
383.41	3103.55
383.61	3281.43
383.80	3894.65
384.00	4400.21
384.19	5020.45
384.39	5144.50
384.58	5107.05
384.78	5022.79
384.97	4770.01
385.17	4580.43
385.36	4362.76
385.56	4105.30
385.75	4608.51
385.95	5029.81
386.14	5261.52
386.34	5219.39
386.53	4875.34
386.72	4688.09
386.92	4805.12
387.11	5153.86
387.31	5317.70
387.50	5266.21
387.70	4905.76
387.89	4987.68
388.09	4959.60
388.28	5111.73
388.48	5287.27
388.67	5640.69
388.86	6122.84
389.06	6394.34
389.25	6881.18
389.45	6846.07
389.64	6773.51
389.84	6668.19
390.03	6452.86
390.22	6850.75
390.42	7040.33
390.61	7564.61
390.81	8039.74
391.00	8049.10
391.19	7936.76
391.39	7480.35
391.58	6918.62
391.78	6551.16
391.97	6401.37
392.16	6083.05
392.36	5434.72
392.55	4079.55
392.75	3288.45
392.94	2850.77
393.13	2986.52
393.33	3761.24
393.52	4645.96
393.71	5444.09
393.91	6314.77
394.10	6775.85
394.29	7538.87
394.49	8121.66
394.68	8610.83
394.88	8795.73
395.07	8746.58
395.26	8655.30
395.46	8339.33
395.65	7683.98
395.84	6588.61
396.04	5394.93
396.23	4465.74
396.42	3815.07
396.62	4051.47
396.81	4837.89
397.00	6087.73
397.19	7496.74
397.39	8830.84
397.58	9811.53
397.77	10094.73
397.97	10829.66
398.16	10867.11
398.35	11117.54
398.55	11791.62
398.74	11882.90
398.93	12154.40
399.12	11918.01
399.32	11693.32
399.51	12173.13
399.70	12800.39
399.90	12685.70
400.09	12430.59
400.28	12697.41
400.47	12851.88
400.67	13364.46
400.86	13476.80
401.05	13378.50
401.24	13263.82
401.44	13816.18
401.63	13886.40
401.82	13799.80
402.01	13610.22
402.21	13741.29
402.40	13970.66
402.59	13214.66
402.78	12966.57
402.97	12601.44
403.17	13364.46
403.36	14181.31
403.55	14654.09
403.74	14576.86
403.93	13724.90
404.13	12662.30
404.32	13020.40
404.51	13486.17
404.70	14651.75
404.89	14462.17
405.09	13984.70
405.28	13851.29
405.47	13694.47
405.66	13731.92
405.85	12966.57
406.05	12840.18
406.24	13607.87
406.43	13902.78
406.62	14164.92
406.81	14408.34
407.00	13834.91
407.20	13554.04
407.39	13954.27
407.58	14649.41
407.77	14970.07
407.96	15363.28
408.15	15833.72
408.34	15688.61
408.54	16741.85
408.73	16627.17
408.92	16411.84
409.11	15510.73
409.30	14834.32
409.49	13605.53
409.68	12760.60
409.87	13050.83
410.07	14307.69
410.26	15115.18
410.45	15721.38
410.64	15997.56
410.83	16713.77
411.02	16950.16
411.21	17465.08
411.40	17121.02
411.59	17334.01
411.78	17544.66
411.98	17472.10
412.17	17537.63
412.36	17043.78
412.55	17228.68
412.74	16580.36
412.93	16353.32
413.12	17212.30
413.31	18178.94
413.50	17998.72
413.69	18204.69
413.88	17275.49
414.07	17245.07
414.26	17834.88
414.45	18312.35
414.64	18455.12
414.83	18345.12
415.02	18209.37
415.22	18572.15
415.41	18958.34
415.60	19499.00
415.79	20121.59
415.98	20343.94
416.17	20205.84
416.36	19999.88
416.55	19545.81
416.74	18464.49
416.93	18288.95
417.12	18324.05
417.31	18356.82
417.50	18710.24
417.69	19489.64
417.88	19356.23
418.07	19346.87
418.26	19014.51
418.45	19314.10
418.64	19960.09
418.83	20842.47
419.02	20369.68
419.21	19967.11
419.39	19204.10
419.58	18422.36
419.77	18417.68
419.96	19903.92
420.15	20416.49
420.34	21076.52
420.53	21575.06
420.72	22050.19
420.91	21408.88
421.10	21273.13
421.29	21216.96
421.48	21151.42
421.67	22094.66
421.86	20814.38
422.05	19370.27
422.24	17191.23
422.43	18405.97
422.61	19957.75
422.80	21043.76
422.99	20343.94
423.18	19887.53
423.37	20039.67
423.56	20191.80
423.75	20407.13
423.94	21029.71
424.13	19667.52
424.32	19585.60
424.50	19660.50
424.69	19569.22
424.88	19569.22
425.07	19836.04
425.26	19726.04
425.45	19335.17
425.64	18918.55
425.83	19330.48
426.01	20582.67
426.20	20503.09
426.39	19943.70
426.58	18321.71
426.77	17392.52
426.96	16929.09
427.15	18373.21
427.33	19566.88
427.52	19903.92
427.71	20037.33
427.90	19667.52
428.09	19452.19
428.28	19009.83
428.46	18078.30
428.65	18239.79
428.84	18682.16
429.03	19297.72
429.22	17846.58
429.40	16549.93
429.59	15323.49
429.78	13596.17
429.97	13947.25
430.16	14085.34
430.34	13577.45
430.53	14045.55
430.72	15007.52
430.91	16840.15
431.10	19452.19
431.28	22731.28
431.47	23660.48
431.66	23681.54
431.85	21081.21
432.03	19545.81
432.22	19592.62
432.41	21331.64
432.60	23016.83
432.79	23688.56
432.97	23796.23
433.16	22520.63
433.35	19927.32
433.54	18001.06
433.72	18167.24
433.91	19009.83
434.10	21598.46
434.28	22991.08
434.47	23737.71
434.66	22405.95
434.85	22265.52
435.03	22331.05
435.22	22988.74
435.41	23939.00
435.59	24559.24
435.78	24435.19
435.97	25502.48
436.16	25020.33
436.34	24194.12
436.53	24936.07
436.72	24666.91
436.90	23417.06
437.09	23157.26
437.28	22764.05
437.46	23831.33
437.65	23484.94
437.84	21139.72
438.02	20285.42
438.21	20664.59
438.40	21345.69
438.58	23311.74
438.77	23866.44
438.96	24318.17
439.14	25099.90
439.33	26064.21
439.52	25940.16
439.70	25132.67
439.89	24687.97
440.08	24318.17
440.26	23896.87
440.45	25263.74
440.63	26747.64
440.82	28371.97
441.01	27103.40
441.19	26867.01
441.38	27770.46
441.57	28587.30
441.75	28467.94
441.94	29134.99
442.12	28790.93
442.31	29984.60
442.50	29961.20
442.68	28886.89
442.87	28826.04
443.05	28095.79
443.24	28680.92
443.43	29156.05
443.61	29305.85
443.80	30019.71
443.98	28900.94
444.17	28603.69
444.35	30410.58
444.54	30199.93
444.73	29958.86
444.91	29095.20
445.10	27623.00
445.28	27182.98
445.47	26370.82
445.65	26822.54
445.84	27700.24
446.02	28680.92
446.21	28994.56
446.39	29228.61
446.58	29333.93
446.77	29881.62
446.95	30195.25
447.14	30902.09
447.32	31281.26
447.51	30604.84
447.69	29167.76
447.88	29596.07
448.06	30183.55
448.25	30778.04
448.43	30082.91
448.62	29376.06
448.80	29198.18
448.99	29120.95
449.17	30323.98
449.36	30785.07
449.54	31480.21
449.73	31779.79
449.91	32496.00
450.10	33937.77
450.28	33488.38
450.46	33579.67
450.65	33628.82
450.83	33076.45
451.02	32755.80
451.20	32243.22
451.39	32259.60
451.57	32116.83
451.76	32051.30
451.94	31463.82
452.13	30972.31
452.31	29703.74
452.49	28687.95
452.68	29270.74
452.86	29057.75
453.05	29467.34
453.23	30646.97
453.42	31761.07
453.60	32205.77
453.78	32587.28
453.97	31573.83
454.15	31695.53
454.34	30916.14
454.52	31033.16
454.70	30396.54
454.89	31014.44
455.07	31147.85
455.26	31850.01
455.44	33172.41
455.62	34213.95
455.81	34103.95
455.99	33603.07
456.17	33076.45
456.36	33020.28
456.54	33853.51
456.73	33736.48
456.91	34188.21
457.09	34150.76
457.28	35035.48
457.46	33652.22
457.64	33141.99
457.83	32737.07
458.01	32470.25
458.19	33362.00
458.38	33773.93
458.56	33703.71
458.74	33902.66
458.93	33247.31
459.11	33160.71
459.29	32868.14
459.48	32877.51
459.66	32748.78
459.84	33628.82
460.03	34225.65
460.21	34279.49
460.39	34417.58
460.57	34181.18
460.76	34923.13
460.94	34841.21
461.12	34309.91
461.31	34424.60
461.49	34623.54
461.67	34712.49
461.85	35407.62
462.04	35744.66
462.22	35892.12
462.40	36172.98
462.59	35515.29
462.77	35817.22
462.95	35639.34
463.13	35555.08
463.32	34625.89
463.50	34277.15
463.68	34206.93
463.86	34452.69
464.05	34270.12
464.23	33689.67
464.41	33242.63
464.59	33324.55
464.78	35747.00
464.96	34995.69
465.14	34684.40
465.32	35721.26
465.50	35725.94
465.69	35311.66
465.87	35023.78
466.05	33944.79
466.23	32137.90
466.41	32444.51
466.60	33958.83
466.78	33713.08
466.96	34295.87
467.14	35152.51
467.32	35072.93
467.51	34738.23
467.69	33076.45
467.87	34017.35
468.05	34717.17
468.23	34913.77
468.41	34632.91
468.60	34586.10
468.78	34859.94
468.96	34202.25
469.14	35714.23
469.32	35679.13
469.50	34600.14
469.69	34321.62
469.87	33198.16
470.05	33661.58
470.23	34312.25
470.41	34403.53
470.59	34672.70
470.77	34637.59
470.95	35030.80
471.14	36123.83
471.32	36119.15
471.50	36921.95
471.68	37277.71
471.86	37975.19
472.04	38340.32
472.22	38337.98
472.40	35974.03
472.58	35344.43
472.77	36079.36
472.95	37031.96
473.13	37670.92
473.31	36573.21
473.49	36627.04
473.67	36980.46
473.85	37750.50
474.03	38827.15
474.21	38761.61
474.39	39096.31
474.57	39168.87
474.75	39007.37
474.93	38909.07
475.12	37736.46
475.30	38513.52
475.48	38611.82
475.66	39800.81
475.84	38609.48
476.02	37921.36
476.20	37776.25
476.38	38281.80
476.56	39988.05
476.74	39601.86
476.92	39707.19
477.10	41518.76
477.28	41933.04
477.46	42064.11
477.64	42082.83
477.82	42031.34
478.00	42057.09
478.18	41776.22
478.36	41427.48
478.54	41853.46
478.72	42616.47
478.90	43873.34
479.08	44959.35
479.26	44320.38
479.44	44053.56
479.62	44175.27
479.80	44509.97
479.98	44388.26
480.16	45181.70
480.34	44182.29
480.52	44816.58
480.70	44720.62
480.88	45411.07
481.06	45937.69
481.24	45441.50
481.41	46209.20
481.59	46681.98
481.77	46234.94
481.95	46450.27
482.13	47239.03
482.31	46672.62
482.49	46831.78
482.67	47152.43
482.85	47838.21
483.03	48605.91
483.21	47327.97
483.39	47922.47
483.57	47208.61
483.74	47426.28
483.92	47634.58
484.10	47929.49
484.28	48933.58
484.46	49673.19
484.64	49078.69
484.82	48428.02
485.00	48114.39
485.18	47112.64
485.35	45935.35
485.53	41481.31
485.71	38838.85
485.89	40133.17
486.07	42241.99
486.25	45081.06
486.43	46213.88
486.61	46347.29
486.78	46447.93
486.96	47278.82
487.14	49048.27
487.32	49780.85
487.50	50263.00
487.68	51496.47
487.85	51625.20
488.03	51136.02
488.21	51398.16
488.39	50986.23
488.57	50663.24
488.75	50700.68
488.92	51538.60
489.10	53422.73
489.28	54244.26
489.46	55049.40
489.64	54588.31
489.81	55264.73
489.99	54864.50
490.17	54742.79
490.35	55278.77
490.53	54206.81
490.70	54244.26
490.88	54295.75
491.06	55140.68
491.24	54770.88
491.41	53324.43
491.59	52402.25
491.77	52643.33
491.95	53029.52
492.13	53745.72
492.30	55004.93
492.48	55660.28
492.66	56383.51
492.84	55767.94
493.01	55791.35
493.19	55353.67
493.37	54899.61
493.54	55318.56
493.72	56385.85
493.90	57090.35
494.08	57581.86
494.25	57303.34
494.43	57265.89
494.61	58520.41
494.79	58431.47
494.96	58012.52
495.14	57277.59
495.32	56484.15
495.49	56776.72
495.67	57244.82
495.85	58295.72
496.02	58295.72
496.20	58241.89
496.38	57914.22
496.55	57921.24
496.73	58169.33
496.91	58747.45
497.09	59201.51
497.26	58890.22
497.44	58314.45
497.62	58365.94
497.79	57567.82
497.97	56193.92
498.14	56711.18
498.32	58103.80
498.50	58880.86
498.67	59114.91
498.85	58862.13
499.03	59089.16
499.20	59505.78
499.38	58981.50
499.56	58838.73
499.73	58539.14
499.91	59002.56
500.08	57586.54
500.26	57418.02
500.44	57764.42
500.61	58599.99
500.79	57687.18
500.97	57778.46
501.14	57488.24
501.32	57771.44
501.49	57748.04
501.67	57467.17
501.84	58071.03
502.02	58337.85
502.20	58541.48
502.37	58466.58
502.55	58997.88
502.72	59531.53
502.90	59767.92
503.07	59391.09
503.25	59098.53
503.43	58087.42
503.60	57621.65
503.78	57764.42
503.95	57750.38
504.13	59634.51
504.30	59505.78
504.48	59381.73
504.65	58377.64
504.83	58855.11
505.01	60161.13
505.18	60259.43
505.36	61010.74
505.53	60912.44
505.71	60926.49
505.88	60156.45
506.06	59662.60
506.23	59709.41
506.41	59604.08
506.58	59917.71
506.76	60018.36
506.93	59927.08
507.11	59468.33
507.28	59957.50
507.46	59767.92
507.63	59449.61
507.81	59004.91
507.98	58955.75
508.16	59547.91
508.33	60076.87
508.50	60917.12
508.68	61151.18
508.85	61556.09
509.03	61336.08
509.20	60570.72
509.38	59767.92
509.55	59407.48
509.73	59753.88
509.90	60720.52
510.08	60376.46
510.25	60236.03
510.42	60165.81
510.60	59962.18
510.77	60104.96
510.95	60945.21
511.12	60458.38
511.30	60779.03
511.47	61080.96
511.64	61045.85
511.82	60783.71
511.99	60196.24
512.17	59774.94
512.34	59554.93
512.51	59896.65
512.69	60357.74
512.86	60009.00
513.04	59927.08
513.21	60023.04
513.38	59496.42
513.56	59669.62
513.73	59718.77
513.90	59690.68
514.08	59992.61
514.25	59627.49
514.43	59564.29
514.60	59543.23
514.77	59948.14
514.95	60264.11
515.12	60161.13
515.29	61109.05
515.47	61193.31
515.64	60795.42
515.81	60048.78
515.99	59646.21
516.16	58300.40
516.33	56217.33
516.51	55428.57
516.68	54167.02
516.85	54035.95
517.03	55997.32
517.20	58216.14
517.37	59470.67
517.54	60772.01
517.72	58962.78
517.89	56381.16
518.06	56046.47
518.24	56128.39
518.41	58305.09
518.58	59606.42
518.75	59451.95
518.93	59552.59
519.10	59508.12
519.27	59667.28
519.45	60097.94
519.62	59880.27
519.79	60486.46
519.96	60444.33
520.14	59814.73
520.31	59250.66
520.48	59578.34
520.65	60107.30
520.83	60821.16
521.00	60795.42
521.17	60500.51
521.34	60769.67
521.52	61275.22
521.69	61586.52
521.86	61593.54
522.03	61193.31
522.20	60116.66
522.38	59732.81
522.55	59543.23
522.72	59877.93
522.89	59566.63
523.07	59643.87
523.24	59898.99
523.41	61031.81
523.58	60842.23
523.75	61071.60
523.92	61483.53
524.10	61441.40
524.27	61331.40
524.44	61848.66
524.61	61478.85
524.78	61169.90
524.96	60956.91
525.13	61345.44
525.30	61455.45
525.47	61141.81
525.64	61109.05
525.81	60425.61
525.98	59070.44
526.16	57483.56
526.33	56406.91
526.50	56577.77
526.67	56449.04
526.84	57591.22
527.01	59250.66
527.18	60165.81
527.36	60884.36
527.53	60526.25
527.70	60144.75
527.87	60640.94
528.04	61155.86
528.21	61134.79
528.38	61991.43
528.55	62443.15
528.72	62892.54
528.89	62929.98
529.07	61834.61
529.24	60715.84
529.41	60858.61
529.58	61010.74
529.75	61649.71
529.92	61511.62
530.09	61740.99
530.26	61263.52
530.43	61733.97
530.60	61740.99
530.77	62099.09
530.94	62546.14
531.11	61169.90
531.28	61523.32
531.46	61439.06
531.63	61436.72
531.80	61368.85
531.97	60788.39
532.14	60032.40
532.31	59407.48
532.48	58766.17
532.65	59168.74
532.82	59334.92
532.99	60074.53
533.16	61677.80
533.33	61834.61
533.50	61233.10
533.67	60762.65
533.84	60238.37
534.01	60463.06
534.18	61310.33
534.35	61205.01
534.52	60261.77
534.69	60388.16
534.86	60870.31
535.03	60870.31
535.20	61228.41
535.37	61453.11
535.54	61638.01
535.71	62358.89
535.88	62152.93
536.05	60690.09
536.22	60767.33
536.38	60530.93
536.55	60179.85
536.72	60165.81
536.89	60306.24
537.06	60339.01
537.23	60479.44
537.40	60715.84
537.57	61188.63
537.74	60484.12
537.91	61085.64
538.08	60657.32
538.25	60994.36
538.42	60608.17
538.59	60500.51
538.75	59875.58
538.92	60528.59
539.09	60369.44
539.26	59742.17
539.43	59590.04
539.60	59440.24
539.77	59217.89
539.94	59402.80
540.11	58939.37
540.28	58908.94
540.44	58305.09
540.61	58770.85
540.78	59646.21
540.95	59559.61
541.12	59962.18
541.29	60034.74
541.46	60116.66
541.62	59978.57
541.79	59437.90
541.96	58777.87
542.13	58979.16
542.30	60060.49
542.47	59545.57
542.63	59866.22
542.80	60135.38
542.97	59334.92
543.14	59309.18
543.31	59119.59
543.48	60097.94
543.64	60708.82
543.81	61649.71
543.98	61490.55
544.15	59302.15
544.32	59629.83
544.48	60175.17
544.65	59957.50
544.82	61169.90
544.99	60963.93
545.16	60584.77
545.32	60601.15
545.49	60563.70
545.66	61429.70
545.83	60521.57
546.00	60189.22
546.16	60711.16
546.33	59634.51
546.50	59072.78
546.67	59311.52
546.83	59671.96
547.00	59412.16
547.17	59128.95
547.34	58562.54
547.50	59449.61
547.67	59131.29
547.84	59648.55
548.00	59849.84
548.17	59763.24
548.34	59695.36
548.51	60236.03
548.67	60051.12
548.84	59800.69
549.01	59526.84
549.18	59021.29
549.34	59639.19
549.51	58838.73
549.68	59302.15
549.84	59337.26
550.01	60058.15
550.18	59288.11
550.34	59337.26
550.51	59505.78
550.68	59421.52
550.84	58733.40
551.01	58981.50
551.18	59196.83
551.34	59196.83
551.51	59877.93
551.68	59990.27
551.84	60556.68
552.01	59976.23
552.18	59363.01
552.34	59000.22
552.51	58841.07
552.68	59269.39
552.84	59175.76
553.01	59826.43
553.18	60259.43
553.34	59969.21
553.51	60229.01
553.67	60247.73
553.84	59510.46
554.01	59379.39
554.17	59667.28
554.34	60629.24
554.51	59826.43
554.67	60507.53
554.84	60308.58
555.00	59536.21
555.17	59590.04
555.33	59618.13
555.50	59903.67
555.67	59835.80
555.83	59054.06
556.00	57982.09
556.16	57631.01
556.33	58499.35
556.50	57867.40
556.66	57352.49
556.83	57659.10
556.99	58981.50
557.16	59267.05
557.32	58885.54
557.49	58438.50
557.65	59009.59
557.82	58955.75
557.98	58691.27
558.15	58340.19
558.32	57008.43
558.48	57577.18
558.65	56924.17
558.81	56816.50
558.98	57172.27
559.14	57249.50
559.31	57312.70
559.47	57874.43
559.64	57155.88
559.80	57209.71
559.97	57684.84
560.13	58031.24
560.30	59718.77
560.46	59913.03
560.63	59611.10
560.79	59388.75
560.96	57389.94
561.12	56505.21
561.29	56978.00
561.45	57560.79
561.61	57626.33
561.78	57853.36
561.94	57495.26
562.11	57265.89
562.27	58075.71
562.44	57209.71
562.60	58693.61
562.77	58178.70
562.93	58468.92
563.10	58108.48
563.26	57181.63
563.42	57329.08
563.59	56509.89
563.75	56718.20
563.92	57755.06
564.08	57645.05
564.24	57553.77
564.41	57301.00
564.57	57535.05
564.74	56568.41
564.90	56392.87
565.07	56823.53
565.23	56622.24
565.39	56554.36
565.56	57333.76
565.72	56559.05
565.88	57006.09
566.05	57289.29
566.21	57343.12
566.38	57031.83
566.54	57513.98
566.70	57794.85
566.87	57705.91
567.03	56919.49
567.19	57607.61
567.36	57441.43
567.52	56933.53
567.68	56980.34
567.85	56549.68
568.01	55285.79
568.17	54969.82
568.34	55671.98
568.50	55845.18
568.66	55716.45
568.83	56905.44
568.99	55999.66
569.15	55730.50
569.32	55910.72
569.48	54284.04
569.64	54890.24
569.81	55070.46
569.97	54817.69
570.13	55356.01
570.30	55625.17
570.46	55580.70
570.62	54113.19
570.78	54277.02
570.95	55168.77
571.11	56053.49
571.27	56158.81
571.43	56484.15
571.60	56409.25
571.76	54960.46
571.92	55896.67
572.09	56779.06
572.25	56884.38
572.41	56615.22
572.57	56095.62
572.74	56060.51
572.90	55779.65
573.06	57172.27
573.22	56303.93
573.38	55800.71
573.55	55613.47
573.71	56535.64
573.87	56292.22
574.03	57193.33
574.20	55618.15
574.36	55346.65
574.52	54983.86
574.68	54347.24
574.84	53708.27
575.01	53659.12
575.17	53780.83
575.33	53848.71
575.49	54487.67
575.65	54429.16
575.82	54604.70
575.98	54138.93
576.14	54770.88
576.30	54138.93
576.46	52846.96
576.62	53394.64
576.79	54576.61
576.95	55526.87
577.11	55679.00
577.27	56013.70
577.43	54590.66
577.59	54319.15
577.75	53806.58
577.92	54387.03
578.08	54789.60
578.24	54482.99
578.40	53963.39
578.56	53581.88
578.72	54562.57
578.88	53942.33
579.04	54071.06
579.21	55145.36
579.37	55093.87
579.53	54468.95
579.69	54284.04
579.85	54459.58
580.01	54080.42
580.17	53799.55
580.33	54340.22
580.49	53141.86
580.65	53914.24
580.82	53993.82
580.98	53947.01
581.14	53319.74
581.30	54047.65
581.46	54330.86
581.62	54251.28
581.78	54398.73
581.94	54665.55
582.10	53485.92
582.26	54665.55
582.42	54915.99
582.58	55136.00
582.74	54920.67
582.90	54930.03
583.06	55065.78
583.22	54405.75
583.38	54986.21
583.54	54915.99
583.70	53499.97
583.86	53265.91
584.02	53703.59
584.18	53930.62
584.34	54328.52
584.50	54649.17
584.66	53305.70
584.82	52844.62
584.98	53249.53
585.14	53467.20
585.30	51913.08
