SpectraSuite Data File
++++++++++++++++++++++++++++++++++++
Date: Mon Oct 07 14:54:58 GMT-05:00 2013
User: price-jones
Dark Spectrum Present: No
Reference Spectrum Present: No
Number of Sampled Component Spectra: 1
Spectrometers: USB2+H05261
Integration Time (usec): 10000 (USB2+H05261)
Spectra Averaged: 1 (USB2+H05261)
Boxcar Smoothing: 0 (USB2+H05261)
Correct for Electrical Dark: No (USB2+H05261)
Strobe/Lamp Enabled: No (USB2+H05261)
Correct for Detector Non-linearity: No (USB2+H05261)
Correct for Stray Light: No (USB2+H05261)
Number of Pixels in Processed Spectrum: 2048
>>>>>Begin Processed Spectral Data<<<<<
365.73	0.00
365.92	0.00
366.12	0.00
366.32	0.00
366.52	0.00
366.72	0.00
366.91	0.00
367.11	0.00
367.31	0.00
367.51	0.00
367.70	0.00
367.90	0.00
368.10	0.00
368.30	0.00
368.49	0.00
368.69	0.00
368.89	0.00
369.09	0.00
369.28	0.00
369.48	0.00
369.68	0.00
369.87	0.00
370.07	0.00
370.27	0.00
370.47	0.00
370.66	84.26
370.86	131.07
371.06	276.18
371.25	198.95
371.45	187.24
371.65	142.77
371.84	86.60
372.04	194.26
372.24	177.88
372.44	196.60
372.63	208.31
372.83	210.65
373.03	161.50
373.22	215.33
373.42	152.13
373.62	156.82
373.81	189.58
374.01	271.50
374.21	154.48
374.40	175.54
374.60	208.31
374.79	262.14
374.99	322.99
375.19	367.46
375.38	334.70
375.58	320.65
375.78	257.46
375.97	262.14
376.17	337.04
376.37	397.89
376.56	362.78
376.76	374.49
376.95	369.80
377.15	407.25
377.35	447.04
377.54	458.74
377.74	503.22
377.93	528.96
378.13	393.21
378.33	404.91
378.52	470.45
378.72	337.04
378.91	367.46
379.11	376.83
379.31	325.33
379.50	334.70
379.70	383.85
379.89	365.12
380.09	414.27
380.28	468.11
380.48	507.90
380.68	447.04
380.87	393.21
381.07	339.38
381.26	421.30
381.46	299.59
381.65	198.95
381.85	198.95
382.04	229.37
382.24	231.71
382.43	205.97
382.63	152.13
382.83	163.84
383.02	161.50
383.22	154.48
383.41	208.31
383.61	196.60
383.80	276.18
384.00	353.42
384.19	421.30
384.39	472.79
384.58	493.85
384.78	470.45
384.97	442.36
385.17	414.27
385.36	397.89
385.56	360.44
385.75	278.52
385.95	451.72
386.14	505.56
386.34	388.53
386.53	418.96
386.72	341.72
386.92	400.23
387.11	388.53
387.31	482.15
387.50	524.28
387.70	484.49
387.89	435.34
388.09	440.02
388.28	421.30
388.48	423.64
388.67	535.98
388.86	533.64
389.06	521.94
389.25	594.50
389.45	730.25
389.64	648.33
389.84	592.16
390.03	692.80
390.22	641.31
390.42	702.16
390.61	781.74
390.81	798.12
391.00	751.31
391.19	805.14
391.39	716.20
391.58	748.97
391.78	660.03
391.97	610.88
392.16	624.92
392.36	449.38
392.55	348.74
392.75	245.76
392.94	105.32
393.13	191.92
393.33	191.92
393.52	351.08
393.71	461.09
393.91	461.09
394.10	648.33
394.29	667.05
394.49	795.78
394.68	777.06
394.88	884.72
395.07	842.59
395.26	805.14
395.46	884.72
395.65	653.01
395.84	585.13
396.04	468.11
396.23	304.27
396.42	327.68
396.62	269.16
396.81	299.59
397.00	472.79
397.19	674.07
397.39	863.66
397.58	1008.77
397.77	990.05
397.97	1142.18
398.16	1071.97
398.35	1203.04
398.55	1177.29
398.74	1254.53
398.93	1233.46
399.12	1296.66
399.32	1163.25
399.51	1231.12
399.70	1299.00
399.90	1334.11
400.09	1336.45
400.28	1306.02
400.47	1249.85
400.67	1336.45
400.86	1378.58
401.05	1451.13
401.24	1392.62
401.44	1451.13
401.63	1497.94
401.82	1467.52
402.01	1420.71
402.21	1528.37
402.40	1401.98
402.59	1350.49
402.78	1303.68
402.97	1238.14
403.17	1296.66
403.36	1458.15
403.55	1409.00
403.74	1439.43
403.93	1303.68
404.13	1448.79
404.32	1263.89
404.51	1418.36
404.70	1507.30
404.89	1416.02
405.09	1366.87
405.28	1425.39
405.47	1362.19
405.66	1420.71
405.85	1378.58
406.05	1334.11
406.24	1256.87
406.43	1404.32
406.62	1488.58
406.81	1507.30
407.00	1467.52
407.20	1390.28
407.39	1291.98
407.58	1460.49
407.77	1526.03
407.96	1596.25
408.15	1640.72
408.34	1650.08
408.54	1650.08
408.73	1776.47
408.92	1692.21
409.11	1610.29
409.30	1479.22
409.49	1296.66
409.68	1338.79
409.87	1299.00
410.07	1327.08
410.26	1352.83
410.45	1521.35
410.64	1579.86
410.83	1617.31
411.02	1741.36
411.21	1860.73
411.40	1900.52
411.59	1900.52
411.78	1703.91
411.98	1767.10
412.17	1776.47
412.36	1750.72
412.55	1685.19
412.74	1715.61
412.93	1556.46
413.12	1713.27
413.31	1720.29
413.50	1891.15
413.69	1748.38
413.88	1891.15
414.07	1839.66
414.26	1741.36
414.45	1818.60
414.64	1727.32
414.83	1825.62
415.02	1771.79
415.22	1762.42
415.41	1813.92
415.60	1984.77
415.79	2019.88
415.98	1970.73
416.17	1944.99
416.36	1989.46
416.55	1994.14
416.74	1973.07
416.93	1802.21
417.12	1820.94
417.31	1790.51
417.50	1891.15
417.69	1886.47
417.88	1952.01
418.07	1881.79
418.26	1923.92
418.45	1959.03
418.64	1930.94
418.83	2010.52
419.02	2022.22
419.21	2024.56
419.39	1926.26
419.58	1778.81
419.77	1788.17
419.96	1865.41
420.15	2005.84
420.34	2136.91
420.53	2232.87
420.72	2244.57
420.91	2125.21
421.10	2052.65
421.29	2188.40
421.48	2026.90
421.67	2111.16
421.86	1975.41
422.05	1949.67
422.24	1689.87
422.43	1593.90
422.61	1785.83
422.80	1973.07
422.99	2066.69
423.18	2038.61
423.37	1832.64
423.56	1952.01
423.75	1816.26
423.94	2029.24
424.13	1853.70
424.32	1942.64
424.50	1795.19
424.69	1853.70
424.88	1940.30
425.07	1928.60
425.26	1900.52
425.45	1846.68
425.64	1750.72
425.83	1781.15
426.01	2008.18
426.20	1921.58
426.39	2022.22
426.58	1881.79
426.77	1629.01
426.96	1577.52
427.15	1696.89
427.33	1813.92
427.52	1884.13
427.71	1893.49
427.90	1940.30
428.09	1930.94
428.28	1853.70
428.46	1741.36
428.65	1820.94
428.84	1668.80
429.03	1741.36
429.22	1617.31
429.40	1556.46
429.59	1439.43
429.78	1226.44
429.97	1306.02
430.16	1301.34
430.34	1252.19
430.53	1247.51
430.72	1303.68
430.91	1530.71
431.10	1668.80
431.28	2092.44
431.47	2237.55
431.66	2153.29
431.85	1975.41
432.03	1923.92
432.22	1811.57
432.41	1935.62
432.60	2186.06
432.79	2179.04
432.97	2242.23
433.16	2176.70
433.35	1928.60
433.54	1788.17
433.72	1624.33
433.91	1603.27
434.10	1902.86
434.28	2083.08
434.47	2129.89
434.66	2202.44
434.85	2054.99
435.03	2066.69
435.22	2139.25
435.41	2113.50
435.59	2321.81
435.78	2204.78
435.97	2373.30
436.16	2469.27
436.34	2249.25
436.53	2174.36
436.72	2263.30
436.90	2155.63
437.09	2108.82
437.28	2132.23
437.46	2104.14
437.65	2129.89
437.84	1994.14
438.02	1825.62
438.21	1863.07
438.40	1902.86
438.58	2097.12
438.77	2115.84
438.96	2305.43
439.14	2296.07
439.33	2216.49
439.52	2305.43
439.70	2235.21
439.89	2125.21
440.08	2132.23
440.26	2181.38
440.45	2420.11
440.63	2363.94
440.82	2513.74
441.01	2502.03
441.19	2396.71
441.38	2368.62
441.57	2546.50
441.75	2670.55
441.94	2759.49
442.12	2719.70
442.31	2799.28
442.50	2717.36
442.68	2644.81
442.87	2509.05
443.05	2621.40
443.24	2511.39
443.43	2637.78
443.61	2787.58
443.80	2792.26
443.98	2569.91
444.17	2387.35
444.35	2810.98
444.54	2888.22
444.73	2715.02
444.91	2607.36
445.10	2581.61
445.28	2443.52
445.47	2382.67
445.65	2417.77
445.84	2502.03
446.02	2537.14
446.21	2502.03
446.39	2567.57
446.58	2642.46
446.77	2731.41
446.95	2696.30
447.14	2651.83
447.32	2759.49
447.51	2752.47
447.69	2745.45
447.88	2581.61
448.06	2710.34
448.25	2747.79
448.43	2832.05
448.62	2696.30
448.80	2569.91
448.99	2649.49
449.17	2677.57
449.36	2677.57
449.54	2850.77
449.73	2836.73
449.91	2778.22
450.10	2998.23
450.28	3035.67
450.46	2986.52
450.65	3052.06
450.83	2960.78
451.02	2970.14
451.20	2864.82
451.39	2930.35
451.57	2771.19
451.76	2754.81
451.94	2761.83
452.13	2789.92
452.31	2670.55
452.49	2490.33
452.68	2572.25
452.86	2399.05
453.05	2565.23
453.23	2782.90
453.42	2686.94
453.60	2782.90
453.78	2803.96
453.97	2782.90
454.15	2731.41
454.34	2726.72
454.52	2712.68
454.70	2595.65
454.89	2630.76
455.07	2700.98
455.26	2808.64
455.44	3023.97
455.62	2806.30
455.81	2789.92
455.99	2913.97
456.17	2754.81
456.36	2841.41
456.54	3000.57
456.73	2956.10
456.91	3035.67
457.09	2993.55
457.28	3075.46
457.46	2871.84
457.64	2963.12
457.83	2853.11
458.01	2628.42
458.19	2848.43
458.38	2810.98
458.56	2953.76
458.74	2825.03
458.93	2946.73
459.11	2867.16
459.29	2864.82
459.48	2918.65
459.66	2902.26
459.84	2932.69
460.03	3014.61
460.21	2953.76
460.39	3103.55
460.57	3084.83
460.76	3023.97
460.94	3002.91
461.12	3000.57
461.31	3016.95
461.49	3042.70
461.67	3068.44
461.85	3061.42
462.04	3007.59
462.22	3066.10
462.40	2965.46
462.59	2920.99
462.77	2965.46
462.95	3178.45
463.13	3103.55
463.32	3080.14
463.50	2993.55
463.68	3033.33
463.86	3021.63
464.05	2965.46
464.23	2946.73
464.41	2836.73
464.59	2794.60
464.78	2935.03
464.96	3002.91
465.14	3038.02
465.32	2963.12
465.50	3063.76
465.69	3124.62
465.87	3084.83
466.05	3009.93
466.23	2846.09
466.41	2764.17
466.60	2867.16
466.78	2780.56
466.96	2796.94
467.14	2958.44
467.32	3000.57
467.51	2965.46
467.69	2843.75
467.87	2825.03
468.05	2883.54
468.23	2839.07
468.41	2986.52
468.60	2911.63
468.78	2888.22
468.96	2850.77
469.14	2876.52
469.32	2967.80
469.50	2883.54
469.69	2820.35
469.87	2857.79
470.05	2785.24
470.23	2820.35
470.41	2825.03
470.59	2789.92
470.77	2813.32
470.95	2958.44
471.14	3019.29
471.32	2871.84
471.50	3225.26
471.68	3077.80
471.86	3194.83
472.04	3208.87
472.22	3211.22
472.40	3094.19
472.58	2965.46
472.77	2874.18
472.95	3063.76
473.13	3056.74
473.31	2981.84
473.49	3119.93
473.67	2963.12
473.85	3192.49
474.03	3082.49
474.21	3260.37
474.39	3339.94
474.57	3243.98
474.75	3267.39
474.93	3234.62
475.12	3155.04
475.30	3162.06
475.48	3213.56
475.66	3145.68
475.84	3183.13
476.02	3030.99
476.20	3028.65
476.38	2998.23
476.56	3304.84
476.74	3358.67
476.92	3321.22
477.10	3386.76
477.28	3456.97
477.46	3431.23
477.64	3522.51
477.82	3651.24
478.00	3648.90
478.18	3494.42
478.36	3440.59
478.54	3536.55
478.72	3585.70
478.90	3475.70
479.08	3566.98
479.26	3676.98
479.44	3714.43
479.62	3730.81
479.80	3529.53
479.98	3669.96
480.16	3691.02
480.34	3641.87
480.52	3801.03
480.70	3866.56
480.88	3728.47
481.06	3721.45
481.24	3901.67
481.41	3953.16
481.59	3911.04
481.77	3995.29
481.95	3941.46
482.13	3836.14
482.31	3761.24
482.49	4044.45
482.67	3871.25
482.85	3988.27
483.03	4049.13
483.21	4091.26
483.39	4180.20
483.57	3950.82
483.74	3892.31
483.92	4032.74
484.10	4098.28
484.28	4081.89
484.46	4133.39
484.64	4292.54
484.82	4023.38
485.00	4109.98
485.18	3934.44
485.35	3904.01
485.53	3590.38
485.71	3169.09
485.89	3148.02
486.07	3293.13
486.25	3613.79
486.43	3791.67
486.61	3840.82
486.78	4042.11
486.96	4035.08
487.14	3960.19
487.32	4194.24
487.50	4203.60
487.68	4362.76
487.85	4564.04
488.03	4475.10
488.21	4395.53
488.39	4301.90
488.57	4255.09
488.75	4215.30
488.92	4255.09
489.10	4702.14
489.28	4669.37
489.46	4915.12
489.64	4898.74
489.81	4954.91
489.99	4816.82
490.17	4950.23
490.35	4964.28
490.53	4812.14
490.70	4732.56
490.88	4718.52
491.06	4959.60
491.24	5008.75
491.41	4840.23
491.59	4629.58
491.77	4351.06
491.95	4660.01
492.13	4873.00
492.30	4896.40
492.48	5071.94
492.66	5137.48
492.84	5114.07
493.01	5179.61
493.19	4954.91
493.37	4917.47
493.54	5020.45
493.72	5074.28
493.90	5193.65
494.08	5401.96
494.25	5432.38
494.43	5411.32
494.61	5533.03
494.79	5490.90
494.96	5401.96
495.14	5376.21
495.32	5135.14
495.49	5116.41
495.67	5317.70
495.85	5549.41
496.02	5549.41
496.20	5577.50
496.38	5401.96
496.55	5586.86
496.73	5614.95
496.91	5568.13
497.09	5628.99
497.26	5785.80
497.44	5715.59
497.62	5418.34
497.79	5413.66
497.97	5284.93
498.14	5214.71
498.32	5301.31
498.50	5401.96
498.67	5638.35
498.85	5675.80
499.03	5507.28
499.20	5547.07
499.38	5558.77
499.56	5568.13
499.73	5474.51
499.91	5474.51
500.08	5296.63
500.26	5371.53
500.44	5376.21
500.61	5430.04
500.79	5411.32
500.97	5261.52
501.14	5427.70
501.32	5322.38
501.49	5448.77
501.67	5327.06
501.84	5465.15
502.02	5621.97
502.20	5561.11
502.37	5689.84
502.55	5748.36
502.72	5750.70
502.90	5788.14
503.07	5687.50
503.25	5633.67
503.43	5624.31
503.60	5310.68
503.78	5266.21
503.95	5256.84
504.13	5500.26
504.30	5778.78
504.48	5731.97
504.65	5607.92
504.83	5535.37
505.01	5535.37
505.18	5769.42
505.36	6120.50
505.53	5933.26
505.71	6010.50
505.88	6071.35
506.06	5940.28
506.23	5865.38
506.41	5825.59
506.58	5769.42
506.76	5710.91
506.93	5774.10
507.11	5572.82
507.28	5710.91
507.46	5671.12
507.63	5600.90
507.81	5607.92
507.98	5467.49
508.16	5647.71
508.33	6003.47
508.50	5874.74
508.68	6059.65
508.85	6115.82
509.03	6143.91
509.20	6040.92
509.38	5811.55
509.55	5680.48
509.73	5617.29
509.90	5849.00
510.08	5837.30
510.25	5790.49
510.42	5849.00
510.60	5795.17
510.77	5633.67
510.95	5844.32
511.12	5858.36
511.30	6012.84
511.47	6181.35
511.64	6003.47
511.82	6106.46
511.99	5865.38
512.17	5844.32
512.34	5582.18
512.51	5605.58
512.69	5619.63
512.86	5909.85
513.04	5841.98
513.21	5694.52
513.38	5799.85
513.56	5626.65
513.73	5476.85
513.90	5554.09
514.08	5467.49
514.25	5605.58
514.43	5577.50
514.60	5706.23
514.77	5746.02
514.95	5645.37
515.12	5701.54
515.29	5746.02
515.47	5830.27
515.64	5977.73
515.81	5879.43
515.99	5678.14
516.16	5331.74
516.33	5018.11
516.51	4638.94
516.68	4648.30
516.85	4596.81
517.03	4559.36
517.20	5004.07
517.37	5305.99
517.54	5816.23
517.72	5596.22
517.89	5123.43
518.06	4795.76
518.24	4858.95
518.41	5025.13
518.58	5497.92
518.75	5509.62
518.93	5329.40
519.10	5465.15
519.27	5591.54
519.45	5502.60
519.62	5853.68
519.79	5706.23
519.96	5884.11
520.14	5685.16
520.31	5437.06
520.48	5540.05
520.65	5511.96
520.83	5687.50
521.00	5841.98
521.17	5741.33
521.34	5713.25
521.52	5671.12
521.69	5916.87
521.86	5832.62
522.03	5863.04
522.20	5694.52
522.38	5298.97
522.55	5305.99
522.72	5425.36
522.89	5551.75
523.07	5689.84
523.24	5729.63
523.41	5895.81
523.58	6045.60
523.75	5961.34
523.92	5930.92
524.10	5954.32
524.27	6022.20
524.44	5994.11
524.61	5856.02
524.78	5790.49
524.96	5729.63
525.13	5628.99
525.30	5907.51
525.47	5966.03
525.64	5795.17
525.81	5949.64
525.98	5556.43
526.16	5310.68
526.33	5034.49
526.50	4814.48
526.67	5032.15
526.84	5114.07
527.01	5275.57
527.18	5345.78
527.36	5509.62
527.53	5694.52
527.70	5715.59
527.87	5689.84
528.04	5481.53
528.21	5638.35
528.38	5898.15
528.55	5961.34
528.72	6045.60
528.89	6293.70
529.07	6141.57
529.24	5785.80
529.41	5586.86
529.58	5666.44
529.75	5673.46
529.92	5717.93
530.09	5729.63
530.26	5937.94
530.43	6057.31
530.60	5987.09
530.77	6031.56
530.94	6167.31
531.11	5951.98
531.28	5846.66
531.46	5980.07
531.63	5966.03
531.80	5731.97
531.97	5738.99
532.14	5476.85
532.31	5287.27
532.48	5212.37
532.65	5198.33
532.82	5331.74
532.99	5582.18
533.16	5586.86
533.33	5865.38
533.50	5694.52
533.67	5643.03
533.84	5444.09
534.01	5636.01
534.18	5734.31
534.35	5762.40
534.52	5706.23
534.69	5696.86
534.86	5874.74
535.03	5727.29
535.20	5905.17
535.37	5834.96
535.54	6045.60
535.71	5844.32
535.88	5813.89
536.05	5638.35
536.22	5582.18
536.38	5523.66
536.55	5490.90
536.72	5336.42
536.89	5224.08
537.06	5469.83
537.23	5891.13
537.40	5771.76
537.57	5762.40
537.74	5708.57
537.91	5731.97
538.08	5647.71
538.25	5799.85
538.42	5612.60
538.59	5657.07
538.75	5444.09
538.92	5394.93
539.09	5401.96
539.26	5479.19
539.43	5437.06
539.60	5275.57
539.77	5481.53
539.94	5247.48
540.11	5111.73
540.28	5029.81
540.44	5130.45
540.61	5221.74
540.78	5160.88
540.95	5287.27
541.12	5404.30
541.29	5643.03
541.46	5558.77
541.62	5638.35
541.79	5317.70
541.96	5263.86
542.13	5355.15
542.30	5434.72
542.47	5298.97
542.63	5472.17
542.80	5369.19
542.97	5153.86
543.14	5460.47
543.31	5334.08
543.48	5399.62
543.64	5416.00
543.81	5589.20
543.98	5692.18
544.15	5495.58
544.32	5308.34
544.48	5317.70
544.65	5453.45
544.82	5537.71
544.99	5556.43
545.16	5345.78
545.32	5289.61
545.49	5502.60
545.66	5636.01
545.83	5425.36
546.00	5432.38
546.16	5287.27
546.33	5261.52
546.50	5404.30
546.67	5645.37
546.83	5413.66
547.00	5518.98
547.17	5226.42
547.34	5289.61
547.50	5118.75
547.67	5266.21
547.84	5114.07
548.00	5462.81
548.17	5430.04
548.34	5511.96
548.51	5252.16
548.67	5320.04
548.84	5289.61
549.01	5413.66
549.18	5399.62
549.34	5359.83
549.51	5430.04
549.68	5020.45
549.84	5317.70
550.01	5165.56
550.18	5404.30
550.34	5238.12
550.51	5118.75
550.68	5249.82
550.84	5179.61
551.01	5163.22
551.18	5270.89
551.34	5341.10
551.51	5366.85
551.68	5282.59
551.84	5296.63
552.01	5373.87
552.18	5458.13
552.34	5071.94
552.51	5219.39
552.68	5097.69
552.84	5167.90
553.01	5287.27
553.18	5170.24
553.34	5205.35
553.51	5191.31
553.67	5121.09
553.84	5329.40
554.01	5359.83
554.17	5345.78
554.34	5191.31
554.51	5242.80
554.67	5481.53
554.84	5322.38
555.00	5324.72
555.17	5118.75
555.33	5043.85
555.50	5057.90
555.67	5125.77
555.83	5144.50
556.00	4966.62
556.16	5062.58
556.33	4947.89
556.50	4873.00
556.66	4919.81
556.83	4992.36
556.99	5034.49
557.16	4954.91
557.32	5128.11
557.49	4952.57
557.65	4952.57
557.82	4891.72
557.98	5043.85
558.15	4861.29
558.32	4842.57
558.48	4606.17
558.65	4713.84
558.81	4744.27
558.98	4915.12
559.14	4931.51
559.31	4753.63
559.47	4777.03
559.64	4875.34
559.80	4877.68
559.97	4627.24
560.13	4788.74
560.30	4908.10
560.46	5100.03
560.63	5158.54
560.79	5193.65
560.96	4915.12
561.12	4748.95
561.29	4816.82
561.45	4762.99
561.61	4674.05
561.78	4856.61
561.94	4718.52
562.11	4629.58
562.27	4718.52
562.44	4880.02
562.60	4933.85
562.77	4875.34
562.93	4849.59
563.10	4861.29
563.26	4751.29
563.42	4692.77
563.59	4805.12
563.75	4688.09
563.92	4781.71
564.08	4739.58
564.24	4985.34
564.41	4779.37
564.57	4896.40
564.74	4601.49
564.90	4599.15
565.07	4779.37
565.23	4671.71
565.39	4585.11
565.56	4479.79
565.72	4454.04
565.88	4624.90
566.05	4615.54
566.21	4648.30
566.38	4657.67
566.54	4634.26
566.70	4690.43
566.87	4767.67
567.03	4732.56
567.19	4699.80
567.36	4727.88
567.52	4535.96
567.68	4512.55
567.85	4505.53
568.01	4482.13
568.17	4435.32
568.34	4341.69
568.50	4418.93
568.66	4322.97
568.83	4587.45
568.99	4440.00
569.15	4461.06
569.32	4482.13
569.48	4493.83
569.64	4486.81
569.81	4325.31
569.97	4325.31
570.13	4339.35
570.30	4358.08
570.46	4114.66
570.62	4112.32
570.78	4201.26
570.95	4252.75
571.11	4241.05
571.27	4404.89
571.43	4482.13
571.60	4411.91
571.76	4308.93
571.92	4432.97
572.09	4491.49
572.25	4447.02
572.41	4353.40
572.57	4461.06
572.74	4369.78
572.90	4332.33
573.06	4257.43
573.22	4341.69
573.38	4290.20
573.55	4376.80
573.71	4425.95
573.87	4334.67
574.03	4327.65
574.20	4224.67
574.36	4339.35
574.52	4238.71
574.68	4205.94
574.84	4308.93
575.01	4182.54
575.17	4023.38
575.33	4086.58
575.49	4161.47
575.65	4297.22
575.82	4004.66
575.98	4086.58
576.14	4231.69
576.30	4217.65
576.46	4131.05
576.62	4231.69
576.79	4149.77
576.95	4088.92
577.11	4070.19
577.27	4189.56
577.43	4187.22
577.59	4177.86
577.75	4194.24
577.92	3836.14
578.08	3850.18
578.24	4011.68
578.40	3934.44
578.56	4032.74
578.72	4011.68
578.88	3861.88
579.04	4145.09
579.21	4133.39
579.37	4173.18
579.53	4175.52
579.69	4222.33
579.85	4210.62
580.01	4205.94
580.17	4100.62
580.33	4053.81
580.49	4086.58
580.65	4039.76
580.82	4156.79
580.98	4152.11
581.14	4007.00
581.30	3962.53
581.46	4049.13
581.62	4149.77
581.78	4079.55
581.94	4079.55
582.10	3932.10
582.26	4046.79
582.42	4175.52
582.58	4177.86
582.74	4119.34
582.90	4014.02
583.06	4021.04
583.22	4105.30
583.38	4194.24
583.54	3981.25
583.70	4053.81
583.86	4028.06
584.02	4114.66
584.18	4180.20
584.34	3967.21
584.50	4011.68
584.66	4002.32
584.82	3892.31
584.98	3911.04
585.14	3929.76
585.30	3808.05
585.46	3843.16
585.62	3658.26
585.78	3801.03
585.94	3796.35
586.10	3932.10
586.26	4007.00
586.42	4079.55
586.58	4102.96
586.74	3948.48
586.90	3999.98
587.06	3918.06
587.22	3988.27
587.38	4091.26
587.54	3751.88
587.70	3892.31
587.86	3808.05
588.02	3702.73
588.18	3693.37
588.34	3503.78
588.49	3412.50
588.65	3169.09
588.81	3066.10
588.97	3178.45
589.13	3248.66
589.29	3157.38
589.45	3318.88
589.61	3321.22
589.77	3548.25
589.93	3588.04
590.08	3536.55
590.24	3644.21
590.40	3712.09
590.56	3702.73
590.72	3555.27
590.88	3545.91
591.04	3660.60
591.20	3590.38
591.35	3775.28
591.51	3599.74
591.67	3653.58
591.83	3543.57
591.99	3702.73
592.15	3503.78
592.31	3578.68
592.46	3463.99
592.62	3581.02
592.78	3456.97
592.94	3534.21
593.10	3494.42
593.26	3562.30
593.41	3435.91
593.57	3524.85
593.73	3520.17
593.89	3485.06
594.05	3480.38
594.20	3541.23
594.36	3398.46
594.52	3389.10
594.68	3428.88
594.84	3398.46
594.99	3571.66
595.15	3449.95
595.31	3588.04
595.47	3508.46
595.62	3424.20
595.78	3569.32
595.94	3487.40
596.10	3548.25
596.25	3527.19
596.41	3475.70
596.57	3496.76
596.73	3527.19
596.88	3639.53
597.04	3410.16
597.20	3445.27
597.36	3557.61
597.51	3466.33
597.67	3433.57
597.83	3517.83
597.99	3421.86
