SpectraSuite Data File
++++++++++++++++++++++++++++++++++++
Date: Mon Oct 07 14:55:02 GMT-05:00 2013
User: price-jones
Dark Spectrum Present: No
Reference Spectrum Present: No
Number of Sampled Component Spectra: 1
Spectrometers: USB2+H05261
Integration Time (usec): 10000 (USB2+H05261)
Spectra Averaged: 1 (USB2+H05261)
Boxcar Smoothing: 0 (USB2+H05261)
Correct for Electrical Dark: No (USB2+H05261)
Strobe/Lamp Enabled: No (USB2+H05261)
Correct for Detector Non-linearity: No (USB2+H05261)
Correct for Stray Light: No (USB2+H05261)
Number of Pixels in Processed Spectrum: 2048
>>>>>Begin Processed Spectral Data<<<<<
365.73	0.00
365.92	0.00
366.12	0.00
366.32	0.00
366.52	0.00
366.72	0.00
366.91	0.00
367.11	0.00
367.31	0.00
367.51	0.00
367.70	0.00
367.90	0.00
368.10	0.00
368.30	0.00
368.49	0.00
368.69	0.00
368.89	0.00
369.09	0.00
369.28	0.00
369.48	0.00
369.68	0.00
369.87	0.00
370.07	0.00
370.27	0.00
370.47	395.55
370.66	2497.35
370.86	3009.93
371.06	3138.66
371.25	3169.09
371.45	2738.43
371.65	2511.39
371.84	2380.32
372.04	2745.45
372.24	3075.46
372.44	3035.67
372.63	2906.95
372.83	2686.94
373.03	2239.89
373.22	2253.94
373.42	2424.80
373.62	2944.39
373.81	2974.82
374.01	2822.69
374.21	2696.30
374.40	2502.03
374.60	2588.63
374.79	2944.39
374.99	3555.27
375.19	3637.19
375.38	3557.61
375.58	3424.20
375.78	3311.86
375.97	3487.40
376.17	3356.33
376.37	3681.66
376.56	3843.16
376.76	3920.40
376.95	4238.71
377.15	4456.38
377.35	4730.22
377.54	4777.03
377.74	5041.51
377.93	4985.34
378.13	4777.03
378.33	4456.38
378.52	4203.60
378.72	4100.62
378.91	4007.00
379.11	3831.46
379.31	3798.69
379.50	3906.35
379.70	4217.65
379.89	4456.38
380.09	4704.48
380.28	4978.32
380.48	4779.37
380.68	4690.43
380.87	4463.40
381.07	4182.54
381.26	3763.58
381.46	3609.11
381.65	3447.61
381.85	3538.89
382.04	3138.66
382.24	2967.80
382.43	2956.10
382.63	2986.52
382.83	2965.46
383.02	2832.05
383.22	2885.88
383.41	3045.04
383.61	3286.11
383.80	3810.39
384.00	4201.26
384.19	4833.21
384.39	4898.74
384.58	4868.31
384.78	4603.83
384.97	4550.00
385.17	4304.25
385.36	4138.07
385.56	3953.16
385.75	4325.31
385.95	4716.18
386.14	5156.20
386.34	4966.62
386.53	4662.35
386.72	4449.36
386.92	4636.60
387.11	5025.13
387.31	4952.57
387.50	4929.17
387.70	4779.37
387.89	4734.90
388.09	4662.35
388.28	4793.42
388.48	4905.76
388.67	5416.00
388.86	5982.41
389.06	6291.36
389.25	6705.63
389.45	6569.88
389.64	6553.50
389.84	6324.13
390.03	6305.40
390.22	6413.07
390.42	6773.51
390.61	7353.96
390.81	7552.91
391.00	7672.28
391.19	7581.00
391.39	7201.83
391.58	6581.59
391.78	6539.46
391.97	6417.75
392.16	5783.46
392.36	5118.75
392.55	3997.64
392.75	3173.77
392.94	2839.07
393.13	2939.71
393.33	3548.25
393.52	4582.77
393.71	5242.80
393.91	6040.92
394.10	6544.14
394.29	7255.66
394.49	7691.00
394.68	8304.22
394.88	8035.06
395.07	8634.24
395.26	8320.60
395.46	7798.66
395.65	7234.60
395.84	6249.23
396.04	5275.57
396.23	4236.37
396.42	3562.30
396.62	3691.02
396.81	4734.90
397.00	5750.70
397.19	7389.07
397.39	8589.77
397.58	9383.21
397.77	9923.87
397.97	10293.68
398.16	10319.42
398.35	10714.97
398.55	11187.76
398.74	11620.76
398.93	11770.55
399.12	11524.80
399.32	11035.63
399.51	11576.29
399.70	12402.50
399.90	11754.17
400.09	11873.54
400.28	11749.49
400.47	12138.02
400.67	12732.51
400.86	12772.30
401.05	12961.89
401.24	12877.63
401.44	13088.28
401.63	13420.63
401.82	13495.53
402.01	13151.47
402.21	13422.97
402.40	13385.52
402.59	12917.42
402.78	12180.15
402.97	12318.24
403.17	13186.58
403.36	13708.52
403.55	13886.40
403.74	14066.62
403.93	13193.60
404.13	12177.81
404.32	12215.26
404.51	13076.57
404.70	13706.18
404.89	13652.34
405.09	13598.51
405.28	13327.01
405.47	13301.26
405.66	13331.69
405.85	12985.29
406.05	12446.97
406.24	12833.16
406.43	13331.69
406.62	13418.29
406.81	13809.16
407.00	13146.79
407.20	12791.03
407.39	13310.63
407.58	13916.83
407.77	14431.74
407.96	14801.55
408.15	15283.70
408.34	15070.71
408.54	15667.55
408.73	15798.62
408.92	15370.30
409.11	14600.26
409.30	14038.53
409.49	13224.03
409.68	12561.66
409.87	12051.42
410.07	13572.77
410.26	14129.81
410.45	14869.42
410.64	15370.30
410.83	15854.79
411.02	16156.72
411.21	16793.34
411.40	16512.48
411.59	16744.19
411.78	16657.59
411.98	16465.67
412.17	16968.88
412.36	16386.09
412.55	16210.55
412.74	15861.81
412.93	15786.91
413.12	16222.25
413.31	17919.14
413.50	17769.35
413.69	17898.08
413.88	17160.81
414.07	16980.59
414.26	17575.08
414.45	17675.73
414.64	17813.82
414.83	17481.46
415.02	17539.97
415.22	17657.00
415.41	18045.53
415.60	18579.17
415.79	18799.18
415.98	19211.12
416.17	18787.48
416.36	18981.74
416.55	18658.75
416.74	17579.76
416.93	17626.57
417.12	17804.46
417.31	17565.72
417.50	18031.49
417.69	18380.23
417.88	18181.28
418.07	18511.30
418.26	18258.52
418.45	18672.79
418.64	19461.55
418.83	20163.72
419.02	19325.80
419.21	18663.43
419.39	18101.70
419.58	17652.32
419.77	17848.93
419.96	18843.65
420.15	19719.01
420.34	20400.11
420.53	20980.56
420.72	21139.72
420.91	20954.82
421.10	20699.70
421.29	20357.98
421.48	19758.80
421.67	20783.96
421.86	19786.89
422.05	18181.28
422.24	16905.69
422.43	17434.65
422.61	19426.45
422.80	20428.20
422.99	19351.55
423.18	18977.06
423.37	18904.51
423.56	19548.15
423.75	19639.44
423.94	20030.30
424.13	19208.78
424.32	18934.93
424.50	19115.16
424.69	18956.00
424.88	19222.82
425.07	19323.46
425.26	18841.31
425.45	18438.74
425.64	18424.70
425.83	19054.30
426.01	19772.85
426.20	19456.87
426.39	19438.15
426.58	17963.61
426.77	16893.99
426.96	16688.02
427.15	17474.44
427.33	18614.28
427.52	18934.93
427.71	19386.66
427.90	19030.90
428.09	18728.97
428.28	18455.12
428.46	17668.70
428.65	17568.06
428.84	18284.26
429.03	18197.67
429.22	17135.06
429.40	16013.95
429.59	14228.12
429.78	13053.17
429.97	13266.16
430.16	13385.52
430.34	13472.12
430.53	13577.45
430.72	14462.17
430.91	16098.20
431.10	18960.68
431.28	21687.40
431.47	23065.98
431.66	22728.94
431.85	20217.55
432.03	18820.25
432.22	18794.50
432.41	20074.77
432.60	21647.61
432.79	22623.62
432.97	22668.09
433.16	22300.62
433.35	19737.74
433.54	17823.18
433.72	17324.65
433.91	18394.27
434.10	20842.47
434.28	21710.81
434.47	22530.00
434.66	21797.41
434.85	21181.85
435.03	21518.89
435.22	22293.60
435.41	23281.31
435.59	23466.21
435.78	23786.86
435.97	24105.18
436.16	24107.52
436.34	23768.14
436.53	23353.87
436.72	23503.66
436.90	22359.14
437.09	22452.76
437.28	21788.05
437.46	22970.02
437.65	21979.97
437.84	20276.06
438.02	19513.05
438.21	19669.86
438.40	20320.53
438.58	21986.99
438.77	22951.29
438.96	23253.22
439.14	24304.12
439.33	24470.30
439.52	24814.36
439.70	23800.91
439.89	22860.01
440.08	22712.56
440.26	22963.00
440.45	24084.11
440.63	25685.04
440.82	26831.90
441.01	25933.14
441.19	26206.98
441.38	26897.44
441.57	27838.33
441.75	27824.29
441.94	28053.66
442.12	27744.71
442.31	28610.71
442.50	28332.18
442.68	27513.00
442.87	27372.57
443.05	27063.61
443.24	27749.39
443.43	28343.89
443.61	28362.61
443.80	28943.06
443.98	27885.14
444.17	27786.84
444.35	28837.74
444.54	29387.77
444.73	29071.79
444.91	27234.47
445.10	26513.59
445.28	25773.98
445.47	25343.32
445.65	25783.34
445.84	26841.26
446.02	27129.15
446.21	27747.05
446.39	27445.12
446.58	28226.86
446.77	29212.23
446.95	29043.71
447.14	29362.02
447.32	29708.42
447.51	29252.02
447.69	27992.81
447.88	28301.76
448.06	28664.54
448.25	29233.29
448.43	28711.35
448.62	28877.53
448.80	28573.26
448.99	28505.38
449.17	29151.37
449.36	29469.69
449.54	30026.73
449.73	30473.78
449.91	30995.71
450.10	31482.55
450.28	31978.74
450.46	32074.70
450.65	32334.50
450.83	31812.56
451.02	31110.40
451.20	30686.76
451.39	31314.03
451.57	31204.02
451.76	30728.89
451.94	30265.47
452.13	29717.78
452.31	27817.27
452.49	26501.89
452.68	27669.81
452.86	27843.01
453.05	27999.83
453.23	29844.17
453.42	30478.46
453.60	30815.49
453.78	30583.78
453.97	30204.61
454.15	30045.46
454.34	29055.41
454.52	29102.22
454.70	29352.66
454.89	30115.67
455.07	29544.58
455.26	30295.89
455.44	31061.25
455.62	31601.91
455.81	31569.15
455.99	31536.38
456.17	32077.04
456.36	32601.32
456.54	32690.26
456.73	32196.41
456.91	32620.05
457.09	32718.35
457.28	33720.10
457.46	32088.74
457.64	31529.36
457.83	30808.47
458.01	30705.49
458.19	31920.23
458.38	32404.72
458.56	32739.41
458.74	32598.98
458.93	31854.69
459.11	31433.39
459.29	31328.07
459.48	31882.78
459.66	31585.53
459.84	31871.07
460.03	32552.17
460.21	32783.88
460.39	33387.74
460.57	33095.18
460.76	33340.93
460.94	33455.62
461.12	33450.94
461.31	33631.16
461.49	33893.30
461.67	33401.79
461.85	34202.25
462.04	34302.89
462.22	34199.91
462.40	33549.24
462.59	33476.68
462.77	33745.84
462.95	33787.97
463.13	32931.34
463.32	33275.40
463.50	32938.36
463.68	33181.77
463.86	33579.67
464.05	32664.52
464.23	31679.15
464.41	31971.72
464.59	31475.52
464.78	33242.63
464.96	32978.15
465.14	31938.95
465.32	33837.12
465.50	34831.85
465.69	34895.05
465.87	34007.98
466.05	32559.19
466.23	31211.04
466.41	30895.07
466.60	32041.93
466.78	31906.18
466.96	32128.53
467.14	33385.40
467.32	33022.62
467.51	32973.47
467.69	31510.63
467.87	32641.11
468.05	32940.70
468.23	32924.32
468.41	32694.94
468.60	33259.01
468.78	34167.14
468.96	33347.95
469.14	33357.32
469.32	33860.53
469.50	32275.99
469.69	32833.04
469.87	32374.29
470.05	31999.80
470.23	32301.73
470.41	32528.77
470.59	32680.90
470.77	32737.07
470.95	33790.31
471.14	34569.71
471.32	34443.32
471.50	35543.38
471.68	36116.81
471.86	36297.03
472.04	36107.44
472.22	36217.45
472.40	34852.92
472.58	34794.40
472.77	34473.75
472.95	35047.18
473.13	36051.27
473.31	34080.54
473.49	34349.70
473.67	35784.45
473.85	36039.57
474.03	37214.52
474.21	37797.31
474.39	38000.94
474.57	37373.67
474.75	37940.08
474.93	37457.93
475.12	36322.77
475.30	36573.21
475.48	35896.80
475.66	36437.46
475.84	35711.89
476.02	36257.24
476.20	36086.38
476.38	36418.74
476.56	37572.62
476.74	38492.45
476.92	38586.07
477.10	38675.01
477.28	39566.76
477.46	39873.37
477.64	40507.65
477.82	40474.88
478.00	40505.31
478.18	39550.37
478.36	39098.65
478.54	39819.53
478.72	40636.38
478.90	41956.44
479.08	43409.92
479.26	43042.45
479.44	43276.51
479.62	42340.29
479.80	43140.75
479.98	42848.19
480.16	43278.85
480.34	42829.46
480.52	43927.17
480.70	44374.22
480.88	43489.49
481.06	44177.61
481.24	44102.71
481.41	45474.27
481.59	46337.93
481.77	44919.56
481.95	44676.15
482.13	44404.64
482.31	45617.04
482.49	45558.53
482.67	45298.73
482.85	45256.60
483.03	45656.83
483.21	46721.77
483.39	45947.06
483.57	45497.67
483.74	45820.67
483.92	46838.80
484.10	46398.78
484.28	46167.07
484.46	46007.91
484.64	48086.31
484.82	47201.58
485.00	46192.81
485.18	45588.95
485.35	43058.84
485.53	38679.69
485.71	36105.10
485.89	37125.58
486.07	39639.31
486.25	42405.83
486.43	45017.86
486.61	44961.69
486.78	44856.37
486.96	45897.91
487.14	47824.17
487.32	47854.59
487.50	49195.72
487.68	49991.50
487.85	50791.97
488.03	49865.11
488.21	49827.66
488.39	49399.35
488.57	47976.30
488.75	48034.81
488.92	49748.09
489.10	51306.88
489.28	52425.66
489.46	53867.43
489.64	53565.50
489.81	53869.77
489.99	52776.74
490.17	53223.78
490.35	53357.19
490.53	52706.52
490.70	52343.74
490.88	52348.42
491.06	53614.65
491.24	53703.59
491.41	52289.91
491.59	50979.21
491.77	50843.46
491.95	52411.62
492.13	53701.25
492.30	54003.18
492.48	54850.45
492.66	55325.58
492.84	54857.48
493.01	54417.46
493.19	54220.85
493.37	53968.07
493.54	54342.56
493.72	55344.31
493.90	55538.57
494.08	56112.00
494.25	55779.65
494.43	56413.93
494.61	56788.42
494.79	56860.97
494.96	57116.09
495.14	56863.32
495.32	55222.60
495.49	55681.34
495.67	56680.75
495.85	57221.42
496.02	58010.18
496.20	57516.32
496.38	57088.01
496.55	56886.72
496.73	57979.75
496.91	57993.79
497.09	57813.57
497.26	57841.66
497.44	57588.88
497.62	56924.17
497.79	56086.26
497.97	55250.69
498.14	55859.23
498.32	57301.00
498.50	56966.30
498.67	57169.93
498.85	57411.00
499.03	58122.52
499.20	58361.26
499.38	57677.82
499.56	57256.53
499.73	56879.70
499.91	56842.25
500.08	56357.76
500.26	55683.69
500.44	56662.03
500.61	57059.92
500.79	56769.69
500.97	56910.13
501.14	55753.90
501.32	55739.86
501.49	56095.62
501.67	56189.24
501.84	56659.69
502.02	57003.75
502.20	57872.09
502.37	57965.71
502.55	58054.65
502.72	58415.09
502.90	58796.60
503.07	58375.30
503.25	57394.62
503.43	56404.57
503.60	56053.49
503.78	55990.30
503.95	56383.51
504.13	57827.62
504.30	57991.45
504.48	57471.85
504.65	57757.40
504.83	58000.82
505.01	58745.11
505.18	59018.95
505.36	59124.27
505.53	59423.86
505.71	59498.76
505.88	59831.11
506.06	58951.07
506.23	58820.00
506.41	58714.68
506.58	58927.67
506.76	58801.28
506.93	58384.66
507.11	58225.51
507.28	58557.86
507.46	57841.66
507.63	57717.61
507.81	57338.44
507.98	57797.19
508.16	59089.16
508.33	58775.53
508.50	59159.38
508.68	59671.96
508.85	59793.67
509.03	59906.01
509.20	59358.33
509.38	58209.12
509.55	58220.83
509.73	58688.93
509.90	58859.79
510.08	59068.10
510.25	58595.31
510.42	58663.19
510.60	58930.01
510.77	59346.62
510.95	59325.56
511.12	59468.33
511.30	60130.70
511.47	60390.50
511.64	60219.64
511.82	60308.58
511.99	59245.98
512.17	59288.11
512.34	58625.74
512.51	58848.09
512.69	59255.34
512.86	58948.73
513.04	59203.85
513.21	58761.49
513.38	58071.03
513.56	57897.83
513.73	57256.53
513.90	57963.37
514.08	58120.18
514.25	57979.75
514.43	58511.05
514.60	58749.79
514.77	58763.83
514.95	59037.67
515.12	58962.78
515.29	59393.43
515.47	59889.63
515.64	59739.83
515.81	59351.30
515.99	58232.53
516.16	56575.43
516.33	54045.31
516.51	54190.42
516.68	53076.33
516.85	51718.82
517.03	53879.13
517.20	56477.13
517.37	58379.98
517.54	59227.26
517.72	57975.07
517.89	54820.03
518.06	53343.15
518.24	54852.80
518.41	56851.61
518.58	57705.91
518.75	57722.29
518.93	57745.70
519.10	57130.14
519.27	58375.30
519.45	58834.05
519.62	59220.23
519.79	59367.69
519.96	58656.17
520.14	58440.84
520.31	57364.19
520.48	57696.55
520.65	58602.33
520.83	59571.32
521.00	59426.20
521.17	58885.54
521.34	59004.91
521.52	59437.90
521.69	59477.69
521.86	59870.90
522.03	59936.44
522.20	58284.02
522.38	57677.82
522.55	58248.91
522.72	58969.80
522.89	58251.25
523.07	58934.69
523.24	59388.75
523.41	60528.59
523.58	60381.14
523.75	60633.92
523.92	60308.58
524.10	59973.89
524.27	59756.22
524.44	59758.56
524.61	59430.88
524.78	59807.71
524.96	59737.49
525.13	59702.38
525.30	60198.58
525.47	60449.02
525.64	60271.14
525.81	59489.40
525.98	57675.48
526.16	56589.47
526.33	56790.76
526.50	55943.48
526.67	56294.56
526.84	56519.26
527.01	57675.48
527.18	57986.77
527.36	59075.12
527.53	59980.91
527.70	59271.73
527.87	57848.68
528.04	59196.83
528.21	59788.98
528.38	60229.01
528.55	61083.30
528.72	60790.73
528.89	60198.58
529.07	60123.68
529.24	59014.27
529.41	58508.71
529.58	58710.00
529.75	59737.49
529.92	59756.22
530.09	59772.60
530.26	60343.69
530.43	61120.75
530.60	60093.25
530.77	60622.22
530.94	60907.76
531.11	60018.36
531.28	60081.55
531.46	60449.02
531.63	60123.68
531.80	59517.48
531.97	58876.18
532.14	59025.97
532.31	57654.42
532.48	57102.05
532.65	57485.90
532.82	58007.84
532.99	59346.62
533.16	59683.66
533.33	59643.87
533.50	60013.68
533.67	59868.56
533.84	59147.68
534.01	59444.93
534.18	59554.93
534.35	59323.22
534.52	58672.55
534.69	59451.95
534.86	59983.25
535.03	60303.90
535.20	59814.73
535.37	60776.69
535.54	60933.51
535.71	60772.01
535.88	61017.77
536.05	59491.74
536.22	59002.56
536.38	58866.81
536.55	57724.63
536.72	57628.67
536.89	58279.34
537.06	58684.25
537.23	59260.02
537.40	59241.30
537.57	59098.53
537.74	59316.20
537.91	59423.86
538.08	59093.85
538.25	59058.74
538.42	59746.86
538.59	59599.40
538.75	58284.02
538.92	57932.94
539.09	58274.66
539.26	58241.89
539.43	57911.88
539.60	58471.26
539.77	58862.13
539.94	58443.18
540.11	57813.57
540.28	57387.60
540.44	56900.76
540.61	57144.18
540.78	57762.08
540.95	58489.99
541.12	58377.64
541.29	59121.93
541.46	59295.13
541.62	59135.98
541.79	58487.65
541.96	57801.87
542.13	57825.28
542.30	58113.16
542.47	58592.97
542.63	58422.11
542.80	58365.94
542.97	57743.36
543.14	57357.17
543.31	57829.96
543.48	58958.09
543.64	59199.17
543.81	60250.07
543.98	59901.33
544.15	58220.83
544.32	58927.67
544.48	58534.46
544.65	58705.32
544.82	59271.73
544.99	57745.70
545.16	57432.07
545.32	57595.90
545.49	58567.23
545.66	58457.22
545.83	58471.26
546.00	58834.05
546.16	58890.22
546.33	58468.92
546.50	58515.73
546.67	59178.10
546.83	58206.78
547.00	58784.90
547.17	57418.02
547.34	56676.07
547.50	56912.47
547.67	57986.77
547.84	58684.25
548.00	58419.77
548.17	58284.02
548.34	58555.52
548.51	58763.83
548.67	59222.58
548.84	58850.43
549.01	59025.97
549.18	58372.96
549.34	58302.74
549.51	58471.26
549.68	58899.58
549.84	58035.92
550.01	57614.63
550.18	57357.17
550.34	57698.89
550.51	57932.94
550.68	58560.20
550.84	58267.64
551.01	57631.01
551.18	57464.83
551.34	56921.83
551.51	58405.73
551.68	58000.82
551.84	58197.42
552.01	58136.57
552.18	57516.32
552.34	57092.69
552.51	56924.17
552.68	56662.03
552.84	57123.11
553.01	57181.63
553.18	57951.66
553.34	57944.64
553.51	58028.90
553.67	57710.59
553.84	57408.66
554.01	57773.78
554.17	57366.53
554.34	57661.44
554.51	57890.81
554.67	56985.02
554.84	57160.56
555.00	56959.28
555.17	57214.40
555.33	56802.46
555.50	56474.79
555.67	57368.87
555.83	57090.35
556.00	57130.14
556.16	56444.36
556.33	56149.45
556.50	56818.84
556.66	56729.90
556.83	56474.79
556.99	55976.25
557.16	56420.95
557.32	56238.39
557.49	56657.35
557.65	56147.11
557.82	57083.33
557.98	57347.81
558.15	56002.00
558.32	55405.16
558.48	54450.22
558.65	54735.77
558.81	55299.84
558.98	55866.25
559.14	56435.00
559.31	55908.38
559.47	55592.40
559.64	55196.85
559.80	54728.75
559.97	55657.94
560.13	56449.04
560.30	57663.78
560.46	57776.12
560.63	58099.12
560.79	57663.78
560.96	56924.17
561.12	55870.93
561.29	55185.15
561.45	55557.30
561.61	56837.57
561.78	55749.22
561.94	56622.24
562.11	56472.45
562.27	55559.64
562.44	56533.30
562.60	57036.51
562.77	56947.57
562.93	55639.22
563.10	55746.88
563.26	55985.61
563.42	56678.41
563.59	55648.58
563.75	55700.07
563.92	55751.56
564.08	54967.48
564.24	55842.84
564.41	55330.26
564.57	56252.44
564.74	55634.53
564.90	55042.38
565.07	55351.33
565.23	54174.04
565.39	53904.88
565.56	54471.29
565.72	54482.99
565.88	53294.00
566.05	55330.26
566.21	56051.15
566.38	55334.95
566.54	55229.62
566.70	55817.10
566.87	55606.45
567.03	55274.09
567.19	56285.20
567.36	56640.96
567.52	55260.05
567.68	54614.06
567.85	54157.66
568.01	54167.02
568.17	54698.32
568.34	55030.68
568.50	54557.89
568.66	54873.86
568.83	53787.85
568.99	53698.91
569.15	54223.19
569.32	54206.81
569.48	54183.40
569.64	53703.59
569.81	53771.47
569.97	53502.31
570.13	52921.85
570.30	52402.25
570.46	51718.82
570.62	51229.65
570.78	51503.49
570.95	52587.16
571.11	52200.97
571.27	52032.45
571.43	52217.35
571.60	52346.08
571.76	53696.57
571.92	53666.14
572.09	54361.28
572.25	54080.42
572.41	54660.87
572.57	54391.71
572.74	54663.21
572.90	55496.44
573.06	54330.86
573.22	54628.10
573.38	54389.37
573.55	55444.95
573.71	54396.39
573.87	54457.24
574.03	54052.33
574.20	53509.33
574.36	53829.98
574.52	53034.20
574.68	52891.43
574.84	52116.71
575.01	52090.96
575.17	52940.58
575.33	52924.19
575.49	52919.51
575.65	52212.67
575.82	52594.18
575.98	52142.45
576.14	53076.33
576.30	53595.93
576.46	52409.28
576.62	52666.73
576.79	52369.49
576.95	52570.77
577.11	52963.98
577.27	53015.47
577.43	53242.51
577.59	52388.21
577.75	51026.02
577.92	50857.50
578.08	51559.66
578.24	52240.76
578.40	52009.04
578.56	50897.29
578.72	51770.31
578.88	51054.11
579.04	51463.70
579.21	51035.38
579.37	51835.84
579.53	52261.82
579.69	51648.60
579.85	51505.83
580.01	51344.33
580.17	50955.80
580.33	52229.05
580.49	52226.71
580.65	50522.80
580.82	51487.10
580.98	52210.33
581.14	52378.85
581.30	52081.60
581.46	51814.78
581.62	51669.67
581.78	52381.19
581.94	52683.12
582.10	52844.62
582.26	53034.20
582.42	52671.42
582.58	50855.16
582.74	51241.35
582.90	51608.81
583.06	51627.54
583.22	51821.80
583.38	51704.77
583.54	52273.52
583.70	52795.46
583.86	52240.76
584.02	51711.80
584.18	51508.17
584.34	50651.53
584.50	50459.61
584.66	50848.14
584.82	50974.53
584.98	51103.26
585.14	50209.17
585.30	50883.25
