SpectraSuite Data File
++++++++++++++++++++++++++++++++++++
Date: Mon Oct 07 14:54:56 GMT-05:00 2013
User: price-jones
Dark Spectrum Present: No
Reference Spectrum Present: No
Number of Sampled Component Spectra: 1
Spectrometers: USB2+H05261
Integration Time (usec): 10000 (USB2+H05261)
Spectra Averaged: 1 (USB2+H05261)
Boxcar Smoothing: 0 (USB2+H05261)
Correct for Electrical Dark: No (USB2+H05261)
Strobe/Lamp Enabled: No (USB2+H05261)
Correct for Detector Non-linearity: No (USB2+H05261)
Correct for Stray Light: No (USB2+H05261)
Number of Pixels in Processed Spectrum: 2048
>>>>>Begin Processed Spectral Data<<<<<
365.73	0.00
365.92	0.00
366.12	0.00
366.32	0.00
366.52	0.00
366.72	0.00
366.91	0.00
367.11	0.00
367.31	0.00
367.51	0.00
367.70	0.00
367.90	0.00
368.10	0.00
368.30	0.00
368.49	0.00
368.69	0.00
368.89	0.00
369.09	0.00
369.28	0.00
369.48	0.00
369.68	0.00
369.87	0.00
370.07	0.00
370.27	0.00
370.47	0.00
370.66	84.26
370.86	133.41
371.06	198.95
371.25	133.41
371.45	0.00
371.65	42.13
371.84	28.09
372.04	28.09
372.24	140.43
372.44	145.11
372.63	138.09
372.83	102.98
373.03	49.15
373.22	100.64
373.42	65.54
373.62	65.54
373.81	194.26
374.01	201.29
374.21	180.22
374.40	124.05
374.60	163.84
374.79	205.97
374.99	220.01
375.19	236.39
375.38	259.80
375.58	271.50
375.78	196.60
375.97	198.95
376.17	287.89
376.37	227.03
376.56	250.44
376.76	355.76
376.95	372.15
377.15	313.63
377.35	365.12
377.54	416.62
377.74	367.46
377.93	430.66
378.13	390.87
378.33	372.15
378.52	301.93
378.72	318.31
378.91	285.55
379.11	271.50
379.31	245.76
379.50	224.69
379.70	276.18
379.89	341.72
380.09	367.46
380.28	395.55
380.48	449.38
380.68	430.66
380.87	423.64
381.07	276.18
381.26	257.46
381.46	278.52
381.65	224.69
381.85	180.22
382.04	133.41
382.24	212.99
382.43	114.69
382.63	135.75
382.83	63.19
383.02	173.20
383.22	147.45
383.41	168.52
383.61	173.20
383.80	210.65
384.00	299.59
384.19	320.65
384.39	341.72
384.58	348.74
384.78	358.10
384.97	397.89
385.17	348.74
385.36	266.82
385.56	344.06
385.75	376.83
385.95	322.99
386.14	444.70
386.34	428.32
386.53	362.78
386.72	311.29
386.92	287.89
387.11	315.97
387.31	421.30
387.50	325.33
387.70	355.76
387.89	418.96
388.09	339.38
388.28	337.04
388.48	395.55
388.67	402.57
388.86	521.94
389.06	463.43
389.25	578.11
389.45	554.71
389.64	566.41
389.84	606.20
390.03	599.18
390.22	557.05
390.42	596.84
390.61	599.18
390.81	704.50
391.00	730.25
391.19	727.91
391.39	683.44
391.58	606.20
391.78	552.37
391.97	528.96
392.16	571.09
392.36	418.96
392.55	294.91
392.75	280.86
392.94	86.60
393.13	168.52
393.33	135.75
393.52	205.97
393.71	381.51
393.91	435.34
394.10	533.64
394.29	641.31
394.49	629.60
394.68	847.27
394.88	688.12
395.07	755.99
395.26	709.18
395.46	725.57
395.65	655.35
395.84	580.45
396.04	416.62
396.23	320.65
396.42	243.42
396.62	212.99
396.81	255.12
397.00	418.96
397.19	538.32
397.39	727.91
397.58	830.89
397.77	1001.75
397.97	896.43
398.16	992.39
398.35	1081.33
398.55	1167.93
398.74	1153.88
398.93	1184.31
399.12	1130.48
399.32	1083.67
399.51	1149.20
399.70	1205.38
399.90	1188.99
400.09	1224.10
400.28	1158.57
400.47	1252.19
400.67	1228.78
400.86	1315.38
401.05	1212.40
401.24	1282.61
401.44	1317.72
401.63	1313.04
401.82	1352.83
402.01	1291.98
402.21	1320.06
402.40	1362.19
402.59	1233.46
402.78	1207.72
402.97	1235.80
403.17	1273.25
403.36	1329.42
403.55	1268.57
403.74	1399.64
403.93	1394.96
404.13	1205.38
404.32	1184.31
404.51	1233.46
404.70	1462.83
404.89	1427.73
405.09	1273.25
405.28	1369.21
405.47	1313.04
405.66	1242.82
405.85	1273.25
406.05	1188.99
406.24	1282.61
406.43	1404.32
406.62	1352.83
406.81	1327.08
407.00	1313.04
407.20	1299.00
407.39	1228.78
407.58	1399.64
407.77	1448.79
407.96	1409.00
408.15	1380.92
408.34	1476.88
408.54	1589.22
408.73	1561.14
408.92	1636.03
409.11	1411.34
409.30	1469.86
409.49	1282.61
409.68	1242.82
409.87	1184.31
410.07	1252.19
410.26	1376.24
410.45	1266.23
410.64	1511.99
410.83	1568.16
411.02	1591.56
411.21	1671.14
411.40	1579.86
411.59	1645.40
411.78	1685.19
411.98	1570.50
412.17	1647.74
412.36	1507.30
412.55	1509.65
412.74	1535.39
412.93	1526.03
413.12	1624.33
413.31	1708.59
413.50	1694.55
413.69	1713.27
413.88	1788.17
414.07	1703.91
414.26	1778.81
414.45	1734.34
414.64	1666.46
414.83	1633.69
415.02	1799.87
415.22	1701.57
415.41	1790.51
415.60	1717.95
415.79	1902.86
415.98	1886.47
416.17	1926.26
416.36	1860.73
416.55	1778.81
416.74	1769.44
416.93	1717.95
417.12	1774.13
417.31	1591.56
417.50	1795.19
417.69	1776.47
417.88	1720.29
418.07	1827.96
418.26	1703.91
418.45	1755.40
418.64	1769.44
418.83	1872.43
419.02	1916.90
419.21	1909.88
419.39	1783.49
419.58	1797.53
419.77	1706.25
419.96	1720.29
420.15	1802.21
420.34	1944.99
420.53	1989.46
420.72	2010.52
420.91	2017.54
421.10	1895.83
421.29	2069.03
421.48	1937.96
421.67	2064.35
421.86	1898.17
422.05	1769.44
422.24	1607.95
422.43	1678.16
422.61	1792.85
422.80	1991.80
422.99	2033.93
423.18	1802.21
423.37	1760.08
423.56	1846.68
423.75	1884.13
423.94	1919.24
424.13	1818.60
424.32	1806.89
424.50	1818.60
424.69	1844.34
424.88	1771.79
425.07	1746.04
425.26	1748.38
425.45	1771.79
425.64	1666.46
425.83	1720.29
426.01	1830.30
426.20	1944.99
426.39	1776.47
426.58	1825.62
426.77	1530.71
426.96	1462.83
427.15	1549.43
427.33	1739.02
427.52	1799.87
427.71	1713.27
427.90	1823.28
428.09	1762.42
428.28	1732.00
428.46	1708.59
428.65	1535.39
428.84	1685.19
429.03	1636.03
429.22	1661.78
429.40	1526.03
429.59	1390.28
429.78	1111.75
429.97	1158.57
430.16	1125.80
430.34	1207.72
430.53	1245.16
430.72	1275.59
430.91	1423.05
431.10	1612.63
431.28	1914.56
431.47	2111.16
431.66	2193.08
431.85	1928.60
432.03	1877.11
432.22	1680.50
432.41	1689.87
432.60	1902.86
432.79	1977.75
432.97	1996.48
433.16	2057.33
433.35	1940.30
433.54	1767.10
433.72	1537.73
433.91	1631.35
434.10	1863.07
434.28	2008.18
434.47	2031.58
434.66	2031.58
434.85	2001.16
435.03	1923.92
435.22	1940.30
435.41	2050.31
435.59	2200.10
435.78	2127.55
435.97	2267.98
436.16	2190.74
436.34	2181.38
436.53	2270.32
436.72	2146.27
436.90	2017.54
437.09	1982.43
437.28	1839.66
437.46	2057.33
437.65	2106.48
437.84	1898.17
438.02	1703.91
438.21	1680.50
438.40	1886.47
438.58	1940.30
438.77	2033.93
438.96	2090.10
439.14	2181.38
439.33	2129.89
439.52	2256.28
439.70	2141.59
439.89	2078.40
440.08	2071.37
440.26	1970.73
440.45	2120.53
440.63	2356.92
440.82	2495.01
441.01	2485.65
441.19	2471.61
441.38	2310.11
441.57	2495.01
441.75	2621.40
441.94	2607.36
442.12	2539.48
442.31	2619.06
442.50	2576.93
442.68	2518.42
442.87	2464.58
443.05	2396.71
443.24	2537.14
443.43	2621.40
443.61	2686.94
443.80	2637.78
443.98	2429.48
444.17	2471.61
444.35	2640.12
444.54	2663.53
444.73	2555.86
444.91	2534.80
445.10	2438.84
445.28	2420.11
445.47	2349.90
445.65	2260.96
445.84	2462.24
446.02	2389.69
446.21	2616.72
446.39	2509.05
446.58	2562.89
446.77	2579.27
446.95	2605.02
447.14	2569.91
447.32	2722.04
447.51	2626.08
447.69	2574.59
447.88	2637.78
448.06	2518.42
448.25	2663.53
448.43	2541.82
448.62	2696.30
448.80	2590.97
448.99	2520.76
449.17	2579.27
449.36	2518.42
449.54	2722.04
449.73	2656.51
449.91	2759.49
450.10	2740.77
450.28	2806.30
450.46	2747.79
450.65	2850.77
450.83	2958.44
451.02	2698.64
451.20	2761.83
451.39	2794.60
451.57	2642.46
451.76	2703.32
451.94	2726.72
452.13	2745.45
452.31	2546.50
452.49	2495.01
452.68	2455.22
452.86	2490.33
453.05	2457.56
453.23	2600.34
453.42	2682.25
453.60	2677.57
453.78	2827.37
453.97	2689.28
454.15	2668.21
454.34	2509.05
454.52	2492.67
454.70	2672.89
454.89	2644.81
455.07	2480.97
455.26	2768.85
455.44	2710.34
455.62	2862.48
455.81	2693.96
455.99	2883.54
456.17	2764.17
456.36	2768.85
456.54	2876.52
456.73	2902.26
456.91	2942.05
457.09	3014.61
457.28	3030.99
457.46	2822.69
457.64	2780.56
457.83	2715.02
458.01	2623.74
458.19	2864.82
458.38	2658.85
458.56	2904.60
458.74	2747.79
458.93	2693.96
459.11	2815.66
459.29	2801.62
459.48	2820.35
459.66	2647.15
459.84	2829.71
460.03	2902.26
460.21	2991.20
460.39	3000.57
460.57	2848.43
460.76	3026.31
460.94	2986.52
461.12	2890.56
461.31	2995.89
461.49	2949.08
461.67	2892.90
461.85	2946.73
462.04	2899.92
462.22	3061.42
462.40	3049.72
462.59	3054.40
462.77	3021.63
462.95	3033.33
463.13	3019.29
463.32	3030.99
463.50	2839.07
463.68	2759.49
463.86	2874.18
464.05	2862.48
464.23	2700.98
464.41	2881.20
464.59	2796.94
464.78	2899.92
464.96	2771.19
465.14	2855.45
465.32	2890.56
465.50	2967.80
465.69	2937.37
465.87	2843.75
466.05	2916.31
466.23	2600.34
466.41	2630.76
466.60	2736.09
466.78	2726.72
466.96	2750.13
467.14	2782.90
467.32	2899.92
467.51	2984.18
467.69	2689.28
467.87	2700.98
468.05	2920.99
468.23	2951.42
468.41	2932.69
468.60	2930.35
468.78	2869.50
468.96	2897.58
469.14	2771.19
469.32	2923.33
469.50	2881.20
469.69	2813.32
469.87	2789.92
470.05	2705.66
470.23	2724.38
470.41	2717.36
470.59	2822.69
470.77	2853.11
470.95	2822.69
471.14	2956.10
471.32	2874.18
471.50	3187.81
471.68	3033.33
471.86	3213.56
472.04	3138.66
472.22	3054.40
472.40	2963.12
472.58	2965.46
472.77	2906.95
472.95	3084.83
473.13	3038.02
473.31	3052.06
473.49	3023.97
473.67	3094.19
473.85	3028.65
474.03	3096.53
474.21	3126.96
474.39	3293.13
474.57	3215.90
474.75	3316.54
474.93	3304.84
475.12	2958.44
475.30	3080.14
475.48	3164.40
475.66	3136.32
475.84	3110.57
476.02	3117.59
476.20	2967.80
476.38	3016.95
476.56	3194.83
476.74	3227.60
476.92	3248.66
477.10	3419.52
477.28	3445.27
477.46	3405.48
477.64	3480.38
477.82	3492.08
478.00	3438.25
478.18	3382.07
478.36	3379.73
478.54	3332.92
478.72	3426.54
478.90	3571.66
479.08	3644.21
479.26	3688.68
479.44	3742.52
479.62	3583.36
479.80	3588.04
479.98	3641.87
480.16	3777.62
480.34	3552.93
480.52	3555.27
480.70	3655.92
480.88	3702.73
481.06	3758.90
481.24	3784.65
481.41	3871.25
481.59	3782.31
481.77	4023.38
481.95	3850.18
482.13	3758.90
482.31	3847.84
482.49	3988.27
482.67	3943.80
482.85	3971.89
483.03	4002.32
483.21	4023.38
483.39	3920.40
483.57	3974.23
483.74	3925.08
483.92	3906.35
484.10	3967.21
484.28	4016.36
484.46	4072.53
484.64	4250.41
484.82	4011.68
485.00	3845.50
485.18	4016.36
485.35	3815.07
485.53	3489.74
485.71	3187.81
485.89	3061.42
486.07	3318.88
486.25	3555.27
486.43	3845.50
486.61	3826.78
486.78	3908.69
486.96	4028.06
487.14	3955.51
487.32	4009.34
487.50	4245.73
487.68	4344.03
487.85	4400.21
488.03	4407.23
488.21	4308.93
488.39	4156.79
488.57	4184.88
488.75	4124.02
488.92	4322.97
489.10	4575.75
489.28	4847.25
489.46	4816.82
489.64	4889.38
489.81	4844.91
489.99	4711.50
490.17	4753.63
490.35	4957.25
490.53	4847.25
490.70	4674.05
490.88	4655.33
491.06	4894.06
491.24	4798.10
491.41	4788.74
491.59	4411.91
491.77	4449.36
491.95	4423.61
492.13	4615.54
492.30	4751.29
492.48	5083.64
492.66	5198.33
492.84	5078.96
493.01	4896.40
493.19	4929.17
493.37	5008.75
493.54	4931.51
493.72	4929.17
493.90	5053.22
494.08	5301.31
494.25	5301.31
494.43	5357.49
494.61	5500.26
494.79	5462.81
494.96	5376.21
495.14	5373.87
495.32	4961.94
495.49	4978.32
495.67	5046.20
495.85	5453.45
496.02	5504.94
496.20	5401.96
496.38	5460.47
496.55	5406.64
496.73	5432.38
496.91	5392.59
497.09	5596.22
497.26	5694.52
497.44	5509.62
497.62	5476.85
497.79	5305.99
497.97	5088.32
498.14	5172.58
498.32	5193.65
498.50	5444.09
498.67	5584.52
498.85	5568.13
499.03	5416.00
499.20	5652.39
499.38	5720.27
499.56	5474.51
499.73	5408.98
499.91	5420.68
500.08	5263.86
500.26	5289.61
500.44	5177.26
500.61	5352.81
500.79	5467.49
500.97	5397.28
501.14	5305.99
501.32	5298.97
501.49	5249.82
501.67	5228.76
501.84	5181.95
502.02	5322.38
502.20	5633.67
502.37	5514.30
502.55	5526.00
502.72	5568.13
502.90	5689.84
503.07	5736.65
503.25	5682.82
503.43	5465.15
503.60	5174.92
503.78	5139.82
503.95	5188.97
504.13	5577.50
504.30	5659.42
504.48	5792.83
504.65	5762.40
504.83	5682.82
505.01	5652.39
505.18	5839.64
505.36	5870.06
505.53	5944.96
505.71	5902.83
505.88	5942.62
506.06	5841.98
506.23	5764.74
506.41	5802.19
506.58	5746.02
506.76	5776.44
506.93	5834.96
507.11	5802.19
507.28	5593.88
507.46	5827.93
507.63	5614.95
507.81	5486.22
507.98	5448.77
508.16	5624.31
508.33	5694.52
508.50	5694.52
508.68	5980.07
508.85	5973.05
509.03	5973.05
509.20	5853.68
509.38	5748.36
509.55	5607.92
509.73	5561.11
509.90	5715.59
510.08	5888.79
510.25	5762.40
510.42	5738.99
510.60	5708.57
510.77	5832.62
510.95	6022.20
511.12	5916.87
511.30	5970.71
511.47	6092.41
511.64	6188.38
511.82	5905.17
511.99	5628.99
512.17	5884.11
512.34	5514.30
512.51	5549.41
512.69	5671.12
512.86	5640.69
513.04	5839.64
513.21	5937.94
513.38	5746.02
513.56	5467.49
513.73	5495.58
513.90	5556.43
514.08	5458.13
514.25	5603.24
514.43	5708.57
514.60	5748.36
514.77	5530.69
514.95	5820.91
515.12	5764.74
515.29	5713.25
515.47	5839.64
515.64	5973.05
515.81	5837.30
515.99	5619.63
516.16	5345.78
516.33	4840.23
516.51	4711.50
516.68	4496.17
516.85	4552.34
517.03	4540.64
517.20	4980.66
517.37	5362.17
517.54	5682.82
517.72	5535.37
517.89	5095.35
518.06	4622.56
518.24	4741.93
518.41	5198.33
518.58	5233.44
518.75	5502.60
518.93	5509.62
519.10	5322.38
519.27	5448.77
519.45	5453.45
519.62	5750.70
519.79	5825.59
519.96	5900.49
520.14	5617.29
520.31	5558.77
520.48	5591.54
520.65	5376.21
520.83	5710.91
521.00	5970.71
521.17	5673.46
521.34	5687.50
521.52	5778.78
521.69	5785.80
521.86	5886.45
522.03	5643.03
522.20	5624.31
522.38	5294.29
522.55	5511.96
522.72	5479.19
522.89	5465.15
523.07	5444.09
523.24	5671.12
523.41	5827.93
523.58	5870.06
523.75	6125.18
523.92	6101.78
524.10	5888.79
524.27	5872.40
524.44	5879.43
524.61	5841.98
524.78	5614.95
524.96	5734.31
525.13	5755.38
525.30	5879.43
525.47	5914.53
525.64	5947.30
525.81	5881.77
525.98	5481.53
526.16	5174.92
526.33	4875.34
526.50	5011.09
526.67	4781.71
526.84	5011.09
527.01	5118.75
527.18	5345.78
527.36	5263.86
527.53	5647.71
527.70	5720.27
527.87	5652.39
528.04	5720.27
528.21	5673.46
528.38	5879.43
528.55	6104.12
528.72	6108.80
528.89	6132.20
529.07	6066.67
529.24	5827.93
529.41	5797.51
529.58	5467.49
529.75	5694.52
529.92	5860.70
530.09	5685.16
530.26	5898.15
530.43	5788.14
530.60	5881.77
530.77	6019.86
530.94	6085.39
531.11	5937.94
531.28	5816.23
531.46	5853.68
531.63	5762.40
531.80	5731.97
531.97	5792.83
532.14	5408.98
532.31	5373.87
532.48	5095.35
532.65	5097.69
532.82	5132.79
532.99	5575.16
533.16	5776.44
533.33	5778.78
533.50	5755.38
533.67	5556.43
533.84	5509.62
534.01	5504.94
534.18	5645.37
534.35	5645.37
534.52	5673.46
534.69	5591.54
534.86	5556.43
535.03	5795.17
535.20	5956.66
535.37	5980.07
535.54	6106.46
535.71	5959.00
535.88	5881.77
536.05	5579.84
536.22	5509.62
536.38	5535.37
536.55	5298.97
536.72	5191.31
536.89	5341.10
537.06	5549.41
537.23	5612.60
537.40	5703.89
537.57	5818.57
537.74	5774.10
537.91	5678.14
538.08	5654.73
538.25	5509.62
538.42	5661.76
538.59	5664.10
538.75	5411.32
538.92	5455.79
539.09	5497.92
539.26	5298.97
539.43	5301.31
539.60	5451.11
539.77	5327.06
539.94	5432.38
540.11	4994.70
540.28	5224.08
540.44	4994.70
540.61	5130.45
540.78	5383.23
540.95	5350.46
541.12	5509.62
541.29	5310.68
541.46	5500.26
541.62	5596.22
541.79	5582.18
541.96	5467.49
542.13	5280.25
542.30	5460.47
542.47	5315.36
542.63	5394.93
542.80	5430.04
542.97	5320.04
543.14	5322.38
543.31	5282.59
543.48	5423.02
543.64	5638.35
543.81	5727.29
543.98	5610.26
544.15	5444.09
544.32	5411.32
544.48	5369.19
544.65	5495.58
544.82	5558.77
544.99	5425.36
545.16	5343.44
545.32	5362.17
545.49	5591.54
545.66	5731.97
545.83	5554.09
546.00	5359.83
546.16	5446.43
546.33	5287.27
546.50	5373.87
546.67	5455.79
546.83	5458.13
547.00	5420.68
547.17	5266.21
547.34	5114.07
547.50	5170.24
547.67	5320.04
547.84	5205.35
548.00	5350.46
548.17	5322.38
548.34	5357.49
548.51	5476.85
548.67	5366.85
548.84	5287.27
549.01	5233.44
549.18	5399.62
549.34	5383.23
549.51	5397.28
549.68	5392.59
549.84	5174.92
550.01	5397.28
550.18	5235.78
550.34	5153.86
550.51	5315.36
550.68	5322.38
550.84	5238.12
551.01	5158.54
551.18	5228.76
551.34	5228.76
551.51	5453.45
551.68	5479.19
551.84	5322.38
552.01	5256.84
552.18	5305.99
552.34	4999.38
552.51	5025.13
552.68	5088.32
552.84	5160.88
553.01	5179.61
553.18	5165.56
553.34	5245.14
553.51	5193.65
553.67	5212.37
553.84	5210.03
554.01	5355.15
554.17	5158.54
554.34	5158.54
554.51	5214.71
554.67	5378.55
554.84	5226.42
555.00	5233.44
555.17	5146.84
555.33	5305.99
555.50	5259.18
555.67	5172.58
555.83	5069.60
556.00	4975.98
556.16	4983.00
556.33	4929.17
556.50	4922.15
556.66	4997.04
556.83	4842.57
556.99	5034.49
557.16	5088.32
557.32	5022.79
557.49	5071.94
557.65	5076.62
557.82	4968.96
557.98	5067.26
558.15	4915.12
558.32	4770.01
558.48	4578.09
558.65	4753.63
558.81	4835.55
558.98	4821.50
559.14	4908.10
559.31	4889.38
559.47	4765.33
559.64	4723.20
559.80	4760.65
559.97	4648.30
560.13	4814.48
560.30	5018.11
560.46	5158.54
560.63	5160.88
560.79	5085.98
560.96	4992.36
561.12	4959.60
561.29	4533.62
561.45	4606.17
561.61	4718.52
561.78	4847.25
561.94	4901.08
562.11	4840.23
562.27	4751.29
562.44	4905.76
562.60	4865.97
562.77	5020.45
562.93	4875.34
563.10	4854.27
563.26	4753.63
563.42	4748.95
563.59	4798.10
563.75	4692.77
563.92	4685.75
564.08	4887.04
564.24	4643.62
564.41	4770.01
564.57	4692.77
564.74	4734.90
564.90	4664.69
565.07	4660.01
565.23	4461.06
565.39	4561.70
565.56	4535.96
565.72	4552.34
565.88	4468.08
566.05	4470.42
566.21	4601.49
566.38	4585.11
566.54	4589.79
566.70	4706.82
566.87	4877.68
567.03	4723.20
567.19	4793.42
567.36	4894.06
567.52	4835.55
567.68	4678.73
567.85	4440.00
568.01	4440.00
568.17	4287.86
568.34	4505.53
568.50	4351.06
568.66	4505.53
568.83	4486.81
568.99	4386.16
569.15	4477.44
569.32	4631.92
569.48	4503.19
569.64	4608.51
569.81	4498.51
569.97	4376.80
570.13	4421.27
570.30	4306.59
570.46	4131.05
570.62	4196.58
570.78	4266.80
570.95	4147.43
571.11	4339.35
571.27	4482.13
571.43	4486.81
571.60	4416.59
571.76	4383.82
571.92	4409.57
572.09	4418.93
572.25	4505.53
572.41	4493.83
572.57	4507.87
572.74	4425.95
572.90	4498.51
573.06	4489.15
573.22	4365.10
573.38	4470.42
573.55	4353.40
573.71	4449.36
573.87	4468.08
574.03	4423.61
574.20	4484.47
574.36	4334.67
574.52	4360.42
574.68	4215.30
574.84	4236.37
575.01	4229.35
575.17	4177.86
575.33	4201.26
575.49	4194.24
575.65	4264.46
575.82	4304.25
575.98	4196.58
576.14	4287.86
576.30	4121.68
576.46	4311.27
576.62	4273.82
576.79	4257.43
576.95	4196.58
577.11	4205.94
577.27	4142.75
577.43	4287.86
577.59	4107.64
577.75	4124.02
577.92	3985.93
578.08	3974.23
578.24	3922.74
578.40	3857.20
578.56	4065.51
578.72	4067.85
578.88	4194.24
579.04	4049.13
579.21	4198.92
579.37	4189.56
579.53	4177.86
579.69	4060.83
579.85	4231.69
580.01	4198.92
580.17	4100.62
580.33	4074.87
580.49	4098.28
580.65	4114.66
580.82	3904.01
580.98	4152.11
581.14	4049.13
581.30	3964.87
581.46	4011.68
581.62	3999.98
581.78	4161.47
581.94	4119.34
582.10	4259.78
582.26	4105.30
582.42	4184.88
582.58	4147.43
582.74	4292.54
582.90	4105.30
583.06	4196.58
583.22	4102.96
583.38	4053.81
583.54	4051.47
583.70	4044.45
583.86	4133.39
584.02	3999.98
584.18	4135.73
584.34	3974.23
584.50	4126.36
584.66	3990.61
584.82	3981.25
584.98	3906.35
585.14	3971.89
585.30	3899.33
585.46	3784.65
585.62	3892.31
585.78	3915.72
585.94	3918.06
586.10	3798.69
586.26	3999.98
586.42	4028.06
586.58	3861.88
586.74	3957.85
586.90	3899.33
587.06	3957.85
587.22	3922.74
587.38	3892.31
587.54	3889.97
587.70	3838.48
587.86	3819.75
588.02	3791.67
588.18	3756.56
588.34	3637.19
588.49	3410.16
588.65	3236.96
588.81	3187.81
588.97	3269.73
589.13	3236.96
589.29	3061.42
589.45	3286.11
589.61	3379.73
589.77	3557.61
589.93	3623.15
590.08	3576.34
590.24	3789.33
590.40	3679.32
590.56	3833.80
590.72	3660.60
590.88	3667.62
591.04	3627.83
591.20	3569.32
591.35	3538.89
591.51	3672.30
591.67	3559.95
591.83	3723.79
591.99	3761.24
592.15	3534.21
592.31	3669.96
592.46	3592.72
592.62	3503.78
592.78	3613.79
592.94	3616.13
593.10	3674.64
593.26	3616.13
593.41	3576.34
593.57	3737.84
593.73	3529.53
593.89	3599.74
594.05	3482.72
594.20	3478.04
594.36	3426.54
594.52	3363.35
594.68	3293.13
594.84	3536.55
594.99	3475.70
595.15	3555.27
595.31	3482.72
595.47	3531.87
595.62	3506.12
595.78	3585.70
595.94	3576.34
596.10	3648.90
596.25	3674.64
596.41	3403.14
596.57	3510.80
596.73	3564.64
596.88	3534.21
597.04	3548.25
597.20	3597.40
597.36	3487.40
597.51	3662.94
597.67	3536.55
597.83	3527.19
597.99	3520.17
598.14	3363.35
