SpectraSuite Data File
++++++++++++++++++++++++++++++++++++
Date: Mon Oct 07 14:53:04 GMT-05:00 2013
User: price-jones
Dark Spectrum Present: No
Reference Spectrum Present: No
Number of Sampled Component Spectra: 1
Spectrometers: USB2+H05261
Integration Time (usec): 100000 (USB2+H05261)
Spectra Averaged: 1 (USB2+H05261)
Boxcar Smoothing: 0 (USB2+H05261)
Correct for Electrical Dark: No (USB2+H05261)
Strobe/Lamp Enabled: No (USB2+H05261)
Correct for Detector Non-linearity: No (USB2+H05261)
Correct for Stray Light: No (USB2+H05261)
Number of Pixels in Processed Spectrum: 2048
>>>>>Begin Processed Spectral Data<<<<<
365.73	0.00
365.92	0.00
366.12	0.00
366.32	0.00
366.52	0.00
366.72	0.00
366.91	0.00
367.11	0.00
367.31	0.00
367.51	0.00
367.70	0.00
367.90	0.00
368.10	0.00
368.30	0.00
368.49	0.00
368.69	0.00
368.89	0.00
369.09	0.00
369.28	0.00
369.48	0.00
369.68	0.00
369.87	0.00
370.07	0.00
370.27	0.00
370.47	341.72
370.66	2530.12
370.86	2853.11
371.06	3227.60
371.25	3166.74
371.45	2897.58
371.65	2541.82
371.84	2263.30
372.04	2513.74
372.24	2759.49
372.44	2937.37
372.63	2967.80
372.83	2724.38
373.03	2377.98
373.22	2286.70
373.42	2317.13
373.62	2595.65
373.81	2942.05
374.01	2892.90
374.21	2548.84
374.40	2345.22
374.60	2497.35
374.79	2789.92
374.99	3169.09
375.19	3578.68
375.38	3557.61
375.58	3353.99
375.78	3325.90
375.97	3332.92
376.17	3466.33
376.37	3485.06
376.56	3740.18
376.76	3758.90
376.95	4182.54
377.15	4372.12
377.35	4395.53
377.54	4711.50
377.74	4912.78
377.93	4655.33
378.13	4554.68
378.33	4437.66
378.52	4007.00
378.72	3939.12
378.91	3768.26
379.11	3576.34
379.31	3522.51
379.50	3611.45
379.70	3894.65
379.89	4227.01
380.09	4493.83
380.28	4580.43
380.48	4751.29
380.68	4540.64
380.87	4571.07
381.07	4245.73
381.26	3756.56
381.46	3655.92
381.65	3529.53
381.85	3288.45
382.04	3176.11
382.24	2780.56
382.43	2841.41
382.63	2752.47
382.83	2773.53
383.02	2846.09
383.22	2946.73
383.41	2759.49
383.61	3000.57
383.80	3550.59
384.00	3908.69
384.19	4514.89
384.39	4596.81
384.58	4690.43
384.78	4491.49
384.97	4409.57
385.17	4219.99
385.36	4011.68
385.56	3857.20
385.75	3911.04
385.95	4390.84
386.14	4851.93
386.34	4765.33
386.53	4440.00
386.72	4154.45
386.92	4435.32
387.11	4571.07
387.31	4727.88
387.50	4685.75
387.70	4608.51
387.89	4507.87
388.09	4381.48
388.28	4423.61
388.48	4538.30
388.67	4968.96
388.86	5383.23
389.06	5724.95
389.25	6061.99
389.45	5959.00
389.64	6204.76
389.84	6080.71
390.03	5956.66
390.22	5923.90
390.42	6347.53
390.61	6583.93
390.81	6977.14
391.00	7197.15
391.19	6995.86
391.39	6913.94
391.58	6607.33
391.78	6207.10
391.97	5881.77
392.16	5521.32
392.36	4978.32
392.55	3990.61
392.75	3145.68
392.94	2590.97
393.13	2663.53
393.33	3080.14
393.52	4018.70
393.71	4798.10
393.91	5310.68
394.10	5886.45
394.29	6485.62
394.49	6946.71
394.68	7218.21
394.88	7405.46
395.07	8135.70
395.26	7770.58
395.46	7438.22
395.65	6930.33
395.84	6326.47
396.04	5252.16
396.23	4114.66
396.42	3524.85
396.62	3368.03
396.81	3892.31
397.00	5158.54
397.19	6457.54
397.39	7634.83
397.58	8678.71
397.77	9062.55
397.97	9432.36
398.16	9390.23
398.35	9736.63
398.55	9900.47
398.74	10291.34
398.93	10714.97
399.12	10466.88
399.32	10174.31
399.51	10487.94
399.70	11157.33
399.90	10817.96
400.09	10904.56
400.28	10942.00
400.47	11082.44
400.67	11534.16
400.86	11861.84
401.05	11810.34
401.24	11798.64
401.44	11941.41
401.63	11871.20
401.82	12013.97
402.01	11899.28
402.21	12217.60
402.40	12194.19
402.59	11899.28
402.78	11419.47
402.97	11002.86
403.17	11339.90
403.36	12203.55
403.55	12456.33
403.74	12643.57
403.93	12236.32
404.13	11262.66
404.32	11176.06
404.51	11611.40
404.70	12404.84
404.89	12556.97
405.09	12336.96
405.28	11847.79
405.47	11896.94
405.66	11967.16
405.85	11360.96
406.05	11367.98
406.24	11300.11
406.43	11934.39
406.62	12322.92
406.81	12601.44
407.00	12039.72
407.20	11847.79
407.39	11775.24
407.58	12475.06
407.77	12854.22
407.96	13247.43
408.15	13542.34
408.34	13366.80
408.54	14106.41
408.73	13893.42
408.92	13884.06
409.11	13680.43
409.30	12924.44
409.49	12013.97
409.68	11414.79
409.87	10986.47
410.07	11861.84
410.26	12617.83
410.45	13549.36
410.64	13755.33
410.83	14197.69
411.02	14389.61
411.21	14970.07
411.40	14764.10
411.59	14712.61
411.78	14614.30
411.98	14532.39
412.17	15087.09
412.36	14537.07
412.55	14661.12
412.74	14380.25
412.93	13907.46
413.12	14267.91
413.31	15473.28
413.50	15627.76
413.69	15803.30
413.88	15183.06
414.07	14925.60
414.26	15227.53
414.45	15447.54
414.64	15674.57
414.83	15637.12
415.02	15316.47
415.22	15419.45
415.41	15709.68
415.60	16505.46
415.79	16765.26
415.98	17364.43
416.17	17270.81
416.36	16514.82
416.55	16624.83
416.74	15910.96
416.93	15431.15
417.12	15653.50
417.31	15695.63
417.50	16088.84
417.69	16306.51
417.88	16262.04
418.07	16098.20
418.26	15960.11
418.45	16327.58
418.64	16753.55
418.83	17411.25
419.02	17221.66
419.21	17104.64
419.39	16166.08
419.58	15346.89
419.77	15594.99
419.96	16208.21
420.15	16908.03
420.34	17631.26
420.53	18066.60
420.72	18345.12
420.91	18387.25
421.10	17792.75
421.29	18141.49
421.48	17441.67
421.67	18232.77
421.86	17596.15
422.05	16191.83
422.24	14698.56
422.43	14916.23
422.61	16245.66
422.80	17680.41
422.99	17607.85
423.18	16931.44
423.37	16809.73
423.56	16535.88
423.75	16858.88
423.94	17209.96
424.13	16369.71
424.32	16432.90
424.50	16645.89
424.69	16271.40
424.88	16606.10
425.07	16032.67
425.26	16479.71
425.45	16149.70
425.64	15737.76
425.83	16159.06
426.01	16760.58
426.20	17165.49
426.39	17186.55
426.58	15562.22
426.77	14637.71
426.96	14075.98
427.15	14466.85
427.33	16032.67
427.52	16463.33
427.71	16746.53
427.90	16444.60
428.09	16329.92
428.28	16112.25
428.46	15260.29
428.65	15578.61
428.84	15445.20
429.03	15765.85
429.22	14677.50
429.40	14160.24
429.59	12767.62
429.78	11386.71
429.97	11555.22
430.16	11447.56
430.34	11665.23
430.53	11508.41
430.72	12002.27
430.91	13411.27
431.10	15414.77
431.28	18342.78
431.47	19431.13
431.66	19733.06
431.85	18092.34
432.03	16641.21
432.22	15925.00
432.41	16580.36
432.60	18232.77
432.79	18932.59
432.97	19606.67
433.16	18995.79
433.35	17326.99
433.54	15449.88
433.72	14743.03
433.91	15548.18
434.10	17022.72
434.28	18361.50
434.47	18904.51
434.66	18897.49
434.85	18279.58
435.03	18106.38
435.22	18642.37
435.41	19910.94
435.59	19665.18
435.78	20299.47
435.97	20688.00
436.16	20975.88
436.34	20306.49
436.53	19747.10
436.72	20009.24
436.90	19080.05
437.09	18883.44
437.28	18920.89
437.46	19281.33
437.65	18953.66
437.84	17692.11
438.02	16397.79
438.21	16421.20
438.40	17298.90
438.58	18654.07
438.77	19213.46
438.96	19264.95
439.14	20423.51
439.33	20973.54
439.52	21048.44
439.70	20662.25
439.89	20287.76
440.08	19421.77
440.26	19499.00
440.45	20299.47
440.63	22064.23
440.82	22644.68
441.01	22850.65
441.19	22237.43
441.38	22539.36
441.57	23274.29
441.75	23316.42
441.94	24046.66
442.12	23611.32
442.31	24184.76
442.50	23896.87
442.68	23955.38
442.87	23606.64
443.05	23012.15
443.24	23726.01
443.43	23988.15
443.61	24442.21
443.80	25034.37
443.98	23377.27
444.17	23164.28
444.35	24559.24
444.54	25022.67
444.73	25027.35
444.91	23667.50
445.10	22883.42
445.28	21982.31
445.47	21720.17
445.65	21816.13
445.84	22272.54
446.02	22890.44
446.21	23215.77
446.39	23529.41
446.58	23934.32
446.77	24264.33
446.95	24505.41
447.14	25357.36
447.32	25282.47
447.51	24716.06
447.69	23770.48
447.88	23468.55
448.06	24430.51
448.25	24694.99
448.43	24577.97
448.62	24102.84
448.80	24182.42
448.99	24524.13
449.17	24201.14
449.36	24725.42
449.54	25345.66
449.73	25720.15
449.91	25841.85
450.10	26820.20
450.28	27119.79
450.46	26721.90
450.65	27016.80
450.83	26855.31
451.02	25844.20
451.20	26235.06
451.39	26054.84
451.57	25624.18
451.76	25811.43
451.94	25659.29
452.13	25188.85
452.31	24105.18
452.49	23274.29
452.68	23271.95
452.86	23494.30
453.05	23854.74
453.23	24500.73
453.42	25048.41
453.60	25710.78
453.78	25696.74
453.97	25617.16
454.15	25633.55
454.34	24861.17
454.52	25130.33
454.70	24566.26
454.89	25202.89
455.07	25116.29
455.26	25312.89
455.44	26469.12
455.62	26913.82
455.81	27164.26
455.99	26401.24
456.17	26359.11
456.36	26335.71
456.54	27667.47
456.73	27019.14
456.91	27995.15
457.09	27934.29
457.28	28107.49
457.46	27250.86
457.64	26967.65
457.83	26125.06
458.01	25663.97
458.19	26497.20
458.38	26286.56
458.56	27229.79
458.74	27065.96
458.93	26937.23
459.11	26551.04
459.29	26352.09
459.48	27049.57
459.66	26551.04
459.84	26726.58
460.03	27232.13
460.21	26923.18
460.39	27920.25
460.57	28177.71
460.76	28350.91
460.94	28147.28
461.12	27660.45
461.31	28004.51
461.49	27882.80
461.67	27838.33
461.85	28861.15
462.04	28489.00
462.22	29308.19
462.40	28816.68
462.59	28496.02
462.77	28451.55
462.95	28512.41
463.13	28533.47
463.32	27936.63
463.50	27978.76
463.68	27775.14
463.86	28009.19
464.05	27435.76
464.23	27129.15
464.41	26869.35
464.59	26040.80
464.78	27892.16
464.96	27711.94
465.14	27129.15
465.32	28065.36
465.50	29036.69
465.69	28830.72
465.87	28268.99
466.05	27634.71
466.23	26136.76
466.41	25757.60
466.60	26693.81
466.78	26595.51
466.96	26958.29
467.14	27735.35
467.32	27611.30
467.51	27819.61
467.69	26773.39
467.87	27147.87
468.05	27527.04
468.23	27887.48
468.41	27683.86
468.60	27435.76
468.78	28112.17
468.96	27459.16
469.14	28163.67
469.32	28416.44
469.50	27576.19
469.69	27510.66
469.87	27419.38
470.05	26852.97
470.23	26752.32
470.41	27222.77
470.59	27063.61
470.77	27129.15
470.95	27999.83
471.14	28573.26
471.32	28528.79
471.50	30118.01
471.68	29944.81
471.86	30293.55
472.04	30490.16
472.22	30361.43
472.40	28891.57
472.58	28835.40
472.77	28606.03
472.95	29127.97
473.13	30071.20
473.31	29027.32
473.49	29560.97
473.67	29923.75
473.85	29799.70
474.03	30911.46
474.21	31012.10
474.39	31213.38
474.57	31309.35
474.75	31192.32
474.93	30693.79
475.12	30441.01
475.30	30118.01
475.48	30401.22
475.66	31021.46
475.84	30087.59
476.02	30082.91
476.20	29764.59
476.38	30476.12
476.56	31264.88
476.74	31772.77
476.92	32201.09
477.10	32683.24
477.28	33450.94
477.46	33338.59
477.64	34218.63
477.82	33795.00
478.00	34078.20
478.18	33298.80
478.36	32940.70
478.54	33039.00
478.72	33160.71
478.90	34838.87
479.08	35248.47
479.26	35494.22
479.44	35346.77
479.62	35672.10
479.80	35548.06
479.98	35948.29
480.16	35927.22
480.34	35117.40
480.52	35824.24
480.70	36268.94
480.88	36435.12
481.06	37392.40
481.24	37109.19
481.41	38139.03
481.59	38253.72
481.77	37858.17
481.95	37305.80
482.13	37694.33
482.31	37631.13
482.49	38146.05
482.67	37677.94
482.85	38258.40
483.03	39007.37
483.21	39297.59
483.39	39379.51
483.57	38216.27
483.74	38473.73
483.92	38792.04
484.10	38565.01
484.28	39363.13
484.46	40055.93
484.64	40175.30
484.82	39323.34
485.00	38911.41
485.18	38340.32
485.35	36584.91
485.53	34361.40
485.71	30986.35
485.89	30972.31
486.07	33130.28
486.25	35196.98
486.43	37624.11
486.61	38064.13
486.78	37993.92
486.96	38326.27
487.14	39936.56
487.32	40739.36
487.50	41638.13
487.68	42466.68
487.85	43056.50
488.03	43075.22
488.21	42574.34
488.39	42263.05
488.57	41188.75
488.75	41291.73
488.92	42412.85
489.10	45216.81
489.28	45986.85
489.46	47229.67
489.64	46749.86
489.81	47206.26
489.99	46616.45
490.17	47072.85
490.35	47466.06
490.53	46354.31
490.70	46349.63
490.88	46064.08
491.06	47372.44
491.24	46979.23
491.41	45640.45
491.59	43840.57
491.77	43007.34
491.95	44423.37
492.13	45703.64
492.30	47587.77
492.48	48559.09
492.66	48851.66
492.84	48971.03
493.01	48687.82
493.19	47782.04
493.37	47452.02
493.54	47379.46
493.72	48156.52
493.90	49588.93
494.08	50410.46
494.25	50742.81
494.43	51295.18
494.61	51260.07
494.79	51566.68
494.96	51367.74
495.14	50361.31
495.32	49511.69
495.49	48563.78
495.67	50284.07
495.85	51339.65
496.02	51997.34
496.20	51587.75
496.38	51236.67
496.55	51133.68
496.73	51943.51
496.91	51707.12
497.09	52554.39
497.26	52765.04
497.44	52210.33
497.62	51402.85
497.79	50677.28
497.97	48879.75
498.14	49518.71
498.32	50614.08
498.50	51756.27
498.67	52453.75
498.85	52350.76
499.03	52212.67
499.20	52839.93
499.38	52512.26
499.56	52666.73
499.73	51796.06
499.91	51519.87
500.08	50827.07
500.26	50045.33
500.44	50380.03
500.61	51428.59
500.79	51208.58
500.97	50836.44
501.14	50461.95
501.32	50600.04
501.49	50316.84
501.67	50621.11
501.84	51377.10
502.02	51433.27
502.20	52009.04
502.37	52339.06
502.55	52308.63
502.72	53085.69
502.90	53303.36
503.07	52678.44
503.25	52556.73
503.43	51613.49
503.60	50583.66
503.78	50085.12
503.95	50663.24
504.13	52072.24
504.30	53205.06
504.48	52821.21
504.65	52669.08
504.83	52830.57
505.01	53375.92
505.18	53883.81
505.36	54326.17
505.53	54419.80
505.71	54499.37
505.88	54763.85
506.06	54089.78
506.23	53647.42
506.41	53427.41
506.58	53506.99
506.76	53436.77
506.93	53584.22
507.11	53221.44
507.28	53478.90
507.46	52870.36
507.63	52140.11
507.81	51763.29
507.98	52236.08
508.16	53439.11
508.33	54017.22
508.50	54012.54
508.68	54342.56
508.85	54789.60
509.03	54972.16
509.20	54724.07
509.38	53581.88
509.55	52830.57
509.73	53343.15
509.90	53682.53
510.08	54176.38
510.25	54274.68
510.42	53684.87
510.60	53961.05
510.77	53839.34
510.95	54742.79
511.12	54576.61
511.30	55189.83
511.47	55473.04
511.64	55341.97
511.82	54667.89
511.99	54237.23
512.17	53727.00
512.34	53186.33
512.51	53361.87
512.69	53738.70
512.86	53696.57
513.04	54237.23
513.21	54057.01
513.38	53722.32
513.56	52968.66
513.73	52617.58
513.90	52896.11
514.08	53057.60
514.25	53347.83
514.43	53502.31
514.60	53514.01
514.77	53890.83
514.95	53851.05
515.12	53860.41
515.29	54024.25
515.47	54646.83
515.64	54578.95
515.81	54389.37
515.99	53811.26
516.16	51990.32
516.33	48816.55
516.51	47512.88
516.68	46417.50
516.85	45902.59
517.03	46628.15
517.20	49846.39
517.37	52987.39
517.54	53977.43
517.72	52956.96
517.89	49851.07
518.06	47337.33
518.24	48154.18
518.41	50747.50
518.58	52222.03
518.75	52357.78
518.93	52753.33
519.10	52346.08
519.27	52818.87
519.45	53549.12
519.62	54190.42
519.79	54710.02
519.96	54134.25
520.14	53750.40
520.31	52830.57
520.48	52683.12
520.65	53514.01
520.83	54475.97
521.00	54824.71
521.17	54234.89
521.34	54202.13
521.52	54529.80
521.69	54770.88
521.86	55391.12
522.03	54976.84
522.20	53574.86
522.38	52364.81
522.55	52715.89
522.72	53127.82
522.89	53528.05
523.07	53806.58
523.24	53956.37
523.41	54674.91
523.58	55332.60
523.75	55522.19
523.92	55636.87
524.10	55576.02
524.27	55243.66
524.44	55304.52
524.61	54805.98
524.78	54791.94
524.96	54684.28
525.13	54981.52
525.30	55206.22
525.47	55608.79
525.64	55543.25
525.81	54955.78
525.98	52783.76
526.16	51571.36
526.33	50609.40
526.50	50281.73
526.67	49752.77
526.84	50782.60
527.01	51772.65
527.18	52821.21
527.36	54028.93
527.53	54857.48
527.70	54878.54
527.87	54513.42
528.04	53790.19
528.21	54248.94
528.38	54890.24
528.55	55814.76
528.72	56086.26
528.89	56261.80
529.07	55842.84
529.24	55077.49
529.41	54408.09
529.58	53750.40
529.75	54342.56
529.92	54658.53
530.09	55215.58
530.26	55255.37
530.43	55943.48
530.60	55697.73
530.77	55751.56
530.94	56268.82
531.11	55777.31
531.28	55140.68
531.46	55267.07
531.63	55344.31
531.80	54880.88
531.97	54471.29
532.14	53968.07
532.31	52629.29
532.48	51807.76
532.65	51978.62
532.82	53331.45
532.99	54529.80
533.16	54726.41
533.33	55229.62
533.50	55054.08
533.67	54267.66
533.84	53876.79
534.01	54239.57
534.18	54422.14
534.35	54387.03
534.52	54410.43
534.69	54845.77
534.86	54880.88
535.03	55388.78
535.20	55812.41
535.37	56055.83
535.54	56198.60
535.71	55789.01
535.88	55318.56
536.05	54742.79
536.22	54312.13
536.38	53762.11
536.55	53441.45
536.72	52945.26
536.89	52718.23
537.06	53961.05
537.23	54969.82
537.40	55253.03
537.57	54841.09
537.74	54529.80
537.91	54726.41
538.08	54539.16
538.25	54906.63
538.42	54834.07
538.59	54506.40
538.75	53886.15
538.92	53687.21
539.09	53560.82
539.26	53408.68
539.43	53132.50
539.60	53602.95
539.77	53869.77
539.94	53340.81
540.11	52390.55
540.28	51744.56
540.44	51985.64
540.61	52287.57
540.78	52444.38
540.95	53071.65
541.12	53532.73
541.29	53822.96
541.46	54206.81
541.62	54295.75
541.79	54087.44
541.96	53268.25
542.13	53359.53
542.30	53492.94
542.47	53900.20
542.63	53703.59
542.80	53308.04
542.97	53235.48
543.14	53198.04
543.31	53275.27
543.48	54054.67
543.64	54754.49
543.81	55194.51
543.98	54869.18
544.15	54234.89
544.32	53504.65
544.48	53780.83
544.65	54122.55
544.82	54468.95
544.99	54040.63
545.16	53916.58
545.32	53502.31
545.49	54286.39
545.66	54564.91
545.83	54253.62
546.00	53804.24
546.16	53418.05
546.33	53698.91
546.50	53820.62
546.67	53984.46
546.83	53822.96
547.00	53532.73
547.17	52708.86
547.34	52360.12
547.50	52154.16
547.67	52797.80
547.84	52832.91
548.00	53396.98
548.17	53932.96
548.34	53776.15
548.51	53661.46
548.67	53680.19
548.84	53986.80
549.01	53675.51
549.18	53385.28
549.34	53593.59
549.51	53895.52
549.68	53322.08
549.84	53153.57
550.01	52952.28
550.18	52921.85
550.34	52879.72
550.51	53340.81
550.68	53392.30
550.84	52846.96
551.01	52851.64
551.18	52814.19
551.34	53113.78
551.51	53249.53
551.68	54031.27
551.84	53825.30
552.01	53516.35
552.18	53577.20
552.34	52481.83
552.51	52046.49
552.68	52093.30
552.84	52774.40
553.01	52825.89
553.18	52540.35
553.34	52570.77
553.51	53148.88
553.67	53113.78
553.84	53439.11
554.01	53333.79
554.17	53029.52
554.34	53062.29
554.51	53214.42
554.67	53801.89
554.84	53371.24
555.00	53034.20
555.17	53125.48
555.33	52734.61
555.50	52921.85
555.67	53036.54
555.83	52729.93
556.00	52327.36
556.16	52409.28
556.33	51547.96
556.50	51679.03
556.66	51966.91
556.83	51363.06
556.99	51463.70
557.16	51679.03
557.32	51938.83
557.49	52355.44
557.65	52041.81
557.82	52301.61
557.98	51999.68
558.15	51868.61
558.32	50408.12
558.48	49495.31
558.65	49654.47
558.81	49996.18
558.98	50611.74
559.14	50969.85
559.31	50866.86
559.47	50761.54
559.64	50387.05
559.80	49841.71
559.97	50040.65
560.13	50918.35
560.30	51777.33
560.46	52554.39
560.63	52657.37
560.79	52418.64
560.96	52292.25
561.12	50958.14
561.29	49701.28
561.45	50078.10
561.61	50962.82
561.78	51021.34
561.94	51016.66
562.11	50745.15
562.27	51042.40
562.44	50876.22
562.60	51297.52
562.77	51515.19
562.93	51583.07
563.10	51545.62
563.26	51033.04
563.42	50857.50
563.59	50562.59
563.75	50740.47
563.92	50768.56
564.08	50658.56
564.24	50749.84
564.41	51019.00
564.57	50651.53
564.74	50349.60
564.90	50576.64
565.07	50064.06
565.23	49848.73
565.39	48821.23
565.56	48697.19
565.72	48531.01
565.88	49247.21
566.05	49336.15
566.21	49778.51
566.38	49820.64
566.54	49722.34
566.70	50370.67
566.87	50864.52
567.03	50543.87
567.19	50955.80
567.36	50160.02
567.52	50337.90
567.68	50227.90
567.85	49127.84
568.01	48825.92
568.17	48313.34
568.34	48563.78
568.50	48573.14
568.66	48474.84
568.83	49415.73
568.99	49301.04
569.15	49205.08
569.32	49375.94
569.48	48556.75
569.64	48626.97
569.81	48315.68
569.97	48090.99
570.13	48013.75
570.30	47147.75
570.46	46777.95
570.62	46436.23
570.78	46040.68
570.95	46602.41
571.11	47524.58
571.27	48004.39
571.43	47856.93
571.60	48460.79
571.76	48509.94
571.92	48971.03
572.09	49380.62
572.25	49036.56
572.41	49160.61
572.57	49062.31
572.74	48907.83
572.90	48538.03
573.06	48367.17
573.22	48898.47
573.38	48734.63
573.55	48399.94
573.71	48533.35
573.87	48322.70
574.03	48215.04
574.20	48135.46
574.36	47999.71
574.52	47508.19
574.68	47442.66
574.84	47196.90
575.01	46490.06
575.17	46265.37
575.33	46815.40
575.49	47311.59
575.65	47269.46
575.82	46993.28
575.98	46934.76
576.14	46913.70
576.30	47035.41
576.46	47461.38
576.62	47435.64
576.79	47274.14
576.95	46897.31
577.11	46918.38
577.27	47075.19
577.43	47267.12
577.59	46382.40
577.75	46146.00
577.92	45111.49
578.08	45029.57
578.24	44814.24
578.40	45361.92
578.56	45588.95
578.72	46295.80
578.88	46134.30
579.04	46220.90
579.21	46623.47
579.37	46419.84
579.53	46611.77
579.69	46270.05
579.85	46501.76
580.01	46628.15
580.17	45366.60
580.33	45347.88
580.49	46047.70
580.65	46506.44
580.82	46628.15
580.98	45879.18
581.14	46251.33
581.30	46204.52
581.46	46080.47
581.62	46419.84
581.78	46478.36
581.94	47239.03
582.10	46766.24
582.26	47051.79
582.42	46501.76
582.58	46995.62
582.74	46635.17
582.90	46934.76
583.06	46869.23
583.22	46244.30
583.38	46256.01
583.54	46330.90
583.70	46122.60
583.86	46597.73
584.02	46171.75
584.18	46204.52
584.34	46087.49
584.50	45848.75
584.66	45624.06
584.82	45560.87
584.98	45191.06
585.14	44165.91
585.30	43826.53
