SpectraSuite Data File
++++++++++++++++++++++++++++++++++++
Date: Mon Oct 07 14:53:48 GMT-05:00 2013
User: price-jones
Dark Spectrum Present: No
Reference Spectrum Present: No
Number of Sampled Component Spectra: 1
Spectrometers: USB2+H05261
Integration Time (usec): 100000 (USB2+H05261)
Spectra Averaged: 1 (USB2+H05261)
Boxcar Smoothing: 0 (USB2+H05261)
Correct for Electrical Dark: No (USB2+H05261)
Strobe/Lamp Enabled: No (USB2+H05261)
Correct for Detector Non-linearity: No (USB2+H05261)
Correct for Stray Light: No (USB2+H05261)
Number of Pixels in Processed Spectrum: 2048
>>>>>Begin Processed Spectral Data<<<<<
365.73	0.00
365.92	0.00
366.12	0.00
366.32	0.00
366.52	0.00
366.72	0.00
366.91	0.00
367.11	0.00
367.31	0.00
367.51	0.00
367.70	0.00
367.90	0.00
368.10	0.00
368.30	0.00
368.49	0.00
368.69	0.00
368.89	0.00
369.09	0.00
369.28	0.00
369.48	0.00
369.68	0.00
369.87	0.00
370.07	0.00
370.27	0.00
370.47	631.94
370.66	2806.30
370.86	3428.88
371.06	3740.18
371.25	3791.67
371.45	3431.23
371.65	3052.06
371.84	2848.43
372.04	3122.27
372.24	3382.07
372.44	3456.97
372.63	3342.28
372.83	3262.71
373.03	2782.90
373.22	2647.15
373.42	2813.32
373.62	3150.36
373.81	3597.40
374.01	3403.14
374.21	3094.19
374.40	2993.55
374.60	2965.46
374.79	3461.65
374.99	4049.13
375.19	4440.00
375.38	4313.61
375.58	4095.94
375.78	4072.53
375.97	4035.08
376.17	4236.37
376.37	4161.47
376.56	4248.07
376.76	4517.23
376.95	4910.44
377.15	5228.76
377.35	5385.57
377.54	5467.49
377.74	5912.19
377.93	5778.78
378.13	5643.03
378.33	5294.29
378.52	4978.32
378.72	4643.62
378.91	4699.80
379.11	4645.96
379.31	4503.19
379.50	4203.60
379.70	4688.09
379.89	5224.08
380.09	5416.00
380.28	5664.10
380.48	5633.67
380.68	5621.97
380.87	5458.13
381.07	5029.81
381.26	4638.94
381.46	4430.63
381.65	4236.37
381.85	4196.58
382.04	3873.59
382.24	3583.36
382.43	3414.84
382.63	3311.86
382.83	3454.63
383.02	3396.12
383.22	3496.76
383.41	3527.19
383.61	3667.62
383.80	4063.17
384.00	4695.11
384.19	5362.17
384.39	5577.50
384.58	5565.79
384.78	5549.41
384.97	5362.17
385.17	5261.52
385.36	4896.40
385.56	4582.77
385.75	4706.82
385.95	5369.19
386.14	5771.76
386.34	5788.14
386.53	5376.21
386.72	5287.27
386.92	5331.74
387.11	5575.16
387.31	5818.57
387.50	5692.18
387.70	5504.94
387.89	5462.81
388.09	5497.92
388.28	5390.25
388.48	5687.50
388.67	6085.39
388.86	6452.86
389.06	7145.66
389.25	7625.47
389.45	7489.71
389.64	7459.29
389.84	7353.96
390.03	7250.98
390.22	7236.94
390.42	7613.76
390.61	7901.65
390.81	8552.32
391.00	8692.75
391.19	8552.32
391.39	8201.24
391.58	7929.74
391.78	7377.37
391.97	7157.36
392.16	6707.98
392.36	6122.84
392.55	4786.40
392.75	4037.42
392.94	3197.17
393.13	3206.53
393.33	3775.28
393.52	4615.54
393.71	5816.23
393.91	6415.41
394.10	7042.67
394.29	7927.39
394.49	8463.38
394.68	9167.88
394.88	9149.15
395.07	9753.01
395.26	9451.08
395.46	9198.31
395.65	8674.03
395.84	7595.04
396.04	6427.11
396.23	5378.55
396.42	4222.33
396.62	4187.22
396.81	4812.14
397.00	6195.40
397.19	7517.80
397.39	9184.26
397.58	10331.12
397.77	10768.80
397.97	11358.62
398.16	11630.12
398.35	12049.08
398.55	12390.80
398.74	12659.96
398.93	12894.01
399.12	12676.34
399.32	12283.13
399.51	12791.03
399.70	13586.81
399.90	13305.95
400.09	13348.08
400.28	12957.21
400.47	13392.55
400.67	13968.32
400.86	14532.39
401.05	14310.04
401.24	14389.61
401.44	14712.61
401.63	14380.25
401.82	14822.61
402.01	14602.60
402.21	14913.89
402.40	15054.33
402.59	14253.86
402.78	13771.71
402.97	13469.78
403.17	13944.91
403.36	14799.21
403.55	15492.01
403.74	15824.36
403.93	15096.46
404.13	13755.33
404.32	13521.27
404.51	14085.34
404.70	15405.41
404.89	15276.68
405.09	15117.52
405.28	14462.17
405.47	14560.47
405.66	14452.81
405.85	14253.86
406.05	13841.93
406.24	14001.08
406.43	14443.45
406.62	15009.86
406.81	15150.29
407.00	14815.59
407.20	14193.01
407.39	14445.79
407.58	15140.93
407.77	15655.84
407.96	16070.12
408.15	16353.32
408.34	16355.66
408.54	17114.00
408.73	17193.58
408.92	17036.76
409.11	16589.72
409.30	15845.43
409.49	14895.17
409.68	13987.04
409.87	13535.32
410.07	14530.05
410.26	15239.23
410.45	16678.66
410.64	16849.52
410.83	17149.11
411.02	17804.46
411.21	18635.35
411.40	18015.10
411.59	18150.85
411.78	18216.39
411.98	17940.21
412.17	18434.06
412.36	18038.51
412.55	18050.21
412.74	17406.56
412.93	17109.32
413.12	17209.96
413.31	18991.11
413.50	19000.47
413.69	19494.32
413.88	18691.52
414.07	18274.90
414.26	18766.42
414.45	19117.50
414.64	19143.24
414.83	19264.95
415.02	19061.32
415.22	18642.37
415.41	19391.34
415.60	19639.44
415.79	20594.37
415.98	20957.16
416.17	21071.84
416.36	20695.02
416.55	20425.86
416.74	19868.81
416.93	19103.45
417.12	18958.34
417.31	19548.15
417.50	19358.57
417.69	20196.48
417.88	20166.06
418.07	19812.63
418.26	19878.17
418.45	19894.55
418.64	20482.03
418.83	21092.91
419.02	21076.52
419.21	20783.96
419.39	19873.49
419.58	18579.17
419.77	19117.50
419.96	19873.49
420.15	20910.35
420.34	21556.33
420.53	22478.50
420.72	22576.81
420.91	22258.49
421.10	22235.09
421.29	22300.62
421.48	21298.88
421.67	22445.74
421.86	21940.18
422.05	20435.22
422.24	18150.85
422.43	17982.34
422.61	19719.01
422.80	21633.57
422.99	21525.91
423.18	20783.96
423.37	20217.55
423.56	20292.44
423.75	20673.95
423.94	21621.87
424.13	20402.45
424.32	20194.14
424.50	20503.09
424.69	19920.30
424.88	20320.53
425.07	19831.36
425.26	20098.18
425.45	19892.21
425.64	19250.91
425.83	19611.35
426.01	20854.17
426.20	20863.54
426.39	21153.76
426.58	19400.70
426.77	17764.67
426.96	17238.05
427.15	17811.48
427.33	19520.07
427.52	20154.35
427.71	20074.77
427.90	20107.54
428.09	20093.50
428.28	19578.58
428.46	19058.98
428.65	18293.63
428.84	19117.50
429.03	19267.29
429.22	18366.18
429.40	17364.43
429.59	15679.25
429.78	13820.86
429.97	13884.06
430.16	14050.24
430.34	14417.70
430.53	14319.40
430.72	14335.78
430.91	15723.72
431.10	18831.95
431.28	22157.85
431.47	23679.20
431.66	24372.00
431.85	22321.69
432.03	20414.15
432.22	19440.49
432.41	20144.99
432.60	22384.88
432.79	23225.14
432.97	24072.41
433.16	23002.78
433.35	21310.58
433.54	19445.17
433.72	18085.32
433.91	18590.88
434.10	20725.44
434.28	22082.95
434.47	23503.66
434.66	23030.87
434.85	22513.61
435.03	22813.20
435.22	22934.91
435.41	24538.18
435.59	24205.82
435.78	24482.00
435.97	25191.19
436.16	25476.73
436.34	24922.02
436.53	24458.60
436.72	24634.14
436.90	23517.70
437.09	23173.64
437.28	22459.78
437.46	23754.10
437.65	23314.08
437.84	22045.51
438.02	20149.67
438.21	20166.06
438.40	20936.09
438.58	23040.23
438.77	23396.00
438.96	23892.19
439.14	24542.86
439.33	25331.62
439.52	25970.58
439.70	24776.91
439.89	24215.18
440.08	23943.68
440.26	23983.47
440.45	24620.10
440.63	26555.72
440.82	27716.62
441.01	27358.52
441.19	26808.50
441.38	27288.31
441.57	28559.22
441.75	28889.23
441.94	29280.10
442.12	28727.74
442.31	29390.11
442.50	29083.50
442.68	28830.72
442.87	28430.49
443.05	28332.18
443.24	28594.32
443.43	29195.84
443.61	29837.15
443.80	30087.59
443.98	28538.15
444.17	28208.14
444.35	29954.18
444.54	30543.99
444.73	29982.26
444.91	29134.99
445.10	27496.61
445.28	26857.65
445.47	26347.41
445.65	26338.05
445.84	27262.56
446.02	28072.39
446.21	28498.36
446.39	28135.58
446.58	28912.64
446.77	29202.86
446.95	29736.51
447.14	30213.98
447.32	30817.83
447.51	29802.04
447.69	29352.66
447.88	29116.26
448.06	29336.27
448.25	30099.29
448.43	30120.35
448.62	29343.30
448.80	29434.58
448.99	29638.20
449.17	29776.30
449.36	29226.27
449.54	30548.67
449.73	31426.37
449.91	31693.19
450.10	32760.48
450.28	33144.33
450.46	32971.13
450.65	32678.56
450.83	32886.87
451.02	31704.90
451.20	31999.80
451.39	32039.59
451.57	31412.33
451.76	31630.00
451.94	31412.33
452.13	30672.72
452.31	29413.51
452.49	27763.43
452.68	28467.94
452.86	28393.04
453.05	28886.89
453.23	29834.81
453.42	30504.20
453.60	31079.97
453.78	31094.02
453.97	30866.98
454.15	30972.31
454.34	30412.92
454.52	30361.43
454.70	29846.51
454.89	30717.19
455.07	30614.21
455.26	30995.71
455.44	31835.97
455.62	32439.82
455.81	32865.80
455.99	32231.52
456.17	32074.70
456.36	32023.21
456.54	32673.88
456.73	33048.36
456.91	33582.01
457.09	33942.45
457.28	34639.93
457.46	33006.23
457.64	32723.03
457.83	31945.97
458.01	31236.79
458.19	31630.00
458.38	31990.44
458.56	33476.68
458.74	32966.45
458.93	32531.11
459.11	32456.21
459.29	32208.11
459.48	32304.07
459.66	32194.07
459.84	32542.81
460.03	33214.54
460.21	33039.00
460.39	33661.58
460.57	33567.96
460.76	34146.08
460.94	34169.48
461.12	33516.47
461.31	33710.74
461.49	33621.80
461.67	33605.41
461.85	34714.83
462.04	34326.30
462.22	34953.56
462.40	34843.56
462.59	34319.28
462.77	34424.60
462.95	34871.64
463.13	34148.42
463.32	33699.03
463.50	33560.94
463.68	33790.31
463.86	33982.24
464.05	33305.82
464.23	32690.26
464.41	32559.19
464.59	32023.21
464.78	33446.26
464.96	33310.50
465.14	32678.56
465.32	33930.75
465.50	34548.65
465.69	34946.54
465.87	34422.26
466.05	33553.92
466.23	31913.20
466.41	31318.71
466.60	31927.25
466.78	32348.54
466.96	32760.48
467.14	32980.49
467.32	33724.78
467.51	33603.07
467.69	32479.61
467.87	33200.50
468.05	33277.74
468.23	33467.32
468.41	33582.01
468.60	33771.59
468.78	33883.94
468.96	33280.08
469.14	34066.50
469.32	34031.39
469.50	33174.75
469.69	32769.84
469.87	32671.54
470.05	32617.71
470.23	32683.24
470.41	32446.85
470.59	32844.74
470.77	33209.86
470.95	33830.10
471.14	34405.88
471.32	34094.58
471.50	36484.27
471.68	36421.08
471.86	36268.94
472.04	36882.16
472.22	36954.72
472.40	35475.50
472.58	34403.53
472.77	34078.20
472.95	34991.01
473.13	36046.59
473.31	34855.26
473.49	35103.35
473.67	35981.06
473.85	36098.08
474.03	36882.16
474.21	36858.76
474.39	37523.47
474.57	37909.66
474.75	37806.67
474.93	37251.97
475.12	36673.85
475.30	36570.87
475.48	36935.99
475.66	37471.98
475.84	37118.56
476.02	36533.42
476.20	35524.65
476.38	36605.98
476.56	37727.10
476.74	38419.89
476.92	38555.64
477.10	39089.29
477.28	40109.76
477.46	39964.65
477.64	40411.69
477.82	40807.24
478.00	40861.07
478.18	40067.63
478.36	39962.31
478.54	40196.36
478.72	40636.38
478.90	40821.28
479.08	42450.30
479.26	42595.41
479.44	42429.23
479.62	42586.05
479.80	42511.15
479.98	42351.99
480.16	42796.70
480.34	42553.28
480.52	43012.02
480.70	43107.99
480.88	42916.06
481.06	43938.88
481.24	44357.83
481.41	45179.36
481.59	45668.53
481.77	45441.50
481.95	44446.77
482.13	44704.23
482.31	44643.38
482.49	45221.49
482.67	45406.39
482.85	45420.44
483.03	46101.53
483.21	46162.39
483.39	46436.23
483.57	45752.79
483.74	45387.67
483.92	45535.12
484.10	45586.61
484.28	46649.22
484.46	47012.00
484.64	47648.63
484.82	46623.47
485.00	46241.96
485.18	45560.87
485.35	44282.94
485.53	40961.72
485.71	37853.48
485.89	36676.19
486.07	38862.26
486.25	41914.31
486.43	44596.57
486.61	45174.68
486.78	44933.60
486.96	45504.70
487.14	47063.49
487.32	47763.31
487.50	48633.99
487.68	49624.04
487.85	50234.92
488.03	50171.72
488.21	49755.11
488.39	48961.67
488.57	47943.53
488.75	48409.30
488.92	49240.19
489.10	51482.42
489.28	52662.05
489.46	53652.10
489.64	53352.51
489.81	53588.91
489.99	52978.03
490.17	53214.42
490.35	53588.91
490.53	52989.73
490.70	52659.71
490.88	52617.58
491.06	53567.84
491.24	53565.50
491.41	52608.22
491.59	50525.14
491.77	49661.49
491.95	51250.71
492.13	52135.43
492.30	53455.50
492.48	54475.97
492.66	54890.24
492.84	54892.58
493.01	54553.21
493.19	54073.40
493.37	53806.58
493.54	53425.07
493.72	54181.06
493.90	55281.11
494.08	55728.16
494.25	56229.03
494.43	56435.00
494.61	56772.03
494.79	56692.46
494.96	56493.51
495.14	55964.55
495.32	55033.02
495.49	54405.75
495.67	55456.65
495.85	56839.91
496.02	57169.93
496.20	56952.26
496.38	56287.54
496.55	56374.14
496.73	57062.26
496.91	56999.07
497.09	57544.41
497.26	57780.81
497.44	57132.48
497.62	56835.23
497.79	56257.12
497.97	54836.41
498.14	54976.84
498.32	56107.32
498.50	57158.22
498.67	57460.15
498.85	57441.43
499.03	57375.89
499.20	57387.60
499.38	57605.26
499.56	57511.64
499.73	57153.54
499.91	56687.78
500.08	56048.81
500.26	55730.50
500.44	56224.35
500.61	56860.97
500.79	56580.11
500.97	55868.59
501.14	55789.01
501.32	56018.38
501.49	55707.09
501.67	56154.13
501.84	56420.95
502.02	57013.11
502.20	57286.95
502.37	57389.94
502.55	57516.32
502.72	57921.24
502.90	58438.50
503.07	57975.07
503.25	57729.31
503.43	56863.32
503.60	56507.55
503.78	55470.70
503.95	55992.64
504.13	57406.32
504.30	58204.44
504.48	57762.08
504.65	57619.31
504.83	57703.57
505.01	58211.46
505.18	58738.08
505.36	59243.64
505.53	59171.08
505.71	59400.46
505.88	59580.68
506.06	58754.47
506.23	58548.50
506.41	57989.11
506.58	58377.64
506.76	58248.91
506.93	58333.17
507.11	58157.63
507.28	58159.97
507.46	57946.98
507.63	57359.51
507.81	57017.79
507.98	57158.22
508.16	57930.60
508.33	58621.06
508.50	58810.64
508.68	59175.76
508.85	59571.32
509.03	59363.01
509.20	59435.56
509.38	58653.82
509.55	58005.50
509.73	58035.92
509.90	58714.68
510.08	58827.02
510.25	58808.30
510.42	58408.07
510.60	58688.93
510.77	58752.13
510.95	59236.62
511.12	59400.46
511.30	59491.74
511.47	59817.07
511.64	59887.29
511.82	59435.56
511.99	58880.86
512.17	58497.01
512.34	58150.61
512.51	58410.41
512.69	58136.57
512.86	58489.99
513.04	58738.08
513.21	58831.71
513.38	58728.72
513.56	57785.49
513.73	57392.28
513.90	57844.00
514.08	57705.91
514.25	58103.80
514.43	58096.78
514.60	58330.83
514.77	58592.97
514.95	58621.06
515.12	58614.04
515.29	58576.59
515.47	59224.92
515.64	59309.18
515.81	58869.15
515.99	58396.37
516.16	56966.30
516.33	54930.03
516.51	53237.83
516.68	52491.19
516.85	51922.44
517.03	52289.91
517.20	55199.19
517.37	57516.32
517.54	58560.20
517.72	58277.00
517.89	55903.70
518.06	53296.34
518.24	53521.03
518.41	55796.03
518.58	57148.86
518.75	57343.12
518.93	57701.23
519.10	57392.28
519.27	57804.21
519.45	58255.93
519.62	58967.46
519.79	59021.29
519.96	58927.67
520.14	58342.53
520.31	57621.65
520.48	57420.36
520.65	58003.16
520.83	58892.56
521.00	59269.39
521.17	58850.43
521.34	58443.18
521.52	58920.65
521.69	59437.90
521.86	59842.82
522.03	59559.61
522.20	58312.11
522.38	57230.78
522.55	57190.99
522.72	58040.60
522.89	57883.79
523.07	58082.73
523.24	58532.12
523.41	59304.49
523.58	59807.71
523.75	60065.17
523.92	59971.55
524.10	59884.95
524.27	59987.93
524.44	59564.29
524.61	59433.22
524.78	59590.04
524.96	59332.58
525.13	59159.38
525.30	59271.73
525.47	60133.04
525.64	59812.39
525.81	59135.98
525.98	57715.27
526.16	56547.34
526.33	55763.26
526.50	55482.40
526.67	54979.18
526.84	55697.73
527.01	56697.14
527.18	57429.72
527.36	58159.97
527.53	59278.75
527.70	59505.78
527.87	58965.12
528.04	58578.93
528.21	59037.67
528.38	59346.62
528.55	60067.51
528.72	60360.08
528.89	60385.82
529.07	60170.49
529.24	59697.70
529.41	58890.22
529.58	58419.77
529.75	58611.70
529.92	58979.16
530.09	59360.67
530.26	59779.62
530.43	60123.68
530.60	60212.62
530.77	60245.39
530.94	60474.76
531.11	59971.55
531.28	59723.45
531.46	59379.39
531.63	59622.81
531.80	59641.53
531.97	59051.72
532.14	58316.79
532.31	57366.53
532.48	56732.25
532.65	56844.59
532.82	57598.24
532.99	58686.59
533.16	58995.54
533.33	59604.08
533.50	59515.14
533.67	58738.08
533.84	58267.64
534.01	58412.75
534.18	58693.61
534.35	58960.44
534.52	58794.26
534.69	58834.05
534.86	59075.12
535.03	59606.42
535.20	59903.67
535.37	60519.23
535.54	60313.26
535.71	60023.04
535.88	59594.72
536.05	59147.68
536.22	58883.20
536.38	58478.28
536.55	58237.21
536.72	57478.88
536.89	57317.38
537.06	58307.43
537.23	59150.02
537.40	59253.00
537.57	59309.18
537.74	59070.44
537.91	59084.48
538.08	58845.75
538.25	58986.18
538.42	59128.95
538.59	59107.89
538.75	58532.12
538.92	58066.35
539.09	58129.54
539.26	57694.21
539.43	57745.70
539.60	57607.61
539.77	57858.04
539.94	57668.46
540.11	57083.33
540.28	56575.43
540.44	56556.70
540.61	56872.68
540.78	57221.42
540.95	57677.82
541.12	58003.16
541.29	58150.61
541.46	58532.12
541.62	58518.07
541.79	58515.73
541.96	57755.06
542.13	57769.10
542.30	57822.93
542.47	58248.91
542.63	57921.24
542.80	57970.39
542.97	57804.21
543.14	57956.35
543.31	57914.22
543.48	58569.57
543.64	59150.02
543.81	59295.13
543.98	58965.12
544.15	58515.73
544.32	57724.63
544.48	58007.84
544.65	58284.02
544.82	58892.56
544.99	58569.57
545.16	58232.53
545.32	57813.57
545.49	58808.30
545.66	59084.48
545.83	58546.16
546.00	58396.37
546.16	58026.56
546.33	58117.84
546.50	58239.55
546.67	58702.98
546.83	58176.36
547.00	58113.16
547.17	57413.34
547.34	56863.32
547.50	56952.26
547.67	57176.95
547.84	57312.70
548.00	57722.29
548.17	57998.48
548.34	57968.05
548.51	58000.82
548.67	57963.37
548.84	58040.60
549.01	58038.26
549.18	58042.95
549.34	57841.66
549.51	57965.71
549.68	57858.04
549.84	57609.95
550.01	57654.42
550.18	57214.40
550.34	57368.87
550.51	57455.47
550.68	57668.46
550.84	57338.44
551.01	57013.11
551.18	57399.30
551.34	57399.30
551.51	58089.76
551.68	58183.38
551.84	58302.74
552.01	57848.68
552.18	57902.51
552.34	56947.57
552.51	56559.05
552.68	56486.49
552.84	57064.60
553.01	57137.16
553.18	57153.54
553.34	57378.23
553.51	57481.22
553.67	57701.23
553.84	57762.08
554.01	57834.64
554.17	57265.89
554.34	57408.66
554.51	57668.46
554.67	57946.98
554.84	57790.17
555.00	57371.21
555.17	57301.00
555.33	57235.46
555.50	57127.80
555.67	57205.03
555.83	57076.30
556.00	56659.69
556.16	56713.52
556.33	56324.99
556.50	56282.86
556.66	56467.76
556.83	55906.04
556.99	56156.47
557.16	56231.37
557.32	56465.42
557.49	56706.50
557.65	56699.48
557.82	56734.59
557.98	56573.09
558.15	56193.92
558.32	55215.58
558.48	54454.90
558.65	54541.50
558.81	54829.39
558.98	55327.92
559.14	55323.24
559.31	55697.73
559.47	55725.81
559.64	55194.51
559.80	54944.08
559.97	54918.33
560.13	55257.71
560.30	56294.56
560.46	56975.66
560.63	57235.46
560.79	57003.75
560.96	56486.49
561.12	55639.22
561.29	54688.96
561.45	54588.31
561.61	55386.44
561.78	55756.24
561.94	55786.67
562.11	55388.78
562.27	55365.37
562.44	55496.44
562.60	55751.56
562.77	56294.56
562.93	55997.32
563.10	56189.24
563.26	55468.36
563.42	55365.37
563.59	55105.57
563.75	55255.37
563.92	55210.90
564.08	55154.72
564.24	55484.74
564.41	55664.96
564.57	55260.05
564.74	55325.58
564.90	55246.00
565.07	54791.94
565.23	54368.30
565.39	54251.28
565.56	53776.15
565.72	53530.39
565.88	54272.34
566.05	54143.61
566.21	54438.52
566.38	54541.50
566.54	54300.43
566.70	54918.33
566.87	55206.22
567.03	55313.88
567.19	55440.27
567.36	54897.27
567.52	54724.07
567.68	54873.86
567.85	54431.50
568.01	53858.07
568.17	53141.86
568.34	53331.45
568.50	53406.34
568.66	53359.53
568.83	53680.19
568.99	53769.13
569.15	53998.50
569.32	54206.81
569.48	53841.68
569.64	53640.40
569.81	53167.61
569.97	53333.79
570.13	53160.59
570.30	52523.96
570.46	52463.11
570.62	51723.50
570.78	51576.04
570.95	52048.83
571.11	52507.58
571.27	52612.90
571.43	52949.94
571.60	53198.04
571.76	53404.00
571.92	53717.64
572.09	53895.52
572.25	53820.62
572.41	53778.49
572.57	53698.91
572.74	53951.69
572.90	53132.50
573.06	53333.79
573.22	53371.24
573.38	53176.97
573.55	53162.93
573.71	53518.69
573.87	53228.46
574.03	53380.60
574.20	53179.31
574.36	52736.95
574.52	52844.62
574.68	52666.73
574.84	52175.22
575.01	51625.20
575.17	51414.55
575.33	51812.44
575.49	52308.63
575.65	52278.21
575.82	52149.48
575.98	51765.63
576.14	52193.95
576.30	52575.45
576.46	52638.65
576.62	52530.98
576.79	52186.92
576.95	52025.43
577.11	51494.13
577.27	52168.20
577.43	52137.77
577.59	51620.52
577.75	51412.21
577.92	50567.27
578.08	50064.06
578.24	50438.54
578.40	51026.02
578.56	51360.72
578.72	51147.73
578.88	51269.43
579.04	51742.22
579.21	51463.70
579.37	51545.62
579.53	51779.67
579.69	51646.26
579.85	51562.00
580.01	51456.68
580.17	51201.56
580.33	51349.01
580.49	51248.37
580.65	51554.98
580.82	51838.18
580.98	51662.64
581.14	51360.72
581.30	51444.98
581.46	51470.72
581.62	51725.84
581.78	51831.16
581.94	51924.78
582.10	51885.00
582.26	51969.26
582.42	51779.67
582.58	51824.14
582.74	51700.09
582.90	52072.24
583.06	51849.89
583.22	51526.89
583.38	51531.57
583.54	51220.28
583.70	51241.35
583.86	51578.39
584.02	51234.33
584.18	51564.34
584.34	51299.86
584.50	51014.32
584.66	50885.59
584.82	50698.34
584.98	50719.41
585.14	50319.18
585.30	49780.85
