SpectraSuite Data File
++++++++++++++++++++++++++++++++++++
Date: Mon Oct 07 14:54:59 GMT-05:00 2013
User: price-jones
Dark Spectrum Present: No
Reference Spectrum Present: No
Number of Sampled Component Spectra: 1
Spectrometers: USB2+H05261
Integration Time (usec): 10000 (USB2+H05261)
Spectra Averaged: 1 (USB2+H05261)
Boxcar Smoothing: 0 (USB2+H05261)
Correct for Electrical Dark: No (USB2+H05261)
Strobe/Lamp Enabled: No (USB2+H05261)
Correct for Detector Non-linearity: No (USB2+H05261)
Correct for Stray Light: No (USB2+H05261)
Number of Pixels in Processed Spectrum: 2048
>>>>>Begin Processed Spectral Data<<<<<
365.73	0.00
365.92	0.00
366.12	0.00
366.32	0.00
366.52	0.00
366.72	0.00
366.91	0.00
367.11	0.00
367.31	0.00
367.51	0.00
367.70	0.00
367.90	0.00
368.10	0.00
368.30	0.00
368.49	0.00
368.69	0.00
368.89	0.00
369.09	0.00
369.28	0.00
369.48	0.00
369.68	0.00
369.87	0.00
370.07	0.00
370.27	0.00
370.47	0.00
370.66	812.17
370.86	936.21
371.06	976.00
371.25	1062.60
371.45	947.92
371.65	821.53
371.84	819.19
372.04	922.17
372.24	1004.09
372.44	917.49
372.63	898.77
372.83	884.72
373.03	800.46
373.22	753.65
373.42	814.51
373.62	999.41
373.81	987.71
374.01	1018.13
374.21	915.15
374.40	760.67
374.60	933.87
374.79	1018.13
374.99	1263.89
375.19	1310.70
375.38	1217.08
375.58	1188.99
375.78	1069.62
375.97	1249.85
376.17	1275.59
376.37	1153.88
376.56	1397.30
376.76	1434.75
376.95	1430.07
377.15	1633.69
377.35	1790.51
377.54	1694.55
377.74	1774.13
377.93	1734.34
378.13	1753.06
378.33	1523.69
378.52	1488.58
378.72	1458.15
378.91	1345.81
379.11	1348.15
379.31	1303.68
379.50	1331.76
379.70	1472.20
379.89	1631.35
380.09	1652.42
380.28	1657.10
380.48	1633.69
380.68	1640.72
380.87	1507.30
381.07	1446.45
381.26	1322.40
381.46	1242.82
381.65	1291.98
381.85	1137.50
382.04	1069.62
382.24	976.00
382.43	992.39
382.63	968.98
382.83	868.34
383.02	945.58
383.22	952.60
383.41	1011.11
383.61	1100.05
383.80	1287.29
384.00	1465.18
384.19	1626.67
384.39	1764.76
384.58	1671.14
384.78	1600.93
384.97	1678.16
385.17	1490.92
385.36	1467.52
385.56	1380.92
385.75	1469.86
385.95	1629.01
386.14	1680.50
386.34	1694.55
386.53	1577.52
386.72	1516.67
386.92	1680.50
387.11	1631.35
387.31	1776.47
387.50	1729.66
387.70	1577.52
387.89	1664.12
388.09	1617.31
388.28	1631.35
388.48	1645.40
388.67	1860.73
388.86	2071.37
389.06	2129.89
389.25	2345.22
389.45	2328.83
389.64	2303.09
389.84	2321.81
390.03	2193.08
390.22	2324.15
390.42	2452.88
390.61	2537.14
390.81	2661.19
391.00	2675.23
391.19	2572.25
391.39	2466.92
391.58	2293.72
391.78	2251.60
391.97	2050.31
392.16	2062.01
392.36	1771.79
392.55	1359.85
392.75	1067.28
392.94	868.34
393.13	929.19
393.33	1240.48
393.52	1504.96
393.71	1813.92
393.91	2108.82
394.10	2251.60
394.29	2392.03
394.49	2630.76
394.68	2771.19
394.88	2871.84
395.07	2848.43
395.26	2829.71
395.46	2705.66
395.65	2434.16
395.84	2242.23
396.04	1764.76
396.23	1516.67
396.42	1174.95
396.62	1170.27
396.81	1544.75
397.00	2026.90
397.19	2476.29
397.39	2988.86
397.58	3243.98
397.77	3431.23
397.97	3447.61
398.16	3552.93
398.35	3733.15
398.55	3875.93
398.74	3955.51
398.93	4070.19
399.12	3918.06
399.32	3894.65
399.51	3873.59
399.70	4131.05
399.90	4135.73
400.09	4131.05
400.28	3995.29
400.47	4109.98
400.67	4468.08
400.86	4440.00
401.05	4566.39
401.24	4432.97
401.44	4648.30
401.63	4531.28
401.82	4568.73
402.01	4660.01
402.21	4805.12
402.40	4744.27
402.59	4449.36
402.78	4421.27
402.97	4334.67
403.17	4554.68
403.36	4622.56
403.55	4568.73
403.74	4648.30
403.93	4456.38
404.13	4245.73
404.32	4346.37
404.51	4613.20
404.70	4734.90
404.89	4706.82
405.09	4585.11
405.28	4400.21
405.47	4538.30
405.66	4456.38
405.85	4315.95
406.05	4128.70
406.24	4355.74
406.43	4512.55
406.62	4592.13
406.81	4704.48
407.00	4428.29
407.20	4402.55
407.39	4428.29
407.58	4617.88
407.77	4933.85
407.96	4898.74
408.15	4980.66
408.34	5203.01
408.54	5416.00
408.73	5397.28
408.92	5238.12
409.11	4856.61
409.30	4779.37
409.49	4587.45
409.68	4201.26
409.87	4100.62
410.07	4526.60
410.26	4833.21
410.45	5060.24
410.64	5320.04
410.83	5521.32
411.02	5486.22
411.21	5774.10
411.40	5441.75
411.59	5610.26
411.78	5453.45
411.98	5437.06
412.17	5504.94
412.36	5247.48
412.55	5533.03
412.74	5270.89
412.93	5310.68
413.12	5446.43
413.31	5935.60
413.50	5818.57
413.69	5795.17
413.88	5521.32
414.07	5551.75
414.26	5699.20
414.45	5825.59
414.64	5790.49
414.83	5823.25
415.02	5731.97
415.22	5750.70
415.41	5987.09
415.60	6118.16
415.79	6363.92
415.98	6541.80
416.17	6471.58
416.36	6179.01
416.55	6092.41
416.74	5680.48
416.93	5741.33
417.12	5942.62
417.31	5940.28
417.50	5907.51
417.69	6183.70
417.88	6101.78
418.07	6298.38
418.26	5820.91
418.45	6216.46
418.64	6546.48
418.83	6520.73
419.02	6377.96
419.21	6331.15
419.39	5961.34
419.58	5579.84
419.77	5717.93
419.96	6083.05
420.15	6352.21
420.34	6518.39
420.53	6857.77
420.72	6927.99
420.91	6942.03
421.10	6604.99
421.29	6759.47
421.48	6640.10
421.67	6857.77
421.86	6312.42
422.05	5874.74
422.24	5439.40
422.43	5661.76
422.61	6258.59
422.80	6459.88
422.99	6317.11
423.18	6382.64
423.37	6204.76
423.56	6342.85
423.75	6186.04
423.94	6448.18
424.13	6066.67
424.32	6010.50
424.50	6167.31
424.69	6176.67
424.88	6223.48
425.07	6174.33
425.26	6118.16
425.45	6017.52
425.64	5942.62
425.83	6090.07
426.01	6242.21
426.20	6392.00
426.39	6340.51
426.58	5699.20
426.77	5474.51
426.96	5245.14
427.15	5544.73
427.33	5912.19
427.52	5921.56
427.71	6045.60
427.90	5954.32
428.09	5893.47
428.28	5776.44
428.46	5621.97
428.65	5678.14
428.84	5659.42
429.03	5710.91
429.22	5401.96
429.40	5013.43
429.59	4650.64
429.78	4053.81
429.97	4217.65
430.16	4219.99
430.34	4025.72
430.53	4273.82
430.72	4573.41
430.91	5177.26
431.10	5994.11
431.28	6862.45
431.47	7351.62
431.66	7330.56
431.85	6478.60
432.03	5916.87
432.22	5839.64
432.41	6244.55
432.60	6843.73
432.79	7176.08
432.97	7169.06
433.16	6876.49
433.35	6267.95
433.54	5654.73
433.72	5423.02
433.91	5596.22
434.10	6174.33
434.28	6670.53
434.47	7075.44
434.66	6822.66
434.85	6651.80
435.03	6822.66
435.22	6920.96
435.41	7428.86
435.59	7307.15
435.78	7353.96
435.97	7602.06
436.16	7393.75
436.34	7419.50
436.53	7115.23
436.72	7318.86
436.90	6740.74
437.09	6930.33
437.28	6731.38
437.46	6981.82
437.65	7035.65
437.84	6270.30
438.02	5991.77
438.21	6090.07
438.40	6296.04
438.58	6586.27
438.77	6918.62
438.96	6897.56
439.14	7492.05
439.33	7325.88
439.52	7515.46
439.70	7452.27
439.89	7178.42
440.08	7171.40
440.26	7211.19
440.45	7480.35
440.63	7995.27
440.82	8229.32
441.01	8177.83
441.19	8030.38
441.38	8224.64
441.57	8472.74
441.75	8138.04
441.94	8552.32
442.12	8526.57
442.31	8442.31
442.50	8676.37
442.68	8498.49
442.87	8498.49
443.05	8121.66
443.24	8688.07
443.43	8884.67
443.61	8748.92
443.80	8791.05
443.98	8313.58
444.17	8664.66
444.35	8769.99
444.54	8854.25
444.73	8821.48
444.91	8264.43
445.10	7992.93
445.28	7911.01
445.47	7714.41
445.65	7676.96
445.84	7941.44
446.02	8145.06
446.21	8341.67
446.39	8571.04
446.58	8643.60
446.77	8269.11
446.95	8547.64
447.14	9284.91
447.32	9266.18
447.51	8802.75
447.69	8388.48
447.88	8531.25
448.06	8662.32
448.25	8596.79
448.43	8645.94
448.62	8505.51
448.80	8594.45
448.99	8346.35
449.17	8601.47
449.36	8636.58
449.54	8973.61
449.73	9296.61
449.91	9348.10
450.10	9228.73
450.28	9640.67
450.46	9359.80
450.65	9312.99
450.83	9226.39
451.02	9301.29
451.20	9210.01
451.39	9092.98
451.57	9158.52
451.76	8966.59
451.94	8919.78
452.13	8718.50
452.31	8369.76
452.49	8276.13
452.68	8191.88
452.86	8409.54
453.05	8358.05
453.23	8655.30
453.42	9074.26
453.60	9109.36
453.78	8961.91
453.97	8877.65
454.15	9020.42
454.34	8781.69
454.52	8716.16
454.70	8650.62
454.89	8903.40
455.07	9015.74
455.26	9020.42
455.44	9312.99
455.62	9336.40
455.81	9329.38
455.99	9097.66
456.17	9114.05
456.36	9233.41
456.54	9542.36
456.73	9233.41
456.91	9280.22
457.09	9750.67
457.28	9837.27
457.46	9249.80
457.64	9376.19
457.83	9064.89
458.01	8865.95
458.19	9217.03
458.38	9158.52
458.56	9420.66
458.74	9488.53
458.93	9186.60
459.11	9287.25
459.29	9219.37
459.48	9179.58
459.66	9142.13
459.84	9104.68
460.03	9483.85
460.21	9345.76
460.39	9635.99
460.57	9600.88
460.76	9783.44
460.94	9563.43
461.12	9628.96
461.31	9493.21
461.49	9593.86
461.67	9511.94
461.85	10047.92
462.04	9708.54
462.22	9947.28
462.40	9633.64
462.59	9863.02
462.77	9717.90
462.95	9804.50
463.13	9635.99
463.32	9518.96
463.50	9373.85
463.68	9252.14
463.86	9420.66
464.05	9376.19
464.23	9144.47
464.41	9137.45
464.59	9195.96
464.78	9387.89
464.96	9317.67
465.14	9195.96
465.32	9317.67
465.50	9767.06
465.69	9942.60
465.87	9561.09
466.05	9107.02
466.23	8798.07
466.41	8430.61
466.60	8919.78
466.78	9100.00
466.96	9217.03
467.14	9263.84
467.32	9280.22
467.51	9039.15
467.69	8961.91
467.87	8657.64
468.05	9256.82
468.23	9317.67
468.41	9116.39
468.60	9315.33
468.78	9511.94
468.96	9320.01
469.14	9479.17
469.32	9710.88
469.50	8933.82
469.69	8865.95
469.87	9004.04
470.05	8854.25
470.23	8938.51
470.41	9004.04
470.59	9137.45
470.77	9210.01
470.95	9114.05
471.14	9418.32
471.32	9600.88
471.50	10174.31
471.68	9980.04
471.86	10097.07
472.04	10263.25
472.22	10113.45
472.40	9785.78
472.58	9568.11
472.77	9352.78
472.95	9486.19
473.13	9872.38
473.31	9493.21
473.49	9593.86
473.67	9694.50
473.85	9973.02
474.03	10281.97
474.21	10015.15
474.39	10258.57
474.57	10246.87
474.75	10237.50
474.93	10120.48
475.12	9788.12
475.30	9898.13
475.48	10038.56
475.66	10188.35
475.84	9848.97
476.02	10068.98
476.20	9706.20
476.38	9729.61
476.56	10342.83
476.74	10787.53
476.92	10345.17
477.10	10752.42
477.28	10738.38
477.46	10836.68
477.64	10822.64
477.82	10979.45
478.00	10897.53
478.18	10597.95
478.36	10590.92
478.54	10761.78
478.72	10717.31
478.90	11316.49
479.08	11524.80
479.26	11651.19
479.44	11646.51
479.62	11126.91
479.80	11379.68
479.98	11222.87
480.16	11412.45
480.34	11227.55
480.52	11515.44
480.70	11660.55
480.88	11538.84
481.06	12013.97
481.24	11854.81
481.41	12088.87
481.59	12322.92
481.77	11922.69
481.95	11997.59
482.13	12156.74
482.31	12283.13
482.49	12313.56
482.67	12358.03
482.85	12208.23
483.03	12348.67
483.21	12414.20
483.39	12123.98
483.57	12154.40
483.74	12465.69
483.92	12549.95
484.10	12196.53
484.28	12458.67
484.46	12624.85
484.64	12599.10
484.82	12170.79
485.00	12248.02
485.18	11887.58
485.35	11576.29
485.53	10607.31
485.71	9856.00
485.89	10118.14
486.07	10782.85
486.25	11035.63
486.43	11981.20
486.61	12159.08
486.78	11925.03
486.96	12013.97
487.14	12578.04
487.32	12755.92
487.50	13160.83
487.68	13252.11
487.85	13357.44
488.03	13549.36
488.21	13509.57
488.39	13050.83
488.57	13142.11
488.75	13099.98
488.92	14031.51
489.10	14342.80
489.28	14462.17
489.46	14810.91
489.64	14434.08
489.81	14904.53
489.99	14377.91
490.17	14698.56
490.35	15269.66
490.53	14635.37
490.70	14441.11
490.88	14511.32
491.06	15339.87
491.24	14757.08
491.41	14033.85
491.59	13659.37
491.77	13469.78
491.95	13923.85
492.13	14572.18
492.30	14799.21
492.48	15704.99
492.66	15761.17
492.84	16013.95
493.01	15772.87
493.19	15199.44
493.37	14794.53
493.54	14993.47
493.72	15548.18
493.90	15971.82
494.08	16088.84
494.25	15995.22
494.43	16425.88
494.61	17018.04
494.79	16568.65
494.96	16795.68
495.14	15480.30
495.32	15454.56
495.49	15768.19
495.67	16147.36
495.85	16802.71
496.02	16739.51
496.20	16350.98
496.38	15943.73
496.55	16105.23
496.73	16549.93
496.91	16587.38
497.09	17310.60
497.26	16840.15
497.44	16683.34
497.62	16428.22
497.79	15641.80
497.97	15293.06
498.14	15751.81
498.32	16816.75
498.50	16863.56
498.67	17301.24
498.85	17011.01
499.03	16800.37
499.20	17137.40
499.38	16627.17
499.56	17006.33
499.73	16870.58
499.91	16650.57
500.08	16407.16
500.26	16009.26
500.44	16463.33
500.61	16500.78
500.79	16058.42
500.97	15953.09
501.14	15761.17
501.32	15978.84
501.49	16154.38
501.67	16264.38
501.84	16245.66
502.02	16451.63
502.20	16428.22
502.37	16243.32
502.55	16528.86
502.72	16886.97
502.90	17186.55
503.07	17076.55
503.25	16320.56
503.43	15981.18
503.60	15625.42
503.78	15260.29
503.95	15267.31
504.13	16477.37
504.30	17172.51
504.48	16732.49
504.65	16491.41
504.83	16821.43
505.01	17357.41
505.18	17315.28
505.36	18031.49
505.53	17937.87
505.71	17668.70
505.88	17853.61
506.06	17298.90
506.23	17050.80
506.41	16833.13
506.58	17118.68
506.76	17202.94
506.93	17142.08
507.11	16992.29
507.28	16837.81
507.46	16318.22
507.63	16524.18
507.81	16152.04
507.98	16554.61
508.16	16718.45
508.33	16931.44
508.50	17422.95
508.68	17572.74
508.85	17886.37
509.03	17830.20
509.20	17247.41
509.38	16585.04
509.55	16341.62
509.73	16662.27
509.90	17135.06
510.08	16610.78
510.25	16552.27
510.42	16362.69
510.60	16994.63
510.77	17013.35
510.95	17331.67
511.12	17090.59
511.30	17532.95
511.47	17415.93
511.64	17717.86
511.82	16589.72
511.99	16475.03
512.17	16236.30
512.34	16678.66
512.51	16147.36
512.69	16257.36
512.86	16376.73
513.04	16915.05
513.21	16531.20
513.38	16224.59
513.56	15845.43
513.73	16023.31
513.90	16264.38
514.08	15859.47
514.25	16187.14
514.43	16245.66
514.60	16898.67
514.77	16329.92
514.95	16332.26
515.12	16505.46
515.29	16718.45
515.47	16365.03
515.64	17481.46
515.81	16999.31
515.99	16575.67
516.16	15475.62
516.33	14305.35
516.51	13312.97
516.68	12826.14
516.85	12568.68
517.03	12896.35
517.20	14310.04
517.37	16065.44
517.54	16390.77
517.72	15346.89
517.89	13994.06
518.06	13444.04
518.24	14033.85
518.41	15112.84
518.58	15667.55
518.75	15754.15
518.93	15805.64
519.10	15681.59
519.27	16145.02
519.45	16306.51
519.62	16240.98
519.79	16594.40
519.96	16542.91
520.14	15742.44
520.31	15447.54
520.48	15487.32
520.65	15419.45
520.83	16610.78
521.00	16833.13
521.17	16657.59
521.34	16428.22
521.52	16645.89
521.69	17259.11
521.86	16924.41
522.03	16676.32
522.20	15779.89
522.38	15515.41
522.55	15838.41
522.72	15772.87
522.89	15391.36
523.07	15957.77
523.24	16837.81
523.41	16526.52
523.58	16919.73
523.75	16517.16
523.92	17188.89
524.10	17270.81
524.27	17053.14
524.44	16748.87
524.61	16568.65
524.78	16191.83
524.96	16444.60
525.13	16617.80
525.30	16585.04
525.47	16599.08
525.64	16404.81
525.81	15777.55
525.98	14780.48
526.16	14553.45
526.33	13645.32
526.50	13771.71
526.67	14012.79
526.84	14228.12
527.01	15115.18
527.18	15339.87
527.36	16105.23
527.53	16489.07
527.70	15957.77
527.87	15733.08
528.04	15789.25
528.21	16128.63
528.38	16526.52
528.55	16844.84
528.72	16821.43
528.89	16746.53
529.07	16645.89
529.24	16446.94
529.41	15513.07
529.58	15611.37
529.75	15676.91
529.92	16081.82
530.09	16126.29
530.26	16145.02
530.43	16095.86
530.60	16451.63
530.77	16807.39
530.94	16648.23
531.11	16133.31
531.28	16121.61
531.46	15903.94
531.63	15880.53
531.80	15901.60
531.97	16070.12
532.14	15007.52
532.31	14291.31
532.48	14354.51
532.65	14855.38
532.82	15136.24
532.99	15941.39
533.16	15946.07
533.33	16322.90
533.50	15782.23
533.67	15644.14
533.84	15412.43
534.01	15087.09
534.18	15342.21
534.35	15873.51
534.52	15513.07
534.69	16051.39
534.86	15906.28
535.03	16528.86
535.20	16109.91
535.37	16358.00
535.54	16409.50
535.71	16379.07
535.88	16194.17
536.05	15866.49
536.22	15859.47
536.38	15391.36
536.55	14766.44
536.72	14661.12
536.89	15030.92
537.06	15108.16
537.23	15332.85
537.40	15555.20
537.57	15807.98
537.74	15623.08
537.91	15239.23
538.08	15382.00
538.25	15557.54
538.42	15407.75
538.59	15328.17
538.75	14986.45
538.92	15061.35
539.09	14200.03
539.26	14345.14
539.43	14424.72
539.60	14501.96
539.77	14352.16
539.94	14593.24
540.11	14354.51
540.28	13926.19
540.44	13617.24
540.61	13823.20
540.78	14052.58
540.95	14927.94
541.12	14717.29
541.29	14841.34
541.46	14288.97
541.62	14600.26
541.79	14298.33
541.96	14178.97
542.13	14225.78
542.30	14703.25
542.47	14693.88
542.63	14274.93
542.80	14073.64
542.97	13940.23
543.14	14106.41
543.31	14043.21
543.48	14251.52
543.64	14806.23
543.81	14813.25
543.98	14485.58
544.15	14516.00
544.32	14005.77
544.48	14380.25
544.65	14761.76
544.82	14530.05
544.99	14134.50
545.16	14377.91
545.32	14225.78
545.49	14492.60
545.66	14956.02
545.83	14923.26
546.00	14546.43
546.16	14483.24
546.33	14548.77
546.50	14476.21
546.67	14960.70
546.83	14764.10
547.00	14441.11
547.17	14022.15
547.34	14017.47
547.50	13865.33
547.67	13818.52
547.84	14197.69
548.00	14272.59
548.17	14188.33
548.34	14071.30
548.51	13914.48
548.67	14071.30
548.84	14768.78
549.01	14618.99
549.18	14274.93
549.34	14303.01
549.51	14188.33
549.68	13998.74
549.84	14061.94
550.01	14043.21
550.18	14216.41
550.34	13994.06
550.51	13607.87
550.68	13806.82
550.84	13694.47
551.01	14043.21
551.18	14160.24
551.34	14204.71
551.51	13905.12
551.68	14300.67
551.84	14221.10
552.01	14078.32
552.18	13458.08
552.34	13315.31
552.51	13343.39
552.68	13362.12
552.84	13310.63
553.01	13441.70
553.18	13493.19
553.34	13657.03
553.51	13490.85
553.67	13575.11
553.84	13760.01
554.01	13598.51
554.17	13820.86
554.34	14024.49
554.51	13963.64
554.67	14312.38
554.84	13799.80
555.00	13858.31
555.17	13809.16
555.33	14097.05
555.50	13795.12
555.67	13598.51
555.83	13748.31
556.00	13118.70
556.16	13074.23
556.33	12723.15
556.50	13132.75
556.66	12765.28
556.83	12886.99
556.99	13057.85
557.16	12856.56
557.32	13078.91
557.49	13535.32
557.65	13160.83
557.82	13151.47
557.98	12903.37
558.15	12856.56
558.32	12320.58
558.48	12138.02
558.65	12166.10
558.81	12219.94
558.98	12339.30
559.14	12636.55
559.31	12856.56
559.47	12929.12
559.64	12343.99
559.80	12219.94
559.97	12023.33
560.13	12582.72
560.30	13453.40
560.46	13673.41
560.63	13947.25
560.79	13696.82
560.96	12905.71
561.12	12510.16
561.29	11990.56
561.45	12369.73
561.61	12189.51
561.78	12329.94
561.94	12231.64
562.11	12432.93
562.27	12568.68
562.44	12943.16
562.60	12849.54
562.77	12730.17
562.93	12683.36
563.10	12908.05
563.26	12470.37
563.42	12285.47
563.59	12222.28
563.75	12400.16
563.92	12608.47
564.08	12355.69
564.24	12257.39
564.41	11854.81
564.57	12020.99
564.74	12039.72
564.90	12121.63
565.07	11953.12
565.23	11665.23
565.39	11747.15
565.56	11768.21
565.72	11786.94
565.88	11730.76
566.05	12072.48
566.21	11674.59
566.38	11609.06
566.54	11985.88
566.70	11925.03
566.87	12056.10
567.03	12332.28
567.19	12320.58
567.36	11950.78
567.52	11992.90
567.68	11580.97
567.85	11328.19
568.01	11360.96
568.17	10977.11
568.34	10972.43
568.50	11222.87
568.66	11325.85
568.83	11311.81
568.99	11297.77
569.15	11056.69
569.32	11164.36
569.48	11597.35
569.64	11445.22
569.81	11351.60
569.97	11424.15
570.13	11241.59
570.30	11138.61
570.46	10714.97
570.62	10401.34
570.78	10429.43
570.95	10651.78
571.11	11073.07
571.27	11084.78
571.43	11222.87
571.60	11304.79
571.76	11382.03
571.92	11389.05
572.09	11524.80
572.25	11194.78
572.41	11503.73
572.57	11571.61
572.74	11297.77
572.90	11283.72
573.06	11304.79
573.22	11424.15
573.38	11742.47
573.55	11360.96
573.71	11342.24
573.87	11129.25
574.03	11047.33
574.20	10808.59
574.36	10717.31
574.52	10808.59
574.68	10754.76
574.84	10593.26
575.01	10445.81
575.17	10202.40
575.33	10363.89
575.49	10520.71
575.65	10384.96
575.82	10368.57
575.98	10494.96
576.14	10368.57
576.30	10752.42
576.46	10595.61
576.62	10560.50
576.79	10462.19
576.95	10455.17
577.11	10691.57
577.27	10513.69
577.43	10724.33
577.59	10569.86
577.75	10499.64
577.92	10373.25
578.08	10157.92
578.24	10073.67
578.40	10054.94
578.56	10076.01
578.72	10047.92
578.88	9989.41
579.04	10134.52
579.21	10359.21
579.37	10349.85
579.53	9963.66
579.69	10141.54
579.85	10190.69
580.01	9947.28
580.17	10132.18
580.33	10492.62
580.49	10651.78
580.65	10200.05
580.82	10221.12
580.98	10031.54
581.14	9834.93
581.30	10312.40
581.46	10436.45
581.62	10307.72
581.78	10677.52
581.94	10677.52
582.10	10478.58
582.26	10420.06
582.42	10253.89
582.58	10661.14
582.74	10291.34
582.90	10509.01
583.06	10787.53
583.22	10665.82
583.38	10436.45
583.54	10277.29
583.70	10490.28
583.86	10441.13
584.02	10270.27
584.18	10408.36
584.34	10328.78
584.50	10602.63
584.66	10462.19
584.82	9914.51
584.98	9853.66
585.14	9675.77
585.30	9530.66
585.46	9425.34
585.62	9694.50
585.78	9767.06
585.94	9736.63
586.10	9820.89
586.26	9963.66
586.42	10122.82
586.58	9858.34
586.74	9788.12
586.90	9680.46
587.06	9858.34
587.22	9423.00
587.38	9359.80
587.54	9504.92
587.70	9240.44
587.86	9137.45
588.02	9373.85
588.18	8896.38
588.34	8521.89
588.49	8259.75
588.65	7957.82
588.81	7616.10
588.97	8058.46
589.13	7983.57
589.29	8002.29
589.45	8414.23
589.61	8554.66
589.77	8854.25
589.93	8727.86
