SpectraSuite Data File
++++++++++++++++++++++++++++++++++++
Date: Mon Oct 07 14:54:57 GMT-05:00 2013
User: price-jones
Dark Spectrum Present: No
Reference Spectrum Present: No
Number of Sampled Component Spectra: 1
Spectrometers: USB2+H05261
Integration Time (usec): 10000 (USB2+H05261)
Spectra Averaged: 1 (USB2+H05261)
Boxcar Smoothing: 0 (USB2+H05261)
Correct for Electrical Dark: No (USB2+H05261)
Strobe/Lamp Enabled: No (USB2+H05261)
Correct for Detector Non-linearity: No (USB2+H05261)
Correct for Stray Light: No (USB2+H05261)
Number of Pixels in Processed Spectrum: 2048
>>>>>Begin Processed Spectral Data<<<<<
365.73	0.00
365.92	0.00
366.12	0.00
366.32	0.00
366.52	0.00
366.72	0.00
366.91	0.00
367.11	0.00
367.31	0.00
367.51	0.00
367.70	0.00
367.90	0.00
368.10	0.00
368.30	0.00
368.49	0.00
368.69	0.00
368.89	0.00
369.09	0.00
369.28	0.00
369.48	0.00
369.68	0.00
369.87	0.00
370.07	0.00
370.27	0.00
370.47	222.35
370.66	2190.74
370.86	2558.21
371.06	2736.09
371.25	2698.64
371.45	2448.20
371.65	2293.72
371.84	2097.12
372.04	2321.81
372.24	2478.63
372.44	2560.55
372.63	2422.45
372.83	2162.66
373.03	2019.88
373.22	1895.83
373.42	2118.18
373.62	2450.54
373.81	2534.80
374.01	2363.94
374.21	2054.99
374.40	1977.75
374.60	2265.64
374.79	2605.02
374.99	2967.80
375.19	3197.17
375.38	2984.18
375.58	2848.43
375.78	2953.76
375.97	2932.69
376.17	2995.89
376.37	3187.81
376.56	3061.42
376.76	3290.79
376.95	3522.51
377.15	3702.73
377.35	3962.53
377.54	4241.05
377.74	4170.83
377.93	4257.43
378.13	3964.87
378.33	3798.69
378.52	3482.72
378.72	3471.01
378.91	3382.07
379.11	3265.05
379.31	3084.83
379.50	3180.79
379.70	3679.32
379.89	3861.88
380.09	3978.91
380.28	4156.79
380.48	4208.28
380.68	3997.64
380.87	3866.56
381.07	3590.38
381.26	3176.11
381.46	3211.22
381.65	3007.59
381.85	2885.88
382.04	2736.09
382.24	2569.91
382.43	2471.61
382.63	2490.33
382.83	2452.88
383.02	2523.10
383.22	2352.24
383.41	2429.48
383.61	2708.00
383.80	3108.23
384.00	3730.81
384.19	4002.32
384.39	4060.83
384.58	4138.07
384.78	3967.21
384.97	3810.39
385.17	3768.26
385.36	3559.95
385.56	3389.10
385.75	3651.24
385.95	3873.59
386.14	4306.59
386.34	4145.09
386.53	3918.06
386.72	3735.50
386.92	4009.34
387.11	4077.21
387.31	4170.83
387.50	4049.13
387.70	3934.44
387.89	3913.38
388.09	3896.99
388.28	4039.76
388.48	4152.11
388.67	4535.96
388.86	4947.89
389.06	5188.97
389.25	5465.15
389.45	5628.99
389.64	5516.64
389.84	5383.23
390.03	5378.55
390.22	5345.78
390.42	5706.23
390.61	6125.18
390.81	6331.15
391.00	6429.45
391.19	6312.42
391.39	5944.96
391.58	5746.02
391.78	5359.83
391.97	5060.24
392.16	4912.78
392.36	4149.77
392.55	3260.37
392.75	2612.04
392.94	2200.10
393.13	2366.28
393.33	3138.66
393.52	3936.78
393.71	4383.82
393.91	4971.30
394.10	5561.11
394.29	6045.60
394.49	6384.98
394.68	6738.40
394.88	6848.41
395.07	6883.52
395.26	6782.87
395.46	6406.05
395.65	6036.24
395.84	5261.52
396.04	4205.94
396.23	3405.48
396.42	2881.20
396.62	3176.11
396.81	3904.01
397.00	4926.83
397.19	5916.87
397.39	6890.54
397.58	7798.66
397.77	8049.10
397.97	8699.77
398.16	8638.92
398.35	8877.65
398.55	9266.18
398.74	9488.53
398.93	9469.81
399.12	9488.53
399.32	9142.13
399.51	9584.49
399.70	10113.45
399.90	9706.20
400.09	9507.26
400.28	10097.07
400.47	10232.82
400.67	10520.71
400.86	10885.83
401.05	10628.37
401.24	10604.97
401.44	10789.87
401.63	10916.26
401.82	10761.78
402.01	10768.80
402.21	11012.22
402.40	11012.22
402.59	10621.35
402.78	10099.41
402.97	10223.46
403.17	10569.86
403.36	11119.89
403.55	11475.65
403.74	11360.96
403.93	10911.58
404.13	10094.73
404.32	10160.27
404.51	10759.44
404.70	11510.75
404.89	11201.80
405.09	11318.83
405.28	10827.32
405.47	11138.61
405.66	10626.03
405.85	10464.54
406.05	10317.08
406.24	10462.19
406.43	10855.40
406.62	11157.33
406.81	11150.31
407.00	10867.11
407.20	10541.77
407.39	10991.16
407.58	11463.94
407.77	11943.75
407.96	12154.40
408.15	12449.31
408.34	12425.90
408.54	12908.05
408.73	13022.74
408.92	12744.22
409.11	11988.22
409.30	11660.55
409.49	10885.83
409.68	10370.91
409.87	10249.21
410.07	11171.38
410.26	11815.02
410.45	12489.10
410.64	12730.17
410.83	13319.99
411.02	13418.29
411.21	13666.39
411.40	13345.73
411.59	13385.52
411.78	13528.30
411.98	13764.69
412.17	13764.69
412.36	13671.07
412.55	13387.86
412.74	13139.77
412.93	12879.97
413.12	13254.45
413.31	14312.38
413.50	14396.64
413.69	14310.04
413.88	13619.58
414.07	13860.65
414.26	14244.50
414.45	14338.12
414.64	14349.82
414.83	14258.54
415.02	14214.07
415.22	14406.00
415.41	14768.78
415.60	15105.82
415.79	15623.08
415.98	15960.11
416.17	15543.50
416.36	15372.64
416.55	15122.20
416.74	14604.94
416.93	14356.85
417.12	14406.00
417.31	14668.14
417.50	14670.48
417.69	15276.68
417.88	15398.38
418.07	14927.94
418.26	15019.22
418.45	15283.70
418.64	15552.86
418.83	16098.20
419.02	16238.64
419.21	15665.21
419.39	15063.69
419.58	14375.57
419.77	14546.43
419.96	15073.05
420.15	15985.86
420.34	16404.81
420.53	16908.03
420.72	16982.93
420.91	16844.84
421.10	16732.49
421.29	16563.97
421.48	16489.07
421.67	16793.34
421.86	15461.58
422.05	14654.09
422.24	13661.71
422.43	14015.13
422.61	15564.56
422.80	16437.58
422.99	16058.42
423.18	15499.03
423.37	15648.82
423.56	15714.36
423.75	15929.69
423.94	16056.08
424.13	15180.71
424.32	15094.11
424.50	15257.95
424.69	15445.20
424.88	15307.10
425.07	15140.93
425.26	15742.44
425.45	14944.32
425.64	14986.45
425.83	15393.70
426.01	16105.23
426.20	16470.35
426.39	15716.70
426.58	14410.68
426.77	13259.13
426.96	13493.19
427.15	14134.50
427.33	15094.11
427.52	15353.91
427.71	15824.36
427.90	15183.06
428.09	15101.14
428.28	14850.70
428.46	14366.21
428.65	13965.98
428.84	14817.93
429.03	14668.14
429.22	13767.03
429.40	12894.01
429.59	11882.90
429.78	10583.90
429.97	10630.71
430.16	10700.93
430.34	10752.42
430.53	11012.22
430.72	11405.43
430.91	12966.57
431.10	15400.72
431.28	17685.09
431.47	18487.89
431.66	18209.37
431.85	16006.92
432.03	14874.10
432.22	15276.68
432.41	16278.43
432.60	17216.98
432.79	17839.56
432.97	18075.96
433.16	17233.36
433.35	15662.86
433.54	14331.10
433.72	14057.26
433.91	14993.47
434.10	16610.78
434.28	17359.75
434.47	17975.31
434.66	17429.97
434.85	16917.39
435.03	17635.94
435.22	17757.64
435.41	18307.67
435.59	18604.92
435.78	19080.05
435.97	19625.39
436.16	19080.05
436.34	19075.37
436.53	18953.66
436.72	18572.15
436.90	17877.01
437.09	17872.33
437.28	18214.05
437.46	18230.43
437.65	17769.35
437.84	16107.57
438.02	15379.66
438.21	15838.41
438.40	16568.65
438.58	17832.54
438.77	18153.20
438.96	18539.38
439.14	19293.04
439.33	19274.31
439.52	19555.18
439.70	18761.73
439.89	18567.47
440.08	18417.68
440.26	18679.82
440.45	19414.74
440.63	20868.22
440.82	21645.27
441.01	20954.82
441.19	21039.08
441.38	21355.05
441.57	21926.14
441.75	22214.02
441.94	22689.15
442.12	21963.59
442.31	22483.19
442.50	22558.08
442.68	22391.91
442.87	21914.44
443.05	21935.50
443.24	22410.63
443.43	22888.10
443.61	22651.70
443.80	23208.75
443.98	22476.16
444.17	22862.35
444.35	23641.75
444.54	23569.19
444.73	23187.69
444.91	22022.10
445.10	21231.00
445.28	20383.73
445.47	20432.88
445.65	20428.20
445.84	20985.24
446.02	21666.34
446.21	22492.55
446.39	21961.25
446.58	22239.77
446.77	23297.69
446.95	23330.46
447.14	23466.21
447.32	24250.29
447.51	22981.72
447.69	22600.21
447.88	22448.08
448.06	22951.29
448.25	22946.61
448.43	22890.44
448.62	22845.97
448.80	22319.35
448.99	22565.10
449.17	23197.05
449.36	23758.78
449.54	23854.74
449.73	23885.17
449.91	24634.14
450.10	25174.80
450.28	25507.16
450.46	25406.52
450.65	25055.43
450.83	24856.49
451.02	24514.77
451.20	24112.20
451.39	24276.04
451.57	24655.20
451.76	24643.50
451.94	24051.34
452.13	23293.01
452.31	21994.01
452.49	21783.37
452.68	22651.70
452.86	22080.61
453.05	22494.89
453.23	23302.37
453.42	23892.19
453.60	24512.43
453.78	24381.36
453.97	23737.71
454.15	24095.82
454.34	23349.18
454.52	23538.77
454.70	23257.90
454.89	23264.92
455.07	23136.20
455.26	24086.45
455.44	25053.09
455.62	25745.89
455.81	25380.77
455.99	24940.75
456.17	24978.20
456.36	25617.16
456.54	26085.27
456.73	25563.33
456.91	26281.88
457.09	26394.22
457.28	26412.95
457.46	25422.90
457.64	25053.09
457.83	25200.55
458.01	24643.50
458.19	25144.38
458.38	24819.04
458.56	24884.58
458.74	25455.67
458.93	25041.39
459.11	25331.62
459.29	24959.47
459.48	25118.63
459.66	24414.13
459.84	24842.45
460.03	25385.45
460.21	25160.76
460.39	26426.99
460.57	26082.93
460.76	26829.56
460.94	26719.56
461.12	26096.97
461.31	26178.89
461.49	25759.94
461.67	25848.88
461.85	27124.47
462.04	26867.01
462.22	26925.52
462.40	27178.30
462.59	26948.93
462.77	26948.93
462.95	26867.01
463.13	26567.42
463.32	26223.36
463.50	25984.63
463.68	26195.28
463.86	26810.84
464.05	25844.20
464.23	25034.37
464.41	24917.34
464.59	25046.07
464.78	26445.71
464.96	25568.01
465.14	25743.55
465.32	26696.15
465.50	27260.22
465.69	27197.02
465.87	26515.93
466.05	25326.94
466.23	24472.64
466.41	24524.13
466.60	25607.80
466.78	25064.80
466.96	24931.39
467.14	25666.31
467.32	26178.89
467.51	26071.23
467.69	25132.67
467.87	25006.28
468.05	25933.14
468.23	25797.38
468.41	25919.09
468.60	25759.94
468.78	26061.87
468.96	26256.13
469.14	26455.08
469.32	26558.06
469.50	25755.26
469.69	25088.20
469.87	24767.55
470.05	25291.83
470.23	25238.00
470.41	25558.65
470.59	26132.08
470.77	26192.94
470.95	26719.56
471.14	27143.19
471.32	26787.43
471.50	28596.67
471.68	28205.80
471.86	28587.30
472.04	28819.02
472.22	28460.91
472.40	27583.21
472.58	27159.58
472.77	26387.20
472.95	28013.87
473.13	28025.57
473.31	27037.87
473.49	27807.90
473.67	27754.07
473.85	27374.91
474.03	28088.77
474.21	27969.40
474.39	28744.12
474.57	28919.66
474.75	29717.78
474.93	28376.66
475.12	28727.74
475.30	28753.48
475.48	28156.64
475.66	28559.22
475.84	27756.41
476.02	28400.06
476.20	28224.52
476.38	28898.59
476.56	29495.43
476.74	29668.63
476.92	29942.47
477.10	30005.67
477.28	30686.76
477.46	30806.13
477.64	31583.19
477.82	31482.55
478.00	31667.45
478.18	31328.07
478.36	31597.23
478.54	31077.63
478.72	31098.70
478.90	32732.39
479.08	33069.43
479.26	32889.21
479.44	32676.22
479.62	33219.22
479.80	32947.72
479.98	33242.63
480.16	33544.56
480.34	32907.93
480.52	33450.94
480.70	33663.93
480.88	33455.62
481.06	34529.92
481.24	34368.43
481.41	35536.35
481.59	36203.41
481.77	35232.08
481.95	33970.54
482.13	34391.83
482.31	34176.50
482.49	34902.07
482.67	34747.59
482.85	35948.29
483.03	35625.29
483.21	36474.91
483.39	36613.00
483.57	36751.09
483.74	36046.59
483.92	35894.46
484.10	36154.26
484.28	36549.81
484.46	36758.11
484.64	37233.24
484.82	36357.88
485.00	36095.74
485.18	34813.13
485.35	33315.19
485.53	30396.54
485.71	28538.15
485.89	29525.86
486.07	30721.87
486.25	32779.20
486.43	35276.55
486.61	35676.79
486.78	35199.32
486.96	35398.26
487.14	36856.42
487.32	37940.08
487.50	39583.14
487.68	38993.32
487.85	40825.96
488.03	40851.71
488.21	39278.87
488.39	37874.55
488.57	37937.74
488.75	38408.19
488.92	40467.86
489.10	43578.43
489.28	42625.84
489.46	43641.63
489.64	43934.20
489.81	43517.58
489.99	43297.57
490.17	43875.68
490.35	44584.86
490.53	43138.41
490.70	43236.72
490.88	43498.86
491.06	44383.58
491.24	44179.95
491.41	41682.60
491.59	40767.45
491.77	41020.23
491.95	41991.55
492.13	43302.25
492.30	45254.26
492.48	45680.24
492.66	45895.56
492.84	45083.40
493.01	44425.71
493.19	44072.29
493.37	43999.73
493.54	44392.94
493.72	45738.75
493.90	46419.84
494.08	47255.42
494.25	48404.62
494.43	48069.92
494.61	47983.32
494.79	48282.91
494.96	47943.53
495.14	46536.87
495.32	45315.11
495.49	45612.36
495.67	47262.44
495.85	49179.34
496.02	49516.37
496.20	48767.40
496.38	48123.75
496.55	48769.74
496.73	49350.20
496.91	49064.65
497.09	49914.26
497.26	50101.51
497.44	50293.43
497.62	49090.40
497.79	47370.10
497.97	45904.93
498.14	45902.59
498.32	47959.92
498.50	48811.87
498.67	49249.55
498.85	49422.75
499.03	49874.48
499.20	50426.84
499.38	49944.69
499.56	49626.38
499.73	48846.98
499.91	47875.66
500.08	46429.21
500.26	46321.54
500.44	47756.29
500.61	48603.56
500.79	47856.93
500.97	46892.63
501.14	46286.43
501.32	46419.84
501.49	46541.55
501.67	46773.27
501.84	47356.06
502.02	48280.57
502.20	48795.49
502.37	49399.35
502.55	49895.54
502.72	49954.05
502.90	50967.51
503.07	49860.43
503.25	49815.96
503.43	48402.28
503.60	47772.67
503.78	47213.29
503.95	48678.46
504.13	49799.58
504.30	50813.03
504.48	50438.54
504.65	49911.92
504.83	50167.04
505.01	49474.24
505.18	50501.74
505.36	52018.41
505.53	52184.58
505.71	52397.57
505.88	51873.29
506.06	51129.00
506.23	50000.86
506.41	50087.46
506.58	50948.78
506.76	50925.38
506.93	51152.41
507.11	49158.27
507.28	50192.79
507.46	49830.01
507.63	49216.78
507.81	48200.99
507.98	48699.53
508.16	50520.46
508.33	51168.79
508.50	51028.36
508.68	51938.83
508.85	52425.66
509.03	51938.83
509.20	50836.44
509.38	50693.66
509.55	49705.96
509.73	50787.28
509.90	50398.76
510.08	50267.69
510.25	49687.23
510.42	49818.30
510.60	50773.24
510.77	51491.79
510.95	52170.54
511.12	51215.60
511.30	51217.94
511.47	52058.20
511.64	52320.34
511.82	51676.69
511.99	50700.68
512.17	50796.65
512.34	50012.57
512.51	49324.45
512.69	50171.72
512.86	50703.03
513.04	51351.35
513.21	51817.12
513.38	49895.54
513.56	49755.11
513.73	49797.24
513.90	49684.89
514.08	49752.77
514.25	50557.91
514.43	50632.81
514.60	49942.35
514.77	49579.57
514.95	49649.78
515.12	50281.73
515.29	51554.98
515.47	52002.02
515.64	51318.59
515.81	51735.20
515.99	50450.25
516.16	47550.32
516.33	44694.87
516.51	43283.53
516.68	41670.90
516.85	42085.17
517.03	43779.72
517.20	47419.25
517.37	49743.41
517.54	49890.86
517.72	47945.87
517.89	44561.46
518.06	43917.81
518.24	45635.77
518.41	48266.53
518.58	49237.85
518.75	49310.41
518.93	49698.94
519.10	49811.28
519.27	49958.73
519.45	50356.63
519.62	51636.90
519.79	51868.61
519.96	50972.19
520.14	50302.79
520.31	49612.34
520.48	49282.32
520.65	49282.32
520.83	50925.38
521.00	50681.96
521.17	50866.86
521.34	50878.57
521.52	51571.36
521.69	51924.78
521.86	51662.64
522.03	51063.47
522.20	49619.36
522.38	48404.62
522.55	48631.65
522.72	48942.94
522.89	49776.17
523.07	50089.80
523.24	50696.00
523.41	51742.22
523.58	51253.05
523.75	50665.58
523.92	52229.05
524.10	52285.23
524.27	51711.80
524.44	51889.68
524.61	51540.94
524.78	52041.81
524.96	52245.44
525.13	52575.45
525.30	52523.96
525.47	52449.06
525.64	52212.67
525.81	50026.61
525.98	48453.77
526.16	47077.54
526.33	46965.19
526.50	46756.88
526.67	47086.90
526.84	47171.16
527.01	47767.99
527.18	49120.82
527.36	50160.02
527.53	51454.34
527.70	51550.30
527.87	50164.70
528.04	50330.88
528.21	51697.75
528.38	53102.07
528.55	53469.54
528.72	53371.24
528.89	52954.62
529.07	52280.55
529.24	51487.10
529.41	51105.60
529.58	50033.63
529.75	50604.72
529.92	50829.41
530.09	52165.86
530.26	51714.14
530.43	51821.80
530.60	52186.92
530.77	53179.31
530.94	53682.53
531.11	52198.63
531.28	52477.15
531.46	52741.63
531.63	52530.98
531.80	51973.94
531.97	50614.08
532.14	50204.49
532.31	48758.04
532.48	47779.70
532.65	47501.17
532.82	49429.77
532.99	50653.87
533.16	51903.72
533.33	52112.03
533.50	51882.66
533.67	50244.28
533.84	49647.44
534.01	50759.20
534.18	50752.18
534.35	50658.56
534.52	50686.64
534.69	50857.50
534.86	50321.52
535.03	52392.89
535.20	51913.08
535.37	51950.53
535.54	53366.55
535.71	52631.63
535.88	52662.05
536.05	50667.92
536.22	51058.79
536.38	50539.19
536.55	50003.20
536.72	49200.40
536.89	49195.72
537.06	50557.91
537.23	51786.69
537.40	50864.52
537.57	51028.36
537.74	50515.78
537.91	50733.45
538.08	51468.38
538.25	51583.07
538.42	50438.54
538.59	50089.80
538.75	50546.21
538.92	50260.66
539.09	49949.37
539.26	48832.94
539.43	48109.71
539.60	49413.39
539.77	48481.86
539.94	47634.58
540.11	46923.06
540.28	46508.79
540.44	46902.00
540.61	47229.67
540.78	47639.26
540.95	49528.08
541.12	49532.76
541.29	51224.96
541.46	50305.13
541.62	50553.23
541.79	48727.61
541.96	48982.73
542.13	51023.68
542.30	50714.73
542.47	50337.90
542.63	49638.08
542.80	49041.24
542.97	48608.25
543.14	48327.38
543.31	49013.16
543.48	50611.74
543.64	50824.73
543.81	51505.83
543.98	50349.60
544.15	48832.94
544.32	49090.40
544.48	49778.51
544.65	48973.37
544.82	50614.08
544.99	49916.61
545.16	49530.42
545.32	49378.28
545.49	49940.01
545.66	51323.27
545.83	50227.90
546.00	49172.31
546.16	50394.07
546.33	50031.29
546.50	49970.44
546.67	49507.01
546.83	48128.44
547.00	49277.64
547.17	47765.65
547.34	48086.31
547.50	48177.59
547.67	49294.02
547.84	48776.76
548.00	49710.64
548.17	48921.88
548.34	48992.09
548.51	49277.64
548.67	49968.10
548.84	49621.70
549.01	50754.52
549.18	49572.55
549.34	50550.89
549.51	50204.49
549.68	50052.36
549.84	48542.71
550.01	49188.70
550.18	49277.64
550.34	48685.48
550.51	48828.26
550.68	47676.71
550.84	46295.80
551.01	47140.73
551.18	47283.50
551.34	47943.53
551.51	48435.05
551.68	50342.58
551.84	49478.92
552.01	47215.63
552.18	47889.70
552.34	46394.10
552.51	47150.09
552.68	48535.69
552.84	48893.79
553.01	48758.04
553.18	49621.70
553.34	50206.83
553.51	49581.91
553.67	48463.13
553.84	49656.81
554.01	49219.13
554.17	47012.00
554.34	48442.07
554.51	50550.89
554.67	50389.39
554.84	49401.69
555.00	49029.54
555.17	47985.66
555.33	47550.32
555.50	48680.80
555.67	47800.76
555.83	47739.91
556.00	47325.63
556.16	48158.86
556.33	48273.55
556.50	47889.70
556.66	47290.52
556.83	46476.02
556.99	46934.76
557.16	46054.72
557.32	47620.54
557.49	46885.61
557.65	47688.42
557.82	46000.89
557.98	46361.33
558.15	47482.45
558.32	46410.48
558.48	44619.97
558.65	44210.38
558.81	45731.73
558.98	45944.72
559.14	46499.42
559.31	47531.60
559.47	46880.93
559.64	47519.90
559.80	48556.75
559.97	47089.24
560.13	46986.25
560.30	48402.28
560.46	48041.84
560.63	48062.90
560.79	47784.38
560.96	46433.89
561.12	45118.51
561.29	46005.57
561.45	45710.66
561.61	45642.79
561.78	46300.48
561.94	45476.61
562.11	44767.43
562.27	45722.37
562.44	46564.96
562.60	45652.15
562.77	45296.39
562.93	46307.50
563.10	45844.07
563.26	45029.57
563.42	44163.57
563.59	44172.93
563.75	45375.97
563.92	46396.44
564.08	45968.12
564.24	45841.73
564.41	44287.62
564.57	44350.81
564.74	44825.94
564.90	43470.77
565.07	42876.27
565.23	42843.51
565.39	43152.46
565.56	44472.52
565.72	44402.30
565.88	44615.29
566.05	43990.37
566.21	43166.50
566.38	42827.12
566.54	43442.68
566.70	42824.78
566.87	43409.92
567.03	44947.65
567.19	45656.83
567.36	43789.08
567.52	45549.17
567.68	44685.51
567.85	44304.00
568.01	44091.01
568.17	42499.45
568.34	41907.29
568.50	42188.16
568.66	43213.31
568.83	42883.30
568.99	43473.11
569.15	43459.07
569.32	43562.05
569.48	42745.20
569.64	42422.21
569.81	42480.72
569.97	42323.91
570.13	42784.99
570.30	41553.87
570.46	40198.70
570.62	38775.66
570.78	38614.16
570.95	39751.66
571.11	41134.92
571.27	42110.92
571.43	41876.86
571.60	43257.78
571.76	42340.29
571.92	42375.40
572.09	43587.80
572.25	44320.38
572.41	44858.71
572.57	44488.90
572.74	42646.90
572.90	42342.63
573.06	41523.44
573.22	42174.11
573.38	42543.92
573.55	42356.67
573.71	42897.34
573.87	42637.54
574.03	41593.66
574.20	41464.93
574.36	41825.37
574.52	41118.53
574.68	40348.50
574.84	40222.11
575.01	40526.38
575.17	40849.37
575.33	41015.55
575.49	40713.62
575.65	41378.33
575.82	40477.22
575.98	40355.52
576.14	41488.34
576.30	41097.47
576.46	39683.78
576.62	42139.00
576.79	42398.80
576.95	41434.50
577.11	39896.77
577.27	40210.40
577.43	39552.71
577.59	39625.27
577.75	40547.44
577.92	39260.15
578.08	38024.34
578.24	37972.85
578.40	39089.29
578.56	39517.60
578.72	40465.52
578.88	41631.11
579.04	39697.83
579.21	39440.37
579.37	40769.79
579.53	40105.08
579.69	39894.43
579.85	39194.61
580.01	38899.70
580.17	39735.27
580.33	39793.79
580.49	39868.69
580.65	40561.48
580.82	40336.79
580.98	39690.80
581.14	39662.72
581.30	40175.30
581.46	39761.02
581.62	39651.02
581.78	40376.58
581.94	40554.46
582.10	40631.70
582.26	40978.10
582.42	39435.69
582.58	41064.70
582.74	40233.81
582.90	39297.59
583.06	39700.17
583.22	39185.25
583.38	39852.30
583.54	39653.36
583.70	40268.92
583.86	40182.32
584.02	40828.30
584.18	40971.08
584.34	41532.81
584.50	42230.29
584.66	40961.72
584.82	39449.73
584.98	38979.28
585.14	37907.32
585.30	36786.20
