SpectraSuite Data File
++++++++++++++++++++++++++++++++++++
Date: Mon Oct 07 14:53:36 GMT-05:00 2013
User: price-jones
Dark Spectrum Present: No
Reference Spectrum Present: No
Number of Sampled Component Spectra: 1
Spectrometers: USB2+H05261
Integration Time (usec): 100000 (USB2+H05261)
Spectra Averaged: 1 (USB2+H05261)
Boxcar Smoothing: 0 (USB2+H05261)
Correct for Electrical Dark: No (USB2+H05261)
Strobe/Lamp Enabled: No (USB2+H05261)
Correct for Detector Non-linearity: No (USB2+H05261)
Correct for Stray Light: No (USB2+H05261)
Number of Pixels in Processed Spectrum: 2048
>>>>>Begin Processed Spectral Data<<<<<
365.73	0.00
365.92	0.00
366.12	0.00
366.32	0.00
366.52	0.00
366.72	0.00
366.91	0.00
367.11	0.00
367.31	0.00
367.51	0.00
367.70	0.00
367.90	0.00
368.10	0.00
368.30	0.00
368.49	0.00
368.69	0.00
368.89	0.00
369.09	0.00
369.28	0.00
369.48	0.00
369.68	0.00
369.87	0.00
370.07	0.00
370.27	0.00
370.47	704.50
370.66	3386.76
370.86	4131.05
371.06	4568.73
371.25	4526.60
371.45	4107.64
371.65	3756.56
371.84	3417.18
372.04	3630.17
372.24	3960.19
372.44	4395.53
372.63	4187.22
372.83	3927.42
373.03	3447.61
373.22	3192.49
373.42	3386.76
373.62	3833.80
373.81	4269.14
374.01	4248.07
374.21	3740.18
374.40	3335.26
374.60	3548.25
374.79	4016.36
374.99	4601.49
375.19	5142.16
375.38	5301.31
375.58	4908.10
375.78	4805.12
375.97	4819.16
376.17	5221.74
376.37	5053.22
376.56	5207.69
376.76	5497.92
376.95	5795.17
377.15	6291.36
377.35	6595.63
377.54	6806.28
377.74	6970.12
377.93	6890.54
378.13	6759.47
378.33	6441.15
378.52	6003.47
378.72	5514.30
378.91	5568.13
379.11	5322.38
379.31	5315.36
379.50	5132.79
379.70	5385.57
379.89	6307.74
380.09	6668.19
380.28	7012.24
380.48	6864.79
380.68	6862.45
380.87	6548.82
381.07	6033.90
381.26	5692.18
381.46	5214.71
381.65	5156.20
381.85	5109.39
382.04	4737.24
382.24	4376.80
382.43	4163.81
382.63	4234.03
382.83	4212.96
383.02	4147.43
383.22	4159.13
383.41	4177.86
383.61	4266.80
383.80	4938.53
384.00	5795.17
384.19	6408.39
384.39	6724.36
384.58	6906.92
384.78	6530.09
384.97	6590.95
385.17	6078.37
385.36	5916.87
385.56	5839.64
385.75	5921.56
385.95	6239.87
386.14	6871.81
386.34	6853.09
386.53	6499.67
386.72	6279.66
386.92	6436.47
387.11	6817.98
387.31	6850.75
387.50	6885.86
387.70	6679.89
387.89	6483.28
388.09	6541.80
388.28	6635.42
388.48	6696.27
388.67	7316.51
388.86	7803.35
389.06	8477.42
389.25	8950.21
389.45	8950.21
389.64	9057.87
389.84	8863.61
390.03	8805.10
390.22	8603.81
390.42	9022.77
390.61	9521.30
390.81	10331.12
391.00	10445.81
391.19	10354.53
391.39	10024.51
391.58	9537.68
391.78	8851.91
391.97	8746.58
392.16	8273.79
392.36	7386.73
392.55	5996.45
392.75	4802.78
392.94	3857.20
393.13	3758.90
393.33	4425.95
393.52	5717.93
393.71	7016.93
393.91	7990.59
394.10	8753.60
394.29	9387.89
394.49	9980.04
394.68	11082.44
394.88	11000.52
395.07	11286.06
395.26	11379.68
395.46	11213.51
395.65	10544.11
395.84	8943.19
396.04	7733.13
396.23	6359.24
396.42	5149.18
396.62	5078.96
396.81	5912.19
397.00	7466.31
397.19	9130.43
397.39	11169.04
397.58	12685.70
397.77	13282.54
397.97	13816.18
398.16	13905.12
398.35	14499.62
398.55	14782.82
398.74	15435.83
398.93	15807.98
399.12	15426.47
399.32	14857.72
399.51	15377.32
399.70	16336.94
399.90	16219.91
400.09	16222.25
400.28	16004.58
400.47	16065.44
400.67	17043.78
400.86	17572.74
401.05	17579.76
401.24	17312.94
401.44	17699.13
401.63	17701.47
401.82	18036.17
402.01	17692.11
402.21	18092.34
402.40	18026.81
402.59	17872.33
402.78	16858.88
402.97	16379.07
403.17	16732.49
403.36	17706.15
403.55	18602.58
403.74	19295.38
403.93	17998.72
404.13	16922.07
404.32	16311.19
404.51	17083.57
404.70	18534.70
404.89	18380.23
405.09	18438.74
405.28	17411.25
405.47	17731.90
405.66	17528.27
405.85	17212.30
406.05	16858.88
406.24	16833.13
406.43	17474.44
406.62	18335.76
406.81	18363.84
407.00	17483.80
407.20	17301.24
407.39	17516.57
407.58	18071.28
407.77	19084.73
407.96	19435.81
408.15	19494.32
408.34	19814.98
408.54	20709.06
408.73	20912.69
408.92	20360.32
409.11	19805.61
409.30	18874.08
409.49	17951.91
409.68	16769.94
409.87	16301.83
410.07	17238.05
410.26	18347.46
410.45	19756.46
410.64	20484.37
410.83	21060.14
411.02	21294.19
411.21	22436.38
411.40	22052.53
411.59	22050.19
411.78	21823.16
411.98	21481.44
412.17	22094.66
412.36	21530.59
412.55	21743.58
412.74	21413.56
412.93	20760.55
413.12	21277.81
413.31	23030.87
413.50	23119.81
413.69	23623.03
413.88	22373.18
414.07	22008.06
414.26	22401.27
414.45	23033.21
414.64	22904.48
414.83	23112.79
415.02	22761.71
415.22	22693.83
415.41	23012.15
415.60	23688.56
415.79	24545.20
415.98	25535.24
416.17	25624.18
416.36	24940.75
416.55	24444.56
416.74	23594.94
416.93	22995.76
417.12	23159.60
417.31	23285.99
417.50	23946.02
417.69	24170.71
417.88	24313.48
418.07	24180.07
418.26	23777.50
418.45	24170.71
418.64	24765.21
418.83	25830.15
419.02	25359.70
419.21	25135.01
419.39	24034.96
419.58	22890.44
419.77	23108.11
419.96	23864.10
420.15	25678.02
420.34	26139.10
420.53	27030.85
420.72	27470.87
420.91	27445.12
421.10	26939.57
421.29	26223.36
421.48	25607.80
421.67	26761.69
421.86	26354.43
422.05	24753.51
422.24	22005.72
422.43	21654.64
422.61	23962.40
422.80	25834.83
422.99	26485.50
423.18	25043.73
423.37	24741.80
423.56	24851.81
423.75	25146.72
423.94	25748.23
424.13	24217.52
424.32	24463.28
424.50	24425.83
424.69	24240.93
424.88	24189.44
425.07	23967.09
425.26	23917.93
425.45	24084.11
425.64	23473.23
425.83	23641.75
426.01	24692.65
426.20	25736.53
426.39	25607.80
426.58	23695.58
426.77	21830.18
426.96	20737.15
427.15	21495.48
427.33	23534.09
427.52	24390.72
427.71	24484.34
427.90	24402.43
428.09	23931.98
428.28	23349.18
428.46	22918.53
428.65	22237.43
428.84	23232.16
429.03	23463.87
429.22	22225.73
429.40	21149.08
429.59	19208.78
429.78	16971.22
429.97	16919.73
430.16	17247.41
430.34	17043.78
430.53	17270.81
430.72	17165.49
430.91	19735.40
431.10	22888.10
431.28	26796.79
431.47	28811.99
431.66	29596.07
431.85	26679.77
432.03	24769.89
432.22	23737.71
432.41	24837.76
432.60	27019.14
432.79	28458.57
432.97	28926.68
433.16	28570.92
433.35	25900.37
433.54	23278.97
433.72	22111.04
433.91	22527.66
434.10	24856.49
434.28	27033.19
434.47	28102.81
434.66	27721.30
434.85	27393.63
435.03	26897.44
435.22	27697.90
435.41	29530.54
435.59	29364.36
435.78	29546.92
435.97	30881.03
436.16	30728.89
436.34	30611.87
436.53	29614.80
436.72	29502.45
436.90	28287.71
437.09	28121.54
437.28	27302.35
437.46	28484.32
437.65	28535.81
437.84	26576.78
438.02	24519.45
438.21	23985.81
438.40	25642.91
438.58	27716.62
438.77	28547.51
438.96	29003.92
439.14	30162.48
439.33	30658.68
439.52	31330.41
439.70	30756.98
439.89	29867.58
440.08	29355.00
440.26	28865.83
440.45	30050.14
440.63	31992.78
440.82	33298.80
441.01	33104.54
441.19	32734.73
441.38	33149.01
441.57	34382.47
441.75	34836.53
441.94	35321.02
442.12	34752.27
442.31	35639.34
442.50	35363.15
442.68	35330.39
442.87	34899.73
443.05	34232.68
443.24	34658.65
443.43	35058.88
443.61	36339.16
443.80	36463.21
443.98	34597.80
444.17	34558.01
444.35	36275.96
444.54	37134.94
444.73	36765.14
444.91	34862.28
445.10	33844.15
445.28	32285.35
445.47	31725.96
445.65	32034.91
445.84	32765.16
446.02	34508.86
446.21	34752.27
446.39	34834.19
446.58	35297.62
446.77	35494.22
446.95	35941.27
447.14	37329.20
447.32	37909.66
447.51	36856.42
447.69	35693.17
447.88	34677.38
448.06	35360.81
448.25	36271.28
448.43	36238.51
448.62	35971.69
448.80	35510.61
448.99	35739.98
449.17	35796.15
449.36	36151.91
449.54	37504.74
449.73	38127.33
449.91	39105.67
450.10	39552.71
450.28	39959.97
450.46	39821.87
450.65	39854.64
450.83	39789.11
451.02	38534.58
451.20	38609.48
451.39	38452.66
451.57	38253.72
451.76	38366.06
451.94	37972.85
452.13	37193.45
452.31	35672.10
452.49	34068.84
452.68	34452.69
452.86	34560.35
453.05	34941.86
453.23	35985.74
453.42	36629.38
453.60	37841.78
453.78	37729.44
453.97	37706.03
454.15	37745.82
454.34	36610.66
454.52	37156.00
454.70	36395.33
454.89	37064.72
455.07	36802.58
455.26	37528.15
455.44	39145.46
455.62	39686.12
455.81	40025.50
455.99	39297.59
456.17	38962.90
456.36	38843.53
456.54	40512.33
456.73	40058.27
456.91	40786.18
457.09	40968.74
457.28	41820.69
457.46	39868.69
457.64	39662.72
457.83	38822.47
458.01	37509.43
458.19	38665.65
458.38	39068.22
458.56	40297.00
458.74	40252.53
458.93	39746.98
459.11	39215.68
459.29	38873.96
459.48	39297.59
459.66	38565.01
459.84	39475.48
460.03	40308.71
460.21	39948.26
460.39	41001.50
460.57	40863.41
460.76	41167.68
460.94	41612.38
461.12	40664.47
461.31	41001.50
461.49	40755.75
461.67	40697.24
461.85	42653.92
462.04	41574.94
462.22	42373.06
462.40	42506.47
462.59	42010.28
462.77	42115.60
462.95	41996.23
463.13	41308.11
463.32	41464.93
463.50	41038.95
463.68	41172.36
463.86	41085.76
464.05	40414.03
464.23	39665.06
464.41	39550.37
464.59	38717.14
464.78	41050.66
464.96	40643.40
465.14	40198.70
465.32	41099.81
465.50	42103.90
465.69	42567.32
465.87	41614.72
466.05	40334.45
466.23	38848.21
466.41	38064.13
466.60	39526.97
466.78	39222.70
466.96	39648.68
467.14	40259.55
467.32	40905.54
467.51	40856.39
467.69	38689.06
467.87	40025.50
468.05	40737.02
468.23	40376.58
468.41	40755.75
468.60	40992.14
468.78	41109.17
468.96	40612.98
469.14	41727.07
469.32	41900.27
469.50	39655.70
469.69	40509.99
469.87	39480.16
470.05	39484.84
470.23	39342.06
470.41	39688.46
470.59	39871.03
470.77	40353.18
470.95	40968.74
471.14	41600.68
471.32	41848.78
471.50	43882.70
471.68	44149.53
471.86	44196.34
472.04	44432.73
472.22	44528.69
472.40	42712.44
472.58	42363.70
472.77	41635.79
472.95	42672.65
473.13	43622.90
473.31	42532.22
473.49	42822.44
473.67	43585.46
473.85	43896.75
474.03	44767.43
474.21	44797.85
474.39	45113.83
474.57	45762.15
474.75	45682.58
474.93	45354.90
475.12	44282.94
475.30	44140.16
475.48	44053.56
475.66	44912.54
475.84	44119.10
476.02	44409.32
476.20	43512.90
476.38	44690.19
476.56	45574.91
476.74	46328.56
476.92	46279.41
477.10	46869.23
477.28	47915.45
477.46	48018.43
477.64	48523.99
477.82	48378.87
478.00	48940.60
478.18	47929.49
478.36	48367.17
478.54	47995.03
478.72	47913.11
478.90	48837.62
479.08	50127.25
479.26	50639.83
479.44	50483.01
479.62	50288.75
479.80	50234.92
479.98	50536.85
480.16	50342.58
480.34	49984.48
480.52	50859.84
480.70	50859.84
480.88	50688.98
481.06	51332.63
481.24	51604.13
481.41	52547.37
481.59	52996.75
481.77	52889.09
481.95	52175.22
482.13	52147.14
482.31	52317.99
482.49	52657.37
482.67	52526.30
482.85	52669.08
483.03	53607.63
483.21	53616.99
483.39	53872.11
483.57	53153.57
483.74	52729.93
483.92	53134.84
484.10	53130.16
484.28	53827.64
484.46	53911.90
484.64	54262.98
484.82	53535.07
485.00	53134.84
485.18	53148.88
485.35	51980.96
485.53	48861.02
485.71	45415.76
485.89	44414.01
486.07	46576.66
486.25	49954.05
486.43	52128.41
486.61	52697.16
486.78	52610.56
486.96	52963.98
487.14	53879.13
487.32	54850.45
487.50	55491.76
487.68	56062.85
487.85	56521.60
488.03	56528.62
488.21	56093.28
488.39	55634.53
488.57	55091.53
488.75	54829.39
488.92	55700.07
489.10	57291.63
489.28	58436.16
489.46	59084.48
489.64	58700.64
489.81	59199.17
489.99	58639.78
490.17	58616.38
490.35	59187.47
490.53	58548.50
490.70	58335.51
490.88	58309.77
491.06	58997.88
491.24	59168.74
491.41	58115.50
491.59	56973.32
491.77	56013.70
491.95	57064.60
492.13	58108.48
492.30	59133.63
492.48	59927.08
492.66	60404.55
492.84	60329.65
493.01	60067.51
493.19	59788.98
493.37	59405.14
493.54	59084.48
493.72	59643.87
493.90	60381.14
494.08	61188.63
494.25	61375.87
494.43	61476.51
494.61	61858.02
494.79	61965.68
494.96	61743.33
495.14	61251.82
495.32	60486.46
495.49	59763.24
495.67	60985.00
495.85	61886.10
496.02	62255.91
496.20	62169.31
496.38	61883.76
496.55	61829.93
496.73	62286.34
496.91	62181.01
497.09	62562.52
497.26	62742.74
497.44	62234.84
497.62	61930.58
497.79	61432.04
497.97	60067.51
498.14	60430.29
498.32	61181.60
498.50	62145.90
498.67	62714.65
498.85	62478.26
499.03	62635.08
499.20	62803.59
499.38	62791.89
499.56	62752.10
499.73	62152.93
499.91	62049.94
500.08	61600.56
500.26	60966.27
500.44	61492.89
500.61	61972.70
500.79	61694.18
500.97	61389.91
501.14	61373.53
501.32	61137.13
501.49	61324.38
501.67	61492.89
501.84	61818.23
502.02	61972.70
502.20	62319.10
502.37	62557.84
502.55	62426.77
502.72	63159.36
502.90	63437.88
503.07	63047.01
503.25	62798.91
503.43	62042.92
503.60	61542.05
503.78	60949.89
503.95	61095.00
504.13	62485.28
504.30	63339.58
504.48	63009.56
504.65	62766.15
504.83	62632.74
505.01	63157.02
505.18	63636.83
505.36	64196.21
505.53	64156.42
505.71	64453.67
505.88	64603.47
506.06	63847.47
506.23	63501.07
506.41	63185.10
506.58	63414.47
506.76	63531.50
506.93	63590.01
507.11	63283.40
507.28	63250.64
507.46	63016.58
507.63	62293.36
507.81	62295.70
507.98	62625.71
508.16	62937.01
508.33	63465.97
508.50	63861.52
508.68	64093.23
508.85	64535.59
509.03	64357.71
509.20	64406.86
509.38	63767.90
509.55	62993.18
509.73	63217.87
509.90	63786.62
510.08	63945.78
510.25	63868.54
510.42	63566.61
510.60	63398.09
510.77	63786.62
510.95	64427.93
511.12	64329.62
511.30	64584.74
511.47	64945.18
511.64	64795.39
511.82	64617.51
511.99	63856.84
512.17	63557.25
512.34	63065.73
512.51	63395.75
512.69	63454.26
512.86	63374.69
513.04	64034.72
513.21	63915.35
513.38	63498.73
513.56	63016.58
513.73	62731.04
513.90	63000.20
514.08	62981.48
514.25	63206.17
514.43	63332.56
514.60	63482.35
514.77	63660.23
514.95	63704.70
515.12	63568.95
515.29	63767.90
515.47	64250.05
515.64	64381.12
515.81	63931.73
515.99	63599.38
516.16	62375.28
516.33	60317.95
516.51	58953.41
516.68	58543.82
516.85	58192.74
517.03	58431.47
517.20	60533.28
517.37	62738.06
517.54	63742.15
517.72	63409.79
517.89	61286.93
518.06	59077.46
518.24	59143.00
518.41	61226.07
518.58	62358.89
518.75	62557.84
518.93	62717.00
519.10	62560.18
519.27	63140.63
519.45	63316.17
519.62	64008.97
519.79	64252.39
519.96	64109.61
520.14	63704.70
520.31	62864.45
520.48	62941.69
520.65	63157.02
520.83	63966.84
521.00	64301.54
521.17	64175.15
521.34	63674.27
521.52	64034.72
521.69	64427.93
521.86	64788.37
522.03	64390.48
522.20	63643.85
522.38	62520.39
522.55	62452.51
522.72	63180.42
522.89	63309.15
523.07	63360.64
523.24	63749.17
523.41	64397.50
523.58	64914.76
523.75	65158.17
523.92	64947.53
524.10	64872.63
524.27	64999.02
524.44	64718.15
524.61	64615.17
524.78	64493.46
524.96	64397.50
525.13	64233.66
525.30	64624.53
525.47	65024.76
525.64	64912.42
525.81	64308.56
525.98	63039.99
526.16	61797.16
526.33	61181.60
526.50	60987.34
526.67	60446.68
526.84	61242.46
527.01	61925.89
527.18	62834.02
527.36	63472.99
527.53	64226.64
527.70	64519.21
527.87	64015.99
528.04	63501.07
528.21	64175.15
528.38	64526.23
528.55	65186.26
528.72	65336.05
528.89	65450.74
529.07	65300.95
529.24	64718.15
529.41	64191.53
529.58	63465.97
529.75	63634.48
529.92	64116.64
530.09	64456.01
530.26	64886.67
530.43	65141.79
530.60	65186.26
530.77	65347.76
530.94	65506.91
531.11	65226.05
531.28	64661.98
531.46	64486.44
531.63	64671.34
531.80	64661.98
531.97	64226.64
532.14	63620.44
532.31	62724.02
532.48	62087.39
532.65	62021.86
532.82	62693.59
532.99	63756.19
533.16	64177.49
533.33	64608.15
533.50	64507.50
533.67	63920.03
533.84	63639.17
534.01	63627.46
534.18	63667.25
534.35	64018.33
534.52	63903.65
534.69	64053.44
534.86	64348.35
535.03	64697.09
535.20	64933.48
535.37	65443.72
535.54	65469.46
535.71	65237.75
535.88	64872.63
536.05	64282.81
536.22	64044.08
536.38	63646.19
536.55	63164.04
536.72	62768.49
536.89	62623.37
537.06	63627.46
537.23	64266.43
537.40	64346.01
537.57	64306.22
537.74	64247.71
537.91	64130.68
538.08	64111.95
538.25	64114.29
538.42	64327.28
538.59	64238.34
538.75	63657.89
538.92	63543.20
539.09	63290.43
539.26	63121.91
539.43	62979.14
539.60	63114.89
539.77	63210.85
539.94	63051.69
540.11	62630.40
540.28	62012.49
540.44	62071.01
540.61	62316.76
540.78	62452.51
540.95	62904.24
541.12	63206.17
541.29	63444.90
541.46	63592.36
541.62	63767.90
541.79	63667.25
541.96	62983.82
542.13	63072.76
542.30	63215.53
542.47	63519.80
542.63	63285.75
542.80	62887.85
542.97	63117.23
543.14	62967.43
543.31	62960.41
543.48	63353.62
543.64	64228.98
543.81	64617.51
543.98	64467.72
544.15	64011.31
544.32	63192.12
544.48	63217.87
544.65	63791.30
544.82	64062.80
544.99	63669.59
545.16	63381.71
545.32	63133.61
545.49	63819.39
545.66	64133.02
545.83	63678.96
546.00	63660.23
546.16	63252.98
546.33	63341.92
546.50	63377.03
546.67	63889.60
546.83	63281.06
547.00	63393.41
547.17	62873.81
547.34	62436.13
547.50	62148.24
547.67	62644.44
547.84	62630.40
548.00	62993.18
548.17	63365.32
548.34	63402.77
548.51	63477.67
548.67	63482.35
548.84	63510.44
549.01	63604.06
549.18	63374.69
549.34	63360.64
549.51	63208.51
549.68	63142.97
549.84	63025.95
550.01	62876.15
550.18	62859.77
550.34	62845.72
550.51	62972.11
550.68	63135.95
550.84	62763.81
551.01	62599.97
551.18	62649.12
551.34	62974.45
551.51	63220.21
551.68	63505.76
551.84	63489.37
552.01	63215.53
552.18	63110.20
552.34	62386.98
552.51	62197.40
552.68	61965.68
552.84	62606.99
553.01	62639.76
553.18	62609.33
553.34	62571.88
553.51	62901.90
553.67	63025.95
553.84	63250.64
554.01	63075.10
554.17	62857.43
554.34	62897.22
554.51	63114.89
554.67	63159.36
554.84	63337.24
555.00	62798.91
555.17	62651.46
555.33	62560.18
555.50	62592.95
555.67	62644.44
555.83	62401.02
556.00	62204.42
556.16	62253.57
556.33	61876.74
556.50	61773.76
556.66	61787.80
556.83	61495.24
556.99	61787.80
557.16	61862.70
557.32	61956.32
557.49	62260.59
557.65	62195.06
557.82	62181.01
557.98	61829.93
558.15	61513.96
558.32	60917.12
558.48	60163.47
558.65	60507.53
558.81	60638.60
558.98	60912.44
559.14	61090.32
559.31	61197.99
559.47	61207.35
559.64	61045.85
559.80	60598.81
559.97	60690.09
560.13	60879.67
560.30	61778.44
560.46	62560.18
560.63	62564.86
560.79	62499.33
560.96	62209.10
561.12	61310.33
561.29	60411.57
561.45	60615.19
561.61	60975.64
561.78	61289.27
561.94	61263.52
562.11	61090.32
562.27	60975.64
562.44	61256.50
562.60	61551.41
562.77	61762.06
562.93	61748.01
563.10	61546.73
563.26	61087.98
563.42	61155.86
563.59	60898.40
563.75	60839.89
563.92	61031.81
564.08	60830.52
564.24	61279.91
564.41	61172.24
564.57	61123.09
564.74	60938.19
564.90	60889.04
565.07	60879.67
565.23	60308.58
565.39	60186.88
565.56	59896.65
565.72	59367.69
565.88	59849.84
566.05	60009.00
566.21	60102.62
566.38	60353.05
566.54	60343.69
566.70	60619.88
566.87	60886.70
567.03	60795.42
567.19	61169.90
567.36	60917.12
567.52	60638.60
567.68	60671.37
567.85	59969.21
568.01	59894.31
568.17	59283.43
568.34	59676.64
568.50	59419.18
568.66	59412.16
568.83	59931.76
568.99	59959.84
569.15	60004.31
569.32	59814.73
569.48	59697.70
569.64	59456.63
569.81	59524.50
569.97	59267.05
570.13	59253.00
570.30	58775.53
570.46	58382.32
570.62	58136.57
570.78	57872.09
570.95	58183.38
571.11	58717.02
571.27	59061.08
571.43	59166.40
571.60	59290.45
571.76	59568.97
571.92	59852.18
572.09	59920.05
572.25	59863.88
572.41	59969.21
572.57	59667.28
572.74	59756.22
572.90	59238.96
573.06	59391.09
573.22	59533.87
573.38	59358.33
573.55	59245.98
573.71	59660.26
573.87	59393.43
574.03	59283.43
574.20	59194.49
574.36	58759.15
574.52	58974.48
574.68	58794.26
574.84	58560.20
575.01	58033.58
575.17	57961.03
575.33	58171.67
575.49	58670.21
575.65	58609.35
575.82	58429.13
575.98	58129.54
576.14	58302.74
576.30	58735.74
576.46	58513.39
576.62	58775.53
576.79	58443.18
576.95	58277.00
577.11	58293.38
577.27	58466.58
577.43	58499.35
577.59	58122.52
577.75	57834.64
577.92	57324.40
578.08	57441.43
578.24	57228.44
578.40	57382.91
578.56	57783.15
578.72	57879.11
578.88	57893.15
579.04	57902.51
579.21	58031.24
579.37	58031.24
579.53	58291.04
579.69	58183.38
579.85	58164.65
580.01	58239.55
580.17	57687.18
580.33	57649.74
580.49	57979.75
580.65	57972.73
580.82	58014.86
580.98	58181.04
581.14	58035.92
581.30	58230.19
581.46	57993.79
581.62	58014.86
581.78	57946.98
581.94	58277.00
582.10	58307.43
582.26	58127.20
582.42	58195.08
582.58	58316.79
582.74	58204.44
582.90	58375.30
583.06	58152.95
583.22	58017.20
583.38	58159.97
583.54	57923.58
583.70	57715.27
583.86	58003.16
584.02	57778.46
584.18	57921.24
584.34	57879.11
584.50	57712.93
584.66	57574.84
584.82	57326.74
584.98	57270.57
585.14	57078.64
