SpectraSuite Data File
++++++++++++++++++++++++++++++++++++
Date: Mon Oct 07 14:53:33 GMT-05:00 2013
User: price-jones
Dark Spectrum Present: No
Reference Spectrum Present: No
Number of Sampled Component Spectra: 1
Spectrometers: USB2+H05261
Integration Time (usec): 100000 (USB2+H05261)
Spectra Averaged: 1 (USB2+H05261)
Boxcar Smoothing: 0 (USB2+H05261)
Correct for Electrical Dark: No (USB2+H05261)
Strobe/Lamp Enabled: No (USB2+H05261)
Correct for Detector Non-linearity: No (USB2+H05261)
Correct for Stray Light: No (USB2+H05261)
Number of Pixels in Processed Spectrum: 2048
>>>>>Begin Processed Spectral Data<<<<<
365.73	0.00
365.92	0.00
366.12	0.00
366.32	0.00
366.52	0.00
366.72	0.00
366.91	0.00
367.11	0.00
367.31	0.00
367.51	0.00
367.70	0.00
367.90	0.00
368.10	0.00
368.30	0.00
368.49	0.00
368.69	0.00
368.89	0.00
369.09	0.00
369.28	0.00
369.48	0.00
369.68	0.00
369.87	0.00
370.07	0.00
370.27	0.00
370.47	629.60
370.66	3000.57
370.86	3442.93
371.06	3810.39
371.25	3700.39
371.45	3290.79
371.65	3222.92
371.84	3023.97
372.04	2942.05
372.24	3391.44
372.44	3709.75
372.63	3426.54
372.83	3218.24
373.03	3077.80
373.22	2752.47
373.42	2796.94
373.62	3253.34
373.81	3576.34
374.01	3536.55
374.21	3220.58
374.40	2839.07
374.60	3028.65
374.79	3377.39
374.99	4109.98
375.19	4451.70
375.38	4432.97
375.58	4014.02
375.78	3939.12
375.97	4042.11
376.17	4262.12
376.37	4271.48
376.56	4372.12
376.76	4617.88
376.95	4833.21
377.15	5163.22
377.35	5633.67
377.54	5708.57
377.74	5720.27
377.93	5802.19
378.13	5804.53
378.33	5355.15
378.52	4905.76
378.72	4861.29
378.91	4873.00
379.11	4585.11
379.31	4456.38
379.50	4561.70
379.70	4748.95
379.89	5107.05
380.09	5430.04
380.28	5900.49
380.48	5753.04
380.68	5605.58
380.87	5427.70
381.07	5039.17
381.26	4652.98
381.46	4432.97
381.65	4325.31
381.85	4182.54
382.04	3887.63
382.24	3726.13
382.43	3419.52
382.63	3602.08
382.83	3492.08
383.02	3473.36
383.22	3538.89
383.41	3552.93
383.61	3700.39
383.80	4128.70
384.00	4779.37
384.19	5455.79
384.39	5830.27
384.58	5715.59
384.78	5621.97
384.97	5607.92
385.17	5135.14
385.36	4999.38
385.56	4833.21
385.75	4973.64
385.95	5432.38
386.14	5804.53
386.34	5790.49
386.53	5504.94
386.72	5387.91
386.92	5394.93
387.11	5696.86
387.31	5907.51
387.50	5699.20
387.70	5722.61
387.89	5624.31
388.09	5528.35
388.28	5675.80
388.48	5764.74
388.67	6071.35
388.86	6883.52
389.06	7140.97
389.25	7576.31
389.45	7829.09
389.64	7660.57
389.84	7358.64
390.03	7407.80
390.22	7363.33
390.42	7662.91
390.61	8173.15
390.81	8828.50
391.00	8865.95
391.19	8744.24
391.39	8442.31
391.58	8004.63
391.78	7557.59
391.97	7421.84
392.16	6782.87
392.36	6340.51
392.55	5036.83
392.75	4035.08
392.94	3449.95
393.13	3248.66
393.33	3794.01
393.52	4861.29
393.71	5783.46
393.91	6780.53
394.10	7169.06
394.29	7789.30
394.49	8837.86
394.68	9369.16
394.88	9214.69
395.07	9558.75
395.26	9699.18
395.46	9123.41
395.65	8737.22
395.84	7749.51
396.04	6438.81
396.23	5404.30
396.42	4489.15
396.62	4154.45
396.81	5053.22
397.00	6146.25
397.19	7719.09
397.39	9366.82
397.58	10551.14
397.77	11042.65
397.97	11793.96
398.16	11936.73
398.35	12308.88
398.55	12322.92
398.74	12961.89
398.93	13500.21
399.12	12966.57
399.32	12723.15
399.51	12592.08
399.70	13752.99
399.90	13715.54
400.09	13687.45
400.28	13722.56
400.47	13694.47
400.67	14291.31
400.86	14555.79
401.05	14949.00
401.24	14501.96
401.44	15056.67
401.63	15180.71
401.82	15108.16
402.01	15145.61
402.21	15101.14
402.40	15403.07
402.59	15094.11
402.78	14036.19
402.97	13834.91
403.17	14216.41
403.36	15077.73
403.55	15934.37
403.74	16049.05
403.93	15138.58
404.13	14408.34
404.32	13802.14
404.51	14466.85
404.70	15693.29
404.89	15751.81
405.09	15496.69
405.28	15059.01
405.47	14600.26
405.66	14960.70
405.85	14567.49
406.05	14113.43
406.24	14349.82
406.43	15037.94
406.62	15676.91
406.81	15665.21
407.00	15171.35
407.20	14663.46
407.39	14736.01
407.58	15398.38
407.77	16074.80
407.96	16348.64
408.15	16573.33
408.34	16688.02
408.54	17497.84
408.73	17778.71
408.92	17626.57
409.11	17081.23
409.30	16177.78
409.49	15040.28
409.68	14160.24
409.87	13998.74
410.07	14675.16
410.26	15978.84
410.45	16835.47
410.64	17104.64
410.83	17458.06
411.02	18036.17
411.21	19173.67
411.40	18724.29
411.59	18607.26
411.78	18623.64
411.98	18256.18
412.17	18878.76
412.36	17963.61
412.55	18326.39
412.74	18029.15
412.93	17525.93
413.12	17462.74
413.31	19517.73
413.50	19407.72
413.69	19789.23
413.88	19421.77
414.07	18625.98
414.26	18909.19
414.45	19068.34
414.64	19777.53
414.83	19660.50
415.02	19295.38
415.22	19044.94
415.41	19688.59
415.60	20339.26
415.79	21149.08
415.98	21495.48
416.17	21586.76
416.36	21205.25
416.55	20957.16
416.74	19894.55
416.93	19576.24
417.12	19466.24
417.31	19646.46
417.50	19737.74
417.69	20936.09
417.88	20491.39
418.07	20107.54
418.26	20072.43
418.45	20231.59
418.64	21156.10
418.83	21745.92
419.02	21355.05
419.21	21694.43
419.39	20304.15
419.58	19468.58
419.77	19562.20
419.96	20081.80
420.15	21860.60
420.34	22019.76
420.53	22967.68
420.72	23529.41
420.91	23260.24
421.10	22642.34
421.29	22525.32
421.48	21799.75
421.67	22918.53
421.86	22251.47
422.05	20713.74
422.24	18745.35
422.43	18216.39
422.61	20294.79
422.80	22073.59
422.99	22120.40
423.18	21483.78
423.37	20645.87
423.56	20603.74
423.75	21270.79
423.94	21535.27
424.13	20671.61
424.32	20561.61
424.50	20917.37
424.69	20451.60
424.88	20776.94
425.07	20762.89
425.26	20460.96
425.45	20098.18
425.64	19667.52
425.83	19845.40
426.01	21046.10
426.20	21738.90
426.39	21565.70
426.58	20130.95
426.77	18223.41
426.96	17881.69
427.15	18497.25
427.33	19772.85
427.52	20968.86
427.71	21050.78
427.90	20479.69
428.09	20449.26
428.28	20212.87
428.46	19185.37
428.65	18728.97
428.84	19487.30
429.03	20051.37
429.22	18876.42
429.40	17860.63
429.59	16123.95
429.78	14352.16
429.97	14272.59
430.16	14637.71
430.34	14757.08
430.53	14406.00
430.72	14754.74
430.91	16233.96
431.10	19108.13
431.28	22492.55
431.47	24531.15
431.66	25324.60
431.85	22934.91
432.03	20849.49
432.22	20255.00
432.41	20704.38
432.60	23023.85
432.79	23896.87
432.97	24095.82
433.16	23906.23
433.35	22038.48
433.54	19754.12
433.72	18466.83
433.91	19101.11
434.10	21504.84
434.28	23028.53
434.47	24020.92
434.66	23714.31
434.85	22843.63
435.03	22986.40
435.22	23531.75
435.41	24912.66
435.59	24973.52
435.78	25186.50
435.97	25919.09
436.16	25982.29
436.34	25841.85
436.53	25565.67
436.72	25530.56
436.90	23988.15
437.09	23679.20
437.28	23555.15
437.46	24222.20
437.65	23892.19
437.84	22572.13
438.02	20538.20
438.21	20659.91
438.40	21809.11
438.58	23431.10
438.77	24224.54
438.96	24376.68
439.14	25486.09
439.33	25764.62
439.52	26291.24
439.70	26040.80
439.89	25345.66
440.08	24549.88
440.26	24453.92
440.45	25886.32
440.63	26925.52
440.82	28664.54
441.01	28367.29
441.19	27957.70
441.38	28472.62
441.57	29221.59
441.75	29780.98
441.94	29900.34
442.12	29926.09
442.31	30045.46
442.50	30295.89
442.68	29846.51
442.87	29324.57
443.05	29158.39
443.24	29244.99
443.43	30059.50
443.61	30881.03
443.80	31302.32
443.98	28929.02
444.17	29198.18
444.35	30967.63
444.54	31157.21
444.73	31035.50
444.91	29949.50
445.10	28898.59
445.28	27335.12
445.47	26785.09
445.65	26782.75
445.84	27840.67
446.02	28741.78
446.21	29331.59
446.39	29584.37
446.58	29415.85
446.77	30160.14
446.95	30527.61
447.14	31070.61
447.32	31892.14
447.51	31360.84
447.69	29902.68
447.88	29673.31
448.06	29858.21
448.25	30810.81
448.43	31489.57
448.62	30403.56
448.80	30052.48
448.99	30246.74
449.17	30883.37
449.36	30637.61
449.54	32006.83
449.73	32306.41
449.91	32971.13
450.10	33518.81
450.28	34047.77
450.46	33949.47
450.65	33670.95
450.83	33684.99
451.02	32905.59
451.20	32613.02
451.39	32739.41
451.57	32355.57
451.76	32435.14
451.94	32400.04
452.13	31681.49
452.31	30405.90
452.49	28718.37
452.68	29345.64
452.86	29345.64
453.05	29813.74
453.23	30384.83
453.42	31452.12
453.60	32598.98
453.78	32261.94
453.97	31613.62
454.15	32098.11
454.34	31431.05
454.52	31555.10
454.70	30885.71
454.89	31047.21
455.07	31693.19
455.26	31552.76
455.44	33036.66
455.62	33479.02
455.81	33556.26
455.99	33633.50
456.17	33031.98
456.36	33062.41
456.54	34117.99
456.73	34136.71
456.91	34609.50
457.09	34588.44
457.28	35386.56
457.46	34349.70
457.64	33876.91
457.83	33008.58
458.01	32182.37
458.19	32671.54
458.38	33228.59
458.56	34345.02
458.74	34588.44
458.93	33579.67
459.11	33319.87
459.29	33315.19
459.48	33677.97
459.66	33362.00
459.84	33827.76
460.03	34106.29
460.21	33717.76
460.39	34857.60
460.57	34785.04
460.76	35157.19
460.94	34890.37
461.12	34862.28
461.31	34480.77
461.49	35079.95
461.67	34763.98
461.85	35913.18
462.04	35861.69
462.22	36233.83
462.40	35913.18
462.59	35590.19
462.77	35332.73
462.95	35526.99
463.13	35093.99
463.32	35260.17
463.50	34586.10
463.68	35033.14
463.86	34979.31
464.05	34590.78
464.23	33883.94
464.41	33776.27
464.59	32793.25
464.78	34419.92
464.96	34689.08
465.14	34099.26
465.32	34836.53
465.50	35651.04
465.69	36041.91
465.87	35204.00
466.05	34806.11
466.23	33144.33
466.41	31857.03
466.60	33504.77
466.78	33273.06
466.96	34029.05
467.14	34162.46
467.32	34815.47
467.51	35042.50
467.69	33301.14
467.87	34277.15
468.05	34705.46
468.23	34780.36
468.41	34658.65
468.60	34930.16
468.78	35131.44
468.96	34199.91
469.14	35365.49
469.32	35690.83
469.50	33593.71
469.69	34176.50
469.87	33825.42
470.05	33591.37
470.23	33486.04
470.41	33879.25
470.59	34155.44
470.77	34253.74
470.95	35122.08
471.14	35524.65
471.32	35260.17
471.50	37071.75
471.68	37254.31
471.86	38129.67
472.04	37820.72
472.22	38150.73
472.40	36259.58
472.58	35840.62
472.77	35585.50
472.95	36140.21
473.13	37144.30
473.31	35962.33
473.49	36748.75
473.67	37092.81
473.85	37392.40
474.03	38565.01
474.21	38419.89
474.39	38838.85
474.57	39000.35
474.75	39215.68
474.93	38586.07
475.12	37572.62
475.30	37647.52
475.48	38047.75
475.66	38363.72
475.84	37984.55
476.02	37858.17
476.20	37146.64
476.38	38244.35
476.56	39075.24
476.74	39849.96
476.92	39845.28
477.10	40147.21
477.28	41734.09
477.46	41647.49
477.64	42106.24
477.82	42045.38
478.00	42447.96
478.18	41588.98
478.36	41478.97
478.54	41500.04
478.72	41813.67
478.90	42583.71
479.08	43920.15
479.26	44320.38
479.44	44346.13
479.62	43763.34
479.80	43751.63
479.98	43917.81
480.16	44582.52
480.34	43384.17
480.52	44011.43
480.70	44641.04
480.88	44411.67
481.06	45434.48
481.24	45551.51
481.41	46202.18
481.59	47257.76
481.77	46997.96
481.95	46288.77
482.13	45907.27
482.31	46387.08
482.49	46719.43
482.67	46461.97
482.85	46974.55
483.03	47456.70
483.21	47936.51
483.39	47955.24
483.57	47302.23
483.74	47051.79
483.92	47110.30
484.10	47035.41
484.28	48428.02
484.46	48556.75
484.64	49223.81
484.82	48140.14
485.00	47667.35
485.18	47079.88
485.35	45911.95
485.53	42206.88
485.71	39274.19
485.89	38117.96
486.07	40065.29
486.25	43594.82
486.43	45944.72
486.61	46672.62
486.78	46923.06
486.96	46689.01
487.14	48762.72
487.32	49184.02
487.50	50251.30
487.68	51276.46
487.85	51323.27
488.03	51550.30
488.21	51075.17
488.39	50674.94
488.57	49855.75
488.75	49448.50
488.92	50522.80
489.10	52540.35
489.28	53965.73
489.46	54447.88
489.64	54354.26
489.81	54623.42
489.99	54190.42
490.17	53939.99
490.35	54803.64
490.53	54220.85
490.70	53598.27
490.88	53731.68
491.06	54618.74
491.24	54593.00
491.41	53645.08
491.59	52013.73
491.77	51421.57
491.95	52303.95
492.13	53703.59
492.30	54574.27
492.48	55671.98
492.66	56060.51
492.84	55721.13
493.01	55852.20
493.19	55079.83
493.37	54944.08
493.54	54710.02
493.72	55313.88
493.90	56310.95
494.08	56900.76
494.25	57272.91
494.43	57460.15
494.61	57708.25
494.79	58021.88
494.96	57366.53
495.14	57013.11
495.32	56104.98
495.49	55653.26
495.67	56512.23
495.85	58040.60
496.02	57951.66
496.20	58176.36
496.38	57523.35
496.55	57558.45
496.73	57869.75
496.91	58042.95
497.09	58745.11
497.26	58644.46
497.44	58351.90
497.62	57726.97
497.79	57207.37
497.97	56023.06
498.14	55985.61
498.32	57146.52
498.50	57970.39
498.67	58642.12
498.85	58417.43
499.03	58492.33
499.20	58616.38
499.38	58777.87
499.56	58693.61
499.73	58183.38
499.91	57733.99
500.08	57392.28
500.26	56671.39
500.44	56858.63
500.61	57689.52
500.79	57738.68
500.97	57291.63
501.14	57144.18
501.32	57233.12
501.49	56914.81
501.67	57193.33
501.84	57581.86
502.02	57930.60
502.20	58347.21
502.37	58335.51
502.55	58398.71
502.72	58937.03
502.90	59430.88
503.07	59168.74
503.25	58555.52
503.43	58028.90
503.60	57389.94
503.78	56449.04
503.95	56954.60
504.13	58511.05
504.30	59269.39
504.48	58925.33
504.65	58506.37
504.83	58686.59
505.01	59402.80
505.18	59643.87
505.36	60142.41
505.53	60100.28
505.71	60523.91
505.88	60280.50
506.06	59812.39
506.23	59395.77
506.41	59196.83
506.58	59341.94
506.76	59353.65
506.93	59388.75
507.11	58901.92
507.28	59297.47
507.46	58827.02
507.63	58230.19
507.81	58026.56
507.98	58445.52
508.16	58915.96
508.33	59646.21
508.50	59765.58
508.68	60170.49
508.85	60474.76
509.03	60617.53
509.20	60383.48
509.38	59536.21
509.55	58960.44
509.73	59044.69
509.90	59770.26
510.08	59910.69
510.25	59898.99
510.42	59676.64
510.60	59578.34
510.77	59583.02
510.95	60252.41
511.12	60446.68
511.30	60624.56
511.47	60804.78
511.64	60793.07
511.82	60711.16
511.99	59746.86
512.17	59484.72
512.34	59185.13
512.51	59302.15
512.69	59358.33
512.86	59327.90
513.04	59831.11
513.21	60048.78
513.38	59316.20
513.56	59044.69
513.73	58447.86
513.90	58848.09
514.08	58812.98
514.25	59227.26
514.43	59456.63
514.60	59344.28
514.77	59678.98
514.95	59688.34
515.12	59428.54
515.29	59788.98
515.47	60306.24
515.64	60378.80
515.81	60060.49
515.99	59416.84
516.16	58185.72
516.33	56020.72
516.51	54473.63
516.68	53860.41
516.85	53329.11
517.03	53954.03
517.20	56498.19
517.37	58564.88
517.54	59529.19
517.72	59323.22
517.89	57092.69
518.06	54578.95
518.24	54906.63
518.41	56963.96
518.58	58340.19
518.75	58534.46
518.93	58681.91
519.10	58520.41
519.27	58965.12
519.45	59079.80
519.62	59831.11
519.79	60247.73
519.96	60109.64
520.14	59522.16
520.31	58754.47
520.48	58913.62
520.65	59089.16
520.83	60083.89
521.00	60336.67
521.17	59896.65
521.34	59714.09
521.52	59882.61
521.69	60425.61
521.86	60680.73
522.03	60591.79
522.20	59391.09
522.38	58541.48
522.55	58616.38
522.72	59028.31
522.89	59297.47
523.07	59355.99
523.24	59786.64
523.41	60324.97
523.58	60853.93
523.75	61155.86
523.92	60910.10
524.10	60874.99
524.27	60977.98
524.44	60764.99
524.61	60664.35
524.78	60364.76
524.96	60441.99
525.13	60423.27
525.30	60669.03
525.47	60996.70
525.64	61197.99
525.81	60257.09
525.98	59105.55
526.16	57668.46
526.33	57017.79
526.50	56652.67
526.67	56301.59
526.84	56853.95
527.01	57860.38
527.18	58539.14
527.36	59220.23
527.53	60339.01
527.70	60456.04
527.87	59952.82
528.04	59395.77
528.21	60055.81
528.38	60662.00
528.55	61190.97
528.72	61338.42
528.89	61645.03
529.07	61240.12
529.24	60711.16
529.41	60088.57
529.58	59547.91
529.75	59519.82
529.92	60048.78
530.09	60484.12
530.26	60818.82
530.43	61303.31
530.60	61104.37
530.77	61298.63
530.94	61450.77
531.11	61214.37
531.28	60874.99
531.46	60537.96
531.63	60760.31
531.80	60566.04
531.97	60236.03
532.14	59695.36
532.31	58532.12
532.48	57808.89
532.65	57865.06
532.82	58798.94
532.99	59714.09
533.16	60048.78
533.33	60750.94
533.50	60612.85
533.67	59964.52
533.84	59648.55
534.01	59676.64
534.18	59817.07
534.35	60254.75
534.52	60086.23
534.69	60158.79
534.86	60327.31
535.03	60594.13
535.20	61069.26
535.37	61298.63
535.54	61462.47
535.71	61148.84
535.88	60816.48
536.05	60186.88
536.22	59948.14
536.38	59739.83
536.55	59257.68
536.72	58864.47
536.89	58684.25
537.06	59334.92
537.23	60119.00
537.40	60437.31
537.57	60378.80
537.74	60165.81
537.91	60034.74
538.08	59920.05
538.25	60135.38
538.42	60385.82
538.59	60168.15
538.75	59480.03
538.92	59433.22
539.09	59086.82
539.26	58864.47
539.43	58852.77
539.60	58726.38
539.77	59180.45
539.94	59032.99
540.11	58286.36
540.28	57968.05
540.44	57794.85
540.61	57979.75
540.78	58370.62
540.95	58738.08
541.12	58934.69
541.29	59529.19
541.46	59618.13
541.62	59707.07
541.79	59519.82
541.96	59028.31
542.13	59098.53
542.30	59133.63
542.47	59381.73
542.63	59264.70
542.80	58904.26
542.97	59032.99
543.14	58763.83
543.31	58714.68
543.48	59468.33
543.64	60383.48
543.81	60617.53
543.98	60275.82
544.15	59676.64
544.32	59103.21
544.48	59313.86
544.65	59718.77
544.82	59997.29
544.99	59557.27
545.16	59515.14
545.32	59189.81
545.49	59796.01
545.66	60264.11
545.83	59765.58
546.00	59393.43
546.16	59227.26
546.33	59245.98
546.50	59288.11
546.67	59828.77
546.83	59444.93
547.00	59379.39
547.17	58550.84
547.34	58293.38
547.50	57932.94
547.67	58681.91
547.84	58489.99
548.00	59035.33
548.17	59386.41
548.34	59079.80
548.51	59255.34
548.67	59353.65
548.84	59180.45
549.01	59253.00
549.18	59182.79
549.34	59201.51
549.51	59140.66
549.68	59189.81
549.84	58859.79
550.01	58904.26
550.18	58574.25
550.34	58866.81
550.51	58731.06
550.68	58979.16
550.84	58422.11
551.01	58461.90
551.18	58658.51
551.34	58728.72
551.51	58997.88
551.68	59093.85
551.84	59245.98
552.01	59213.21
552.18	59079.80
552.34	58209.12
552.51	57961.03
552.68	57825.28
552.84	58281.68
553.01	58525.10
553.18	58447.86
553.34	58564.88
553.51	58864.47
553.67	58976.82
553.84	59000.22
554.01	59007.25
554.17	58555.52
554.34	58815.32
554.51	58930.01
554.67	58979.16
554.84	58995.54
555.00	58735.74
555.17	58450.20
555.33	58555.52
555.50	58506.37
555.67	58422.11
555.83	58452.54
556.00	58099.12
556.16	57986.77
556.33	57588.88
556.50	57602.92
556.66	57631.01
556.83	57244.82
556.99	57497.60
557.16	57726.97
557.32	57769.10
557.49	58000.82
557.65	57797.19
557.82	58000.82
557.98	57827.62
558.15	57530.37
558.32	56683.09
558.48	55690.71
558.65	56018.38
558.81	56245.41
558.98	56615.22
559.14	57045.88
559.31	56996.73
559.47	56905.44
559.64	56816.50
559.80	56289.88
559.97	56404.57
560.13	56559.05
560.30	57652.08
560.46	58073.37
560.63	58286.36
560.79	58433.81
560.96	57839.32
561.12	56786.08
561.29	55999.66
561.45	56186.90
561.61	56549.68
561.78	56926.51
561.94	56970.98
562.11	56910.13
562.27	56844.59
562.44	57034.17
562.60	57453.13
562.77	57600.58
562.93	57584.20
563.10	57265.89
563.26	56664.37
563.42	56704.16
563.59	56435.00
563.75	56561.39
563.92	56783.74
564.08	56437.34
564.24	56809.48
564.41	56870.34
564.57	56844.59
564.74	56559.05
564.90	56624.58
565.07	56521.60
565.23	56058.17
565.39	55622.83
565.56	55501.12
565.72	55400.48
565.88	55501.12
566.05	55657.94
566.21	55758.58
566.38	55882.63
566.54	55980.93
566.70	56500.53
566.87	56516.92
567.03	56683.09
567.19	56655.01
567.36	56570.75
567.52	56563.73
567.68	56151.79
567.85	55447.29
568.01	55040.04
568.17	55128.98
568.34	54813.01
568.50	54766.20
568.66	55044.72
568.83	55576.02
568.99	55278.77
569.15	55473.04
569.32	55597.09
569.48	55379.42
569.64	54927.69
569.81	54782.58
569.97	54885.56
570.13	54396.39
570.30	54375.33
570.46	54049.99
570.62	53453.15
570.78	53315.06
570.95	53560.82
571.11	54064.03
571.27	54644.49
571.43	54616.40
571.60	54813.01
571.76	55126.64
571.92	55423.89
572.09	55676.66
572.25	55519.85
572.41	55173.45
572.57	55334.95
572.74	55096.21
572.90	54873.86
573.06	55086.85
573.22	54901.95
573.38	54805.98
573.55	54822.37
573.71	55178.13
573.87	55035.36
574.03	54511.08
574.20	54670.23
574.36	54548.53
574.52	54309.79
574.68	53881.47
574.84	53872.11
575.01	53183.99
575.17	53118.46
575.33	53298.68
575.49	53652.10
575.65	53902.54
575.82	53701.25
575.98	53366.55
576.14	53619.33
576.30	54094.46
576.46	54131.91
576.62	54012.54
576.79	54057.01
576.95	53799.55
577.11	53516.35
577.27	53546.78
577.43	53666.14
577.59	53396.98
577.75	52746.31
577.92	52402.25
578.08	52130.75
578.24	52280.55
578.40	52680.78
578.56	52760.36
578.72	52963.98
578.88	53205.06
579.04	53132.50
579.21	53315.06
579.37	53352.51
579.53	53460.18
579.69	53441.45
579.85	53525.71
580.01	53467.20
580.17	52994.41
580.33	52846.96
580.49	52823.55
580.65	53132.50
580.82	53432.09
580.98	53298.68
581.14	53221.44
581.30	53045.90
581.46	53237.83
581.62	53179.31
581.78	53324.43
581.94	53734.02
582.10	53659.12
582.26	53890.83
582.42	53497.62
582.58	53546.78
582.74	53588.91
582.90	53399.32
583.06	53675.51
583.22	53368.90
583.38	53284.64
583.54	53247.19
583.70	53146.54
583.86	53076.33
584.02	53158.25
584.18	53104.41
584.34	52942.92
584.50	52868.02
584.66	52872.70
584.82	52491.19
584.98	52383.53
585.14	51941.17
585.30	51372.42
