SpectraSuite Data File
++++++++++++++++++++++++++++++++++++
Date: Mon Oct 07 14:53:50 GMT-05:00 2013
User: price-jones
Dark Spectrum Present: No
Reference Spectrum Present: No
Number of Sampled Component Spectra: 1
Spectrometers: USB2+H05261
Integration Time (usec): 100000 (USB2+H05261)
Spectra Averaged: 1 (USB2+H05261)
Boxcar Smoothing: 0 (USB2+H05261)
Correct for Electrical Dark: No (USB2+H05261)
Strobe/Lamp Enabled: No (USB2+H05261)
Correct for Detector Non-linearity: No (USB2+H05261)
Correct for Stray Light: No (USB2+H05261)
Number of Pixels in Processed Spectrum: 2048
>>>>>Begin Processed Spectral Data<<<<<
365.73	0.00
365.92	0.00
366.12	0.00
366.32	0.00
366.52	0.00
366.72	0.00
366.91	0.00
367.11	0.00
367.31	0.00
367.51	0.00
367.70	0.00
367.90	0.00
368.10	0.00
368.30	0.00
368.49	0.00
368.69	0.00
368.89	0.00
369.09	0.00
369.28	0.00
369.48	0.00
369.68	0.00
369.87	0.00
370.07	0.00
370.27	0.00
370.47	653.01
370.66	3112.91
370.86	3794.01
371.06	4182.54
371.25	4180.20
371.45	3904.01
371.65	3281.43
371.84	3112.91
372.04	3239.30
372.24	3700.39
372.44	3981.25
372.63	3796.35
372.83	3564.64
373.03	3101.21
373.22	3028.65
373.42	3028.65
373.62	3602.08
373.81	3899.33
374.01	3925.08
374.21	3473.36
374.40	3307.18
374.60	3358.67
374.79	3744.86
374.99	4449.36
375.19	4685.75
375.38	4664.69
375.58	4540.64
375.78	4306.59
375.97	4372.12
376.17	4477.44
376.37	4535.96
376.56	4823.84
376.76	4999.38
376.95	5336.42
377.15	5722.61
377.35	6026.88
377.54	6179.01
377.74	6291.36
377.93	6190.72
378.13	6127.52
378.33	5973.05
378.52	5387.91
378.72	5327.06
378.91	5011.09
379.11	4985.34
379.31	4727.88
379.50	4805.12
379.70	5144.50
379.89	5720.27
380.09	6015.18
380.28	6122.84
380.48	6270.30
380.68	6120.50
380.87	6047.94
381.07	5647.71
381.26	5109.39
381.46	4793.42
381.65	4603.83
381.85	4465.74
382.04	4311.27
382.24	4004.66
382.43	3829.12
382.63	3721.45
382.83	3880.61
383.02	3779.97
383.22	3777.62
383.41	3868.91
383.61	4147.43
383.80	4657.67
384.00	5217.05
384.19	5942.62
384.39	6258.59
384.58	6333.49
384.78	5959.00
384.97	6043.26
385.17	5706.23
385.36	5458.13
385.56	5181.95
385.75	5240.46
385.95	5825.59
386.14	6392.00
386.34	6520.73
386.53	6139.23
386.72	5785.80
386.92	5823.25
387.11	5877.09
387.31	6331.15
387.50	6022.20
387.70	6211.78
387.89	5991.77
388.09	6019.86
388.28	5954.32
388.48	6083.05
388.67	6579.25
388.86	7159.70
389.06	7756.54
389.25	8175.49
389.45	8322.94
389.64	7981.23
389.84	8051.44
390.03	7845.48
390.22	8030.38
390.42	8269.11
390.61	8652.96
390.81	9355.12
391.00	9530.66
391.19	9280.22
391.39	9146.81
391.58	8521.89
391.78	8105.28
391.97	8002.29
392.16	7330.56
392.36	6722.02
392.55	5432.38
392.75	4325.31
392.94	3377.39
393.13	3396.12
393.33	4060.83
393.52	5212.37
393.71	6441.15
393.91	7101.19
394.10	7889.95
394.29	8610.83
394.49	9179.58
394.68	9802.16
394.88	9998.77
395.07	10399.00
395.26	10349.85
395.46	9975.36
395.65	9462.79
395.84	8332.31
396.04	6963.09
396.23	5624.31
396.42	4685.75
396.62	4540.64
396.81	5291.95
397.00	6862.45
397.19	8400.18
397.39	9961.32
397.58	11197.12
397.77	11981.20
397.97	12465.69
398.16	12435.27
398.35	13109.34
398.55	13334.03
398.74	13755.33
398.93	14246.84
399.12	14272.59
399.32	13549.36
399.51	13935.55
399.70	15091.77
399.90	14593.24
400.09	14768.78
400.28	14626.01
400.47	14434.08
400.67	15332.85
400.86	15929.69
401.05	15882.88
401.24	15789.25
401.44	16140.33
401.63	15833.72
401.82	16205.87
402.01	16049.05
402.21	16355.66
402.40	16128.63
402.59	16002.24
402.78	15005.17
402.97	14810.91
403.17	15108.16
403.36	16266.72
403.55	16809.73
403.74	17020.38
403.93	16210.55
404.13	15288.38
404.32	14696.22
404.51	15337.53
404.70	16882.28
404.89	16498.44
405.09	16402.47
405.28	15803.30
405.47	15995.22
405.66	15969.48
405.85	15557.54
406.05	15014.54
406.24	15133.90
406.43	15953.09
406.62	16685.68
406.81	16519.50
407.00	15978.84
407.20	15751.81
407.39	15899.26
407.58	16662.27
407.77	17142.08
407.96	17647.64
408.15	17855.95
408.34	17956.59
408.54	18609.60
408.73	18845.99
408.92	18153.20
409.11	18178.94
409.30	17476.78
409.49	16053.73
409.68	15047.30
409.87	14562.81
410.07	15590.31
410.26	16725.47
410.45	17881.69
410.64	18438.74
410.83	18951.32
411.02	19124.52
411.21	20037.33
411.40	20039.67
411.59	19969.45
411.78	19679.22
411.98	19531.77
412.17	19880.51
412.36	19503.68
412.55	19775.19
412.74	19136.22
412.93	18434.06
413.12	18923.23
413.31	20486.71
413.50	20755.87
413.69	21551.65
413.88	20528.84
414.07	19676.88
414.26	19967.11
414.45	20683.31
414.64	20755.87
414.83	20802.68
415.02	20821.41
415.22	20662.25
415.41	20875.24
415.60	21422.92
415.79	22544.04
415.98	22843.63
416.17	22960.66
416.36	22221.05
416.55	21764.64
416.74	21357.39
416.93	20875.24
417.12	20657.57
417.31	21067.16
417.50	21273.13
417.69	21961.25
417.88	22061.89
418.07	21654.64
418.26	21343.35
418.45	21535.27
418.64	22384.88
418.83	22670.43
419.02	22883.42
419.21	22698.52
419.39	21696.77
419.58	20610.76
419.77	20699.70
419.96	21591.44
420.15	22827.24
420.34	23318.76
420.53	24149.65
420.72	24781.59
420.91	24549.88
421.10	24383.70
421.29	24254.97
421.48	23515.36
421.67	24430.51
421.86	23583.24
422.05	22223.39
422.24	20105.20
422.43	19337.51
422.61	21511.86
422.80	23601.96
422.99	23524.72
423.18	22654.05
423.37	22176.58
423.56	22054.87
423.75	22579.15
423.94	23468.55
424.13	21881.67
424.32	22300.62
424.50	21914.44
424.69	21905.07
424.88	21991.67
425.07	21558.67
425.26	21544.63
425.45	21544.63
425.64	20950.14
425.83	21146.74
426.01	22663.41
426.20	22843.63
426.39	22569.79
426.58	21195.89
426.77	19358.57
426.96	18698.54
427.15	19709.65
427.33	21039.08
427.52	21830.18
427.71	22183.60
427.90	21659.32
428.09	21944.86
428.28	21392.50
428.46	20428.20
428.65	20156.69
428.84	20512.46
429.03	20779.28
429.22	19885.19
429.40	18834.29
429.59	17263.79
429.78	15281.36
429.97	15077.73
430.16	15424.13
430.34	15557.54
430.53	15515.41
430.72	15864.15
430.91	17198.26
431.10	20599.05
431.28	23948.36
431.47	25905.05
431.66	26574.44
431.85	24184.76
432.03	22258.49
432.22	21158.44
432.41	21832.52
432.60	24318.17
432.79	25394.81
432.97	25989.31
433.16	25865.26
433.35	23302.37
433.54	20680.97
433.72	19630.07
433.91	20247.97
434.10	22438.72
434.28	23866.44
434.47	25245.02
434.66	24823.72
434.85	24535.84
435.03	24142.63
435.22	24802.66
435.41	26218.68
435.59	26380.18
435.78	26553.38
435.97	27543.42
436.16	27328.10
436.34	27225.11
436.53	26401.24
436.72	26955.95
436.90	24929.05
437.09	24741.80
437.28	25050.75
437.46	25413.54
437.65	25692.06
437.84	23962.40
438.02	22026.78
438.21	21397.18
438.40	22761.71
438.58	24741.80
438.77	25390.13
438.96	25762.28
439.14	26838.92
439.33	27733.01
439.52	28088.77
439.70	27721.30
439.89	26532.31
440.08	25542.27
440.26	25755.26
440.45	26529.97
440.63	28882.21
440.82	30408.24
441.01	29766.93
441.19	29102.22
441.38	29610.12
441.57	31033.16
441.75	31615.96
441.94	31152.53
442.12	31103.38
442.31	32048.96
442.50	31559.78
442.68	31510.63
442.87	31257.85
443.05	30115.67
443.24	31061.25
443.43	31414.67
443.61	31765.75
443.80	32575.58
443.98	30675.06
444.17	30719.53
444.35	32577.92
444.54	33137.30
444.73	32641.11
444.91	31206.36
445.10	30436.33
445.28	29116.26
445.47	28713.69
445.65	28470.28
445.84	29259.04
446.02	30211.64
446.21	30646.97
446.39	30976.99
446.58	31569.15
446.77	31651.06
446.95	32774.52
447.14	32917.29
447.32	33500.09
447.51	32849.42
447.69	31351.48
447.88	30932.52
448.06	31431.05
448.25	32306.41
448.43	32528.77
448.62	31990.44
448.80	31428.71
448.99	32161.30
449.17	32608.34
449.36	32322.80
449.54	33369.02
449.73	33710.74
449.91	34295.87
450.10	35091.65
450.28	35777.43
450.46	35178.25
450.65	35501.25
450.83	35379.54
451.02	34401.19
451.20	34188.21
451.39	34272.46
451.57	33799.68
451.76	33900.32
451.94	34000.96
452.13	33219.22
452.31	32020.87
452.49	30555.69
452.68	30590.80
452.86	30766.34
453.05	31274.24
453.23	32336.84
453.42	32807.29
453.60	33490.73
453.78	33991.60
453.97	33542.22
454.15	33799.68
454.34	32617.71
454.52	32856.44
454.70	32189.39
454.89	32432.80
455.07	32708.99
455.26	33455.62
455.44	34576.73
455.62	34829.51
455.81	35402.94
455.99	34792.06
456.17	34639.93
456.36	34696.10
456.54	35388.90
456.73	36067.66
456.91	36264.26
457.09	36676.19
457.28	37226.22
457.46	35859.35
457.64	35613.59
457.83	34328.64
458.01	33523.49
458.19	34609.50
458.38	34808.45
458.56	35814.88
458.74	35519.97
458.93	34923.13
459.11	34656.31
459.29	34771.00
459.48	34679.72
459.66	34459.71
459.84	35302.30
460.03	35491.88
460.21	35166.55
460.39	35988.08
460.57	36519.38
460.76	36449.16
460.94	37113.87
461.12	36479.59
461.31	36369.58
461.49	36198.73
461.67	36364.90
461.85	37127.92
462.04	37378.36
462.22	37333.89
462.40	37174.73
462.59	37471.98
462.77	37275.37
462.95	37298.78
463.13	36704.28
463.32	36472.57
463.50	36423.42
463.68	36130.85
463.86	36315.75
464.05	35992.76
464.23	35082.29
464.41	35564.44
464.59	34412.90
464.78	36252.56
464.96	35880.41
465.14	35592.53
465.32	36598.96
465.50	37469.64
465.69	37771.57
465.87	36943.02
466.05	35985.74
466.23	34391.83
466.41	33806.70
466.60	34527.58
466.78	34277.15
466.96	35398.26
467.14	35367.84
467.32	36385.97
467.51	36524.06
467.69	34302.89
467.87	35267.19
468.05	36163.62
468.23	35941.27
468.41	36163.62
468.60	36339.16
468.78	36680.88
468.96	35910.84
469.14	36769.82
469.32	37031.96
469.50	35576.14
469.69	35311.66
469.87	35051.86
470.05	34831.85
470.23	35019.10
470.41	35316.34
470.59	35416.99
470.77	35784.45
470.95	36608.32
471.14	36996.85
471.32	36664.49
471.50	38824.81
471.68	38859.91
471.86	39166.52
472.04	39330.36
472.22	39494.20
472.40	37560.92
472.58	37219.20
472.77	37167.71
472.95	37783.27
473.13	38773.31
473.31	37607.73
473.49	38033.71
473.67	38625.86
473.85	38815.44
474.03	39896.77
474.21	40018.48
474.39	40416.37
474.57	40095.72
474.75	40650.42
474.93	40004.44
475.12	38820.13
475.30	39220.36
475.48	39131.42
475.66	40074.65
475.84	39302.28
476.02	39278.87
476.20	38534.58
476.38	39133.76
476.56	40505.31
476.74	40875.12
476.92	41273.01
477.10	42066.45
477.28	42637.54
477.46	42944.15
477.64	43765.68
477.82	43276.51
478.00	43435.66
478.18	43447.36
478.36	43180.54
478.54	42801.38
478.72	43192.25
478.90	43725.89
479.08	45221.49
479.26	45890.88
479.44	45490.65
479.62	45118.51
479.80	45085.74
479.98	45544.48
480.16	46143.66
480.34	45050.63
480.52	45509.38
480.70	45879.18
480.88	46213.88
481.06	47004.98
481.24	46850.50
481.41	47894.38
481.59	48264.19
481.77	48303.98
481.95	47445.00
482.13	47414.57
482.31	47753.95
482.49	48369.51
482.67	47917.79
482.85	48332.06
483.03	48863.36
483.21	49200.40
483.39	49317.43
483.57	48615.27
483.74	48250.14
483.92	48259.51
484.10	48959.33
484.28	49624.04
484.46	49666.17
484.64	50274.71
484.82	49223.81
485.00	48954.64
485.18	48158.86
485.35	47004.98
485.53	43662.69
485.71	40212.74
485.89	39138.44
486.07	41621.75
486.25	45280.00
486.43	47510.53
486.61	47955.24
486.78	47983.32
486.96	48172.91
487.14	49991.50
487.32	50281.73
487.50	51571.36
487.68	51985.64
487.85	52715.89
488.03	52727.59
488.21	52376.51
488.39	51398.16
488.57	51309.22
488.75	50504.08
488.92	51686.05
489.10	53616.99
489.28	54988.55
489.46	55477.72
489.64	55201.53
489.81	55686.03
489.99	55194.51
490.17	55030.68
490.35	55426.23
490.53	55236.64
490.70	54843.43
490.88	54838.75
491.06	55594.74
491.24	55625.17
491.41	54585.97
491.59	53418.05
491.77	51948.19
491.95	53228.46
492.13	54396.39
492.30	55559.64
492.48	56732.25
492.66	56884.38
492.84	56949.92
493.01	56615.22
493.19	56133.07
493.37	55660.28
493.54	55334.95
493.72	56210.31
493.90	57148.86
494.08	57750.38
494.25	57841.66
494.43	58145.93
494.61	58478.28
494.79	58548.50
494.96	58504.03
495.14	57818.25
495.32	56968.64
495.49	56236.05
495.67	57312.70
495.85	58695.95
496.02	58904.26
496.20	58670.21
496.38	58277.00
496.55	58457.22
496.73	58667.87
496.91	58728.72
497.09	59327.90
497.26	59449.61
497.44	59213.21
497.62	58599.99
497.79	57794.85
497.97	56772.03
498.14	56844.59
498.32	57827.62
498.50	58497.01
498.67	59182.79
498.85	59061.08
499.03	59327.90
499.20	59552.59
499.38	59496.42
499.56	59334.92
499.73	58890.22
499.91	58550.84
500.08	58124.86
500.26	57455.47
500.44	57858.04
500.61	58494.67
500.79	58361.26
500.97	57804.21
501.14	57982.09
501.32	57701.23
501.49	57743.36
501.67	57888.47
501.84	58499.35
502.02	58482.97
502.20	59133.63
502.37	59117.25
502.55	59187.47
502.72	59568.97
502.90	60013.68
503.07	59760.90
503.25	59267.05
503.43	58611.70
503.60	57911.88
503.78	57319.72
503.95	57874.43
504.13	59131.29
504.30	60006.65
504.48	59484.72
504.65	59444.93
504.83	59325.56
505.01	59964.52
505.18	60243.05
505.36	60942.87
505.53	60839.89
505.71	61071.60
505.88	61083.30
506.06	60500.51
506.23	60406.89
506.41	60013.68
506.58	60062.83
506.76	60044.10
506.93	60069.85
507.11	59997.29
507.28	59906.01
507.46	59494.08
507.63	59192.15
507.81	58941.71
507.98	59009.59
508.16	59592.38
508.33	60196.24
508.50	60491.15
508.68	60790.73
508.85	61080.96
509.03	61118.41
509.20	61085.64
509.38	60488.80
509.55	59751.54
509.73	59936.44
509.90	60280.50
510.08	60502.85
510.25	60509.87
510.42	60254.75
510.60	60151.77
510.77	60472.42
510.95	60987.34
511.12	61073.94
511.30	61279.91
511.47	61572.47
511.64	61441.40
511.82	61333.74
511.99	60626.90
512.17	60287.52
512.34	59707.07
512.51	59934.10
512.69	59922.40
512.86	60165.81
513.04	60589.45
513.21	60556.68
513.38	60133.04
513.56	59484.72
513.73	59061.08
513.90	59416.84
514.08	59522.16
514.25	59749.20
514.43	59842.82
514.60	60018.36
514.77	60168.15
514.95	60165.81
515.12	60196.24
515.29	60060.49
515.47	60891.38
515.64	60977.98
515.81	60669.03
515.99	59910.69
516.16	59047.04
516.33	56549.68
516.51	55515.17
516.68	54410.43
516.85	54092.12
517.03	54630.44
517.20	57134.82
517.37	59248.32
517.54	60299.22
517.72	60018.36
517.89	57766.76
518.06	55426.23
518.24	55620.49
518.41	57705.91
518.58	59157.04
518.75	59058.74
518.93	59426.20
519.10	59063.42
519.27	59552.59
519.45	59826.43
519.62	60477.10
519.79	60818.82
519.96	60547.32
520.14	60100.28
520.31	59344.28
520.48	59248.32
520.65	59550.25
520.83	60715.84
521.00	61010.74
521.17	60589.45
521.34	60238.37
521.52	60624.56
521.69	60832.86
521.86	61375.87
522.03	61008.40
522.20	59987.93
522.38	59121.93
522.55	58876.18
522.72	59742.17
522.89	59838.14
523.07	60076.87
523.24	60212.62
523.41	61027.13
523.58	61380.55
523.75	61661.41
523.92	61481.19
524.10	61652.05
524.27	61537.36
524.44	61394.59
524.61	61113.73
524.78	60970.96
524.96	60870.31
525.13	60844.57
525.30	61066.92
525.47	61633.33
525.64	61532.68
525.81	60814.14
525.98	59491.74
526.16	58305.09
526.33	57509.30
526.50	57256.53
526.67	56708.84
526.84	57572.50
527.01	58588.29
527.18	59201.51
527.36	59847.50
527.53	60570.72
527.70	60949.89
527.87	60449.02
528.04	60243.05
528.21	60563.70
528.38	61207.35
528.55	61481.19
528.72	61921.21
528.89	62035.90
529.07	61829.93
529.24	61251.82
529.41	60591.79
529.58	59992.61
529.75	60229.01
529.92	60598.81
530.09	61095.00
530.26	61272.88
530.43	61717.59
530.60	61619.28
530.77	61916.53
530.94	62045.26
531.11	61684.82
531.28	61261.18
531.46	60952.23
531.63	61240.12
531.80	61214.37
531.97	60727.54
532.14	60067.51
532.31	59100.87
532.48	58513.39
532.65	58391.68
532.82	59309.18
532.99	60296.88
533.16	60673.71
533.33	60914.78
533.50	61006.06
533.67	60441.99
533.84	60170.49
534.01	60285.18
534.18	60507.53
534.35	60589.45
534.52	60463.06
534.69	60701.79
534.86	61034.15
535.03	61104.37
535.20	61579.49
535.37	61766.74
535.54	62028.88
535.71	61689.50
535.88	61471.83
536.05	60715.84
536.22	60554.34
536.38	60257.09
536.55	59751.54
536.72	59248.32
536.89	58939.37
537.06	60109.64
537.23	60650.30
537.40	60874.99
537.57	60809.46
537.74	60750.94
537.91	60460.72
538.08	60566.04
538.25	60449.02
538.42	60924.14
538.59	60711.16
538.75	59987.93
538.92	59770.26
539.09	59571.32
539.26	59646.21
539.43	59388.75
539.60	59430.88
539.77	59615.79
539.94	59508.12
540.11	58768.51
540.28	58520.41
540.44	58267.64
540.61	58658.51
540.78	58695.95
540.95	59077.46
541.12	59711.75
541.29	59887.29
541.46	60107.30
541.62	60151.77
541.79	60261.77
541.96	59262.36
542.13	59407.48
542.30	59606.42
542.47	59767.92
542.63	59491.74
542.80	59583.02
542.97	59489.40
543.14	59391.09
543.31	59229.60
543.48	59924.74
543.64	60732.22
543.81	60835.20
543.98	60610.51
544.15	60252.41
544.32	59529.19
544.48	59664.94
544.65	60095.60
544.82	60236.03
544.99	60149.43
545.16	59866.22
545.32	59599.40
545.49	60221.98
545.66	60399.86
545.83	60154.11
546.00	59966.87
546.16	59613.44
546.33	59681.32
546.50	59618.13
546.67	60123.68
546.83	59922.40
547.00	59674.30
547.17	59152.36
547.34	58590.63
547.50	58412.75
547.67	59011.93
547.84	59082.14
548.00	59386.41
548.17	59842.82
548.34	59608.76
548.51	59671.96
548.67	59437.90
548.84	59753.88
549.01	59697.70
549.18	59660.26
549.34	59482.37
549.51	59510.46
549.68	59531.53
549.84	59297.47
550.01	59238.96
550.18	59030.65
550.34	59110.23
550.51	59281.09
550.68	59318.54
550.84	58773.19
551.01	58724.04
551.18	58731.06
551.34	59042.35
551.51	59456.63
551.68	59512.80
551.84	59749.20
552.01	59414.50
552.18	59412.16
552.34	58665.53
552.51	58506.37
552.68	58157.63
552.84	58745.11
553.01	58899.58
553.18	58773.19
553.34	58997.88
553.51	58988.52
553.67	59412.16
553.84	59341.94
554.01	59206.19
554.17	59079.80
554.34	59161.72
554.51	59159.38
554.67	59636.85
554.84	59339.60
555.00	59103.21
555.17	58829.37
555.33	58897.24
555.50	58890.22
555.67	58934.69
555.83	58642.12
556.00	58473.60
556.16	58415.09
556.33	58281.68
556.50	57750.38
556.66	57883.79
556.83	57647.39
556.99	57881.45
557.16	57930.60
557.32	58141.25
557.49	58454.88
557.65	58302.74
557.82	58134.23
557.98	58145.93
558.15	57595.90
558.32	56835.23
558.48	56100.30
558.65	56453.72
558.81	56699.48
558.98	57013.11
559.14	57212.06
559.31	57277.59
559.47	57205.03
559.64	56989.70
559.80	56701.82
559.97	56732.25
560.13	57022.47
560.30	58071.03
560.46	58314.45
560.63	58485.31
560.79	58656.17
560.96	58218.49
561.12	57251.84
561.29	56479.47
561.45	56214.99
561.61	56928.85
561.78	57511.64
561.94	57256.53
562.11	57200.35
562.27	57017.79
562.44	57434.41
562.60	57530.37
562.77	57783.15
562.93	57574.84
563.10	57586.54
563.26	57064.60
563.42	57296.31
563.59	56921.83
563.75	56891.40
563.92	57083.33
564.08	56793.10
564.24	57249.50
564.41	57080.98
564.57	56952.26
564.74	56842.25
564.90	57006.09
565.07	56807.14
565.23	56404.57
565.39	55903.70
565.56	55643.90
565.72	55302.18
565.88	55824.12
566.05	55952.85
566.21	55941.14
566.38	56154.13
566.54	56168.18
566.70	56795.44
566.87	56753.31
567.03	56760.33
567.19	57249.50
567.36	56788.42
567.52	56697.14
567.68	56545.00
567.85	55751.56
568.01	55374.73
568.17	55098.55
568.34	55267.07
568.50	55002.59
568.66	55344.31
568.83	55686.03
568.99	55405.16
569.15	55760.92
569.32	55765.60
569.48	55505.80
569.64	55564.32
569.81	55217.92
569.97	55253.03
570.13	54897.27
570.30	54597.68
570.46	54230.21
570.62	53577.20
570.78	53780.83
570.95	53811.26
571.11	54660.87
571.27	54511.08
571.43	54756.83
571.60	55150.04
571.76	55405.16
571.92	55693.05
572.09	55697.73
572.25	55585.38
572.41	55451.97
572.57	55475.38
572.74	55505.80
572.90	55309.20
573.06	55196.85
573.22	55152.38
573.38	55047.06
573.55	55143.02
573.71	55339.63
573.87	55253.03
574.03	54958.12
574.20	54897.27
574.36	54653.85
574.52	54740.45
574.68	54557.89
574.84	53951.69
575.01	53785.51
575.17	53202.72
575.33	53867.43
575.49	54183.40
575.65	54312.13
575.82	54368.30
575.98	53963.39
576.14	53982.12
576.30	54344.90
576.46	54478.31
576.62	54529.80
576.79	54101.48
576.95	53778.49
577.11	53998.50
577.27	54054.67
577.43	54078.08
577.59	53858.07
577.75	52694.82
577.92	52722.91
578.08	52130.75
578.24	52533.32
578.40	52839.93
578.56	53066.97
578.72	53134.84
578.88	53413.37
579.04	53434.43
579.21	53581.88
579.37	53389.96
579.53	53286.98
579.69	53413.37
579.85	53862.75
580.01	53701.25
580.17	53176.97
580.33	53151.23
580.49	53015.47
580.65	53525.71
580.82	53432.09
580.98	53722.32
581.14	53167.61
581.30	53368.90
581.46	53310.38
581.62	53738.70
581.78	53745.72
581.94	53572.52
582.10	53738.70
582.26	53631.04
582.42	53694.23
582.58	53848.71
582.74	53579.54
582.90	53635.72
583.06	53687.21
583.22	53450.81
583.38	53577.20
583.54	53464.86
583.70	53134.84
583.86	53343.15
584.02	53312.72
584.18	53464.86
584.34	53202.72
584.50	53134.84
584.66	53088.03
584.82	52640.99
584.98	52512.26
585.14	52212.67
