SpectraSuite Data File
++++++++++++++++++++++++++++++++++++
Date: Mon Oct 07 14:55:01 GMT-05:00 2013
User: price-jones
Dark Spectrum Present: No
Reference Spectrum Present: No
Number of Sampled Component Spectra: 1
Spectrometers: USB2+H05261
Integration Time (usec): 10000 (USB2+H05261)
Spectra Averaged: 1 (USB2+H05261)
Boxcar Smoothing: 0 (USB2+H05261)
Correct for Electrical Dark: No (USB2+H05261)
Strobe/Lamp Enabled: No (USB2+H05261)
Correct for Detector Non-linearity: No (USB2+H05261)
Correct for Stray Light: No (USB2+H05261)
Number of Pixels in Processed Spectrum: 2048
>>>>>Begin Processed Spectral Data<<<<<
365.73	0.00
365.92	0.00
366.12	0.00
366.32	0.00
366.52	0.00
366.72	0.00
366.91	0.00
367.11	0.00
367.31	0.00
367.51	0.00
367.70	0.00
367.90	0.00
368.10	0.00
368.30	0.00
368.49	0.00
368.69	0.00
368.89	0.00
369.09	0.00
369.28	0.00
369.48	0.00
369.68	0.00
369.87	0.00
370.07	0.00
370.27	0.00
370.47	402.57
370.66	2410.75
370.86	2700.98
371.06	3033.33
371.25	2942.05
371.45	2672.89
371.65	2342.88
371.84	2324.15
372.04	2523.10
372.24	2857.79
372.44	2935.03
372.63	2871.84
372.83	2558.21
373.03	2275.00
373.22	2157.97
373.42	2331.17
373.62	2605.02
373.81	2827.37
374.01	2738.43
374.21	2523.10
374.40	2319.47
374.60	2534.80
374.79	2949.08
374.99	3293.13
375.19	3459.31
375.38	3382.07
375.58	3279.09
375.78	3239.30
375.97	3260.37
376.17	3290.79
376.37	3370.37
376.56	3590.38
376.76	3789.33
376.95	4004.66
377.15	4138.07
377.35	4313.61
377.54	4603.83
377.74	4678.73
377.93	4786.40
378.13	4486.81
378.33	4198.92
378.52	4004.66
378.72	3770.60
378.91	3754.22
379.11	3562.30
379.31	3424.20
379.50	3571.66
379.70	3803.37
379.89	4365.10
380.09	4554.68
380.28	4664.69
380.48	4484.47
380.68	4524.26
380.87	4334.67
381.07	3990.61
381.26	3681.66
381.46	3412.50
381.65	3363.35
381.85	3307.18
382.04	3115.25
382.24	2888.22
382.43	2902.26
382.63	2836.73
382.83	2909.29
383.02	2794.60
383.22	2696.30
383.41	2883.54
383.61	3045.04
383.80	3545.91
384.00	4058.49
384.19	4421.27
384.39	4535.96
384.58	4676.39
384.78	4386.16
384.97	4454.04
385.17	4198.92
385.36	3918.06
385.56	3831.46
385.75	4098.28
385.95	4477.44
386.14	4734.90
386.34	4636.60
386.53	4365.10
386.72	4243.39
386.92	4264.46
387.11	4594.47
387.31	4676.39
387.50	4638.94
387.70	4493.83
387.89	4507.87
388.09	4472.76
388.28	4458.72
388.48	4903.42
388.67	5034.49
388.86	5434.72
389.06	5928.58
389.25	6164.97
389.45	6368.60
389.64	6092.41
389.84	6141.57
390.03	6001.13
390.22	6155.61
390.42	6450.52
390.61	6684.57
390.81	7204.17
391.00	7351.62
391.19	7164.38
391.39	6761.81
391.58	6394.34
391.78	6050.28
391.97	6125.18
392.16	5467.49
392.36	4814.48
392.55	3597.40
392.75	2991.20
392.94	2677.57
393.13	2775.88
393.33	3400.80
393.52	4238.71
393.71	5095.35
393.91	5507.28
394.10	6099.44
394.29	6949.05
394.49	7356.30
394.68	7932.08
394.88	7733.13
395.07	7918.03
395.26	7583.34
395.46	7639.51
395.65	6995.86
395.84	5961.34
396.04	4842.57
396.23	3953.16
396.42	3419.52
396.62	3604.42
396.81	4503.19
397.00	5530.69
397.19	7129.27
397.39	8131.02
397.58	9043.83
397.77	9469.81
397.97	9774.08
398.16	9919.19
398.35	10221.12
398.55	10366.23
398.74	10806.25
398.93	11173.72
399.12	10780.51
399.32	10251.55
399.51	10923.28
399.70	11447.56
399.90	11300.11
400.09	11215.85
400.28	11019.24
400.47	11419.47
400.67	11793.96
400.86	12028.01
401.05	12210.57
401.24	12009.29
401.44	12507.82
401.63	12552.29
401.82	12666.98
402.01	12383.77
402.21	12606.13
402.40	12678.68
402.59	12229.30
402.78	11683.95
402.97	11667.57
403.17	12510.16
403.36	12830.82
403.55	12959.55
403.74	13259.13
403.93	12442.29
404.13	11613.74
404.32	11719.06
404.51	12369.73
404.70	12872.95
404.89	12905.71
405.09	12528.89
405.28	12418.88
405.47	12638.89
405.66	12390.80
405.85	12088.87
406.05	11889.92
406.24	12266.75
406.43	12662.30
406.62	12802.73
406.81	13219.35
407.00	12638.89
407.20	12248.02
407.39	12432.93
407.58	13191.26
407.77	13582.13
407.96	14120.45
408.15	14342.80
408.34	14565.15
408.54	14970.07
408.73	14647.07
408.92	14604.94
409.11	13902.78
409.30	13214.66
409.49	12358.03
409.68	11543.52
409.87	11775.24
410.07	12561.66
410.26	13331.69
410.45	14047.90
410.64	14579.20
410.83	14972.41
411.02	15236.89
411.21	15707.34
411.40	15417.11
411.59	16100.55
411.78	15693.29
411.98	15538.82
412.17	15836.06
412.36	15494.35
412.55	15421.79
412.74	15105.82
412.93	14932.62
413.12	15342.21
413.31	16664.61
413.50	16879.94
413.69	17118.68
413.88	16212.89
414.07	16009.26
414.26	16704.40
414.45	16556.95
414.64	16915.05
414.83	16362.69
415.02	16489.07
415.22	16322.90
415.41	17191.23
415.60	17315.28
415.79	18125.11
415.98	18097.02
416.17	18164.90
416.36	17745.94
416.55	17811.48
416.74	17011.01
416.93	16739.51
417.12	16816.75
417.31	16875.26
417.50	17193.58
417.69	17462.74
417.88	17216.98
418.07	17547.00
418.26	17212.30
418.45	17401.88
418.64	18087.66
418.83	18759.39
419.02	18075.96
419.21	17834.88
419.39	17032.08
419.58	16807.39
419.77	16975.91
419.96	17687.43
420.15	18719.60
420.34	19372.61
420.53	19873.49
420.72	20137.97
420.91	19681.56
421.10	19438.15
421.29	19550.49
421.48	19122.18
421.67	19552.84
421.86	18967.70
422.05	17338.69
422.24	15925.00
422.43	16545.25
422.61	18359.16
422.80	19070.68
422.99	18293.63
423.18	18024.47
423.37	18132.13
423.56	18464.49
423.75	18909.19
423.94	19204.10
424.13	17858.29
424.32	17900.42
424.50	18429.38
424.69	18291.29
424.88	18232.77
425.07	18146.17
425.26	17923.82
425.45	17050.80
425.64	17106.98
425.83	17645.30
426.01	18586.19
426.20	18656.41
426.39	18078.30
426.58	16798.02
426.77	15660.52
426.96	15906.28
427.15	16655.25
427.33	17860.63
427.52	18239.79
427.71	18108.72
427.90	18113.41
428.09	17998.72
428.28	17298.90
428.46	16252.68
428.65	16514.82
428.84	17160.81
429.03	16978.25
429.22	16119.27
429.40	15262.63
429.59	13696.82
429.78	12226.96
429.97	12582.72
430.16	12238.66
430.34	12526.55
430.53	13076.57
430.72	13673.41
430.91	15166.67
431.10	17909.78
431.28	20397.77
431.47	21720.17
431.66	21579.74
431.85	18956.00
432.03	17621.89
432.22	17804.46
432.41	19283.67
432.60	20575.65
432.79	21074.18
432.97	21727.19
433.16	20966.52
433.35	18677.48
433.54	16695.04
433.72	16259.70
433.91	17216.98
434.10	19473.26
434.28	20353.30
434.47	21231.00
434.66	20063.07
434.85	20170.74
435.03	20650.55
435.22	20739.49
435.41	21975.29
435.59	22363.82
435.78	22415.31
435.97	22794.48
436.16	23070.66
436.34	22178.92
436.53	22375.52
436.72	22012.74
436.90	20961.84
437.09	20741.83
437.28	20615.44
437.46	21841.88
437.65	20971.20
437.84	18993.45
438.02	18473.85
438.21	18885.78
438.40	19229.84
438.58	20421.17
438.77	21289.51
438.96	21727.19
439.14	22937.25
439.33	22925.55
439.52	23206.41
439.70	22452.76
439.89	21867.63
440.08	21378.45
440.26	21261.43
440.45	22747.67
440.63	24233.91
440.82	25226.29
441.01	24641.16
441.19	24629.46
441.38	25715.47
441.57	26253.79
441.75	26197.62
441.94	26548.70
442.12	26707.85
442.31	26778.07
442.50	26494.86
442.68	26036.12
442.87	25984.63
443.05	25617.16
443.24	26450.39
443.43	26604.87
443.61	27075.32
443.80	27468.53
443.98	26225.70
444.17	25734.19
444.35	27264.90
444.54	28058.34
444.73	27276.60
444.91	25666.31
445.10	24697.33
445.28	24034.96
445.47	24105.18
445.65	24154.33
445.84	25352.68
446.02	25607.80
446.21	26513.59
446.39	25996.33
446.58	26639.98
446.77	27098.72
446.95	27321.07
447.14	27728.33
447.32	28315.80
447.51	27634.71
447.69	26761.69
447.88	26639.98
448.06	27138.51
448.25	27283.62
448.43	27049.57
448.62	26799.13
448.80	26654.02
448.99	26799.13
449.17	27531.72
449.36	27545.76
449.54	28191.75
449.73	29013.28
449.91	29493.09
450.10	29766.93
450.28	29741.19
450.46	30183.55
450.65	30162.48
450.83	29823.11
451.02	29156.05
451.20	28999.24
451.39	29357.34
451.57	29186.48
451.76	29202.86
451.94	28943.06
452.13	27833.65
452.31	26536.99
452.49	25514.18
452.68	26101.65
452.86	26546.36
453.05	26998.08
453.23	27927.27
453.42	28273.67
453.60	28950.09
453.78	28577.94
453.97	28561.56
454.15	28460.91
454.34	26885.73
454.52	27136.17
454.70	27747.05
454.89	27695.56
455.07	28004.51
455.26	28425.81
455.44	29394.79
455.62	29991.62
455.81	29986.94
455.99	29788.00
456.17	30319.30
456.36	30780.39
456.54	30696.13
456.73	30202.27
456.91	30555.69
457.09	31136.15
457.28	31845.33
457.46	30239.72
457.64	30089.93
457.83	29469.69
458.01	29055.41
458.19	30309.94
458.38	30403.56
458.56	30618.89
458.74	30583.78
458.93	29825.45
459.11	29612.46
459.29	29153.71
459.48	30148.44
459.66	29617.14
459.84	29958.86
460.03	30380.15
460.21	30801.45
460.39	31379.56
460.57	31082.31
460.76	31028.48
460.94	31426.37
461.12	31658.09
461.31	31618.30
461.49	31756.39
461.67	31227.43
461.85	31882.78
462.04	32168.32
462.22	31997.46
462.40	31903.84
462.59	31686.17
462.77	31735.32
462.95	31543.40
463.13	31342.11
463.32	31330.41
463.50	30602.50
463.68	31367.86
463.86	31662.77
464.05	30567.40
464.23	29701.40
464.41	30312.28
464.59	29900.34
464.78	31562.12
464.96	30866.98
465.14	30359.09
465.32	31735.32
465.50	32524.08
465.69	33106.88
465.87	31772.77
466.05	30859.96
466.23	29359.68
466.41	28634.11
466.60	30607.19
466.78	30050.14
466.96	30426.96
467.14	30955.93
467.32	30719.53
467.51	31274.24
467.69	30101.63
467.87	30551.01
468.05	31440.42
468.23	30764.00
468.41	31044.87
468.60	30998.06
468.78	32257.26
468.96	31199.34
469.14	31316.37
469.32	32102.79
469.50	30167.16
469.69	30719.53
469.87	30368.45
470.05	30239.72
470.23	30094.61
470.41	30417.60
470.59	31016.78
470.77	30714.85
470.95	31798.52
471.14	32556.85
471.32	32435.14
471.50	33624.14
471.68	34209.27
471.86	34291.19
472.04	33823.08
472.22	34204.59
472.40	33067.09
472.58	32886.87
472.77	32144.92
472.95	32889.21
473.13	33312.84
473.31	32238.54
473.49	32217.47
473.67	33771.59
473.85	33811.38
474.03	35412.31
474.21	35594.87
474.39	35754.02
474.57	35304.64
474.75	35711.89
474.93	35068.25
475.12	34352.04
475.30	34574.39
475.48	34199.91
475.66	33628.82
475.84	33530.51
476.02	33956.49
476.20	33787.97
476.38	34497.16
476.56	35314.00
476.74	36336.82
476.92	36311.07
477.10	36304.05
477.28	37148.98
477.46	37514.11
477.64	38209.25
477.82	38508.83
478.00	38120.31
478.18	37001.53
478.36	36582.57
478.54	37373.67
478.72	38319.25
478.90	39470.79
479.08	41270.67
479.26	40741.71
479.44	40488.93
479.62	40215.08
479.80	40624.68
479.98	40407.01
480.16	41083.42
480.34	40144.87
480.52	41535.15
480.70	41195.77
480.88	40973.42
481.06	42103.90
481.24	41659.20
481.41	43318.64
481.59	43658.01
481.77	42590.73
481.95	42185.82
482.13	41483.66
482.31	42618.81
482.49	43356.08
482.67	42370.72
482.85	42909.04
483.03	42639.88
483.21	44437.41
483.39	43257.78
483.57	43159.48
483.74	43414.60
483.92	44516.99
484.10	43777.38
484.28	43620.56
484.46	43707.16
484.64	45516.40
484.82	44524.01
485.00	43587.80
485.18	43000.32
485.35	40795.54
485.53	35849.99
485.71	33874.57
485.89	34866.96
486.07	37228.56
486.25	40048.91
486.43	42363.70
486.61	42314.55
486.78	42270.08
486.96	43342.04
487.14	44959.35
487.32	45727.05
487.50	46157.70
487.68	48128.44
487.85	48774.42
488.03	47721.18
488.21	47395.85
488.39	46660.92
488.57	46066.42
488.75	45516.40
488.92	47672.03
489.10	49715.32
489.28	50490.04
489.46	51913.08
489.64	51283.48
489.81	51859.25
489.99	50752.18
490.17	50836.44
490.35	51222.62
490.53	50555.57
490.70	49975.12
490.88	50117.89
491.06	51510.51
491.24	51657.96
491.41	50307.47
491.59	48610.59
491.77	48711.23
491.95	50382.37
492.13	51559.66
492.30	52292.25
492.48	52832.91
492.66	53411.02
492.84	53286.98
493.01	52626.95
493.19	52804.83
493.37	51774.99
493.54	52552.05
493.72	53212.08
493.90	53380.60
494.08	53982.12
494.25	54014.88
494.43	54625.76
494.61	55229.62
494.79	55112.59
494.96	55503.46
495.14	55075.15
495.32	53354.85
495.49	53581.88
495.67	54787.26
495.85	55730.50
496.02	56313.29
496.20	55931.78
496.38	55365.37
496.55	55358.35
496.73	56156.47
496.91	56329.67
497.09	56067.53
497.26	56119.02
497.44	55847.52
497.62	54873.86
497.79	54209.15
497.97	53258.89
498.14	53989.14
498.32	55246.00
498.50	55288.13
498.67	55487.08
498.85	55629.85
499.03	56669.05
499.20	56708.84
499.38	56144.77
499.56	55409.84
499.73	55285.79
499.91	55154.72
500.08	54543.84
500.26	54094.46
500.44	54981.52
500.61	55337.29
500.79	54911.31
500.97	55276.43
501.14	54038.29
501.32	53808.92
501.49	54026.59
501.67	54585.97
501.84	54649.17
502.02	55426.23
502.20	56430.32
502.37	56477.13
502.55	56076.90
502.72	56652.67
502.90	57111.41
503.07	57001.41
503.25	55781.99
503.43	54864.50
503.60	54555.55
503.78	54312.13
503.95	54504.06
504.13	55985.61
504.30	56292.22
504.48	56093.28
504.65	55959.87
504.83	56456.06
505.01	56961.62
505.18	57361.85
505.36	57495.26
505.53	57715.27
505.71	57986.77
505.88	58019.54
506.06	57347.81
506.23	57303.34
506.41	57001.41
506.58	57333.76
506.76	57120.77
506.93	56856.29
507.11	56603.52
507.28	56673.73
507.46	56165.84
507.63	56074.55
507.81	55070.46
507.98	55817.10
508.16	57492.92
508.33	57289.29
508.50	57364.19
508.68	57862.72
508.85	58239.55
509.03	58312.11
509.20	57691.86
509.38	56636.28
509.55	56767.35
509.73	57092.69
509.90	57275.25
510.08	57427.38
510.25	56605.86
510.42	57088.01
510.60	57523.35
510.77	57626.33
510.95	57764.42
511.12	58021.88
511.30	58382.32
511.47	58862.13
511.64	58869.15
511.82	58475.94
511.99	57457.81
512.17	57518.67
512.34	57092.69
512.51	56982.68
512.69	57420.36
512.86	57167.58
513.04	57670.80
513.21	57141.84
513.38	56189.24
513.56	56004.34
513.73	55264.73
513.90	56182.22
514.08	56308.61
514.25	56055.83
514.43	56870.34
514.60	57127.80
514.77	57214.40
514.95	57216.74
515.12	57092.69
515.29	57846.34
515.47	58286.36
515.64	58000.82
515.81	57584.20
515.99	56493.51
516.16	54609.38
516.33	51906.06
516.51	52381.19
516.68	50611.74
516.85	49794.90
517.03	52149.48
517.20	54724.07
517.37	56549.68
517.54	57490.58
517.72	56027.74
517.89	52903.13
518.06	51512.85
518.24	53144.20
518.41	55065.78
518.58	55749.22
518.75	55749.22
518.93	56020.72
519.10	55084.51
519.27	56320.31
519.45	56947.57
519.62	57497.60
519.79	57460.15
519.96	57073.96
520.14	56748.63
520.31	55421.55
520.48	55992.64
520.65	57034.17
520.83	57635.69
521.00	57729.31
521.17	57055.24
521.34	57120.77
521.52	57609.95
521.69	57745.70
521.86	58227.85
522.03	58232.53
522.20	56406.91
522.38	56282.86
522.55	56500.53
522.72	57116.09
522.89	56718.20
523.07	57291.63
523.24	57694.21
523.41	58752.13
523.58	59248.32
523.75	59274.07
523.92	58529.78
524.10	58262.96
524.27	58103.80
524.44	57951.66
524.61	57645.05
524.78	58141.25
524.96	58188.06
525.13	58122.52
525.30	58541.48
525.47	58812.98
525.64	58674.89
525.81	58024.22
525.98	55674.32
526.16	54504.06
526.33	55018.97
526.50	54213.83
526.67	54391.71
526.84	54955.78
527.01	55934.12
527.18	56390.53
527.36	57504.62
527.53	58309.77
527.70	57490.58
527.87	56233.71
528.04	57553.77
528.21	58089.76
528.38	58478.28
528.55	59386.41
528.72	59079.80
528.89	58625.74
529.07	58415.09
529.24	57277.59
529.41	56860.97
529.58	57158.22
529.75	57860.38
529.92	58031.24
530.09	58028.90
530.26	58714.68
530.43	59524.50
530.60	58504.03
530.77	58850.43
530.94	59178.10
531.11	58412.75
531.28	58602.33
531.46	58714.68
531.63	58333.17
531.80	57680.16
531.97	56942.89
532.14	57265.89
532.31	55559.64
532.48	55187.49
532.65	55391.12
532.82	56193.92
532.99	57918.90
533.16	57829.96
533.33	57982.09
533.50	58253.59
533.67	58326.15
533.84	57242.48
534.01	57698.89
534.18	57911.88
534.35	57712.93
534.52	56935.87
534.69	57544.41
534.86	58237.21
535.03	58199.76
535.20	58033.58
535.37	59164.06
535.54	59222.58
535.71	58864.47
535.88	59238.96
536.05	57888.47
536.22	57347.81
536.38	56961.62
536.55	55767.94
536.72	55980.93
536.89	56811.82
537.06	56769.69
537.23	57560.79
537.40	57783.15
537.57	57286.95
537.74	58064.01
537.91	57682.50
538.08	57439.09
538.25	57256.53
538.42	58209.12
538.59	57411.00
538.75	56676.07
538.92	56135.41
539.09	56320.31
539.26	56514.58
539.43	56465.42
539.60	56875.02
539.77	57183.97
539.94	56626.92
540.11	56072.21
540.28	55660.28
540.44	55021.31
540.61	55309.20
540.78	56011.36
540.95	56832.89
541.12	56797.78
541.29	57537.39
541.46	57516.32
541.62	57778.46
541.79	56767.35
541.96	55950.51
542.13	56034.77
542.30	56566.07
542.47	56919.49
542.63	56601.18
542.80	56385.85
542.97	55969.23
543.14	55952.85
543.31	56133.07
543.48	57382.91
543.64	57640.37
543.81	58550.84
543.98	58185.72
544.15	56301.59
544.32	57017.79
544.48	56493.51
544.65	56732.25
544.82	57420.36
544.99	55856.88
545.16	55421.55
545.32	55723.47
545.49	56521.60
545.66	56797.78
545.83	56666.71
546.00	57102.05
546.16	57029.49
546.33	56910.13
546.50	56863.32
546.67	57401.64
546.83	56395.21
547.00	57190.99
547.17	55990.30
547.34	54866.84
547.50	55288.13
547.67	56191.58
547.84	56743.95
548.00	56774.37
548.17	56406.91
548.34	56886.72
548.51	57022.47
548.67	57502.28
548.84	57371.21
549.01	57336.10
549.18	56582.45
549.34	56575.43
549.51	56821.19
549.68	56577.77
549.84	56367.12
550.01	55880.29
550.18	55384.10
550.34	55831.14
550.51	56301.59
550.68	56643.30
550.84	56636.28
551.01	55737.52
551.18	55620.49
551.34	55002.59
551.51	56598.83
551.68	56182.22
551.84	56343.72
552.01	56165.84
552.18	55915.40
552.34	55164.09
552.51	55058.76
552.68	55056.42
552.84	55093.87
553.01	55128.98
553.18	56596.49
553.34	56404.57
553.51	56280.52
553.67	55821.78
553.84	55571.34
554.01	56009.02
554.17	55311.54
554.34	56055.83
554.51	55927.10
554.67	55222.60
554.84	55131.32
555.00	55337.29
555.17	55426.23
555.33	54965.14
555.50	54497.03
555.67	55377.08
555.83	55213.24
556.00	55152.38
556.16	54593.00
556.33	54260.64
556.50	54965.14
556.66	55000.25
556.83	54564.91
556.99	54288.73
557.16	54564.91
557.32	54384.69
557.49	54513.42
557.65	54581.29
557.82	55056.42
557.98	55351.33
558.15	53925.94
558.32	53399.32
558.48	52638.65
558.65	52814.19
558.81	53453.15
558.98	54239.57
559.14	54227.87
559.31	54047.65
559.47	53588.91
559.64	53118.46
559.80	52683.12
559.97	53616.99
560.13	54796.62
560.30	55739.86
560.46	55906.04
560.63	56378.82
560.79	55870.93
560.96	55091.53
561.12	53626.35
561.29	53368.90
561.45	53319.74
561.61	55119.62
561.78	54131.91
561.94	54817.69
562.11	54791.94
562.27	53712.95
562.44	54396.39
562.60	55002.59
562.77	55105.57
562.93	53881.47
563.10	53647.42
563.26	53638.06
563.42	54380.01
563.59	53719.98
563.75	53663.80
563.92	53614.65
564.08	53106.76
564.24	54258.30
564.41	53549.12
564.57	54241.92
564.74	53883.81
564.90	52708.86
565.07	53183.99
565.23	52060.54
565.39	51959.89
565.56	52275.87
565.72	52648.01
565.88	51264.75
566.05	53567.84
566.21	54106.16
566.38	53052.92
566.54	53322.08
566.70	53488.26
566.87	53668.48
567.03	53120.80
567.19	54321.49
567.36	54756.83
567.52	52973.34
567.68	52699.50
567.85	51931.81
568.01	51936.49
568.17	52655.03
568.34	53020.16
568.50	52650.35
568.66	52765.04
568.83	51796.06
568.99	51423.91
569.15	51749.24
569.32	52018.41
569.48	51814.78
569.64	51660.30
569.81	51585.41
569.97	51262.41
570.13	50974.53
570.30	50365.99
570.46	49729.36
570.62	48772.08
570.78	49378.28
570.95	50611.74
571.11	50057.04
571.27	49633.40
571.43	49977.46
571.60	49745.75
571.76	51522.21
571.92	51423.91
572.09	52182.24
572.25	52126.07
572.41	52650.35
572.57	52339.06
572.74	52388.21
572.90	53392.30
573.06	52275.87
573.22	52495.88
573.38	52280.55
573.55	53593.59
573.71	52413.96
573.87	52376.51
574.03	52327.36
574.20	51760.95
574.36	51938.83
574.52	51318.59
574.68	50506.42
574.84	49778.51
575.01	50230.24
575.17	50721.75
575.33	50660.90
575.49	50518.12
575.65	49998.52
575.82	50433.86
575.98	49918.95
576.14	51058.79
576.30	51421.57
576.46	50171.72
576.62	50417.48
576.79	50244.28
576.95	50272.37
577.11	50653.87
577.27	50347.26
577.43	50796.65
577.59	49827.66
577.75	48437.39
577.92	48210.35
578.08	48868.05
578.24	49748.09
578.40	49785.54
578.56	49038.90
578.72	49165.29
578.88	48996.77
579.04	49453.18
579.21	48655.06
579.37	49095.08
579.53	49804.26
579.69	48839.96
579.85	49127.84
580.01	49516.37
580.17	48708.89
580.33	49932.99
580.49	49881.50
580.65	48102.69
580.82	48966.35
580.98	49986.82
581.14	50040.65
581.30	49717.66
581.46	49303.38
581.62	49769.15
581.78	50202.15
581.94	50153.00
582.10	50593.02
582.26	50646.85
582.42	50457.27
582.58	48601.22
582.74	48797.83
582.90	48910.17
583.06	49130.19
583.22	49757.45
583.38	49148.91
583.54	50024.27
583.70	50099.17
583.86	49628.72
584.02	49160.61
584.18	49207.42
584.34	48282.91
584.50	47753.95
584.66	47807.78
584.82	48715.91
584.98	48807.19
585.14	48086.31
585.30	48222.06
