SpectraSuite Data File
++++++++++++++++++++++++++++++++++++
Date: Mon Oct 07 14:54:57 GMT-05:00 2013
User: price-jones
Dark Spectrum Present: No
Reference Spectrum Present: No
Number of Sampled Component Spectra: 1
Spectrometers: USB2+H05261
Integration Time (usec): 10000 (USB2+H05261)
Spectra Averaged: 1 (USB2+H05261)
Boxcar Smoothing: 0 (USB2+H05261)
Correct for Electrical Dark: No (USB2+H05261)
Strobe/Lamp Enabled: No (USB2+H05261)
Correct for Detector Non-linearity: No (USB2+H05261)
Correct for Stray Light: No (USB2+H05261)
Number of Pixels in Processed Spectrum: 2048
>>>>>Begin Processed Spectral Data<<<<<
365.73	0.00
365.92	0.00
366.12	0.00
366.32	0.00
366.52	0.00
366.72	0.00
366.91	0.00
367.11	0.00
367.31	0.00
367.51	0.00
367.70	0.00
367.90	0.00
368.10	0.00
368.30	0.00
368.49	0.00
368.69	0.00
368.89	0.00
369.09	0.00
369.28	0.00
369.48	0.00
369.68	0.00
369.87	0.00
370.07	0.00
370.27	0.00
370.47	135.75
370.66	1259.21
370.86	1680.50
371.06	1799.87
371.25	1715.61
371.45	1507.30
371.65	1273.25
371.84	1448.79
372.04	1385.60
372.24	1694.55
372.44	1652.42
372.63	1554.12
372.83	1511.99
373.03	1341.13
373.22	1210.06
373.42	1350.49
373.62	1526.03
373.81	1612.63
374.01	1561.14
374.21	1329.42
374.40	1355.17
374.60	1486.24
374.79	1753.06
374.99	1940.30
375.19	2036.27
375.38	2169.68
375.58	1900.52
375.78	1895.83
375.97	1863.07
376.17	1940.30
376.37	1987.11
376.56	2073.71
376.76	2230.53
376.95	2370.96
377.15	2551.18
377.35	2665.87
377.54	2682.25
377.74	2803.96
377.93	2766.51
378.13	2605.02
378.33	2443.52
378.52	2317.13
378.72	2228.19
378.91	2200.10
379.11	2101.80
379.31	2052.65
379.50	1998.82
379.70	2200.10
379.89	2413.09
380.09	2565.23
380.28	2661.19
380.48	2719.70
380.68	2768.85
380.87	2434.16
381.07	2251.60
381.26	2141.59
381.46	1991.80
381.65	1912.22
381.85	1926.26
382.04	1612.63
382.24	1526.03
382.43	1610.29
382.63	1488.58
382.83	1544.75
383.02	1483.90
383.22	1458.15
383.41	1610.29
383.61	1713.27
383.80	2085.42
384.00	2209.47
384.19	2558.21
384.39	2619.06
384.58	2558.21
384.78	2483.31
384.97	2558.21
385.17	2429.48
385.36	2272.66
385.56	2188.40
385.75	2356.92
385.95	2466.92
386.14	2738.43
386.34	2710.34
386.53	2551.18
386.72	2480.97
386.92	2569.91
387.11	2619.06
387.31	2693.96
387.50	2630.76
387.70	2597.99
387.89	2422.45
388.09	2581.61
388.28	2525.44
388.48	2647.15
388.67	2932.69
388.86	3187.81
389.06	3414.84
389.25	3552.93
389.45	3499.10
389.64	3618.47
389.84	3485.06
390.03	3564.64
390.22	3555.27
390.42	3772.94
390.61	3885.29
390.81	4189.56
391.00	4121.68
391.19	4119.34
391.39	3955.51
391.58	3585.70
391.78	3382.07
391.97	3260.37
392.16	3091.85
392.36	2684.59
392.55	2024.56
392.75	1540.07
392.94	1327.08
393.13	1397.30
393.33	1811.57
393.52	2380.32
393.71	2785.24
393.91	3204.19
394.10	3616.13
394.29	4014.02
394.49	4063.17
394.68	4390.84
394.88	4388.50
395.07	4416.59
395.26	4369.78
395.46	4348.72
395.65	3889.97
395.84	3391.44
396.04	2696.30
396.23	2284.36
396.42	1865.41
396.62	1970.73
396.81	2527.78
397.00	3056.74
397.19	3852.52
397.39	4500.85
397.58	5027.47
397.77	5390.25
397.97	5376.21
398.16	5495.58
398.35	5757.72
398.55	5858.36
398.74	5984.75
398.93	6078.37
399.12	6204.76
399.32	6005.81
399.51	6059.65
399.70	6260.93
399.90	6239.87
400.09	6258.59
400.28	6368.60
400.47	6427.11
400.67	6740.74
400.86	6963.09
401.05	6918.62
401.24	6864.79
401.44	6927.99
401.63	6839.05
401.82	6935.01
402.01	7075.44
402.21	7211.19
402.40	6913.94
402.59	6871.81
402.78	6478.60
402.97	6347.53
403.17	6637.76
403.36	7115.23
403.55	7328.22
403.74	7250.98
403.93	6925.65
404.13	6487.96
404.32	6420.09
404.51	6944.37
404.70	7344.60
404.89	7197.15
405.09	6960.75
405.28	7089.48
405.47	6970.12
405.66	6808.62
405.85	6670.53
406.05	6551.16
406.24	6736.06
406.43	6778.19
406.62	7199.49
406.81	7119.91
407.00	6888.20
407.20	6663.51
407.39	6862.45
407.58	7293.11
407.77	7478.01
407.96	7693.34
408.15	7852.50
408.34	7735.47
408.54	7999.95
408.73	8149.75
408.92	8004.63
409.11	7653.55
409.30	7232.26
409.49	6801.60
409.68	6483.28
409.87	6710.32
410.07	6825.00
410.26	7389.07
410.45	7557.59
410.64	7929.74
410.83	8243.37
411.02	8465.72
411.21	8795.73
411.40	8578.06
411.59	8699.77
411.78	8472.74
411.98	8306.56
412.17	8664.66
412.36	8435.29
412.55	8451.67
412.74	8334.65
412.93	8102.93
413.12	8339.33
413.31	8891.70
413.50	8959.57
413.69	8809.78
413.88	8559.34
414.07	8713.81
414.26	8922.12
414.45	9018.08
414.64	8957.23
414.83	8805.10
415.02	8879.99
415.22	8720.84
415.41	8894.04
415.60	9123.41
415.79	9341.08
415.98	9827.91
416.17	9687.48
416.36	9472.15
416.55	9525.98
416.74	8870.63
416.93	8685.73
417.12	8781.69
417.31	8982.98
417.50	8910.42
417.69	9530.66
417.88	9472.15
418.07	9245.12
418.26	9053.19
418.45	9570.45
418.64	9785.78
418.83	10186.01
419.02	9886.42
419.21	9411.29
419.39	9380.87
419.58	8851.91
419.77	8898.72
419.96	9474.49
420.15	9689.82
420.34	10132.18
420.53	10619.01
420.72	10656.46
420.91	10387.30
421.10	10125.16
421.29	10202.40
421.48	10033.88
421.67	10427.09
421.86	9783.44
422.05	8894.04
422.24	8451.67
422.43	8641.26
422.61	9610.24
422.80	9839.61
422.99	9912.17
423.18	9607.90
423.37	9455.76
423.56	9720.24
423.75	9724.93
423.94	9928.55
424.13	9486.19
424.32	9181.92
424.50	9287.25
424.69	9535.34
424.88	9570.45
425.07	9224.05
425.26	9324.69
425.45	9207.67
425.64	9404.27
425.83	9504.92
426.01	10001.11
426.20	9844.29
426.39	9563.43
426.58	8704.45
426.77	8336.99
426.96	8231.66
427.15	8622.53
427.33	9226.39
427.52	9369.16
427.71	9476.83
427.90	9025.11
428.09	8863.61
428.28	8896.38
428.46	8615.51
428.65	8716.16
428.84	8856.59
429.03	8917.44
429.22	8369.76
429.40	7655.89
429.59	7080.12
429.78	6368.60
429.97	6417.75
430.16	6541.80
430.34	6387.32
430.53	6698.61
430.72	7035.65
430.91	7723.77
431.10	9078.94
431.28	10340.49
431.47	10967.75
431.66	11040.31
431.85	9823.23
432.03	8959.57
432.22	9179.58
432.41	9715.56
432.60	10394.32
432.79	10895.19
432.97	11042.65
433.16	10408.36
433.35	9607.90
433.54	8585.08
433.72	8571.04
433.91	8966.59
434.10	10073.67
434.28	10382.62
434.47	10869.45
434.66	10293.68
434.85	10574.54
435.03	10619.01
435.22	10572.20
435.41	10946.69
435.59	11183.08
435.78	11276.70
435.97	11485.01
436.16	11250.96
436.34	11447.56
436.53	11300.11
436.72	11405.43
436.90	10497.30
437.09	10595.61
437.28	10373.25
437.46	10923.28
437.65	10427.09
437.84	9582.15
438.02	9205.33
438.21	9521.30
438.40	9968.34
438.58	10525.39
438.77	10712.63
438.96	11009.88
439.14	11487.35
439.33	11510.75
439.52	11751.83
439.70	11569.27
439.89	10991.16
440.08	10953.71
440.26	10972.43
440.45	11592.67
440.63	12128.66
440.82	12947.84
441.01	12299.52
441.19	12383.77
441.38	12713.79
441.57	12926.78
441.75	13067.21
441.94	13184.24
442.12	13029.76
442.31	13525.96
442.50	13383.18
442.68	13448.72
442.87	13153.81
443.05	12894.01
443.24	13380.84
443.43	13308.29
443.61	13474.46
443.80	14050.24
443.98	13221.69
444.17	13467.44
444.35	14129.81
444.54	14293.65
444.73	13762.35
444.91	12762.94
445.10	12477.40
445.28	12322.92
445.47	11838.43
445.65	11971.84
445.84	12423.56
446.02	12865.92
446.21	13130.41
446.39	13137.43
446.58	13479.15
446.77	13654.69
446.95	13626.60
447.14	13907.46
447.32	14239.82
447.51	13860.65
447.69	12950.18
447.88	12989.97
448.06	13200.62
448.25	13364.46
448.43	13572.77
448.62	13364.46
448.80	13165.51
448.99	13341.05
449.17	13437.02
449.36	13577.45
449.54	13848.95
449.73	14288.97
449.91	14483.24
450.10	15183.06
450.28	14906.87
450.46	14600.26
450.65	14663.46
450.83	14448.13
451.02	14600.26
451.20	14487.92
451.39	14230.46
451.57	13895.76
451.76	14005.77
451.94	14146.20
452.13	13905.12
452.31	13109.34
452.49	12659.96
452.68	12842.52
452.86	12666.98
453.05	12987.63
453.23	13895.76
453.42	14040.87
453.60	13738.94
453.78	14148.54
453.97	13727.24
454.15	13650.00
454.34	13437.02
454.52	13621.92
454.70	13561.06
454.89	13710.86
455.07	13743.63
455.26	13949.59
455.44	14295.99
455.62	14450.47
455.81	14768.78
455.99	13949.59
456.17	14324.08
456.36	14541.75
456.54	14827.29
456.73	15007.52
456.91	15040.28
457.09	14920.92
457.28	15417.11
457.46	14946.66
457.64	14689.20
457.83	13818.52
458.01	13914.48
458.19	14389.61
458.38	14473.87
458.56	14614.30
458.74	14621.33
458.93	14464.51
459.11	14279.61
459.29	14284.29
459.48	14424.72
459.66	14321.74
459.84	14174.28
460.03	14675.16
460.21	14684.52
460.39	14960.70
460.57	15103.48
460.76	15042.62
460.94	15047.30
461.12	14857.72
461.31	15323.49
461.49	15246.25
461.67	15253.27
461.85	15555.20
462.04	15482.64
462.22	15417.11
462.40	15215.82
462.59	14773.46
462.77	14834.32
462.95	15140.93
463.13	15246.25
463.32	15145.61
463.50	14984.11
463.68	14731.33
463.86	15178.37
464.05	14860.06
464.23	14520.68
464.41	13907.46
464.59	14267.91
464.78	14445.79
464.96	14586.22
465.14	14398.98
465.32	14895.17
465.50	15262.63
465.69	15084.75
465.87	14963.04
466.05	14090.02
466.23	13879.38
466.41	13947.25
466.60	14546.43
466.78	14520.68
466.96	14340.46
467.14	14597.92
467.32	14808.57
467.51	14675.16
467.69	13975.34
467.87	14171.94
468.05	14347.48
468.23	14806.23
468.41	14883.47
468.60	14668.14
468.78	14443.45
468.96	14721.97
469.14	15225.18
469.32	15154.97
469.50	13996.40
469.69	14218.75
469.87	13870.01
470.05	14155.56
470.23	14148.54
470.41	14434.08
470.59	14726.65
470.77	14684.52
470.95	14548.77
471.14	14836.66
471.32	14965.39
471.50	15683.93
471.68	15618.39
471.86	15929.69
472.04	16067.78
472.22	15627.76
472.40	15187.74
472.58	15363.28
472.77	14817.93
472.95	15470.94
473.13	15681.59
473.31	15096.46
473.49	15173.69
473.67	15344.55
473.85	15405.41
474.03	15854.79
474.21	15735.42
474.39	16035.01
474.57	15829.04
474.75	16393.11
474.93	16332.26
475.12	15777.55
475.30	15676.91
475.48	15962.45
475.66	15805.64
475.84	15967.13
476.02	15683.93
476.20	15632.44
476.38	15936.71
476.56	16187.14
476.74	16475.03
476.92	16500.78
477.10	17006.33
477.28	17411.25
477.46	17422.95
477.64	17565.72
477.82	17654.66
478.00	17687.43
478.18	17097.61
478.36	16741.85
478.54	16863.56
478.72	17724.88
478.90	17912.12
479.08	17905.10
479.26	18506.62
479.44	17790.41
479.62	18293.63
479.80	18228.09
479.98	18157.88
480.16	18532.36
480.34	18443.42
480.52	18333.42
480.70	18183.62
480.88	18490.23
481.06	19159.63
481.24	19227.50
481.41	20006.90
481.59	19817.32
481.77	19400.70
481.95	19026.21
482.13	19711.99
482.31	19211.12
482.49	19763.48
482.67	19393.68
482.85	19513.05
483.03	19536.45
483.21	20056.05
483.39	20004.56
483.57	19859.45
483.74	19552.84
483.92	19634.75
484.10	20049.03
484.28	20217.55
484.46	20152.01
484.64	19948.39
484.82	20126.27
485.00	20032.65
485.18	19037.92
485.35	18326.39
485.53	16411.84
485.71	15239.23
485.89	15585.63
486.07	16563.97
486.25	18347.46
486.43	18848.33
486.61	18614.28
486.78	18838.97
486.96	19620.71
487.14	20409.47
487.32	20666.93
487.50	20931.41
487.68	20512.46
487.85	21666.34
488.03	21474.42
488.21	20994.61
488.39	20416.49
488.57	20510.11
488.75	20489.05
488.92	21830.18
489.10	23421.74
489.28	23524.72
489.46	23805.59
489.64	24765.21
489.81	24161.35
489.99	23372.59
490.17	24065.39
490.35	24416.47
490.53	23578.56
490.70	23075.34
490.88	23227.48
491.06	24240.93
491.24	24044.32
491.41	22998.10
491.59	21872.31
491.77	21460.37
491.95	22452.76
492.13	22932.57
492.30	23992.83
492.48	24992.24
492.66	25034.37
492.84	24797.98
493.01	24482.00
493.19	23543.45
493.37	23035.55
493.54	23356.21
493.72	24360.30
493.90	25436.94
494.08	25846.54
494.25	26094.63
494.43	26319.32
494.61	27051.91
494.79	26518.27
494.96	26419.97
495.14	25507.16
495.32	25006.28
495.49	24737.12
495.67	25378.43
495.85	27597.26
496.02	26902.12
496.20	27075.32
496.38	26698.49
496.55	26183.57
496.73	26960.63
496.91	26169.53
497.09	26813.18
497.26	27047.23
497.44	27213.41
497.62	26412.95
497.79	25795.04
497.97	24505.41
498.14	24828.40
498.32	26349.75
498.50	26548.70
498.67	27314.05
498.85	26487.84
499.03	25951.86
499.20	26934.88
499.38	26885.73
499.56	26298.26
499.73	26162.51
499.91	25752.91
500.08	25214.59
500.26	24559.24
500.44	25621.84
500.61	26408.26
500.79	25460.35
500.97	25446.30
501.14	25340.98
501.32	24961.81
501.49	24652.86
501.67	25331.62
501.84	26405.92
502.02	26176.55
502.20	26054.84
502.37	26555.72
502.55	26539.33
502.72	27285.97
502.90	27798.54
503.07	27047.23
503.25	26602.53
503.43	25855.90
503.60	24966.49
503.78	24723.08
503.95	25544.61
504.13	26155.49
504.30	27384.27
504.48	27627.68
504.65	27075.32
504.83	26951.27
505.01	27206.39
505.18	27505.98
505.36	28397.72
505.53	27878.12
505.71	28709.01
505.88	28952.43
506.06	28432.83
506.23	27262.56
506.41	27248.52
506.58	27459.16
506.76	27250.86
506.93	27503.64
507.11	26590.83
507.28	26974.67
507.46	26487.84
507.63	26328.69
507.81	25804.41
507.98	26125.06
508.16	26906.80
508.33	27484.91
508.50	26761.69
508.68	27747.05
508.85	27924.93
509.03	28084.09
509.20	27555.13
509.38	27033.19
509.55	26644.66
509.73	27365.54
509.90	27931.95
510.08	26948.93
510.25	26883.39
510.42	26810.84
510.60	27037.87
510.77	27527.04
510.95	28556.88
511.12	27662.79
511.30	28247.93
511.47	29060.09
511.64	28025.57
511.82	28376.66
511.99	27946.00
512.17	27367.88
512.34	26888.07
512.51	26473.80
512.69	26647.00
512.86	27168.94
513.04	27419.38
513.21	27049.57
513.38	27278.94
513.56	26118.04
513.73	25387.79
513.90	25308.21
514.08	25869.94
514.25	26476.14
514.43	27033.19
514.60	27276.60
514.77	26920.84
514.95	26948.93
515.12	26962.97
515.29	27208.73
515.47	27363.20
515.64	27150.21
515.81	27379.59
515.99	26714.87
516.16	24676.27
516.33	23267.27
516.51	21586.76
516.68	21556.33
516.85	20556.93
517.03	21469.73
517.20	23623.03
517.37	25308.21
517.54	25593.76
517.72	24648.18
517.89	22754.69
518.06	22338.07
518.24	22750.01
518.41	24250.29
518.58	25235.66
518.75	25041.39
518.93	25553.97
519.10	25511.84
519.27	25818.45
519.45	25855.90
519.62	26396.56
519.79	26778.07
519.96	26969.99
520.14	26267.83
520.31	25455.67
520.48	25355.02
520.65	25858.24
520.83	26522.95
521.00	26361.45
521.17	26572.10
521.34	25921.43
521.52	26211.66
521.69	26806.16
521.86	27094.04
522.03	26206.98
522.20	25177.14
522.38	24044.32
522.55	24554.56
522.72	25205.23
522.89	24870.53
523.07	25687.38
523.24	26260.81
523.41	26623.59
523.58	26904.46
523.75	26560.40
523.92	27494.27
524.10	27063.61
524.27	27236.81
524.44	27030.85
524.61	27688.54
524.78	27353.84
524.96	26483.16
525.13	26492.52
525.30	27658.11
525.47	27793.86
525.64	27215.75
525.81	25813.77
525.98	23997.51
526.16	22747.67
526.33	22565.10
526.50	22958.31
526.67	22953.63
526.84	23175.98
527.01	24383.70
527.18	25352.68
527.36	25455.67
527.53	27068.30
527.70	26504.23
527.87	25003.94
528.04	25113.95
528.21	25696.74
528.38	26188.25
528.55	27190.00
528.72	27044.89
528.89	27075.32
529.07	27627.68
529.24	26057.18
529.41	26312.30
529.58	25621.84
529.75	25427.58
529.92	25823.13
530.09	25614.82
530.26	26134.42
530.43	24947.77
530.60	26712.53
530.77	26796.79
530.94	27400.65
531.11	26494.86
531.28	26443.37
531.46	25942.50
531.63	26312.30
531.80	26759.34
531.97	25701.42
532.14	24397.74
532.31	23742.39
532.48	22916.19
532.65	23442.81
532.82	24147.31
532.99	25060.12
533.16	25748.23
533.33	26941.91
533.50	26279.54
533.67	25298.85
533.84	25219.27
534.01	25099.90
534.18	25380.77
534.35	25123.31
534.52	25326.94
534.69	25565.67
534.86	25816.11
535.03	25832.49
535.20	26551.04
535.37	26412.95
535.54	26548.70
535.71	25914.41
535.88	25926.11
536.05	24676.27
536.22	24732.44
536.38	23875.80
536.55	24343.91
536.72	24229.23
536.89	24496.05
537.06	25132.67
537.23	25282.47
537.40	25406.52
537.57	25186.50
537.74	24304.12
537.91	24538.18
538.08	25792.70
538.25	25450.99
538.42	25202.89
538.59	25179.48
538.75	25046.07
538.92	24713.72
539.09	24210.50
539.26	23494.30
539.43	23152.58
539.60	23080.02
539.77	23386.63
539.94	22682.13
540.11	22089.98
540.28	22066.57
540.44	22431.69
540.61	23559.83
540.78	23173.64
540.95	24191.78
541.12	23660.48
541.29	24095.82
541.46	24278.38
541.62	24065.39
541.79	23524.72
541.96	23440.47
542.13	24126.24
542.30	24343.91
542.47	24233.91
542.63	23761.12
542.80	22618.94
542.97	23314.08
543.14	23576.22
543.31	23314.08
543.48	24233.91
543.64	24049.00
543.81	24861.17
543.98	23868.78
544.15	23726.01
544.32	23201.73
544.48	24285.40
544.65	23433.44
544.82	23513.02
544.99	23597.28
545.16	23641.75
545.32	24177.73
545.49	24491.37
545.66	24650.52
545.83	24187.10
546.00	24189.44
546.16	23482.59
546.33	23627.71
546.50	24243.27
546.67	23875.80
546.83	23711.97
547.00	23257.90
547.17	23007.47
547.34	23152.58
547.50	23105.77
547.67	22932.57
547.84	22829.59
548.00	23356.21
548.17	22698.52
548.34	22759.37
548.51	22644.68
548.67	24315.83
548.84	23463.87
549.01	23751.76
549.18	23824.31
549.34	23875.80
549.51	23768.14
549.68	23576.22
549.84	23056.62
550.01	22998.10
550.18	22352.12
550.34	22487.87
550.51	22506.59
550.68	22352.12
550.84	21694.43
551.01	21619.53
551.18	21399.52
551.34	21640.59
551.51	22504.25
551.68	23452.17
551.84	22595.53
552.01	23028.53
552.18	22588.51
552.34	21879.33
552.51	21977.63
552.68	22829.59
552.84	22274.88
553.01	22106.36
553.18	23012.15
553.34	22649.36
553.51	22438.72
553.67	22099.34
553.84	23220.45
554.01	23293.01
554.17	22199.98
554.34	22782.77
554.51	22855.33
554.67	22890.44
554.84	22321.69
555.00	22279.56
555.17	22398.93
555.33	22197.64
555.50	22480.85
555.67	22328.71
555.83	22485.53
556.00	22279.56
556.16	22225.73
556.33	21741.24
556.50	21769.32
556.66	21448.67
556.83	20713.74
556.99	21177.17
557.16	21919.12
557.32	21795.07
557.49	21921.46
557.65	21731.87
557.82	20568.63
557.98	21280.15
558.15	21469.73
558.32	20739.49
558.48	19854.76
558.65	20084.14
558.81	20060.73
558.98	20507.77
559.14	20772.25
559.31	20720.76
559.47	20393.09
559.64	20175.42
559.80	20779.28
559.97	20549.90
560.13	21137.38
560.30	21125.68
560.46	21394.84
560.63	21582.08
560.79	22080.61
560.96	21170.15
561.12	20587.35
561.29	20390.75
561.45	20159.03
561.61	19836.04
561.78	20154.35
561.94	20341.60
562.11	20336.91
562.27	20556.93
562.44	20805.02
562.60	21036.74
562.77	21242.70
562.93	20702.04
563.10	20304.15
563.26	20566.29
563.42	19871.15
563.59	19831.36
563.75	20379.04
563.92	20486.71
564.08	20376.70
564.24	20236.27
564.41	18998.13
564.57	19728.38
564.74	19611.35
564.90	19487.30
565.07	19585.60
565.23	18506.62
565.39	18728.97
565.56	19864.13
565.72	19213.46
565.88	19990.52
566.05	19477.94
566.21	19410.06
566.38	19037.92
566.54	19304.74
566.70	19054.30
566.87	19513.05
567.03	20491.39
567.19	20615.44
567.36	19260.27
567.52	20133.29
567.68	19000.47
567.85	19225.16
568.01	19611.35
568.17	18382.57
568.34	18284.26
568.50	18455.12
568.66	18724.29
568.83	18600.24
568.99	19484.96
569.15	19073.03
569.32	19433.47
569.48	19264.95
569.64	18724.29
569.81	18019.78
569.97	18523.00
570.13	18745.35
570.30	18345.12
570.46	17607.85
570.62	17490.82
570.78	16996.97
570.95	17345.71
571.11	17813.82
571.27	17867.65
571.43	17734.24
571.60	18443.42
571.76	18300.65
571.92	18548.75
572.09	18956.00
572.25	18415.34
572.41	19009.83
572.57	18719.60
572.74	18473.85
572.90	18434.06
573.06	18188.30
573.22	17994.04
573.38	18321.71
573.55	17488.48
573.71	17631.26
573.87	18317.03
574.03	18228.09
574.20	18223.41
574.36	18085.32
574.52	18031.49
574.68	17790.41
574.84	17685.09
575.01	17577.42
575.17	17937.87
575.33	17509.55
575.49	17399.54
575.65	17788.07
575.82	17324.65
575.98	17074.21
576.14	17287.20
576.30	17268.47
576.46	16922.07
576.62	17413.59
576.79	17191.23
576.95	16814.41
577.11	16786.32
577.27	16964.20
577.43	16858.88
577.59	16917.39
577.75	17039.10
577.92	16468.01
578.08	16453.97
578.24	16503.12
578.40	16727.81
578.56	16723.13
578.72	16695.04
578.88	17341.03
579.04	17071.87
579.21	16575.67
579.37	16926.75
579.53	16908.03
579.69	16224.59
579.85	16456.31
580.01	16226.93
580.17	16404.81
580.33	16664.61
580.49	16554.61
580.65	16484.39
580.82	16517.16
580.98	16851.86
581.14	16451.63
581.30	17240.39
581.46	16826.11
581.62	16456.31
581.78	16800.37
581.94	17193.58
582.10	16664.61
582.26	16524.18
582.42	16695.04
582.58	17174.85
582.74	17020.38
582.90	16645.89
583.06	17160.81
583.22	16938.46
583.38	16828.45
583.54	17144.42
583.70	16905.69
583.86	16746.53
584.02	16987.61
584.18	16940.80
584.34	16980.59
584.50	17422.95
584.66	16872.92
584.82	16629.51
584.98	16428.22
585.14	16549.93
585.30	15475.62
585.46	15552.86
585.62	15646.48
585.78	15845.43
585.94	15997.56
586.10	16259.70
586.26	16009.26
586.42	15953.09
586.58	15920.32
586.74	15487.32
586.90	15777.55
587.06	16039.69
