SpectraSuite Data File
++++++++++++++++++++++++++++++++++++
Date: Mon Oct 07 14:53:32 GMT-05:00 2013
User: price-jones
Dark Spectrum Present: No
Reference Spectrum Present: No
Number of Sampled Component Spectra: 1
Spectrometers: USB2+H05261
Integration Time (usec): 100000 (USB2+H05261)
Spectra Averaged: 1 (USB2+H05261)
Boxcar Smoothing: 0 (USB2+H05261)
Correct for Electrical Dark: No (USB2+H05261)
Strobe/Lamp Enabled: No (USB2+H05261)
Correct for Detector Non-linearity: No (USB2+H05261)
Correct for Stray Light: No (USB2+H05261)
Number of Pixels in Processed Spectrum: 2048
>>>>>Begin Processed Spectral Data<<<<<
365.73	0.00
365.92	0.00
366.12	0.00
366.32	0.00
366.52	0.00
366.72	0.00
366.91	0.00
367.11	0.00
367.31	0.00
367.51	0.00
367.70	0.00
367.90	0.00
368.10	0.00
368.30	0.00
368.49	0.00
368.69	0.00
368.89	0.00
369.09	0.00
369.28	0.00
369.48	0.00
369.68	0.00
369.87	0.00
370.07	0.00
370.27	0.00
370.47	613.22
370.66	3253.34
370.86	3756.56
371.06	3992.95
371.25	4002.32
371.45	3613.79
371.65	3339.94
371.84	3133.98
372.04	3222.92
372.24	3737.84
372.44	3908.69
372.63	3796.35
372.83	3482.72
373.03	3150.36
373.22	2843.75
373.42	3141.00
373.62	3496.76
373.81	3803.37
374.01	3805.71
374.21	3550.59
374.40	3131.64
374.60	3311.86
374.79	3719.11
374.99	4402.55
375.19	4538.30
375.38	4690.43
375.58	4465.74
375.78	4329.99
375.97	4414.25
376.17	4620.22
376.37	4554.68
376.56	4674.05
376.76	4983.00
376.95	5247.48
377.15	5764.74
377.35	5727.29
377.54	6003.47
377.74	6176.67
377.93	6389.66
378.13	6216.46
378.33	5799.85
378.52	5413.66
378.72	5210.03
378.91	5076.62
379.11	4938.53
379.31	4702.14
379.50	4835.55
379.70	5228.76
379.89	5540.05
380.09	5940.28
380.28	6195.40
380.48	6249.23
380.68	6076.03
380.87	5905.17
381.07	5263.86
381.26	5186.63
381.46	4727.88
381.65	4669.37
381.85	4423.61
382.04	4194.24
382.24	4053.81
382.43	3698.05
382.63	3693.37
382.83	3667.62
383.02	3693.37
383.22	3733.15
383.41	3779.97
383.61	4119.34
383.80	4538.30
384.00	5355.15
384.19	5764.74
384.39	6090.07
384.58	6026.88
384.78	5944.96
384.97	5959.00
385.17	5572.82
385.36	5320.04
385.56	5116.41
385.75	5195.99
385.95	5748.36
386.14	6267.95
386.34	6387.32
386.53	5994.11
386.72	5533.03
386.92	5657.07
387.11	6015.18
387.31	6286.68
387.50	6244.55
387.70	6033.90
387.89	5811.55
388.09	5886.45
388.28	5959.00
388.48	6099.44
388.67	6464.56
388.86	6946.71
389.06	7578.65
389.25	7918.03
389.45	8203.58
389.64	8124.00
389.84	8093.57
390.03	7808.03
390.22	7971.86
390.42	8224.64
390.61	8592.11
390.81	9378.53
391.00	9291.93
391.19	9287.25
391.39	9057.87
391.58	8482.10
391.78	8093.57
391.97	7801.01
392.16	7035.65
392.36	6637.76
392.55	5343.44
392.75	4224.67
392.94	3386.76
393.13	3339.94
393.33	3985.93
393.52	5228.76
393.71	6380.30
393.91	7243.96
394.10	7510.78
394.29	8451.67
394.49	9214.69
394.68	9987.07
394.88	9825.57
395.07	10197.71
395.26	10136.86
395.46	9884.08
395.65	9301.29
395.84	8306.56
396.04	6853.09
396.23	5497.92
396.42	4706.82
396.62	4351.06
396.81	5317.70
397.00	6532.44
397.19	8421.25
397.39	10104.09
397.58	11126.91
397.77	11908.65
397.97	12386.12
398.16	12486.76
398.35	12858.90
398.55	13579.79
398.74	13680.43
398.93	14155.56
399.12	13930.87
399.32	13521.27
399.51	13703.84
399.70	14724.31
399.90	14483.24
400.09	14270.25
400.28	14478.55
400.47	14693.88
400.67	15140.93
400.86	15412.43
401.05	15295.40
401.24	15571.58
401.44	15798.62
401.63	15990.54
401.82	16147.36
402.01	16318.22
402.21	16201.19
402.40	16451.63
402.59	15946.07
402.78	15110.50
402.97	14345.14
403.17	15459.24
403.36	16058.42
403.55	16638.87
403.74	17114.00
403.93	16196.51
404.13	14902.19
404.32	14499.62
404.51	15133.90
404.70	16819.09
404.89	16465.67
405.09	16374.39
405.28	15651.16
405.47	15826.70
405.66	15644.14
405.85	15414.77
406.05	15026.24
406.24	15042.62
406.43	15648.82
406.62	16189.49
406.81	16482.05
407.00	15695.63
407.20	15351.57
407.39	15578.61
407.58	15999.90
407.77	16809.73
407.96	17790.41
408.15	17731.90
408.34	17378.48
408.54	18644.71
408.73	18904.51
408.92	18735.99
409.11	17872.33
409.30	17109.32
409.49	16049.05
409.68	14951.34
409.87	14176.62
410.07	15576.27
410.26	16641.21
410.45	17415.93
410.64	17933.18
410.83	18766.42
411.02	19370.27
411.21	19733.06
411.40	19742.42
411.59	19702.63
411.78	19751.78
411.98	19414.74
412.17	19859.45
412.36	19194.73
412.55	19648.80
412.74	18925.57
412.93	18429.38
413.12	18883.44
413.31	20264.36
413.50	20435.22
413.69	20947.79
413.88	19906.26
414.07	19438.15
414.26	19756.46
414.45	20828.43
414.64	21078.86
414.83	21006.31
415.02	20404.79
415.22	20360.32
415.41	20795.66
415.60	21656.98
415.79	22305.31
415.98	22986.40
416.17	22867.03
416.36	22207.00
416.55	21816.13
416.74	21085.89
416.93	20243.29
417.12	20575.65
417.31	20798.00
417.50	20842.47
417.69	21905.07
417.88	22017.42
418.07	21549.31
418.26	21256.75
418.45	21738.90
418.64	21996.35
418.83	22953.63
419.02	22897.46
419.21	22789.80
419.39	21326.96
419.58	20397.77
419.77	20252.66
419.96	21280.15
420.15	22546.38
420.34	23433.44
420.53	24341.57
420.72	24907.98
420.91	24622.44
421.10	24173.05
421.29	24151.99
421.48	23049.60
421.67	24210.50
421.86	23910.91
422.05	22225.73
422.24	19857.10
422.43	19370.27
422.61	21736.56
422.80	23307.05
422.99	23475.57
423.18	22534.68
423.37	22033.80
423.56	22075.93
423.75	22750.01
423.94	22972.36
424.13	21799.75
424.32	21961.25
424.50	22010.40
424.69	21490.80
424.88	22059.55
425.07	22019.76
425.26	21556.33
425.45	21661.66
425.64	21074.18
425.83	20964.18
426.01	22225.73
426.20	23220.45
426.39	22656.39
426.58	21151.42
426.77	19782.21
426.96	19173.67
427.15	19281.33
427.33	21128.02
427.52	21926.14
427.71	22120.40
427.90	21614.85
428.09	21942.52
428.28	21373.77
428.46	20271.38
428.65	20126.27
428.84	20603.74
429.03	20903.32
429.22	20065.41
429.40	18782.80
429.59	17233.36
429.78	15276.68
429.97	15115.18
430.16	15414.77
430.34	15644.14
430.53	15161.99
430.72	15641.80
430.91	17319.96
431.10	20320.53
431.28	24105.18
431.47	25940.16
431.66	26206.98
431.85	24095.82
432.03	22108.70
432.22	21287.17
432.41	22197.64
432.60	24318.17
432.79	25238.00
432.97	26080.59
433.16	25326.94
433.35	23246.20
433.54	20774.60
433.72	19681.56
433.91	20042.01
434.10	22218.71
434.28	23908.57
434.47	25783.34
434.66	25095.22
434.85	24318.17
435.03	24049.00
435.22	24861.17
435.41	26370.82
435.59	26380.18
435.78	26712.53
435.97	27805.56
436.16	27220.43
436.34	27101.06
436.53	26525.29
436.72	26630.62
436.90	25053.09
437.09	24966.49
437.28	24531.15
437.46	25591.42
437.65	25413.54
437.84	23981.13
438.02	21848.90
438.21	21399.52
438.40	23091.73
438.58	25032.03
438.77	24994.58
438.96	25734.19
439.14	27091.70
439.33	27159.58
439.52	27833.65
439.70	27487.25
439.89	26642.32
440.08	25926.11
440.26	25869.94
440.45	26616.57
440.63	28460.91
440.82	30143.76
441.01	29816.08
441.19	29174.78
441.38	29715.44
441.57	30965.29
441.75	31452.12
441.94	31218.07
442.12	31098.70
442.31	31477.86
442.50	32009.17
442.68	31119.76
442.87	30946.56
443.05	30682.08
443.24	30838.90
443.43	31391.26
443.61	32243.22
443.80	32821.33
443.98	31033.16
444.17	30740.60
444.35	32446.85
444.54	32870.48
444.73	32463.23
444.91	31573.83
445.10	30302.92
445.28	28910.30
445.47	28219.84
445.65	28730.08
445.84	29207.55
446.02	30691.44
446.21	30764.00
446.39	31372.54
446.58	31569.15
446.77	31861.71
446.95	32341.52
447.14	32830.69
447.32	33724.78
447.51	32835.38
447.69	31793.84
447.88	31367.86
448.06	31562.12
448.25	32568.55
448.43	32804.95
448.62	31878.10
448.80	31688.51
448.99	32203.43
449.17	32275.99
449.36	32559.19
449.54	33476.68
449.73	33860.53
449.91	34452.69
450.10	35096.33
450.28	35718.92
450.46	35889.77
450.65	35559.76
450.83	35194.64
451.02	34642.27
451.20	34520.56
451.39	34548.65
451.57	34326.30
451.76	34155.44
451.94	33773.93
452.13	33479.02
452.31	31901.50
452.49	30855.28
452.68	30565.06
452.86	30969.97
453.05	31019.12
453.23	32299.39
453.42	33074.11
453.60	33773.93
453.78	34146.08
453.97	33696.69
454.15	33783.29
454.34	32924.32
454.52	33195.82
454.70	32451.53
454.89	32795.59
455.07	32872.82
455.26	33715.42
455.44	34700.78
455.62	35290.60
455.81	35447.41
455.99	35498.91
456.17	35033.14
456.36	34543.97
456.54	35648.70
456.73	36081.70
456.91	36198.73
457.09	36252.56
457.28	36598.96
457.46	35910.84
457.64	35501.25
457.83	34951.22
458.01	33692.01
458.19	34789.72
458.38	34731.21
458.56	36098.08
458.74	35463.80
458.93	34958.24
459.11	34983.99
459.29	34881.00
459.48	35002.71
459.66	34576.73
459.84	35395.92
460.03	35901.48
460.21	35683.81
460.39	36685.56
460.57	36287.67
460.76	37242.60
460.94	37216.86
461.12	36854.08
461.31	36589.59
461.49	36783.86
461.67	36428.10
461.85	37680.28
462.04	37649.86
462.22	38391.81
462.40	37553.90
462.59	37598.37
462.77	37219.20
462.95	37467.30
463.13	36800.24
463.32	36664.49
463.50	36477.25
463.68	36385.97
463.86	36697.26
464.05	36264.26
464.23	35255.49
464.41	35285.92
464.59	34609.50
464.78	36407.03
464.96	36044.25
465.14	35747.00
465.32	37081.11
465.50	37535.17
465.69	38038.39
465.87	37315.16
466.05	35974.03
466.23	35072.93
466.41	33663.93
466.60	34742.91
466.78	34969.94
466.96	35632.32
467.14	36144.89
467.32	36418.74
467.51	36739.39
467.69	35093.99
467.87	35995.10
468.05	36231.49
468.23	36439.80
468.41	36240.86
468.60	36355.54
468.78	36545.12
468.96	36116.81
469.14	36795.56
469.32	37050.68
469.50	35857.01
469.69	35903.82
469.87	34981.65
470.05	35173.57
470.23	35140.80
470.41	35180.59
470.59	35922.54
470.77	35651.04
470.95	36538.10
471.14	36828.33
471.32	37165.37
471.50	38944.17
471.68	39510.58
471.86	39887.41
472.04	40020.82
472.22	39920.18
472.40	37607.73
472.58	37305.80
472.77	37219.20
472.95	37912.00
473.13	38869.28
473.31	37799.65
473.49	38029.02
473.67	38490.11
473.85	39243.76
474.03	40161.25
474.21	40058.27
474.39	40479.57
474.57	40931.29
474.75	40737.02
474.93	40568.51
475.12	39573.78
475.30	39669.74
475.48	39962.31
475.66	40779.15
475.84	39845.28
476.02	39721.23
476.20	38733.53
476.38	39676.76
476.56	40620.00
476.74	41474.29
476.92	41790.27
477.10	42155.39
477.28	43473.11
477.46	43236.72
477.64	43768.02
477.82	43859.30
478.00	44076.97
478.18	43072.88
478.36	43667.37
478.54	43072.88
478.72	43285.87
478.90	44362.51
479.08	45799.60
479.26	46033.66
479.44	45998.55
479.62	46066.42
479.80	45549.17
479.98	45855.78
480.16	46232.60
480.34	45488.31
480.52	46047.70
480.70	46260.69
480.88	46251.33
481.06	47112.64
481.24	47309.25
481.41	48268.87
481.59	49106.78
481.77	48626.97
481.95	48051.20
482.13	47679.05
482.31	48041.84
482.49	48788.47
482.67	48264.19
482.85	48676.12
483.03	49436.80
483.21	49724.68
483.39	49436.80
483.57	48961.67
483.74	48807.19
483.92	48989.75
484.10	48975.71
484.28	50007.89
484.46	50494.72
484.64	50618.77
484.82	49881.50
485.00	49364.24
485.18	48547.39
485.35	47210.95
485.53	44552.10
485.71	40809.58
485.89	39845.28
486.07	42021.98
486.25	45158.30
486.43	47650.97
486.61	48594.20
486.78	48175.25
486.96	48523.99
487.14	50246.62
487.32	50735.79
487.50	51662.64
487.68	52608.22
487.85	53111.44
488.03	52963.98
488.21	52587.16
488.39	52011.38
488.57	51512.85
488.75	51540.94
488.92	52135.43
489.10	53977.43
489.28	55234.30
489.46	55849.86
489.64	55646.24
489.81	56030.08
489.99	55426.23
490.17	55557.30
490.35	55891.99
490.53	55306.86
490.70	55395.80
490.88	55044.72
491.06	56058.17
491.24	55821.78
491.41	54986.21
491.59	53654.44
491.77	52830.57
491.95	53619.33
492.13	54578.95
492.30	56009.02
492.48	56790.76
492.66	57406.32
492.84	57263.55
493.01	56975.66
493.19	56530.96
493.37	56041.79
493.54	55913.06
493.72	56411.59
493.90	57413.34
494.08	58045.29
494.25	58534.46
494.43	58501.69
494.61	58857.45
494.79	58904.26
494.96	58784.90
495.14	58312.11
495.32	57291.63
495.49	56603.52
495.67	57687.18
495.85	58864.47
496.02	59332.58
496.20	59285.77
496.38	58742.77
496.55	58658.51
496.73	59145.34
496.91	59157.04
497.09	59655.57
497.26	59999.63
497.44	59463.65
497.62	59021.29
497.79	58155.29
497.97	57174.61
498.14	57282.27
498.32	58220.83
498.50	58972.14
498.67	59791.33
498.85	59437.90
499.03	59690.68
499.20	59587.70
499.38	60219.64
499.56	59671.96
499.73	59281.09
499.91	58855.11
500.08	58513.39
500.26	57900.17
500.44	58134.23
500.61	58894.90
500.79	58759.15
500.97	58464.24
501.14	58363.60
501.32	58026.56
501.49	58082.73
501.67	58387.00
501.84	58829.37
502.02	59110.23
502.20	59278.75
502.37	59681.32
502.55	59339.60
502.72	60100.28
502.90	60399.86
503.07	60170.49
503.25	59805.37
503.43	59091.51
503.60	58410.41
503.78	57762.08
503.95	58258.27
504.13	59678.98
504.30	60296.88
504.48	60109.64
504.65	59735.15
504.83	59770.26
505.01	60177.51
505.18	60633.92
505.36	61286.93
505.53	61216.71
505.71	61394.59
505.88	61403.95
506.06	61024.79
506.23	60631.58
506.41	60191.56
506.58	60678.39
506.76	60718.18
506.93	60257.09
507.11	60374.12
507.28	60287.52
507.46	60004.31
507.63	59414.50
507.81	59201.51
507.98	59543.23
508.16	60207.94
508.33	60746.26
508.50	60811.80
508.68	61289.27
508.85	61726.95
509.03	61656.73
509.20	61605.24
509.38	60889.04
509.55	60217.30
509.73	60331.99
509.90	60828.18
510.08	61020.11
510.25	60760.31
510.42	60720.52
510.60	60727.54
510.77	60781.37
510.95	61460.13
511.12	61537.36
511.30	61696.52
511.47	61916.53
511.64	61764.40
511.82	61724.61
511.99	60910.10
512.17	60451.36
512.34	60266.45
512.51	60470.08
512.69	60523.91
512.86	60554.34
513.04	60982.66
513.21	60889.04
513.38	60654.98
513.56	60200.92
513.73	59721.11
513.90	59913.03
514.08	60009.00
514.25	60252.41
514.43	60439.65
514.60	60397.52
514.77	60647.96
514.95	60713.50
515.12	60713.50
515.29	60807.12
515.47	61195.65
515.64	61455.45
515.81	61172.24
515.99	60853.93
516.16	59388.75
516.33	57256.53
516.51	55819.44
516.68	55292.82
516.85	54878.54
517.03	55004.93
517.20	57429.72
517.37	59847.50
517.54	60772.01
517.72	60381.14
517.89	58239.55
518.06	55976.25
518.24	55824.12
518.41	58164.65
518.58	59526.84
518.75	59606.42
518.93	59800.69
519.10	59440.24
519.27	60165.81
519.45	60212.62
519.62	60912.44
519.79	61237.78
519.96	60837.54
520.14	60650.30
520.31	59683.66
520.48	59807.71
520.65	60252.41
520.83	61036.49
521.00	61453.11
521.17	61144.16
521.34	60968.61
521.52	61034.15
521.69	61556.09
521.86	61911.85
522.03	61708.22
522.20	60603.49
522.38	59639.19
522.55	59526.84
522.72	60240.71
522.89	60163.47
523.07	60439.65
523.24	60821.16
523.41	61577.15
523.58	61787.80
523.75	62323.78
523.92	62120.16
524.10	62078.03
524.27	61928.23
524.44	61843.98
524.61	61537.36
524.78	61392.25
524.96	61240.12
525.13	61460.13
525.30	61645.03
525.47	62162.29
525.64	61963.34
525.81	61446.08
525.98	60058.15
526.16	58742.77
526.33	57893.15
526.50	57935.28
526.67	57656.76
526.84	57876.77
527.01	58883.20
527.18	59573.66
527.36	60664.35
527.53	61169.90
527.70	61528.00
527.87	61111.39
528.04	60809.46
528.21	60977.98
528.38	61661.41
528.55	62281.66
528.72	62377.62
528.89	62686.57
529.07	62443.15
529.24	61663.75
529.41	61123.09
529.58	60566.04
529.75	60643.28
529.92	61165.22
530.09	61434.38
530.26	61907.17
530.43	62183.35
530.60	62386.98
530.77	62347.19
530.94	62581.24
531.11	62068.67
531.28	61879.08
531.46	61565.45
531.63	61953.98
531.80	61687.16
531.97	61368.85
532.14	60341.35
532.31	59676.64
532.48	59105.55
532.65	59206.19
532.82	59889.63
532.99	61099.68
533.16	61223.73
533.33	61652.05
533.50	61591.20
533.67	60704.13
533.84	60640.94
534.01	60734.56
534.18	60856.27
534.35	61181.60
534.52	61102.03
534.69	61174.58
534.86	61567.79
535.03	61783.12
535.20	62110.80
535.37	62592.95
535.54	62419.75
535.71	62176.33
535.88	61787.80
536.05	61385.23
536.22	60999.04
536.38	60814.14
536.55	60324.97
536.72	59700.04
536.89	59711.75
537.06	60521.57
537.23	61347.78
537.40	61556.09
537.57	61425.02
537.74	61277.57
537.91	61158.20
538.08	61132.45
538.25	61106.71
538.42	61481.19
538.59	61240.12
538.75	60640.94
538.92	60397.52
539.09	60310.92
539.26	60123.68
539.43	60025.38
539.60	60013.68
539.77	60130.70
539.94	59990.27
540.11	59168.74
540.28	58775.53
540.44	58937.03
540.61	59192.15
540.78	59363.01
540.95	59657.91
541.12	60224.32
541.29	60402.21
541.46	60706.47
541.62	60725.20
541.79	60479.44
541.96	59997.29
542.13	60027.72
542.30	60278.16
542.47	60587.11
542.63	60191.56
542.80	60025.38
542.97	60299.22
543.14	60083.89
543.31	60111.98
543.48	60638.60
543.64	61254.16
543.81	61499.92
543.98	61462.47
544.15	60659.66
544.32	60055.81
544.48	60339.01
544.65	60498.17
544.82	61050.53
544.99	60582.43
545.16	60392.84
545.32	60041.76
545.49	60804.78
545.66	61251.82
545.83	60914.78
546.00	60722.86
546.16	60259.43
546.33	60306.24
546.50	60430.29
546.67	60748.60
546.83	60285.18
547.00	60346.03
547.17	59751.54
547.34	59196.83
547.50	59150.02
547.67	59533.87
547.84	59732.81
548.00	59999.63
548.17	60350.71
548.34	60151.77
548.51	60177.51
548.67	60254.75
548.84	60245.39
549.01	60486.46
549.18	60294.54
549.34	60142.41
549.51	60236.03
549.68	60289.86
549.84	59957.50
550.01	59938.78
550.18	59678.98
550.34	59751.54
550.51	59765.58
550.68	60154.11
550.84	59428.54
551.01	59381.73
551.18	59519.82
551.34	59707.07
551.51	60175.17
551.68	60542.64
551.84	60278.16
552.01	60182.19
552.18	60088.57
552.34	59166.40
552.51	58906.60
552.68	58899.58
552.84	59370.03
553.01	59686.00
553.18	59449.61
553.34	59430.88
553.51	59774.94
553.67	59936.44
553.84	60097.94
554.01	59901.33
554.17	59723.45
554.34	59657.91
554.51	59861.54
554.67	60350.71
554.84	60058.15
555.00	59861.54
555.17	59465.99
555.33	59458.97
555.50	59625.15
555.67	59690.68
555.83	59468.33
556.00	59086.82
556.16	59117.25
556.33	58705.32
556.50	58745.11
556.66	58656.17
556.83	58401.05
556.99	58590.63
557.16	58651.48
557.32	59082.14
557.49	59114.91
557.65	59016.61
557.82	59128.95
557.98	58913.62
558.15	58361.26
558.32	57783.15
558.48	56835.23
558.65	57244.82
558.81	57577.18
558.98	57673.14
559.14	58000.82
559.31	58197.42
559.47	58010.18
559.64	57846.34
559.80	57305.68
559.97	57415.68
560.13	58054.65
560.30	58770.85
560.46	59250.66
560.63	59421.52
560.79	59334.92
560.96	58986.18
561.12	57865.06
561.29	57258.87
561.45	57289.29
561.61	57649.74
561.78	58052.31
561.94	58120.18
562.11	58052.31
562.27	57748.04
562.44	58042.95
562.60	58162.31
562.77	58681.91
562.93	58485.31
563.10	58487.65
563.26	57996.13
563.42	58005.50
563.59	57614.63
563.75	57577.18
563.92	57858.04
564.08	57745.70
564.24	57813.57
564.41	58136.57
564.57	57785.49
564.74	57628.67
564.90	57757.40
565.07	57565.48
565.23	57186.31
565.39	56701.82
565.56	56568.41
565.72	56226.69
565.88	56537.98
566.05	56741.61
566.21	56832.89
566.38	57088.01
566.54	57158.22
566.70	57539.73
566.87	57588.88
567.03	57724.63
567.19	58014.86
567.36	57659.10
567.52	57303.34
567.68	57336.10
567.85	56563.73
568.01	56278.18
568.17	56030.08
568.34	55994.98
568.50	55842.84
568.66	56030.08
568.83	56467.76
568.99	56666.71
569.15	56800.12
569.32	56647.99
569.48	56575.43
569.64	56137.75
569.81	55915.40
569.97	55688.37
570.13	55875.61
570.30	55477.72
570.46	55222.60
570.62	54333.20
570.78	54478.31
570.95	54670.23
571.11	55529.21
571.27	55695.39
571.43	55793.69
571.60	55838.16
571.76	56184.56
571.92	56514.58
572.09	56678.41
572.25	56502.87
572.41	56552.02
572.57	56357.76
572.74	56481.81
572.90	55983.27
573.06	55978.59
573.22	56205.62
573.38	55983.27
573.55	55945.83
573.71	56329.67
573.87	56018.38
574.03	55723.47
574.20	55756.24
574.36	55529.21
574.52	55554.96
574.68	55458.99
574.84	55016.63
575.01	54480.65
575.17	54391.71
575.33	54583.63
575.49	54770.88
575.65	55124.30
575.82	54805.98
575.98	54590.66
576.14	55014.29
576.30	55330.26
576.46	55400.48
576.62	55208.56
576.79	55416.86
576.95	54693.64
577.11	54993.23
577.27	55040.04
577.43	55047.06
577.59	54253.62
577.75	54419.80
577.92	53820.62
578.08	53614.65
578.24	53511.67
578.40	53734.02
578.56	54141.27
578.72	54115.53
578.88	54419.80
579.04	54461.93
579.21	54557.89
579.37	54621.08
579.53	54637.47
579.69	54471.29
579.85	54887.90
580.01	54827.05
580.17	54305.11
580.33	53928.28
580.49	54192.76
580.65	54401.07
580.82	54859.82
580.98	54721.72
581.14	54717.04
581.30	54618.74
581.46	54349.58
581.62	54628.10
581.78	54733.43
581.94	55072.81
582.10	54695.98
582.26	54520.44
582.42	54646.83
582.58	54733.43
582.74	54784.92
582.90	54808.32
583.06	54609.38
583.22	54578.95
583.38	54440.86
583.54	54216.17
583.70	54291.07
583.86	54351.92
584.02	54150.63
584.18	54319.15
584.34	54277.02
584.50	53947.01
584.66	53991.48
584.82	53986.80
584.98	53544.44
585.14	53226.12
