SpectraSuite Data File
++++++++++++++++++++++++++++++++++++
Date: Mon Oct 07 14:54:54 GMT-05:00 2013
User: price-jones
Dark Spectrum Present: No
Reference Spectrum Present: No
Number of Sampled Component Spectra: 1
Spectrometers: USB2+H05261
Integration Time (usec): 10000 (USB2+H05261)
Spectra Averaged: 1 (USB2+H05261)
Boxcar Smoothing: 0 (USB2+H05261)
Correct for Electrical Dark: No (USB2+H05261)
Strobe/Lamp Enabled: No (USB2+H05261)
Correct for Detector Non-linearity: No (USB2+H05261)
Correct for Stray Light: No (USB2+H05261)
Number of Pixels in Processed Spectrum: 2048
>>>>>Begin Processed Spectral Data<<<<<
365.73	0.00
365.92	0.00
366.12	0.00
366.32	0.00
366.52	0.00
366.72	0.00
366.91	0.00
367.11	0.00
367.31	0.00
367.51	0.00
367.70	0.00
367.90	0.00
368.10	0.00
368.30	0.00
368.49	0.00
368.69	0.00
368.89	0.00
369.09	0.00
369.28	0.00
369.48	0.00
369.68	0.00
369.87	0.00
370.07	0.00
370.27	0.00
370.47	0.00
370.66	0.00
370.86	4.68
371.06	0.00
371.25	18.72
371.45	0.00
371.65	44.47
371.84	0.00
372.04	0.00
372.24	0.00
372.44	4.68
372.63	35.11
372.83	0.00
373.03	0.00
373.22	0.00
373.42	0.00
373.62	0.00
373.81	2.34
374.01	60.85
374.21	107.66
374.40	28.09
374.60	11.70
374.79	23.41
374.99	81.92
375.19	117.03
375.38	102.98
375.58	102.98
375.78	98.30
375.97	93.62
376.17	147.45
376.37	60.85
376.56	119.37
376.76	58.51
376.95	98.30
377.15	98.30
377.35	182.56
377.54	224.69
377.74	245.76
377.93	229.37
378.13	271.50
378.33	234.05
378.52	119.37
378.72	121.71
378.91	133.41
379.11	154.48
379.31	124.05
379.50	95.96
379.70	91.28
379.89	72.56
380.09	110.01
380.28	140.43
380.48	217.67
380.68	114.69
380.87	88.94
381.07	152.13
381.26	100.64
381.46	49.15
381.65	0.00
381.85	145.11
382.04	0.00
382.24	16.38
382.43	23.41
382.63	9.36
382.83	56.17
383.02	21.06
383.22	53.83
383.41	11.70
383.61	84.26
383.80	46.81
384.00	142.77
384.19	105.32
384.39	135.75
384.58	93.62
384.78	163.84
384.97	152.13
385.17	133.41
385.36	168.52
385.56	128.73
385.75	95.96
385.95	138.09
386.14	234.05
386.34	100.64
386.53	145.11
386.72	182.56
386.92	131.07
387.11	138.09
387.31	147.45
387.50	107.66
387.70	227.03
387.89	110.01
388.09	227.03
388.28	180.22
388.48	138.09
388.67	163.84
388.86	184.90
389.06	266.82
389.25	339.38
389.45	330.02
389.64	390.87
389.84	276.18
390.03	245.76
390.22	313.63
390.42	238.73
390.61	428.32
390.81	390.87
391.00	369.80
391.19	472.79
391.39	337.04
391.58	332.36
391.78	381.51
391.97	243.42
392.16	238.73
392.36	224.69
392.55	205.97
392.75	0.00
392.94	9.36
393.13	0.00
393.33	18.72
393.52	126.39
393.71	250.44
393.91	283.20
394.10	285.55
394.29	304.27
394.49	351.08
394.68	386.19
394.88	451.72
395.07	418.96
395.26	379.17
395.46	433.00
395.65	411.93
395.84	276.18
396.04	175.54
396.23	175.54
396.42	124.05
396.62	51.49
396.81	58.51
397.00	252.78
397.19	273.84
397.39	456.40
397.58	507.90
397.77	585.13
397.97	629.60
398.16	638.97
398.35	678.76
398.55	599.18
398.74	627.26
398.93	739.61
399.12	692.80
399.32	578.11
399.51	664.71
399.70	695.14
399.90	688.12
400.09	653.01
400.28	781.74
400.47	706.84
400.67	795.78
400.86	744.29
401.05	847.27
401.24	653.01
401.44	763.01
401.63	748.97
401.82	798.12
402.01	716.20
402.21	784.08
402.40	795.78
402.59	760.67
402.78	681.10
402.97	767.70
403.17	861.32
403.36	833.23
403.55	770.04
403.74	936.21
403.93	840.25
404.13	826.21
404.32	791.10
404.51	814.51
404.70	840.25
404.89	830.89
405.09	812.17
405.28	781.74
405.47	781.74
405.66	758.33
405.85	706.84
406.05	758.33
406.24	748.97
406.43	734.93
406.62	812.17
406.81	814.51
407.00	821.53
407.20	805.14
407.39	812.17
407.58	882.38
407.77	896.43
407.96	828.55
408.15	901.11
408.34	903.45
408.54	994.73
408.73	994.73
408.92	894.08
409.11	971.32
409.30	898.77
409.49	800.46
409.68	748.97
409.87	704.50
410.07	730.25
410.26	812.17
410.45	880.04
410.64	880.04
410.83	947.92
411.02	1069.62
411.21	1062.60
411.40	973.66
411.59	1046.22
411.78	1083.67
411.98	929.19
412.17	1100.05
412.36	1036.86
412.55	1004.09
412.74	985.37
412.93	1025.15
413.12	943.24
413.31	1022.81
413.50	1050.90
413.69	1151.54
413.88	1043.88
414.07	959.62
414.26	905.79
414.45	1107.07
414.64	1027.50
414.83	1125.80
415.02	1088.35
415.22	1109.41
415.41	959.62
415.60	1086.01
415.79	1294.32
415.98	1146.86
416.17	1228.78
416.36	1259.21
416.55	1118.78
416.74	1191.33
416.93	1146.86
417.12	1053.24
417.31	1095.37
417.50	1078.99
417.69	1160.91
417.88	1130.48
418.07	1093.03
418.26	1165.59
418.45	1156.22
418.64	1172.61
418.83	1177.29
419.02	1156.22
419.21	1186.65
419.39	1088.35
419.58	1062.60
419.77	1163.25
419.96	1128.14
420.15	1231.12
420.34	1170.27
420.53	1259.21
420.72	1191.33
420.91	1397.30
421.10	1261.55
421.29	1270.91
421.48	1247.51
421.67	1310.70
421.86	1235.80
422.05	1163.25
422.24	1025.15
422.43	1060.26
422.61	1055.58
422.80	1149.20
422.99	1196.01
423.18	1184.31
423.37	1062.60
423.56	1118.78
423.75	1198.35
423.94	1233.46
424.13	1163.25
424.32	1142.18
424.50	1060.26
424.69	1078.99
424.88	1167.93
425.07	1053.24
425.26	1048.56
425.45	1125.80
425.64	1114.10
425.83	1135.16
426.01	1118.78
426.20	1179.63
426.39	1156.22
426.58	1062.60
426.77	950.26
426.96	866.00
427.15	877.70
427.33	1151.54
427.52	1104.73
427.71	1130.48
427.90	1100.05
428.09	1062.60
428.28	1050.90
428.46	1018.13
428.65	987.71
428.84	954.94
429.03	1170.27
429.22	1011.11
429.40	976.00
429.59	732.59
429.78	730.25
429.97	702.16
430.16	678.76
430.34	713.86
430.53	699.82
430.72	746.63
430.91	875.36
431.10	1097.71
431.28	1224.10
431.47	1397.30
431.66	1331.76
431.85	1205.38
432.03	1203.04
432.22	1116.44
432.41	1123.46
432.60	1282.61
432.79	1441.77
432.97	1317.72
433.16	1338.79
433.35	1205.38
433.54	1008.77
433.72	1020.47
433.91	952.60
434.10	1151.54
434.28	1308.36
434.47	1287.29
434.66	1268.57
434.85	1294.32
435.03	1167.93
435.22	1261.55
435.41	1362.19
435.59	1481.56
435.78	1397.30
435.97	1441.77
436.16	1479.22
436.34	1434.75
436.53	1453.47
436.72	1411.34
436.90	1221.76
437.09	1275.59
437.28	1303.68
437.46	1338.79
437.65	1399.64
437.84	1238.14
438.02	1032.18
438.21	1172.61
438.40	1130.48
438.58	1317.72
438.77	1350.49
438.96	1310.70
439.14	1371.55
439.33	1455.81
439.52	1439.43
439.70	1446.45
439.89	1366.87
440.08	1341.13
440.26	1303.68
440.45	1320.06
440.63	1488.58
440.82	1437.09
441.01	1444.11
441.19	1483.90
441.38	1629.01
441.57	1565.82
441.75	1636.03
441.94	1687.53
442.12	1607.95
442.31	1647.74
442.50	1666.46
442.68	1572.84
442.87	1645.40
443.05	1638.38
443.24	1614.97
443.43	1577.52
443.61	1551.78
443.80	1692.21
443.98	1575.18
444.17	1568.16
444.35	1699.23
444.54	1596.25
444.73	1671.14
444.91	1619.65
445.10	1554.12
445.28	1467.52
445.47	1488.58
445.65	1507.30
445.84	1488.58
446.02	1551.78
446.21	1533.05
446.39	1467.52
446.58	1563.48
446.77	1689.87
446.95	1650.08
447.14	1689.87
447.32	1785.83
447.51	1629.01
447.69	1671.14
447.88	1558.80
448.06	1633.69
448.25	1696.89
448.43	1614.97
448.62	1659.44
448.80	1584.54
448.99	1654.76
449.17	1621.99
449.36	1703.91
449.54	1696.89
449.73	1741.36
449.91	1865.41
450.10	1767.10
450.28	1837.32
450.46	1851.36
450.65	1900.52
450.83	1952.01
451.02	1879.45
451.20	1907.54
451.39	1746.04
451.57	1748.38
451.76	1696.89
451.94	1687.53
452.13	1713.27
452.31	1631.35
452.49	1526.03
452.68	1451.13
452.86	1533.05
453.05	1540.07
453.23	1633.69
453.42	1701.57
453.60	1739.02
453.78	1729.66
453.97	1673.48
454.15	1753.06
454.34	1633.69
454.52	1692.21
454.70	1748.38
454.89	1717.95
455.07	1753.06
455.26	1797.53
455.44	1802.21
455.62	1870.09
455.81	1830.30
455.99	1820.94
456.17	1813.92
456.36	1846.68
456.54	1853.70
456.73	1895.83
456.91	1989.46
457.09	1898.17
457.28	1963.71
457.46	1909.88
457.64	1816.26
457.83	1736.68
458.01	1872.43
458.19	1825.62
458.38	1750.72
458.56	1853.70
458.74	1820.94
458.93	1710.93
459.11	1792.85
459.29	1797.53
459.48	1724.97
459.66	1797.53
459.84	1774.13
460.03	1816.26
460.21	1830.30
460.39	1804.55
460.57	1930.94
460.76	1888.81
460.94	1935.62
461.12	1879.45
461.31	1984.77
461.49	1783.49
461.67	1818.60
461.85	1975.41
462.04	2001.16
462.22	1921.58
462.40	1907.54
462.59	1895.83
462.77	1937.96
462.95	1895.83
463.13	1884.13
463.32	1846.68
463.50	1870.09
463.68	1692.21
463.86	1846.68
464.05	1638.38
464.23	1774.13
464.41	1750.72
464.59	1809.23
464.78	1778.81
464.96	1783.49
465.14	1832.64
465.32	1863.07
465.50	1872.43
465.69	1935.62
465.87	1961.37
466.05	1809.23
466.23	1757.74
466.41	1727.32
466.60	1750.72
466.78	1708.59
466.96	1736.68
467.14	1767.10
467.32	1748.38
467.51	1853.70
467.69	1755.40
467.87	1790.51
468.05	1818.60
468.23	1769.44
468.41	1961.37
468.60	1959.03
468.78	1834.98
468.96	1858.39
469.14	1916.90
469.32	1849.02
469.50	1783.49
469.69	1692.21
469.87	1619.65
470.05	1703.91
470.23	1610.29
470.41	1682.85
470.59	1769.44
470.77	1762.42
470.95	1802.21
471.14	1830.30
471.32	1760.08
471.50	2036.27
471.68	1998.82
471.86	1921.58
472.04	1973.07
472.22	1959.03
472.40	1902.86
472.58	1907.54
472.77	1760.08
472.95	1989.46
473.13	1919.24
473.31	1926.26
473.49	1839.66
473.67	1921.58
473.85	1996.48
474.03	2150.95
474.21	1886.47
474.39	2052.65
474.57	2057.33
474.75	2076.06
474.93	1973.07
475.12	1975.41
475.30	2017.54
475.48	2026.90
475.66	1982.43
475.84	1994.14
476.02	1923.92
476.20	1902.86
476.38	1921.58
476.56	2029.24
476.74	2083.08
476.92	2092.44
477.10	2153.29
477.28	2214.15
477.46	2176.70
477.64	2242.23
477.82	2321.81
478.00	2122.87
478.18	2188.40
478.36	2153.29
478.54	2120.53
478.72	2174.36
478.90	2153.29
479.08	2310.11
479.26	2300.75
479.44	2363.94
479.62	2431.82
479.80	2275.00
479.98	2326.49
480.16	2256.28
480.34	2200.10
480.52	2385.01
480.70	2310.11
480.88	2289.04
481.06	2359.26
481.24	2413.09
481.41	2607.36
481.59	2555.86
481.77	2506.71
481.95	2394.37
482.13	2438.84
482.31	2534.80
482.49	2495.01
482.67	2431.82
482.85	2490.33
483.03	2534.80
483.21	2583.95
483.39	2581.61
483.57	2537.14
483.74	2581.61
483.92	2478.63
484.10	2513.74
484.28	2499.69
484.46	2525.44
484.64	2616.72
484.82	2612.04
485.00	2586.29
485.18	2572.25
485.35	2377.98
485.53	2321.81
485.71	2005.84
485.89	1916.90
486.07	2047.97
486.25	2251.60
486.43	2436.50
486.61	2466.92
486.78	2537.14
486.96	2403.73
487.14	2495.01
487.32	2633.10
487.50	2672.89
487.68	2825.03
487.85	2995.89
488.03	2656.51
488.21	2759.49
488.39	2876.52
488.57	2754.81
488.75	2539.48
488.92	2712.68
489.10	2988.86
489.28	3124.62
489.46	3183.13
489.64	3197.17
489.81	3234.62
489.99	3110.57
490.17	3040.36
490.35	3141.00
490.53	3054.40
490.70	3054.40
490.88	3204.19
491.06	3108.23
491.24	3204.19
491.41	3075.46
491.59	3000.57
491.77	2794.60
491.95	2911.63
492.13	2993.55
492.30	3068.44
492.48	3185.47
492.66	3353.99
492.84	3220.58
493.01	3255.69
493.19	3108.23
493.37	3176.11
493.54	3171.43
493.72	3148.02
493.90	3311.86
494.08	3452.29
494.25	3435.91
494.43	3510.80
494.61	3482.72
494.79	3534.21
494.96	3552.93
495.14	3475.70
495.32	3286.11
495.49	3325.90
495.67	3405.48
495.85	3431.23
496.02	3489.74
496.20	3499.10
496.38	3492.08
496.55	3452.29
496.73	3473.36
496.91	3630.17
497.09	3449.95
497.26	3583.36
497.44	3522.51
497.62	3566.98
497.79	3358.67
497.97	3183.13
498.14	3232.28
498.32	3344.63
498.50	3611.45
498.67	3599.74
498.85	3543.57
499.03	3611.45
499.20	3641.87
499.38	3506.12
499.56	3655.92
499.73	3595.06
499.91	3438.25
500.08	3375.05
500.26	3370.37
500.44	3492.08
500.61	3393.78
500.79	3466.33
500.97	3494.42
501.14	3323.56
501.32	3365.69
501.49	3428.88
501.67	3463.99
501.84	3370.37
502.02	3534.21
502.20	3597.40
502.37	3454.63
502.55	3492.08
502.72	3688.68
502.90	3681.66
503.07	3644.21
503.25	3660.60
503.43	3438.25
503.60	3379.73
503.78	3361.01
503.95	3246.32
504.13	3662.94
504.30	3604.42
504.48	3667.62
504.65	3655.92
504.83	3520.17
505.01	3658.26
505.18	3655.92
505.36	3784.65
505.53	3751.88
505.71	3740.18
505.88	3868.91
506.06	3716.77
506.23	3637.19
506.41	3527.19
506.58	3616.13
506.76	3630.17
506.93	3763.58
507.11	3606.77
507.28	3522.51
507.46	3552.93
507.63	3442.93
507.81	3407.82
507.98	3400.80
508.16	3564.64
508.33	3637.19
508.50	3768.26
508.68	3829.12
508.85	3735.50
509.03	3786.99
509.20	3847.84
509.38	3735.50
509.55	3588.04
509.73	3595.06
509.90	3721.45
510.08	3758.90
510.25	3789.33
510.42	3726.13
510.60	3583.36
510.77	3700.39
510.95	3705.07
511.12	3911.04
511.30	3932.10
511.47	3904.01
511.64	3805.71
511.82	3798.69
511.99	3824.44
512.17	3726.13
512.34	3744.86
512.51	3475.70
512.69	3581.02
512.86	3599.74
513.04	3770.60
513.21	3681.66
513.38	3737.84
513.56	3620.81
513.73	3468.67
513.90	3630.17
514.08	3421.86
514.25	3707.41
514.43	3646.55
514.60	3541.23
514.77	3691.02
514.95	3578.68
515.12	3618.47
515.29	3698.05
515.47	3648.90
515.64	3676.98
515.81	3768.26
515.99	3574.00
516.16	3499.10
516.33	3164.40
516.51	2923.33
516.68	2995.89
516.85	2836.73
517.03	2843.75
517.20	3138.66
517.37	3400.80
517.54	3662.94
517.72	3585.70
517.89	3180.79
518.06	3007.59
518.24	2939.71
518.41	3286.11
518.58	3426.54
518.75	3353.99
518.93	3644.21
519.10	3417.18
519.27	3756.56
519.45	3555.27
519.62	3667.62
519.79	3669.96
519.96	3639.53
520.14	3702.73
520.31	3520.17
520.48	3524.85
520.65	3471.01
520.83	3637.19
521.00	3667.62
521.17	3665.28
521.34	3576.34
521.52	3555.27
521.69	3850.18
521.86	3728.47
522.03	3805.71
522.20	3571.66
522.38	3478.04
522.55	3410.16
522.72	3569.32
522.89	3428.88
523.07	3536.55
523.24	3679.32
523.41	3618.47
523.58	3688.68
523.75	3871.25
523.92	3714.43
524.10	3749.54
524.27	3824.44
524.44	3684.00
524.61	3761.24
524.78	3791.67
524.96	3655.92
525.13	3730.81
525.30	3801.03
525.47	3714.43
525.64	3719.11
525.81	3583.36
525.98	3431.23
526.16	3342.28
526.33	3274.41
526.50	3180.79
526.67	3169.09
526.84	3192.49
527.01	3358.67
527.18	3440.59
527.36	3456.97
527.53	3611.45
527.70	3794.01
527.87	3831.46
528.04	3674.64
528.21	3712.09
528.38	3716.77
528.55	3765.92
528.72	3988.27
528.89	3934.44
529.07	3983.59
529.24	3908.69
529.41	3754.22
529.58	3609.11
529.75	3574.00
529.92	3660.60
530.09	3641.87
530.26	3723.79
530.43	3768.26
530.60	3709.75
530.77	3840.82
530.94	3857.20
531.11	3786.99
531.28	3676.98
531.46	3667.62
531.63	3747.20
531.80	3681.66
531.97	3700.39
532.14	3576.34
532.31	3417.18
532.48	3255.69
532.65	3482.72
532.82	3538.89
532.99	3545.91
533.16	3684.00
533.33	3742.52
533.50	3637.19
533.67	3557.61
533.84	3407.82
534.01	3648.90
534.18	3702.73
534.35	3585.70
534.52	3623.15
534.69	3590.38
534.86	3581.02
535.03	3779.97
535.20	3702.73
535.37	3815.07
535.54	3838.48
535.71	3756.56
535.88	3641.87
536.05	3620.81
536.22	3641.87
536.38	3471.01
536.55	3375.05
536.72	3389.10
536.89	3318.88
537.06	3534.21
537.23	3653.58
537.40	3782.31
537.57	3716.77
537.74	3660.60
537.91	3665.28
538.08	3569.32
538.25	3602.08
538.42	3639.53
538.59	3538.89
538.75	3489.74
538.92	3492.08
539.09	3412.50
539.26	3445.27
539.43	3403.14
539.60	3445.27
539.77	3531.87
539.94	3440.59
540.11	3243.98
540.28	3105.89
540.44	3286.11
540.61	3304.84
540.78	3337.60
540.95	3398.46
541.12	3335.26
541.29	3555.27
541.46	3501.44
541.62	3323.56
541.79	3361.01
541.96	3225.26
542.13	3377.39
542.30	3410.16
542.47	3449.95
542.63	3513.14
542.80	3389.10
542.97	3368.03
543.14	3379.73
543.31	3405.48
543.48	3417.18
543.64	3641.87
543.81	3585.70
543.98	3581.02
544.15	3576.34
544.32	3559.95
544.48	3304.84
544.65	3522.51
544.82	3494.42
544.99	3471.01
545.16	3513.14
545.32	3419.52
545.49	3695.71
545.66	3538.89
545.83	3536.55
546.00	3541.23
546.16	3351.65
546.33	3510.80
546.50	3522.51
546.67	3339.94
546.83	3424.20
547.00	3440.59
547.17	3328.24
547.34	3236.96
547.50	3199.51
547.67	3265.05
547.84	3251.00
548.00	3323.56
548.17	3527.19
548.34	3391.44
548.51	3447.61
548.67	3471.01
548.84	3368.03
549.01	3368.03
549.18	3433.57
549.34	3386.76
549.51	3365.69
549.68	3318.88
549.84	3375.05
550.01	3337.60
550.18	3358.67
550.34	3295.47
550.51	3239.30
550.68	3239.30
550.84	3267.39
551.01	3459.31
551.18	3297.81
551.34	3246.32
551.51	3398.46
551.68	3346.97
551.84	3370.37
552.01	3286.11
552.18	3318.88
552.34	3311.86
552.51	3204.19
552.68	3208.87
552.84	3220.58
553.01	3276.75
553.18	3293.13
553.34	3133.98
553.51	3363.35
553.67	3384.41
553.84	3463.99
554.01	3279.09
554.17	3183.13
554.34	3379.73
554.51	3405.48
554.67	3353.99
554.84	3251.00
555.00	3208.87
555.17	3246.32
555.33	3211.22
555.50	3276.75
555.67	3311.86
555.83	3178.45
556.00	3176.11
556.16	3169.09
556.33	3201.85
556.50	3028.65
556.66	3251.00
556.83	3178.45
556.99	3211.22
557.16	3131.64
557.32	3197.17
557.49	3246.32
557.65	3293.13
557.82	3281.43
557.98	3178.45
558.15	3112.91
558.32	3061.42
558.48	2925.67
558.65	2815.66
558.81	3091.85
558.98	3021.63
559.14	3033.33
559.31	2974.82
559.47	3059.08
559.64	3028.65
559.80	2911.63
559.97	2991.20
560.13	3047.38
560.30	3133.98
560.46	3194.83
560.63	3279.09
560.79	3150.36
560.96	3243.98
561.12	3112.91
561.29	2939.71
561.45	2977.16
561.61	3009.93
561.78	3042.70
561.94	2984.18
562.11	3152.70
562.27	2995.89
562.44	3187.81
562.60	3131.64
562.77	3236.96
562.93	3049.72
563.10	3098.87
563.26	3122.27
563.42	2885.88
563.59	3047.38
563.75	3012.27
563.92	3143.34
564.08	2972.48
564.24	2958.44
564.41	3040.36
564.57	2998.23
564.74	2981.84
564.90	2930.35
565.07	2984.18
565.23	2857.79
565.39	2815.66
565.56	2913.97
565.72	2768.85
565.88	2890.56
566.05	2806.30
566.21	2860.13
566.38	2883.54
566.54	2932.69
566.70	2972.48
566.87	2892.90
567.03	3012.27
567.19	3009.93
567.36	3012.27
567.52	2909.29
567.68	2958.44
567.85	2881.20
568.01	2799.28
568.17	2754.81
568.34	2799.28
568.50	2729.06
568.66	2836.73
568.83	2738.43
568.99	2729.06
569.15	2953.76
569.32	3021.63
569.48	2778.22
569.64	2888.22
569.81	3014.61
569.97	2679.91
570.13	2801.62
570.30	2686.94
570.46	2558.21
570.62	2700.98
570.78	2609.70
570.95	2672.89
571.11	2813.32
571.27	2726.72
571.43	2675.23
571.60	2754.81
571.76	2818.00
571.92	2743.11
572.09	2766.51
572.25	2738.43
572.41	2878.86
572.57	2764.17
572.74	2761.83
572.90	2794.60
573.06	2616.72
573.22	2626.08
573.38	2789.92
573.55	2949.08
573.71	2864.82
573.87	2654.17
574.03	2768.85
574.20	2750.13
574.36	2647.15
574.52	2754.81
574.68	2722.04
574.84	2675.23
575.01	2581.61
575.17	2642.46
575.33	2679.91
575.49	2567.57
575.65	2665.87
575.82	2686.94
575.98	2672.89
576.14	2731.41
576.30	2738.43
576.46	2628.42
576.62	2619.06
576.79	2593.31
576.95	2616.72
577.11	2576.93
577.27	2696.30
577.43	2637.78
577.59	2530.12
577.75	2518.42
577.92	2469.27
578.08	2558.21
578.24	2331.17
578.40	2471.61
578.56	2471.61
578.72	2544.16
578.88	2544.16
579.04	2581.61
579.21	2523.10
579.37	2654.17
579.53	2686.94
579.69	2738.43
579.85	2588.63
580.01	2607.36
580.17	2616.72
580.33	2516.08
580.49	2511.39
580.65	2663.53
580.82	2628.42
580.98	2616.72
581.14	2757.15
581.30	2502.03
581.46	2499.69
581.62	2628.42
581.78	2560.55
581.94	2640.12
582.10	2511.39
582.26	2509.05
582.42	2612.04
582.58	2672.89
582.74	2609.70
582.90	2593.31
583.06	2684.59
583.22	2614.38
583.38	2551.18
583.54	2593.31
583.70	2373.30
583.86	2502.03
584.02	2640.12
584.18	2579.27
584.34	2480.97
584.50	2619.06
584.66	2401.39
584.82	2574.59
584.98	2539.48
585.14	2399.05
585.30	2413.09
585.46	2490.33
585.62	2363.94
585.78	2506.71
585.94	2286.70
586.10	2377.98
586.26	2415.43
586.42	2487.99
586.58	2377.98
586.74	2509.05
586.90	2396.71
587.06	2436.50
587.22	2553.52
587.38	2403.73
587.54	2377.98
587.70	2335.85
587.86	2289.04
588.02	2258.62
588.18	2335.85
588.34	2101.80
588.49	2139.25
588.65	2003.50
588.81	1970.73
588.97	1954.35
589.13	1966.05
589.29	1959.03
589.45	1886.47
589.61	2094.78
589.77	2263.30
589.93	2211.81
590.08	2377.98
590.24	2342.88
590.40	2305.43
590.56	2244.57
590.72	2270.32
590.88	2172.02
591.04	2260.96
591.20	2143.93
591.35	2286.70
591.51	2211.81
591.67	2188.40
591.83	2202.44
591.99	2195.42
592.15	2282.02
592.31	2307.77
592.46	2277.34
592.62	2202.44
592.78	2139.25
592.94	2223.51
593.10	2265.64
593.26	2272.66
593.41	2228.19
593.57	2190.74
593.73	2221.17
593.89	2172.02
594.05	2193.08
594.20	2129.89
594.36	2134.57
594.52	1975.41
594.68	2197.76
594.84	2216.49
594.99	2148.61
595.15	2183.72
595.31	2225.85
595.47	2162.66
595.62	2197.76
595.78	2207.13
595.94	2228.19
596.10	2272.66
596.25	2202.44
596.41	2099.46
596.57	2071.37
596.73	2125.21
596.88	2101.80
597.04	2162.66
597.20	2207.13
597.36	2174.36
597.51	2265.64
597.67	2214.15
597.83	2136.91
597.99	2129.89
598.14	2085.42
598.30	2200.10
598.46	2188.40
598.61	2092.44
598.77	2132.23
598.93	2101.80
599.09	2136.91
599.24	2188.40
599.40	2113.50
599.56	2232.87
599.71	2092.44
