SpectraSuite Data File
++++++++++++++++++++++++++++++++++++
Date: Mon Oct 07 14:55:01 GMT-05:00 2013
User: price-jones
Dark Spectrum Present: No
Reference Spectrum Present: No
Number of Sampled Component Spectra: 1
Spectrometers: USB2+H05261
Integration Time (usec): 10000 (USB2+H05261)
Spectra Averaged: 1 (USB2+H05261)
Boxcar Smoothing: 0 (USB2+H05261)
Correct for Electrical Dark: No (USB2+H05261)
Strobe/Lamp Enabled: No (USB2+H05261)
Correct for Detector Non-linearity: No (USB2+H05261)
Correct for Stray Light: No (USB2+H05261)
Number of Pixels in Processed Spectrum: 2048
>>>>>Begin Processed Spectral Data<<<<<
365.73	0.00
365.92	0.00
366.12	0.00
366.32	0.00
366.52	0.00
366.72	0.00
366.91	0.00
367.11	0.00
367.31	0.00
367.51	0.00
367.70	0.00
367.90	0.00
368.10	0.00
368.30	0.00
368.49	0.00
368.69	0.00
368.89	0.00
369.09	0.00
369.28	0.00
369.48	0.00
369.68	0.00
369.87	0.00
370.07	0.00
370.27	0.00
370.47	341.72
370.66	2569.91
370.86	2932.69
371.06	2942.05
371.25	2972.48
371.45	2661.19
371.65	2530.12
371.84	2328.83
372.04	2619.06
372.24	2876.52
372.44	2953.76
372.63	2785.24
372.83	2539.48
373.03	2277.34
373.22	2143.93
373.42	2408.41
373.62	2780.56
373.81	2822.69
374.01	2789.92
374.21	2415.43
374.40	2340.54
374.60	2630.76
374.79	2995.89
374.99	3403.14
375.19	3632.51
375.38	3583.36
375.58	3131.64
375.78	3295.47
375.97	3372.71
376.17	3377.39
376.37	3424.20
376.56	3616.13
376.76	3798.69
376.95	3990.61
377.15	4182.54
377.35	4437.66
377.54	4753.63
377.74	4891.72
377.93	4610.86
378.13	4447.02
378.33	4339.35
378.52	3918.06
378.72	3777.62
378.91	3878.27
379.11	3559.95
379.31	3548.25
379.50	3639.53
379.70	3812.73
379.89	4348.72
380.09	4447.02
380.28	4601.49
380.48	4652.98
380.68	4566.39
380.87	4425.95
381.07	3845.50
381.26	3747.20
381.46	3471.01
381.65	3382.07
381.85	3405.48
382.04	3035.67
382.24	2991.20
382.43	2778.22
382.63	2703.32
382.83	2810.98
383.02	2782.90
383.22	2885.88
383.41	2909.29
383.61	3115.25
383.80	3620.81
384.00	4121.68
384.19	4454.04
384.39	4657.67
384.58	4723.20
384.78	4517.23
384.97	4498.51
385.17	4215.30
385.36	4135.73
385.56	3868.91
385.75	4201.26
385.95	4601.49
386.14	4959.60
386.34	4933.85
386.53	4505.53
386.72	4327.65
386.92	4489.15
387.11	4657.67
387.31	4791.08
387.50	4709.16
387.70	4692.77
387.89	4535.96
388.09	4606.17
388.28	4596.81
388.48	4641.28
388.67	5149.18
388.86	5703.89
389.06	5980.07
389.25	6401.37
389.45	6333.49
389.64	6401.37
389.84	6181.35
390.03	6120.50
390.22	6069.01
390.42	6516.05
390.61	6761.81
390.81	7059.06
391.00	7250.98
391.19	7398.43
391.39	6925.65
391.58	6415.41
391.78	6354.55
391.97	5982.41
392.16	5589.20
392.36	5025.13
392.55	3873.59
392.75	3007.59
392.94	2530.12
393.13	2682.25
393.33	3379.73
393.52	4255.09
393.71	5130.45
393.91	5724.95
394.10	6164.97
394.29	6853.09
394.49	7328.22
394.68	7843.14
394.88	7826.75
395.07	8072.51
395.26	7953.14
395.46	7737.81
395.65	7075.44
395.84	6216.46
396.04	5074.28
396.23	4248.07
396.42	3377.39
396.62	3517.83
396.81	4407.23
397.00	5636.01
397.19	7014.59
397.39	8353.37
397.58	8887.01
397.77	9469.81
397.97	9916.85
398.16	10050.26
398.35	10401.34
398.55	10506.66
398.74	11033.29
398.93	11506.07
399.12	10993.50
399.32	10817.96
399.51	11012.22
399.70	11772.89
399.90	11360.96
400.09	11515.44
400.28	11136.27
400.47	11527.14
400.67	12154.40
400.86	12257.39
401.05	12453.99
401.24	12393.14
401.44	12807.41
401.63	12814.43
401.82	12624.85
402.01	12585.06
402.21	12767.62
402.40	12943.16
402.59	12444.63
402.78	11651.19
402.97	11871.20
403.17	12505.48
403.36	13224.03
403.55	13378.50
403.74	13628.94
403.93	12720.81
404.13	11765.87
404.32	11733.11
404.51	12451.65
404.70	13364.46
404.89	13338.71
405.09	12940.82
405.28	12540.59
405.47	12840.18
405.66	12514.84
405.85	12320.58
406.05	12006.95
406.24	12472.71
406.43	12638.89
406.62	13280.20
406.81	13256.79
407.00	13186.58
407.20	12601.44
407.39	12681.02
407.58	13345.73
407.77	14155.56
407.96	14139.18
408.15	14445.79
408.34	14551.11
408.54	15222.84
408.73	15129.22
408.92	14726.65
409.11	14396.64
409.30	13514.25
409.49	12641.23
409.68	11775.24
409.87	11913.33
410.07	12971.25
410.26	13657.03
410.45	14626.01
410.64	14888.15
410.83	15325.83
411.02	16018.63
411.21	16388.43
411.40	15744.78
411.59	16262.04
411.78	16112.25
411.98	16278.43
412.17	16315.87
412.36	15712.02
412.55	16161.40
412.74	15681.59
412.93	15243.91
413.12	15920.32
413.31	17099.95
413.50	17062.51
413.69	17158.47
413.88	16196.51
414.07	16381.41
414.26	16519.50
414.45	16783.98
414.64	16505.46
414.83	16849.52
415.02	16465.67
415.22	16945.48
415.41	17565.72
415.60	17764.67
415.79	18588.53
415.98	18721.95
416.17	18560.45
416.36	18162.56
416.55	17926.16
416.74	17242.73
416.93	17326.99
417.12	16893.99
417.31	17312.94
417.50	17394.86
417.69	17956.59
417.88	18061.91
418.07	17837.22
418.26	17809.14
418.45	17949.57
418.64	18775.78
418.83	19470.92
419.02	18752.37
419.21	18597.90
419.39	17731.90
419.58	16933.78
419.77	17500.19
419.96	18412.99
420.15	19293.04
420.34	19679.22
420.53	19817.32
420.72	20379.04
420.91	20074.77
421.10	19807.95
421.29	19676.88
421.48	19082.39
421.67	20297.13
421.86	19129.20
422.05	17802.11
422.24	16217.57
422.43	16999.31
422.61	18824.93
422.80	19644.12
422.99	19386.66
423.18	18813.23
423.37	18490.23
423.56	18672.79
423.75	19178.35
423.94	19454.53
424.13	18164.90
424.32	18216.39
424.50	18209.37
424.69	18616.62
424.88	18672.79
425.07	18218.73
425.26	18864.72
425.45	17556.36
425.64	17532.95
425.83	17872.33
426.01	18944.30
426.20	19232.18
426.39	18881.10
426.58	17481.46
426.77	16437.58
426.96	16369.71
427.15	16999.31
427.33	18471.51
427.52	18668.11
427.71	18693.86
427.90	18382.57
428.09	18253.84
428.28	17778.71
428.46	17139.74
428.65	16938.46
428.84	17729.56
429.03	17568.06
429.22	16776.96
429.40	15281.36
429.59	13834.91
429.78	12702.09
429.97	13273.18
430.16	13020.40
430.34	13001.68
430.53	13336.37
430.72	13862.99
430.91	15604.35
431.10	18326.39
431.28	21025.03
431.47	22373.18
431.66	21884.01
431.85	19456.87
432.03	18394.27
432.22	18242.14
432.41	19559.86
432.60	20861.19
432.79	21785.71
432.97	21977.63
433.16	20819.07
433.35	19098.77
433.54	17301.24
433.72	17011.01
433.91	17743.60
434.10	19983.49
434.28	20985.24
434.47	21827.84
434.66	21001.63
434.85	20439.90
435.03	20699.70
435.22	21408.88
435.41	22141.47
435.59	23220.45
435.78	22628.30
435.97	23363.23
436.16	23580.90
436.34	23096.41
436.53	22525.32
436.72	22895.12
436.90	21881.67
437.09	21647.61
437.28	21462.71
437.46	22132.11
437.65	21226.32
437.84	19545.81
438.02	18274.90
438.21	18906.85
438.40	19822.00
438.58	21401.86
438.77	21717.83
438.96	22735.96
439.14	23311.74
439.33	23477.91
439.52	23625.37
439.70	23213.43
439.89	22434.03
440.08	22415.31
440.26	22714.90
440.45	23742.39
440.63	25198.21
440.82	25654.61
441.01	25135.01
441.19	25287.15
441.38	25764.62
441.57	26625.93
441.75	26558.06
441.94	26878.71
442.12	26586.15
442.31	27505.98
442.50	27087.02
442.68	26780.41
442.87	26801.47
443.05	26094.63
443.24	27070.64
443.43	27435.76
443.61	27826.63
443.80	27936.63
443.98	27688.54
444.17	27178.30
444.35	28641.14
444.54	28709.01
444.73	27749.39
444.91	26684.45
445.10	25790.36
445.28	24730.10
445.47	24987.56
445.65	24931.39
445.84	25633.55
446.02	26169.53
446.21	26834.24
446.39	26710.19
446.58	26948.93
446.77	28067.70
446.95	28123.88
447.14	29118.60
447.32	29797.36
447.51	28371.97
447.69	27435.76
447.88	27580.87
448.06	28233.88
448.25	28170.69
448.43	27887.48
448.62	27885.14
448.80	27737.69
448.99	27564.49
449.17	28301.76
449.36	28343.89
449.54	29586.71
449.73	29809.06
449.91	30153.12
450.10	31105.72
450.28	31178.28
450.46	31204.02
450.65	30962.95
450.83	30628.25
451.02	29970.56
451.20	30029.07
451.39	30375.47
451.57	30045.46
451.76	29947.15
451.94	29598.41
452.13	28512.41
452.31	27316.39
452.49	25951.86
452.68	26960.63
452.86	27157.24
453.05	27449.80
453.23	28678.58
453.42	29010.94
453.60	29961.20
453.78	29661.61
453.97	29376.06
454.15	29191.16
454.34	28535.81
454.52	28364.95
454.70	28180.05
454.89	28648.16
455.07	28833.06
455.26	30038.44
455.44	30511.22
455.62	30562.72
455.81	30611.87
455.99	30696.13
456.17	30431.65
456.36	30878.69
456.54	31653.40
456.73	31459.14
456.91	31864.05
457.09	31676.81
457.28	32746.44
457.46	31356.16
457.64	30661.02
457.83	29844.17
458.01	29514.16
458.19	30955.93
458.38	31342.11
458.56	31683.83
458.74	31660.43
458.93	30796.77
459.11	30487.82
459.29	30555.69
459.48	30866.98
459.66	30415.26
459.84	31084.65
460.03	30962.95
460.21	32119.17
460.39	32826.01
460.57	32130.87
460.76	32367.27
460.94	32774.52
461.12	32222.16
461.31	32603.66
461.49	32545.15
461.67	32460.89
461.85	33708.40
462.04	33193.48
462.22	33130.28
462.40	32966.45
462.59	32774.52
462.77	32617.71
462.95	33081.13
463.13	33069.43
463.32	31817.24
463.50	31999.80
463.68	31983.42
463.86	32479.61
464.05	31487.23
464.23	31150.19
464.41	30972.31
464.59	30815.49
464.78	31948.31
464.96	31302.32
465.14	30714.85
465.32	32472.59
465.50	33472.00
465.69	34347.36
465.87	33006.23
466.05	32135.56
466.23	30637.61
466.41	29832.47
466.60	30960.61
466.78	30611.87
466.96	31152.53
467.14	31725.96
467.32	31695.53
467.51	32283.01
467.69	30920.82
467.87	31578.51
468.05	32126.19
468.23	32336.84
468.41	32313.44
468.60	32706.65
468.78	32774.52
468.96	32645.79
469.14	33198.16
469.32	32744.09
469.50	31323.39
469.69	31725.96
469.87	31115.08
470.05	31307.01
470.23	30803.79
470.41	31459.14
470.59	31842.99
470.77	31531.70
470.95	32496.00
471.14	32992.19
471.32	33223.90
471.50	35302.30
471.68	35019.10
471.86	35161.87
472.04	34857.60
472.22	35344.43
472.40	33289.44
472.58	33331.57
472.77	33207.52
472.95	33825.42
473.13	34714.83
473.31	33649.88
473.49	34609.50
473.67	35068.25
473.85	35541.03
474.03	36704.28
474.21	36540.44
474.39	36418.74
474.57	36107.44
474.75	36589.59
474.93	36194.04
475.12	35110.38
475.30	35751.68
475.48	35131.44
475.66	36095.74
475.84	35161.87
476.02	35637.00
476.20	34677.38
476.38	34981.65
476.56	36563.85
476.74	37282.39
476.92	37427.51
477.10	37336.23
477.28	38637.56
477.46	39014.39
477.64	39571.44
477.82	39501.22
478.00	39108.01
478.18	38616.50
478.36	38419.89
478.54	38768.63
478.72	39253.12
478.90	40865.75
479.08	42019.64
479.26	41556.21
479.44	42373.06
479.62	41413.44
479.80	41523.44
479.98	41769.20
480.16	41862.82
480.34	41242.58
480.52	41736.43
480.70	41565.57
480.88	41993.89
481.06	42579.03
481.24	42976.92
481.41	44577.84
481.59	44917.22
481.77	43543.33
481.95	43599.50
482.13	43442.68
482.31	44154.21
482.49	45090.42
482.67	44165.91
482.85	44175.27
483.03	44570.82
483.21	45134.89
483.39	45551.51
483.57	45036.59
483.74	44872.75
483.92	44664.44
484.10	44921.90
484.28	45507.04
484.46	45703.64
484.64	46621.13
484.82	45516.40
485.00	45141.91
485.18	44474.86
485.35	42251.35
485.53	37544.53
485.71	34855.26
485.89	36203.41
486.07	39070.56
486.25	41523.44
486.43	43215.65
486.61	44568.48
486.78	43648.65
486.96	45284.68
487.14	45808.96
487.32	47395.85
487.50	48119.07
487.68	49134.87
487.85	49830.01
488.03	49338.49
488.21	48392.92
488.39	48329.72
488.57	46752.20
488.75	46625.81
488.92	48505.26
489.10	50866.86
489.28	51096.24
489.46	52886.74
489.64	51863.93
489.81	52715.89
489.99	52334.38
490.17	52205.65
490.35	52472.47
490.53	52037.13
490.70	52149.48
490.88	51538.60
491.06	52821.21
491.24	53415.71
491.41	51868.61
491.59	50274.71
491.77	49708.30
491.95	50740.47
492.13	52788.44
492.30	53282.30
492.48	54328.52
492.66	54127.23
492.84	53696.57
493.01	53441.45
493.19	53425.07
493.37	53389.96
493.54	53097.39
493.72	54183.40
493.90	55030.68
494.08	55547.93
494.25	55615.81
494.43	55884.97
494.61	56484.15
494.79	56151.79
494.96	56317.97
495.14	55854.54
495.32	54398.73
495.49	54649.17
495.67	55697.73
495.85	56439.68
496.02	57045.88
496.20	56240.73
496.38	55749.22
496.55	55920.08
496.73	56795.44
496.91	57076.30
497.09	57242.48
497.26	57895.49
497.44	56961.62
497.62	55676.66
497.79	55585.38
497.97	54494.69
498.14	55154.72
498.32	56205.62
498.50	56638.62
498.67	56493.51
498.85	56493.51
499.03	56999.07
499.20	57066.94
499.38	56465.42
499.56	55969.23
499.73	56203.28
499.91	56313.29
500.08	55400.48
500.26	55288.13
500.44	55683.69
500.61	56615.22
500.79	56104.98
500.97	55760.92
501.14	55320.90
501.32	54553.21
501.49	54869.18
501.67	55899.01
501.84	55945.83
502.02	56231.37
502.20	56886.72
502.37	56617.56
502.55	57209.71
502.72	57890.81
502.90	58218.49
503.07	57783.15
503.25	56818.84
503.43	56020.72
503.60	55332.60
503.78	55466.02
503.95	56376.48
504.13	57254.18
504.30	57869.75
504.48	57008.43
504.65	57586.54
504.83	57368.87
505.01	58052.31
505.18	58113.16
505.36	59196.83
505.53	58843.41
505.71	58443.18
505.88	59051.72
506.06	58473.60
506.23	58078.05
506.41	57755.06
506.58	58068.69
506.76	58138.91
506.93	57567.82
507.11	57607.61
507.28	57769.10
507.46	56849.27
507.63	57207.37
507.81	56910.13
507.98	57008.43
508.16	58115.50
508.33	58372.96
508.50	58347.21
508.68	58876.18
508.85	59009.59
509.03	59580.68
509.20	59121.93
509.38	58387.00
509.55	58384.66
509.73	58108.48
509.90	58330.83
510.08	58372.96
510.25	58164.65
510.42	57659.10
510.60	58166.99
510.77	58637.44
510.95	58951.07
511.12	59278.75
511.30	60023.04
511.47	59931.76
511.64	59861.54
511.82	59608.76
511.99	58602.33
512.17	58408.07
512.34	57951.66
512.51	58616.38
512.69	58550.84
512.86	58005.50
513.04	58291.04
513.21	58092.10
513.38	57474.20
513.56	57090.35
513.73	56591.81
513.90	57811.23
514.08	57523.35
514.25	57661.44
514.43	57907.19
514.60	58038.26
514.77	58328.49
514.95	58789.58
515.12	58440.84
515.29	59070.44
515.47	59231.94
515.64	59253.00
515.81	58843.41
515.99	57661.44
516.16	55936.46
516.33	53605.29
516.51	53705.93
516.68	52362.46
516.85	51000.27
517.03	52437.36
517.20	55526.87
517.37	57769.10
517.54	58382.32
517.72	57591.22
517.89	54424.48
518.06	52753.33
518.24	53511.67
518.41	56074.55
518.58	57368.87
518.75	57336.10
518.93	57057.58
519.10	56973.32
519.27	57790.17
519.45	58305.09
519.62	58941.71
519.79	58953.41
519.96	58363.60
520.14	58412.75
520.31	57422.70
520.48	57364.19
520.65	58302.74
520.83	59344.28
521.00	58557.86
521.17	58166.99
521.34	58482.97
521.52	59477.69
521.69	59437.90
521.86	59707.07
522.03	59182.79
522.20	57762.08
522.38	56954.60
522.55	57165.24
522.72	57453.13
522.89	57490.58
523.07	58440.84
523.24	58993.20
523.41	59220.23
523.58	59730.47
523.75	59557.27
523.92	59948.14
524.10	59557.27
524.27	59250.66
524.44	58656.17
524.61	57991.45
524.78	58993.20
524.96	58878.52
525.13	59030.65
525.30	59788.98
525.47	59756.22
525.64	59835.80
525.81	58518.07
525.98	56750.97
526.16	55480.06
526.33	55341.97
526.50	55009.61
526.67	55384.10
526.84	56065.19
527.01	56921.83
527.18	57513.98
527.36	58099.12
527.53	59030.65
527.70	58541.48
527.87	57401.64
528.04	58150.61
528.21	58848.09
528.38	59185.13
528.55	60626.90
528.72	60331.99
528.89	59852.18
529.07	59526.84
529.24	58513.39
529.41	58188.06
529.58	58443.18
529.75	58908.94
529.92	59533.87
530.09	59353.65
530.26	59833.46
530.43	60399.86
530.60	59774.94
530.77	60205.60
530.94	60470.08
531.11	59571.32
531.28	59384.07
531.46	59496.42
531.63	59587.70
531.80	58951.07
531.97	58822.34
532.14	58447.86
532.31	57123.11
532.48	56521.60
532.65	57045.88
532.82	57193.33
532.99	59360.67
533.16	59487.06
533.33	59695.36
533.50	59482.37
533.67	58831.71
533.84	58789.58
534.01	59063.42
534.18	58841.07
534.35	58829.37
534.52	58258.27
534.69	58506.37
534.86	59332.58
535.03	59667.28
535.20	59936.44
535.37	60509.87
535.54	60589.45
535.71	59772.60
535.88	59641.53
536.05	58754.47
536.22	58204.44
536.38	58464.24
536.55	57970.39
536.72	57338.44
536.89	58000.82
537.06	58234.87
537.23	58728.72
537.40	58120.18
537.57	58377.64
537.74	58354.24
537.91	58660.85
538.08	58578.93
538.25	59058.74
538.42	59309.18
538.59	59180.45
538.75	58288.70
538.92	57373.55
539.09	57869.75
539.26	57797.19
539.43	57750.38
539.60	57200.35
539.77	58150.61
539.94	57757.40
540.11	57106.73
540.28	56952.26
540.44	56926.51
540.61	56942.89
540.78	57022.47
540.95	57490.58
541.12	57853.36
541.29	58071.03
541.46	57979.75
541.62	58358.92
541.79	57574.84
541.96	57031.83
542.13	57897.83
542.30	57506.96
542.47	58113.16
542.63	57815.91
542.80	57499.94
542.97	56793.10
543.14	57396.96
543.31	57832.30
543.48	58557.86
543.64	58887.88
543.81	59131.29
543.98	59145.34
544.15	58394.03
544.32	58630.42
544.48	58337.85
544.65	57822.93
544.82	58609.35
544.99	57315.04
545.16	57247.16
545.32	57497.60
545.49	58237.21
545.66	58295.72
545.83	58164.65
546.00	58623.40
546.16	57839.32
546.33	57647.39
546.50	57696.55
546.67	58323.81
546.83	58038.26
547.00	58085.07
547.17	56566.07
547.34	56397.55
547.50	56224.35
547.67	56856.29
547.84	57551.43
548.00	58255.93
548.17	57881.45
548.34	58120.18
548.51	58176.36
548.67	57565.48
548.84	57822.93
549.01	58143.59
549.18	57551.43
549.34	57722.29
549.51	58377.64
549.68	58686.59
549.84	57359.51
550.01	56750.97
550.18	57111.41
550.34	57080.98
550.51	57190.99
550.68	57696.55
550.84	58054.65
551.01	57052.90
551.18	57179.29
551.34	57272.91
551.51	57778.46
551.68	57986.77
551.84	58705.32
552.01	57691.86
552.18	57312.70
552.34	56287.54
552.51	56048.81
552.68	56214.99
552.84	56825.87
553.01	56975.66
553.18	56711.18
553.34	56910.13
553.51	57031.83
553.67	57537.39
553.84	57797.19
554.01	58253.59
554.17	57448.45
554.34	57172.27
554.51	57106.73
554.67	56814.16
554.84	56980.34
555.00	56505.21
555.17	56643.30
555.33	56512.23
555.50	56210.31
555.67	56933.53
555.83	56882.04
556.00	56083.92
556.16	55950.51
556.33	55976.25
556.50	56727.56
556.66	56172.86
556.83	55660.28
556.99	55566.66
557.16	55980.93
557.32	55821.78
557.49	56584.79
557.65	56275.84
557.82	56619.90
557.98	56755.65
558.15	55880.29
558.32	55238.98
558.48	54288.73
558.65	54295.75
558.81	54403.41
558.98	55559.64
559.14	55229.62
559.31	55608.79
559.47	55253.03
559.64	54887.90
559.80	54660.87
559.97	55145.36
560.13	55716.45
560.30	56605.86
560.46	57169.93
560.63	57392.28
560.79	57031.83
560.96	56324.99
561.12	55423.89
561.29	55517.51
561.45	55547.93
561.61	56364.78
561.78	55480.06
561.94	55557.30
562.11	55196.85
562.27	54649.17
562.44	56053.49
562.60	56385.85
562.77	55882.63
562.93	55683.69
563.10	55980.93
563.26	55922.42
563.42	55966.89
563.59	55540.91
563.75	55257.71
563.92	55002.59
564.08	55171.11
564.24	56261.80
564.41	54894.92
564.57	56112.00
564.74	55866.25
564.90	55051.74
565.07	54703.00
565.23	53773.81
565.39	53476.56
565.56	53752.74
565.72	54585.97
565.88	53715.29
566.05	55590.06
566.21	54885.56
566.38	54787.26
566.54	55714.11
566.70	56212.65
566.87	55517.51
567.03	55620.49
567.19	56545.00
567.36	56582.45
567.52	55278.77
567.68	54726.41
567.85	53860.41
568.01	54607.04
568.17	53804.24
568.34	54363.62
568.50	53815.94
568.66	53448.47
568.83	53502.31
568.99	53127.82
569.15	53680.19
569.32	53567.84
569.48	53581.88
569.64	53357.19
569.81	53698.91
569.97	53268.25
570.13	52530.98
570.30	51767.97
570.46	51877.97
570.62	51585.41
570.78	51936.49
570.95	51971.60
571.11	52914.83
571.27	52233.74
571.43	52842.27
571.60	53270.59
571.76	53535.07
571.92	53710.61
572.09	53918.92
572.25	53167.61
572.41	53125.48
572.57	53396.98
572.74	54096.80
572.90	54749.81
573.06	54482.99
573.22	54930.03
573.38	54138.93
573.55	55187.49
573.71	54124.89
573.87	53680.19
574.03	53612.31
574.20	53151.23
574.36	52912.49
574.52	52765.04
574.68	52900.79
574.84	51798.40
575.01	51683.71
575.17	51819.46
575.33	52100.32
575.49	52720.57
575.65	51304.54
575.82	51660.30
575.98	52910.15
576.14	53015.47
576.30	53687.21
576.46	52622.26
576.62	51805.42
576.79	52219.69
576.95	52500.56
577.11	52947.60
577.27	52299.27
577.43	52706.52
577.59	52353.10
577.75	51625.20
577.92	51501.15
578.08	51718.82
578.24	51136.02
578.40	51091.55
578.56	50305.13
578.72	50817.71
578.88	50923.04
579.04	51239.01
579.21	51178.15
579.37	50923.04
579.53	51583.07
579.69	51019.00
579.85	50997.93
580.01	51119.64
580.17	50497.06
580.33	52016.07
580.49	52165.86
580.65	51358.38
580.82	51901.38
580.98	51784.35
581.14	51089.21
581.30	51224.96
581.46	50497.06
581.62	51632.22
581.78	51772.65
581.94	52367.15
582.10	51997.34
582.26	52112.03
582.42	51938.83
582.58	51402.85
582.74	51182.84
582.90	51028.36
583.06	52041.81
583.22	51601.79
583.38	51664.99
583.54	52002.02
583.70	51606.47
583.86	51976.28
584.02	50623.45
584.18	51168.79
584.34	50618.77
584.50	50504.08
584.66	50813.03
584.82	50733.45
584.98	51023.68
585.14	49715.32
585.30	49303.38
