SpectraSuite Data File
++++++++++++++++++++++++++++++++++++
Date: Mon Oct 07 14:55:01 GMT-05:00 2013
User: price-jones
Dark Spectrum Present: No
Reference Spectrum Present: No
Number of Sampled Component Spectra: 1
Spectrometers: USB2+H05261
Integration Time (usec): 10000 (USB2+H05261)
Spectra Averaged: 1 (USB2+H05261)
Boxcar Smoothing: 0 (USB2+H05261)
Correct for Electrical Dark: No (USB2+H05261)
Strobe/Lamp Enabled: No (USB2+H05261)
Correct for Detector Non-linearity: No (USB2+H05261)
Correct for Stray Light: No (USB2+H05261)
Number of Pixels in Processed Spectrum: 2048
>>>>>Begin Processed Spectral Data<<<<<
365.73	0.00
365.92	0.00
366.12	0.00
366.32	0.00
366.52	0.00
366.72	0.00
366.91	0.00
367.11	0.00
367.31	0.00
367.51	0.00
367.70	0.00
367.90	0.00
368.10	0.00
368.30	0.00
368.49	0.00
368.69	0.00
368.89	0.00
369.09	0.00
369.28	0.00
369.48	0.00
369.68	0.00
369.87	0.00
370.07	0.00
370.27	0.00
370.47	372.15
370.66	2544.16
370.86	2981.84
371.06	3162.06
371.25	3052.06
371.45	2738.43
371.65	2434.16
371.84	2452.88
372.04	2623.74
372.24	2890.56
372.44	2920.99
372.63	2733.75
372.83	2546.50
373.03	2214.15
373.22	2090.10
373.42	2497.35
373.62	2759.49
373.81	2860.13
374.01	2785.24
374.21	2574.59
374.40	2361.60
374.60	2555.86
374.79	2839.07
374.99	3344.63
375.19	3318.88
375.38	3480.38
375.58	3251.00
375.78	3314.20
375.97	3342.28
376.17	3435.91
376.37	3463.99
376.56	3627.83
376.76	4004.66
376.95	3985.93
377.15	4135.73
377.35	4451.70
377.54	4634.26
377.74	4791.08
377.93	4793.42
378.13	4566.39
378.33	4348.72
378.52	4014.02
378.72	3920.40
378.91	3824.44
379.11	3658.26
379.31	3618.47
379.50	3545.91
379.70	3990.61
379.89	4236.37
380.09	4610.86
380.28	4692.77
380.48	4751.29
380.68	4472.76
380.87	4191.90
381.07	3875.93
381.26	3618.47
381.46	3482.72
381.65	3286.11
381.85	3281.43
382.04	2944.39
382.24	2965.46
382.43	2827.37
382.63	2766.51
382.83	2757.15
383.02	2754.81
383.22	2738.43
383.41	2881.20
383.61	3038.02
383.80	3531.87
384.00	4070.19
384.19	4278.50
384.39	4723.20
384.58	4444.68
384.78	4496.17
384.97	4386.16
385.17	4262.12
385.36	3985.93
385.56	3824.44
385.75	4177.86
385.95	4500.85
386.14	4912.78
386.34	4739.58
386.53	4484.47
386.72	4339.35
386.92	4505.53
387.11	4688.09
387.31	4718.52
387.50	4739.58
387.70	4449.36
387.89	4421.27
388.09	4585.11
388.28	4610.86
388.48	4753.63
388.67	5125.77
388.86	5757.72
389.06	6064.33
389.25	6380.30
389.45	6312.42
389.64	6141.57
389.84	6202.42
390.03	6167.31
390.22	6324.13
390.42	6523.07
390.61	6918.62
390.81	7204.17
391.00	7414.82
391.19	7197.15
391.39	7056.72
391.58	6558.18
391.78	6171.99
391.97	6026.88
392.16	5547.07
392.36	4889.38
392.55	3801.03
392.75	3012.27
392.94	2609.70
393.13	2815.66
393.33	3403.14
393.52	4283.18
393.71	5254.50
393.91	5858.36
394.10	6204.76
394.29	6871.81
394.49	7293.11
394.68	7981.23
394.88	7838.45
395.07	8283.16
395.26	7833.77
395.46	7522.48
395.65	6991.18
395.84	6106.46
396.04	5004.07
396.23	3985.93
396.42	3449.95
396.62	3611.45
396.81	4379.14
397.00	5846.66
397.19	6977.14
397.39	8262.09
397.58	8973.61
397.77	9483.85
397.97	9797.48
398.16	9905.15
398.35	10129.84
398.55	10710.29
398.74	11028.60
398.93	11286.06
399.12	10972.43
399.32	10656.46
399.51	11089.46
399.70	11531.82
399.90	11426.50
400.09	11637.14
400.28	11253.30
400.47	11550.54
400.67	12032.69
400.86	12353.35
401.05	12294.83
401.24	12313.56
401.44	12580.38
401.63	12671.66
401.82	12781.67
402.01	12769.96
402.21	12695.07
402.40	12638.89
402.59	12383.77
402.78	12025.67
402.97	11653.53
403.17	12446.97
403.36	13001.68
403.55	13355.10
403.74	13411.27
403.93	12732.51
404.13	11550.54
404.32	11875.88
404.51	12676.34
404.70	13181.90
404.89	13025.08
405.09	12891.67
405.28	12568.68
405.47	12489.10
405.66	12535.91
405.85	12346.33
406.05	11950.78
406.24	12393.14
406.43	12475.06
406.62	13004.02
406.81	13099.98
407.00	12922.10
407.20	12327.60
407.39	12650.60
407.58	13366.80
407.77	13724.90
407.96	14111.09
408.15	14895.17
408.34	14382.59
408.54	15056.67
408.73	14766.44
408.92	14941.98
409.11	14427.06
409.30	13652.34
409.49	12828.48
409.68	11857.15
409.87	12074.82
410.07	12650.60
410.26	13596.17
410.45	14265.57
410.64	14544.09
410.83	15279.02
411.02	15049.64
411.21	16011.60
411.40	15770.53
411.59	16147.36
411.78	15866.49
411.98	15800.96
412.17	16086.50
412.36	15967.13
412.55	15908.62
412.74	15323.49
412.93	14951.34
413.12	15424.13
413.31	17102.29
413.50	16879.94
413.69	17345.71
413.88	16243.32
414.07	16290.13
414.26	16676.32
414.45	16886.97
414.64	16816.75
414.83	16683.34
415.02	16835.47
415.22	16837.81
415.41	17317.62
415.60	17741.26
415.79	18097.02
415.98	18506.62
416.17	18143.83
416.36	17776.37
416.55	18101.70
416.74	17151.45
416.93	16910.37
417.12	17132.72
417.31	16858.88
417.50	17326.99
417.69	17989.36
417.88	17785.73
418.07	17451.03
418.26	17284.86
418.45	17759.98
418.64	18501.93
418.83	19510.71
419.02	18438.74
419.21	17778.71
419.39	17565.72
419.58	16872.92
419.77	16994.63
419.96	18017.44
420.15	18911.53
420.34	19311.76
420.53	19721.35
420.72	20430.54
420.91	20013.92
421.10	19604.33
421.29	19550.49
421.48	19468.58
421.67	19843.06
421.86	19087.07
422.05	17352.73
422.24	16177.78
422.43	16739.51
422.61	18677.48
422.80	19124.52
422.99	18686.84
423.18	18347.46
423.37	18490.23
423.56	18637.69
423.75	19105.79
423.94	19185.37
424.13	18118.09
424.32	18361.50
424.50	18340.44
424.69	18260.86
424.88	18689.18
425.07	18422.36
425.26	18239.79
425.45	17682.75
425.64	17767.01
425.83	18190.64
426.01	18792.16
426.20	18679.82
426.39	18356.82
426.58	17137.40
426.77	16278.43
426.96	16037.35
427.15	16683.34
427.33	18031.49
427.52	18284.26
427.71	18469.17
427.90	18015.10
428.09	18242.14
428.28	17600.83
428.46	16858.88
428.65	16629.51
428.84	17439.33
429.03	17621.89
429.22	16262.04
429.40	15335.19
429.59	13984.70
429.78	12313.56
429.97	12765.28
430.16	12781.67
430.34	12882.31
430.53	13132.75
430.72	13926.19
430.91	15487.32
431.10	18104.04
431.28	20786.30
431.47	22174.24
431.66	21467.39
431.85	19199.41
432.03	17788.07
432.22	17963.61
432.41	19246.23
432.60	20683.31
432.79	21481.44
432.97	21710.81
433.16	21188.87
433.35	18616.62
433.54	17092.93
433.72	16482.05
433.91	17425.29
434.10	19775.19
434.28	20601.40
434.47	21649.96
434.66	20798.00
434.85	20409.47
435.03	20760.55
435.22	21453.35
435.41	22031.46
435.59	22342.75
435.78	22272.54
435.97	23077.68
436.16	23248.54
436.34	22829.59
436.53	22520.63
436.72	22417.65
436.90	21174.83
437.09	21186.53
437.28	21027.37
437.46	21820.81
437.65	21289.51
437.84	19412.40
438.02	18672.79
438.21	19014.51
438.40	19592.62
438.58	20776.94
438.77	21961.25
438.96	21874.65
439.14	23040.23
439.33	23204.07
439.52	23372.59
439.70	23161.94
439.89	21919.12
440.08	21404.20
440.26	21837.20
440.45	22885.76
440.63	24800.32
440.82	25486.09
441.01	25163.10
441.19	24765.21
441.38	25357.36
441.57	26431.67
441.75	26424.65
441.94	26492.52
442.12	26663.38
442.31	27047.23
442.50	27063.61
442.68	26644.66
442.87	26424.65
443.05	25806.75
443.24	26363.79
443.43	26778.07
443.61	27044.89
443.80	27927.27
443.98	26639.98
444.17	25839.51
444.35	27814.93
444.54	28332.18
444.73	27505.98
444.91	26019.74
445.10	25195.87
445.28	24706.70
445.47	24093.47
445.65	24680.95
445.84	25743.55
446.02	25839.51
446.21	26665.72
446.39	26298.26
446.58	27129.15
446.77	27269.58
446.95	27576.19
447.14	28367.29
447.32	28589.64
447.51	28126.22
447.69	27082.34
447.88	26965.31
448.06	27466.19
448.25	27513.00
448.43	27314.05
448.62	27552.79
448.80	27236.81
448.99	26934.88
449.17	27882.80
449.36	27978.76
449.54	28723.05
449.73	29174.78
449.91	29654.59
450.10	30347.39
450.28	30778.04
450.46	30429.30
450.65	30373.13
450.83	30146.10
451.02	29476.71
451.20	29614.80
451.39	29589.05
451.57	29614.80
451.76	29638.20
451.94	29205.20
452.13	28556.88
452.31	26801.47
452.49	25895.69
452.68	26405.92
452.86	26974.67
453.05	27211.07
453.23	28556.88
453.42	28496.02
453.60	29242.65
453.78	29352.66
453.97	29039.03
454.15	28821.36
454.34	27562.15
454.52	27534.06
454.70	28091.11
454.89	28533.47
455.07	28367.29
455.26	28905.62
455.44	29825.45
455.62	30529.95
455.81	30377.81
455.99	29968.22
456.17	30689.10
456.36	31143.17
456.54	31115.08
456.73	30764.00
456.91	30948.90
457.09	31358.50
457.28	32311.10
457.46	30787.41
457.64	30108.65
457.83	29874.60
458.01	29486.07
458.19	30326.32
458.38	31049.55
458.56	32058.32
458.74	30855.28
458.93	30911.46
459.11	30291.21
459.29	29703.74
459.48	30759.32
459.66	29883.96
459.84	30185.89
460.03	30607.19
460.21	31447.44
460.39	31559.78
460.57	31655.75
460.76	31639.36
460.94	31831.29
461.12	31901.50
461.31	31840.65
461.49	32095.77
461.67	31761.07
461.85	32652.81
462.04	32669.20
462.22	32432.80
462.40	32163.64
462.59	32081.72
462.77	32421.10
462.95	32133.21
463.13	32238.54
463.32	31711.92
463.50	31529.36
463.68	31669.79
463.86	31892.14
464.05	31225.09
464.23	30155.46
464.41	30497.18
464.59	30295.89
464.78	31997.46
464.96	31569.15
465.14	30817.83
465.32	32294.71
465.50	33104.54
465.69	33659.24
465.87	32215.13
466.05	31033.16
466.23	29912.05
466.41	29427.56
466.60	30602.50
466.78	30618.89
466.96	30859.96
467.14	31583.19
467.32	31859.37
467.51	31744.69
467.69	30174.19
467.87	30923.16
468.05	31777.45
468.23	31557.44
468.41	31398.29
468.60	31459.14
468.78	32233.86
468.96	31737.66
469.14	32130.87
469.32	32814.31
469.50	30525.27
469.69	31248.49
469.87	30902.09
470.05	30366.11
470.23	30871.67
470.41	30986.35
470.59	31096.36
470.77	31185.30
470.95	32112.15
471.14	32973.47
471.32	32943.04
471.50	34209.27
471.68	34326.30
471.86	34838.87
472.04	34080.54
472.22	34848.24
472.40	32921.98
472.58	32959.42
472.77	32713.67
472.95	33191.14
473.13	34391.83
473.31	33174.75
473.49	32992.19
473.67	34125.01
473.85	34639.93
474.03	35974.03
474.21	36311.07
474.39	36491.29
474.57	36034.89
474.75	36252.56
474.93	35868.71
475.12	34569.71
475.30	35084.63
475.48	34696.10
475.66	34410.56
475.84	34160.12
476.02	34469.07
476.20	34373.11
476.38	34967.60
476.56	36240.86
476.74	36858.76
476.92	36613.00
477.10	37081.11
477.28	37794.97
477.46	37455.59
477.64	38431.60
477.82	38953.54
478.00	38794.38
478.18	37626.45
478.36	37530.49
478.54	38211.59
478.72	38803.74
478.90	40463.18
479.08	41820.69
479.26	41516.42
479.44	41280.03
479.62	40741.71
479.80	41235.56
479.98	40800.22
480.16	42038.36
480.34	40531.06
480.52	41703.67
480.70	42281.78
480.88	41766.86
481.06	42728.82
481.24	42476.04
481.41	43187.56
481.59	44655.08
481.77	43077.56
481.95	42761.59
482.13	42300.50
482.31	42909.04
482.49	43789.08
482.67	42993.30
482.85	43365.45
483.03	43611.20
483.21	45064.67
483.39	44219.74
483.57	43683.76
483.74	43943.56
483.92	44666.78
484.10	44011.43
484.28	44226.76
484.46	44498.26
484.64	46518.15
484.82	44727.64
485.00	43931.86
485.18	43618.22
485.35	41652.17
485.53	36959.40
485.71	34677.38
485.89	35215.70
486.07	37645.18
486.25	40762.77
486.43	42890.32
486.61	42773.29
486.78	42604.77
486.96	44098.03
487.14	45394.69
487.32	46141.32
487.50	46906.68
487.68	48102.69
487.85	49261.26
488.03	48142.48
488.21	47873.32
488.39	47435.64
488.57	46616.45
488.75	46485.38
488.92	48343.77
489.10	49930.65
489.28	51091.55
489.46	52341.40
489.64	52149.48
489.81	52062.88
489.99	51674.35
490.17	51152.41
490.35	51494.13
490.53	51306.88
490.70	50527.48
490.88	50937.08
491.06	51868.61
491.24	52062.88
491.41	50859.84
491.59	48818.89
491.77	49059.97
491.95	50499.40
492.13	52105.01
492.30	52449.06
492.48	53352.51
492.66	53883.81
492.84	53769.13
493.01	52980.37
493.19	52736.95
493.37	52317.99
493.54	53041.22
493.72	53382.94
493.90	54169.36
494.08	54351.92
494.25	54452.56
494.43	54915.99
494.61	55779.65
494.79	55679.00
494.96	55938.80
495.14	55145.36
495.32	53766.79
495.49	54204.47
495.67	55075.15
495.85	56119.02
496.02	56622.24
496.20	56182.22
496.38	55826.46
496.55	55763.26
496.73	56704.16
496.91	56556.70
497.09	56250.09
497.26	56631.60
497.44	56282.86
497.62	55196.85
497.79	54361.28
497.97	53911.90
498.14	54787.26
498.32	55847.52
498.50	55889.65
498.67	55718.79
498.85	56006.68
499.03	57027.15
499.20	57174.61
499.38	56624.58
499.56	56004.34
499.73	55796.03
499.91	55620.49
500.08	54988.55
500.26	54571.93
500.44	55175.79
500.61	55751.56
500.79	55393.46
500.97	55707.09
501.14	54623.42
501.32	54316.81
501.49	54646.83
501.67	54983.86
501.84	55215.58
502.02	55938.80
502.20	56573.09
502.37	56776.72
502.55	56975.66
502.72	57036.51
502.90	57474.20
503.07	57375.89
503.25	56156.47
503.43	55257.71
503.60	54822.37
503.78	54602.36
503.95	54946.42
504.13	56381.16
504.30	56704.16
504.48	56516.92
504.65	56165.84
504.83	56750.97
505.01	57579.52
505.18	57719.95
505.36	57970.39
505.53	58042.95
505.71	58550.84
505.88	58225.51
506.06	57750.38
506.23	57448.45
506.41	57048.22
506.58	57776.12
506.76	57642.71
506.93	57090.35
507.11	57111.41
507.28	57048.22
507.46	56399.89
507.63	56332.01
507.81	55590.06
507.98	56671.39
508.16	57752.72
508.33	57612.29
508.50	57890.81
508.68	58344.87
508.85	58904.26
509.03	58834.05
509.20	57890.81
509.38	56949.92
509.55	56966.30
509.73	57172.27
509.90	57642.71
510.08	57733.99
510.25	57088.01
510.42	57382.91
510.60	57808.89
510.77	58134.23
510.95	58106.14
511.12	58244.23
511.30	58805.96
511.47	58981.50
511.64	59025.97
511.82	58649.14
511.99	57911.88
512.17	58171.67
512.34	57537.39
512.51	57207.37
512.69	57965.71
512.86	57631.01
513.04	57815.91
513.21	57481.22
513.38	56514.58
513.56	56528.62
513.73	55884.97
513.90	56652.67
514.08	56975.66
514.25	56509.89
514.43	57090.35
514.60	57308.02
514.77	57729.31
514.95	57609.95
515.12	57687.18
515.29	58171.67
515.47	58431.47
515.64	58389.34
515.81	57867.40
515.99	57008.43
516.16	54880.88
516.33	52594.18
516.51	52179.90
516.68	50925.38
516.85	50274.71
517.03	52669.08
517.20	54955.78
517.37	57038.86
517.54	58003.16
517.72	56427.98
517.89	53506.99
518.06	52142.45
518.24	53289.32
518.41	55503.46
518.58	56219.67
518.75	56112.00
518.93	56427.98
519.10	55819.44
519.27	56750.97
519.45	57073.96
519.62	57883.79
519.79	57954.00
519.96	57382.91
520.14	57216.74
520.31	55838.16
520.48	56280.52
520.65	57249.50
520.83	57851.02
521.00	58005.50
521.17	57542.07
521.34	57499.94
521.52	58174.02
521.69	58000.82
521.86	58794.26
522.03	58611.70
522.20	56919.49
522.38	56332.01
522.55	56879.70
522.72	57654.42
522.89	57235.46
523.07	57579.52
523.24	57977.41
523.41	59040.01
523.58	59498.76
523.75	59629.83
523.92	59192.15
524.10	58621.06
524.27	58681.91
524.44	58241.89
524.61	58033.58
524.78	58548.50
524.96	58522.76
525.13	58539.14
525.30	59084.48
525.47	59131.29
525.64	59007.25
525.81	58239.55
525.98	56114.34
526.16	54944.08
526.33	55578.36
526.50	54305.11
526.67	54934.71
526.84	55009.61
527.01	56189.24
527.18	56875.02
527.36	57645.05
527.53	58677.23
527.70	57975.07
527.87	56708.84
528.04	57715.27
528.21	58239.55
528.38	58974.48
528.55	59622.81
528.72	59440.24
528.89	58876.18
529.07	58639.78
529.24	57518.67
529.41	57347.81
529.58	57490.58
529.75	58171.67
529.92	58646.80
530.09	58281.68
530.26	58951.07
530.43	59803.03
530.60	58827.02
530.77	59152.36
530.94	59580.68
531.11	58745.11
531.28	58988.52
531.46	59018.95
531.63	58817.66
531.80	58150.61
531.97	57506.96
532.14	57612.29
532.31	56334.35
532.48	55660.28
532.65	55910.72
532.82	56631.60
532.99	58110.82
533.16	58321.47
533.33	58288.70
533.50	58628.08
533.67	58489.99
533.84	57654.42
534.01	58035.92
534.18	58340.19
534.35	58171.67
534.52	57509.30
534.69	58206.78
534.86	58815.32
535.03	58829.37
535.20	58567.23
535.37	59428.54
535.54	59777.28
535.71	59405.14
535.88	59627.49
536.05	58185.72
536.22	57567.82
536.38	57422.70
536.55	56317.97
536.72	56191.58
536.89	57109.07
537.06	57200.35
537.23	57888.47
537.40	58288.70
537.57	57946.98
537.74	58176.36
537.91	58237.21
538.08	57785.49
538.25	57588.88
538.42	58379.98
538.59	57738.68
538.75	56746.29
538.92	56722.88
539.09	56816.50
539.26	56772.03
539.43	56959.28
539.60	57151.20
539.77	57673.14
539.94	57228.44
540.11	56420.95
540.28	56102.64
540.44	55386.44
540.61	55557.30
540.78	56437.34
540.95	57261.21
541.12	57322.06
541.29	57853.36
541.46	57963.37
541.62	57909.53
541.79	56999.07
541.96	56107.32
542.13	56273.50
542.30	56711.18
542.47	57317.38
542.63	56736.93
542.80	56701.82
542.97	56374.14
543.14	56271.16
543.31	56413.93
543.48	57595.90
543.64	57883.79
543.81	59154.70
543.98	58597.65
544.15	56877.36
544.32	57626.33
544.48	56942.89
544.65	57080.98
544.82	57750.38
544.99	56123.71
545.16	55686.03
545.32	56130.73
545.49	57132.48
545.66	57303.34
545.83	56963.96
546.00	57415.68
546.16	57513.98
546.33	57176.95
546.50	57308.02
546.67	57811.23
546.83	56552.02
547.00	57305.68
547.17	56453.72
547.34	55407.50
547.50	55508.14
547.67	56645.65
547.84	57446.11
548.00	57221.42
548.17	56886.72
548.34	57312.70
548.51	57684.84
548.67	58073.37
548.84	57645.05
549.01	57446.11
549.18	56769.69
549.34	56910.13
549.51	57024.81
549.68	57022.47
549.84	56886.72
550.01	56472.45
550.18	55781.99
550.34	56170.52
550.51	56369.46
550.68	56896.08
550.84	56608.20
551.01	56266.48
551.18	55793.69
551.34	55372.39
551.51	56910.13
551.68	56612.88
551.84	56442.02
552.01	56580.11
552.18	55887.31
552.34	55526.87
552.51	55463.67
552.68	55398.14
552.84	55442.61
553.01	55786.67
553.18	57099.71
553.34	56980.34
553.51	56879.70
553.67	56575.43
553.84	55721.13
554.01	56566.07
554.17	56018.38
554.34	56275.84
554.51	56612.88
554.67	55660.28
554.84	55585.38
555.00	55629.85
555.17	55831.14
555.33	55449.63
555.50	54822.37
555.67	55819.44
555.83	55721.13
556.00	55388.78
556.16	54915.99
556.33	54578.95
556.50	55442.61
556.66	55501.12
556.83	54841.09
556.99	54440.86
557.16	54876.20
557.32	54827.05
557.49	55077.49
557.65	54410.43
557.82	55641.56
557.98	55407.50
558.15	54522.78
558.32	53525.71
558.48	52975.69
558.65	52809.51
558.81	53918.92
558.98	54862.16
559.14	54810.67
559.31	54543.84
559.47	53792.53
559.64	53368.90
559.80	53071.65
559.97	53890.83
560.13	55126.64
560.30	56088.60
560.46	56250.09
560.63	56779.06
560.79	56371.80
560.96	55473.04
561.12	54064.03
561.29	53584.22
561.45	53832.32
561.61	55105.57
561.78	54543.84
561.94	55400.48
562.11	55023.65
562.27	54459.58
562.44	54901.95
562.60	55351.33
562.77	55393.46
562.93	54412.77
563.10	54447.88
563.26	54021.90
563.42	54983.86
563.59	54181.06
563.75	53900.20
563.92	54138.93
564.08	53312.72
564.24	54408.09
564.41	53890.83
564.57	54703.00
564.74	54145.95
564.90	53326.77
565.07	53867.43
565.23	52699.50
565.39	52076.92
565.56	52767.38
565.72	52949.94
565.88	51641.58
566.05	53741.04
566.21	54405.75
566.38	53682.53
566.54	53609.97
566.70	54192.76
566.87	53998.50
567.03	53483.58
567.19	54548.53
567.36	55072.81
567.52	53757.42
567.68	53476.56
567.85	52210.33
568.01	52041.81
568.17	52793.12
568.34	53443.79
568.50	53167.61
568.66	53661.46
568.83	52100.32
568.99	51892.02
569.15	52294.59
569.32	52774.40
569.48	51978.62
569.64	51674.35
569.81	51810.10
569.97	51824.14
570.13	51147.73
570.30	50693.66
570.46	50234.92
570.62	49509.35
570.78	49535.10
570.95	50813.03
571.11	50403.44
571.27	50141.30
571.43	50312.16
571.60	50302.79
571.76	51882.66
571.92	52011.38
572.09	52528.64
572.25	52498.22
572.41	53284.64
572.57	52935.90
572.74	52837.59
572.90	53549.12
573.06	52807.17
573.22	52992.07
573.38	52718.23
573.55	53900.20
573.71	52652.69
573.87	53015.47
574.03	52603.54
574.20	52219.69
574.36	52645.67
574.52	51480.08
574.68	50939.42
574.84	50660.90
575.01	50440.89
575.17	51264.75
575.33	51019.00
575.49	51423.91
575.65	50754.52
575.82	51168.79
575.98	50274.71
576.14	51351.35
576.30	52177.56
576.46	50426.84
576.62	50850.48
576.79	51002.61
576.95	50848.14
577.11	51192.20
577.27	50885.59
577.43	51512.85
577.59	49930.65
577.75	49153.59
577.92	48933.58
578.08	49350.20
578.24	50419.82
578.40	50401.10
578.56	49148.91
578.72	49666.17
578.88	49453.18
579.04	49488.29
579.21	48898.47
579.37	49937.67
579.53	50361.31
579.69	49614.68
579.85	49832.35
580.01	49628.72
580.17	49116.14
580.33	50637.49
580.49	50387.05
580.65	48589.52
580.82	49914.26
580.98	50209.17
581.14	51168.79
581.30	50513.44
581.46	50127.25
581.62	49965.76
581.78	50887.93
581.94	50911.33
582.10	51173.47
582.26	51297.52
582.42	51114.96
582.58	49268.28
582.74	49092.74
582.90	49727.02
583.06	49368.92
583.22	50007.89
583.38	49958.73
583.54	50401.10
583.70	51016.66
583.86	49951.71
584.02	49984.48
584.18	49385.30
584.34	48767.40
584.50	48058.22
584.66	48870.39
584.82	48856.34
584.98	49165.29
585.14	48589.52
585.30	48854.00
