SpectraSuite Data File
++++++++++++++++++++++++++++++++++++
Date: Mon Oct 07 14:54:55 GMT-05:00 2013
User: price-jones
Dark Spectrum Present: No
Reference Spectrum Present: No
Number of Sampled Component Spectra: 1
Spectrometers: USB2+H05261
Integration Time (usec): 10000 (USB2+H05261)
Spectra Averaged: 1 (USB2+H05261)
Boxcar Smoothing: 0 (USB2+H05261)
Correct for Electrical Dark: No (USB2+H05261)
Strobe/Lamp Enabled: No (USB2+H05261)
Correct for Detector Non-linearity: No (USB2+H05261)
Correct for Stray Light: No (USB2+H05261)
Number of Pixels in Processed Spectrum: 2048
>>>>>Begin Processed Spectral Data<<<<<
365.73	0.00
365.92	0.00
366.12	0.00
366.32	0.00
366.52	0.00
366.72	0.00
366.91	0.00
367.11	0.00
367.31	0.00
367.51	0.00
367.70	0.00
367.90	0.00
368.10	0.00
368.30	0.00
368.49	0.00
368.69	0.00
368.89	0.00
369.09	0.00
369.28	0.00
369.48	0.00
369.68	0.00
369.87	0.00
370.07	0.00
370.27	0.00
370.47	0.00
370.66	0.00
370.86	0.00
371.06	18.72
371.25	0.00
371.45	53.83
371.65	25.75
371.84	0.00
372.04	0.00
372.24	0.00
372.44	42.13
372.63	72.56
372.83	28.09
373.03	30.43
373.22	0.00
373.42	0.00
373.62	0.00
373.81	4.68
374.01	81.92
374.21	79.58
374.40	0.00
374.60	9.36
374.79	0.00
374.99	156.82
375.19	128.73
375.38	105.32
375.58	112.35
375.78	191.92
375.97	105.32
376.17	147.45
376.37	159.16
376.56	110.01
376.76	77.24
376.95	180.22
377.15	163.84
377.35	292.57
377.54	187.24
377.74	248.10
377.93	215.33
378.13	210.65
378.33	227.03
378.52	175.54
378.72	98.30
378.91	77.24
379.11	187.24
379.31	63.19
379.50	149.79
379.70	140.43
379.89	196.60
380.09	238.73
380.28	222.35
380.48	205.97
380.68	264.48
380.87	175.54
381.07	222.35
381.26	49.15
381.46	28.09
381.65	100.64
381.85	72.56
382.04	0.00
382.24	49.15
382.43	0.00
382.63	86.60
382.83	0.00
383.02	65.54
383.22	28.09
383.41	77.24
383.61	86.60
383.80	4.68
384.00	112.35
384.19	145.11
384.39	229.37
384.58	168.52
384.78	180.22
384.97	191.92
385.17	147.45
385.36	21.06
385.56	138.09
385.75	128.73
385.95	152.13
386.14	201.29
386.34	285.55
386.53	245.76
386.72	182.56
386.92	149.79
387.11	182.56
387.31	227.03
387.50	255.12
387.70	229.37
387.89	187.24
388.09	173.20
388.28	250.44
388.48	114.69
388.67	208.31
388.86	299.59
389.06	339.38
389.25	430.66
389.45	409.59
389.64	355.76
389.84	327.68
390.03	402.57
390.22	271.50
390.42	437.68
390.61	416.62
390.81	447.04
391.00	367.46
391.19	444.70
391.39	433.00
391.58	407.25
391.78	315.97
391.97	344.06
392.16	271.50
392.36	205.97
392.55	124.05
392.75	72.56
392.94	58.51
393.13	2.34
393.33	86.60
393.52	138.09
393.71	252.78
393.91	243.42
394.10	301.93
394.29	444.70
394.49	461.09
394.68	528.96
394.88	519.60
395.07	449.38
395.26	503.22
395.46	507.90
395.65	500.87
395.84	346.40
396.04	210.65
396.23	168.52
396.42	100.64
396.62	42.13
396.81	159.16
397.00	255.12
397.19	313.63
397.39	470.45
397.58	557.05
397.77	711.52
397.97	585.13
398.16	643.65
398.35	781.74
398.55	627.26
398.74	692.80
398.93	793.44
399.12	765.36
399.32	645.99
399.51	723.23
399.70	784.08
399.90	805.14
400.09	699.82
400.28	784.08
400.47	868.34
400.67	798.12
400.86	891.74
401.05	861.32
401.24	866.00
401.44	877.70
401.63	868.34
401.82	985.37
402.01	863.66
402.21	861.32
402.40	931.53
402.59	866.00
402.78	929.19
402.97	812.17
403.17	866.00
403.36	851.96
403.55	1013.45
403.74	947.92
403.93	940.90
404.13	861.32
404.32	748.97
404.51	868.34
404.70	929.19
404.89	985.37
405.09	858.98
405.28	908.13
405.47	931.53
405.66	961.96
405.85	908.13
406.05	947.92
406.24	837.91
406.43	809.83
406.62	919.83
406.81	931.53
407.00	950.26
407.20	812.17
407.39	866.00
407.58	929.19
407.77	905.79
407.96	973.66
408.15	1149.20
408.34	978.34
408.54	1055.58
408.73	1034.52
408.92	1069.62
409.11	1008.77
409.30	1060.26
409.49	912.81
409.68	819.19
409.87	737.27
410.07	889.40
410.26	919.83
410.45	947.92
410.64	1036.86
410.83	926.85
411.02	1076.65
411.21	1064.94
411.40	1076.65
411.59	1104.73
411.78	1109.41
411.98	1095.37
412.17	1064.94
412.36	1135.16
412.55	1069.62
412.74	1083.67
412.93	1109.41
413.12	983.02
413.31	1196.01
413.50	1235.80
413.69	1130.48
413.88	1224.10
414.07	1153.88
414.26	1135.16
414.45	1273.25
414.64	1177.29
414.83	1165.59
415.02	1172.61
415.22	1179.63
415.41	1226.44
415.60	1263.89
415.79	1380.92
415.98	1352.83
416.17	1317.72
416.36	1458.15
416.55	1327.08
416.74	1261.55
416.93	1214.74
417.12	1181.97
417.31	1228.78
417.50	1130.48
417.69	1198.35
417.88	1352.83
418.07	1263.89
418.26	1263.89
418.45	1282.61
418.64	1212.40
418.83	1336.45
419.02	1329.42
419.21	1266.23
419.39	1177.29
419.58	1128.14
419.77	1214.74
419.96	1221.76
420.15	1411.34
420.34	1392.62
420.53	1462.83
420.72	1345.81
420.91	1460.49
421.10	1331.76
421.29	1341.13
421.48	1327.08
421.67	1383.26
421.86	1322.40
422.05	1282.61
422.24	1114.10
422.43	1074.31
422.61	1261.55
422.80	1256.87
422.99	1296.66
423.18	1231.12
423.37	1308.36
423.56	1320.06
423.75	1390.28
423.94	1329.42
424.13	1254.53
424.32	1226.44
424.50	1315.38
424.69	1282.61
424.88	1268.57
425.07	1186.65
425.26	1252.19
425.45	1287.29
425.64	1287.29
425.83	1242.82
426.01	1299.00
426.20	1296.66
426.39	1413.68
426.58	1144.52
426.77	1128.14
426.96	1041.54
427.15	1114.10
427.33	1249.85
427.52	1179.63
427.71	1212.40
427.90	1240.48
428.09	1270.91
428.28	1280.27
428.46	1261.55
428.65	1217.08
428.84	1186.65
429.03	1146.86
429.22	1158.57
429.40	1036.86
429.59	945.58
429.78	847.27
429.97	854.30
430.16	774.72
430.34	814.51
430.53	772.38
430.72	844.93
430.91	961.96
431.10	1149.20
431.28	1385.60
431.47	1504.96
431.66	1401.98
431.85	1439.43
432.03	1207.72
432.22	1163.25
432.41	1196.01
432.60	1448.79
432.79	1371.55
432.97	1434.75
433.16	1486.24
433.35	1416.02
433.54	1144.52
433.72	1104.73
433.91	1008.77
434.10	1245.16
434.28	1451.13
434.47	1432.41
434.66	1446.45
434.85	1378.58
435.03	1296.66
435.22	1352.83
435.41	1493.26
435.59	1570.50
435.78	1591.56
435.97	1516.67
436.16	1605.61
436.34	1643.06
436.53	1497.94
436.72	1540.07
436.90	1444.11
437.09	1511.99
437.28	1378.58
437.46	1495.60
437.65	1542.41
437.84	1366.87
438.02	1210.06
438.21	1196.01
438.40	1303.68
438.58	1373.89
438.77	1509.65
438.96	1535.39
439.14	1504.96
439.33	1526.03
439.52	1598.59
439.70	1596.25
439.89	1469.86
440.08	1479.22
440.26	1427.73
440.45	1448.79
440.63	1579.86
440.82	1783.49
441.01	1771.79
441.19	1774.13
441.38	1830.30
441.57	1781.15
441.75	1802.21
441.94	1879.45
442.12	1930.94
442.31	1696.89
442.50	1818.60
442.68	1877.11
442.87	1799.87
443.05	1837.32
443.24	1816.26
443.43	1902.86
443.61	1837.32
443.80	1820.94
443.98	1753.06
444.17	1717.95
444.35	1806.89
444.54	2022.22
444.73	1930.94
444.91	1781.15
445.10	1645.40
445.28	1774.13
445.47	1586.88
445.65	1631.35
445.84	1713.27
446.02	1713.27
446.21	1717.95
446.39	1804.55
446.58	1820.94
446.77	1741.36
446.95	1687.53
447.14	1926.26
447.32	1921.58
447.51	1959.03
447.69	1792.85
447.88	1844.34
448.06	1776.47
448.25	1998.82
448.43	1884.13
448.62	1816.26
448.80	1954.35
448.99	1860.73
449.17	1851.36
449.36	1928.60
449.54	1825.62
449.73	1991.80
449.91	1966.05
450.10	2073.71
450.28	2099.46
450.46	2054.99
450.65	2029.24
450.83	2090.10
451.02	1940.30
451.20	2106.48
451.39	1923.92
451.57	2038.61
451.76	2012.86
451.94	2008.18
452.13	1886.47
452.31	1839.66
452.49	1687.53
452.68	1781.15
452.86	1727.32
453.05	1708.59
453.23	1926.26
453.42	1856.04
453.60	1820.94
453.78	1902.86
453.97	1860.73
454.15	1860.73
454.34	1853.70
454.52	1825.62
454.70	1816.26
454.89	1928.60
455.07	1790.51
455.26	1856.04
455.44	1926.26
455.62	2064.35
455.81	1944.99
455.99	2080.74
456.17	1968.39
456.36	2064.35
456.54	1973.07
456.73	2036.27
456.91	2026.90
457.09	2115.84
457.28	2052.65
457.46	1998.82
457.64	2085.42
457.83	1982.43
458.01	1926.26
458.19	1940.30
458.38	2010.52
458.56	2153.29
458.74	2015.20
458.93	2019.88
459.11	1961.37
459.29	1909.88
459.48	2050.31
459.66	1961.37
459.84	2005.84
460.03	2113.50
460.21	2057.33
460.39	2024.56
460.57	2160.31
460.76	2080.74
460.94	2001.16
461.12	2057.33
461.31	2134.57
461.49	2169.68
461.67	2127.55
461.85	2216.49
462.04	2069.03
462.22	2155.63
462.40	2104.14
462.59	2176.70
462.77	2069.03
462.95	2073.71
463.13	2101.80
463.32	2157.97
463.50	2043.29
463.68	2026.90
463.86	2136.91
464.05	2022.22
464.23	2106.48
464.41	2022.22
464.59	1975.41
464.78	1989.46
464.96	2073.71
465.14	1980.09
465.32	2113.50
465.50	2153.29
465.69	2232.87
465.87	2122.87
466.05	2099.46
466.23	2033.93
466.41	1942.64
466.60	1968.39
466.78	1891.15
466.96	2071.37
467.14	2108.82
467.32	2097.12
467.51	2078.40
467.69	1973.07
467.87	2139.25
468.05	2062.01
468.23	2090.10
468.41	2031.58
468.60	2174.36
468.78	2008.18
468.96	2024.56
469.14	2047.97
469.32	2071.37
469.50	2071.37
469.69	2001.16
469.87	1898.17
470.05	1940.30
470.23	1980.09
470.41	2001.16
470.59	1980.09
470.77	1989.46
470.95	2010.52
471.14	2036.27
471.32	2080.74
471.50	2157.97
471.68	2190.74
471.86	2225.85
472.04	2277.34
472.22	2272.66
472.40	2218.83
472.58	2087.76
472.77	2090.10
472.95	2113.50
473.13	2101.80
473.31	2099.46
473.49	2113.50
473.67	2153.29
473.85	2235.21
474.03	2242.23
474.21	2389.69
474.39	2347.56
474.57	2382.67
474.75	2200.10
474.93	2324.15
475.12	2298.41
475.30	2202.44
475.48	2186.06
475.66	2310.11
475.84	2253.94
476.02	2232.87
476.20	2279.68
476.38	2246.91
476.56	2146.27
476.74	2354.58
476.92	2359.26
477.10	2352.24
477.28	2452.88
477.46	2431.82
477.64	2466.92
477.82	2324.15
478.00	2513.74
478.18	2455.22
478.36	2502.03
478.54	2403.73
478.72	2485.65
478.90	2495.01
479.08	2595.65
479.26	2635.44
479.44	2630.76
479.62	2679.91
479.80	2595.65
479.98	2703.32
480.16	2724.38
480.34	2764.17
480.52	2628.42
480.70	2621.40
480.88	2600.34
481.06	2663.53
481.24	2698.64
481.41	2722.04
481.59	2925.67
481.77	2803.96
481.95	2813.32
482.13	2773.53
482.31	2801.62
482.49	2895.24
482.67	2698.64
482.85	2806.30
483.03	2953.76
483.21	2958.44
483.39	2946.73
483.57	2787.58
483.74	2885.88
483.92	2759.49
484.10	2888.22
484.28	2902.26
484.46	2956.10
484.64	2883.54
484.82	3009.93
485.00	2932.69
485.18	2862.48
485.35	2682.25
485.53	2406.07
485.71	2174.36
485.89	2218.83
486.07	2303.09
486.25	2689.28
486.43	2787.58
486.61	2792.26
486.78	2722.04
486.96	2857.79
487.14	2871.84
487.32	3108.23
487.50	3164.40
487.68	3084.83
487.85	3171.43
488.03	3190.15
488.21	3150.36
488.39	3021.63
488.57	3014.61
488.75	2906.95
488.92	3126.96
489.10	3281.43
489.28	3459.31
489.46	3536.55
489.64	3471.01
489.81	3466.33
489.99	3440.59
490.17	3555.27
490.35	3604.42
490.53	3599.74
490.70	3344.63
490.88	3524.85
491.06	3562.30
491.24	3803.37
491.41	3276.75
491.59	3173.77
491.77	3054.40
491.95	3248.66
492.13	3428.88
492.30	3496.76
492.48	3625.49
492.66	3754.22
492.84	3681.66
493.01	3726.13
493.19	3665.28
493.37	3590.38
493.54	3543.57
493.72	3672.30
493.90	3513.14
494.08	3810.39
494.25	3896.99
494.43	3868.91
494.61	3850.18
494.79	3878.27
494.96	3922.74
495.14	3817.41
495.32	3681.66
495.49	3562.30
495.67	3662.94
495.85	4053.81
496.02	4035.08
496.20	3983.59
496.38	4014.02
496.55	3836.14
496.73	3948.48
496.91	3882.95
497.09	4030.40
497.26	4032.74
497.44	4035.08
497.62	3936.78
497.79	3756.56
497.97	3641.87
498.14	3726.13
498.32	3831.46
498.50	3967.21
498.67	4114.66
498.85	3992.95
499.03	4079.55
499.20	4004.66
499.38	4173.18
499.56	4058.49
499.73	3976.57
499.91	3885.29
500.08	3791.67
500.26	3751.88
500.44	3852.52
500.61	3854.86
500.79	3899.33
500.97	3824.44
501.14	3782.31
501.32	3744.86
501.49	3824.44
501.67	3878.27
501.84	3929.76
502.02	3915.72
502.20	3960.19
502.37	3967.21
502.55	3981.25
502.72	3960.19
502.90	4138.07
503.07	4194.24
503.25	4070.19
503.43	3829.12
503.60	3705.07
503.78	3712.09
503.95	3679.32
504.13	3810.39
504.30	4058.49
504.48	3988.27
504.65	4091.26
504.83	4046.79
505.01	4025.72
505.18	4285.52
505.36	4313.61
505.53	4423.61
505.71	4379.14
505.88	4355.74
506.06	4234.03
506.23	4124.02
506.41	4086.58
506.58	3967.21
506.76	4140.41
506.93	4219.99
507.11	4039.76
507.28	4166.15
507.46	3983.59
507.63	3960.19
507.81	3871.25
507.98	3840.82
508.16	4100.62
508.33	4107.64
508.50	4269.14
508.68	4325.31
508.85	4224.67
509.03	4210.62
509.20	4259.78
509.38	4217.65
509.55	4126.36
509.73	3981.25
509.90	4053.81
510.08	4194.24
510.25	4145.09
510.42	4098.28
510.60	4166.15
510.77	4093.60
510.95	4168.49
511.12	4308.93
511.30	4477.44
511.47	4437.66
511.64	4386.16
511.82	4374.46
511.99	4210.62
512.17	4231.69
512.34	4163.81
512.51	4028.06
512.69	4011.68
512.86	3978.91
513.04	4180.20
513.21	4234.03
513.38	4184.88
513.56	4095.94
513.73	4030.40
513.90	3927.42
514.08	4114.66
514.25	4011.68
514.43	4166.15
514.60	4156.79
514.77	4042.11
514.95	4058.49
515.12	4109.98
515.29	4044.45
515.47	4140.41
515.64	4170.83
515.81	4292.54
515.99	4138.07
516.16	3899.33
516.33	3574.00
516.51	3286.11
516.68	3208.87
516.85	3243.98
517.03	3258.03
517.20	3695.71
517.37	3911.04
517.54	4091.26
517.72	3983.59
517.89	3660.60
518.06	3386.76
518.24	3349.31
518.41	3655.92
518.58	3768.26
518.75	3873.59
518.93	3868.91
519.10	4053.81
519.27	3932.10
519.45	3992.95
519.62	4079.55
519.79	4086.58
519.96	4107.64
520.14	4007.00
520.31	4037.42
520.48	4081.89
520.65	4056.15
520.83	4210.62
521.00	4208.28
521.17	4229.35
521.34	4109.98
521.52	4112.32
521.69	4229.35
521.86	4299.56
522.03	4301.90
522.20	4084.23
522.38	3882.95
522.55	3941.46
522.72	3892.31
522.89	4044.45
523.07	3988.27
523.24	4088.92
523.41	4166.15
523.58	4269.14
523.75	4311.27
523.92	4318.29
524.10	4355.74
524.27	4278.50
524.44	4311.27
524.61	4292.54
524.78	4138.07
524.96	4060.83
525.13	4262.12
525.30	4290.20
525.47	4269.14
525.64	4397.87
525.81	4170.83
525.98	4049.13
526.16	3747.20
526.33	3585.70
526.50	3620.81
526.67	3501.44
526.84	3513.14
527.01	3728.47
527.18	3789.33
527.36	3983.59
527.53	4201.26
527.70	4149.77
527.87	4114.66
528.04	4145.09
528.21	3983.59
528.38	4184.88
528.55	4346.37
528.72	4418.93
528.89	4367.44
529.07	4411.91
529.24	4142.75
529.41	4191.90
529.58	4058.49
529.75	4053.81
529.92	4154.45
530.09	4229.35
530.26	4161.47
530.43	4362.76
530.60	4269.14
530.77	4238.71
530.94	4362.76
531.11	4332.33
531.28	4025.72
531.46	4112.32
531.63	4266.80
531.80	4107.64
531.97	4135.73
532.14	4009.34
532.31	3817.41
532.48	3805.71
532.65	3829.12
532.82	3913.38
532.99	4112.32
533.16	4060.83
533.33	4107.64
533.50	4224.67
533.67	4063.17
533.84	4007.00
534.01	3932.10
534.18	4046.79
534.35	4102.96
534.52	4102.96
534.69	4149.77
534.86	4271.48
535.03	4285.52
535.20	4344.03
535.37	4255.09
535.54	4262.12
535.71	4386.16
535.88	4292.54
536.05	4114.66
536.22	3992.95
536.38	3953.16
536.55	3918.06
536.72	3833.80
536.89	3833.80
537.06	4016.36
537.23	3946.14
537.40	4208.28
537.57	4161.47
537.74	4037.42
537.91	4156.79
538.08	4065.51
538.25	4077.21
538.42	4126.36
538.59	4011.68
538.75	4042.11
538.92	3777.62
539.09	3889.97
539.26	3861.88
539.43	3885.29
539.60	3995.29
539.77	3882.95
539.94	3880.61
540.11	3843.16
540.28	3754.22
540.44	3639.53
540.61	3737.84
540.78	3845.50
540.95	3885.29
541.12	4030.40
541.29	3995.29
541.46	4004.66
541.62	3999.98
541.79	3927.42
541.96	3737.84
542.13	3812.73
542.30	3885.29
542.47	4018.70
542.63	3737.84
542.80	3901.67
542.97	3957.85
543.14	3791.67
543.31	3941.46
543.48	4004.66
543.64	4166.15
543.81	4037.42
543.98	4009.34
544.15	3969.55
544.32	3845.50
544.48	3932.10
544.65	4049.13
544.82	4091.26
544.99	3976.57
545.16	3992.95
545.32	3875.93
545.49	3896.99
545.66	4053.81
545.83	3904.01
546.00	4023.38
546.16	4035.08
546.33	3871.25
546.50	3983.59
546.67	4002.32
546.83	3777.62
547.00	3805.71
547.17	3786.99
547.34	3707.41
547.50	3639.53
547.67	3871.25
547.84	3716.77
548.00	3845.50
548.17	3868.91
548.34	3815.07
548.51	3885.29
548.67	3904.01
548.84	3810.39
549.01	3904.01
549.18	3948.48
549.34	3974.23
549.51	3840.82
549.68	3786.99
549.84	3880.61
550.01	3913.38
550.18	3861.88
550.34	3761.24
550.51	3695.71
550.68	3761.24
550.84	3756.56
551.01	3796.35
551.18	3751.88
551.34	3824.44
551.51	3791.67
551.68	3798.69
551.84	3805.71
552.01	3941.46
552.18	3934.44
552.34	3728.47
552.51	3501.44
552.68	3590.38
552.84	3651.24
553.01	3861.88
553.18	3632.51
553.34	3742.52
553.51	3763.58
553.67	3852.52
553.84	3735.50
554.01	3810.39
554.17	3819.75
554.34	3751.88
554.51	3808.05
554.67	3803.37
554.84	3761.24
555.00	3857.20
555.17	3705.07
555.33	3559.95
555.50	3590.38
555.67	3761.24
555.83	3604.42
556.00	3557.61
556.16	3630.17
556.33	3583.36
556.50	3442.93
556.66	3620.81
556.83	3482.72
556.99	3585.70
557.16	3644.21
557.32	3471.01
557.49	3705.07
557.65	3590.38
557.82	3655.92
557.98	3517.83
558.15	3681.66
558.32	3426.54
558.48	3272.07
558.65	3222.92
558.81	3307.18
558.98	3398.46
559.14	3377.39
559.31	3358.67
559.47	3473.36
559.64	3452.29
559.80	3410.16
559.97	3456.97
560.13	3480.38
560.30	3576.34
560.46	3735.50
560.63	3744.86
560.79	3655.92
560.96	3581.02
561.12	3421.86
561.29	3353.99
561.45	3332.92
561.61	3463.99
561.78	3431.23
561.94	3583.36
562.11	3499.10
562.27	3452.29
562.44	3428.88
562.60	3494.42
562.77	3461.65
562.93	3403.14
563.10	3627.83
563.26	3435.91
563.42	3463.99
563.59	3346.97
563.75	3405.48
563.92	3433.57
564.08	3482.72
564.24	3372.71
564.41	3442.93
564.57	3328.24
564.74	3400.80
564.90	3447.61
565.07	3412.50
565.23	3274.41
565.39	3187.81
565.56	3222.92
565.72	3117.59
565.88	3218.24
566.05	3190.15
566.21	3272.07
566.38	3302.50
566.54	3297.81
566.70	3346.97
566.87	3325.90
567.03	3524.85
567.19	3471.01
567.36	3311.86
567.52	3445.27
567.68	3349.31
567.85	3232.28
568.01	3253.34
568.17	3253.34
568.34	3279.09
568.50	3126.96
568.66	3206.53
568.83	3239.30
568.99	3258.03
569.15	3239.30
569.32	3269.73
569.48	3372.71
569.64	3126.96
569.81	3075.46
569.97	3047.38
570.13	3208.87
570.30	3087.17
570.46	3094.19
570.62	2956.10
570.78	3059.08
570.95	3087.17
571.11	3159.72
571.27	3150.36
571.43	3148.02
571.60	3143.34
571.76	3141.00
571.92	3197.17
572.09	3164.40
572.25	3227.60
572.41	3225.26
572.57	3173.77
572.74	3115.25
572.90	3138.66
573.06	3091.85
573.22	3073.12
573.38	3183.13
573.55	3164.40
573.71	3173.77
573.87	3103.55
574.03	3084.83
574.20	3169.09
574.36	3063.76
574.52	2965.46
574.68	2991.20
574.84	3155.04
575.01	2897.58
575.17	2986.52
575.33	2904.60
575.49	2981.84
575.65	3159.72
575.82	3084.83
575.98	3012.27
576.14	3007.59
576.30	3005.25
576.46	2946.73
576.62	3023.97
576.79	3122.27
576.95	3112.91
577.11	2963.12
577.27	2974.82
577.43	2979.50
577.59	3019.29
577.75	2963.12
577.92	2754.81
578.08	2813.32
578.24	2820.35
578.40	2916.31
578.56	2918.65
578.72	2888.22
578.88	2981.84
579.04	2923.33
579.21	3054.40
579.37	3005.25
579.53	2937.37
579.69	2942.05
579.85	2890.56
580.01	2949.08
580.17	2953.76
580.33	2864.82
580.49	2993.55
580.65	3009.93
580.82	2974.82
580.98	2876.52
581.14	2909.29
581.30	2881.20
581.46	3082.49
581.62	2939.71
581.78	2836.73
581.94	3016.95
582.10	2965.46
582.26	3045.04
582.42	2960.78
582.58	3035.67
582.74	2920.99
582.90	2909.29
583.06	3089.51
583.22	2972.48
583.38	2897.58
583.54	2883.54
583.70	2815.66
583.86	2946.73
584.02	2995.89
584.18	3035.67
584.34	2942.05
584.50	2789.92
584.66	2862.48
584.82	2869.50
584.98	2808.64
585.14	2757.15
585.30	2677.57
585.46	2693.96
585.62	2597.99
585.78	2621.40
585.94	2726.72
586.10	2888.22
586.26	2799.28
586.42	2799.28
586.58	2766.51
586.74	2909.29
586.90	2836.73
587.06	2848.43
587.22	2869.50
587.38	2888.22
587.54	2839.07
587.70	2745.45
587.86	2647.15
588.02	2668.21
588.18	2633.10
588.34	2647.15
588.49	2476.29
588.65	2321.81
588.81	2169.68
588.97	2307.77
589.13	2328.83
589.29	2223.51
589.45	2263.30
589.61	2394.37
589.77	2499.69
589.93	2553.52
590.08	2630.76
590.24	2743.11
590.40	2665.87
590.56	2572.25
590.72	2705.66
590.88	2750.13
591.04	2487.99
591.20	2593.31
591.35	2516.08
591.51	2665.87
591.67	2499.69
591.83	2597.99
591.99	2502.03
592.15	2523.10
592.31	2693.96
592.46	2565.23
592.62	2576.93
592.78	2565.23
592.94	2574.59
593.10	2516.08
593.26	2553.52
593.41	2520.76
593.57	2663.53
593.73	2406.07
593.89	2504.37
594.05	2490.33
594.20	2518.42
594.36	2356.92
594.52	2476.29
594.68	2455.22
594.84	2382.67
594.99	2525.44
595.15	2487.99
595.31	2471.61
595.47	2600.34
595.62	2548.84
595.78	2511.39
595.94	2619.06
596.10	2558.21
596.25	2537.14
596.41	2506.71
596.57	2476.29
596.73	2583.95
596.88	2469.27
597.04	2434.16
597.20	2385.01
597.36	2513.74
597.51	2389.69
597.67	2483.31
597.83	2593.31
597.99	2424.80
598.14	2420.11
598.30	2373.30
598.46	2387.35
598.61	2394.37
598.77	2431.82
598.93	2480.97
599.09	2555.86
599.24	2565.23
599.40	2516.08
