SpectraSuite Data File
++++++++++++++++++++++++++++++++++++
Date: Mon Oct 07 14:54:02 GMT-05:00 2013
User: price-jones
Dark Spectrum Present: No
Reference Spectrum Present: No
Number of Sampled Component Spectra: 1
Spectrometers: USB2+H05261
Integration Time (usec): 100000 (USB2+H05261)
Spectra Averaged: 1 (USB2+H05261)
Boxcar Smoothing: 0 (USB2+H05261)
Correct for Electrical Dark: No (USB2+H05261)
Strobe/Lamp Enabled: No (USB2+H05261)
Correct for Detector Non-linearity: No (USB2+H05261)
Correct for Stray Light: No (USB2+H05261)
Number of Pixels in Processed Spectrum: 2048
>>>>>Begin Processed Spectral Data<<<<<
365.73	0.00
365.92	0.00
366.12	0.00
366.32	0.00
366.52	0.00
366.72	0.00
366.91	0.00
367.11	0.00
367.31	0.00
367.51	0.00
367.70	0.00
367.90	0.00
368.10	0.00
368.30	0.00
368.49	0.00
368.69	0.00
368.89	0.00
369.09	0.00
369.28	0.00
369.48	0.00
369.68	0.00
369.87	0.00
370.07	0.00
370.27	0.00
370.47	662.37
370.66	3604.42
370.86	4098.28
371.06	4512.55
371.25	4645.96
371.45	4231.69
371.65	3712.09
371.84	3419.52
372.04	3625.49
372.24	4098.28
372.44	4271.48
372.63	4166.15
372.83	3892.31
373.03	3545.91
373.22	3129.30
373.42	3337.60
373.62	3803.37
373.81	4112.32
374.01	4170.83
374.21	3714.43
374.40	3391.44
374.60	3625.49
374.79	4077.21
374.99	4814.48
375.19	5224.08
375.38	5116.41
375.58	4814.48
375.78	4697.46
375.97	4844.91
376.17	4931.51
376.37	5048.54
376.56	5062.58
376.76	5397.28
376.95	5614.95
377.15	6061.99
377.35	6590.95
377.54	6663.51
377.74	6820.32
377.93	6965.43
378.13	6588.61
378.33	6392.00
378.52	5746.02
378.72	5661.76
378.91	5558.77
379.11	5458.13
379.31	5118.75
379.50	5266.21
379.70	5760.06
379.89	6265.61
380.09	6312.42
380.28	6810.96
380.48	6647.12
380.68	6408.39
380.87	6473.92
381.07	5984.75
381.26	5469.83
381.46	4933.85
381.65	4931.51
381.85	4865.97
382.04	4704.48
382.24	4409.57
382.43	3955.51
382.63	4028.06
382.83	4131.05
383.02	4086.58
383.22	4198.92
383.41	4002.32
383.61	4400.21
383.80	4933.85
384.00	5565.79
384.19	6436.47
384.39	6581.59
384.58	6628.40
384.78	6382.64
384.97	6504.35
385.17	6162.63
385.36	5781.12
385.56	5600.90
385.75	5774.10
385.95	6127.52
386.14	6843.73
386.34	6911.60
386.53	6450.52
386.72	5966.03
386.92	6193.06
387.11	6553.50
387.31	6696.27
387.50	6841.39
387.70	6586.27
387.89	6310.08
388.09	6354.55
388.28	6438.81
388.48	6473.92
388.67	6956.07
388.86	7754.19
389.06	8248.05
389.25	8781.69
389.45	8652.96
389.64	8978.30
389.84	8706.79
390.03	8538.27
390.22	8404.86
390.42	8835.52
390.61	9245.12
390.81	10258.57
391.00	10244.52
391.19	10148.56
391.39	9921.53
391.58	9247.46
391.78	8617.85
391.97	8491.46
392.16	7826.75
392.36	7262.68
392.55	5804.53
392.75	4573.41
392.94	3782.31
393.13	3651.24
393.33	4283.18
393.52	5687.50
393.71	6724.36
393.91	7571.63
394.10	8135.70
394.29	9123.41
394.49	9888.76
394.68	10513.69
394.88	10560.50
395.07	11138.61
395.26	10750.08
395.46	10544.11
395.65	10136.86
395.84	8751.26
396.04	7531.84
396.23	6099.44
396.42	5114.07
396.62	4856.61
396.81	5650.05
397.00	6991.18
397.19	9032.13
397.39	10518.37
397.58	11962.48
397.77	12847.20
397.97	13273.18
398.16	13324.67
398.35	13942.57
398.55	14363.87
398.74	14525.36
398.93	15325.83
399.12	14806.23
399.32	14434.08
399.51	14696.22
399.70	15470.94
399.90	15456.90
400.09	15440.51
400.28	15295.40
400.47	15419.45
400.67	16430.56
400.86	16718.45
401.05	16589.72
401.24	16760.58
401.44	16954.84
401.63	16964.20
401.82	16971.22
402.01	17041.44
402.21	17090.59
402.40	17404.22
402.59	16884.62
402.78	15901.60
402.97	15719.04
403.17	16044.37
403.36	17291.88
403.55	17813.82
403.74	18239.79
403.93	17434.65
404.13	16074.80
404.32	15609.03
404.51	16407.16
404.70	17713.17
404.89	17568.06
405.09	17364.43
405.28	16699.72
405.47	16737.17
405.66	16755.90
405.85	16350.98
406.05	15789.25
406.24	16063.10
406.43	16631.85
406.62	17425.29
406.81	17462.74
407.00	16837.81
407.20	16631.85
407.39	16676.32
407.58	17521.25
407.77	18270.22
407.96	18822.59
408.15	19005.15
408.34	18775.78
408.54	19782.21
408.73	19985.83
408.92	19482.62
409.11	19150.26
409.30	18094.68
409.49	16847.18
409.68	16175.44
409.87	15531.80
410.07	16243.32
410.26	17331.67
410.45	18775.78
410.64	19573.90
410.83	19854.76
411.02	20266.70
411.21	20886.94
411.40	20809.70
411.59	21254.40
411.78	20652.89
411.98	20795.66
412.17	20954.82
412.36	20233.93
412.55	20336.91
412.74	19943.70
412.93	19730.72
413.12	19990.52
413.31	21673.36
413.50	21516.54
413.69	22560.42
413.88	21736.56
414.07	20858.85
414.26	21493.14
414.45	21759.96
414.64	21940.18
414.83	22185.94
415.02	21383.13
415.22	21633.57
415.41	22171.89
415.60	22874.06
415.79	23473.23
415.98	24034.96
416.17	24194.12
416.36	23487.28
416.55	23260.24
416.74	22207.00
416.93	21532.93
417.12	21420.58
417.31	21790.39
417.50	22534.68
417.69	23161.94
417.88	22838.95
418.07	22881.08
418.26	21944.86
418.45	22686.81
418.64	23583.24
418.83	24034.96
419.02	23983.47
419.21	23454.51
419.39	22548.72
419.58	21528.25
419.77	21682.72
419.96	22738.30
420.15	23819.63
420.34	24484.34
420.53	25589.08
420.72	25766.96
420.91	25678.02
421.10	25163.10
421.29	25130.33
421.48	24009.22
421.67	25193.53
421.86	24889.26
422.05	23241.52
422.24	20746.51
422.43	20393.09
422.61	22309.99
422.80	24556.90
422.99	24276.04
423.18	23508.34
423.37	23276.63
423.56	23122.15
423.75	23548.13
423.94	23981.13
424.13	22906.82
424.32	22885.76
424.50	23140.88
424.69	22682.13
424.88	22984.06
425.07	23096.41
425.26	22572.13
425.45	22457.44
425.64	21790.39
425.83	21998.70
426.01	23515.36
426.20	23873.46
426.39	23758.78
426.58	22050.19
426.77	20519.48
426.96	19550.49
427.15	20294.79
427.33	22143.81
427.52	23047.26
427.71	23087.04
427.90	22569.79
428.09	22518.29
428.28	22104.02
428.46	21481.44
428.65	20933.75
428.84	21443.99
429.03	21928.48
429.22	20538.20
429.40	19651.14
429.59	17715.51
429.78	15681.59
429.97	15585.63
430.16	16156.72
430.34	15922.66
430.53	15777.55
430.72	16489.07
430.91	18244.48
431.10	21163.12
431.28	25123.31
431.47	27133.83
431.66	27234.47
431.85	24929.05
432.03	23040.23
432.22	22237.43
432.41	22913.84
432.60	25214.59
432.79	26340.39
432.97	27065.96
433.16	26300.60
433.35	23836.02
433.54	21860.60
433.72	20205.84
433.91	21043.76
434.10	23431.10
434.28	24807.34
434.47	25888.67
434.66	25921.43
434.85	25373.75
435.03	25340.98
435.22	25869.94
435.41	27246.18
435.59	27122.13
435.78	27814.93
435.97	28390.70
436.16	28767.52
436.34	27962.38
436.53	27381.93
436.72	27718.96
436.90	26195.28
437.09	25956.54
437.28	25685.04
437.46	26518.27
437.65	26684.45
437.84	24943.09
438.02	22855.33
438.21	22597.87
438.40	23985.81
438.58	25802.07
438.77	26398.90
438.96	26506.57
439.14	27646.41
439.33	28442.19
439.52	28943.06
439.70	28329.84
439.89	27964.72
440.08	26829.56
440.26	26948.93
440.45	27962.38
440.63	29429.90
440.82	31005.08
441.01	30857.62
441.19	30773.36
441.38	30911.46
441.57	31931.93
441.75	32725.37
441.94	32535.79
442.12	32343.86
442.31	33139.65
442.50	32978.15
442.68	32257.26
442.87	32048.96
443.05	31728.30
443.24	31798.52
443.43	32423.44
443.61	33312.84
443.80	33783.29
443.98	32039.59
444.17	31035.50
444.35	33380.72
444.54	34171.82
444.73	33457.96
444.91	32268.97
445.10	31440.42
445.28	29902.68
445.47	29521.18
445.65	29268.40
445.84	30457.39
446.02	31510.63
446.21	31648.72
446.39	32100.45
446.58	32322.80
446.77	32687.92
446.95	33095.18
447.14	34298.21
447.32	34445.66
447.51	33717.76
447.69	32432.80
447.88	32123.85
448.06	32364.93
448.25	33188.80
448.43	33862.87
448.62	32842.40
448.80	32697.28
448.99	33130.28
449.17	33207.52
449.36	33415.83
449.54	34403.53
449.73	34972.28
449.91	34946.54
450.10	36552.15
450.28	36840.03
450.46	36135.53
450.65	36458.52
450.83	35686.15
451.02	35419.33
451.20	35278.89
451.39	35166.55
451.57	34808.45
451.76	35548.06
451.94	34890.37
452.13	34501.84
452.31	32863.46
452.49	31189.98
452.68	31604.25
452.86	31531.70
453.05	31878.10
453.23	32893.89
453.42	33680.31
453.60	34548.65
453.78	34948.88
453.97	33989.26
454.15	34806.11
454.34	33387.74
454.52	33572.64
454.70	33053.05
454.89	33479.02
455.07	33928.41
455.26	34349.70
455.44	35784.45
455.62	36046.59
455.81	35938.93
455.99	35959.99
456.17	35580.82
456.36	35381.88
456.54	36914.93
456.73	36488.95
456.91	36940.68
457.09	37703.69
457.28	37893.27
457.46	36194.04
457.64	36341.50
457.83	35145.48
458.01	34249.06
458.19	35260.17
458.38	35178.25
458.56	36587.25
458.74	36711.30
458.93	36053.61
459.11	35592.53
459.29	35344.43
459.48	35665.08
459.66	35714.23
459.84	35967.01
460.03	36540.44
460.21	36184.68
460.39	37268.35
460.57	37076.43
460.76	37736.46
460.94	37771.57
461.12	37589.00
461.31	37184.09
461.49	37081.11
461.67	37294.10
461.85	38080.52
462.04	37968.17
462.22	38616.50
462.40	38052.43
462.59	37970.51
462.77	38148.39
462.95	37935.40
463.13	37525.81
463.32	37291.76
463.50	37088.13
463.68	37254.31
463.86	37287.07
464.05	36926.63
464.23	36151.91
464.41	35882.75
464.59	35072.93
464.78	37167.71
464.96	36893.86
465.14	36343.84
465.32	37549.21
465.50	38117.96
465.69	38167.12
465.87	37586.66
466.05	36821.31
466.23	35040.16
466.41	34506.52
466.60	35182.93
466.78	35150.17
466.96	36144.89
467.14	36634.06
467.32	37345.59
467.51	37163.03
467.69	35573.80
467.87	36053.61
468.05	36947.70
468.23	36907.91
468.41	36662.15
468.60	37151.32
468.78	37062.38
468.96	36643.43
469.14	37376.01
469.32	37792.63
469.50	36081.70
469.69	36172.98
469.87	35763.39
470.05	35536.35
470.23	35508.27
470.41	35894.46
470.59	36198.73
470.77	36765.14
470.95	37254.31
471.14	37495.38
471.32	37610.07
471.50	39723.57
471.68	39945.92
471.86	39929.54
472.04	40011.46
472.22	40360.20
472.40	38396.49
472.58	37897.95
472.77	37626.45
472.95	38295.85
473.13	39646.33
473.31	38036.05
473.49	38572.03
473.67	39173.55
473.85	39491.86
474.03	40320.41
474.21	40533.40
474.39	40659.79
474.57	41062.36
474.75	40935.97
474.93	41184.07
475.12	39896.77
475.30	39693.15
475.48	39945.92
475.66	40552.12
475.84	40542.76
476.02	39786.77
476.20	38965.24
476.38	40130.83
476.56	41237.90
476.74	41750.48
476.92	41869.84
477.10	42628.18
477.28	43683.76
477.46	43611.20
477.64	43878.02
477.82	43831.21
478.00	44165.91
478.18	43388.85
478.36	43229.69
478.54	43384.17
478.72	43847.60
478.90	44208.04
479.08	45769.18
479.26	46347.29
479.44	46230.26
479.62	45937.69
479.80	45801.94
479.98	46270.05
480.16	46028.98
480.34	46017.27
480.52	46146.00
480.70	46689.01
480.88	46497.08
481.06	47220.31
481.24	47536.28
481.41	48685.48
481.59	48961.67
481.77	48690.16
481.95	48458.45
482.13	47880.34
482.31	47969.28
482.49	48666.76
482.67	48226.74
482.85	48732.29
483.03	49530.42
483.21	49666.17
483.39	49635.74
483.57	49074.01
483.74	48711.23
483.92	48877.41
484.10	49202.74
484.28	50061.72
484.46	50365.99
484.64	51004.95
484.82	49925.97
485.00	49294.02
485.18	48680.80
485.35	47353.72
485.53	44186.97
485.71	40666.81
485.89	40018.48
486.07	42106.24
486.25	45324.47
486.43	48217.38
486.61	48589.52
486.78	48346.11
486.96	48641.01
487.14	50136.62
487.32	50815.37
487.50	52023.09
487.68	52676.10
487.85	53207.40
488.03	53027.18
488.21	52790.78
488.39	51957.55
488.57	51278.80
488.75	50871.54
488.92	51793.71
489.10	53986.80
489.28	55107.91
489.46	55707.09
489.64	55714.11
489.81	55695.39
489.99	55473.04
490.17	55395.80
490.35	55969.23
490.53	55267.07
490.70	55131.32
490.88	55009.61
491.06	55896.67
491.24	55877.95
491.41	55040.04
491.59	53621.67
491.77	52561.41
491.95	53790.19
492.13	55121.96
492.30	55913.06
492.48	56748.63
492.66	57221.42
492.84	57116.09
493.01	56851.61
493.19	56282.86
493.37	55985.61
493.54	55732.84
493.72	56376.48
493.90	57312.70
494.08	58089.76
494.25	58164.65
494.43	58482.97
494.61	58578.93
494.79	58885.54
494.96	58768.51
495.14	58206.78
495.32	57237.80
495.49	56697.14
495.67	57373.55
495.85	58904.26
496.02	59180.45
496.20	59086.82
496.38	58438.50
496.55	58436.16
496.73	59030.65
496.91	59021.29
497.09	59671.96
497.26	59751.54
497.44	59334.92
497.62	58829.37
497.79	58024.22
497.97	57027.15
498.14	56835.23
498.32	58064.01
498.50	58960.44
498.67	59367.69
498.85	59332.58
499.03	59421.52
499.20	59732.81
499.38	59721.11
499.56	59468.33
499.73	59058.74
499.91	58789.58
500.08	58408.07
500.26	57492.92
500.44	58028.90
500.61	58564.88
500.79	58672.55
500.97	58136.57
501.14	58089.76
501.32	57993.79
501.49	57982.09
501.67	57996.13
501.84	58527.44
502.02	58862.13
502.20	59145.34
502.37	59292.79
502.55	59274.07
502.72	59908.35
502.90	60193.90
503.07	60090.91
503.25	59519.82
503.43	58995.54
503.60	58244.23
503.78	57525.69
503.95	58127.20
504.13	59377.05
504.30	60095.60
504.48	59709.41
504.65	59508.12
504.83	59543.23
505.01	60163.47
505.18	60257.09
505.36	60992.02
505.53	61003.72
505.71	61298.63
505.88	61310.33
506.06	60547.32
506.23	60313.26
506.41	60032.40
506.58	60123.68
506.76	60009.00
506.93	60259.43
507.11	59770.26
507.28	60147.09
507.46	59568.97
507.63	58892.56
507.81	58890.22
507.98	59150.02
508.16	59887.29
508.33	60177.51
508.50	60598.81
508.68	60989.68
508.85	61317.35
509.03	61359.48
509.20	61179.26
509.38	60479.44
509.55	59561.95
509.73	59906.01
509.90	60329.65
510.08	60561.36
510.25	60587.11
510.42	60367.10
510.60	60093.25
510.77	60528.59
510.95	60966.27
511.12	61329.06
511.30	61408.64
511.47	61413.32
511.64	61673.12
511.82	61368.85
511.99	60631.58
512.17	60041.76
512.34	59877.93
512.51	59908.35
512.69	60111.98
512.86	60081.55
513.04	60516.89
513.21	60563.70
513.38	60226.66
513.56	59793.67
513.73	59173.42
513.90	59416.84
514.08	59491.74
514.25	59611.10
514.43	60079.21
514.60	60058.15
514.77	60114.32
514.95	60238.37
515.12	60140.07
515.29	60519.23
515.47	60846.91
515.64	61183.94
515.81	60603.49
515.99	60275.82
516.16	58862.13
516.33	56713.52
516.51	55363.03
516.68	54878.54
516.85	54473.63
517.03	54621.08
517.20	57116.09
517.37	59182.79
517.54	60313.26
517.72	59767.92
517.89	57670.80
518.06	55189.83
518.24	55594.74
518.41	57619.31
518.58	58801.28
518.75	59093.85
518.93	59480.03
519.10	59105.55
519.27	59526.84
519.45	59767.92
519.62	60495.83
519.79	60811.80
519.96	60362.42
520.14	60364.76
520.31	59260.02
520.48	59334.92
520.65	59613.44
520.83	60530.93
521.00	60886.70
521.17	60556.68
521.34	60214.96
521.52	60367.10
521.69	60985.00
521.86	61418.00
522.03	61090.32
522.20	60011.34
522.38	58890.22
522.55	59192.15
522.72	59519.82
522.89	59735.15
523.07	59753.88
523.24	60067.51
523.41	60891.38
523.58	61158.20
523.75	61593.54
523.92	61544.39
524.10	61467.15
524.27	61497.58
524.44	61202.67
524.61	61085.64
524.78	60872.65
524.96	60736.90
525.13	60762.65
525.30	61160.54
525.47	61268.20
525.64	61315.01
525.81	60654.98
525.98	59386.41
526.16	58101.46
526.33	57429.72
526.50	57092.69
526.67	56870.34
526.84	57308.02
527.01	58377.64
527.18	58918.31
527.36	59980.91
527.53	60500.51
527.70	60828.18
527.87	60474.76
528.04	59877.93
528.21	60376.46
528.38	61087.98
528.55	61642.69
528.72	61771.42
528.89	61911.85
529.07	61729.29
529.24	60975.64
529.41	60582.43
529.58	59784.30
529.75	59817.07
529.92	60528.59
530.09	60741.58
530.26	61436.72
530.43	61460.13
530.60	61418.00
530.77	62005.47
530.94	61979.73
531.11	61382.89
531.28	61043.51
531.46	61024.79
531.63	61106.71
531.80	61048.19
531.97	60537.96
532.14	59552.59
532.31	58913.62
532.48	58272.32
532.65	58265.30
532.82	59002.56
532.99	60224.32
533.16	60341.35
533.33	60872.65
533.50	60807.12
533.67	60250.07
533.84	59831.11
534.01	59910.69
534.18	60189.22
534.35	60519.23
534.52	60182.19
534.69	60542.64
534.86	60676.05
535.03	61008.40
535.20	61432.04
535.37	61689.50
535.54	61914.19
535.71	61415.66
535.88	61193.31
536.05	60533.28
536.22	60135.38
536.38	59983.25
536.55	59339.60
536.72	58948.73
536.89	58908.94
537.06	59608.76
537.23	60371.78
537.40	60636.26
537.57	60774.35
537.74	60596.47
537.91	60285.18
538.08	60336.67
538.25	60467.74
538.42	60722.86
538.59	60521.57
538.75	59700.04
538.92	59737.49
539.09	59501.10
539.26	59245.98
539.43	58922.99
539.60	59433.22
539.77	59363.01
539.94	59217.89
540.11	58436.16
540.28	58042.95
540.44	58244.23
540.61	58466.58
540.78	58511.05
540.95	58920.65
541.12	59426.20
541.29	59449.61
541.46	59882.61
541.62	60086.23
541.79	59922.40
541.96	59222.58
542.13	59147.68
542.30	59355.99
542.47	59606.42
542.63	59508.12
542.80	59082.14
542.97	59189.81
543.14	59084.48
543.31	59292.79
543.48	59746.86
543.64	60427.95
543.81	60743.92
543.98	60519.23
544.15	59793.67
544.32	59271.73
544.48	59414.50
544.65	59498.76
544.82	59976.23
544.99	59700.04
545.16	59393.43
545.32	59430.88
545.49	60006.65
545.66	60301.56
545.83	59931.76
546.00	59690.68
546.16	59192.15
546.33	59442.59
546.50	59194.49
546.67	59756.22
546.83	59377.05
547.00	59545.57
547.17	58824.68
547.34	58262.96
547.50	58003.16
547.67	58838.73
547.84	58632.76
548.00	59075.12
548.17	59632.17
548.34	59480.03
548.51	59501.10
548.67	59309.18
548.84	59545.57
549.01	59377.05
549.18	59416.84
549.34	59250.66
549.51	59440.24
549.68	59152.36
549.84	58990.86
550.01	58904.26
550.18	58712.34
550.34	58997.88
550.51	58838.73
550.68	58820.00
550.84	58527.44
551.01	58422.11
551.18	58450.20
551.34	58679.57
551.51	59140.66
551.68	59313.86
551.84	59157.04
552.01	59030.65
552.18	58864.47
552.34	58017.20
552.51	57771.44
552.68	57715.27
552.84	58323.81
553.01	58408.07
553.18	58328.49
553.34	58791.92
553.51	58812.98
553.67	58885.54
553.84	59086.82
554.01	58838.73
554.17	58859.79
554.34	58752.13
554.51	58897.24
554.67	59238.96
554.84	58953.41
555.00	58855.11
555.17	58459.56
555.33	58480.63
555.50	58529.78
555.67	58436.16
555.83	58300.40
556.00	57991.45
556.16	58101.46
556.33	57546.75
556.50	57432.07
556.66	57551.43
556.83	57308.02
556.99	57396.96
557.16	57616.97
557.32	57593.56
557.49	58113.16
557.65	57851.02
557.82	57954.00
557.98	57855.70
558.15	57340.78
558.32	56594.15
558.48	55882.63
558.65	55934.12
558.81	56353.08
558.98	56554.36
559.14	56865.66
559.31	56870.34
559.47	56779.06
559.64	56748.63
559.80	56479.47
559.97	56329.67
560.13	56729.90
560.30	57418.02
560.46	58150.61
560.63	58021.88
560.79	58394.03
560.96	57888.47
561.12	56659.69
561.29	55945.83
561.45	55847.52
561.61	56402.23
561.78	56992.04
561.94	56807.14
562.11	56692.46
562.27	56474.79
562.44	56907.79
562.60	57008.43
562.77	57443.77
562.93	56961.62
563.10	57132.48
563.26	56828.21
563.42	56509.89
563.59	56306.27
563.75	56444.36
563.92	56329.67
564.08	56205.62
564.24	56622.24
564.41	56573.09
564.57	56900.76
564.74	56458.40
564.90	56575.43
565.07	56217.33
565.23	55973.91
565.39	55545.59
565.56	54908.97
565.72	54976.84
565.88	55180.47
566.05	55414.52
566.21	55599.43
566.38	55686.03
566.54	55664.96
566.70	56104.98
566.87	56184.56
567.03	56236.05
567.19	56486.49
567.36	55957.53
567.52	56090.94
567.68	56020.72
567.85	55077.49
568.01	54965.14
568.17	54691.30
568.34	54429.16
568.50	54429.16
568.66	54520.44
568.83	55138.34
568.99	55159.41
569.15	55231.96
569.32	55224.94
569.48	54679.60
569.64	54848.11
569.81	54447.88
569.97	54450.22
570.13	54475.97
570.30	53902.54
570.46	53607.63
570.62	52949.94
570.78	52610.56
570.95	53284.64
571.11	53897.86
571.27	54014.88
571.43	54183.40
571.60	54550.87
571.76	54459.58
571.92	55185.15
572.09	54981.52
572.25	55068.12
572.41	55175.79
572.57	54899.61
572.74	54932.37
572.90	54595.34
573.06	54078.08
573.22	54485.33
573.38	54574.27
573.55	54588.31
573.71	54752.15
573.87	54667.89
574.03	54464.27
574.20	54354.26
574.36	54284.04
574.52	53963.39
574.68	53614.65
574.84	53291.66
575.01	52500.56
575.17	52568.43
575.33	53092.71
575.49	53251.87
575.65	53731.68
575.82	53155.91
575.98	52825.89
576.14	53422.73
576.30	53514.01
576.46	53612.31
576.62	53752.74
576.79	53495.28
576.95	53041.22
577.11	53066.97
577.27	53387.62
577.43	53380.60
577.59	52980.37
577.75	52556.73
577.92	52191.61
578.08	51578.39
578.24	51969.26
578.40	51896.70
578.56	52238.42
578.72	52411.62
578.88	52481.83
579.04	52982.71
579.21	52971.00
579.37	52786.10
579.53	53013.13
579.69	52818.87
579.85	53113.78
580.01	52790.78
580.17	52411.62
580.33	52619.92
580.49	52491.19
580.65	52523.96
580.82	52861.00
580.98	52748.65
581.14	52971.00
581.30	52903.13
581.46	52844.62
581.62	52807.17
581.78	52935.90
581.94	52811.85
582.10	52900.79
582.26	53059.94
582.42	52772.06
582.58	53146.54
582.74	52788.44
582.90	52856.32
583.06	52734.61
583.22	52987.39
583.38	52774.40
583.54	52598.86
583.70	52666.73
583.86	52603.54
584.02	52486.51
584.18	52678.44
584.34	52215.01
584.50	52285.23
584.66	52191.61
584.82	51983.30
584.98	51894.36
585.14	51643.92
