SpectraSuite Data File
++++++++++++++++++++++++++++++++++++
Date: Mon Oct 07 14:54:59 GMT-05:00 2013
User: price-jones
Dark Spectrum Present: No
Reference Spectrum Present: No
Number of Sampled Component Spectra: 1
Spectrometers: USB2+H05261
Integration Time (usec): 10000 (USB2+H05261)
Spectra Averaged: 1 (USB2+H05261)
Boxcar Smoothing: 0 (USB2+H05261)
Correct for Electrical Dark: No (USB2+H05261)
Strobe/Lamp Enabled: No (USB2+H05261)
Correct for Detector Non-linearity: No (USB2+H05261)
Correct for Stray Light: No (USB2+H05261)
Number of Pixels in Processed Spectrum: 2048
>>>>>Begin Processed Spectral Data<<<<<
365.73	0.00
365.92	0.00
366.12	0.00
366.32	0.00
366.52	0.00
366.72	0.00
366.91	0.00
367.11	0.00
367.31	0.00
367.51	0.00
367.70	0.00
367.90	0.00
368.10	0.00
368.30	0.00
368.49	0.00
368.69	0.00
368.89	0.00
369.09	0.00
369.28	0.00
369.48	0.00
369.68	0.00
369.87	0.00
370.07	0.00
370.27	0.00
370.47	0.00
370.66	779.40
370.86	940.90
371.06	1128.14
371.25	1100.05
371.45	924.51
371.65	842.59
371.84	779.40
372.04	954.94
372.24	1022.81
372.44	1060.26
372.63	1011.11
372.83	950.26
373.03	800.46
373.22	730.25
373.42	823.87
373.62	1006.43
373.81	1050.90
374.01	992.39
374.21	791.10
374.40	812.17
374.60	786.42
374.79	1029.84
374.99	1228.78
375.19	1397.30
375.38	1252.19
375.58	1210.06
375.78	1151.54
375.97	1242.82
376.17	1217.08
376.37	1261.55
376.56	1284.95
376.76	1364.53
376.95	1500.28
377.15	1624.33
377.35	1724.97
377.54	1792.85
377.74	1856.04
377.93	1792.85
378.13	1647.74
378.33	1549.43
378.52	1458.15
378.72	1355.17
378.91	1380.92
379.11	1315.38
379.31	1280.27
379.50	1329.42
379.70	1537.73
379.89	1561.14
380.09	1610.29
380.28	1785.83
380.48	1785.83
380.68	1671.14
380.87	1577.52
381.07	1500.28
381.26	1329.42
381.46	1203.04
381.65	1135.16
381.85	1200.69
382.04	1104.73
382.24	985.37
382.43	1053.24
382.63	985.37
382.83	1008.77
383.02	924.51
383.22	1008.77
383.41	971.32
383.61	1064.94
383.80	1301.34
384.00	1418.36
384.19	1547.09
384.39	1640.72
384.58	1816.26
384.78	1638.38
384.97	1685.19
385.17	1533.05
385.36	1437.09
385.56	1465.18
385.75	1427.73
385.95	1617.31
386.14	1724.97
386.34	1624.33
386.53	1556.46
386.72	1572.84
386.92	1537.73
387.11	1666.46
387.31	1769.44
387.50	1647.74
387.70	1668.80
387.89	1671.14
388.09	1640.72
388.28	1582.20
388.48	1687.53
388.67	1956.69
388.86	2186.06
389.06	2094.78
389.25	2235.21
389.45	2221.17
389.64	2317.13
389.84	2139.25
390.03	2167.34
390.22	2225.85
390.42	2516.08
390.61	2616.72
390.81	2661.19
391.00	2658.85
391.19	2644.81
391.39	2438.84
391.58	2469.27
391.78	2272.66
391.97	2099.46
392.16	2059.67
392.36	1659.44
392.55	1287.29
392.75	1071.97
392.94	851.96
393.13	889.40
393.33	1221.76
393.52	1540.07
393.71	1813.92
393.91	1987.11
394.10	2317.13
394.29	2445.86
394.49	2654.17
394.68	2785.24
394.88	2883.54
395.07	2984.18
395.26	2911.63
395.46	2738.43
395.65	2438.84
395.84	2218.83
396.04	1750.72
396.23	1474.54
396.42	1280.27
396.62	1235.80
396.81	1533.05
397.00	1928.60
397.19	2401.39
397.39	2920.99
397.58	3148.02
397.77	3461.65
397.97	3475.70
398.16	3566.98
398.35	3686.34
398.55	3899.33
398.74	4025.72
398.93	3995.29
399.12	3948.48
399.32	3861.88
399.51	3953.16
399.70	4236.37
399.90	4058.49
400.09	4128.70
400.28	4011.68
400.47	4145.09
400.67	4271.48
400.86	4416.59
401.05	4442.34
401.24	4533.62
401.44	4566.39
401.63	4559.36
401.82	4594.47
402.01	4535.96
402.21	4643.62
402.40	4648.30
402.59	4301.90
402.78	4332.33
402.97	4227.01
403.17	4414.25
403.36	4608.51
403.55	4685.75
403.74	4688.09
403.93	4496.17
404.13	4142.75
404.32	4060.83
404.51	4435.32
404.70	4819.16
404.89	4660.01
405.09	4667.03
405.28	4580.43
405.47	4535.96
405.66	4463.40
405.85	4177.86
406.05	4208.28
406.24	4472.76
406.43	4423.61
406.62	4702.14
406.81	4744.27
407.00	4334.67
407.20	4299.56
407.39	4517.23
407.58	4617.88
407.77	4697.46
407.96	4772.35
408.15	4865.97
408.34	5186.63
408.54	5451.11
408.73	5280.25
408.92	5135.14
409.11	4833.21
409.30	4685.75
409.49	4414.25
409.68	4161.47
409.87	4196.58
410.07	4407.23
410.26	4844.91
410.45	4947.89
410.64	5266.21
410.83	5486.22
411.02	5528.35
411.21	5540.05
411.40	5542.39
411.59	5650.05
411.78	5554.09
411.98	5507.28
412.17	5589.20
412.36	5298.97
412.55	5390.25
412.74	5364.51
412.93	5284.93
413.12	5373.87
413.31	5661.76
413.50	5806.87
413.69	5710.91
413.88	5418.34
414.07	5455.79
414.26	5579.84
414.45	5675.80
414.64	5631.33
414.83	5851.34
415.02	5497.92
415.22	5643.03
415.41	6003.47
415.60	6127.52
415.79	6340.51
415.98	6373.28
416.17	6436.47
416.36	6375.62
416.55	6019.86
416.74	5816.23
416.93	5846.66
417.12	5734.31
417.31	6038.58
417.50	5994.11
417.69	6242.21
417.88	5984.75
418.07	6069.01
418.26	6047.94
418.45	5991.77
418.64	6558.18
418.83	6480.94
419.02	6434.13
419.21	6115.82
419.39	5933.26
419.58	5607.92
419.77	5661.76
419.96	6019.86
420.15	6272.64
420.34	6476.26
420.53	6665.85
420.72	6808.62
420.91	6757.13
421.10	6562.86
421.29	6700.95
421.48	6604.99
421.67	6761.81
421.86	6380.30
422.05	6029.22
422.24	5460.47
422.43	5434.72
422.61	6157.95
422.80	6445.84
422.99	6368.60
423.18	6483.28
423.37	6153.27
423.56	6108.80
423.75	6235.19
423.94	6370.94
424.13	5776.44
424.32	6150.93
424.50	6242.21
424.69	5989.43
424.88	6069.01
425.07	6047.94
425.26	5994.11
425.45	5678.14
425.64	5657.07
425.83	6073.69
426.01	6127.52
426.20	6333.49
426.39	6331.15
426.58	5650.05
426.77	5418.34
426.96	5350.46
427.15	5561.11
427.33	5708.57
427.52	6005.81
427.71	5905.17
427.90	5930.92
428.09	5987.09
428.28	5722.61
428.46	5565.79
428.65	5488.56
428.84	5853.68
429.03	5549.41
429.22	5179.61
429.40	4964.28
429.59	4620.22
429.78	4051.47
429.97	4304.25
430.16	4091.26
430.34	4154.45
430.53	4166.15
430.72	4285.52
430.91	5139.82
431.10	5865.38
431.28	6722.02
431.47	7124.59
431.66	7023.95
431.85	6399.02
432.03	5834.96
432.22	5846.66
432.41	6211.78
432.60	6885.86
432.79	7187.79
432.97	6977.14
433.16	6647.12
433.35	6244.55
433.54	5500.26
433.72	5451.11
433.91	5472.17
434.10	6132.20
434.28	6731.38
434.47	7040.33
434.66	6651.80
434.85	6576.91
435.03	6740.74
435.22	6935.01
435.41	7346.94
435.59	7232.26
435.78	7358.64
435.97	7520.14
436.16	7386.73
436.34	7208.85
436.53	7021.61
436.72	7140.97
436.90	6679.89
437.09	6867.13
437.28	6808.62
437.46	7049.69
437.65	6778.19
437.84	6338.17
438.02	5937.94
438.21	5811.55
438.40	6284.34
438.58	6686.91
438.77	6820.32
438.96	7037.99
439.14	7356.30
439.33	7454.61
439.52	7353.96
439.70	7391.41
439.89	7082.46
440.08	6956.07
440.26	6916.28
440.45	7478.01
440.63	7882.92
440.82	8133.36
441.01	7824.41
441.19	7957.82
441.38	8091.23
441.57	8315.92
441.75	8322.94
441.94	8580.40
442.12	8519.55
442.31	8489.12
442.50	8557.00
442.68	8248.05
442.87	8411.89
443.05	8095.91
443.24	8311.24
443.43	8655.30
443.61	8753.60
443.80	8812.12
443.98	8224.64
444.17	8510.19
444.35	8884.67
444.54	8657.64
444.73	8755.94
444.91	8194.22
445.10	8028.04
445.28	7693.34
445.47	7501.42
445.65	7674.62
445.84	7808.03
446.02	8194.22
446.21	8149.75
446.39	8060.80
446.58	8407.20
446.77	8425.93
446.95	8557.00
447.14	8903.40
447.32	8926.80
447.51	8636.58
447.69	8229.32
447.88	8344.01
448.06	8423.59
448.25	8393.16
448.43	8606.15
448.62	8285.50
448.80	8461.04
448.99	8517.21
449.17	8454.02
449.36	8596.79
449.54	8868.29
449.73	9055.53
449.91	9200.65
450.10	9418.32
450.28	9303.63
450.46	9214.69
450.65	9390.23
450.83	9022.77
451.02	8748.92
451.20	9041.49
451.39	8952.55
451.57	8884.67
451.76	9027.45
451.94	8734.88
452.13	8601.47
452.31	8241.03
452.49	7882.92
452.68	7749.51
452.86	8344.01
453.05	8332.31
453.23	8758.28
453.42	8730.20
453.60	8849.57
453.78	8929.14
453.97	8599.13
454.15	8748.92
454.34	8468.06
454.52	8531.25
454.70	8257.41
454.89	8592.11
455.07	8634.24
455.26	8837.86
455.44	9165.54
455.62	9397.25
455.81	9116.39
455.99	9233.41
456.17	8975.95
456.36	9217.03
456.54	9394.91
456.73	9317.67
456.91	9420.66
457.09	9586.83
457.28	9472.15
457.46	9212.35
457.64	9032.13
457.83	8800.41
458.01	8554.66
458.19	9128.09
458.38	9064.89
458.56	9254.48
458.74	9013.40
458.93	8863.61
459.11	9121.07
459.29	8954.89
459.48	9151.49
459.66	8882.33
459.84	8952.55
460.03	9128.09
460.21	9270.86
460.39	9472.15
460.57	9687.48
460.76	9643.01
460.94	9423.00
461.12	9118.73
461.31	9437.04
461.49	9530.66
461.67	9308.31
461.85	9851.31
462.04	9542.36
462.22	9488.53
462.40	9558.75
462.59	9415.98
462.77	9497.89
462.95	9607.90
463.13	9202.99
463.32	9320.01
463.50	8980.64
463.68	9114.05
463.86	9231.07
464.05	9130.43
464.23	8950.21
464.41	8997.02
464.59	8748.92
464.78	9301.29
464.96	9228.73
465.14	9228.73
465.32	9324.69
465.50	9523.64
465.69	9476.83
465.87	9341.08
466.05	9022.77
466.23	8540.61
466.41	8421.25
466.60	8793.39
466.78	9205.33
466.96	8774.67
467.14	9198.31
467.32	9074.26
467.51	9139.79
467.69	8477.42
467.87	8748.92
468.05	9029.79
468.23	9046.17
468.41	9202.99
468.60	8931.48
468.78	9139.79
468.96	8945.53
469.14	9362.14
469.32	9228.73
469.50	8702.11
469.69	8926.80
469.87	9018.08
470.05	8734.88
470.23	8697.43
470.41	8863.61
470.59	9020.42
470.77	8999.36
470.95	9245.12
471.14	9301.29
471.32	9151.49
471.50	9640.67
471.68	9710.88
471.86	9872.38
472.04	9961.32
472.22	9973.02
472.40	9427.68
472.58	9322.35
472.77	9085.96
472.95	9341.08
473.13	9586.83
473.31	9542.36
473.49	9460.45
473.67	9455.76
473.85	9717.90
474.03	9860.68
474.21	9891.10
474.39	9973.02
474.57	9968.34
474.75	9977.70
474.93	9813.87
475.12	9703.86
475.30	9820.89
475.48	9635.99
475.66	9998.77
475.84	9514.28
476.02	9774.08
476.20	9516.62
476.38	9631.30
476.56	10174.31
476.74	10160.27
476.92	10160.27
477.10	10314.74
477.28	10581.56
477.46	10541.77
477.64	10714.97
477.82	10604.97
478.00	10850.72
478.18	10501.98
478.36	10434.11
478.54	10326.44
478.72	10473.90
478.90	10743.06
479.08	10967.75
479.26	11337.56
479.44	11412.45
479.62	11157.33
479.80	11000.52
479.98	11000.52
480.16	10878.81
480.34	10888.17
480.52	11346.92
480.70	11211.17
480.88	11351.60
481.06	11852.47
481.24	11644.17
481.41	11925.03
481.59	11964.82
481.77	11417.13
481.95	11655.87
482.13	12009.29
482.31	11868.86
482.49	12032.69
482.67	11985.88
482.85	11798.64
483.03	12386.12
483.21	12084.19
483.39	11861.84
483.57	11887.58
483.74	12049.08
483.92	11829.07
484.10	12037.38
484.28	12107.59
484.46	12416.54
484.64	12482.08
484.82	12063.12
485.00	11819.71
485.18	11477.99
485.35	11108.18
485.53	10391.98
485.71	9451.08
485.89	9589.17
486.07	10279.63
486.25	10920.94
486.43	11419.47
486.61	11709.70
486.78	11543.52
486.96	11747.15
487.14	12468.03
487.32	12608.47
487.50	12875.29
487.68	12849.54
487.85	13174.88
488.03	13254.45
488.21	13071.89
488.39	12830.82
488.57	12486.76
488.75	12751.24
488.92	13338.71
489.10	13825.54
489.28	14169.60
489.46	14340.46
489.64	14066.62
489.81	14516.00
489.99	14342.80
490.17	14174.28
490.35	14736.01
490.53	14324.08
490.70	14167.26
490.88	14286.63
491.06	14778.14
491.24	14368.55
491.41	13507.23
491.59	13041.46
491.77	12938.48
491.95	13406.59
492.13	13774.05
492.30	14394.29
492.48	14871.76
492.66	15379.66
492.84	15173.69
493.01	15047.30
493.19	14485.58
493.37	14541.75
493.54	14382.59
493.72	14881.13
493.90	15477.96
494.08	15555.20
494.25	15712.02
494.43	16044.37
494.61	15969.48
494.79	16240.98
494.96	15985.86
495.14	15049.64
495.32	14771.12
495.49	14965.39
495.67	15377.32
495.85	16297.15
496.02	16248.00
496.20	15838.41
496.38	16016.29
496.55	15646.48
496.73	15693.29
496.91	16603.76
497.09	16917.39
497.26	16219.91
497.44	16095.86
497.62	15789.25
497.79	15344.55
497.97	14640.05
498.14	15033.26
498.32	15805.64
498.50	16018.63
498.67	16219.91
498.85	16486.73
499.03	16166.08
499.20	16273.74
499.38	16219.91
499.56	16175.44
499.73	15990.54
499.91	15976.50
500.08	15843.09
500.26	15229.87
500.44	15901.60
500.61	15475.62
500.79	15398.38
500.97	15382.00
501.14	15176.03
501.32	15243.91
501.49	15463.92
501.67	15992.88
501.84	16067.78
502.02	15948.41
502.20	16081.82
502.37	15875.85
502.55	16020.97
502.72	16339.28
502.90	16533.54
503.07	16395.45
503.25	15932.03
503.43	15300.08
503.60	15047.30
503.78	14757.08
503.95	14897.51
504.13	15651.16
504.30	16416.52
504.48	16196.51
504.65	15761.17
504.83	16217.57
505.01	16664.61
505.18	16580.36
505.36	17263.79
505.53	17188.89
505.71	17224.00
505.88	16587.38
506.06	16833.13
506.23	16500.78
506.41	16386.09
506.58	16264.38
506.76	16428.22
506.93	16681.00
507.11	16432.90
507.28	16292.47
507.46	15913.30
507.63	15700.31
507.81	15672.23
507.98	15573.92
508.16	15981.18
508.33	16236.30
508.50	16903.35
508.68	16545.25
508.85	17172.51
509.03	17128.04
509.20	16538.23
509.38	15726.06
509.55	15658.18
509.73	16196.51
509.90	16531.20
510.08	16233.96
510.25	15948.41
510.42	15847.77
510.60	15976.50
510.77	16336.94
510.95	16727.81
511.12	16524.18
511.30	16992.29
511.47	16683.34
511.64	17046.12
511.82	16505.46
511.99	15555.20
512.17	15620.74
512.34	15943.73
512.51	15936.71
512.69	15829.04
512.86	15735.42
513.04	16077.14
513.21	15887.56
513.38	15892.24
513.56	15290.72
513.73	15431.15
513.90	15433.49
514.08	15304.76
514.25	15339.87
514.43	15939.05
514.60	16201.19
514.77	15620.74
514.95	15915.64
515.12	15927.35
515.29	16025.65
515.47	15887.56
515.64	16659.93
515.81	16308.85
515.99	15686.27
516.16	15009.86
516.33	13755.33
516.51	12985.29
516.68	12498.46
516.85	12170.79
517.03	12566.34
517.20	13865.33
517.37	15176.03
517.54	15576.27
517.72	14771.12
517.89	13736.60
518.06	12971.25
518.24	13392.55
518.41	14623.67
518.58	15084.75
518.75	14799.21
518.93	15101.14
519.10	14998.15
519.27	15470.94
519.45	15665.21
519.62	15719.04
519.79	15962.45
519.96	15440.51
520.14	15059.01
520.31	14696.22
520.48	14757.08
520.65	15150.29
520.83	15513.07
521.00	16051.39
521.17	15950.75
521.34	15475.62
521.52	15726.06
521.69	16350.98
521.86	16156.72
522.03	15686.27
522.20	15030.92
522.38	15070.71
522.55	14904.53
522.72	14934.96
522.89	14808.57
523.07	15763.51
523.24	15887.56
523.41	15971.82
523.58	16102.89
523.75	16107.57
523.92	16245.66
524.10	16475.03
524.27	16311.19
524.44	16037.35
524.61	15726.06
524.78	15644.14
524.96	15480.30
525.13	15634.78
525.30	15667.55
525.47	16105.23
525.64	15917.98
525.81	15201.78
525.98	14483.24
526.16	13518.93
526.33	13507.23
526.50	13394.89
526.67	13390.20
526.84	13738.94
527.01	14265.57
527.18	14640.05
527.36	15213.48
527.53	15473.28
527.70	15398.38
527.87	15150.29
528.04	14963.04
528.21	15414.77
528.38	15857.13
528.55	16376.73
528.72	16020.97
528.89	16175.44
529.07	16016.29
529.24	15573.92
529.41	14764.10
529.58	14899.85
529.75	14888.15
529.92	15456.90
530.09	15440.51
530.26	15543.50
530.43	15232.21
530.60	15283.70
530.77	15749.46
530.94	15843.09
531.11	15623.08
531.28	15363.28
531.46	15283.70
531.63	15527.11
531.80	15145.61
531.97	15176.03
532.14	14562.81
532.31	13989.38
532.48	13530.64
532.65	14071.30
532.82	14356.85
532.99	15157.31
533.16	15063.69
533.33	15421.79
533.50	14951.34
533.67	14698.56
533.84	14356.85
534.01	14689.20
534.18	14827.29
534.35	15033.26
534.52	14618.99
534.69	15161.99
534.86	15379.66
535.03	15850.11
535.20	15815.00
535.37	15293.06
535.54	15606.69
535.71	15604.35
535.88	15618.39
536.05	15236.89
536.22	15133.90
536.38	14480.89
536.55	14230.46
536.72	14200.03
536.89	14560.47
537.06	14410.68
537.23	14663.46
537.40	14668.14
537.57	15091.77
537.74	14782.82
537.91	14427.06
538.08	14719.63
538.25	14939.64
538.42	14698.56
538.59	14558.13
538.75	14230.46
538.92	14469.19
539.09	13540.00
539.26	13556.38
539.43	13610.22
539.60	13738.94
539.77	13500.21
539.94	13795.12
540.11	13369.14
540.28	13067.21
540.44	13219.35
540.61	13319.99
540.78	13563.40
540.95	14083.00
541.12	14019.81
541.29	14153.22
541.46	13951.93
541.62	13916.83
541.79	13640.64
541.96	13366.80
542.13	13476.80
542.30	13893.42
542.47	14132.15
542.63	13881.72
542.80	13614.90
542.97	13408.93
543.14	13324.67
543.31	13294.24
543.48	13612.56
543.64	13916.83
543.81	14221.10
543.98	14122.79
544.15	13673.41
544.32	13364.46
544.48	13741.29
544.65	13825.54
544.82	13741.29
544.99	13699.16
545.16	13664.05
545.32	13305.95
545.49	13958.96
545.66	14171.94
545.83	14092.37
546.00	13816.18
546.16	13647.66
546.33	14010.45
546.50	14134.50
546.67	14115.77
546.83	13977.68
547.00	13621.92
547.17	13256.79
547.34	13425.31
547.50	13116.36
547.67	13434.68
547.84	13418.29
548.00	13673.41
548.17	13607.87
548.34	13273.18
548.51	13535.32
548.67	13696.82
548.84	14141.52
549.01	14108.75
549.18	13504.89
549.34	14059.60
549.51	13252.11
549.68	13551.70
549.84	13699.16
550.01	13710.86
550.18	13469.78
550.34	13177.22
550.51	12819.11
550.68	13116.36
550.84	12889.33
551.01	12936.14
551.18	13575.11
551.34	13270.84
551.51	13378.50
551.68	13774.05
551.84	13448.72
552.01	13102.32
552.18	13053.17
552.34	12709.11
552.51	12566.34
552.68	12666.98
552.84	12594.42
553.01	12966.57
553.18	13006.36
553.34	13137.43
553.51	12737.20
553.67	12894.01
553.84	13041.46
554.01	13092.96
554.17	13207.64
554.34	13343.39
554.51	13577.45
554.67	13249.77
554.84	13139.77
555.00	13205.30
555.17	13006.36
555.33	13144.45
555.50	13483.83
555.67	12957.21
555.83	13018.06
556.00	12620.17
556.16	12446.97
556.33	12173.13
556.50	12276.11
556.66	12126.32
556.83	12035.03
556.99	12292.49
557.16	12463.35
557.32	12306.54
557.49	12823.80
557.65	12285.47
557.82	12425.90
557.98	12163.76
558.15	12023.33
558.32	11796.30
558.48	11730.76
558.65	11566.93
558.81	11653.53
558.98	11906.31
559.14	12049.08
559.31	12255.04
559.47	12020.99
559.64	11843.11
559.80	11349.26
559.97	11571.61
560.13	11992.90
560.30	12416.54
560.46	13083.59
560.63	13226.37
560.79	13034.44
560.96	12421.22
561.12	11728.42
561.29	11449.90
561.45	11651.19
561.61	11800.98
561.78	11922.69
561.94	11793.96
562.11	11906.31
562.27	12009.29
562.44	11948.43
562.60	11960.14
562.77	11978.86
562.93	12170.79
563.10	12255.04
563.26	11845.45
563.42	11786.94
563.59	11712.04
563.75	11728.42
563.92	11557.57
564.08	11868.86
564.24	11550.54
564.41	11204.14
564.57	11705.02
564.74	11426.50
564.90	11602.04
565.07	11508.41
565.23	11393.73
565.39	11037.97
565.56	11073.07
565.72	11119.89
565.88	11325.85
566.05	11339.90
566.21	11103.50
566.38	11316.49
566.54	11396.07
566.70	11272.02
566.87	11482.67
567.03	11730.76
567.19	11761.19
567.36	11154.99
567.52	11543.52
567.68	11054.35
567.85	10970.09
568.01	10459.85
568.17	10513.69
568.34	10415.38
568.50	10506.66
568.66	10656.46
568.83	10799.23
568.99	10963.07
569.15	10633.05
569.32	10675.18
569.48	11157.33
569.64	10920.94
569.81	10759.44
569.97	10516.03
570.13	10913.92
570.30	10581.56
570.46	10274.95
570.62	10125.16
570.78	9998.77
570.95	10143.88
571.11	10729.02
571.27	10609.65
571.43	10455.17
571.60	10705.61
571.76	10745.40
571.92	10635.39
572.09	10754.76
572.25	10534.75
572.41	10839.02
572.57	10932.64
572.74	10759.44
572.90	10597.95
573.06	10810.93
573.22	10644.76
573.38	11056.69
573.55	10642.42
573.71	10925.62
573.87	10703.27
574.03	10775.83
574.20	10499.64
574.36	10164.95
574.52	10335.81
574.68	10296.02
574.84	10066.64
575.01	9790.46
575.17	9858.34
575.33	9738.97
575.49	9994.09
575.65	10169.63
575.82	9912.17
575.98	10054.94
576.14	9916.85
576.30	10125.16
576.46	9977.70
576.62	10101.75
576.79	10256.23
576.95	10083.03
577.11	10251.55
577.27	10101.75
577.43	10111.11
577.59	10068.98
577.75	10080.69
577.92	9865.36
578.08	9584.49
578.24	9980.04
578.40	9703.86
578.56	9666.41
578.72	9460.45
578.88	9621.94
579.04	9650.03
579.21	10036.22
579.37	9853.66
579.53	9935.57
579.69	9614.92
579.85	9757.69
580.01	9685.14
580.17	9394.91
580.33	9954.30
580.49	9738.97
580.65	9708.54
580.82	9626.62
580.98	9638.33
581.14	9577.47
581.30	9614.92
581.46	9774.08
581.62	9781.10
581.78	9888.76
581.94	10183.67
582.10	9753.01
582.26	9926.21
582.42	9827.91
582.58	10148.56
582.74	10029.20
582.90	10064.30
583.06	10258.57
583.22	10083.03
583.38	9776.42
583.54	9760.03
583.70	9757.69
583.86	9830.25
584.02	10015.15
584.18	9930.89
584.34	9919.19
584.50	9905.15
584.66	9844.29
584.82	9734.29
584.98	9635.99
585.14	9151.49
585.30	9015.74
585.46	9090.64
585.62	9074.26
585.78	9240.44
585.94	9118.73
586.10	9268.52
586.26	9451.08
586.42	9441.72
586.58	9212.35
586.74	9277.88
586.90	9317.67
587.06	9324.69
587.22	8856.59
587.38	8987.66
587.54	8957.23
587.70	8748.92
587.86	8667.00
588.02	8744.24
588.18	8383.80
588.34	8393.16
588.49	7887.61
588.65	7847.82
588.81	7487.37
588.97	7613.76
589.13	7775.26
589.29	7756.54
589.45	7955.48
589.61	8229.32
589.77	8444.65
589.93	8564.02
590.08	8400.18
590.24	8805.10
590.40	8592.11
590.56	8755.94
