SpectraSuite Data File
++++++++++++++++++++++++++++++++++++
Date: Mon Oct 07 14:53:32 GMT-05:00 2013
User: price-jones
Dark Spectrum Present: No
Reference Spectrum Present: No
Number of Sampled Component Spectra: 1
Spectrometers: USB2+H05261
Integration Time (usec): 100000 (USB2+H05261)
Spectra Averaged: 1 (USB2+H05261)
Boxcar Smoothing: 0 (USB2+H05261)
Correct for Electrical Dark: No (USB2+H05261)
Strobe/Lamp Enabled: No (USB2+H05261)
Correct for Detector Non-linearity: No (USB2+H05261)
Correct for Stray Light: No (USB2+H05261)
Number of Pixels in Processed Spectrum: 2048
>>>>>Begin Processed Spectral Data<<<<<
365.73	0.00
365.92	0.00
366.12	0.00
366.32	0.00
366.52	0.00
366.72	0.00
366.91	0.00
367.11	0.00
367.31	0.00
367.51	0.00
367.70	0.00
367.90	0.00
368.10	0.00
368.30	0.00
368.49	0.00
368.69	0.00
368.89	0.00
369.09	0.00
369.28	0.00
369.48	0.00
369.68	0.00
369.87	0.00
370.07	0.00
370.27	0.00
370.47	484.49
370.66	2972.48
370.86	3517.83
371.06	3754.22
371.25	3854.86
371.45	3428.88
371.65	2988.86
371.84	2883.54
372.04	3066.10
372.24	3279.09
372.44	3609.11
372.63	3716.77
372.83	3190.15
373.03	2822.69
373.22	2637.78
373.42	2801.62
373.62	3176.11
373.81	3566.98
374.01	3534.21
374.21	3155.04
374.40	3042.70
374.60	3143.34
374.79	3417.18
374.99	3999.98
375.19	4285.52
375.38	4507.87
375.58	4056.15
375.78	3950.82
375.97	4105.30
376.17	4337.01
376.37	4208.28
376.56	4496.17
376.76	4456.38
376.95	4760.65
377.15	5289.61
377.35	5490.90
377.54	5664.10
377.74	5682.82
377.93	5851.34
378.13	5537.71
378.33	5399.62
378.52	5107.05
378.72	4755.97
378.91	4805.12
379.11	4709.16
379.31	4559.36
379.50	4475.10
379.70	4828.53
379.89	5172.58
380.09	5451.11
380.28	5537.71
380.48	5668.78
380.68	5547.07
380.87	5577.50
381.07	5050.88
381.26	4702.14
381.46	4376.80
381.65	4358.08
381.85	4212.96
382.04	4042.11
382.24	3730.81
382.43	3531.87
382.63	3548.25
382.83	3393.78
383.02	3290.79
383.22	3496.76
383.41	3503.78
383.61	3653.58
383.80	4184.88
384.00	4898.74
384.19	5226.42
384.39	5540.05
384.58	5680.48
384.78	5518.98
384.97	5762.40
385.17	5359.83
385.36	5114.07
385.56	4585.11
385.75	4840.23
385.95	5315.36
386.14	5975.39
386.34	5956.66
386.53	5657.07
386.72	5214.71
386.92	5217.05
387.11	5640.69
387.31	5905.17
387.50	5912.19
387.70	5678.14
387.89	5460.47
388.09	5476.85
388.28	5727.29
388.48	5617.29
388.67	6127.52
388.86	6806.28
389.06	7084.80
389.25	7445.24
389.45	7644.19
389.64	7407.80
389.84	7283.75
390.03	7342.26
390.22	7368.01
390.42	7489.71
390.61	7962.50
390.81	8596.79
391.00	8936.17
391.19	8669.34
391.39	8219.96
391.58	7896.97
391.78	7456.95
391.97	7288.43
392.16	6743.08
392.36	6118.16
392.55	4973.64
392.75	4098.28
392.94	3351.65
393.13	3084.83
393.33	3808.05
393.52	4828.53
393.71	5811.55
393.91	6710.32
394.10	7119.91
394.29	7899.31
394.49	8645.94
394.68	9245.12
394.88	9294.27
395.07	9605.56
395.26	9352.78
395.46	9294.27
395.65	8517.21
395.84	7728.45
396.04	6530.09
396.23	5263.86
396.42	4346.37
396.62	4163.81
396.81	4784.06
397.00	6071.35
397.19	7630.15
397.39	9217.03
397.58	10230.48
397.77	11162.01
397.97	11536.50
398.16	11810.34
398.35	11969.50
398.55	12325.26
398.74	12556.97
398.93	13149.13
399.12	13018.06
399.32	12341.64
399.51	12938.48
399.70	13612.56
399.90	13364.46
400.09	13497.87
400.28	13532.98
400.47	13811.50
400.67	14132.15
400.86	14445.79
401.05	14335.78
401.24	14513.66
401.44	14806.23
401.63	14757.08
401.82	14714.95
402.01	14614.30
402.21	15110.50
402.40	15302.42
402.59	14427.06
402.78	14281.95
402.97	13631.28
403.17	14083.00
403.36	14815.59
403.55	15693.29
403.74	15964.79
403.93	15051.99
404.13	13989.38
404.32	13743.63
404.51	14260.88
404.70	15583.29
404.89	15386.68
405.09	15147.95
405.28	14626.01
405.47	14970.07
405.66	14841.34
405.85	14370.89
406.05	13752.99
406.24	14157.90
406.43	14714.95
406.62	15407.75
406.81	15623.08
407.00	15033.26
407.20	14185.99
407.39	14565.15
407.58	15335.19
407.77	15761.17
407.96	16402.47
408.15	16489.07
408.34	16393.11
408.54	17298.90
408.73	17420.61
408.92	17312.94
409.11	16940.80
409.30	15913.30
409.49	15047.30
409.68	13816.18
409.87	13568.09
410.07	14209.39
410.26	15665.21
410.45	16435.24
410.64	16821.43
410.83	17453.37
411.02	17987.02
411.21	18492.57
411.40	18274.90
411.59	18515.98
411.78	18352.14
411.98	18417.68
412.17	18728.97
412.36	17844.24
412.55	18204.69
412.74	17750.62
412.93	17322.30
413.12	17525.93
413.31	19161.97
413.50	19204.10
413.69	19690.93
413.88	18977.06
414.07	18197.67
414.26	18387.25
414.45	19372.61
414.64	19222.82
414.83	19344.53
415.02	18948.98
415.22	19023.87
415.41	19625.39
415.60	20252.66
415.79	21053.12
415.98	20978.22
416.17	21331.64
416.36	20577.99
416.55	20421.17
416.74	19777.53
416.93	19012.17
417.12	19021.53
417.31	19316.44
417.50	19702.63
417.69	20636.50
417.88	20313.51
418.07	20428.20
418.26	20119.24
418.45	19988.18
418.64	20688.00
418.83	21465.05
419.02	21275.47
419.21	21317.60
419.39	20163.72
419.58	19241.54
419.77	19377.30
419.96	19822.00
420.15	21149.08
420.34	21687.40
420.53	22581.49
420.72	22934.91
420.91	22565.10
421.10	22396.59
421.29	22476.16
421.48	21479.10
421.67	22607.23
421.86	22061.89
422.05	20814.38
422.24	18513.64
422.43	18113.41
422.61	20119.24
422.80	21752.94
422.99	21523.57
423.18	21113.97
423.37	20739.49
423.56	20449.26
423.75	20865.88
423.94	21392.50
424.13	20063.07
424.32	20669.27
424.50	20688.00
424.69	20109.88
424.88	20446.92
425.07	20226.91
425.26	20308.83
425.45	20074.77
425.64	19538.79
425.83	19358.57
426.01	20702.04
426.20	21434.63
426.39	21422.92
426.58	19700.29
426.77	18061.91
426.96	17614.87
427.15	18113.41
427.33	19854.76
427.52	20500.75
427.71	20858.85
427.90	20599.05
428.09	20563.95
428.28	19934.34
428.46	19077.71
428.65	18700.88
428.84	19398.36
429.03	19503.68
429.22	18670.45
429.40	17774.03
429.59	15922.66
429.78	13870.01
429.97	13806.82
430.16	14141.52
430.34	14380.25
430.53	14284.29
430.72	14661.12
430.91	16233.96
431.10	19054.30
431.28	22274.88
431.47	24245.61
431.66	24563.92
431.85	22518.29
432.03	20772.25
432.22	19545.81
432.41	20524.16
432.60	22757.03
432.79	23487.28
432.97	23992.83
433.16	23929.64
433.35	21553.99
433.54	19630.07
433.72	18478.53
433.91	18565.13
434.10	20521.82
434.28	22258.49
434.47	23875.80
434.66	23285.99
434.85	22925.55
435.03	22630.64
435.22	23138.54
435.41	24510.09
435.59	24500.73
435.78	25352.68
435.97	25549.29
436.16	26033.78
436.34	25556.31
436.53	24830.74
436.72	25090.54
436.90	23634.73
437.09	23215.77
437.28	23094.07
437.46	24074.75
437.65	24065.39
437.84	22675.11
438.02	20599.05
438.21	20388.41
438.40	21371.43
438.58	23204.07
438.77	23761.12
438.96	24119.22
439.14	25174.80
439.33	25708.44
439.52	26345.07
439.70	25504.82
439.89	24982.88
440.08	24194.12
440.26	24245.61
440.45	25013.31
440.63	26747.64
440.82	28325.16
441.01	27789.18
441.19	27398.31
441.38	27803.22
441.57	29317.55
441.75	29584.37
441.94	29785.66
442.12	28985.19
442.31	29626.50
442.50	29436.92
442.68	29373.72
442.87	29394.79
443.05	28439.85
443.24	29163.08
443.43	29799.70
443.61	30621.23
443.80	30586.12
443.98	28884.55
444.17	28627.09
444.35	30389.52
444.54	30693.79
444.73	30974.65
444.91	29518.84
445.10	27541.08
445.28	27096.38
445.47	26714.87
445.65	26600.19
445.84	27791.52
446.02	28926.68
446.21	29017.96
446.39	28802.63
446.58	29434.58
446.77	29802.04
446.95	29654.59
447.14	31330.41
447.32	31594.89
447.51	30597.82
447.69	29495.43
447.88	29329.25
448.06	29434.58
448.25	29921.41
448.43	30277.17
448.62	29593.73
448.80	29635.86
448.99	29631.18
449.17	30373.13
449.36	30403.56
449.54	31543.40
449.73	31943.63
449.91	31997.46
450.10	33193.48
450.28	34019.69
450.46	33432.21
450.65	33291.78
450.83	32877.51
451.02	32643.45
451.20	32360.25
451.39	32107.47
451.57	31674.47
451.76	31585.53
451.94	31615.96
452.13	31154.87
452.31	29893.32
452.49	28229.20
452.68	28910.30
452.86	28795.61
453.05	29429.90
453.23	30202.27
453.42	30698.47
453.60	31337.43
453.78	31842.99
453.97	31625.32
454.15	31686.17
454.34	30756.98
454.52	30775.70
454.70	30249.08
454.89	30834.22
455.07	30644.63
455.26	31246.15
455.44	32346.20
455.62	33163.05
455.81	32985.17
455.99	32884.53
456.17	32570.90
456.36	32545.15
456.54	33336.25
456.73	33514.13
456.91	34260.76
457.09	34345.02
457.28	35311.66
457.46	33518.81
457.64	33179.43
457.83	32573.24
458.01	31784.48
458.19	32444.51
458.38	32591.96
458.56	33977.56
458.74	33518.81
458.93	33024.96
459.11	32936.02
459.29	32795.59
459.48	32818.99
459.66	33050.70
459.84	33111.56
460.03	33305.82
460.21	33624.14
460.39	34160.12
460.57	34164.80
460.76	34609.50
460.94	34499.50
461.12	34213.95
461.31	34279.49
461.49	34373.11
461.67	34143.74
461.85	35840.62
462.04	35304.64
462.22	35601.89
462.40	35007.39
462.59	35332.73
462.77	35271.87
462.95	35199.32
463.13	34635.25
463.32	34775.68
463.50	34059.48
463.68	34096.92
463.86	34871.64
464.05	33820.74
464.23	32940.70
464.41	33312.84
464.59	32339.18
464.78	34108.63
464.96	33867.55
465.14	33544.56
465.32	34541.63
465.50	35267.19
465.69	35538.69
465.87	34785.04
466.05	33729.46
466.23	32886.87
466.41	31449.78
466.60	32697.28
466.78	32528.77
466.96	33120.92
467.14	33982.24
467.32	34455.03
467.51	34396.51
467.69	32598.98
467.87	33469.66
468.05	33921.38
468.23	33638.18
468.41	33935.43
468.60	34225.65
468.78	34333.32
468.96	33586.69
469.14	34761.64
469.32	34731.21
469.50	33710.74
469.69	33797.34
469.87	33244.97
470.05	33109.22
470.23	33401.79
470.41	33280.08
470.59	33921.38
470.77	33720.10
470.95	34639.93
471.14	35119.74
471.32	34988.67
471.50	36865.78
471.68	36903.23
471.86	37247.29
472.04	36966.42
472.22	37497.72
472.40	35859.35
472.58	35281.24
472.77	34806.11
472.95	35494.22
473.13	36512.36
473.31	35742.32
473.49	35552.74
473.67	36580.23
473.85	36561.51
474.03	37691.99
474.21	37617.09
474.39	38029.02
474.57	38801.40
474.75	38506.49
474.93	38064.13
475.12	37106.85
475.30	36734.71
475.48	37258.99
475.66	38394.15
475.84	37221.54
476.02	37088.13
476.20	36503.00
476.38	37099.83
476.56	38279.46
476.74	38796.72
476.92	38932.47
477.10	39786.77
477.28	40933.63
477.46	40512.33
477.64	41212.15
477.82	41511.74
478.00	41436.84
478.18	41015.55
478.36	40720.64
478.54	40582.55
478.72	41053.00
478.90	42089.85
479.08	43276.51
479.26	43962.28
479.44	43143.09
479.62	43157.14
479.80	42993.30
479.98	43501.20
480.16	43618.22
480.34	43428.64
480.52	43880.36
480.70	43793.76
480.88	44168.25
481.06	44463.16
481.24	45312.77
481.41	45909.61
481.59	46223.24
481.77	46234.94
481.95	45392.35
482.13	45141.91
482.31	45315.11
482.49	45642.79
482.67	45996.21
482.85	45944.72
483.03	46768.58
483.21	47143.07
483.39	46993.28
483.57	46047.70
483.74	46405.80
483.92	46438.57
484.10	46499.42
484.28	47569.05
484.46	48271.21
484.64	48566.12
484.82	47777.36
485.00	47215.63
485.18	46656.24
485.35	45413.41
485.53	41666.22
485.71	38607.14
485.89	37596.03
486.07	39435.69
486.25	42614.13
486.43	45418.10
486.61	46251.33
486.78	46174.09
486.96	46188.13
487.14	48041.84
487.32	48657.40
487.50	49392.33
487.68	50700.68
487.85	51042.40
488.03	51133.68
488.21	50499.40
488.39	49755.11
488.57	49169.97
488.75	49081.03
488.92	49837.03
489.10	51964.57
489.28	53354.85
489.46	53979.78
489.64	53703.59
489.81	54064.03
489.99	53734.02
490.17	53790.19
490.35	54209.15
490.53	53656.78
490.70	53303.36
490.88	53214.42
491.06	54211.49
491.24	54157.66
491.41	53024.84
491.59	51372.42
491.77	50733.45
491.95	51683.71
492.13	52540.35
492.30	54117.87
492.48	55253.03
492.66	55341.97
492.84	55515.17
493.01	55201.53
493.19	54660.87
493.37	54298.09
493.54	54031.27
493.72	54939.39
493.90	55632.19
494.08	56528.62
494.25	56837.57
494.43	56701.82
494.61	57413.34
494.79	57389.94
494.96	57010.77
495.14	56662.03
495.32	55657.94
495.49	54948.76
495.67	56044.13
495.85	57298.65
496.02	57780.81
496.20	57481.22
496.38	57120.77
496.55	56952.26
496.73	57387.60
496.91	57521.01
497.09	58202.10
497.26	58150.61
497.44	57762.08
497.62	57329.08
497.79	56406.91
497.97	55241.32
498.14	55402.82
498.32	56757.99
498.50	57432.07
498.67	58127.20
498.85	57961.03
499.03	58059.33
499.20	58396.37
499.38	58316.79
499.56	58110.82
499.73	57766.76
499.91	57282.27
500.08	56985.02
500.26	56226.69
500.44	56549.68
500.61	57474.20
500.79	57312.70
500.97	56720.54
501.14	56589.47
501.32	56446.70
501.49	56322.65
501.67	56725.22
501.84	57132.48
502.02	57528.03
502.20	57904.85
502.37	57860.38
502.55	58117.84
502.72	58513.39
502.90	58733.40
503.07	58721.70
503.25	58239.55
503.43	57659.10
503.60	56938.21
503.78	56081.58
503.95	56559.05
504.13	57991.45
504.30	58646.80
504.48	58599.99
504.65	58307.43
504.83	58298.06
505.01	58712.34
505.18	59302.15
505.36	59564.29
505.53	59945.80
505.71	60011.34
505.88	59950.48
506.06	59711.75
506.23	58993.20
506.41	58578.93
506.58	59065.76
506.76	58955.75
506.93	59014.27
507.11	58749.79
507.28	58780.21
507.46	58321.47
507.63	57911.88
507.81	57633.35
507.98	57712.93
508.16	58459.56
508.33	59110.23
508.50	59384.07
508.68	59482.37
508.85	60165.81
509.03	60126.02
509.20	60041.76
509.38	59107.89
509.55	58794.26
509.73	58644.46
509.90	59278.75
510.08	59489.40
510.25	59250.66
510.42	59278.75
510.60	59042.35
510.77	59210.87
510.95	59793.67
511.12	59931.76
511.30	60156.45
511.47	60481.78
511.64	60441.99
511.82	59992.61
511.99	59189.81
512.17	58969.80
512.34	58656.17
512.51	58747.45
512.69	59079.80
512.86	58763.83
513.04	59400.46
513.21	59484.72
513.38	59257.68
513.56	58567.23
513.73	58176.36
513.90	58166.99
514.08	58316.79
514.25	58644.46
514.43	58794.26
514.60	58820.00
514.77	59084.48
514.95	59281.09
515.12	58869.15
515.29	59264.70
515.47	59618.13
515.64	60013.68
515.81	59580.68
515.99	59047.04
516.16	57771.44
516.33	55451.97
516.51	53930.62
516.68	53289.32
516.85	52992.07
517.03	53198.04
517.20	55917.74
517.37	58120.18
517.54	59089.16
517.72	58632.76
517.89	56472.45
518.06	54185.74
518.24	54209.15
518.41	56292.22
518.58	57773.78
518.75	58054.65
518.93	58260.62
519.10	57935.28
519.27	58534.46
519.45	58801.28
519.62	59224.92
519.79	59707.07
519.96	59519.82
520.14	59227.26
520.31	58302.74
520.48	58131.89
520.65	58728.72
520.83	59412.16
521.00	59824.09
521.17	59437.90
521.34	59320.88
521.52	59461.31
521.69	60053.47
521.86	60542.64
522.03	60137.72
522.20	59058.74
522.38	58094.44
522.55	57925.92
522.72	58426.79
522.89	58784.90
523.07	59004.91
523.24	59058.74
523.41	59943.46
523.58	60261.77
523.75	60662.00
523.92	60416.25
524.10	60514.55
524.27	60589.45
524.44	60317.95
524.61	60001.97
524.78	59971.55
524.96	59814.73
525.13	60018.36
525.30	60083.89
525.47	60615.19
525.64	60552.00
525.81	59777.28
525.98	58431.47
526.16	57052.90
526.33	56626.92
526.50	56133.07
526.67	55807.73
526.84	56430.32
527.01	57298.65
527.18	58185.72
527.36	58705.32
527.53	59950.48
527.70	60229.01
527.87	59611.10
528.04	58894.90
528.21	59547.91
528.38	60088.57
528.55	60594.13
528.72	60926.49
528.89	61064.58
529.07	60734.56
529.24	60250.07
529.41	59540.89
529.58	59023.63
529.75	59037.67
529.92	59583.02
530.09	59887.29
530.26	60453.70
530.43	60601.15
530.60	60652.64
530.77	60973.30
530.94	61116.07
531.11	60715.84
531.28	60306.24
531.46	60055.81
531.63	60123.68
531.80	60081.55
531.97	59611.10
532.14	58876.18
532.31	57965.71
532.48	57481.22
532.65	57237.80
532.82	58211.46
532.99	59365.35
533.16	59529.19
533.33	60144.75
533.50	59873.24
533.67	59339.60
533.84	58880.86
534.01	59299.81
534.18	59285.77
534.35	59629.83
534.52	59384.07
534.69	59779.62
534.86	59936.44
535.03	60177.51
535.20	60612.85
535.37	60884.36
535.54	60999.04
535.71	60769.67
535.88	60343.69
536.05	59777.28
536.22	59412.16
536.38	59051.72
536.55	58527.44
536.72	58092.10
536.89	58197.42
537.06	58880.86
537.23	59576.00
537.40	60034.74
537.57	59917.71
537.74	59573.66
537.91	59753.88
538.08	59664.94
538.25	59437.90
538.42	59913.03
538.59	59587.70
538.75	58930.01
538.92	58756.81
539.09	58534.46
539.26	58555.52
539.43	58349.56
539.60	58408.07
539.77	58527.44
539.94	58522.76
540.11	57841.66
540.28	57190.99
540.44	57380.57
540.61	57647.39
540.78	57687.18
540.95	58141.25
541.12	58590.63
541.29	58843.41
541.46	59189.81
541.62	59353.65
541.79	59157.04
541.96	58501.69
542.13	58422.11
542.30	58637.44
542.47	59075.12
542.63	58820.00
542.80	58246.57
542.97	58700.64
543.14	58370.62
543.31	58546.16
543.48	58897.24
543.64	59618.13
543.81	60076.87
543.98	59786.64
544.15	59327.90
544.32	58602.33
544.48	58571.91
544.65	59058.74
544.82	59412.16
544.99	59096.19
545.16	58815.32
545.32	58550.84
545.49	59323.22
545.66	59765.58
545.83	59386.41
546.00	59035.33
546.16	58464.24
546.33	58686.59
546.50	58789.58
546.67	59147.68
546.83	58632.76
547.00	58635.10
547.17	58066.35
547.34	57724.63
547.50	57420.36
547.67	58073.37
547.84	58080.39
548.00	58375.30
548.17	58719.36
548.34	58445.52
548.51	58831.71
548.67	58822.34
548.84	58756.81
549.01	58684.25
549.18	58616.38
549.34	58728.72
549.51	58644.46
549.68	58429.13
549.84	58443.18
550.01	58169.33
550.18	57984.43
550.34	58136.57
550.51	58129.54
550.68	58501.69
550.84	57801.87
551.01	57869.75
551.18	57820.59
551.34	58171.67
551.51	58525.10
551.68	58724.04
551.84	58698.30
552.01	58651.48
552.18	58323.81
552.34	57647.39
552.51	57322.06
552.68	57200.35
552.84	57961.03
553.01	58150.61
553.18	57839.32
553.34	58033.58
553.51	58113.16
553.67	58447.86
553.84	58363.60
554.01	58534.46
554.17	58356.58
554.34	58281.68
554.51	58281.68
554.67	59035.33
554.84	58405.73
555.00	58344.87
555.17	58012.52
555.33	57956.35
555.50	57858.04
555.67	57881.45
555.83	57645.05
556.00	57523.35
556.16	57322.06
556.33	57015.45
556.50	56816.50
556.66	57064.60
556.83	56863.32
556.99	56889.06
557.16	57013.11
557.32	57319.72
557.49	57631.01
557.65	57366.53
557.82	57436.75
557.98	57464.83
558.15	56898.42
558.32	55917.74
558.48	55217.92
558.65	55519.85
558.81	55660.28
558.98	56191.58
559.14	56341.38
559.31	56177.54
559.47	56207.97
559.64	56081.58
559.80	55498.78
559.97	55711.77
560.13	56170.52
560.30	57048.22
560.46	57586.54
560.63	57537.39
560.79	57801.87
560.96	57502.28
561.12	56474.79
561.29	55564.32
561.45	55716.45
561.61	55997.32
561.78	56568.41
561.94	56343.72
562.11	56303.93
562.27	56130.73
562.44	56697.14
562.60	56816.50
562.77	56788.42
562.93	56839.91
563.10	56645.65
563.26	56147.11
563.42	56135.41
563.59	56039.45
563.75	55941.14
563.92	56184.56
564.08	55950.51
564.24	56236.05
564.41	56589.47
564.57	56069.87
564.74	55903.70
564.90	56203.28
565.07	55714.11
565.23	55419.20
565.39	55143.02
565.56	54616.40
565.72	54473.63
565.88	54976.84
566.05	54955.78
566.21	55124.30
566.38	55168.77
566.54	55580.70
566.70	55915.40
566.87	56151.79
567.03	55992.64
567.19	56299.25
567.36	55908.38
567.52	55742.20
567.68	55470.70
567.85	54894.92
568.01	54398.73
568.17	54405.75
568.34	54349.58
568.50	54190.42
568.66	54382.35
568.83	54742.79
568.99	54845.77
569.15	54798.96
569.32	54981.52
569.48	54600.02
569.64	54525.12
569.81	54265.32
569.97	54213.83
570.13	54211.49
570.30	53539.75
570.46	53221.44
570.62	52538.01
570.78	52580.13
570.95	52861.00
571.11	53614.65
571.27	53776.15
571.43	54052.33
571.60	54033.61
571.76	54361.28
571.92	54593.00
572.09	54871.52
572.25	54958.12
572.41	54700.66
572.57	54422.14
572.74	54433.84
572.90	53916.58
573.06	54017.22
573.22	54422.14
573.38	53996.16
573.55	54272.34
573.71	54789.60
573.87	54372.99
574.03	54340.22
574.20	54003.18
574.36	53811.26
574.52	53511.67
574.68	53460.18
574.84	53310.38
575.01	52556.73
575.17	52509.92
575.33	52877.38
575.49	53301.02
575.65	53305.70
575.82	53120.80
575.98	52664.39
576.14	53066.97
576.30	53399.32
576.46	53605.29
576.62	53352.51
576.79	53254.21
576.95	52793.12
577.11	53036.54
577.27	52891.43
577.43	52898.45
577.59	52861.00
577.75	52332.04
577.92	51824.14
578.08	51473.06
578.24	51746.90
578.40	51842.87
578.56	52259.48
578.72	52177.56
578.88	52535.66
579.04	52722.91
579.21	52605.88
579.37	52617.58
579.53	52823.55
579.69	52638.65
579.85	52772.06
580.01	52963.98
580.17	52219.69
580.33	52095.64
580.49	52037.13
580.65	52746.31
580.82	52645.67
580.98	52598.86
581.14	52601.20
581.30	52638.65
581.46	52486.51
581.62	52568.43
581.78	52629.29
581.94	52893.77
582.10	52800.15
582.26	52662.05
582.42	52811.85
582.58	52999.09
582.74	53045.90
582.90	52720.57
583.06	52687.80
583.22	52774.40
583.38	52523.96
583.54	52406.94
583.70	52378.85
583.86	52472.47
584.02	52404.59
584.18	52289.91
584.34	52177.56
584.50	52378.85
584.66	51868.61
584.82	51655.62
584.98	51295.18
585.14	51517.53
585.30	50279.39
