SpectraSuite Data File
++++++++++++++++++++++++++++++++++++
Date: Mon Oct 07 14:53:51 GMT-05:00 2013
User: price-jones
Dark Spectrum Present: No
Reference Spectrum Present: No
Number of Sampled Component Spectra: 1
Spectrometers: USB2+H05261
Integration Time (usec): 100000 (USB2+H05261)
Spectra Averaged: 1 (USB2+H05261)
Boxcar Smoothing: 0 (USB2+H05261)
Correct for Electrical Dark: No (USB2+H05261)
Strobe/Lamp Enabled: No (USB2+H05261)
Correct for Detector Non-linearity: No (USB2+H05261)
Correct for Stray Light: No (USB2+H05261)
Number of Pixels in Processed Spectrum: 2048
>>>>>Begin Processed Spectral Data<<<<<
365.73	0.00
365.92	0.00
366.12	0.00
366.32	0.00
366.52	0.00
366.72	0.00
366.91	0.00
367.11	0.00
367.31	0.00
367.51	0.00
367.70	0.00
367.90	0.00
368.10	0.00
368.30	0.00
368.49	0.00
368.69	0.00
368.89	0.00
369.09	0.00
369.28	0.00
369.48	0.00
369.68	0.00
369.87	0.00
370.07	0.00
370.27	0.00
370.47	573.43
370.66	2977.16
370.86	3611.45
371.06	3822.09
371.25	3899.33
371.45	3400.80
371.65	3208.87
371.84	2988.86
372.04	3096.53
372.24	3414.84
372.44	3719.11
372.63	3726.13
372.83	3276.75
373.03	2925.67
373.22	2731.41
373.42	2895.24
373.62	3199.51
373.81	3606.77
374.01	3590.38
374.21	3236.96
374.40	3045.04
374.60	3155.04
374.79	3447.61
374.99	4030.40
375.19	4395.53
375.38	4372.12
375.58	4042.11
375.78	4084.23
375.97	4133.39
376.17	4332.33
376.37	4250.41
376.56	4524.26
376.76	4627.24
376.95	4999.38
377.15	5287.27
377.35	5537.71
377.54	5778.78
377.74	5811.55
377.93	5839.64
378.13	5783.46
378.33	5533.03
378.52	5048.54
378.72	4695.11
378.91	4636.60
379.11	4486.81
379.31	4360.42
379.50	4292.54
379.70	4856.61
379.89	5455.79
380.09	5614.95
380.28	5806.87
380.48	5851.34
380.68	5626.65
380.87	5657.07
381.07	5158.54
381.26	4627.24
381.46	4484.47
381.65	4170.83
381.85	4219.99
382.04	4065.51
382.24	3751.88
382.43	3548.25
382.63	3405.48
382.83	3440.59
383.02	3353.99
383.22	3473.36
383.41	3541.23
383.61	3651.24
383.80	4184.88
384.00	4802.78
384.19	5425.36
384.39	5584.52
384.58	6022.20
384.78	5483.88
384.97	5675.80
385.17	5313.02
385.36	5039.17
385.56	4868.31
385.75	4964.28
385.95	5394.93
386.14	5975.39
386.34	5959.00
386.53	5664.10
386.72	5284.93
386.92	5315.36
387.11	5518.98
387.31	5930.92
387.50	5956.66
387.70	5666.44
387.89	5437.06
388.09	5565.79
388.28	5603.24
388.48	5748.36
388.67	6078.37
388.86	6635.42
389.06	7075.44
389.25	7674.62
389.45	7702.70
389.64	7414.82
389.84	7583.34
390.03	7372.69
390.22	7510.78
390.42	7700.36
390.61	8250.39
390.81	8760.63
391.00	9067.24
391.19	8929.14
391.39	8697.43
391.58	8011.65
391.78	7623.12
391.97	7183.10
392.16	6644.78
392.36	6099.44
392.55	5039.17
392.75	4088.92
392.94	3300.16
393.13	3073.12
393.33	3810.39
393.52	4678.73
393.71	6031.56
393.91	6743.08
394.10	7377.37
394.29	8065.49
394.49	8528.91
394.68	9235.75
394.88	9053.19
395.07	9724.93
395.26	9544.70
395.46	9064.89
395.65	8533.59
395.84	7700.36
396.04	6551.16
396.23	5310.68
396.42	4510.21
396.62	4095.94
396.81	4945.55
397.00	6258.59
397.19	7810.37
397.39	9345.76
397.58	10445.81
397.77	11286.06
397.97	11559.91
398.16	11775.24
398.35	12030.35
398.55	12512.50
398.74	12961.89
398.93	13181.90
399.12	12908.05
399.32	12453.99
399.51	12725.49
399.70	13778.73
399.90	13720.22
400.09	13523.62
400.28	13334.03
400.47	13767.03
400.67	14113.43
400.86	14415.36
401.05	14375.57
401.24	14600.26
401.44	14923.26
401.63	15119.86
401.82	14796.87
402.01	14707.93
402.21	15082.41
402.40	15414.77
402.59	14609.62
402.78	14171.94
402.97	13586.81
403.17	14190.67
403.36	15152.63
403.55	15744.78
403.74	15857.13
403.93	15447.54
404.13	13851.29
404.32	13682.77
404.51	14373.23
404.70	15419.45
404.89	15393.70
405.09	15180.71
405.28	14626.01
405.47	14618.99
405.66	14633.03
405.85	14359.19
406.05	13867.67
406.24	14059.60
406.43	14787.50
406.62	15353.91
406.81	15311.78
407.00	14850.70
407.20	14342.80
407.39	14548.77
407.58	15300.08
407.77	15957.77
407.96	16442.26
408.15	16765.26
408.34	16547.59
408.54	17568.06
408.73	17678.07
408.92	17165.49
409.11	16929.09
409.30	16102.89
409.49	15051.99
409.68	14057.26
409.87	13518.93
410.07	14553.45
410.26	15419.45
410.45	16718.45
410.64	17018.04
410.83	17404.22
411.02	17795.09
411.21	18625.98
411.40	18445.76
411.59	18340.44
411.78	18047.87
411.98	17996.38
412.17	18778.12
412.36	18162.56
412.55	18436.40
412.74	17776.37
412.93	17125.70
413.12	17930.84
413.31	19051.96
413.50	19192.39
413.69	19662.84
413.88	19035.58
414.07	18237.45
414.26	18483.21
414.45	19014.51
414.64	19569.22
414.83	19365.59
415.02	19110.47
415.22	19204.10
415.41	19426.45
415.60	20027.96
415.79	20863.54
415.98	21160.78
416.17	21266.11
416.36	20879.92
416.55	20355.64
416.74	19983.49
416.93	19353.89
417.12	19309.42
417.31	19229.84
417.50	19435.81
417.69	20699.70
417.88	20259.68
418.07	19976.47
418.26	19920.30
418.45	19892.21
418.64	20877.58
418.83	21378.45
419.02	21319.94
419.21	21132.70
419.39	20032.65
419.58	19143.24
419.77	19014.51
419.96	19854.76
420.15	21085.89
420.34	21633.57
420.53	22457.44
420.72	23033.21
420.91	22817.88
421.10	22712.56
421.29	22342.75
421.48	21324.62
421.67	22675.11
421.86	22113.38
422.05	20826.09
422.24	18387.25
422.43	17935.53
422.61	19824.34
422.80	21551.65
422.99	21572.72
423.18	20938.43
423.37	20350.96
423.56	20404.79
423.75	20692.68
423.94	21298.88
424.13	20018.60
424.32	20615.44
424.50	20533.52
424.69	20058.39
424.88	20482.03
425.07	20467.98
425.26	20299.47
425.45	20060.73
425.64	19370.27
425.83	19550.49
426.01	20805.02
426.20	21235.68
426.39	21200.57
426.58	19487.30
426.77	18246.82
426.96	17432.31
427.15	17867.65
427.33	19620.71
427.52	20276.06
427.71	20542.88
427.90	20411.81
428.09	20128.61
428.28	19278.99
428.46	18834.29
428.65	18293.63
428.84	19147.92
429.03	19630.07
429.22	18235.11
429.40	17444.01
429.59	16133.31
429.78	13947.25
429.97	14012.79
430.16	14195.35
430.34	14464.51
430.53	14298.33
430.72	14501.96
430.91	16243.32
431.10	18860.04
431.28	22434.03
431.47	24442.21
431.66	24622.44
431.85	22260.84
432.03	20463.30
432.22	19145.58
432.41	20247.97
432.60	22436.38
432.79	23084.70
432.97	23985.81
433.16	23372.59
433.35	21640.59
433.54	19199.41
433.72	18059.57
433.91	18450.44
434.10	20664.59
434.28	22141.47
434.47	23447.49
434.66	22925.55
434.85	22492.55
435.03	22429.35
435.22	22977.04
435.41	24510.09
435.59	24676.27
435.78	24938.41
435.97	25397.15
436.16	25582.06
436.34	24999.26
436.53	24566.26
436.72	24840.11
436.90	23527.06
437.09	23229.82
437.28	22892.78
437.46	23470.89
437.65	23508.34
437.84	22295.94
438.02	20400.11
438.21	19847.74
438.40	21249.72
438.58	22815.54
438.77	23744.73
438.96	23892.19
439.14	24821.38
439.33	25352.68
439.52	25832.49
439.70	24959.47
439.89	24765.21
440.08	23896.87
440.26	23885.17
440.45	24369.66
440.63	26274.85
440.82	27725.99
441.01	27283.62
441.19	27105.74
441.38	27491.93
441.57	28563.90
441.75	28505.38
441.94	29191.16
442.12	28790.93
442.31	29626.50
442.50	29256.70
442.68	29139.67
442.87	28678.58
443.05	28259.63
443.24	28753.48
443.43	28919.66
443.61	29968.22
443.80	29886.30
443.98	28486.66
444.17	28147.28
444.35	29759.91
444.54	30441.01
444.73	30394.20
444.91	28996.90
445.10	27704.92
445.28	26771.05
445.47	26258.47
445.65	26345.07
445.84	26913.82
446.02	27936.63
446.21	28180.05
446.39	28371.97
446.58	28896.25
446.77	29406.49
446.95	29432.24
447.14	30597.82
447.32	30855.28
447.51	30424.62
447.69	29198.18
447.88	28762.84
448.06	29032.00
448.25	30218.66
448.43	29996.31
448.62	29345.64
448.80	29331.59
448.99	29827.79
449.17	29708.42
449.36	29848.85
449.54	30869.33
449.73	31295.30
449.91	31840.65
450.10	32802.61
450.28	32856.44
450.46	33036.66
450.65	32596.64
450.83	32589.62
451.02	31557.44
451.20	31562.12
451.39	31772.77
451.57	30930.18
451.76	31232.11
451.94	30969.97
452.13	31077.63
452.31	29696.72
452.49	27810.25
452.68	28507.72
452.86	28257.29
453.05	28823.70
453.23	29490.75
453.42	30197.59
453.60	30941.88
453.78	31047.21
453.97	31206.36
454.15	30810.81
454.34	30120.35
454.52	30195.25
454.70	29853.53
454.89	30335.68
455.07	30424.62
455.26	30876.35
455.44	31796.18
455.62	32598.98
455.81	32552.17
455.99	32416.42
456.17	32009.17
456.36	32084.06
456.54	32954.74
456.73	32884.53
456.91	33703.71
457.09	33448.60
457.28	34366.09
457.46	33055.39
457.64	32723.03
457.83	31789.16
458.01	31239.13
458.19	31728.30
458.38	31615.96
458.56	32837.72
458.74	33041.34
458.93	32533.45
459.11	32793.25
459.29	31807.88
459.48	32163.64
459.66	31997.46
459.84	32278.33
460.03	32765.16
460.21	32545.15
460.39	34022.03
460.57	33268.37
460.76	33965.85
460.94	34139.05
461.12	33780.95
461.31	33488.38
461.49	33284.76
461.67	33268.37
461.85	34433.96
462.04	34476.09
462.22	34794.40
462.40	34909.09
462.59	34440.98
462.77	34293.53
462.95	34373.11
463.13	33776.27
463.32	33778.61
463.50	33645.20
463.68	33509.45
463.86	33675.63
464.05	33081.13
464.23	32528.77
464.41	32318.12
464.59	31793.84
464.78	33514.13
464.96	33364.34
465.14	33130.28
465.32	34036.07
465.50	33984.58
465.69	34890.37
465.87	33998.62
466.05	33130.28
466.23	31505.95
466.41	31269.56
466.60	31625.32
466.78	32477.27
466.96	32840.06
467.14	33251.99
467.32	33841.81
467.51	33710.74
467.69	32149.60
467.87	32886.87
468.05	33331.57
468.23	33186.46
468.41	33343.27
468.60	33331.57
468.78	33785.63
468.96	32952.40
469.14	34071.18
469.32	34265.44
469.50	32898.57
469.69	32741.75
469.87	32383.65
470.05	32292.37
470.23	32383.65
470.41	32603.66
470.59	32837.72
470.77	32823.67
470.95	33404.13
471.14	33902.66
471.32	33820.74
471.50	35861.69
471.68	36039.57
471.86	36163.62
472.04	36088.72
472.22	36243.20
472.40	34639.93
472.58	34464.39
472.77	34181.18
472.95	35201.66
473.13	35945.95
473.31	34656.31
473.49	35204.00
473.67	35695.51
473.85	35683.81
474.03	36465.55
474.21	36683.22
474.39	37364.31
474.57	37408.78
474.75	37514.11
474.93	37479.00
475.12	36261.92
475.30	36072.34
475.48	36112.13
475.66	37024.93
475.84	36456.18
476.02	36112.13
476.20	35990.42
476.38	36432.78
476.56	37322.18
476.74	38459.68
476.92	38232.65
477.10	38878.64
477.28	39578.46
477.46	39660.38
477.64	40289.98
477.82	40177.64
478.00	40343.81
478.18	39798.47
478.36	39756.34
478.54	39613.57
478.72	39866.34
478.90	40879.80
479.08	41731.75
479.26	42473.70
479.44	42232.63
479.62	42171.77
479.80	41989.21
479.98	42457.32
480.16	42366.04
480.34	42162.41
480.52	42787.33
480.70	42745.20
480.88	42546.26
481.06	43283.53
481.24	43856.96
481.41	44432.73
481.59	45113.83
481.77	44835.30
481.95	43847.60
482.13	44196.34
482.31	44137.82
482.49	45483.63
482.67	45034.25
482.85	45614.70
483.03	45860.46
483.21	45991.53
483.39	45605.34
483.57	44949.99
483.74	44823.60
483.92	45106.80
484.10	45441.50
484.28	46642.20
484.46	46979.23
484.64	47344.36
484.82	46274.73
485.00	45757.47
485.18	44914.88
485.35	43709.50
485.53	40538.08
485.71	36926.63
485.89	36580.23
486.07	38455.00
486.25	41750.48
486.43	44470.18
486.61	44854.03
486.78	44715.93
486.96	44891.48
487.14	46784.97
487.32	47683.73
487.50	48500.58
487.68	49462.54
487.85	50155.34
488.03	50351.94
488.21	49542.12
488.39	48552.07
488.57	48098.01
488.75	47641.60
488.92	48680.80
489.10	51278.80
489.28	51955.21
489.46	53179.31
489.64	53127.82
489.81	52996.75
489.99	52765.04
490.17	52603.54
490.35	53078.67
490.53	52779.08
490.70	52435.02
490.88	52432.68
491.06	53286.98
491.24	53249.53
491.41	52229.05
491.59	50286.41
491.77	49886.18
491.95	50789.62
492.13	52165.86
492.30	53249.53
492.48	54419.80
492.66	54611.72
492.84	54438.52
493.01	54204.47
493.19	53701.25
493.37	53333.79
493.54	53380.60
493.72	53764.45
493.90	54707.68
494.08	55688.37
494.25	55957.53
494.43	56112.00
494.61	56212.65
494.79	56420.95
494.96	56137.75
495.14	55508.14
495.32	54628.10
495.49	54265.32
495.67	55203.88
495.85	56437.34
496.02	56652.67
496.20	56664.37
496.38	56079.24
496.55	56226.69
496.73	56521.60
496.91	56561.39
497.09	57254.18
497.26	57406.32
497.44	56975.66
497.62	56498.19
497.79	55625.17
497.97	54372.99
498.14	54574.27
498.32	55667.30
498.50	56467.76
498.67	57080.98
498.85	56966.30
499.03	57279.93
499.20	57511.64
499.38	57453.13
499.56	57237.80
499.73	56704.16
499.91	56385.85
500.08	56182.22
500.26	55136.00
500.44	55557.30
500.61	56324.99
500.79	56158.81
500.97	55817.10
501.14	55365.37
501.32	55592.40
501.49	55515.17
501.67	55753.90
501.84	56076.90
502.02	56451.38
502.20	56926.51
502.37	56931.19
502.55	57095.03
502.72	57553.77
502.90	57726.97
503.07	57591.22
503.25	57441.43
503.43	56633.94
503.60	55566.66
503.78	54904.29
503.95	55437.93
504.13	57139.50
504.30	57794.85
504.48	57513.98
504.65	57233.12
504.83	57305.68
505.01	57942.30
505.18	58300.40
505.36	58834.05
505.53	58838.73
505.71	59040.01
505.88	59032.99
506.06	58511.05
506.23	58176.36
506.41	57888.47
506.58	57907.19
506.76	58089.76
506.93	58024.22
507.11	57797.19
507.28	57869.75
507.46	57525.69
507.63	56804.80
507.81	56568.41
507.98	56863.32
508.16	57539.73
508.33	57909.53
508.50	58309.77
508.68	58951.07
508.85	59030.65
509.03	59171.08
509.20	58934.69
509.38	58255.93
509.55	57553.77
509.73	57696.55
509.90	58047.63
510.08	58333.17
510.25	58356.58
510.42	57963.37
510.60	58061.67
510.77	58265.30
510.95	58955.75
511.12	59049.38
511.30	59161.72
511.47	59325.56
511.64	59348.96
511.82	59194.49
511.99	58408.07
512.17	57874.43
512.34	57635.69
512.51	57729.31
512.69	57914.22
512.86	57968.05
513.04	58459.56
513.21	58475.94
513.38	58117.84
513.56	57535.05
513.73	57188.65
513.90	57190.99
514.08	57183.97
514.25	57612.29
514.43	57829.96
514.60	57801.87
514.77	58127.20
514.95	58162.31
515.12	58003.16
515.29	58220.83
515.47	58480.63
515.64	58969.80
515.81	58747.45
515.99	58068.69
516.16	56757.99
516.33	54087.44
516.51	52870.36
516.68	51845.21
516.85	51744.56
517.03	52182.24
517.20	54482.99
517.37	57083.33
517.54	58148.27
517.72	57745.70
517.89	55372.39
518.06	52788.44
518.24	53085.69
518.41	55311.54
518.58	56889.06
518.75	56889.06
518.93	57162.90
519.10	57003.75
519.27	57406.32
519.45	57726.97
519.62	58440.84
519.79	58567.23
519.96	58379.98
520.14	58138.91
520.31	57174.61
520.48	57214.40
520.65	57427.38
520.83	58520.41
521.00	58894.90
521.17	58623.40
521.34	58185.72
521.52	58232.53
521.69	58946.39
521.86	59437.90
522.03	59004.91
522.20	57935.28
522.38	56956.94
522.55	56839.91
522.72	57401.64
522.89	57640.37
523.07	57865.06
523.24	58082.73
523.41	59065.76
523.58	59150.02
523.75	59606.42
523.92	59540.89
524.10	59480.03
524.27	59337.26
524.44	59257.68
524.61	58962.78
524.78	58930.01
524.96	58766.17
525.13	58773.19
525.30	59032.99
525.47	59473.01
525.64	59449.61
525.81	58843.41
525.98	57293.97
526.16	56011.36
526.33	55107.91
526.50	54681.94
526.67	54314.47
526.84	54972.16
527.01	56268.82
527.18	57092.69
527.36	57801.87
527.53	58562.54
527.70	58876.18
527.87	58225.51
528.04	57886.13
528.21	58220.83
528.38	58930.01
528.55	59639.19
528.72	59774.94
528.89	60055.81
529.07	59714.09
529.24	59107.89
529.41	58377.64
529.58	57827.62
529.75	58080.39
529.92	58314.45
530.09	58848.09
530.26	59250.66
530.43	59522.16
530.60	59489.40
530.77	59887.29
530.94	59898.99
531.11	59465.99
531.28	58986.18
531.46	58930.01
531.63	59091.51
531.80	58869.15
531.97	58368.28
532.14	57750.38
532.31	56882.04
532.48	56329.67
532.65	56317.97
532.82	57043.54
532.99	58166.99
533.16	58508.71
533.33	58997.88
533.50	58845.75
533.67	58286.36
533.84	57752.72
534.01	58145.93
534.18	58120.18
534.35	58340.19
534.52	58204.44
534.69	58553.18
534.86	59051.72
535.03	59009.59
535.20	59281.09
535.37	59849.84
535.54	59721.11
535.71	59473.01
535.88	59201.51
536.05	58674.89
536.22	58265.30
536.38	58028.90
536.55	57392.28
536.72	56898.42
536.89	56860.97
537.06	57598.24
537.23	58562.54
537.40	58864.47
537.57	58702.98
537.74	58391.68
537.91	58468.92
538.08	58396.37
538.25	58419.77
538.42	58717.02
538.59	58653.82
538.75	57670.80
538.92	57563.14
539.09	57544.41
539.26	57308.02
539.43	57158.22
539.60	56987.36
539.77	57329.08
539.94	57291.63
540.11	56523.94
540.28	56044.13
540.44	56072.21
540.61	56140.09
540.78	56643.30
540.95	56858.63
541.12	57308.02
541.29	57467.17
541.46	57820.59
541.62	58159.97
541.79	57731.65
541.96	57216.74
542.13	57102.05
542.30	57408.66
542.47	57668.46
542.63	57389.94
542.80	57137.16
542.97	57261.21
543.14	57017.79
543.31	57256.53
543.48	57687.18
543.64	58585.95
543.81	58897.24
543.98	58520.41
544.15	57741.02
544.32	57387.60
544.48	57242.48
544.65	57689.52
544.82	58288.70
544.99	57954.00
545.16	57441.43
545.32	57347.81
545.49	58166.99
545.66	58578.93
545.83	58028.90
546.00	57745.70
546.16	57415.68
546.33	57502.28
546.50	57530.37
546.67	57738.68
546.83	57631.01
547.00	57338.44
547.17	56982.68
547.34	56409.25
547.50	56222.01
547.67	56699.48
547.84	56760.33
548.00	57176.95
548.17	57420.36
548.34	57497.60
548.51	57270.57
548.67	57502.28
548.84	57469.51
549.01	57457.81
549.18	57392.28
549.34	57118.43
549.51	57249.50
549.68	57230.78
549.84	57216.74
550.01	57045.88
550.18	56823.53
550.34	56807.14
550.51	56858.63
550.68	57024.81
550.84	56566.07
551.01	56605.86
551.18	56722.88
551.34	56647.99
551.51	57263.55
551.68	57305.68
551.84	57460.15
552.01	57160.56
552.18	57069.28
552.34	56456.06
552.51	55976.25
552.68	55737.52
552.84	56360.10
553.01	56662.03
553.18	56722.88
553.34	56858.63
553.51	56750.97
553.67	57080.98
553.84	57139.50
554.01	57139.50
554.17	56676.07
554.34	56842.25
554.51	57113.75
554.67	57272.91
554.84	56956.94
555.00	56853.95
555.17	56722.88
555.33	56460.74
555.50	56336.69
555.67	56500.53
555.83	56303.93
556.00	56011.36
556.16	56114.34
556.33	55526.87
556.50	55573.68
556.66	55561.98
556.83	55304.52
556.99	55430.91
557.16	55540.91
557.32	55798.37
557.49	56076.90
557.65	55690.71
557.82	55992.64
557.98	55854.54
558.15	55363.03
558.32	54930.03
558.48	53783.17
558.65	54012.54
558.81	54078.08
558.98	54504.06
559.14	54780.24
559.31	54838.75
559.47	54623.42
559.64	54436.18
559.80	54120.21
559.97	54108.50
560.13	54541.50
560.30	55648.58
560.46	56151.79
560.63	56355.42
560.79	56217.33
560.96	55765.60
561.12	54796.62
561.29	54157.66
561.45	53897.86
561.61	54471.29
561.78	54883.22
561.94	54616.40
562.11	54513.42
562.27	54649.17
562.44	55121.96
562.60	55105.57
562.77	55517.51
562.93	55421.55
563.10	55281.11
563.26	54724.07
563.42	54698.32
563.59	54305.11
563.75	54499.37
563.92	54478.31
564.08	54375.33
564.24	54969.82
564.41	54740.45
564.57	54630.44
564.74	54698.32
564.90	54408.09
565.07	54372.99
565.23	53961.05
565.39	53216.76
565.56	53216.76
565.72	52736.95
565.88	53261.23
566.05	53291.66
566.21	53712.95
566.38	53970.41
566.54	53745.72
566.70	54082.76
566.87	54775.56
567.03	54351.92
567.19	54597.68
567.36	54293.41
567.52	54202.13
567.68	53827.64
567.85	53235.48
568.01	52973.34
568.17	52240.76
568.34	52470.13
568.50	52369.49
568.66	52636.31
568.83	52947.60
568.99	53202.72
569.15	52954.62
569.32	53404.00
569.48	52727.59
569.64	52692.48
569.81	52722.91
569.97	52205.65
570.13	52226.71
570.30	51973.94
570.46	51491.79
570.62	50731.11
570.78	50553.23
570.95	50742.81
571.11	51629.88
571.27	51973.94
571.43	52320.34
571.60	52236.08
571.76	52573.11
571.92	52954.62
572.09	52926.53
572.25	52896.11
572.41	52715.89
572.57	52772.06
572.74	52963.98
572.90	52467.79
573.06	52638.65
573.22	52348.42
573.38	52186.92
573.55	52224.37
573.71	52589.50
573.87	52509.92
574.03	52231.40
574.20	52175.22
574.36	51636.90
574.52	52177.56
574.68	51667.33
574.84	51208.58
575.01	51058.79
575.17	50604.72
575.33	50768.56
575.49	51374.76
575.65	51297.52
575.82	50920.70
575.98	50651.53
576.14	51325.61
576.30	51461.36
576.46	51400.50
576.62	51428.59
576.79	51278.80
576.95	50906.65
577.11	50623.45
577.27	51077.51
577.43	51166.45
577.59	50927.72
577.75	50340.24
577.92	49738.72
578.08	49556.16
578.24	49563.18
578.40	49956.39
578.56	50071.08
578.72	50307.47
578.88	50415.14
579.04	50897.29
579.21	50625.79
579.37	50745.15
579.53	50852.82
579.69	50466.63
579.85	51040.06
580.01	50377.69
580.17	50361.31
580.33	50134.28
580.49	49972.78
580.65	50358.97
580.82	50475.99
580.98	50710.05
581.14	50717.07
581.30	50564.93
581.46	50351.94
581.62	50803.67
581.78	50471.31
581.94	50843.46
582.10	50630.47
582.26	50656.21
582.42	50988.57
582.58	51049.42
582.74	50604.72
582.90	50841.12
583.06	50721.75
583.22	50396.42
583.38	50391.73
583.54	50389.39
583.70	50164.70
583.86	50586.00
584.02	50286.41
584.18	50574.30
584.34	50136.62
584.50	50277.05
584.66	49932.99
584.82	49684.89
584.98	49359.56
585.14	48931.24
585.30	48624.63
