SpectraSuite Data File
++++++++++++++++++++++++++++++++++++
Date: Mon Oct 07 14:52:54 GMT-05:00 2013
User: price-jones
Dark Spectrum Present: No
Reference Spectrum Present: No
Number of Sampled Component Spectra: 1
Spectrometers: USB2+H05261
Integration Time (usec): 100000 (USB2+H05261)
Spectra Averaged: 1 (USB2+H05261)
Boxcar Smoothing: 0 (USB2+H05261)
Correct for Electrical Dark: No (USB2+H05261)
Strobe/Lamp Enabled: No (USB2+H05261)
Correct for Detector Non-linearity: No (USB2+H05261)
Correct for Stray Light: No (USB2+H05261)
Number of Pixels in Processed Spectrum: 2048
>>>>>Begin Processed Spectral Data<<<<<
365.73	0.00
365.92	0.00
366.12	0.00
366.32	0.00
366.52	0.00
366.72	0.00
366.91	0.00
367.11	0.00
367.31	0.00
367.51	0.00
367.70	0.00
367.90	0.00
368.10	0.00
368.30	0.00
368.49	0.00
368.69	0.00
368.89	0.00
369.09	0.00
369.28	0.00
369.48	0.00
369.68	0.00
369.87	0.00
370.07	0.00
370.27	0.00
370.47	510.24
370.66	2810.98
370.86	3375.05
371.06	3777.62
371.25	3524.85
371.45	3353.99
371.65	2979.50
371.84	2717.36
372.04	2923.33
372.24	3363.35
372.44	3361.01
372.63	3361.01
372.83	3133.98
373.03	2761.83
373.22	2537.14
373.42	2780.56
373.62	3126.96
373.81	3365.69
374.01	3239.30
374.21	2977.16
374.40	2965.46
374.60	2953.76
374.79	3438.25
374.99	3960.19
375.19	4217.65
375.38	4222.33
375.58	3967.21
375.78	3899.33
375.97	3936.78
376.17	4121.68
376.37	4168.49
376.56	4161.47
376.76	4470.42
376.95	4634.26
377.15	5053.22
377.35	5221.74
377.54	5614.95
377.74	5579.84
377.93	5542.39
378.13	5526.00
378.33	5125.77
378.52	4702.14
378.72	4461.06
378.91	4449.36
379.11	4362.76
379.31	4271.48
379.50	4255.09
379.70	4552.34
379.89	5118.75
380.09	5273.23
380.28	5621.97
380.48	5401.96
380.68	5369.19
380.87	5273.23
381.07	4837.89
381.26	4510.21
381.46	4114.66
381.65	4014.02
381.85	3974.23
382.04	3733.15
382.24	3550.59
382.43	3300.16
382.63	3316.54
382.83	3286.11
383.02	3288.45
383.22	3255.69
383.41	3279.09
383.61	3592.72
383.80	4128.70
384.00	4667.03
384.19	5158.54
384.39	5563.45
384.58	5425.36
384.78	5188.97
384.97	5313.02
385.17	4985.34
385.36	4655.33
385.56	4503.19
385.75	4737.24
385.95	5160.88
386.14	5605.58
386.34	5631.33
386.53	5287.27
386.72	5125.77
386.92	5036.83
387.11	5357.49
387.31	5769.42
387.50	5540.05
387.70	5296.63
387.89	5144.50
388.09	5228.76
388.28	5287.27
388.48	5523.66
388.67	5846.66
388.86	6375.62
389.06	6799.26
389.25	7227.57
389.45	7304.81
389.64	7293.11
389.84	7075.44
390.03	7066.08
390.22	7152.68
390.42	7342.26
390.61	7714.41
390.81	8397.84
391.00	8400.18
391.19	8287.84
391.39	8168.47
391.58	7557.59
391.78	7082.46
391.97	6782.87
392.16	6436.47
392.36	5811.55
392.55	4704.48
392.75	3672.30
392.94	3129.30
393.13	3096.53
393.33	3700.39
393.52	4578.09
393.71	5722.61
393.91	6630.74
394.10	7007.56
394.29	7768.24
394.49	8119.32
394.68	8997.02
394.88	9006.38
395.07	9270.86
395.26	8999.36
395.46	8781.69
395.65	8264.43
395.84	7302.47
396.04	6078.37
396.23	4863.63
396.42	4231.69
396.62	4072.53
396.81	4702.14
397.00	6223.48
397.19	7726.11
397.39	8985.32
397.58	10026.86
397.77	10714.97
397.97	11201.80
398.16	11267.34
398.35	11669.91
398.55	11981.20
398.74	12524.21
398.93	12781.67
399.12	12329.94
399.32	11763.53
399.51	12198.87
399.70	13256.79
399.90	12912.74
400.09	13214.66
400.28	12758.26
400.47	13055.51
400.67	13762.35
400.86	13977.68
401.05	13994.06
401.24	13867.67
401.44	14422.38
401.63	14326.42
401.82	14476.21
402.01	14253.86
402.21	14391.95
402.40	14527.71
402.59	14263.22
402.78	13399.57
402.97	13289.56
403.17	13898.10
403.36	14314.72
403.55	15150.29
403.74	15367.96
403.93	14640.05
404.13	13371.48
404.32	13172.54
404.51	13891.08
404.70	14932.62
404.89	14831.97
405.09	14736.01
405.28	14141.52
405.47	13989.38
405.66	14448.13
405.85	13834.91
406.05	13219.35
406.24	13537.66
406.43	14303.01
406.62	14532.39
406.81	14946.66
407.00	14305.35
407.20	14122.79
407.39	14171.94
407.58	14986.45
407.77	15246.25
407.96	16009.26
408.15	15922.66
408.34	16077.14
408.54	16812.07
408.73	16816.75
408.92	16664.61
409.11	16196.51
409.30	15094.11
409.49	14317.06
409.68	13635.96
409.87	13104.66
410.07	14263.22
410.26	15176.03
410.45	16016.29
410.64	16376.73
410.83	17135.06
411.02	17380.82
411.21	18160.22
411.40	17554.02
411.59	17942.55
411.78	17614.87
411.98	17483.80
412.17	18026.81
412.36	17530.61
412.55	17568.06
412.74	17076.55
412.93	16837.81
413.12	17069.53
413.31	18572.15
413.50	18740.67
413.69	18995.79
413.88	18003.40
414.07	17858.29
414.26	18155.54
414.45	18377.89
414.64	18874.08
414.83	19164.31
415.02	18562.79
415.22	18518.32
415.41	19009.83
415.60	19730.72
415.79	20587.35
415.98	20622.46
416.17	20884.60
416.36	20348.62
416.55	19943.70
416.74	19318.78
416.93	18408.31
417.12	18525.34
417.31	19105.79
417.50	19243.88
417.69	19932.00
417.88	19819.66
418.07	19967.11
418.26	19520.07
418.45	19784.55
418.64	20203.50
418.83	21048.44
419.02	20676.29
419.21	19943.70
419.39	19651.14
419.58	18703.22
419.77	18855.36
419.96	19580.92
420.15	20641.18
420.34	21219.30
420.53	22134.45
420.72	22246.79
420.91	21874.65
421.10	21666.34
421.29	21348.03
421.48	21156.10
421.67	21869.97
421.86	21366.75
422.05	20016.26
422.24	17783.39
422.43	17481.46
422.61	19674.54
422.80	21235.68
422.99	21607.83
423.18	20198.82
423.37	20081.80
423.56	20013.92
423.75	20580.33
423.94	20608.42
424.13	19779.87
424.32	19924.98
424.50	20297.13
424.69	19824.34
424.88	20280.74
425.07	19662.84
425.26	19704.97
425.45	19353.89
425.64	19452.19
425.83	19033.24
426.01	20547.56
426.20	20744.17
426.39	20140.31
426.58	19349.21
426.77	17825.52
426.96	17132.72
427.15	18113.41
427.33	19466.24
427.52	19805.61
427.71	20098.18
427.90	19786.89
428.09	19440.49
428.28	19213.46
428.46	18429.38
428.65	18515.98
428.84	18932.59
429.03	18750.03
429.22	17762.33
429.40	17132.72
429.59	15543.50
429.78	13568.09
429.97	13645.32
430.16	13998.74
430.34	14214.07
430.53	14122.79
430.72	14319.40
430.91	16095.86
431.10	18860.04
431.28	22209.34
431.47	23613.66
431.66	23960.06
431.85	21893.37
432.03	19922.64
432.22	19487.30
432.41	20219.89
432.60	22438.72
432.79	23168.96
432.97	23400.68
433.16	22932.57
433.35	21018.01
433.54	18927.91
433.72	17940.21
433.91	18218.73
434.10	20603.74
434.28	22265.52
434.47	23005.13
434.66	22684.47
434.85	22059.55
435.03	22270.20
435.22	22897.46
435.41	23885.17
435.59	24374.34
435.78	24617.75
435.97	25132.67
436.16	25109.27
436.34	24748.82
436.53	24194.12
436.72	24304.12
436.90	23332.80
437.09	22984.06
437.28	22693.83
437.46	23351.52
437.65	23412.38
437.84	22040.82
438.02	20020.94
438.21	19756.46
438.40	21174.83
438.58	22740.64
438.77	23407.70
438.96	23695.58
439.14	24858.83
439.33	25074.16
439.52	25525.88
439.70	25092.88
439.89	24369.66
440.08	24203.48
440.26	24020.92
440.45	24793.29
440.63	26536.99
440.82	27840.67
441.01	26993.40
441.19	27049.57
441.38	27494.27
441.57	28283.03
441.75	29020.30
441.94	29425.22
442.12	28411.76
442.31	29198.18
442.50	29275.42
442.68	28865.83
442.87	28666.88
443.05	27976.42
443.24	28706.67
443.43	29383.09
443.61	29762.25
443.80	30103.97
443.98	28362.61
444.17	28247.93
444.35	30024.39
444.54	30579.10
444.73	30050.14
444.91	28676.24
445.10	27765.78
445.28	26665.72
445.47	26127.40
445.65	26504.23
445.84	27171.28
446.02	27990.47
446.21	28407.08
446.39	28603.69
446.58	28753.48
446.77	29628.84
446.95	29397.13
447.14	30756.98
447.32	31330.41
447.51	29851.19
447.69	29296.49
447.88	28622.41
448.06	29795.02
448.25	29867.58
448.43	30127.38
448.62	29268.40
448.80	29326.91
448.99	29909.71
449.17	29872.26
449.36	29771.61
449.54	31409.99
449.73	31529.36
449.91	32116.83
450.10	33031.98
450.28	33247.31
450.46	33029.64
450.65	33010.92
450.83	32776.86
451.02	31732.98
451.20	31667.45
451.39	31854.69
451.57	31377.22
451.76	31693.19
451.94	31613.62
452.13	31180.62
452.31	29448.62
452.49	28215.16
452.68	28772.21
452.86	28587.30
453.05	29111.58
453.23	30118.01
453.42	30401.22
453.60	31349.14
453.78	31049.55
453.97	31201.68
454.15	31229.77
454.34	30651.66
454.52	30745.28
454.70	30251.42
454.89	30005.67
455.07	30768.68
455.26	31585.53
455.44	32381.31
455.62	33071.77
455.81	32730.05
455.99	32278.33
456.17	32601.32
456.36	32505.36
456.54	33144.33
456.73	33069.43
456.91	34045.43
457.09	33738.82
457.28	34733.55
457.46	33207.52
457.64	33469.66
457.83	31995.12
458.01	31494.25
458.19	32130.87
458.38	32362.59
458.56	33560.94
458.74	33394.76
458.93	32861.12
459.11	32631.75
459.29	32671.54
459.48	32786.22
459.66	32486.64
459.84	32929.00
460.03	33441.57
460.21	33031.98
460.39	34078.20
460.57	33560.94
460.76	34550.99
460.94	34520.56
461.12	33923.72
461.31	33902.66
461.49	34167.14
461.67	34412.90
461.85	35622.95
462.04	34644.61
462.22	35292.94
462.40	35026.12
462.59	34630.57
462.77	35061.22
462.95	34843.56
463.13	34782.70
463.32	34450.35
463.50	34260.76
463.68	34230.33
463.86	34455.03
464.05	33827.76
464.23	33132.62
464.41	32912.61
464.59	32704.31
464.78	34316.93
464.96	33792.65
465.14	33413.49
465.32	34527.58
465.50	35519.97
465.69	35349.11
465.87	35019.10
466.05	34417.58
466.23	32556.85
466.41	31501.27
466.60	32919.63
466.78	32753.46
466.96	33383.06
467.14	34169.48
467.32	33986.92
467.51	34417.58
467.69	32285.35
467.87	33062.41
468.05	34038.41
468.23	34295.87
468.41	34246.72
468.60	34153.10
468.78	34419.92
468.96	33677.97
469.14	34932.50
469.32	34834.19
469.50	33174.75
469.69	33883.94
469.87	33092.83
470.05	33104.54
470.23	33310.50
470.41	33537.54
470.59	33455.62
470.77	33706.05
470.95	34820.15
471.14	34878.66
471.32	35115.06
471.50	36802.58
471.68	37043.66
471.86	37331.54
472.04	37462.61
472.22	37633.47
472.40	35445.07
472.58	35379.54
472.77	35098.67
472.95	35473.16
473.13	36844.71
473.31	35353.79
473.49	36006.80
473.67	36655.13
473.85	36629.38
474.03	37947.11
474.21	37888.59
474.39	37998.60
474.57	38679.69
474.75	38354.36
474.93	38330.95
475.12	37123.24
475.30	37427.51
475.48	37523.47
475.66	38089.88
475.84	37249.63
476.02	37308.14
476.20	36657.47
476.38	37691.99
476.56	38735.87
476.74	38897.36
476.92	39171.21
477.10	39800.81
477.28	40694.89
477.46	40467.86
477.64	41109.17
477.82	41343.22
478.00	41528.13
478.18	40863.41
478.36	41008.53
478.54	40975.76
478.72	41338.54
478.90	42466.68
479.08	43201.61
479.26	43847.60
479.44	43508.22
479.62	43037.77
479.80	43019.05
479.98	43445.02
480.16	43866.32
480.34	43351.40
480.52	44341.45
480.70	44329.75
480.88	43990.37
481.06	44999.14
481.24	45406.39
481.41	46054.72
481.59	46506.44
481.77	46010.25
481.95	45750.45
482.13	45528.10
482.31	45446.18
482.49	46248.99
482.67	46787.31
482.85	46712.41
483.03	47304.57
483.21	47255.42
483.39	47129.03
483.57	46513.47
483.74	46337.93
483.92	46560.28
484.10	46958.17
484.28	47714.16
484.46	48088.65
484.64	48568.46
484.82	47494.15
485.00	47119.66
485.18	46246.65
485.35	44985.10
485.53	42199.86
485.71	38157.75
485.89	38026.68
486.07	40212.74
486.25	43576.09
486.43	45553.85
486.61	46293.46
486.78	45832.37
486.96	46733.48
487.14	48065.24
487.32	49001.46
487.50	49991.50
487.68	50674.94
487.85	51395.82
488.03	51131.34
488.21	50604.72
488.39	49769.15
488.57	49354.88
488.75	49083.37
488.92	50504.08
489.10	52662.05
489.28	53701.25
489.46	54593.00
489.64	54017.22
489.81	54419.80
489.99	54178.72
490.17	54178.72
490.35	54199.79
490.53	53792.53
490.70	53633.38
490.88	53675.51
491.06	54485.33
491.24	54136.59
491.41	53413.37
491.59	51494.13
491.77	50972.19
491.95	52287.57
492.13	53240.17
492.30	54417.46
492.48	55271.75
492.66	55920.08
492.84	55702.41
493.01	55620.49
493.19	54911.31
493.37	54571.93
493.54	54536.82
493.72	55285.79
493.90	56147.11
494.08	56662.03
494.25	57076.30
494.43	57092.69
494.61	57588.88
494.79	57762.08
494.96	57319.72
495.14	56671.39
495.32	55854.54
495.49	55487.08
495.67	56519.26
495.85	57855.70
496.02	58085.07
496.20	57930.60
496.38	57488.24
496.55	57336.10
496.73	57932.94
496.91	57846.34
497.09	58501.69
497.26	58576.59
497.44	58085.07
497.62	57509.30
497.79	56837.57
497.97	55585.38
498.14	56123.71
498.32	57024.81
498.50	57762.08
498.67	58239.55
498.85	58108.48
499.03	58422.11
499.20	58567.23
499.38	58642.12
499.56	58548.50
499.73	58082.73
499.91	57719.95
500.08	57162.90
500.26	56371.80
500.44	56961.62
500.61	57560.79
500.79	57469.51
500.97	57104.39
501.14	56985.02
501.32	56905.44
501.49	56868.00
501.67	57111.41
501.84	57570.16
502.02	57633.35
502.20	58143.59
502.37	58443.18
502.55	58471.26
502.72	58976.82
502.90	59339.60
503.07	58955.75
503.25	58625.74
503.43	57387.60
503.60	57125.46
503.78	56486.49
503.95	57226.10
504.13	58288.70
504.30	59002.56
504.48	58834.05
504.65	58684.25
504.83	58616.38
505.01	59140.66
505.18	59564.29
505.36	60062.83
505.53	60175.17
505.71	60430.29
505.88	60397.52
506.06	59667.28
506.23	59473.01
506.41	59178.10
506.58	59367.69
506.76	59353.65
506.93	59220.23
507.11	59128.95
507.28	59185.13
507.46	58588.29
507.63	58307.43
507.81	58021.88
507.98	58213.80
508.16	59068.10
508.33	59353.65
508.50	59908.35
508.68	59803.03
508.85	60542.64
509.03	60542.64
509.20	60200.92
509.38	59295.13
509.55	58972.14
509.73	59138.32
509.90	59627.49
510.08	59739.83
510.25	59723.45
510.42	59641.53
510.60	59494.08
510.77	59625.15
510.95	60289.86
511.12	60465.40
511.30	60781.37
511.47	61010.74
511.64	60795.42
511.82	60484.12
511.99	59870.90
512.17	59339.60
512.34	59215.55
512.51	59444.93
512.69	59416.84
512.86	59753.88
513.04	60032.40
513.21	59887.29
513.38	59700.04
513.56	59250.66
513.73	58543.82
513.90	58815.32
514.08	58777.87
514.25	59157.04
514.43	59370.03
514.60	59407.48
514.77	59229.60
514.95	59601.74
515.12	59601.74
515.29	59690.68
515.47	60280.50
515.64	60275.82
515.81	59987.93
515.99	59456.63
516.16	58056.99
516.33	55994.98
516.51	54838.75
516.68	53832.32
516.85	53331.45
517.03	54211.49
517.20	56643.30
517.37	58817.66
517.54	59779.62
517.72	59011.93
517.89	56800.12
518.06	54831.73
518.24	54965.14
518.41	57202.69
518.58	58197.42
518.75	58464.24
518.93	58731.06
519.10	58756.81
519.27	59082.14
519.45	59248.32
519.62	59959.84
519.79	60055.81
519.96	59828.77
520.14	59449.61
520.31	58660.85
520.48	58852.77
520.65	59217.89
520.83	60013.68
521.00	60341.35
521.17	60023.04
521.34	59714.09
521.52	59880.27
521.69	60544.98
521.86	60729.88
522.03	60488.80
522.20	59508.12
522.38	58899.58
522.55	58511.05
522.72	59171.08
522.89	59278.75
523.07	59405.14
523.24	59847.50
523.41	60491.15
523.58	60987.34
523.75	61303.31
523.92	60940.53
524.10	61031.81
524.27	61113.73
524.44	60921.80
524.61	60856.27
524.78	60467.74
524.96	60537.96
525.13	60624.56
525.30	60790.73
525.47	61176.92
525.64	61071.60
525.81	60346.03
525.98	59040.01
526.16	57668.46
526.33	57254.18
526.50	56788.42
526.67	56474.79
526.84	57244.82
527.01	57846.34
527.18	58789.58
527.36	59756.22
527.53	60629.24
527.70	60453.70
527.87	60179.85
528.04	59629.83
528.21	60339.01
528.38	60741.58
528.55	61188.63
528.72	61497.58
528.89	61553.75
529.07	61293.95
529.24	60886.70
529.41	60154.11
529.58	59686.00
529.75	60037.08
529.92	60126.02
530.09	60610.51
530.26	61034.15
530.43	61312.67
530.60	61284.59
530.77	61427.36
530.94	61471.83
531.11	61137.13
531.28	60821.16
531.46	60685.41
531.63	60865.63
531.80	60519.23
531.97	60226.66
532.14	59627.49
532.31	58277.00
532.48	57977.41
532.65	58295.72
532.82	58948.73
532.99	59955.16
533.16	60385.82
533.33	60800.10
533.50	60800.10
533.67	59985.59
533.84	59501.10
534.01	60030.06
534.18	60069.85
534.35	60226.66
534.52	60039.42
534.69	60449.02
534.86	60622.22
535.03	60755.63
535.20	61338.42
535.37	61584.18
535.54	61715.25
535.71	61127.77
535.88	60968.61
536.05	60233.69
536.22	60006.65
536.38	59845.16
536.55	59353.65
536.72	58855.11
536.89	58855.11
537.06	59765.58
537.23	60477.10
537.40	60769.67
537.57	60729.88
537.74	60280.50
537.91	60264.11
538.08	60446.68
538.25	60317.95
538.42	60512.21
538.59	60285.18
538.75	59662.60
538.92	59344.28
539.09	59323.22
539.26	59297.47
539.43	59096.19
539.60	59124.27
539.77	59260.02
539.94	59079.80
540.11	58288.70
540.28	58103.80
540.44	58394.03
540.61	58419.77
540.78	58506.37
540.95	58946.39
541.12	59430.88
541.29	59583.02
541.46	59894.31
541.62	60037.08
541.79	59770.26
541.96	59107.89
542.13	59114.91
542.30	59646.21
542.47	59758.56
542.63	59157.04
542.80	59196.83
542.97	59384.07
543.14	59309.18
543.31	59351.30
543.48	59693.02
543.64	60563.70
543.81	60647.96
543.98	60313.26
544.15	59711.75
544.32	59510.46
544.48	59641.53
544.65	59854.52
544.82	60053.47
544.99	59868.56
545.16	59587.70
545.32	59262.36
545.49	60104.96
545.66	60247.73
545.83	59929.42
546.00	59831.11
546.16	59538.55
546.33	59494.08
546.50	59412.16
546.67	59693.02
546.83	59454.29
547.00	59576.00
547.17	58855.11
547.34	58466.58
547.50	58260.62
547.67	58824.68
547.84	58979.16
548.00	59229.60
548.17	59817.07
548.34	59358.33
548.51	59489.40
548.67	59718.77
548.84	59451.95
549.01	59437.90
549.18	59433.22
549.34	59571.32
549.51	59494.08
549.68	59337.26
549.84	58958.09
550.01	59021.29
550.18	59189.81
550.34	59124.27
550.51	59030.65
550.68	59140.66
550.84	58618.72
551.01	58869.15
551.18	58983.84
551.34	58958.09
551.51	59220.23
551.68	59700.04
551.84	59381.73
552.01	59318.54
552.18	58883.20
552.34	58408.07
552.51	58204.44
552.68	58195.08
552.84	58759.15
553.01	59028.31
553.18	58667.87
553.34	58834.05
553.51	59119.59
553.67	59388.75
553.84	59281.09
554.01	59131.29
554.17	59100.87
554.34	59117.25
554.51	59238.96
554.67	59608.76
554.84	59334.92
555.00	58894.90
555.17	58763.83
555.33	58745.11
555.50	58728.72
555.67	58801.28
555.83	58623.40
556.00	58241.89
556.16	58457.22
556.33	58087.42
556.50	57951.66
556.66	57993.79
556.83	57750.38
556.99	57703.57
557.16	57921.24
557.32	58181.04
557.49	58422.11
557.65	58127.20
557.82	58117.84
557.98	58066.35
558.15	57846.34
558.32	56947.57
558.48	56271.16
558.65	56460.74
558.81	56736.93
558.98	57118.43
559.14	57343.12
559.31	57024.81
559.47	57361.85
559.64	56973.32
559.80	56673.73
559.97	56795.44
560.13	57148.86
560.30	58150.61
560.46	58286.36
560.63	58698.30
560.79	58763.83
560.96	58209.12
561.12	57261.21
561.29	56240.73
561.45	56488.83
561.61	57160.56
561.78	57565.48
561.94	57380.57
562.11	57233.12
562.27	57385.25
562.44	57324.40
562.60	57628.67
562.77	57961.03
562.93	57729.31
563.10	57914.22
563.26	56992.04
563.42	57102.05
563.59	56963.96
563.75	56879.70
563.92	57226.10
564.08	56968.64
564.24	57324.40
564.41	57542.07
564.57	57389.94
564.74	57205.03
564.90	57104.39
565.07	56488.83
565.23	56523.94
565.39	55831.14
565.56	55695.39
565.72	55749.22
565.88	55957.53
566.05	56186.90
566.21	56200.94
566.38	56458.40
566.54	56310.95
566.70	56795.44
566.87	57043.54
567.03	56882.04
567.19	56954.60
567.36	57045.88
567.52	56788.42
567.68	56530.96
567.85	55915.40
568.01	55519.85
568.17	55201.53
568.34	55217.92
568.50	55231.96
568.66	55217.92
568.83	55639.22
568.99	55817.10
569.15	55966.89
569.32	55955.19
569.48	55709.43
569.64	55430.91
569.81	55271.75
569.97	55304.52
570.13	55152.38
570.30	54569.59
570.46	54262.98
570.62	53921.26
570.78	53670.82
570.95	53965.73
571.11	54700.66
571.27	54794.28
571.43	55292.82
571.60	55791.35
571.76	55643.90
571.92	56114.34
572.09	55973.91
572.25	55868.59
572.41	55756.24
572.57	55433.25
572.74	55690.71
572.90	55517.51
573.06	55206.22
573.22	55262.39
573.38	55351.33
573.55	55257.71
573.71	55561.98
573.87	55356.01
574.03	55374.73
574.20	55014.29
574.36	54593.00
574.52	54843.43
574.68	54756.83
574.84	54075.74
575.01	53970.41
575.17	54021.90
575.33	54028.93
575.49	54656.19
575.65	54447.88
575.82	54499.37
575.98	54040.63
576.14	54047.65
576.30	54543.84
576.46	54562.57
576.62	54555.55
576.79	54588.31
576.95	54223.19
577.11	54206.81
577.27	54281.70
577.43	54340.22
577.59	53977.43
577.75	53221.44
577.92	53123.14
578.08	52802.49
578.24	52954.62
578.40	53029.52
578.56	53364.21
578.72	53378.26
578.88	53703.59
579.04	53769.13
579.21	54003.18
579.37	53947.01
579.53	53937.65
579.69	53815.94
579.85	54106.16
580.01	53982.12
580.17	53495.28
580.33	53549.12
580.49	53614.65
580.65	53951.69
580.82	53818.28
580.98	54057.01
581.14	53982.12
581.30	54021.90
581.46	53521.03
581.62	53954.03
581.78	54183.40
581.94	53902.54
582.10	54183.40
582.26	54316.81
582.42	53881.47
582.58	53858.07
582.74	54057.01
582.90	54085.10
583.06	53991.48
583.22	53867.43
583.38	53801.89
583.54	53701.25
583.70	53844.02
583.86	53865.09
584.02	53567.84
584.18	53881.47
584.34	53551.46
584.50	53586.57
584.66	53322.08
584.82	52924.19
584.98	53038.88
585.14	52804.83
585.30	51856.91
