SpectraSuite Data File
++++++++++++++++++++++++++++++++++++
Date: Mon Oct 07 14:53:25 GMT-05:00 2013
User: price-jones
Dark Spectrum Present: No
Reference Spectrum Present: No
Number of Sampled Component Spectra: 1
Spectrometers: USB2+H05261
Integration Time (usec): 100000 (USB2+H05261)
Spectra Averaged: 1 (USB2+H05261)
Boxcar Smoothing: 0 (USB2+H05261)
Correct for Electrical Dark: No (USB2+H05261)
Strobe/Lamp Enabled: No (USB2+H05261)
Correct for Detector Non-linearity: No (USB2+H05261)
Correct for Stray Light: No (USB2+H05261)
Number of Pixels in Processed Spectrum: 2048
>>>>>Begin Processed Spectral Data<<<<<
365.73	0.00
365.92	0.00
366.12	0.00
366.32	0.00
366.52	0.00
366.72	0.00
366.91	0.00
367.11	0.00
367.31	0.00
367.51	0.00
367.70	0.00
367.90	0.00
368.10	0.00
368.30	0.00
368.49	0.00
368.69	0.00
368.89	0.00
369.09	0.00
369.28	0.00
369.48	0.00
369.68	0.00
369.87	0.00
370.07	0.00
370.27	0.00
370.47	430.66
370.66	2628.42
370.86	2981.84
371.06	3272.07
371.25	3452.29
371.45	3124.62
371.65	2750.13
371.84	2614.38
372.04	2794.60
372.24	3033.33
372.44	3332.92
372.63	3119.93
372.83	2913.97
373.03	2602.68
373.22	2455.22
373.42	2480.97
373.62	2925.67
373.81	3101.21
374.01	3169.09
374.21	2750.13
374.40	2640.12
374.60	2696.30
374.79	2986.52
374.99	3576.34
375.19	3882.95
375.38	3974.23
375.58	3557.61
375.78	3590.38
375.97	3705.07
376.17	3740.18
376.37	3777.62
376.56	3950.82
376.76	4053.81
376.95	4294.88
377.15	4674.05
377.35	4791.08
377.54	5085.98
377.74	5373.87
377.93	5107.05
378.13	4973.64
378.33	4788.74
378.52	4442.34
378.72	4278.50
378.91	4109.98
379.11	4030.40
379.31	3852.52
379.50	4065.51
379.70	4215.30
379.89	4765.33
380.09	5053.22
380.28	5121.09
380.48	5015.77
380.68	4933.85
380.87	4968.96
381.07	4449.36
381.26	4133.39
381.46	3922.74
381.65	3878.27
381.85	3716.77
382.04	3531.87
382.24	3176.11
382.43	3133.98
382.63	2981.84
382.83	3159.72
383.02	3073.12
383.22	3162.06
383.41	3047.38
383.61	3356.33
383.80	3904.01
384.00	4168.49
384.19	4807.46
384.39	5111.73
384.58	5013.43
384.78	5004.07
384.97	4873.00
385.17	4760.65
385.36	4568.73
385.56	4229.35
385.75	4416.59
385.95	4713.84
386.14	5116.41
386.34	5284.93
386.53	5139.82
386.72	4807.46
386.92	4741.93
387.11	5062.58
387.31	5221.74
387.50	5160.88
387.70	4987.68
387.89	4854.27
388.09	4870.65
388.28	5062.58
388.48	5273.23
388.67	5324.72
388.86	6059.65
389.06	6347.53
389.25	6710.32
389.45	6855.43
389.64	6869.47
389.84	6686.91
390.03	6541.80
390.22	6649.46
390.42	6693.93
390.61	7136.29
390.81	7723.77
391.00	7765.90
391.19	7770.58
391.39	7470.99
391.58	7136.29
391.78	6710.32
391.97	6504.35
392.16	6073.69
392.36	5528.35
392.55	4447.02
392.75	3602.08
392.94	2932.69
393.13	2855.45
393.33	3304.84
393.52	4278.50
393.71	5144.50
393.91	6022.20
394.10	6424.77
394.29	7103.53
394.49	7538.87
394.68	8217.62
394.88	8056.12
395.07	8421.25
395.26	8468.06
395.46	8147.40
395.65	7611.42
395.84	6642.44
396.04	5837.30
396.23	4652.98
396.42	3934.44
396.62	3808.05
396.81	4461.06
397.00	5575.16
397.19	6965.43
397.39	8210.60
397.58	9362.14
397.77	10127.50
397.97	10335.81
398.16	10504.32
398.35	11000.52
398.55	11073.07
398.74	11496.71
398.93	11885.24
399.12	11412.45
399.32	11082.44
399.51	11386.71
399.70	12149.72
399.90	12154.40
400.09	12191.85
400.28	11796.30
400.47	12252.70
400.67	12681.02
400.86	12924.44
401.05	12802.73
401.24	12891.67
401.44	13149.13
401.63	12912.74
401.82	13280.20
402.01	13336.37
402.21	13394.89
402.40	13551.70
402.59	13008.70
402.78	12184.83
402.97	11974.18
403.17	12507.82
403.36	13462.76
403.55	14146.20
403.74	14656.43
403.93	13556.38
404.13	12397.82
404.32	12002.27
404.51	12882.31
404.70	13668.73
404.89	13568.09
405.09	13549.36
405.28	12908.05
405.47	13081.25
405.66	12886.99
405.85	12809.75
406.05	12400.16
406.24	12641.23
406.43	13069.55
406.62	13605.53
406.81	13507.23
407.00	13156.15
407.20	13057.85
407.39	13207.64
407.58	13713.20
407.77	14298.33
407.96	14801.55
408.15	14537.07
408.34	14560.47
408.54	15524.77
408.73	15473.28
408.92	15379.66
409.11	14820.27
409.30	14211.73
409.49	13540.00
409.68	12535.91
409.87	12060.78
410.07	13022.74
410.26	13914.48
410.45	14883.47
410.64	15033.26
410.83	15602.01
411.02	15899.26
411.21	16362.69
411.40	16465.67
411.59	16418.86
411.78	16049.05
411.98	16161.40
412.17	16547.59
412.36	16460.99
412.55	16173.10
412.74	15719.04
412.93	15344.55
413.12	15482.64
413.31	17493.16
413.50	17497.84
413.69	17458.06
413.88	16697.38
414.07	16421.20
414.26	16336.94
414.45	17071.87
414.64	17195.92
414.83	17032.08
415.02	16936.12
415.22	16933.78
415.41	17289.54
415.60	17738.92
415.79	18583.85
415.98	19035.58
416.17	18960.68
416.36	18693.86
416.55	18174.26
416.74	17715.51
416.93	17078.89
417.12	17027.40
417.31	17132.72
417.50	17851.27
417.69	18263.20
417.88	18183.62
418.07	17912.12
418.26	17413.59
418.45	17598.49
418.64	18581.51
418.83	19271.97
419.02	19103.45
419.21	18703.22
419.39	17722.54
419.58	17006.33
419.77	17163.15
419.96	17799.77
420.15	18941.96
420.34	19552.84
420.53	20051.37
420.72	20556.93
420.91	20238.61
421.10	20217.55
421.29	19606.67
421.48	18911.53
421.67	20105.20
421.86	19225.16
422.05	18331.08
422.24	16599.08
422.43	16313.53
422.61	17928.50
422.80	19599.65
422.99	19384.32
423.18	18853.02
423.37	18277.24
423.56	18553.43
423.75	18979.40
423.94	19190.05
424.13	18150.85
424.32	18185.96
424.50	18097.02
424.69	18094.68
424.88	18008.08
425.07	18120.43
425.26	18001.06
425.45	17898.08
425.64	17380.82
425.83	17493.16
426.01	18773.44
426.20	19021.53
426.39	19058.98
426.58	17596.15
426.77	15995.22
426.96	15660.52
427.15	15929.69
427.33	17631.26
427.52	18513.64
427.71	18239.79
427.90	18146.17
428.09	17935.53
428.28	17642.96
428.46	16769.94
428.65	16975.91
428.84	16882.28
429.03	17551.68
429.22	16580.36
429.40	15936.71
429.59	14291.31
429.78	12538.25
429.97	12416.54
430.16	12769.96
430.34	12830.82
430.53	12676.34
430.72	13020.40
430.91	14307.69
431.10	16950.16
431.28	20390.75
431.47	21802.09
431.66	21935.50
431.85	19754.12
432.03	18221.07
432.22	17631.26
432.41	18476.19
432.60	20390.75
432.79	21184.19
432.97	21336.32
433.16	20865.88
433.35	19183.03
433.54	17472.10
433.72	16491.41
433.91	16727.81
434.10	18735.99
434.28	20030.30
434.47	21055.46
434.66	20781.62
434.85	20121.59
435.03	20049.03
435.22	20779.28
435.41	21961.25
435.59	21668.68
435.78	22328.71
435.97	22792.14
436.16	23131.51
436.34	22738.30
436.53	22017.42
436.72	22087.64
436.90	20940.77
437.09	20922.05
437.28	20531.18
437.46	21193.55
437.65	21245.04
437.84	19866.47
438.02	18333.42
438.21	17930.84
438.40	19330.48
438.58	20959.50
438.77	21137.38
438.96	21572.72
439.14	22401.27
439.33	22679.79
439.52	22817.88
439.70	22527.66
439.89	22129.77
440.08	21607.83
440.26	21577.40
440.45	22478.50
440.63	24208.16
440.82	25015.65
441.01	24697.33
441.19	24215.18
441.38	24875.21
441.57	25692.06
441.75	25963.56
441.94	26480.82
442.12	25572.69
442.31	26352.09
442.50	26129.74
442.68	25968.24
442.87	25881.64
443.05	25184.16
443.24	25820.79
443.43	26214.00
443.61	26689.13
443.80	27199.37
443.98	26103.99
444.17	25436.94
444.35	27145.53
444.54	27367.88
444.73	27339.80
444.91	26106.34
445.10	24924.36
445.28	23845.38
445.47	23538.77
445.65	23974.11
445.84	24269.01
446.02	25507.16
446.21	25394.81
446.39	25989.31
446.58	26178.89
446.77	26085.27
446.95	26621.25
447.14	27618.32
447.32	28030.26
447.51	27316.39
447.69	26228.04
447.88	25853.56
448.06	26534.65
448.25	26941.91
448.43	27105.74
448.62	26544.02
448.80	26534.65
448.99	26787.43
449.17	26960.63
449.36	27211.07
449.54	27854.72
449.73	28512.41
449.91	28701.99
450.10	29448.62
450.28	29993.97
450.46	29624.16
450.65	29820.77
450.83	29495.43
451.02	28709.01
451.20	28837.74
451.39	28746.46
451.57	28336.87
451.76	28306.44
451.94	28423.47
452.13	27871.10
452.31	26841.26
452.49	25015.65
452.68	25783.34
452.86	25568.01
453.05	25862.92
453.23	26817.86
453.42	27309.37
453.60	27910.89
453.78	28091.11
453.97	28109.83
454.15	28168.35
454.34	27257.88
454.52	27847.69
454.70	26944.25
454.89	27435.76
455.07	27885.14
455.26	27969.40
455.44	28694.97
455.62	29280.10
455.81	29544.58
455.99	29275.42
456.17	28973.49
456.36	28987.53
456.54	30118.01
456.73	29780.98
456.91	30689.10
457.09	30654.00
457.28	31360.84
457.46	29455.64
457.64	29212.23
457.83	28858.81
458.01	28156.64
458.19	28917.32
458.38	28994.56
458.56	29830.13
458.74	30038.44
458.93	29102.22
459.11	29413.51
459.29	28694.97
459.48	29333.93
459.66	29069.45
459.84	29778.64
460.03	29420.53
460.21	29663.95
460.39	30756.98
460.57	30546.33
460.76	31274.24
460.94	30857.62
461.12	30382.49
461.31	30806.13
461.49	30471.43
461.67	30251.42
461.85	31541.06
462.04	30789.75
462.22	31999.80
462.40	31234.45
462.59	31541.06
462.77	31278.92
462.95	31377.22
463.13	30792.09
463.32	30466.75
463.50	30581.44
463.68	30377.81
463.86	30352.07
464.05	30108.65
464.23	29446.28
464.41	29483.73
464.59	28751.14
464.78	30438.67
464.96	30176.53
465.14	29647.57
465.32	30974.65
465.50	31384.24
465.69	31814.90
465.87	30916.14
466.05	29919.07
466.23	29078.82
466.41	28030.26
466.60	29151.37
466.78	29247.33
466.96	29668.63
467.14	30232.70
467.32	30483.14
467.51	30644.63
467.69	29158.39
467.87	29542.24
468.05	29982.26
468.23	30441.01
468.41	30277.17
468.60	30342.70
468.78	30438.67
468.96	30288.87
469.14	30686.76
469.32	30874.01
469.50	29776.30
469.69	29984.60
469.87	29633.52
470.05	29284.78
470.23	29097.54
470.41	29575.01
470.59	30050.14
470.77	30235.04
470.95	30543.99
471.14	30803.79
471.32	31028.48
471.50	32868.14
471.68	32924.32
471.86	33317.53
472.04	33516.47
472.22	33752.87
472.40	31835.97
472.58	31737.66
472.77	30974.65
472.95	31777.45
473.13	32662.18
473.31	31763.41
473.49	31840.65
473.67	32606.00
473.85	32568.55
474.03	33837.12
474.21	33394.76
474.39	34246.72
474.57	34347.36
474.75	34508.86
474.93	33834.78
475.12	33266.03
475.30	32891.55
475.48	33151.35
475.66	33584.35
475.84	33546.90
476.02	32837.72
476.20	32641.11
476.38	33383.06
476.56	34157.78
476.74	34806.11
476.92	34817.81
477.10	35426.35
477.28	36636.41
477.46	35878.07
477.64	36507.68
477.82	36608.32
478.00	37502.40
478.18	36503.00
478.36	35931.90
478.54	35962.33
478.72	36554.49
478.90	37415.80
479.08	38450.32
479.26	38796.72
479.44	38749.91
479.62	38246.69
479.80	38712.46
479.98	38602.46
480.16	38700.76
480.34	38354.36
480.52	39023.75
480.70	39192.27
480.88	39264.83
481.06	39803.15
481.24	40212.74
481.41	41095.13
481.59	41972.83
481.77	41078.74
481.95	40863.41
482.13	40788.52
482.31	40921.93
482.49	41792.61
482.67	41174.70
482.85	41614.72
483.03	42506.47
483.21	42239.65
483.39	42621.16
483.57	41558.55
483.74	41455.57
483.92	41787.92
484.10	41500.04
484.28	42780.31
484.46	43452.05
484.64	44020.80
484.82	43304.59
485.00	42024.32
485.18	41134.92
485.35	40301.68
485.53	37291.76
485.71	34120.33
485.89	33460.30
486.07	35103.35
486.25	38574.37
486.43	40825.96
486.61	41186.41
486.78	40828.30
486.96	41301.09
487.14	43648.65
487.32	44013.77
487.50	45277.66
487.68	46110.89
487.85	46644.54
488.03	46581.34
488.21	45811.31
488.39	45490.65
488.57	44493.58
488.75	44547.42
488.92	45364.26
489.10	47906.08
489.28	49251.89
489.46	50096.83
489.64	49951.71
489.81	50429.18
489.99	49406.37
490.17	49743.41
490.35	50241.94
490.53	49443.82
490.70	48989.75
490.88	49088.06
491.06	50080.44
491.24	50220.87
491.41	49125.50
491.59	47131.37
491.77	45961.10
491.95	47433.30
492.13	48907.83
492.30	50534.51
492.48	51367.74
492.66	51880.31
492.84	51767.97
493.01	51772.65
493.19	50927.72
493.37	50581.32
493.54	50181.09
493.72	51065.81
493.90	52193.95
494.08	52788.44
494.25	53235.48
494.43	53591.25
494.61	53764.45
494.79	54087.44
494.96	54007.86
495.14	52769.72
495.32	52013.73
495.49	51674.35
495.67	52334.38
495.85	54164.68
496.02	54384.69
496.20	54330.86
496.38	53799.55
496.55	53319.74
496.73	54192.76
496.91	54244.26
497.09	55056.42
497.26	55070.46
497.44	54426.82
497.62	53935.30
497.79	53294.00
497.97	51950.53
498.14	51915.42
498.32	53003.77
498.50	53825.30
498.67	54705.34
498.85	54681.94
499.03	54843.43
499.20	54810.67
499.38	55257.71
499.56	54733.43
499.73	54363.62
499.91	53921.26
500.08	53521.03
500.26	52753.33
500.44	53055.26
500.61	53876.79
500.79	53584.22
500.97	53315.06
501.14	53055.26
501.32	53212.08
501.49	53006.11
501.67	53174.63
501.84	53888.49
502.02	54038.29
502.20	54461.93
502.37	54773.22
502.55	54595.34
502.72	55309.20
502.90	55664.96
503.07	55285.79
503.25	54955.78
503.43	53970.41
503.60	53338.47
503.78	52458.43
503.95	53045.90
504.13	54773.22
504.30	55615.81
504.48	55194.51
504.65	54862.16
504.83	55007.27
505.01	55744.54
505.18	56055.83
505.36	56570.75
505.53	56741.61
505.71	56933.53
505.88	57001.41
506.06	56107.32
506.23	56076.90
506.41	55742.20
506.58	55681.34
506.76	55763.26
506.93	55770.28
507.11	55309.20
507.28	55669.64
507.46	55068.12
507.63	54396.39
507.81	54326.17
507.98	54412.77
508.16	55274.09
508.33	56016.04
508.50	56313.29
508.68	56587.13
508.85	56910.13
509.03	57083.33
509.20	56793.10
509.38	56065.19
509.55	55393.46
509.73	55524.53
509.90	55753.90
510.08	56210.31
510.25	55983.27
510.42	55887.31
510.60	55817.10
510.77	56079.24
510.95	56615.22
511.12	56781.40
511.30	57230.78
511.47	57462.49
511.64	57279.93
511.82	57134.82
511.99	55952.85
512.17	55716.45
512.34	55243.66
512.51	55721.13
512.69	55639.22
512.86	55711.77
513.04	56467.76
513.21	56413.93
513.38	55913.06
513.56	55433.25
513.73	54824.71
513.90	55018.97
514.08	55065.78
514.25	55442.61
514.43	55613.47
514.60	55702.41
514.77	55924.76
514.95	55938.80
515.12	55803.05
515.29	56250.09
515.47	56608.20
515.64	56858.63
515.81	56474.79
515.99	55711.77
516.16	54286.39
516.33	51952.87
516.51	50230.24
516.68	49287.00
516.85	48994.43
517.03	49237.85
517.20	52121.39
517.37	54885.56
517.54	55704.75
517.72	55576.02
517.89	52804.83
518.06	49848.73
518.24	50532.17
518.41	53034.20
518.58	54368.30
518.75	54525.12
518.93	55051.74
519.10	54915.99
519.27	55400.48
519.45	55288.13
519.62	56449.04
519.79	56587.13
519.96	56369.46
520.14	55767.94
520.31	54906.63
520.48	55072.81
520.65	55468.36
520.83	56523.94
521.00	56769.69
521.17	56484.15
521.34	55973.91
521.52	56285.20
521.69	56788.42
521.86	57261.21
522.03	56952.26
522.20	55629.85
522.38	54534.48
522.55	54742.79
522.72	55175.79
522.89	55627.51
523.07	55770.28
523.24	56044.13
523.41	56765.01
523.58	57139.50
523.75	57497.60
523.92	57336.10
524.10	57263.55
524.27	57352.49
524.44	57403.98
524.61	57085.67
524.78	56891.40
524.96	56807.14
525.13	56889.06
525.30	56924.17
525.47	57361.85
525.64	57556.11
525.81	56725.22
525.98	55250.69
526.16	53588.91
526.33	52823.55
526.50	52523.96
526.67	52334.38
526.84	52949.94
527.01	53743.38
527.18	54955.78
527.36	55718.79
527.53	56903.10
527.70	56963.96
527.87	56254.78
528.04	55964.55
528.21	56418.61
528.38	56896.08
528.55	57392.28
528.72	57729.31
528.89	58089.76
529.07	57605.26
529.24	57214.40
529.41	56362.44
529.58	55810.07
529.75	56144.77
529.92	56392.87
530.09	56853.95
530.26	57570.16
530.43	57483.56
530.60	57418.02
530.77	57956.35
530.94	58071.03
531.11	57694.21
531.28	57127.80
531.46	56975.66
531.63	57190.99
531.80	57001.41
531.97	56741.61
532.14	55763.26
532.31	54801.30
532.48	54087.44
532.65	54068.72
532.82	54742.79
532.99	56069.87
533.16	56437.34
533.33	57020.13
533.50	56793.10
533.67	56287.54
533.84	55704.75
534.01	56226.69
534.18	56114.34
534.35	56491.17
534.52	56210.31
534.69	56500.53
534.86	56732.25
535.03	57027.15
535.20	57490.58
535.37	57717.61
535.54	58026.56
535.71	57591.22
535.88	57265.89
536.05	56540.32
536.22	56184.56
536.38	55770.28
536.55	55370.05
536.72	54841.09
536.89	54871.52
537.06	55573.68
537.23	56432.66
537.40	56872.68
537.57	56795.44
537.74	56500.53
537.91	56514.58
538.08	56537.98
538.25	56423.29
538.42	56690.12
538.59	56427.98
538.75	55807.73
538.92	55578.36
539.09	55416.86
539.26	55269.41
539.43	54997.91
539.60	55189.83
539.77	55077.49
539.94	55306.86
540.11	54401.07
540.28	53829.98
540.44	53825.30
540.61	54145.95
540.78	54635.13
540.95	55131.32
541.12	55494.10
541.29	55643.90
541.46	55810.07
541.62	56144.77
541.79	55866.25
541.96	55133.66
542.13	55196.85
542.30	55435.59
542.47	55870.93
542.63	55578.36
542.80	55243.66
542.97	55487.08
543.14	55150.04
543.31	55098.55
543.48	56053.49
543.64	56690.12
543.81	57116.09
543.98	56666.71
544.15	55915.40
544.32	55180.47
544.48	55421.55
544.65	55999.66
544.82	56376.48
544.99	55938.80
545.16	55634.53
545.32	55365.37
545.49	56072.21
545.66	56612.88
545.83	56081.58
546.00	55693.05
546.16	55515.17
546.33	55569.00
546.50	55597.09
546.67	56119.02
546.83	55594.74
547.00	55622.83
547.17	54803.64
547.34	54447.88
547.50	54129.57
547.67	54667.89
547.84	54623.42
548.00	55257.71
548.17	55796.03
548.34	55676.66
548.51	55517.51
548.67	55817.10
548.84	55744.54
549.01	55501.12
549.18	55386.44
549.34	55243.66
549.51	55545.59
549.68	55498.78
549.84	54829.39
550.01	54990.89
550.18	54948.76
550.34	54920.67
550.51	55082.17
550.68	55334.95
550.84	54494.69
551.01	54562.57
551.18	54618.74
551.34	54906.63
551.51	55121.96
551.68	55522.19
551.84	55346.65
552.01	55337.29
552.18	55051.74
552.34	54515.76
552.51	54155.32
552.68	53839.34
552.84	54618.74
553.01	54625.76
553.18	54571.93
553.34	54569.59
553.51	54740.45
553.67	55049.40
553.84	55327.92
554.01	55133.66
554.17	54810.67
554.34	54803.64
554.51	55147.70
554.67	55657.94
554.84	55243.66
555.00	54658.53
555.17	54677.25
555.33	54700.66
555.50	54550.87
555.67	54733.43
555.83	54515.76
556.00	54026.59
556.16	53984.46
556.33	53890.83
556.50	53275.27
556.66	53652.10
556.83	53254.21
556.99	53556.14
557.16	53563.16
557.32	53712.95
557.49	54124.89
557.65	54157.66
557.82	54319.15
557.98	54014.88
558.15	53352.51
558.32	52626.95
558.48	51611.15
558.65	51821.80
558.81	52207.99
558.98	52451.41
559.14	52741.63
559.31	52729.93
559.47	52697.16
559.64	52538.01
559.80	51985.64
559.97	52069.90
560.13	52678.44
560.30	53532.73
560.46	54157.66
560.63	54452.56
560.79	54461.93
560.96	53712.95
561.12	53024.84
561.29	51805.42
561.45	51962.23
561.61	52409.28
561.78	52736.95
561.94	52942.92
562.11	52933.56
562.27	52556.73
562.44	53172.29
562.60	53109.10
562.77	53514.01
562.93	53186.33
563.10	52987.39
563.26	52807.17
563.42	52814.19
563.59	52523.96
563.75	52430.34
563.92	52402.25
564.08	52605.88
564.24	52790.78
564.41	52846.96
564.57	52488.85
564.74	52257.14
564.90	52549.71
565.07	52210.33
565.23	51601.79
565.39	50965.17
565.56	50955.80
565.72	50487.70
565.88	51037.72
566.05	51332.63
566.21	51510.51
566.38	51601.79
566.54	51618.17
566.70	52170.54
566.87	52460.77
567.03	52451.41
567.19	52530.98
567.36	52189.27
567.52	51955.21
567.68	51597.11
567.85	50930.06
568.01	50775.58
568.17	49984.48
568.34	50106.19
568.50	49986.82
568.66	50054.70
568.83	51147.73
568.99	50806.01
569.15	51250.71
569.32	51379.44
569.48	50841.12
569.64	50443.23
569.81	50295.77
569.97	50300.45
570.13	50195.13
570.30	49268.28
570.46	49120.82
570.62	48488.88
570.78	48105.03
570.95	48381.21
571.11	49839.37
571.27	49499.99
571.43	50024.27
571.60	50319.18
571.76	50452.59
571.92	51021.34
572.09	51309.22
572.25	51047.08
572.41	51093.89
572.57	50951.12
572.74	50768.56
572.90	50223.22
573.06	50340.24
573.22	50365.99
573.38	50358.97
573.55	50405.78
573.71	50621.11
573.87	50447.91
574.03	50405.78
574.20	49954.05
574.36	49897.88
574.52	49277.64
574.68	49485.95
574.84	48655.06
575.01	48114.39
575.17	48385.89
575.33	48858.68
575.49	48790.81
575.65	49038.90
575.82	48912.52
575.98	48718.25
576.14	48917.20
576.30	49345.51
576.46	49315.09
576.62	49118.48
576.79	49287.00
576.95	48495.90
577.11	48830.60
577.27	48947.62
577.43	48722.93
577.59	48376.53
577.75	48023.11
577.92	47220.31
578.08	46586.02
578.24	47236.69
578.40	47384.15
578.56	47866.30
578.72	47812.46
578.88	48025.45
579.04	48645.69
579.21	48437.39
579.37	48809.53
579.53	48294.61
579.69	48320.36
579.85	48582.50
580.01	48734.63
580.17	47966.94
580.33	47271.80
580.49	47868.64
580.65	47997.37
580.82	48392.92
580.98	48442.07
581.14	48294.61
581.30	47980.98
581.46	48088.65
581.62	48615.27
581.78	48439.73
581.94	48575.48
582.10	48638.67
582.26	48624.63
582.42	48584.84
582.58	48711.23
582.74	48282.91
582.90	48552.07
583.06	48435.05
583.22	48378.87
583.38	48156.52
583.54	48147.16
583.70	48011.41
583.86	47669.69
584.02	47487.13
584.18	48147.16
584.34	47999.71
584.50	47611.18
584.66	47746.93
584.82	47107.96
584.98	47220.31
585.14	46944.12
585.30	46068.76
