SpectraSuite Data File
++++++++++++++++++++++++++++++++++++
Date: Mon Oct 07 14:53:58 GMT-05:00 2013
User: price-jones
Dark Spectrum Present: No
Reference Spectrum Present: No
Number of Sampled Component Spectra: 1
Spectrometers: USB2+H05261
Integration Time (usec): 100000 (USB2+H05261)
Spectra Averaged: 1 (USB2+H05261)
Boxcar Smoothing: 0 (USB2+H05261)
Correct for Electrical Dark: No (USB2+H05261)
Strobe/Lamp Enabled: No (USB2+H05261)
Correct for Detector Non-linearity: No (USB2+H05261)
Correct for Stray Light: No (USB2+H05261)
Number of Pixels in Processed Spectrum: 2048
>>>>>Begin Processed Spectral Data<<<<<
365.73	0.00
365.92	0.00
366.12	0.00
366.32	0.00
366.52	0.00
366.72	0.00
366.91	0.00
367.11	0.00
367.31	0.00
367.51	0.00
367.70	0.00
367.90	0.00
368.10	0.00
368.30	0.00
368.49	0.00
368.69	0.00
368.89	0.00
369.09	0.00
369.28	0.00
369.48	0.00
369.68	0.00
369.87	0.00
370.07	0.00
370.27	0.00
370.47	702.16
370.66	3398.46
370.86	4135.73
371.06	4552.34
371.25	4447.02
371.45	4109.98
371.65	3815.07
371.84	3391.44
372.04	3775.28
372.24	4072.53
372.44	4306.59
372.63	4009.34
372.83	3974.23
373.03	3623.15
373.22	3150.36
373.42	3389.10
373.62	3871.25
373.81	4166.15
374.01	4109.98
374.21	3749.54
374.40	3471.01
374.60	3566.98
374.79	4093.60
374.99	4795.76
375.19	5146.84
375.38	5102.37
375.58	4781.71
375.78	4645.96
375.97	4777.03
376.17	4971.30
376.37	4964.28
376.56	5041.51
376.76	5364.51
376.95	5802.19
377.15	6073.69
377.35	6422.43
377.54	6684.57
377.74	6614.35
377.93	6733.72
378.13	6775.85
378.33	6448.18
378.52	5881.77
378.72	5607.92
378.91	5437.06
379.11	5338.76
379.31	5116.41
379.50	5245.14
379.70	5514.30
379.89	6099.44
380.09	6424.77
380.28	6712.66
380.48	6604.99
380.68	6506.69
380.87	6363.92
381.07	5804.53
381.26	5458.13
381.46	5123.43
381.65	4863.63
381.85	4898.74
382.04	4660.01
382.24	4351.06
382.43	3985.93
382.63	3983.59
382.83	4028.06
383.02	4007.00
383.22	4044.45
383.41	3969.55
383.61	4332.33
383.80	4997.04
384.00	5661.76
384.19	6279.66
384.39	6539.46
384.58	6672.87
384.78	6476.26
384.97	6293.70
385.17	6008.16
385.36	5870.06
385.56	5605.58
385.75	5692.18
385.95	6003.47
386.14	6747.76
386.34	6813.30
386.53	6544.14
386.72	5865.38
386.92	6092.41
387.11	6597.97
387.31	6679.89
387.50	6640.10
387.70	6305.40
387.89	6249.23
388.09	6506.69
388.28	6326.47
388.48	6443.49
388.67	6825.00
388.86	7758.88
389.06	8336.99
389.25	8580.40
389.45	8669.34
389.64	8559.34
389.84	8458.70
390.03	8489.12
390.22	8587.43
390.42	8531.25
390.61	9270.86
390.81	9977.70
391.00	10071.33
391.19	10015.15
391.39	9727.27
391.58	8912.76
391.78	8496.14
391.97	8306.56
392.16	7906.33
392.36	7070.76
392.55	5671.12
392.75	4716.18
392.94	3747.20
393.13	3686.34
393.33	4248.07
393.52	5715.59
393.71	7007.56
393.91	7623.12
394.10	8105.28
394.29	8901.06
394.49	9771.74
394.68	10635.39
394.88	10696.25
395.07	10841.36
395.26	10817.96
395.46	10541.77
395.65	9870.04
395.84	8903.40
396.04	7321.20
396.23	5984.75
396.42	5081.30
396.62	4781.71
396.81	5717.93
397.00	7236.94
397.19	8971.27
397.39	10534.75
397.58	11934.39
397.77	12559.31
397.97	13149.13
398.16	13441.70
398.35	13692.13
398.55	14075.98
398.74	14759.42
398.93	14977.09
399.12	14581.54
399.32	14197.69
399.51	14551.11
399.70	15700.31
399.90	15293.06
400.09	15410.09
400.28	15311.78
400.47	15426.47
400.67	16112.25
400.86	16465.67
401.05	16416.52
401.24	16854.20
401.44	16978.25
401.63	16634.19
401.82	17116.34
402.01	17020.38
402.21	17245.07
402.40	17149.11
402.59	16849.52
402.78	16114.59
402.97	15545.84
403.17	16191.83
403.36	16980.59
403.55	17511.89
403.74	18155.54
403.93	17205.28
404.13	15896.92
404.32	15506.05
404.51	16358.00
404.70	17607.85
404.89	17731.90
405.09	17214.64
405.28	16889.31
405.47	16575.67
405.66	16734.83
405.85	16329.92
406.05	15730.74
406.24	16152.04
406.43	16732.49
406.62	17219.32
406.81	17486.14
407.00	17092.93
407.20	16074.80
407.39	16772.28
407.58	17322.30
407.77	18228.09
407.96	18625.98
408.15	18850.67
408.34	18801.52
408.54	19716.67
408.73	19807.95
408.92	19304.74
409.11	19066.00
409.30	18033.83
409.49	17022.72
409.68	16142.67
409.87	15428.81
410.07	16430.56
410.26	17724.88
410.45	18714.92
410.64	18963.02
410.83	19709.65
411.02	20285.42
411.21	21151.42
411.40	20856.51
411.59	20854.17
411.78	20840.13
411.98	20505.43
412.17	20989.92
412.36	20470.33
412.55	20421.17
412.74	20119.24
412.93	19255.59
413.12	19850.08
413.31	21834.86
413.50	21640.59
413.69	22087.64
413.88	21326.96
414.07	21029.71
414.26	20781.62
414.45	21521.23
414.64	21949.54
414.83	21963.59
415.02	21439.31
415.22	21422.92
415.41	21788.05
415.60	22586.17
415.79	23470.89
415.98	24269.01
416.17	23864.10
416.36	23133.86
416.55	23222.80
416.74	22356.80
416.93	21516.54
417.12	21900.39
417.31	22008.06
417.50	22239.77
417.69	22970.02
417.88	22768.73
418.07	22389.56
418.26	22340.41
418.45	22616.60
418.64	23131.51
418.83	24231.57
419.02	23807.93
419.21	23396.00
419.39	22398.93
419.58	21348.03
419.77	21535.27
419.96	22176.58
420.15	24116.88
420.34	24652.86
420.53	25530.56
420.72	25802.07
420.91	25333.96
421.10	25441.62
421.29	25422.90
421.48	23910.91
421.67	25436.94
421.86	24704.35
422.05	22754.69
422.24	20592.03
422.43	20105.20
422.61	22579.15
422.80	24709.04
422.99	24437.53
423.18	23690.90
423.37	23307.05
423.56	23014.49
423.75	23555.15
423.94	23616.01
424.13	22471.48
424.32	22822.56
424.50	22920.87
424.69	22586.17
424.88	22761.71
425.07	22824.90
425.26	22855.33
425.45	22436.38
425.64	22111.04
425.83	21806.77
426.01	23260.24
426.20	23702.61
426.39	23683.88
426.58	22181.26
426.77	20540.54
426.96	19601.99
427.15	20229.25
427.33	21844.22
427.52	23201.73
427.71	23204.07
427.90	22586.17
428.09	22478.50
428.28	22211.68
428.46	21319.94
428.65	20858.85
428.84	21544.63
429.03	21905.07
429.22	20395.43
429.40	19726.04
429.59	17867.65
429.78	15852.45
429.97	15747.12
430.16	15910.96
430.34	15995.22
430.53	15925.00
430.72	16166.08
430.91	18164.90
431.10	21123.33
431.28	25057.78
431.47	26864.67
431.66	27318.73
431.85	24961.81
432.03	23058.96
432.22	21701.45
432.41	22745.33
432.60	25235.66
432.79	26066.55
432.97	26815.52
433.16	26246.77
433.35	24016.24
433.54	21497.82
433.72	20074.77
433.91	21039.08
434.10	23496.64
434.28	25013.31
434.47	26099.31
434.66	25963.56
434.85	25067.14
435.03	24980.54
435.22	25813.77
435.41	27398.31
435.59	27246.18
435.78	27660.45
435.97	28245.58
436.16	28554.54
436.34	28149.62
436.53	27435.76
436.72	27489.59
436.90	26298.26
437.09	25806.75
437.28	25624.18
437.46	26705.51
437.65	26265.49
437.84	24814.36
438.02	22494.89
438.21	22412.97
438.40	23854.74
438.58	25947.18
438.77	26022.08
438.96	26609.55
439.14	28091.11
439.33	28112.17
439.52	28774.55
439.70	28144.94
439.89	27377.25
440.08	26995.74
440.26	26558.06
440.45	27662.79
440.63	29472.03
440.82	31033.16
441.01	30422.28
441.19	30319.30
441.38	30700.81
441.57	31917.89
441.75	32449.19
441.94	32498.34
442.12	31920.23
442.31	32807.29
442.50	32891.55
442.68	31896.82
442.87	32362.59
443.05	31491.91
443.24	32123.85
443.43	32121.51
443.61	33039.00
443.80	33582.01
443.98	31854.69
444.17	31644.04
444.35	33457.96
444.54	33989.26
444.73	33436.89
444.91	32479.61
445.10	30930.18
445.28	29259.04
445.47	29010.94
445.65	29207.55
445.84	30675.06
446.02	31512.97
446.21	31548.08
446.39	31772.77
446.58	32603.66
446.77	32620.05
446.95	32793.25
447.14	33933.09
447.32	34579.07
447.51	33500.09
447.69	32456.21
447.88	31522.34
448.06	31857.03
448.25	33156.03
448.43	33333.91
448.62	32947.72
448.80	32491.32
448.99	33106.88
449.17	33582.01
449.36	32989.85
449.54	34469.07
449.73	34969.94
449.91	35349.11
450.10	35864.03
450.28	36957.06
450.46	36261.92
450.65	36456.18
450.83	36304.05
451.02	34862.28
451.20	35136.12
451.39	35157.19
451.57	34885.68
451.76	34925.47
451.94	34913.77
452.13	34377.79
452.31	32854.10
452.49	31271.90
452.68	31337.43
452.86	31405.31
453.05	31798.52
453.23	33071.77
453.42	33553.92
453.60	34253.74
453.78	34974.63
453.97	34380.13
454.15	34668.02
454.34	33865.21
454.52	34178.84
454.70	33275.40
454.89	33839.47
455.07	33359.66
455.26	34068.84
455.44	35786.79
455.62	35971.69
455.81	36177.66
455.99	36041.91
456.17	35377.20
456.36	35576.14
456.54	36364.90
456.73	36444.48
456.91	37493.04
457.09	37280.05
457.28	38038.39
457.46	36191.70
457.64	36156.60
457.83	35241.45
458.01	34534.60
458.19	35082.29
458.38	35534.01
458.56	36547.47
458.74	36215.11
458.93	35929.56
459.11	35852.33
459.29	35433.37
459.48	35665.08
459.66	35541.03
459.84	35894.46
460.03	36767.48
460.21	36077.02
460.39	37319.84
460.57	36985.15
460.76	37724.75
460.94	37954.13
461.12	37188.77
461.31	37151.32
461.49	37202.82
461.67	37041.32
461.85	38415.21
462.04	37993.92
462.22	39012.05
462.40	38178.82
462.59	37778.59
462.77	38419.89
462.95	37914.34
463.13	37778.59
463.32	37205.16
463.50	36950.04
463.68	37181.75
463.86	37092.81
464.05	36961.74
464.23	35896.80
464.41	35875.73
464.59	35264.85
464.78	37254.31
464.96	36472.57
465.14	36362.56
465.32	37663.90
465.50	38029.02
465.69	38185.84
465.87	38024.34
466.05	36987.49
466.23	35208.68
466.41	33963.51
466.60	35580.82
466.78	35129.10
466.96	35978.72
467.14	36676.19
467.32	36643.43
467.51	37048.34
467.69	35126.76
467.87	35962.33
468.05	36900.89
468.23	36561.51
468.41	36683.22
468.60	36788.54
468.78	37170.05
468.96	36840.03
469.14	37579.64
469.32	37441.55
469.50	36020.84
469.69	36355.54
469.87	35346.77
470.05	35185.27
470.23	35772.75
470.41	35889.77
470.59	36313.41
470.77	36673.85
470.95	37015.57
471.14	37603.05
471.32	37535.17
471.50	39496.54
471.68	39711.87
471.86	39669.74
472.04	40168.27
472.22	40325.09
472.40	38412.87
472.58	37797.31
472.77	38117.96
472.95	38536.92
473.13	39365.47
473.31	38213.93
473.49	38843.53
473.67	39501.22
473.85	39550.37
474.03	40055.93
474.21	40271.26
474.39	40886.82
474.57	41160.66
474.75	41132.57
474.93	40519.35
475.12	39789.11
475.30	39908.47
475.48	40453.82
475.66	40722.98
475.84	40463.18
476.02	39709.53
476.20	39454.41
476.38	39957.63
476.56	41198.11
476.74	41418.12
476.92	41504.72
477.10	42513.49
477.28	43557.37
477.46	43660.35
477.64	43934.20
477.82	44079.31
478.00	44364.85
478.18	43377.15
478.36	43463.75
478.54	43206.29
478.72	43861.64
478.90	45134.89
479.08	45881.52
479.26	46375.37
479.44	46007.91
479.62	45855.78
479.80	46038.34
479.98	46164.73
480.16	46639.86
480.34	46349.63
480.52	46199.83
480.70	46752.20
480.88	46583.68
481.06	47496.49
481.24	47515.22
481.41	48341.42
481.59	48907.83
481.77	48975.71
481.95	48140.14
482.13	47917.79
482.31	48175.25
482.49	48725.27
482.67	48303.98
482.85	48495.90
483.03	49478.92
483.21	49975.12
483.39	49846.39
483.57	49006.14
483.74	48753.36
483.92	49076.35
484.10	49333.81
484.28	49928.31
484.46	50263.00
484.64	50667.92
484.82	49792.56
485.00	49188.70
485.18	48783.79
485.35	47388.83
485.53	44531.03
485.71	40694.89
485.89	40205.72
486.07	41883.89
486.25	45399.37
486.43	47791.40
486.61	48423.34
486.78	48364.83
486.96	48603.56
487.14	50052.36
487.32	50974.53
487.50	51683.71
487.68	52444.38
487.85	53104.41
488.03	53013.13
488.21	52804.83
488.39	52144.80
488.57	51187.52
488.75	51208.58
488.92	51978.62
489.10	54145.95
489.28	55222.60
489.46	55908.38
489.64	55601.77
489.81	55803.05
489.99	55554.96
490.17	55723.47
490.35	55838.16
490.53	55482.40
490.70	54951.10
490.88	54958.12
491.06	55899.01
491.24	56130.73
491.41	55051.74
491.59	53523.37
491.77	52666.73
491.95	53928.28
492.13	54864.50
492.30	55753.90
492.48	56858.63
492.66	57167.58
492.84	56940.55
493.01	56954.60
493.19	56458.40
493.37	56041.79
493.54	55821.78
493.72	56320.31
493.90	57476.54
494.08	57972.73
494.25	58108.48
494.43	58408.07
494.61	58756.81
494.79	59007.25
494.96	58614.04
495.14	58094.44
495.32	57198.01
495.49	56451.38
495.67	57642.71
495.85	58899.58
496.02	59269.39
496.20	59145.34
496.38	58791.92
496.55	58646.80
496.73	58995.54
496.91	59161.72
497.09	59763.24
497.26	59859.20
497.44	59150.02
497.62	58803.62
497.79	58124.86
497.97	56783.74
498.14	57073.96
498.32	58080.39
498.50	59070.44
498.67	59583.02
498.85	59341.94
499.03	59501.10
499.20	59653.23
499.38	59550.25
499.56	59550.25
499.73	59203.85
499.91	58632.76
500.08	58328.49
500.26	57654.42
500.44	58010.18
500.61	58789.58
500.79	58649.14
500.97	58178.70
501.14	58092.10
501.32	57897.83
501.49	57928.26
501.67	58033.58
501.84	58585.95
502.02	58812.98
502.20	59068.10
502.37	59473.01
502.55	59648.55
502.72	59941.12
502.90	60170.49
503.07	59943.46
503.25	59805.37
503.43	58976.82
503.60	58185.72
503.78	57535.05
503.95	57923.58
504.13	59196.83
504.30	60041.76
504.48	59945.80
504.65	59470.67
504.83	59550.25
505.01	60184.54
505.18	60100.28
505.36	60757.97
505.53	61102.03
505.71	61270.54
505.88	61286.93
506.06	60631.58
506.23	60451.36
506.41	59941.12
506.58	60158.79
506.76	60119.00
506.93	60051.12
507.11	59824.09
507.28	59999.63
507.46	59742.17
507.63	59173.42
507.81	58721.70
507.98	59117.25
508.16	59620.47
508.33	60257.09
508.50	60643.28
508.68	61010.74
508.85	61324.38
509.03	61144.16
509.20	61350.12
509.38	60514.55
509.55	59777.28
509.73	59957.50
509.90	60439.65
510.08	60687.75
510.25	60456.04
510.42	60409.23
510.60	59978.57
510.77	60491.15
510.95	61109.05
511.12	61209.69
511.30	61469.49
511.47	61670.78
511.64	61607.58
511.82	61284.59
511.99	60629.24
512.17	60257.09
512.34	59842.82
512.51	60168.15
512.69	60079.21
512.86	60172.83
513.04	60376.46
513.21	60537.96
513.38	60271.14
513.56	59683.66
513.73	59409.82
513.90	59487.06
514.08	59604.08
514.25	59751.54
514.43	59934.10
514.60	60067.51
514.77	60303.90
514.95	60172.83
515.12	60184.54
515.29	60619.88
515.47	60835.20
515.64	61144.16
515.81	60697.11
515.99	60095.60
516.16	58820.00
516.33	56781.40
516.51	55381.76
516.68	54850.45
516.85	54291.07
517.03	54674.91
517.20	56994.39
517.37	59311.52
517.54	60381.14
517.72	59756.22
517.89	57558.45
518.06	55220.26
518.24	55585.38
518.41	57675.48
518.58	58969.80
518.75	59196.83
518.93	59255.34
519.10	59124.27
519.27	59613.44
519.45	59915.37
519.62	60563.70
519.79	60779.03
519.96	60591.79
520.14	60268.79
520.31	59547.91
520.48	59482.37
520.65	59831.11
520.83	60645.62
521.00	60928.83
521.17	60762.65
521.34	60193.90
521.52	60631.58
521.69	61015.43
521.86	61551.41
522.03	61038.83
522.20	60046.44
522.38	58948.73
522.55	58939.37
522.72	59519.82
522.89	59636.85
523.07	59969.21
523.24	60196.24
523.41	60874.99
523.58	61525.66
523.75	61680.14
523.92	61567.79
524.10	61462.47
524.27	61673.12
524.44	61366.51
524.61	61148.84
524.78	61158.20
524.96	60762.65
525.13	61029.47
525.30	61179.26
525.47	61598.22
525.64	61303.31
525.81	60715.84
525.98	59634.51
526.16	57949.32
526.33	57518.67
526.50	57097.37
526.67	56896.08
526.84	57352.49
527.01	58415.09
527.18	58901.92
527.36	59934.10
527.53	60654.98
527.70	60933.51
527.87	60449.02
528.04	60196.24
528.21	60502.85
528.38	61141.81
528.55	61616.94
528.72	61853.34
528.89	62049.94
529.07	61731.63
529.24	61258.84
529.41	60636.26
529.58	60203.26
529.75	60217.30
529.92	60652.64
530.09	61008.40
530.26	61469.49
530.43	61717.59
530.60	61511.62
530.77	61801.85
530.94	61825.25
531.11	61401.61
531.28	61127.77
531.46	60912.44
531.63	60938.19
531.80	60994.36
531.97	60690.09
532.14	59999.63
532.31	58937.03
532.48	58365.94
532.65	58363.60
532.82	59215.55
532.99	60336.67
533.16	60552.00
533.33	60961.59
533.50	60853.93
533.67	60254.75
533.84	59870.90
534.01	60046.44
534.18	60207.94
534.35	60535.62
534.52	60135.38
534.69	60339.01
534.86	60683.07
535.03	61188.63
535.20	61481.19
535.37	61811.21
535.54	61925.89
535.71	61457.79
535.88	61263.52
536.05	60598.81
536.22	60261.77
536.38	59821.75
536.55	59568.97
536.72	59182.79
536.89	58864.47
537.06	59615.79
537.23	60617.53
537.40	60732.22
537.57	60816.48
537.74	60346.03
537.91	60441.99
538.08	60505.19
538.25	60432.63
538.42	60631.58
538.59	60395.18
538.75	59798.35
538.92	59683.66
539.09	59482.37
539.26	59351.30
539.43	59269.39
539.60	59157.04
539.77	59533.87
539.94	59334.92
540.11	58532.12
540.28	58284.02
540.44	58178.70
540.61	58494.67
540.78	58749.79
540.95	58892.56
541.12	59568.97
541.29	59606.42
541.46	59828.77
541.62	59781.96
541.79	59831.11
541.96	59309.18
542.13	59152.36
542.30	59636.85
542.47	59629.83
542.63	59360.67
542.80	59110.23
542.97	59388.75
543.14	59213.21
543.31	59192.15
543.48	59641.53
543.64	60350.71
543.81	60821.16
543.98	60484.12
544.15	59917.71
544.32	59213.21
544.48	59515.14
544.65	59852.18
544.82	60090.91
544.99	59763.24
545.16	59587.70
545.32	59248.32
545.49	60196.24
545.66	60322.63
545.83	59997.29
546.00	59686.00
546.16	59201.51
546.33	59405.14
546.50	59618.13
546.67	59772.60
546.83	59449.61
547.00	59522.16
547.17	58602.33
547.34	58326.15
547.50	58206.78
547.67	58590.63
547.84	58670.21
548.00	59131.29
548.17	59374.71
548.34	59341.94
548.51	59578.34
548.67	59377.05
548.84	59480.03
549.01	59522.16
549.18	59189.81
549.34	59231.94
549.51	59292.79
549.68	59241.30
549.84	58993.20
550.01	58812.98
550.18	58691.27
550.34	58976.82
550.51	58887.88
550.68	59119.59
550.84	58534.46
551.01	58642.12
551.18	58497.01
551.34	58726.38
551.51	58995.54
551.68	59355.99
551.84	59323.22
552.01	59260.02
552.18	58918.31
552.34	58234.87
552.51	57977.41
552.68	57621.65
552.84	58255.93
553.01	58726.38
553.18	58543.82
553.34	58578.93
553.51	58728.72
553.67	58932.35
553.84	59049.38
554.01	59161.72
554.17	58925.33
554.34	58913.62
554.51	58922.99
554.67	59299.81
554.84	59021.29
555.00	58731.06
555.17	58473.60
555.33	58431.47
555.50	58525.10
555.67	58536.80
555.83	58253.59
556.00	58188.06
556.16	57977.41
556.33	57893.15
556.50	57626.33
556.66	57490.58
556.83	57544.41
556.99	57322.06
557.16	57539.73
557.32	57827.62
557.49	58054.65
557.65	57778.46
557.82	58052.31
557.98	57872.09
558.15	57546.75
558.32	56549.68
558.48	55901.36
558.65	56067.53
558.81	56371.80
558.98	56456.06
559.14	56863.32
559.31	57045.88
559.47	56891.40
559.64	56640.96
559.80	56222.01
559.97	56287.54
560.13	56790.76
560.30	57432.07
560.46	58040.60
560.63	58342.53
560.79	58166.99
560.96	57958.69
561.12	56858.63
561.29	56013.70
561.45	56165.84
561.61	56697.14
561.78	57205.03
561.94	57055.24
562.11	56655.01
562.27	56521.60
562.44	56715.86
562.60	57162.90
562.77	57558.45
562.93	57279.93
563.10	57272.91
563.26	56772.03
563.42	56734.59
563.59	56732.25
563.75	56631.60
563.92	56486.49
564.08	56692.46
564.24	56858.63
564.41	56727.56
564.57	56940.55
564.74	56491.17
564.90	56514.58
565.07	56435.00
565.23	55819.44
565.39	55686.03
565.56	55231.96
565.72	54983.86
565.88	55370.05
566.05	55400.48
566.21	55662.62
566.38	55737.52
566.54	55856.88
566.70	56041.79
566.87	56552.02
567.03	56671.39
567.19	56636.28
567.36	56432.66
567.52	56114.34
567.68	56163.50
567.85	55309.20
568.01	55058.76
568.17	54635.13
568.34	54740.45
568.50	54674.91
568.66	54859.82
568.83	55260.05
568.99	55292.82
569.15	55463.67
569.32	55248.35
569.48	54993.23
569.64	54887.90
569.81	54691.30
569.97	54585.97
570.13	54520.44
570.30	54115.53
570.46	53546.78
570.62	53244.85
570.78	53083.35
570.95	53542.10
571.11	54049.99
571.27	53963.39
571.43	54349.58
571.60	54674.91
571.76	54967.48
571.92	55023.65
572.09	55028.34
572.25	55178.13
572.41	55054.08
572.57	55124.30
572.74	55084.51
572.90	54637.47
573.06	54808.32
573.22	54550.87
573.38	54906.63
573.55	54553.21
573.71	54733.43
573.87	54700.66
574.03	54270.00
574.20	54431.50
574.36	54171.70
574.52	53829.98
574.68	53975.09
574.84	53638.06
575.01	53191.01
575.17	52921.85
575.33	53282.30
575.49	53340.81
575.65	53633.38
575.82	53392.30
575.98	53010.79
576.14	53579.54
576.30	53668.48
576.46	53453.15
576.62	53890.83
576.79	53432.09
576.95	53427.41
577.11	53214.42
577.27	53296.34
577.43	53572.52
577.59	53389.96
577.75	52650.35
577.92	51959.89
578.08	51817.12
578.24	51744.56
578.40	52041.81
578.56	52648.01
578.72	52109.69
578.88	52591.84
579.04	52790.78
579.21	52842.27
579.37	52814.19
579.53	53125.48
579.69	53235.48
579.85	53188.67
580.01	53085.69
580.17	52643.33
580.33	52673.76
580.49	52664.39
580.65	52963.98
580.82	52877.38
580.98	52973.34
581.14	53013.13
581.30	52851.64
581.46	53031.86
581.62	52835.25
581.78	53064.63
581.94	52959.30
582.10	53113.78
582.26	53109.10
582.42	52907.81
582.58	52933.56
582.74	53235.48
582.90	53095.05
583.06	53081.01
583.22	52959.30
583.38	52776.74
583.54	52868.02
583.70	52725.25
583.86	52708.86
584.02	52739.29
584.18	52973.34
584.34	52397.57
584.50	52348.42
584.66	52413.96
584.82	51856.91
584.98	51838.18
585.14	51576.04
