SpectraSuite Data File
++++++++++++++++++++++++++++++++++++
Date: Mon Oct 07 14:53:44 GMT-05:00 2013
User: price-jones
Dark Spectrum Present: No
Reference Spectrum Present: No
Number of Sampled Component Spectra: 1
Spectrometers: USB2+H05261
Integration Time (usec): 100000 (USB2+H05261)
Spectra Averaged: 1 (USB2+H05261)
Boxcar Smoothing: 0 (USB2+H05261)
Correct for Electrical Dark: No (USB2+H05261)
Strobe/Lamp Enabled: No (USB2+H05261)
Correct for Detector Non-linearity: No (USB2+H05261)
Correct for Stray Light: No (USB2+H05261)
Number of Pixels in Processed Spectrum: 2048
>>>>>Begin Processed Spectral Data<<<<<
365.73	0.00
365.92	0.00
366.12	0.00
366.32	0.00
366.52	0.00
366.72	0.00
366.91	0.00
367.11	0.00
367.31	0.00
367.51	0.00
367.70	0.00
367.90	0.00
368.10	0.00
368.30	0.00
368.49	0.00
368.69	0.00
368.89	0.00
369.09	0.00
369.28	0.00
369.48	0.00
369.68	0.00
369.87	0.00
370.07	0.00
370.27	0.00
370.47	505.56
370.66	3288.45
370.86	3840.82
371.06	4231.69
371.25	4203.60
371.45	3953.16
371.65	3494.42
371.84	3358.67
372.04	3412.50
372.24	3882.95
372.44	3999.98
372.63	3995.29
372.83	3679.32
373.03	3358.67
373.22	2937.37
373.42	3218.24
373.62	3534.21
373.81	3999.98
374.01	3875.93
374.21	3424.20
374.40	3316.54
374.60	3496.76
374.79	3756.56
374.99	4547.66
375.19	4938.53
375.38	4784.06
375.58	4535.96
375.78	4397.87
375.97	4463.40
376.17	4727.88
376.37	4681.07
376.56	4940.87
376.76	5076.62
376.95	5490.90
377.15	5741.33
377.35	6071.35
377.54	6338.17
377.74	6424.77
377.93	6633.08
378.13	6286.68
378.33	5877.09
378.52	5596.22
378.72	5394.93
378.91	5343.44
379.11	5036.83
379.31	4819.16
379.50	4795.76
379.70	5142.16
379.89	5872.40
380.09	6319.45
380.28	6403.71
380.48	6523.07
380.68	6141.57
380.87	6094.76
381.07	5734.31
381.26	5203.01
381.46	5025.13
381.65	4786.40
381.85	4624.90
382.04	4367.44
382.24	4131.05
382.43	3772.94
382.63	3901.67
382.83	3880.61
383.02	3782.31
383.22	3941.46
383.41	3927.42
383.61	4074.87
383.80	4793.42
384.00	5270.89
384.19	6045.60
384.39	6415.41
384.58	6363.92
384.78	6031.56
384.97	6076.03
385.17	5844.32
385.36	5556.43
385.56	5289.61
385.75	5310.68
385.95	5909.85
386.14	6546.48
386.34	6504.35
386.53	6286.68
386.72	5928.58
386.92	5937.94
387.11	6251.57
387.31	6509.03
387.50	6546.48
387.70	6150.93
387.89	6113.48
388.09	6071.35
388.28	6127.52
388.48	6211.78
388.67	6621.38
388.86	7480.35
389.06	8109.96
389.25	8292.52
389.45	8524.23
389.64	8402.52
389.84	8217.62
390.03	8107.62
390.22	8217.62
390.42	8336.99
390.61	8828.50
390.81	9533.00
391.00	9799.82
391.19	9912.17
391.39	9467.47
391.58	8990.00
391.78	8332.31
391.97	7859.52
392.16	7569.29
392.36	6991.18
392.55	5533.03
392.75	4369.78
392.94	3604.42
393.13	3606.77
393.33	4283.18
393.52	5572.82
393.71	6518.39
393.91	7510.78
394.10	7920.37
394.29	8889.35
394.49	9551.73
394.68	10387.30
394.88	10509.01
395.07	10707.95
395.26	10600.29
395.46	10094.73
395.65	9666.41
395.84	8683.39
396.04	7328.22
396.23	5867.72
396.42	4987.68
396.62	4725.54
396.81	5310.68
397.00	6834.36
397.19	8793.39
397.39	10181.33
397.58	11496.71
397.77	12681.02
397.97	12879.97
398.16	13249.77
398.35	13432.33
398.55	13982.36
398.74	14581.54
398.93	14927.94
399.12	14647.07
399.32	13862.99
399.51	14239.82
399.70	15122.20
399.90	15115.18
400.09	15220.50
400.28	15059.01
400.47	15213.48
400.67	16032.67
400.86	16350.98
401.05	16322.90
401.24	16145.02
401.44	16608.44
401.63	16348.64
401.82	16971.22
402.01	16854.20
402.21	16945.48
402.40	16992.29
402.59	16374.39
402.78	15812.66
402.97	15290.72
403.17	15934.37
403.36	16896.33
403.55	17359.75
403.74	17816.16
403.93	16748.87
404.13	15744.78
404.32	15391.36
404.51	15957.77
404.70	17235.70
404.89	17341.03
405.09	17060.16
405.28	16505.46
405.47	16535.88
405.66	16505.46
405.85	16046.71
406.05	15594.99
406.24	15733.08
406.43	16210.55
406.62	17195.92
406.81	17319.96
407.00	16575.67
407.20	16240.98
407.39	16484.39
407.58	17050.80
407.77	17666.36
407.96	18331.08
408.15	18359.16
408.34	18523.00
408.54	19365.59
408.73	19571.56
408.92	19414.74
409.11	18616.62
409.30	17617.21
409.49	17022.72
409.68	15529.45
409.87	15187.74
410.07	16168.42
410.26	17493.16
410.45	18544.06
410.64	18923.23
410.83	19676.88
411.02	20163.72
411.21	20699.70
411.40	20453.94
411.59	20837.79
411.78	20610.76
411.98	20245.63
412.17	20823.75
412.36	20240.95
412.55	19999.88
412.74	19932.00
412.93	19377.30
413.12	19524.75
413.31	21275.47
413.50	21135.04
413.69	22045.51
413.88	21359.73
414.07	20418.83
414.26	20961.84
414.45	21759.96
414.64	21701.45
414.83	21783.37
415.02	21025.03
415.22	21050.78
415.41	21694.43
415.60	22600.21
415.79	23517.70
415.98	24051.34
416.17	23927.30
416.36	22953.63
416.55	23021.51
416.74	22125.08
416.93	21565.70
417.12	21678.04
417.31	21834.86
417.50	22244.45
417.69	23288.33
417.88	22843.63
418.07	22314.67
418.26	22586.17
418.45	22520.63
418.64	23204.07
418.83	23978.79
419.02	23985.81
419.21	23531.75
419.39	22419.99
419.58	21493.14
419.77	21544.63
419.96	22508.93
420.15	23510.68
420.34	24397.74
420.53	25153.74
420.72	25935.48
420.91	25263.74
421.10	25095.22
421.29	25001.60
421.48	24140.29
421.67	25296.51
421.86	24847.13
422.05	23168.96
422.24	20669.27
422.43	20177.76
422.61	22380.20
422.80	24477.32
422.99	24524.13
423.18	23234.50
423.37	22848.31
423.56	23070.66
423.75	23583.24
423.94	23896.87
424.13	22721.92
424.32	23112.79
424.50	22944.27
424.69	22586.17
424.88	22850.65
425.07	22747.67
425.26	22984.06
425.45	22513.61
425.64	22155.51
425.83	21942.52
426.01	23520.04
426.20	23889.85
426.39	23882.83
426.58	22188.28
426.77	20177.76
426.96	19716.67
427.15	20390.75
427.33	22047.85
427.52	22967.68
427.71	23269.61
427.90	22450.42
428.09	22719.58
428.28	22354.46
428.46	21455.69
428.65	20975.88
428.84	21256.75
429.03	22045.51
429.22	20863.54
429.40	19920.30
429.59	17722.54
429.78	15712.02
429.97	16049.05
430.16	16142.67
430.34	16065.44
430.53	15988.20
430.72	16594.40
430.91	18150.85
431.10	21331.64
431.28	25078.84
431.47	27288.31
431.66	27861.74
431.85	25291.83
432.03	23147.90
432.22	22302.96
432.41	22647.02
432.60	25710.78
432.79	26630.62
432.97	26871.69
433.16	26141.44
433.35	24243.27
433.54	21935.50
433.72	20301.81
433.91	20966.52
434.10	23686.22
434.28	25139.69
434.47	26558.06
434.66	26314.64
434.85	25493.12
435.03	25273.10
435.22	25874.62
435.41	27995.15
435.59	27740.03
435.78	28264.31
435.97	28823.70
436.16	29240.31
436.34	28624.75
436.53	27618.32
436.72	28238.56
436.90	26532.31
437.09	26281.88
437.28	25986.97
437.46	26314.64
437.65	27314.05
437.84	24886.92
438.02	23028.53
438.21	22546.38
438.40	24056.03
438.58	26141.44
438.77	26899.78
438.96	27325.75
439.14	28250.27
439.33	28559.22
439.52	29167.76
439.70	28561.56
439.89	27644.07
440.08	27297.67
440.26	27126.81
440.45	27770.46
440.63	29790.34
440.82	31510.63
441.01	31094.02
441.19	30944.22
441.38	31248.49
441.57	32290.03
441.75	33184.12
441.94	33116.24
442.12	32701.96
442.31	33413.49
442.50	33315.19
442.68	32603.66
442.87	32697.28
443.05	31983.42
443.24	32428.12
443.43	32982.83
443.61	33886.28
443.80	34408.22
443.98	32360.25
444.17	32549.83
444.35	34015.01
444.54	34735.89
444.73	34611.84
444.91	32826.01
445.10	31737.66
445.28	30183.55
445.47	29546.92
445.65	30071.20
445.84	30878.69
446.02	32149.60
446.21	32755.80
446.39	32500.68
446.58	32950.06
446.77	33600.73
446.95	33289.44
447.14	34698.44
447.32	35405.28
447.51	34293.53
447.69	33010.92
447.88	32699.62
448.06	32877.51
448.25	33991.60
448.43	34209.27
448.62	33284.76
448.80	33479.02
448.99	33743.50
449.17	34007.98
449.36	33750.52
449.54	35346.77
449.73	35559.76
449.91	36161.28
450.10	37022.59
450.28	37511.77
450.46	37163.03
450.65	37284.73
450.83	37205.16
451.02	36048.93
451.20	36165.96
451.39	36217.45
451.57	35590.19
451.76	35782.11
451.94	35676.79
452.13	35089.31
452.31	33689.67
452.49	31990.44
452.68	32135.56
452.86	32285.35
453.05	32512.38
453.23	33727.12
453.42	34625.89
453.60	35187.61
453.78	35747.00
453.97	35302.30
454.15	35054.20
454.34	34469.07
454.52	34508.86
454.70	34183.52
454.89	34265.44
455.07	34459.71
455.26	35112.72
455.44	37027.28
455.62	36938.33
455.81	37298.78
455.99	37036.64
456.17	36598.96
456.36	36690.24
456.54	37820.72
456.73	37823.06
456.91	38260.74
457.09	38405.85
457.28	39285.89
457.46	37544.53
457.64	37294.10
457.83	36486.61
458.01	35618.27
458.19	36266.60
458.38	36238.51
458.56	37865.19
458.74	37846.46
458.93	37240.26
459.11	36767.48
459.29	36442.14
459.48	36767.48
459.66	36374.27
459.84	37022.59
460.03	37757.52
460.21	37287.07
460.39	38492.45
460.57	38473.73
460.76	39016.73
460.94	39124.40
461.12	38160.09
461.31	38785.02
461.49	38607.14
461.67	38129.67
461.85	39580.80
462.04	39288.23
462.22	39449.73
462.40	39367.81
462.59	39285.89
462.77	39419.30
462.95	39346.75
463.13	38773.31
463.32	38429.26
463.50	38408.19
463.68	38319.25
463.86	38122.65
464.05	38052.43
464.23	37476.66
464.41	37254.31
464.59	36133.19
464.78	38281.80
464.96	37776.25
465.14	37720.07
465.32	38700.76
465.50	39531.65
465.69	39772.72
465.87	39180.57
466.05	38043.07
466.23	36390.65
466.41	35381.88
466.60	36407.03
466.78	36659.81
466.96	37530.49
467.14	37773.91
467.32	38274.78
467.51	38621.18
467.69	36727.69
467.87	37284.73
468.05	37750.50
468.23	38438.62
468.41	38473.73
468.60	38192.86
468.78	38899.70
468.96	38005.62
469.14	38967.58
469.32	39138.44
469.50	37549.21
469.69	37694.33
469.87	37174.73
470.05	37083.45
470.23	37280.05
470.41	37542.19
470.59	37961.15
470.77	37956.47
470.95	38829.49
471.14	39187.59
471.32	39260.15
471.50	41422.80
471.68	41352.58
471.86	41631.11
472.04	41827.71
472.22	41820.69
472.40	39618.25
472.58	39683.78
472.77	38993.32
472.95	39854.64
473.13	41226.20
473.31	39906.13
473.49	40294.66
473.67	40713.62
473.85	41167.68
474.03	42021.98
474.21	42124.96
474.39	42728.82
474.57	43000.32
474.75	42993.30
474.93	42490.09
475.12	41235.56
475.30	41982.19
475.48	41956.44
475.66	42419.87
475.84	41846.44
476.02	41900.27
476.20	40844.69
476.38	41614.72
476.56	42707.76
476.74	43498.86
476.92	43384.17
477.10	44493.58
477.28	45436.82
477.46	45139.57
477.64	45670.87
477.82	45741.09
478.00	46087.49
478.18	45399.37
478.36	45333.84
478.54	45532.78
478.72	45820.67
478.90	46490.06
479.08	47887.36
479.26	47887.36
479.44	47653.31
479.62	47454.36
479.80	47372.44
479.98	47805.44
480.16	48369.51
480.34	47842.89
480.52	48388.24
480.70	48519.31
480.88	48519.31
481.06	49305.73
481.24	49221.47
481.41	50089.80
481.59	50583.66
481.77	50557.91
481.95	49879.16
482.13	49628.72
482.31	50164.70
482.49	50192.79
482.67	50461.95
482.85	50878.57
483.03	50990.91
483.21	51721.16
483.39	51554.98
483.57	50714.73
483.74	50138.96
483.92	50674.94
484.10	50871.54
484.28	51632.22
484.46	52156.50
484.64	52292.25
484.82	51751.59
485.00	51622.86
485.18	50473.65
485.35	49528.08
485.53	46707.73
485.71	42761.59
485.89	41832.39
486.07	43718.87
486.25	47330.31
486.43	49869.79
486.61	50567.27
486.78	50358.97
486.96	50672.60
487.14	51980.96
487.32	52650.35
487.50	53296.34
487.68	54028.93
487.85	54770.88
488.03	54855.14
488.21	54494.69
488.39	53652.10
488.57	53607.63
488.75	53120.80
488.92	53401.66
489.10	55475.38
489.28	56800.12
489.46	57235.46
489.64	57069.28
489.81	57521.01
489.99	56987.36
490.17	57001.41
490.35	57422.70
490.53	57071.62
490.70	56767.35
490.88	56465.42
491.06	57553.77
491.24	57380.57
491.41	56493.51
491.59	55182.81
491.77	54340.22
491.95	55313.88
492.13	56390.53
492.30	57411.00
492.48	57996.13
492.66	58815.32
492.84	58567.23
493.01	58368.28
493.19	57869.75
493.37	57764.42
493.54	57429.72
493.72	57958.69
493.90	58777.87
494.08	59407.48
494.25	59597.06
494.43	59746.86
494.61	60259.43
494.79	60245.39
494.96	60177.51
495.14	59648.55
495.32	58801.28
495.49	58066.35
495.67	59025.97
495.85	60020.70
496.02	60704.13
496.20	60552.00
496.38	60128.36
496.55	60046.44
496.73	60516.89
496.91	60573.06
497.09	61076.28
497.26	61324.38
497.44	60568.38
497.62	60299.22
497.79	59515.14
497.97	58550.84
498.14	58504.03
498.32	59533.87
498.50	60285.18
498.67	60975.64
498.85	60825.84
499.03	61020.11
499.20	61258.84
499.38	61352.46
499.56	61003.72
499.73	60626.90
499.91	60214.96
500.08	60013.68
500.26	59262.36
500.44	59498.76
500.61	60226.66
500.79	60214.96
500.97	59686.00
501.14	59337.26
501.32	59428.54
501.49	59393.43
501.67	59681.32
501.84	60116.66
502.02	60385.82
502.20	60821.16
502.37	60867.97
502.55	60959.25
502.72	61347.78
502.90	61628.65
503.07	61584.18
503.25	61181.60
503.43	60463.06
503.60	59716.43
503.78	59128.95
503.95	59707.07
504.13	60823.50
504.30	61572.47
504.48	61490.55
504.65	61059.90
504.83	61237.78
505.01	61654.39
505.18	61836.95
505.36	62637.42
505.53	62618.69
505.71	62747.42
505.88	62808.28
506.06	62099.09
506.23	61977.39
506.41	61579.49
506.58	61638.01
506.76	61726.95
506.93	61839.29
507.11	61549.07
507.28	61696.52
507.46	61490.55
507.63	60685.41
507.81	60521.57
507.98	60882.02
508.16	61450.77
508.33	61801.85
508.50	62127.18
508.68	62452.51
508.85	62845.72
509.03	62761.47
509.20	62735.72
509.38	62173.99
509.55	61509.28
509.73	61556.09
509.90	61984.41
510.08	62246.55
510.25	62110.80
510.42	62056.96
510.60	61888.45
510.77	61963.34
510.95	62693.59
511.12	62588.27
511.30	63114.89
511.47	63267.02
511.64	63267.02
511.82	62967.43
511.99	62159.95
512.17	61822.91
512.34	61368.85
512.51	61729.29
512.69	61848.66
512.86	61794.82
513.04	62239.53
513.21	62309.74
513.38	62073.35
513.56	61528.00
513.73	61034.15
513.90	61359.48
514.08	61080.96
514.25	61462.47
514.43	61757.38
514.60	61663.75
514.77	61822.91
514.95	61928.23
515.12	61925.89
515.29	62230.16
515.47	62464.22
515.64	62862.11
515.81	62457.20
515.99	62019.52
516.16	60657.32
516.33	58616.38
516.51	57205.03
516.68	56617.56
516.85	56320.31
517.03	56341.38
517.20	58712.34
517.37	61045.85
517.54	62035.90
517.72	61572.47
517.89	59489.40
518.06	57214.40
518.24	57422.70
518.41	59412.16
518.58	60678.39
518.75	60860.95
518.93	61045.85
519.10	60921.80
519.27	61385.23
519.45	61399.27
519.62	62199.74
519.79	62536.77
519.96	62349.53
520.14	62014.83
520.31	61399.27
520.48	61155.86
520.65	61607.58
520.83	62379.96
521.00	62684.23
521.17	62475.92
521.34	62012.49
521.52	62424.43
521.69	62876.15
521.86	63281.06
522.03	62929.98
522.20	61972.70
522.38	60844.57
522.55	60711.16
522.72	61570.13
522.89	61616.94
523.07	61762.06
523.24	62049.94
523.41	62855.09
523.58	63042.33
523.75	63512.78
523.92	63325.53
524.10	63126.59
524.27	63257.66
524.44	63126.59
524.61	62721.68
524.78	62983.82
524.96	62721.68
525.13	62684.23
525.30	62944.03
525.47	63093.82
525.64	63269.36
525.81	62621.03
525.98	61528.00
526.16	59938.78
526.33	59400.46
526.50	59126.61
526.67	58890.22
526.84	59341.94
527.01	60320.29
527.18	61139.47
527.36	61647.37
527.53	62705.29
527.70	62855.09
527.87	62379.96
528.04	61787.80
528.21	62295.70
528.38	63011.90
528.55	63505.76
528.72	63756.19
528.89	63859.18
529.07	63772.58
529.24	62990.84
529.41	62496.98
529.58	61740.99
529.75	62012.49
529.92	62499.33
530.09	62922.96
530.26	63131.27
530.43	63540.86
530.60	63601.72
530.77	63702.36
530.94	63889.60
531.11	63531.50
531.28	63180.42
531.46	62829.34
531.63	63114.89
531.80	62932.32
531.97	62557.84
532.14	61843.98
532.31	60877.33
532.48	60446.68
532.65	60104.96
532.82	61261.18
532.99	62134.20
533.16	62705.29
533.33	63011.90
533.50	62731.04
533.67	62258.25
533.84	61865.04
534.01	62024.20
534.18	62262.93
534.35	62515.71
534.52	62302.72
534.69	62468.90
534.86	62798.91
535.03	63049.35
535.20	63458.94
535.37	63709.38
535.54	63868.54
535.71	63575.97
535.88	63173.40
536.05	62611.67
536.22	62501.67
536.38	61951.64
536.55	61570.13
536.72	61038.83
536.89	61013.08
537.06	61694.18
537.23	62555.50
537.40	62691.25
537.57	62653.80
537.74	62375.28
537.91	62475.92
538.08	62316.76
538.25	62546.14
538.42	62639.76
538.59	62674.87
538.75	61961.00
538.92	61834.61
539.09	61731.63
539.26	61422.68
539.43	61160.54
539.60	61354.80
539.77	61623.96
539.94	61436.72
540.11	60697.11
540.28	60020.70
540.44	60334.33
540.61	60416.25
540.78	60783.71
540.95	61045.85
541.12	61364.17
541.29	61827.59
541.46	62085.05
541.62	61937.60
541.79	61932.92
541.96	61359.48
542.13	61263.52
542.30	61488.21
542.47	61836.95
542.63	61586.52
542.80	61277.57
542.97	61572.47
543.14	61158.20
543.31	61336.08
543.48	61956.32
543.64	62494.64
543.81	62791.89
543.98	62555.50
544.15	62134.20
544.32	61455.45
544.48	61457.79
544.65	61942.28
544.82	62288.68
544.99	62040.58
545.16	61792.48
545.32	61455.45
545.49	62110.80
545.66	62681.89
545.83	62162.29
546.00	61813.55
546.16	61450.77
546.33	61659.07
546.50	61621.62
546.67	62014.83
546.83	61818.23
547.00	61771.42
547.17	60886.70
547.34	60495.83
547.50	60540.30
547.67	60987.34
547.84	60896.06
548.00	61392.25
548.17	61813.55
548.34	61399.27
548.51	61598.22
548.67	61495.24
548.84	61546.73
549.01	61628.65
549.18	61654.39
549.34	61530.34
549.51	61371.19
549.68	61666.09
549.84	61209.69
550.01	61329.06
550.18	61132.45
550.34	61186.28
550.51	61228.41
550.68	61289.27
550.84	60910.10
551.01	60790.73
551.18	60954.57
551.34	61080.96
551.51	61298.63
551.68	61750.35
551.84	61853.34
552.01	61453.11
552.18	61354.80
552.34	60732.22
552.51	60289.86
552.68	60226.66
552.84	60662.00
553.01	60886.70
553.18	60783.71
553.34	60989.68
553.51	61071.60
553.67	61242.46
553.84	61408.64
554.01	61279.91
554.17	61165.22
554.34	61104.37
554.51	61265.86
554.67	61666.09
554.84	61523.32
555.00	61001.38
555.17	60949.89
555.33	60985.00
555.50	60870.31
555.67	60844.57
555.83	60879.67
556.00	60374.12
556.16	60420.93
556.33	60140.07
556.50	60025.38
556.66	60076.87
556.83	59648.55
556.99	60023.04
557.16	60072.19
557.32	60238.37
557.49	60385.82
557.65	60252.41
557.82	60341.35
557.98	60231.35
558.15	60142.41
558.32	59238.96
558.48	58216.14
558.65	58536.80
558.81	58990.86
558.98	59168.74
559.14	59515.14
559.31	59451.95
559.47	59407.48
559.64	59306.83
559.80	58866.81
559.97	58745.11
560.13	59360.67
560.30	60121.34
560.46	60680.73
560.63	60715.84
560.79	60821.16
560.96	60577.75
561.12	59388.75
561.29	58646.80
561.45	58494.67
561.61	59054.06
561.78	59465.99
561.94	59554.93
562.11	59419.18
562.27	59260.02
562.44	59475.35
562.60	59877.93
562.77	59924.74
562.93	60025.38
563.10	59770.26
563.26	59274.07
563.42	59262.36
563.59	59058.74
563.75	59182.79
563.92	59075.12
564.08	59058.74
564.24	59400.46
564.41	59435.56
564.57	59393.43
564.74	59194.49
564.90	58953.41
565.07	59018.95
565.23	58518.07
565.39	58155.29
565.56	58092.10
565.72	57670.80
565.88	58005.50
566.05	58253.59
566.21	58368.28
566.38	58482.97
566.54	58585.95
566.70	58965.12
566.87	59175.76
567.03	59171.08
567.19	59135.98
567.36	58885.54
567.52	58869.15
567.68	58822.34
567.85	58284.02
568.01	57787.83
568.17	57350.15
568.34	57689.52
568.50	57649.74
568.66	57635.69
568.83	57886.13
568.99	58003.16
569.15	58164.65
569.32	58145.93
569.48	57979.75
569.64	57888.47
569.81	57572.50
569.97	57450.79
570.13	57382.91
570.30	56917.15
570.46	56563.73
570.62	56367.12
570.78	56205.62
570.95	56404.57
571.11	56982.68
571.27	56942.89
571.43	57408.66
571.60	57542.07
571.76	57741.02
571.92	57841.66
572.09	57851.02
572.25	58113.16
572.41	58089.76
572.57	57766.76
572.74	57900.17
572.90	57329.08
573.06	57483.56
573.22	57722.29
573.38	57595.90
573.55	57418.02
573.71	57851.02
573.87	57668.46
574.03	57235.46
574.20	57242.48
574.36	57165.24
574.52	57083.33
574.68	56870.34
574.84	56537.98
575.01	56301.59
575.17	56130.73
575.33	56332.01
575.49	56456.06
575.65	56779.06
575.82	56619.90
575.98	56341.38
576.14	56535.64
576.30	57048.22
576.46	56757.99
576.62	56750.97
576.79	56795.44
576.95	56442.02
577.11	56273.50
577.27	56472.45
577.43	56636.28
577.59	56158.81
577.75	56060.51
577.92	55292.82
578.08	55128.98
578.24	55154.72
578.40	55489.42
578.56	55873.27
578.72	55573.68
578.88	55800.71
579.04	55875.61
579.21	55903.70
579.37	55945.83
579.53	56133.07
579.69	56076.90
579.85	56355.42
580.01	56074.55
580.17	55791.35
580.33	55779.65
580.49	55999.66
580.65	56107.32
580.82	56385.85
580.98	56100.30
581.14	56081.58
581.30	56116.68
581.46	56069.87
581.62	56147.11
581.78	56170.52
581.94	56444.36
582.10	56350.74
582.26	56303.93
582.42	56222.01
582.58	56390.53
582.74	56196.26
582.90	56135.41
583.06	56179.88
583.22	56009.02
583.38	56165.84
583.54	56114.34
583.70	56119.02
583.86	56039.45
584.02	55821.78
584.18	55896.67
584.34	55899.01
584.50	55608.79
584.66	55693.05
584.82	55262.39
584.98	55360.69
585.14	55234.30
