SpectraSuite Data File
++++++++++++++++++++++++++++++++++++
Date: Mon Oct 07 14:54:58 GMT-05:00 2013
User: price-jones
Dark Spectrum Present: No
Reference Spectrum Present: No
Number of Sampled Component Spectra: 1
Spectrometers: USB2+H05261
Integration Time (usec): 10000 (USB2+H05261)
Spectra Averaged: 1 (USB2+H05261)
Boxcar Smoothing: 0 (USB2+H05261)
Correct for Electrical Dark: No (USB2+H05261)
Strobe/Lamp Enabled: No (USB2+H05261)
Correct for Detector Non-linearity: No (USB2+H05261)
Correct for Stray Light: No (USB2+H05261)
Number of Pixels in Processed Spectrum: 2048
>>>>>Begin Processed Spectral Data<<<<<
365.73	0.00
365.92	0.00
366.12	0.00
366.32	0.00
366.52	0.00
366.72	0.00
366.91	0.00
367.11	0.00
367.31	0.00
367.51	0.00
367.70	0.00
367.90	0.00
368.10	0.00
368.30	0.00
368.49	0.00
368.69	0.00
368.89	0.00
369.09	0.00
369.28	0.00
369.48	0.00
369.68	0.00
369.87	0.00
370.07	0.00
370.27	0.00
370.47	0.00
370.66	65.54
370.86	238.73
371.06	170.86
371.25	201.29
371.45	121.71
371.65	170.86
371.84	159.16
372.04	147.45
372.24	191.92
372.44	203.63
372.63	257.46
372.83	168.52
373.03	119.37
373.22	107.66
373.42	152.13
373.62	212.99
373.81	184.90
374.01	220.01
374.21	177.88
374.40	145.11
374.60	145.11
374.79	177.88
374.99	311.29
375.19	330.02
375.38	376.83
375.58	355.76
375.78	311.29
375.97	320.65
376.17	360.44
376.37	297.25
376.56	325.33
376.76	355.76
376.95	337.04
377.15	383.85
377.35	407.25
377.54	428.32
377.74	447.04
377.93	505.56
378.13	477.47
378.33	489.17
378.52	411.93
378.72	257.46
378.91	334.70
379.11	348.74
379.31	327.68
379.50	297.25
379.70	402.57
379.89	437.68
380.09	425.98
380.28	472.79
380.48	482.15
380.68	468.11
380.87	341.72
381.07	402.57
381.26	330.02
381.46	301.93
381.65	208.31
381.85	238.73
382.04	294.91
382.24	191.92
382.43	180.22
382.63	194.26
382.83	166.18
383.02	227.03
383.22	173.20
383.41	196.60
383.61	231.71
383.80	212.99
384.00	369.80
384.19	372.15
384.39	479.81
384.58	493.85
384.78	402.57
384.97	404.91
385.17	306.61
385.36	367.46
385.56	374.49
385.75	360.44
385.95	449.38
386.14	423.64
386.34	458.74
386.53	514.92
386.72	407.25
386.92	449.38
387.11	374.49
387.31	491.51
387.50	493.85
387.70	440.02
387.89	374.49
388.09	418.96
388.28	355.76
388.48	468.11
388.67	566.41
388.86	610.88
389.06	678.76
389.25	718.54
389.45	610.88
389.64	636.63
389.84	655.35
390.03	617.90
390.22	578.11
390.42	725.57
390.61	695.14
390.81	784.08
391.00	814.51
391.19	840.25
391.39	858.98
391.58	648.33
391.78	716.20
391.97	653.01
392.16	592.16
392.36	402.57
392.55	362.78
392.75	292.57
392.94	112.35
393.13	110.01
393.33	212.99
393.52	334.70
393.71	472.79
393.91	449.38
394.10	517.26
394.29	805.14
394.49	809.83
394.68	861.32
394.88	912.81
395.07	985.37
395.26	929.19
395.46	819.19
395.65	751.31
395.84	720.88
396.04	519.60
396.23	411.93
396.42	313.63
396.62	236.39
396.81	348.74
397.00	463.43
397.19	683.44
397.39	805.14
397.58	964.30
397.77	1102.39
397.97	1142.18
398.16	1081.33
398.35	1102.39
398.55	1151.54
398.74	1245.16
398.93	1317.72
399.12	1303.68
399.32	1198.35
399.51	1226.44
399.70	1331.76
399.90	1334.11
400.09	1289.64
400.28	1273.25
400.47	1385.60
400.67	1359.85
400.86	1355.17
401.05	1406.66
401.24	1392.62
401.44	1462.83
401.63	1488.58
401.82	1399.64
402.01	1453.47
402.21	1476.88
402.40	1504.96
402.59	1322.40
402.78	1327.08
402.97	1331.76
403.17	1357.51
403.36	1441.77
403.55	1465.18
403.74	1633.69
403.93	1406.66
404.13	1317.72
404.32	1348.15
404.51	1397.30
404.70	1535.39
404.89	1502.62
405.09	1425.39
405.28	1380.92
405.47	1338.79
405.66	1446.45
405.85	1291.98
406.05	1324.74
406.24	1437.09
406.43	1362.19
406.62	1446.45
406.81	1451.13
407.00	1294.32
407.20	1357.51
407.39	1369.21
407.58	1418.36
407.77	1575.18
407.96	1596.25
408.15	1572.84
408.34	1575.18
408.54	1652.42
408.73	1732.00
408.92	1727.32
409.11	1668.80
409.30	1563.48
409.49	1345.81
409.68	1207.72
409.87	1261.55
410.07	1416.02
410.26	1394.96
410.45	1629.01
410.64	1614.97
410.83	1598.59
411.02	1640.72
411.21	1650.08
411.40	1858.39
411.59	1703.91
411.78	1809.23
411.98	1792.85
412.17	1799.87
412.36	1877.11
412.55	1746.04
412.74	1757.74
412.93	1673.48
413.12	1614.97
413.31	1844.34
413.50	1809.23
413.69	1963.71
413.88	1849.02
414.07	1788.17
414.26	1792.85
414.45	1809.23
414.64	1912.22
414.83	1879.45
415.02	1844.34
415.22	1771.79
415.41	1816.26
415.60	1956.69
415.79	2062.01
415.98	2059.67
416.17	2054.99
416.36	1994.14
416.55	1834.98
416.74	1853.70
416.93	1769.44
417.12	1877.11
417.31	1891.15
417.50	1783.49
417.69	1949.67
417.88	1966.05
418.07	1884.13
418.26	1900.52
418.45	1900.52
418.64	1881.79
418.83	2104.14
419.02	2062.01
419.21	1902.86
419.39	1872.43
419.58	1764.76
419.77	1806.89
419.96	1989.46
420.15	2008.18
420.34	1973.07
420.53	2101.80
420.72	2216.49
420.91	2197.76
421.10	2122.87
421.29	2127.55
421.48	2069.03
421.67	2183.72
421.86	2085.42
422.05	1760.08
422.24	1687.53
422.43	1713.27
422.61	1926.26
422.80	2097.12
422.99	2064.35
423.18	1973.07
423.37	1802.21
423.56	1933.28
423.75	1952.01
423.94	2031.58
424.13	1888.81
424.32	1844.34
424.50	1961.37
424.69	1919.24
424.88	1865.41
425.07	1863.07
425.26	1888.81
425.45	1891.15
425.64	1863.07
425.83	1778.81
426.01	1942.64
426.20	2031.58
426.39	1849.02
426.58	1750.72
426.77	1736.68
426.96	1619.65
427.15	1654.76
427.33	1806.89
427.52	1923.92
427.71	1853.70
427.90	1818.60
428.09	1799.87
428.28	1792.85
428.46	1694.55
428.65	1722.63
428.84	1755.40
429.03	1830.30
429.22	1617.31
429.40	1556.46
429.59	1416.02
429.78	1275.59
429.97	1270.91
430.16	1172.61
430.34	1385.60
430.53	1219.42
430.72	1313.04
430.91	1404.32
431.10	1694.55
431.28	2150.95
431.47	2258.62
431.66	2293.72
431.85	2038.61
432.03	2001.16
432.22	1809.23
432.41	1757.74
432.60	2155.63
432.79	2129.89
432.97	2176.70
433.16	2160.31
433.35	1912.22
433.54	1727.32
433.72	1617.31
433.91	1701.57
434.10	1907.54
434.28	2064.35
434.47	2186.06
434.66	2179.04
434.85	2005.84
435.03	2069.03
435.22	2033.93
435.41	2277.34
435.59	2165.00
435.78	2272.66
435.97	2305.43
436.16	2352.24
436.34	2368.62
436.53	2235.21
436.72	2314.79
436.90	2183.72
437.09	2136.91
437.28	2036.27
437.46	2214.15
437.65	2066.69
437.84	1975.41
438.02	1849.02
438.21	1956.69
438.40	1937.96
438.58	2111.16
438.77	2291.38
438.96	2314.79
439.14	2352.24
439.33	2321.81
439.52	2427.14
439.70	2310.11
439.89	2228.19
440.08	2232.87
440.26	2204.78
440.45	2307.77
440.63	2375.64
440.82	2576.93
441.01	2492.67
441.19	2527.78
441.38	2495.01
441.57	2609.70
441.75	2731.41
441.94	2626.08
442.12	2600.34
442.31	2710.34
442.50	2628.42
442.68	2710.34
442.87	2651.83
443.05	2576.93
443.24	2700.98
443.43	2682.25
443.61	2684.59
443.80	2878.86
443.98	2663.53
444.17	2597.99
444.35	2813.32
444.54	2832.05
444.73	2818.00
444.91	2705.66
445.10	2518.42
445.28	2480.97
445.47	2436.50
445.65	2317.13
445.84	2476.29
446.02	2509.05
446.21	2544.16
446.39	2541.82
446.58	2518.42
446.77	2677.57
446.95	2820.35
447.14	2928.01
447.32	2834.39
447.51	2752.47
447.69	2593.31
447.88	2626.08
448.06	2724.38
448.25	2698.64
448.43	2773.53
448.62	2677.57
448.80	2705.66
448.99	2633.10
449.17	2708.00
449.36	2761.83
449.54	2848.43
449.73	2888.22
449.91	2841.41
450.10	2970.14
450.28	2988.86
450.46	2972.48
450.65	3143.34
450.83	3035.67
451.02	2953.76
451.20	2869.50
451.39	2813.32
451.57	2871.84
451.76	2829.71
451.94	2862.48
452.13	2808.64
452.31	2719.70
452.49	2518.42
452.68	2576.93
452.86	2473.95
453.05	2600.34
453.23	2623.74
453.42	2698.64
453.60	2825.03
453.78	2864.82
453.97	2726.72
454.15	2789.92
454.34	2747.79
454.52	2682.25
454.70	2715.02
454.89	2827.37
455.07	2881.20
455.26	2785.24
455.44	2895.24
455.62	3030.99
455.81	2916.31
455.99	3000.57
456.17	2869.50
456.36	2951.42
456.54	2984.18
456.73	3108.23
456.91	3129.30
457.09	3101.21
457.28	3105.89
457.46	2874.18
457.64	2981.84
457.83	2764.17
458.01	2818.00
458.19	2888.22
458.38	2951.42
458.56	2906.95
458.74	2951.42
458.93	2864.82
459.11	2977.16
459.29	2782.90
459.48	2979.50
459.66	2808.64
459.84	2895.24
460.03	2981.84
460.21	2909.29
460.39	3028.65
460.57	3021.63
460.76	3063.76
460.94	3052.06
461.12	3028.65
461.31	3002.91
461.49	2991.20
461.67	3110.57
461.85	3033.33
462.04	3108.23
462.22	3197.17
462.40	3133.98
462.59	3141.00
462.77	3141.00
462.95	3185.47
463.13	2956.10
463.32	3070.78
463.50	2920.99
463.68	3089.51
463.86	2846.09
464.05	2967.80
464.23	2869.50
464.41	2799.28
464.59	2813.32
464.78	3049.72
464.96	2942.05
465.14	2916.31
465.32	2930.35
465.50	3096.53
465.69	3068.44
465.87	3073.12
466.05	3028.65
466.23	2820.35
466.41	2799.28
466.60	2853.11
466.78	2773.53
466.96	2911.63
467.14	2916.31
467.32	2949.08
467.51	2986.52
467.69	2733.75
467.87	2885.88
468.05	2984.18
468.23	2892.90
468.41	2876.52
468.60	3005.25
468.78	3047.38
468.96	2928.01
469.14	3005.25
469.32	3087.17
469.50	2923.33
469.69	2946.73
469.87	2958.44
470.05	2757.15
470.23	2867.16
470.41	2862.48
470.59	2960.78
470.77	2920.99
470.95	2883.54
471.14	2902.26
471.32	2925.67
471.50	3194.83
471.68	3094.19
471.86	3304.84
472.04	3274.41
472.22	3225.26
472.40	2951.42
472.58	3047.38
472.77	2979.50
472.95	3122.27
473.13	3185.47
473.31	3075.46
473.49	3115.25
473.67	3208.87
473.85	3208.87
474.03	3222.92
474.21	3192.49
474.39	3295.47
474.57	3325.90
474.75	3300.16
474.93	3162.06
475.12	3049.72
475.30	3110.57
475.48	3112.91
475.66	3255.69
475.84	3253.34
476.02	3075.46
476.20	3225.26
476.38	3304.84
476.56	3225.26
476.74	3386.76
476.92	3363.35
477.10	3454.63
477.28	3492.08
477.46	3454.63
477.64	3597.40
477.82	3632.51
478.00	3662.94
478.18	3452.29
478.36	3494.42
478.54	3414.84
478.72	3466.33
478.90	3482.72
479.08	3744.86
479.26	3882.95
479.44	3789.33
479.62	3768.26
479.80	3691.02
479.98	3772.94
480.16	3716.77
480.34	3845.50
480.52	3756.56
480.70	3798.69
480.88	3709.75
481.06	3913.38
481.24	3899.33
481.41	4072.53
481.59	4215.30
481.77	4070.19
481.95	4072.53
482.13	3992.95
482.31	3829.12
482.49	4037.42
482.67	4100.62
482.85	4067.85
483.03	4051.47
483.21	4145.09
483.39	4128.70
483.57	3981.25
483.74	3948.48
483.92	4028.06
484.10	4060.83
484.28	4234.03
484.46	4149.77
484.64	4344.03
484.82	4166.15
485.00	4173.18
485.18	4049.13
485.35	3840.82
485.53	3485.06
485.71	3150.36
485.89	3126.96
486.07	3398.46
486.25	3630.17
486.43	3880.61
486.61	4002.32
486.78	3878.27
486.96	4117.00
487.14	4161.47
487.32	4241.05
487.50	4402.55
487.68	4409.57
487.85	4587.45
488.03	4594.47
488.21	4594.47
488.39	4372.12
488.57	4224.67
488.75	4201.26
488.92	4285.52
489.10	4784.06
489.28	4896.40
489.46	4985.34
489.64	4861.29
489.81	4966.62
489.99	4898.74
490.17	4945.55
490.35	4959.60
490.53	4901.08
490.70	4762.99
490.88	4781.71
491.06	4975.98
491.24	5083.64
491.41	4830.87
491.59	4706.82
491.77	4477.44
491.95	4564.04
492.13	4880.02
492.30	4908.10
492.48	5083.64
492.66	5146.84
492.84	5263.86
493.01	5207.69
493.19	5214.71
493.37	5053.22
493.54	5004.07
493.72	5137.48
493.90	5245.14
494.08	5472.17
494.25	5500.26
494.43	5558.77
494.61	5607.92
494.79	5413.66
494.96	5483.88
495.14	5254.50
495.32	5205.35
495.49	5090.67
495.67	5184.29
495.85	5511.96
496.02	5816.23
496.20	5570.48
496.38	5696.86
496.55	5338.76
496.73	5549.41
496.91	5797.51
497.09	5720.27
497.26	5916.87
497.44	5647.71
497.62	5678.14
497.79	5465.15
497.97	5179.61
498.14	5270.89
498.32	5313.02
498.50	5633.67
498.67	5851.34
498.85	5734.31
499.03	5659.42
499.20	5692.18
499.38	5816.23
499.56	5809.21
499.73	5322.38
499.91	5610.26
500.08	5547.07
500.26	5284.93
500.44	5214.71
500.61	5526.00
500.79	5420.68
500.97	5394.93
501.14	5376.21
501.32	5303.65
501.49	5301.31
501.67	5390.25
501.84	5565.79
502.02	5502.60
502.20	5657.07
502.37	5774.10
502.55	5593.88
502.72	5804.53
502.90	5856.02
503.07	5706.23
503.25	5682.82
503.43	5605.58
503.60	5277.91
503.78	5184.29
503.95	5153.86
504.13	5533.03
504.30	5888.79
504.48	5738.99
504.65	5776.44
504.83	5769.42
505.01	5874.74
505.18	5771.76
505.36	6005.81
505.53	5980.07
505.71	6223.48
505.88	6143.91
506.06	5977.73
506.23	5877.09
506.41	5914.53
506.58	5724.95
506.76	5951.98
506.93	5907.51
507.11	5851.34
507.28	5755.38
507.46	5666.44
507.63	5621.97
507.81	5540.05
507.98	5596.22
508.16	5703.89
508.33	5841.98
508.50	6038.58
508.68	6066.67
508.85	6080.71
509.03	6036.24
509.20	5996.45
509.38	5940.28
509.55	5825.59
509.73	5809.21
509.90	6057.31
510.08	5982.41
510.25	5858.36
510.42	5898.15
510.60	5743.67
510.77	5989.43
510.95	6003.47
511.12	5951.98
511.30	6092.41
511.47	6291.36
511.64	6377.96
511.82	6043.26
511.99	6010.50
512.17	6005.81
512.34	5668.78
512.51	5956.66
512.69	5738.99
512.86	5914.53
513.04	5879.43
513.21	5832.62
513.38	5722.61
513.56	5741.33
513.73	5626.65
513.90	5547.07
514.08	5664.10
514.25	5792.83
514.43	5738.99
514.60	5753.04
514.77	5781.12
514.95	5841.98
515.12	5769.42
515.29	5914.53
515.47	6015.18
515.64	6026.88
515.81	5802.19
515.99	5675.80
516.16	5390.25
516.33	5100.03
516.51	4903.42
516.68	4550.00
516.85	4514.89
517.03	4582.77
517.20	5095.35
517.37	5483.88
517.54	5907.51
517.72	5776.44
517.89	5174.92
518.06	4716.18
518.24	4802.78
518.41	5247.48
518.58	5357.49
518.75	5547.07
518.93	5521.32
519.10	5610.26
519.27	5619.63
519.45	5699.20
519.62	5734.31
519.79	5802.19
519.96	5926.24
520.14	5823.25
520.31	5528.35
520.48	5586.86
520.65	5554.09
520.83	5926.24
521.00	5959.00
521.17	6003.47
521.34	5661.76
521.52	5884.11
521.69	5877.09
521.86	6001.13
522.03	5982.41
522.20	5659.42
522.38	5507.28
522.55	5408.98
522.72	5659.42
522.89	5722.61
523.07	5790.49
523.24	5771.76
523.41	5973.05
523.58	5968.37
523.75	6092.41
523.92	6052.63
524.10	6029.22
524.27	6235.19
524.44	5809.21
524.61	6040.92
524.78	5811.55
524.96	5905.17
525.13	5921.56
525.30	5956.66
525.47	6057.31
525.64	6022.20
525.81	5966.03
525.98	5619.63
526.16	5214.71
526.33	5130.45
526.50	5100.03
526.67	4936.19
526.84	5060.24
527.01	5181.95
527.18	5444.09
527.36	5643.03
527.53	5834.96
527.70	5846.66
527.87	5657.07
528.04	5781.12
528.21	5631.33
528.38	5846.66
528.55	6207.10
528.72	6193.06
528.89	6211.78
529.07	6083.05
529.24	5984.75
529.41	5851.34
529.58	5729.63
529.75	5605.58
529.92	5825.59
530.09	5912.19
530.26	6083.05
530.43	6064.33
530.60	5975.39
530.77	6071.35
530.94	6015.18
531.11	5914.53
531.28	5867.72
531.46	5898.15
531.63	5706.23
531.80	5823.25
531.97	5844.32
532.14	5540.05
532.31	5387.91
532.48	5195.99
532.65	5207.69
532.82	5380.89
532.99	5540.05
533.16	5734.31
533.33	5860.70
533.50	5856.02
533.67	5654.73
533.84	5600.90
534.01	5743.67
534.18	5589.20
534.35	5762.40
534.52	5600.90
534.69	5666.44
534.86	5701.54
535.03	5895.81
535.20	5944.96
535.37	6099.44
535.54	6153.27
535.71	5984.75
535.88	6029.22
536.05	5902.83
536.22	5598.56
536.38	5696.86
536.55	5570.48
536.72	5275.57
536.89	5390.25
537.06	5544.73
537.23	5640.69
537.40	5877.09
537.57	5664.10
537.74	5727.29
537.91	5736.65
538.08	5561.11
538.25	5757.72
538.42	5830.27
538.59	5813.89
538.75	5671.12
538.92	5558.77
539.09	5411.32
539.26	5479.19
539.43	5334.08
539.60	5376.21
539.77	5341.10
539.94	5495.58
540.11	5322.38
540.28	5139.82
540.44	5130.45
540.61	5193.65
540.78	5324.72
540.95	5334.08
541.12	5455.79
541.29	5465.15
541.46	5577.50
541.62	5682.82
541.79	5458.13
541.96	5521.32
542.13	5434.72
542.30	5596.22
542.47	5507.28
542.63	5462.81
542.80	5418.34
542.97	5448.77
543.14	5462.81
543.31	5327.06
543.48	5497.92
543.64	5631.33
543.81	5610.26
543.98	5734.31
544.15	5654.73
544.32	5355.15
544.48	5444.09
544.65	5542.39
544.82	5584.52
544.99	5636.01
545.16	5628.99
545.32	5355.15
545.49	5743.67
545.66	5802.19
545.83	5511.96
546.00	5516.64
546.16	5411.32
546.33	5338.76
546.50	5439.40
546.67	5530.69
546.83	5401.96
547.00	5476.85
547.17	5137.48
547.34	5282.59
547.50	5123.43
547.67	5401.96
547.84	5291.95
548.00	5322.38
548.17	5542.39
548.34	5432.38
548.51	5460.47
548.67	5605.58
548.84	5420.68
549.01	5352.81
549.18	5476.85
549.34	5350.46
549.51	5533.03
549.68	5504.94
549.84	5423.02
550.01	5350.46
550.18	5369.19
550.34	5212.37
550.51	5294.29
550.68	5350.46
550.84	5156.20
551.01	5350.46
551.18	5226.42
551.34	5111.73
551.51	5310.68
551.68	5530.69
551.84	5411.32
552.01	5345.78
552.18	5336.42
552.34	5224.08
552.51	5107.05
552.68	5013.43
552.84	5064.92
553.01	5233.44
553.18	5160.88
553.34	5177.26
553.51	5289.61
553.67	5282.59
553.84	5352.81
554.01	5404.30
554.17	5310.68
554.34	5294.29
554.51	5310.68
554.67	5348.12
554.84	5219.39
555.00	5341.10
555.17	5198.33
555.33	5078.96
555.50	5240.46
555.67	5245.14
555.83	5034.49
556.00	5116.41
556.16	5032.15
556.33	5027.47
556.50	4987.68
556.66	4964.28
556.83	4936.19
556.99	5069.60
557.16	5001.72
557.32	5008.75
557.49	5046.20
557.65	5139.82
557.82	5001.72
557.98	5085.98
558.15	4968.96
558.32	4786.40
558.48	4624.90
558.65	4758.31
558.81	4725.54
558.98	4812.14
559.14	4847.25
559.31	4975.98
559.47	4835.55
559.64	4819.16
559.80	4992.36
559.97	4748.95
560.13	4854.27
560.30	5076.62
560.46	5015.77
560.63	5172.58
560.79	5081.30
560.96	5039.17
561.12	4816.82
561.29	4704.48
561.45	4704.48
561.61	4847.25
561.78	4887.04
561.94	4732.56
562.11	4961.94
562.27	4903.42
562.44	4873.00
562.60	4807.46
562.77	4973.64
562.93	5013.43
563.10	4880.02
563.26	4842.57
563.42	4887.04
563.59	4802.78
563.75	4713.84
563.92	4765.33
564.08	4779.37
564.24	4711.50
564.41	4947.89
564.57	4849.59
564.74	4873.00
564.90	4727.88
565.07	4711.50
565.23	4720.86
565.39	4681.07
565.56	4428.29
565.72	4554.68
565.88	4545.32
566.05	4631.92
566.21	4596.81
566.38	4498.51
566.54	4650.64
566.70	4617.88
566.87	4784.06
567.03	4652.98
567.19	4863.63
567.36	4755.97
567.52	4748.95
567.68	4748.95
567.85	4568.73
568.01	4510.21
568.17	4510.21
568.34	4458.72
568.50	4353.40
568.66	4423.61
568.83	4428.29
568.99	4531.28
569.15	4463.40
569.32	4463.40
569.48	4622.56
569.64	4540.64
569.81	4425.95
569.97	4388.50
570.13	4472.76
570.30	4411.91
570.46	4416.59
570.62	4231.69
570.78	4229.35
570.95	4234.03
571.11	4325.31
571.27	4355.74
571.43	4278.50
571.60	4404.89
571.76	4512.55
571.92	4507.87
572.09	4517.23
572.25	4592.13
572.41	4505.53
572.57	4557.02
572.74	4472.76
572.90	4400.21
573.06	4379.14
573.22	4294.88
573.38	4388.50
573.55	4297.22
573.71	4533.62
573.87	4437.66
574.03	4484.47
574.20	4393.19
574.36	4290.20
574.52	4339.35
574.68	4227.01
574.84	4372.12
575.01	4159.13
575.17	4105.30
575.33	4369.78
575.49	4224.67
575.65	4166.15
575.82	4191.90
575.98	4135.73
576.14	4271.48
576.30	4133.39
576.46	4269.14
576.62	4241.05
576.79	4131.05
576.95	4224.67
577.11	4367.44
577.27	4241.05
577.43	4222.33
577.59	4210.62
577.75	4131.05
577.92	4194.24
578.08	3899.33
578.24	4217.65
578.40	4105.30
578.56	4126.36
578.72	4102.96
578.88	4102.96
579.04	4119.34
579.21	4086.58
579.37	4262.12
579.53	4191.90
579.69	4250.41
579.85	4161.47
580.01	4152.11
580.17	4084.23
580.33	4046.79
580.49	4084.23
580.65	4114.66
580.82	4184.88
580.98	4070.19
581.14	4088.92
581.30	4215.30
581.46	4138.07
581.62	4182.54
581.78	4194.24
581.94	4175.52
582.10	4166.15
582.26	4102.96
582.42	4217.65
582.58	4102.96
582.74	4135.73
582.90	4109.98
583.06	4362.76
583.22	4170.83
583.38	4067.85
583.54	4098.28
583.70	4128.70
583.86	4243.39
584.02	4145.09
584.18	4234.03
584.34	4084.23
584.50	4161.47
584.66	4021.04
584.82	3995.29
584.98	4032.74
585.14	4067.85
585.30	3995.29
585.46	4046.79
585.62	3794.01
585.78	3859.54
585.94	3892.31
586.10	4035.08
586.26	3913.38
586.42	3939.12
586.58	3911.04
586.74	4058.49
586.90	3859.54
587.06	3854.86
587.22	3892.31
587.38	3918.06
587.54	3941.46
587.70	3669.96
587.86	3857.20
588.02	3843.16
588.18	3768.26
588.34	3597.40
588.49	3307.18
588.65	3215.90
588.81	3206.53
588.97	3183.13
589.13	3229.94
589.29	3176.11
589.45	3398.46
589.61	3435.91
589.77	3421.86
589.93	3646.55
590.08	3660.60
590.24	3838.48
590.40	3676.98
590.56	3705.07
590.72	3634.85
590.88	3669.96
591.04	3669.96
591.20	3590.38
591.35	3475.70
591.51	3496.76
591.67	3506.12
591.83	3571.66
591.99	3611.45
592.15	3646.55
592.31	3627.83
592.46	3592.72
592.62	3630.17
592.78	3571.66
592.94	3585.70
593.10	3655.92
593.26	3702.73
593.41	3574.00
593.57	3714.43
593.73	3592.72
593.89	3695.71
594.05	3684.00
594.20	3478.04
594.36	3440.59
594.52	3382.07
594.68	3353.99
594.84	3541.23
594.99	3515.48
595.15	3555.27
595.31	3480.38
595.47	3571.66
595.62	3688.68
595.78	3623.15
595.94	3595.06
596.10	3691.02
596.25	3665.28
596.41	3515.48
596.57	3576.34
596.73	3426.54
596.88	3531.87
597.04	3585.70
597.20	3634.85
597.36	3435.91
597.51	3459.31
597.67	3676.98
597.83	3616.13
597.99	3492.08
