SpectraSuite Data File
++++++++++++++++++++++++++++++++++++
Date: Mon Oct 07 14:55:01 GMT-05:00 2013
User: price-jones
Dark Spectrum Present: No
Reference Spectrum Present: No
Number of Sampled Component Spectra: 1
Spectrometers: USB2+H05261
Integration Time (usec): 10000 (USB2+H05261)
Spectra Averaged: 1 (USB2+H05261)
Boxcar Smoothing: 0 (USB2+H05261)
Correct for Electrical Dark: No (USB2+H05261)
Strobe/Lamp Enabled: No (USB2+H05261)
Correct for Detector Non-linearity: No (USB2+H05261)
Correct for Stray Light: No (USB2+H05261)
Number of Pixels in Processed Spectrum: 2048
>>>>>Begin Processed Spectral Data<<<<<
365.73	0.00
365.92	0.00
366.12	0.00
366.32	0.00
366.52	0.00
366.72	0.00
366.91	0.00
367.11	0.00
367.31	0.00
367.51	0.00
367.70	0.00
367.90	0.00
368.10	0.00
368.30	0.00
368.49	0.00
368.69	0.00
368.89	0.00
369.09	0.00
369.28	0.00
369.48	0.00
369.68	0.00
369.87	0.00
370.07	0.00
370.27	0.00
370.47	425.98
370.66	2349.90
370.86	2906.95
371.06	3119.93
371.25	2986.52
371.45	2600.34
371.65	2349.90
371.84	2436.50
372.04	2590.97
372.24	2862.48
372.44	2813.32
372.63	2839.07
372.83	2523.10
373.03	2223.51
373.22	2125.21
373.42	2253.94
373.62	2626.08
373.81	2925.67
374.01	2808.64
374.21	2473.95
374.40	2356.92
374.60	2471.61
374.79	2986.52
374.99	3330.58
375.19	3536.55
375.38	3435.91
375.58	3201.85
375.78	3173.77
375.97	3187.81
376.17	3349.31
376.37	3473.36
376.56	3529.53
376.76	3700.39
376.95	3932.10
377.15	4231.69
377.35	4444.68
377.54	4603.83
377.74	4669.37
377.93	4491.49
378.13	4390.84
378.33	4182.54
378.52	3964.87
378.72	3794.01
378.91	3751.88
379.11	3695.71
379.31	3595.06
379.50	3522.51
379.70	3889.97
379.89	4299.56
380.09	4414.25
380.28	4596.81
380.48	4594.47
380.68	4418.93
380.87	4372.12
381.07	3943.80
381.26	3583.36
381.46	3440.59
381.65	3447.61
381.85	3349.31
382.04	3075.46
382.24	2988.86
382.43	2785.24
382.63	2782.90
382.83	2670.55
383.02	2815.66
383.22	2754.81
383.41	2752.47
383.61	3126.96
383.80	3625.49
384.00	4011.68
384.19	4437.66
384.39	4676.39
384.58	4376.80
384.78	4468.08
384.97	4409.57
385.17	4344.03
385.36	3906.35
385.56	3871.25
385.75	4081.89
385.95	4503.19
386.14	4875.34
386.34	4645.96
386.53	4428.29
386.72	4348.72
386.92	4285.52
387.11	4561.70
387.31	4662.35
387.50	4807.46
387.70	4547.66
387.89	4374.46
388.09	4484.47
388.28	4599.15
388.48	4606.17
388.67	5172.58
388.86	5518.98
389.06	5987.09
389.25	6190.72
389.45	6232.85
389.64	6214.12
389.84	6305.40
390.03	6099.44
390.22	6160.29
390.42	6436.47
390.61	6733.72
390.81	7096.50
391.00	7389.07
391.19	7201.83
391.39	6796.92
391.58	6399.02
391.78	6209.44
391.97	5937.94
392.16	5556.43
392.36	4582.77
392.55	3843.16
392.75	2878.86
392.94	2665.87
393.13	2738.43
393.33	3400.80
393.52	4351.06
393.71	5039.17
393.91	5565.79
394.10	6328.81
394.29	6712.66
394.49	7314.17
394.68	7798.66
394.88	7775.26
395.07	8107.62
395.26	7901.65
395.46	7644.19
395.65	6895.22
395.84	6059.65
396.04	4842.57
396.23	4091.26
396.42	3328.24
396.62	3583.36
396.81	4376.80
397.00	5706.23
397.19	6930.33
397.39	8098.25
397.58	9001.70
397.77	9439.38
397.97	9668.75
398.16	9954.30
398.35	10424.75
398.55	10509.01
398.74	10913.92
398.93	11016.90
399.12	10864.77
399.32	10700.93
399.51	11059.03
399.70	11506.07
399.90	11375.00
400.09	11157.33
400.28	11070.73
400.47	11307.13
400.67	12072.48
400.86	12109.93
401.05	12123.98
401.24	12205.89
401.44	12549.95
401.63	12547.61
401.82	12791.03
402.01	12477.40
402.21	12585.06
402.40	12807.41
402.59	12196.53
402.78	11726.08
402.97	11513.10
403.17	12187.17
403.36	13088.28
403.55	13294.24
403.74	13408.93
403.93	12573.36
404.13	11597.35
404.32	11527.14
404.51	12315.90
404.70	12989.97
404.89	12798.05
405.09	12886.99
405.28	12798.05
405.47	12449.31
405.66	12961.89
405.85	12049.08
406.05	11960.14
406.24	12236.32
406.43	12688.04
406.62	12879.97
406.81	13179.56
407.00	12772.30
407.20	12318.24
407.39	12423.56
407.58	13240.41
407.77	14033.85
407.96	14050.24
408.15	14391.95
408.34	14342.80
408.54	14888.15
408.73	14904.53
408.92	14710.27
409.11	13951.93
409.30	13453.40
409.49	12819.11
409.68	11688.64
409.87	11639.48
410.07	12779.32
410.26	13628.94
410.45	14033.85
410.64	14532.39
410.83	15087.09
411.02	15466.26
411.21	15800.96
411.40	15548.18
411.59	15836.06
411.78	15639.46
411.98	15777.55
412.17	16020.97
412.36	15690.95
412.55	15618.39
412.74	15218.16
412.93	14941.98
413.12	15328.17
413.31	16760.58
413.50	17015.69
413.69	16903.35
413.88	16077.14
414.07	15796.28
414.26	16470.35
414.45	16638.87
414.64	16786.32
414.83	16556.95
415.02	16505.46
415.22	16421.20
415.41	16819.09
415.60	17762.33
415.79	18078.30
415.98	18377.89
416.17	18139.15
416.36	17804.46
416.55	17591.47
416.74	16774.62
416.93	16854.20
417.12	16716.11
417.31	17074.21
417.50	17401.88
417.69	17668.70
417.88	17923.82
418.07	16985.27
418.26	17153.79
418.45	17675.73
418.64	18157.88
418.83	18979.40
419.02	18274.90
419.21	18087.66
419.39	17090.59
419.58	16779.30
419.77	17132.72
419.96	17916.80
420.15	18768.76
420.34	19552.84
420.53	19707.31
420.72	20056.05
420.91	19463.90
421.10	19576.24
421.29	19763.48
421.48	19033.24
421.67	19456.87
421.86	18625.98
422.05	17341.03
422.24	16006.92
422.43	16460.99
422.61	18689.18
422.80	19278.99
422.99	18693.86
423.18	18040.85
423.37	17947.23
423.56	18431.72
423.75	18927.91
423.94	18661.09
424.13	17940.21
424.32	18125.11
424.50	17947.23
424.69	18195.32
424.88	18286.61
425.07	18293.63
425.26	17792.75
425.45	17242.73
425.64	17767.01
425.83	17940.21
426.01	18155.54
426.20	18623.64
426.39	18239.79
426.58	17132.72
426.77	16042.03
426.96	15812.66
427.15	16561.63
427.33	17830.20
427.52	18120.43
427.71	18230.43
427.90	18071.28
428.09	18026.81
428.28	17146.76
428.46	16676.32
428.65	16397.79
428.84	17219.32
429.03	17289.54
429.22	16219.91
429.40	14998.15
429.59	13675.75
429.78	12102.91
429.97	12489.10
430.16	12446.97
430.34	12617.83
430.53	13132.75
430.72	13729.58
430.91	15578.61
431.10	17759.98
431.28	20545.22
431.47	21968.27
431.66	21818.47
431.85	19260.27
432.03	17703.81
432.22	17713.17
432.41	19246.23
432.60	20435.22
432.79	21029.71
432.97	21846.56
433.16	20477.35
433.35	18651.73
433.54	17177.19
433.72	15929.69
433.91	17439.33
434.10	19620.71
434.28	20840.13
434.47	21195.89
434.66	20161.37
434.85	20350.96
435.03	20734.81
435.22	20650.55
435.41	21963.59
435.59	22302.96
435.78	22190.62
435.97	22958.31
436.16	22808.52
436.34	22471.48
436.53	22382.54
436.72	22284.24
436.90	20798.00
437.09	21235.68
437.28	20842.47
437.46	21713.15
437.65	21212.28
437.84	19014.51
438.02	18197.67
438.21	18665.77
438.40	19627.73
438.58	20819.07
438.77	21467.39
438.96	21713.15
439.14	22263.18
439.33	23152.58
439.52	23454.51
439.70	22661.07
439.89	21504.84
440.08	21446.33
440.26	22050.19
440.45	22417.65
440.63	24542.86
440.82	25380.77
441.01	24765.21
441.19	24474.98
441.38	25326.94
441.57	26483.16
441.75	26473.80
441.94	26405.92
442.12	26302.94
442.31	26892.76
442.50	26649.34
442.68	26174.21
442.87	25905.05
443.05	25759.94
443.24	26277.19
443.43	26764.03
443.61	27089.36
443.80	27381.93
443.98	26637.64
444.17	25876.96
444.35	27353.84
444.54	28161.33
444.73	27573.85
444.91	25811.43
445.10	24802.66
445.28	24130.92
445.47	24217.52
445.65	24372.00
445.84	25486.09
446.02	25923.77
446.21	26040.80
446.39	25963.56
446.58	27016.80
446.77	27218.09
446.95	27531.72
447.14	27997.49
447.32	28470.28
447.51	27793.86
447.69	26485.50
447.88	26724.24
448.06	27358.52
448.25	27466.19
448.43	27309.37
448.62	27379.59
448.80	26583.80
448.99	26796.79
449.17	27742.37
449.36	27859.40
449.54	28341.55
449.73	28914.98
449.91	29369.04
450.10	30143.76
450.28	30331.00
450.46	30265.47
450.65	30288.87
450.83	29872.26
451.02	29528.20
451.20	29324.57
451.39	29144.35
451.57	29127.97
451.76	29874.60
451.94	28802.63
452.13	28489.00
452.31	26518.27
452.49	25532.90
452.68	26431.67
452.86	26359.11
453.05	27044.89
453.23	28189.41
453.42	28320.48
453.60	29256.70
453.78	29043.71
453.97	28678.58
454.15	28091.11
454.34	27356.18
454.52	27346.82
454.70	27730.67
454.89	27665.13
455.07	28130.90
455.26	28723.05
455.44	29495.43
455.62	30230.36
455.81	29699.06
455.99	29776.30
456.17	30433.99
456.36	30661.02
456.54	31253.17
456.73	30319.30
456.91	30789.75
457.09	30731.23
457.28	31910.86
457.46	29818.42
457.64	29633.52
457.83	29242.65
458.01	29064.77
458.19	30038.44
458.38	30768.68
458.56	31285.94
458.74	30471.43
458.93	30103.97
459.11	29790.34
459.29	29476.71
459.48	30359.09
459.66	29923.75
459.84	29970.56
460.03	30862.30
460.21	31026.14
460.39	31468.50
460.57	31185.30
460.76	31873.42
460.94	31711.92
461.12	31489.57
461.31	31751.71
461.49	31871.07
461.67	31168.91
461.85	32175.34
462.04	32006.83
462.22	32414.08
462.40	32055.98
462.59	31527.02
462.77	31976.40
462.95	31728.30
463.13	31728.30
463.32	31178.28
463.50	31136.15
463.68	31644.04
463.86	31424.03
464.05	30691.44
464.23	30064.18
464.41	30384.83
464.59	29813.74
464.78	31957.67
464.96	31353.82
465.14	30469.09
465.32	32009.17
465.50	32907.93
465.69	33294.12
465.87	31838.31
466.05	30834.22
466.23	29537.56
466.41	29181.80
466.60	30644.63
466.78	30527.61
466.96	30569.74
467.14	31409.99
467.32	31119.76
467.51	31211.04
467.69	30038.44
467.87	30450.37
468.05	31417.01
468.23	31639.36
468.41	30892.73
468.60	31548.08
468.78	32137.90
468.96	31634.68
469.14	31475.52
469.32	32004.49
469.50	30658.68
469.69	30843.58
469.87	30668.04
470.05	30419.94
470.23	30642.29
470.41	30670.38
470.59	30480.80
470.77	31211.04
470.95	32009.17
471.14	32538.13
471.32	32278.33
471.50	34368.43
471.68	34092.24
471.86	34698.44
472.04	34059.48
472.22	34164.80
472.40	33104.54
472.58	32968.79
472.77	32741.75
472.95	32697.28
473.13	33886.28
473.31	32393.01
473.49	32662.18
473.67	33591.37
473.85	34108.63
474.03	35276.55
474.21	35524.65
474.39	35475.50
474.57	35592.53
474.75	35807.86
474.93	35456.78
475.12	34459.71
475.30	34387.15
475.48	33818.40
475.66	33680.31
475.84	34019.69
476.02	33942.45
476.20	33839.47
476.38	34604.82
476.56	35871.05
476.74	36011.48
476.92	36617.68
477.10	36243.20
477.28	37383.04
477.46	37392.40
477.64	38167.12
477.82	38548.62
478.00	38522.88
478.18	37043.66
478.36	36980.46
478.54	37490.70
478.72	38511.17
478.90	39688.46
479.08	41947.08
479.26	40903.20
479.44	41170.02
479.62	39711.87
479.80	40732.34
479.98	40694.89
480.16	41617.07
480.34	40212.74
480.52	41551.53
480.70	41846.44
480.88	41661.54
481.06	41902.61
481.24	42150.71
481.41	42738.18
481.59	44587.21
481.77	43320.98
481.95	42401.14
482.13	41986.87
482.31	42749.88
482.49	43409.92
482.67	42784.99
482.85	42834.14
483.03	43012.02
483.21	44292.30
483.39	43650.99
483.57	43100.97
483.74	43215.65
483.92	44430.39
484.10	44098.03
484.28	44486.56
484.46	43590.14
484.64	46094.51
484.82	44348.47
485.00	44065.27
485.18	43349.06
485.35	40863.41
485.53	36435.12
485.71	34611.84
485.89	34675.04
486.07	37385.38
486.25	40051.25
486.43	42464.34
486.61	41909.63
486.78	42312.20
486.96	43929.51
487.14	45177.02
487.32	45450.86
487.50	46349.63
487.68	48109.71
487.85	49048.27
488.03	47873.32
488.21	47814.80
488.39	46808.37
488.57	45778.54
488.75	45769.18
488.92	48023.11
489.10	49698.94
489.28	50735.79
489.46	52343.74
489.64	51372.42
489.81	51721.16
489.99	50710.05
490.17	51154.75
490.35	51386.46
490.53	51173.47
490.70	50169.38
490.88	50230.24
491.06	51477.74
491.24	51840.53
491.41	50401.10
491.59	48636.33
491.77	48811.87
491.95	50291.09
492.13	51639.24
492.30	52149.48
492.48	52837.59
492.66	53483.58
492.84	53176.97
493.01	52886.74
493.19	52587.16
493.37	51709.46
493.54	52631.63
493.72	53394.64
493.90	53808.92
494.08	54120.21
494.25	54270.00
494.43	55002.59
494.61	55295.16
494.79	55458.99
494.96	55461.33
495.14	55086.85
495.32	53804.24
495.49	53879.13
495.67	54614.06
495.85	55763.26
496.02	56371.80
496.20	55899.01
496.38	55451.97
496.55	55276.43
496.73	56502.87
496.91	56362.44
497.09	56212.65
497.26	56390.53
497.44	56128.39
497.62	55187.49
497.79	54213.83
497.97	53476.56
498.14	54178.72
498.32	55599.43
498.50	55536.23
498.67	55508.14
498.85	55859.23
499.03	56556.70
499.20	56863.32
499.38	56271.16
499.56	55524.53
499.73	55372.39
499.91	55246.00
500.08	54894.92
500.26	54349.58
500.44	55126.64
500.61	55510.49
500.79	54901.95
500.97	55508.14
501.14	54246.60
501.32	54068.72
501.49	54443.20
501.67	54616.40
501.84	55114.94
502.02	55711.77
502.20	56479.47
502.37	56652.67
502.55	56678.41
502.72	56865.66
502.90	57174.61
503.07	57172.27
503.25	55742.20
503.43	55089.19
503.60	54562.57
503.78	54501.71
503.95	54522.78
504.13	56016.04
504.30	56587.13
504.48	56254.78
504.65	56062.85
504.83	56542.66
505.01	57106.73
505.18	57549.09
505.36	57504.62
505.53	57951.66
505.71	58113.16
505.88	58059.33
506.06	57769.10
506.23	57167.58
506.41	56996.73
506.58	57471.85
506.76	57303.34
506.93	56807.14
507.11	56676.07
507.28	57041.20
507.46	56282.86
507.63	56156.47
507.81	55374.73
507.98	56149.45
508.16	57256.53
508.33	57333.76
508.50	57600.58
508.68	58188.06
508.85	58195.08
509.03	58632.76
509.20	57829.96
509.38	56725.22
509.55	56650.33
509.73	56980.34
509.90	57144.18
510.08	57422.70
510.25	57045.88
510.42	56959.28
510.60	57598.24
510.77	57736.34
510.95	57925.92
511.12	58047.63
511.30	58679.57
511.47	58953.41
511.64	58965.12
511.82	58740.42
511.99	57757.40
512.17	57780.81
512.34	57167.58
512.51	57099.71
512.69	57668.46
512.86	57371.21
513.04	57804.21
513.21	57176.95
513.38	56257.12
513.56	56308.61
513.73	55704.75
513.90	56329.67
514.08	56505.21
514.25	56324.99
514.43	56769.69
514.60	57258.87
514.77	57317.38
514.95	57233.12
515.12	57347.81
515.29	58021.88
515.47	58262.96
515.64	57893.15
515.81	57607.61
515.99	56640.96
516.16	54740.45
516.33	52437.36
516.51	52301.61
516.68	50918.35
516.85	50024.27
517.03	52023.09
517.20	54836.41
517.37	56823.53
517.54	57595.90
517.72	56020.72
517.89	53151.23
518.06	51604.13
518.24	53270.59
518.41	55217.92
518.58	55938.80
518.75	55903.70
518.93	56140.09
519.10	55496.44
519.27	56612.88
519.45	56872.68
519.62	57586.54
519.79	57729.31
519.96	57279.93
520.14	56669.05
520.31	55686.03
520.48	55985.61
520.65	57162.90
520.83	57724.63
521.00	57855.70
521.17	57176.95
521.34	57165.24
521.52	57647.39
521.69	57993.79
521.86	58363.60
522.03	58389.34
522.20	56505.21
522.38	55943.48
522.55	56807.14
522.72	57364.19
522.89	56694.80
523.07	57120.77
523.24	57588.88
523.41	58934.69
523.58	59068.10
523.75	59224.92
523.92	58937.03
524.10	58405.73
524.27	58183.38
524.44	58101.46
524.61	57921.24
524.78	58457.22
524.96	58190.40
525.13	58269.98
525.30	58754.47
525.47	58698.30
525.64	58501.69
525.81	57785.49
525.98	56044.13
526.16	54763.85
526.33	54953.44
526.50	54415.11
526.67	54513.42
526.84	54993.23
527.01	55800.71
527.18	56451.38
527.36	57581.86
527.53	58351.90
527.70	57682.50
527.87	56301.59
528.04	57453.13
528.21	58176.36
528.38	58583.61
528.55	59313.86
528.72	59264.70
528.89	58625.74
529.07	58253.59
529.24	57441.43
529.41	57254.18
529.58	57137.16
529.75	58185.72
529.92	58169.33
530.09	58054.65
530.26	58646.80
530.43	59664.94
530.60	58288.70
530.77	58787.24
530.94	59327.90
531.11	58401.05
531.28	58681.91
531.46	58901.92
531.63	58396.37
531.80	57787.83
531.97	57272.91
532.14	57420.36
532.31	55903.70
532.48	55566.66
532.65	55564.32
532.82	56252.44
532.99	57689.52
533.16	58059.33
533.33	58054.65
533.50	58340.19
533.67	58396.37
533.84	57186.31
534.01	57904.85
534.18	58209.12
534.35	57956.35
534.52	57326.74
534.69	57956.35
534.86	58344.87
535.03	58560.20
535.20	58293.38
535.37	59040.01
535.54	59297.47
535.71	59157.04
535.88	59323.22
536.05	58033.58
536.22	57612.29
536.38	56994.39
536.55	56025.40
536.72	56123.71
536.89	56837.57
537.06	57132.48
537.23	57815.91
537.40	57691.86
537.57	57565.48
537.74	57851.02
537.91	57790.17
538.08	57214.40
538.25	57347.81
538.42	58159.97
538.59	57521.01
538.75	56886.72
538.92	56273.50
539.09	56245.41
539.26	56477.13
539.43	56418.61
539.60	56870.34
539.77	57354.83
539.94	56657.35
540.11	56142.43
540.28	55763.26
540.44	55283.45
540.61	55428.57
540.78	56044.13
540.95	57106.73
541.12	57088.01
541.29	57586.54
541.46	57631.01
541.62	57567.82
541.79	56666.71
541.96	56067.53
542.13	56074.55
542.30	56395.21
542.47	56942.89
542.63	56610.54
542.80	56493.51
542.97	56252.44
543.14	55770.28
543.31	56048.81
543.48	57556.11
543.64	57455.47
543.81	58796.60
543.98	58506.37
544.15	56594.15
544.32	57258.87
544.48	56896.08
544.65	56940.55
544.82	57757.40
544.99	56198.60
545.16	55480.06
545.32	55798.37
545.49	56856.29
545.66	56781.40
545.83	56669.05
546.00	57048.22
546.16	57279.93
546.33	57041.20
546.50	57251.84
546.67	57743.36
546.83	56378.82
547.00	57296.31
547.17	56086.26
547.34	55161.75
547.50	55391.12
547.67	56535.64
547.84	57017.79
548.00	56921.83
548.17	56905.44
548.34	56900.76
548.51	57226.10
548.67	57827.62
548.84	57338.44
549.01	57427.38
549.18	56652.67
549.34	57006.09
549.51	56898.42
549.68	56966.30
549.84	56570.75
550.01	56191.58
550.18	55826.46
550.34	56170.52
550.51	56584.79
550.68	56823.53
550.84	56453.72
551.01	55927.10
551.18	55669.64
551.34	55199.19
551.51	56683.09
551.68	56161.15
551.84	56271.16
552.01	56210.31
552.18	55744.54
552.34	55224.94
552.51	55379.42
552.68	55320.90
552.84	55573.68
553.01	55316.22
553.18	56591.81
553.34	56676.07
553.51	56570.75
553.67	55882.63
553.84	55711.77
554.01	56130.73
554.17	55774.97
554.34	56046.47
554.51	56112.00
554.67	55339.63
554.84	55341.97
555.00	55456.65
555.17	55585.38
555.33	54894.92
555.50	54504.06
555.67	55524.53
555.83	55683.69
556.00	55290.48
556.16	54726.41
556.33	54061.69
556.50	54885.56
556.66	55124.30
556.83	54686.62
556.99	54349.58
557.16	54883.22
557.32	54698.32
557.49	54695.98
557.65	54389.37
557.82	55377.08
557.98	55456.65
558.15	54230.21
558.32	53153.57
558.48	52545.03
558.65	53057.60
558.81	53588.91
558.98	54349.58
559.14	54358.94
559.31	53839.34
559.47	53446.13
559.64	53198.04
559.80	53006.11
559.97	53588.91
560.13	54967.48
560.30	55363.03
560.46	55955.19
560.63	56610.54
560.79	56217.33
560.96	55187.49
561.12	53834.66
561.29	53333.79
561.45	53535.07
561.61	55028.34
561.78	54094.46
561.94	54904.29
562.11	55173.45
562.27	53961.05
562.44	54719.38
562.60	54979.18
562.77	55325.58
562.93	53923.60
563.10	54003.18
563.26	53827.64
563.42	54754.49
563.59	53851.05
563.75	53546.78
563.92	53963.39
564.08	53350.17
564.24	54141.27
564.41	53708.27
564.57	54497.03
564.74	54131.91
564.90	53127.82
565.07	53364.21
565.23	52432.68
565.39	52090.96
565.56	52659.71
565.72	52233.74
565.88	51260.07
566.05	53460.18
566.21	54171.70
566.38	53446.13
566.54	53567.84
566.70	53947.01
566.87	53675.51
567.03	52973.34
567.19	54333.20
567.36	54731.09
567.52	52959.30
567.68	52851.64
567.85	51906.06
568.01	52083.94
568.17	52598.86
568.34	53158.25
568.50	52760.36
568.66	52942.92
568.83	52163.52
568.99	51629.88
569.15	52266.50
569.32	52545.03
569.48	51966.91
569.64	50857.50
569.81	51510.51
569.97	51505.83
570.13	50777.92
570.30	50351.94
570.46	49890.86
570.62	48952.30
570.78	49301.04
570.95	50632.81
571.11	50223.22
571.27	49858.09
571.43	50028.95
571.60	49806.60
571.76	51433.27
571.92	51840.53
572.09	52486.51
572.25	52301.61
572.41	53113.78
572.57	52671.42
572.74	52786.10
572.90	53502.31
573.06	52161.18
573.22	52772.06
573.38	52439.70
573.55	53851.05
573.71	52179.90
573.87	52704.18
574.03	52420.98
574.20	51634.56
574.36	51753.93
574.52	51093.89
574.68	50656.21
574.84	50405.78
575.01	50136.62
575.17	50719.41
575.33	50904.31
575.49	50787.28
575.65	50021.93
575.82	51089.21
575.98	50054.70
576.14	50885.59
576.30	51945.85
576.46	49944.69
576.62	50536.85
576.79	50600.04
576.95	50333.22
577.11	50796.65
577.27	50749.84
577.43	50820.05
577.59	49958.73
577.75	48582.50
577.92	48781.45
578.08	49188.70
578.24	49954.05
578.40	49689.57
578.56	49066.99
578.72	49298.70
578.88	49249.55
579.04	49336.15
579.21	48835.28
579.37	49319.77
579.53	50223.22
579.69	49455.52
579.85	49441.48
580.01	49471.90
580.17	49013.16
580.33	50054.70
580.49	50230.24
580.65	48126.10
580.82	49120.82
580.98	49965.76
581.14	50061.72
581.30	50047.68
581.46	49626.38
581.62	49668.51
581.78	50384.71
581.94	50237.26
582.10	50941.76
582.26	50742.81
582.42	50719.41
582.58	48596.54
582.74	48671.44
582.90	49137.21
583.06	49560.84
583.22	49581.91
583.38	49352.54
583.54	50052.36
583.70	50557.91
583.86	49787.88
584.02	49804.26
584.18	49537.44
584.34	48346.11
584.50	47938.85
584.66	48030.13
584.82	48903.15
584.98	49083.37
585.14	48247.80
585.30	48643.35
