SpectraSuite Data File
++++++++++++++++++++++++++++++++++++
Date: Mon Oct 07 14:53:20 GMT-05:00 2013
User: price-jones
Dark Spectrum Present: No
Reference Spectrum Present: No
Number of Sampled Component Spectra: 1
Spectrometers: USB2+H05261
Integration Time (usec): 100000 (USB2+H05261)
Spectra Averaged: 1 (USB2+H05261)
Boxcar Smoothing: 0 (USB2+H05261)
Correct for Electrical Dark: No (USB2+H05261)
Strobe/Lamp Enabled: No (USB2+H05261)
Correct for Detector Non-linearity: No (USB2+H05261)
Correct for Stray Light: No (USB2+H05261)
Number of Pixels in Processed Spectrum: 2048
>>>>>Begin Processed Spectral Data<<<<<
365.73	0.00
365.92	0.00
366.12	0.00
366.32	0.00
366.52	0.00
366.72	0.00
366.91	0.00
367.11	0.00
367.31	0.00
367.51	0.00
367.70	0.00
367.90	0.00
368.10	0.00
368.30	0.00
368.49	0.00
368.69	0.00
368.89	0.00
369.09	0.00
369.28	0.00
369.48	0.00
369.68	0.00
369.87	0.00
370.07	0.00
370.27	0.00
370.47	543.00
370.66	2932.69
370.86	3314.20
371.06	3728.47
371.25	3803.37
371.45	3393.78
371.65	3070.78
371.84	2768.85
372.04	3038.02
372.24	3241.64
372.44	3557.61
372.63	3604.42
372.83	3185.47
373.03	2928.01
373.22	2583.95
373.42	2890.56
373.62	3136.32
373.81	3403.14
374.01	3417.18
374.21	3187.81
374.40	2986.52
374.60	2986.52
374.79	3431.23
374.99	3962.53
375.19	4355.74
375.38	4278.50
375.58	4004.66
375.78	3950.82
375.97	3915.72
376.17	4271.48
376.37	4098.28
376.56	4372.12
376.76	4503.19
376.95	4861.29
377.15	5029.81
377.35	5423.02
377.54	5448.77
377.74	5710.91
377.93	5748.36
378.13	5701.54
378.33	5366.85
378.52	5011.09
378.72	4510.21
378.91	4683.41
379.11	4519.57
379.31	4287.86
379.50	4283.18
379.70	4744.27
379.89	5275.57
380.09	5352.81
380.28	5577.50
380.48	5591.54
380.68	5654.73
380.87	5423.02
381.07	5006.41
381.26	4580.43
381.46	4304.25
381.65	4114.66
381.85	4081.89
382.04	3754.22
382.24	3613.79
382.43	3440.59
382.63	3428.88
382.83	3475.70
383.02	3489.74
383.22	3419.52
383.41	3386.76
383.61	3609.11
383.80	4117.00
384.00	4557.02
384.19	5191.31
384.39	5516.64
384.58	5535.37
384.78	5432.38
384.97	5523.66
385.17	5247.48
385.36	4933.85
385.56	4582.77
385.75	4681.07
385.95	5446.43
386.14	5727.29
386.34	5776.44
386.53	5617.29
386.72	5071.94
386.92	5221.74
387.11	5542.39
387.31	5753.04
387.50	5600.90
387.70	5488.56
387.89	5448.77
388.09	5596.22
388.28	5556.43
388.48	5540.05
388.67	6001.13
388.86	6644.78
389.06	6977.14
389.25	7403.11
389.45	7478.01
389.64	7405.46
389.84	7391.41
390.03	6995.86
390.22	7236.94
390.42	7428.86
390.61	7950.80
390.81	8667.00
391.00	8636.58
391.19	8496.14
391.39	8252.73
391.58	7564.61
391.78	7279.07
391.97	7068.42
392.16	6738.40
392.36	6087.73
392.55	4758.31
392.75	3824.44
392.94	3070.78
393.13	3133.98
393.33	3758.90
393.52	4695.11
393.71	5923.90
393.91	6527.75
394.10	7133.95
394.29	7885.26
394.49	8311.24
394.68	9135.11
394.88	9219.37
395.07	9366.82
395.26	9242.78
395.46	9055.53
395.65	8021.02
395.84	7536.52
396.04	6347.53
396.23	5151.52
396.42	4374.46
396.62	4065.51
396.81	4844.91
397.00	6202.42
397.19	7772.92
397.39	9118.73
397.58	10195.37
397.77	10733.70
397.97	11300.11
398.16	11372.66
398.35	11880.56
398.55	12173.13
398.74	12465.69
398.93	13046.15
399.12	12854.22
399.32	12152.06
399.51	12442.29
399.70	13376.16
399.90	13280.20
400.09	13303.60
400.28	12922.10
400.47	13205.30
400.67	13928.53
400.86	14349.82
401.05	14256.20
401.24	14307.69
401.44	14377.91
401.63	14532.39
401.82	14506.64
402.01	14750.06
402.21	14843.68
402.40	14815.59
402.59	14232.80
402.78	13949.59
402.97	13261.48
403.17	14054.92
403.36	14544.09
403.55	15080.07
403.74	15466.26
403.93	14642.39
404.13	13860.65
404.32	13254.45
404.51	14136.84
404.70	15307.10
404.89	14953.68
405.09	14572.18
405.28	14679.84
405.47	14483.24
405.66	14281.95
405.85	13956.61
406.05	13755.33
406.24	13659.37
406.43	14314.72
406.62	14951.34
406.81	15059.01
407.00	14452.81
407.20	14164.92
407.39	14228.12
407.58	14829.63
407.77	15524.77
407.96	16287.79
408.15	16093.52
408.34	16271.40
408.54	17008.67
408.73	17081.23
408.92	16922.07
409.11	16594.40
409.30	15611.37
409.49	14714.95
409.68	13741.29
409.87	13214.66
410.07	14181.31
410.26	15370.30
410.45	16210.55
410.64	16678.66
410.83	17167.83
411.02	17530.61
411.21	18190.64
411.40	18162.56
411.59	18090.00
411.78	18050.21
411.98	17720.20
412.17	18356.82
412.36	17635.94
412.55	18160.22
412.74	17121.02
412.93	17240.39
413.12	17160.81
413.31	19000.47
413.50	18504.28
413.69	19494.32
413.88	18537.04
414.07	17862.97
414.26	18361.50
414.45	18780.46
414.64	18551.09
414.83	19077.71
415.02	18609.60
415.22	18743.01
415.41	19122.18
415.60	19447.51
415.79	20446.92
415.98	20709.06
416.17	21067.16
416.36	20442.24
416.55	20137.97
416.74	19232.18
416.93	19012.17
417.12	18848.33
417.31	19073.03
417.50	19381.98
417.69	20166.06
417.88	19751.78
418.07	19782.21
418.26	19674.54
418.45	19892.21
418.64	20322.87
418.83	20762.89
419.02	21078.86
419.21	20360.32
419.39	19449.85
419.58	18511.30
419.77	18590.88
419.96	19599.65
420.15	20685.65
420.34	21298.88
420.53	22038.48
420.72	22345.09
420.91	22574.47
421.10	22050.19
421.29	21855.92
421.48	21071.84
421.67	22214.02
421.86	21406.54
422.05	20044.35
422.24	18146.17
422.43	17804.46
422.61	19782.21
422.80	21338.66
422.99	21212.28
423.18	20428.20
423.37	20156.69
423.56	20025.62
423.75	20212.87
423.94	21001.63
424.13	19838.38
424.32	20184.78
424.50	19927.32
424.69	20259.68
424.88	19929.66
425.07	19812.63
425.26	20046.69
425.45	19634.75
425.64	19381.98
425.83	19211.12
426.01	20542.88
426.20	21198.23
426.39	20690.34
426.58	19300.06
426.77	17879.35
426.96	17376.14
427.15	17954.25
427.33	19281.33
427.52	20250.32
427.71	20137.97
427.90	19955.41
428.09	19843.06
428.28	19255.59
428.46	18799.18
428.65	18214.05
428.84	18735.99
429.03	19379.64
429.22	18349.80
429.40	17184.21
429.59	15712.02
429.78	13788.10
429.97	13926.19
430.16	13713.20
430.34	14134.50
430.53	13881.72
430.72	14427.06
430.91	16248.00
431.10	18698.54
431.28	21963.59
431.47	23924.96
431.66	23903.89
431.85	22022.10
432.03	20023.28
432.22	19257.93
432.41	19943.70
432.60	22104.02
432.79	23264.92
432.97	23674.52
433.16	23269.61
433.35	21221.64
433.54	19150.26
433.72	17926.16
433.91	18277.24
434.10	20538.20
434.28	21940.18
434.47	23498.98
434.66	23201.73
434.85	22045.51
435.03	22101.68
435.22	22752.35
435.41	24079.43
435.59	23969.43
435.78	24563.92
435.97	25174.80
436.16	25448.64
436.34	25095.22
436.53	24400.08
436.72	24453.92
436.90	23204.07
437.09	23239.18
437.28	22820.22
437.46	23197.05
437.65	23241.52
437.84	21687.40
438.02	20030.30
438.21	19871.15
438.40	21111.63
438.58	23012.15
438.77	23370.25
438.96	23414.72
439.14	24802.66
439.33	25174.80
439.52	25659.29
439.70	25202.89
439.89	24144.97
440.08	23796.23
440.26	23623.03
440.45	24711.38
440.63	26349.75
440.82	27651.09
441.01	27068.30
441.19	26869.35
441.38	27262.56
441.57	28383.68
441.75	28737.10
441.94	28620.07
442.12	28472.62
442.31	29479.05
442.50	29186.48
442.68	29029.66
442.87	28634.11
443.05	27894.50
443.24	28243.24
443.43	29102.22
443.61	29397.13
443.80	30361.43
443.98	28332.18
444.17	28128.56
444.35	29816.08
444.54	30740.60
444.73	29673.31
444.91	28676.24
445.10	27487.25
445.28	26394.22
445.47	25682.70
445.65	26324.01
445.84	27082.34
446.02	28299.42
446.21	28601.35
446.39	28098.13
446.58	28673.90
446.77	29259.04
446.95	29308.19
447.14	30398.88
447.32	30855.28
447.51	29825.45
447.69	28863.49
447.88	28556.88
448.06	28945.41
448.25	29415.85
448.43	29738.85
448.62	29376.06
448.80	29303.51
448.99	29528.20
449.17	29479.05
449.36	29551.60
449.54	30993.37
449.73	31068.27
449.91	31782.13
450.10	32732.39
450.28	32802.61
450.46	32467.91
450.65	32505.36
450.83	32458.55
451.02	31531.70
451.20	31704.90
451.39	31534.04
451.57	31421.69
451.76	31192.32
451.94	30946.56
452.13	31000.40
452.31	28849.44
452.49	27688.54
452.68	28093.45
452.86	28481.98
453.05	28762.84
453.23	29972.90
453.42	30314.62
453.60	31393.61
453.78	31014.44
453.97	31091.68
454.15	30724.21
454.34	30319.30
454.52	30595.48
454.70	29916.73
454.89	30415.26
455.07	30490.16
455.26	30724.21
455.44	32070.02
455.62	32217.47
455.81	32624.73
455.99	32531.11
456.17	31960.02
456.36	32598.98
456.54	33024.96
456.73	32837.72
456.91	33684.99
457.09	33371.36
457.28	34572.05
457.46	32910.27
457.64	33029.64
457.83	31962.36
458.01	31168.91
458.19	31887.46
458.38	32278.33
458.56	33062.41
458.74	32821.33
458.93	32517.06
459.11	32477.27
459.29	32123.85
459.48	32196.41
459.66	32135.56
459.84	32470.25
460.03	32961.76
460.21	32643.45
460.39	33745.84
460.57	33846.49
460.76	33832.44
460.94	33977.56
461.12	33612.43
461.31	33982.24
461.49	34085.22
461.67	33783.29
461.85	34483.11
462.04	34562.69
462.22	35096.33
462.40	34686.74
462.59	34628.23
462.77	34363.75
462.95	34529.92
463.13	33940.11
463.32	34017.35
463.50	33750.52
463.68	33799.68
463.86	33715.42
464.05	33177.09
464.23	32542.81
464.41	32292.37
464.59	32198.75
464.78	33589.03
464.96	33514.13
465.14	32652.81
465.32	33844.15
465.50	34644.61
465.69	35040.16
465.87	34120.33
466.05	33359.66
466.23	32044.27
466.41	31133.81
466.60	32163.64
466.78	31880.44
466.96	32837.72
467.14	32975.81
467.32	33514.13
467.51	33930.75
467.69	32261.94
467.87	32786.22
468.05	33446.26
468.23	33177.09
468.41	33432.21
468.60	33443.91
468.78	33998.62
468.96	33640.52
469.14	34157.78
469.32	34394.17
469.50	32797.93
469.69	33118.58
469.87	32266.63
470.05	32268.97
470.23	32542.81
470.41	32503.02
470.59	33048.36
470.77	33273.06
470.95	33738.82
471.14	34256.08
471.32	34307.57
471.50	35908.50
471.68	36055.95
471.86	36708.96
472.04	36535.76
472.22	36531.08
472.40	34834.19
472.58	35007.39
472.77	33961.17
472.95	35063.57
473.13	36081.70
473.31	34866.96
473.49	35456.78
473.67	35744.66
473.85	36144.89
474.03	36870.46
474.21	36905.57
474.39	37345.59
474.57	37586.66
474.75	37757.52
474.93	37509.43
475.12	36732.37
475.30	37106.85
475.48	36751.09
475.66	37134.94
475.84	36776.84
476.02	36367.24
476.20	35658.06
476.38	36856.42
476.56	37930.72
476.74	38141.37
476.92	38167.12
477.10	38808.42
477.28	39983.37
477.46	40254.87
477.64	40418.71
477.82	40680.85
478.00	40982.78
478.18	40119.12
478.36	39639.31
478.54	40292.32
478.72	40786.18
478.90	41280.03
479.08	42440.93
479.26	42756.91
479.44	42574.34
479.62	42314.55
479.80	42454.98
479.98	42892.66
480.16	42895.00
480.34	42447.96
480.52	43098.62
480.70	42927.77
480.88	42986.28
481.06	43466.09
481.24	44081.65
481.41	45102.12
481.59	45504.70
481.77	45689.60
481.95	45179.36
482.13	44301.66
482.31	44692.53
482.49	45310.43
482.67	45195.74
482.85	45401.71
483.03	46218.56
483.21	46745.18
483.39	46672.62
483.57	45687.26
483.74	45347.88
483.92	45593.64
484.10	45652.15
484.28	46848.16
484.46	47461.38
484.64	48121.41
484.82	46855.18
485.00	46401.12
485.18	45502.35
485.35	44121.44
485.53	40830.65
485.71	37256.65
485.89	37298.78
486.07	38728.84
486.25	42160.07
486.43	44444.43
486.61	45523.42
486.78	45106.80
486.96	45507.04
487.14	47192.22
487.32	48135.46
487.50	49057.63
487.68	50064.06
487.85	50298.11
488.03	50101.51
488.21	49804.26
488.39	49223.81
488.57	48793.15
488.75	48109.71
488.92	49750.43
489.10	51676.69
489.28	52935.90
489.46	53474.22
489.64	53439.11
489.81	53443.79
489.99	53176.97
490.17	53404.00
490.35	53624.01
490.53	53041.22
490.70	52807.17
490.88	52802.49
491.06	53544.44
491.24	53464.86
491.41	52418.64
491.59	50696.00
491.77	50340.24
491.95	51140.71
492.13	52570.77
492.30	53551.46
492.48	54681.94
492.66	55047.06
492.84	54897.27
493.01	54724.07
493.19	54064.03
493.37	54040.63
493.54	53497.62
493.72	54291.07
493.90	55407.50
494.08	55938.80
494.25	56257.12
494.43	56285.20
494.61	56851.61
494.79	57003.75
494.96	56598.83
495.14	56025.40
495.32	55166.43
495.49	54419.80
495.67	55814.76
495.85	57031.83
496.02	57261.21
496.20	57153.54
496.38	56680.75
496.55	56580.11
496.73	57076.30
496.91	57179.29
497.09	57851.02
497.26	57797.19
497.44	57551.43
497.62	56844.59
497.79	56104.98
497.97	54946.42
498.14	55061.10
498.32	56313.29
498.50	56942.89
498.67	57638.03
498.85	57284.61
499.03	57626.33
499.20	58148.27
499.38	57776.12
499.56	57696.55
499.73	57235.46
499.91	56877.36
500.08	56392.87
500.26	55524.53
500.44	56107.32
500.61	56959.28
500.79	56580.11
500.97	56177.54
501.14	56196.26
501.32	56095.62
501.49	55959.87
501.67	56332.01
501.84	56823.53
502.02	56903.10
502.20	57275.25
502.37	57708.25
502.55	57368.87
502.72	58115.50
502.90	58122.52
503.07	58122.52
503.25	57670.80
503.43	57038.86
503.60	56233.71
503.78	55365.37
503.95	56133.07
504.13	57460.15
504.30	58412.75
504.48	57954.00
504.65	57506.96
504.83	57773.78
505.01	58183.38
505.18	58817.66
505.36	59344.28
505.53	59440.24
505.71	59351.30
505.88	59547.91
506.06	58759.15
506.23	58653.82
506.41	58166.99
506.58	58560.20
506.76	58335.51
506.93	58384.66
507.11	58291.04
507.28	58492.33
507.46	58082.73
507.63	57251.84
507.81	57233.12
507.98	57488.24
508.16	58237.21
508.33	58623.40
508.50	58822.34
508.68	59309.18
508.85	59646.21
509.03	59629.83
509.20	59414.50
509.38	58925.33
509.55	58071.03
509.73	58094.44
509.90	58702.98
510.08	58885.54
510.25	58820.00
510.42	58660.85
510.60	58571.91
510.77	58850.43
510.95	59571.32
511.12	59543.23
511.30	59891.97
511.47	60126.02
511.64	59906.01
511.82	59643.87
511.99	58763.83
512.17	58555.52
512.34	58272.32
512.51	58316.79
512.69	58377.64
512.86	58775.53
513.04	58983.84
513.21	59044.69
513.38	58529.78
513.56	58134.23
513.73	57441.43
513.90	57804.21
514.08	57829.96
514.25	57991.45
514.43	58295.72
514.60	58417.43
514.77	58522.76
514.95	58642.12
515.12	58513.39
515.29	58693.61
515.47	59241.30
515.64	59515.14
515.81	59117.25
515.99	58504.03
516.16	57001.41
516.33	55047.06
516.51	53331.45
516.68	52928.87
516.85	52491.19
517.03	52739.29
517.20	55348.99
517.37	57743.36
517.54	58766.17
517.72	58316.79
517.89	55793.69
518.06	53631.04
518.24	53937.65
518.41	55938.80
518.58	57244.82
518.75	57415.68
518.93	57783.15
519.10	57551.43
519.27	58014.86
519.45	58487.65
519.62	58939.37
519.79	59168.74
519.96	59084.48
520.14	58719.36
520.31	57883.79
520.48	57673.14
520.65	58321.47
520.83	58915.96
521.00	59377.05
521.17	59023.63
521.34	58674.89
521.52	59058.74
521.69	59568.97
521.86	59903.67
522.03	59501.10
522.20	58588.29
522.38	57453.13
522.55	57525.69
522.72	58127.20
522.89	58169.33
523.07	58429.13
523.24	58841.07
523.41	59786.64
523.58	59653.23
523.75	60247.73
523.92	60018.36
524.10	60034.74
524.27	60111.98
524.44	59845.16
524.61	59674.30
524.78	59290.45
524.96	59496.42
525.13	59491.74
525.30	59697.70
525.47	60175.17
525.64	59980.91
525.81	59379.39
525.98	57907.19
526.16	56601.18
526.33	56065.19
526.50	55671.98
526.67	55393.46
526.84	55997.32
527.01	56938.21
527.18	57729.31
527.36	58611.70
527.53	59533.87
527.70	59711.75
527.87	59056.40
528.04	58590.63
528.21	59068.10
528.38	59660.26
528.55	60147.09
528.72	60502.85
528.89	60608.17
529.07	60280.50
529.24	59779.62
529.41	59217.89
529.58	58550.84
529.75	58808.30
529.92	59210.87
530.09	59554.93
530.26	60013.68
530.43	60397.52
530.60	60500.51
530.77	60512.21
530.94	60598.81
531.11	60219.64
531.28	59831.11
531.46	59568.97
531.63	59814.73
531.80	59739.83
531.97	59222.58
532.14	58534.46
532.31	57790.17
532.48	56973.32
532.65	57031.83
532.82	57773.78
532.99	58859.79
533.16	59159.38
533.33	59828.77
533.50	59437.90
533.67	58838.73
533.84	58616.38
534.01	58894.90
534.18	58918.31
534.35	59000.22
534.52	58976.82
534.69	59344.28
534.86	59519.82
535.03	59924.74
535.20	60156.45
535.37	60486.46
535.54	60479.44
535.71	60322.63
535.88	59845.16
536.05	59245.98
536.22	59068.10
536.38	58646.80
536.55	58436.16
536.72	57579.52
536.89	57776.12
537.06	58508.71
537.23	59421.52
537.40	59519.82
537.57	59545.57
537.74	59498.76
537.91	59110.23
538.08	59262.36
538.25	59295.13
538.42	59463.65
538.59	59363.01
538.75	58590.63
538.92	58246.57
539.09	58281.68
539.26	58080.39
539.43	57942.30
539.60	58092.10
539.77	58372.96
539.94	58075.71
540.11	57558.45
540.28	56800.12
540.44	57045.88
540.61	56987.36
540.78	57504.62
540.95	57886.13
541.12	58365.94
541.29	58693.61
541.46	58808.30
541.62	58812.98
541.79	58670.21
541.96	57958.69
542.13	58232.53
542.30	58553.18
542.47	58637.44
542.63	58141.25
542.80	58010.18
542.97	58237.21
543.14	58122.52
543.31	58164.65
543.48	58447.86
543.64	59381.73
543.81	59660.26
543.98	59248.32
544.15	58574.25
544.32	57921.24
544.48	58223.17
544.65	58691.27
544.82	58986.18
544.99	58866.81
545.16	58466.58
545.32	58094.44
545.49	58965.12
545.66	59128.95
545.83	58993.20
546.00	58522.76
546.16	58291.04
546.33	58227.85
546.50	58244.23
546.67	58892.56
546.83	58078.05
547.00	58361.26
547.17	57708.25
547.34	57017.79
547.50	56978.00
547.67	57593.56
547.84	57656.76
548.00	58134.23
548.17	58370.62
548.34	58223.17
548.51	58447.86
548.67	58335.51
548.84	58429.13
549.01	58183.38
549.18	58281.68
549.34	58237.21
549.51	58419.77
549.68	58174.02
549.84	57986.77
550.01	57965.71
550.18	57710.59
550.34	57921.24
550.51	57886.13
550.68	58124.86
550.84	57525.69
551.01	57471.85
551.18	57712.93
551.34	57893.15
551.51	57935.28
551.68	58625.74
551.84	58300.40
552.01	58344.87
552.18	58082.73
552.34	57104.39
552.51	57076.30
552.68	56814.16
552.84	57315.04
553.01	57492.92
553.18	57591.22
553.34	57743.36
553.51	57773.78
553.67	57911.88
553.84	58138.91
554.01	57921.24
554.17	57654.42
554.34	57961.03
554.51	58047.63
554.67	58248.91
554.84	58024.22
555.00	57581.86
555.17	57415.68
555.33	57668.46
555.50	57490.58
555.67	57511.64
555.83	57308.02
556.00	57155.88
556.16	57270.57
556.33	56769.69
556.50	56418.61
556.66	56615.22
556.83	56327.33
556.99	56486.49
557.16	56547.34
557.32	56842.25
557.49	56999.07
557.65	56980.34
557.82	56776.72
557.98	56734.59
558.15	56624.58
558.32	55749.22
558.48	54497.03
558.65	55152.38
558.81	55299.84
558.98	55580.70
559.14	55767.94
559.31	55882.63
559.47	55913.06
559.64	55700.07
559.80	55428.57
559.97	55491.76
560.13	55957.53
560.30	56678.41
560.46	57193.33
560.63	57411.00
560.79	57345.47
560.96	57003.75
561.12	55936.46
561.29	55178.13
561.45	55089.19
561.61	55831.14
561.78	56053.49
561.94	55805.39
562.11	55587.72
562.27	55845.18
562.44	56065.19
562.60	56214.99
562.77	56587.13
562.93	56437.34
563.10	56243.07
563.26	55688.37
563.42	56011.36
563.59	55648.58
563.75	55569.00
563.92	55669.64
564.08	55742.20
564.24	55908.38
564.41	55941.14
564.57	55814.76
564.74	55381.76
564.90	55627.51
565.07	55257.71
565.23	54660.87
565.39	54515.76
565.56	54262.98
565.72	53996.16
565.88	54260.64
566.05	54691.30
566.21	54801.30
566.38	54979.18
566.54	55075.15
566.70	55435.59
566.87	55601.77
567.03	55725.81
567.19	55683.69
567.36	55498.78
567.52	55370.05
567.68	55025.99
567.85	54548.53
568.01	54129.57
568.17	53801.89
568.34	53839.34
568.50	53691.89
568.66	53982.12
568.83	54059.35
568.99	54337.88
569.15	54576.61
569.32	54618.74
569.48	54190.42
569.64	54066.38
569.81	53577.20
569.97	53731.68
570.13	53858.07
570.30	52804.83
570.46	52589.50
570.62	52107.35
570.78	51826.48
570.95	52442.04
571.11	52853.98
571.27	53289.32
571.43	53354.85
571.60	53925.94
571.76	54115.53
571.92	54152.97
572.09	54417.46
572.25	54302.77
572.41	54527.46
572.57	54054.67
572.74	54162.34
572.90	53638.06
573.06	53745.72
573.22	53783.17
573.38	53925.94
573.55	53717.64
573.71	54031.27
573.87	53822.96
574.03	53595.93
574.20	53406.34
574.36	53237.83
574.52	53088.03
574.68	52617.58
574.84	52650.35
575.01	52048.83
575.17	52044.15
575.33	52357.78
575.49	52388.21
575.65	52650.35
575.82	52556.73
575.98	52229.05
576.14	52367.15
576.30	52750.99
576.46	52853.98
576.62	52837.59
576.79	52671.42
576.95	52505.24
577.11	52406.94
577.27	52655.03
577.43	52645.67
577.59	51854.57
577.75	51569.02
577.92	51100.92
578.08	50960.48
578.24	50775.58
578.40	51360.72
578.56	51980.96
578.72	51861.59
578.88	51927.13
579.04	51983.30
579.21	51997.34
579.37	52163.52
579.53	52327.36
579.69	52395.23
579.85	52210.33
580.01	52186.92
580.17	51536.26
580.33	51344.33
580.49	51679.03
580.65	51774.99
580.82	52090.96
580.98	52114.37
581.14	51707.12
581.30	52034.79
581.46	51913.08
581.62	52554.39
581.78	51971.60
581.94	52465.45
582.10	52308.63
582.26	52250.12
582.42	52325.02
582.58	52301.61
582.74	52186.92
582.90	51980.96
583.06	52207.99
583.22	52179.90
583.38	51943.51
583.54	52147.14
583.70	51833.50
583.86	51845.21
584.02	51805.42
584.18	51845.21
584.34	51622.86
584.50	51742.22
584.66	51281.14
584.82	51182.84
584.98	51271.78
585.14	50508.76
585.30	50038.31
