SpectraSuite Data File
++++++++++++++++++++++++++++++++++++
Date: Mon Oct 07 14:53:30 GMT-05:00 2013
User: price-jones
Dark Spectrum Present: No
Reference Spectrum Present: No
Number of Sampled Component Spectra: 1
Spectrometers: USB2+H05261
Integration Time (usec): 100000 (USB2+H05261)
Spectra Averaged: 1 (USB2+H05261)
Boxcar Smoothing: 0 (USB2+H05261)
Correct for Electrical Dark: No (USB2+H05261)
Strobe/Lamp Enabled: No (USB2+H05261)
Correct for Detector Non-linearity: No (USB2+H05261)
Correct for Stray Light: No (USB2+H05261)
Number of Pixels in Processed Spectrum: 2048
>>>>>Begin Processed Spectral Data<<<<<
365.73	0.00
365.92	0.00
366.12	0.00
366.32	0.00
366.52	0.00
366.72	0.00
366.91	0.00
367.11	0.00
367.31	0.00
367.51	0.00
367.70	0.00
367.90	0.00
368.10	0.00
368.30	0.00
368.49	0.00
368.69	0.00
368.89	0.00
369.09	0.00
369.28	0.00
369.48	0.00
369.68	0.00
369.87	0.00
370.07	0.00
370.27	0.00
370.47	493.85
370.66	3131.64
370.86	3686.34
371.06	3995.29
371.25	4037.42
371.45	3782.31
371.65	3414.84
371.84	3105.89
372.04	3363.35
372.24	3723.79
372.44	3882.95
372.63	3637.19
372.83	3489.74
373.03	3056.74
373.22	2829.71
373.42	3023.97
373.62	3424.20
373.81	3861.88
374.01	3606.77
374.21	3492.08
374.40	3119.93
374.60	3173.77
374.79	3592.72
374.99	4290.20
375.19	4573.41
375.38	4671.71
375.58	4142.75
375.78	4456.38
375.97	4252.75
376.17	4468.08
376.37	4526.60
376.56	4650.64
376.76	5078.96
376.95	5102.37
377.15	5540.05
377.35	5902.83
377.54	6005.81
377.74	6132.20
377.93	6272.64
378.13	5874.74
378.33	5755.38
378.52	5207.69
378.72	5064.92
378.91	5018.11
379.11	4936.19
379.31	4711.50
379.50	4781.71
379.70	4929.17
379.89	5544.73
380.09	5797.51
380.28	6125.18
380.48	6160.29
380.68	6036.24
380.87	5865.38
381.07	5577.50
381.26	5060.24
381.46	4526.60
381.65	4592.13
381.85	4362.76
382.04	4212.96
382.24	4046.79
382.43	3819.75
382.63	3850.18
382.83	3695.71
383.02	3597.40
383.22	3595.06
383.41	3667.62
383.61	3913.38
383.80	4617.88
384.00	5085.98
384.19	5729.63
384.39	5956.66
384.58	6047.94
384.78	5701.54
384.97	5921.56
385.17	5486.22
385.36	5188.97
385.56	5006.41
385.75	5252.16
385.95	5738.99
386.14	6251.57
386.34	6190.72
386.53	5916.87
386.72	5495.58
386.92	5593.88
387.11	5781.12
387.31	6160.29
387.50	6052.63
387.70	5827.93
387.89	5947.30
388.09	5771.76
388.28	5870.06
388.48	6061.99
388.67	6520.73
388.86	7056.72
389.06	7426.52
389.25	8131.02
389.45	8250.39
389.64	8037.40
389.84	7772.92
390.03	7751.85
390.22	7655.89
390.42	8051.44
390.61	8620.19
390.81	9025.11
391.00	9245.12
391.19	9036.81
391.39	8910.42
391.58	8528.91
391.78	7943.78
391.97	7599.72
392.16	7330.56
392.36	6785.21
392.55	5455.79
392.75	4322.97
392.94	3417.18
393.13	3552.93
393.33	4021.04
393.52	5102.37
393.71	6113.48
393.91	6984.16
394.10	7681.64
394.29	8332.31
394.49	8997.02
394.68	9811.53
394.88	9865.36
395.07	10068.98
395.26	10263.25
395.46	9778.76
395.65	9261.50
395.84	7943.78
396.04	6813.30
396.23	5537.71
396.42	4458.72
396.62	4444.68
396.81	5259.18
397.00	6700.95
397.19	8327.63
397.39	9745.99
397.58	10799.23
397.77	11658.21
397.97	12046.74
398.16	12236.32
398.35	12582.72
398.55	13062.53
398.74	13884.06
398.93	13837.25
399.12	13764.69
399.32	13352.76
399.51	13420.63
399.70	14560.47
399.90	14162.58
400.09	14356.85
400.28	14195.35
400.47	14310.04
400.67	15110.50
400.86	15435.83
401.05	15382.00
401.24	15618.39
401.44	15562.22
401.63	15910.96
401.82	16004.58
402.01	15854.79
402.21	16177.78
402.40	16035.01
402.59	15672.23
402.78	14815.59
402.97	14604.94
403.17	14977.09
403.36	15810.32
403.55	16465.67
403.74	16828.45
403.93	16201.19
404.13	14824.95
404.32	14516.00
404.51	15154.97
404.70	16531.20
404.89	16482.05
405.09	16166.08
405.28	15688.61
405.47	15602.01
405.66	15693.29
405.85	15344.55
406.05	14906.87
406.24	14930.28
406.43	15754.15
406.62	16245.66
406.81	16205.87
407.00	16063.10
407.20	15405.41
407.39	15602.01
407.58	16428.22
407.77	17008.67
407.96	17163.15
408.15	17598.49
408.34	17429.97
408.54	18338.10
408.73	18499.59
408.92	18256.18
409.11	17832.54
409.30	17001.65
409.49	15754.15
409.68	15129.22
409.87	14544.09
410.07	15311.78
410.26	16578.01
410.45	17420.61
410.64	17778.71
410.83	18370.86
411.02	18874.08
411.21	19850.08
411.40	19520.07
411.59	19300.06
411.78	19484.96
411.98	19180.69
412.17	19690.93
412.36	19119.84
412.55	19316.44
412.74	18679.82
412.93	18066.60
413.12	18661.09
413.31	20512.46
413.50	20402.45
413.69	20954.82
413.88	20051.37
414.07	19578.58
414.26	19543.47
414.45	20573.31
414.64	20456.28
414.83	20587.35
415.02	20166.06
415.22	20123.93
415.41	20863.54
415.60	21254.40
415.79	21991.67
415.98	22597.87
416.17	22410.63
416.36	21855.92
416.55	21724.85
416.74	21010.99
416.93	20159.03
417.12	20563.95
417.31	20800.34
417.50	21116.31
417.69	21429.94
417.88	21612.51
418.07	21165.46
418.26	21163.12
418.45	21465.05
418.64	22012.74
418.83	22642.34
419.02	22611.92
419.21	22356.80
419.39	21317.60
419.58	20350.96
419.77	20173.08
419.96	21142.06
420.15	22466.80
420.34	23051.94
420.53	23793.89
420.72	24070.07
420.91	23896.87
421.10	23711.97
421.29	23861.76
421.48	22548.72
421.67	23936.66
421.86	23491.96
422.05	21472.07
422.24	19461.55
422.43	19253.25
422.61	21474.42
422.80	22703.20
422.99	23433.44
423.18	22253.81
423.37	21706.13
423.56	21759.96
423.75	22017.42
423.94	22478.50
424.13	21659.32
424.32	21685.06
424.50	21830.18
424.69	21238.02
424.88	21378.45
425.07	21184.19
425.26	21523.57
425.45	21387.82
425.64	20765.23
425.83	20886.94
426.01	22118.06
426.20	22471.48
426.39	22642.34
426.58	20908.01
426.77	19337.51
426.96	18342.78
427.15	19056.64
427.33	20627.14
427.52	21678.04
427.71	21743.58
427.90	21317.60
428.09	21308.24
428.28	20919.71
428.46	20226.91
428.65	20023.28
428.84	20067.75
429.03	20711.40
429.22	19648.80
429.40	18691.52
429.59	17032.08
429.78	14932.62
429.97	14862.40
430.16	15211.14
430.34	15400.72
430.53	15267.31
430.72	15295.40
430.91	17446.35
431.10	20222.23
431.28	23702.61
431.47	25514.18
431.66	25781.00
431.85	23630.05
432.03	21757.62
432.22	20765.23
432.41	21668.68
432.60	24034.96
432.79	25151.40
432.97	25837.17
433.16	25296.51
433.35	22782.77
433.54	20713.74
433.72	19257.93
433.91	19917.96
434.10	22134.45
434.28	23843.04
434.47	25242.68
434.66	24786.27
434.85	23936.66
435.03	23847.72
435.22	24617.75
435.41	26235.06
435.59	25961.22
435.78	26799.13
435.97	27105.74
436.16	27346.82
436.34	27072.98
436.53	26085.27
436.72	26684.45
436.90	24687.97
437.09	24966.49
437.28	24240.93
437.46	25605.46
437.65	25460.35
437.84	23339.82
438.02	21612.51
438.21	21074.18
438.40	22541.70
438.58	24704.35
438.77	25256.72
438.96	25586.74
439.14	26616.57
439.33	27171.28
439.52	27751.73
439.70	27246.18
439.89	26391.88
440.08	25621.84
440.26	25701.42
440.45	26443.37
440.63	28208.14
440.82	29715.44
441.01	29486.07
441.19	28760.50
441.38	29429.90
441.57	30525.27
441.75	31005.08
441.94	31409.99
442.12	31349.14
442.31	31793.84
442.50	31391.26
442.68	30761.66
442.87	30621.23
443.05	30595.48
443.24	30628.25
443.43	31171.25
443.61	32065.34
443.80	32290.03
443.98	30293.55
444.17	30433.99
444.35	32266.63
444.54	32924.32
444.73	32467.91
444.91	30906.77
445.10	29937.79
445.28	28669.22
445.47	28091.11
445.65	28376.66
445.84	29331.59
446.02	30230.36
446.21	30789.75
446.39	30686.76
446.58	30986.35
446.77	31601.91
446.95	31960.02
447.14	32645.79
447.32	33387.74
447.51	32587.28
447.69	31229.77
447.88	30855.28
448.06	31154.87
448.25	32135.56
448.43	32456.21
448.62	31562.12
448.80	31550.42
448.99	31892.14
449.17	31847.67
449.36	31864.05
449.54	33221.56
449.73	33462.64
449.91	34330.98
450.10	34892.71
450.28	35496.56
450.46	35290.60
450.65	35346.77
450.83	34824.83
451.02	34436.30
451.20	34281.83
451.39	34000.96
451.57	33787.97
451.76	33715.42
451.94	33539.88
452.13	33099.86
452.31	31590.21
452.49	30171.85
452.68	30192.91
452.86	30583.78
453.05	31047.21
453.23	31744.69
453.42	32278.33
453.60	33331.57
453.78	33874.57
453.97	33373.70
454.15	33464.98
454.34	32486.64
454.52	32898.57
454.70	31941.29
454.89	32540.47
455.07	32430.46
455.26	33598.39
455.44	34696.10
455.62	34675.04
455.81	35014.41
455.99	35002.71
456.17	34279.49
456.36	34913.77
456.54	35489.54
456.73	35454.44
456.91	35847.64
457.09	35901.48
457.28	36493.63
457.46	35309.32
457.64	35576.14
457.83	34199.91
458.01	33481.36
458.19	34148.42
458.38	34415.24
458.56	35583.16
458.74	35468.48
458.93	34560.35
459.11	35173.57
459.29	34436.30
459.48	34890.37
459.66	34478.43
459.84	35388.90
460.03	35866.37
460.21	35534.01
460.39	36510.02
460.57	36198.73
460.76	37102.17
460.94	36811.95
461.12	36322.77
461.31	36559.17
461.49	36322.77
461.67	36245.54
461.85	37633.47
462.04	37294.10
462.22	38178.82
462.40	37745.82
462.59	37048.34
462.77	36989.83
462.95	37273.03
463.13	36044.25
463.32	36484.27
463.50	36428.10
463.68	36128.51
463.86	36814.29
464.05	35871.05
464.23	34586.10
464.41	34726.53
464.59	34333.32
464.78	36077.02
464.96	35770.41
465.14	35615.93
465.32	36421.08
465.50	37371.33
465.69	37820.72
465.87	37081.11
466.05	35992.76
466.23	34153.10
466.41	33490.73
466.60	34490.13
466.78	34731.21
466.96	34909.09
467.14	35583.16
467.32	36119.15
467.51	35681.47
467.69	34824.83
467.87	35267.19
468.05	36060.63
468.23	35983.40
468.41	36116.81
468.60	35866.37
468.78	36631.72
468.96	35536.35
469.14	36495.97
469.32	37081.11
469.50	35405.28
469.69	35550.40
469.87	34834.19
470.05	34733.55
470.23	34792.06
470.41	35515.29
470.59	35393.58
470.77	35873.39
470.95	36463.21
471.14	36538.10
471.32	37167.71
471.50	39110.35
471.68	38829.49
471.86	38939.49
472.04	39590.16
472.22	39676.76
472.40	37762.20
472.58	37130.26
472.77	36966.42
472.95	37659.22
473.13	38447.98
473.31	37631.13
473.49	37942.42
473.67	38223.29
473.85	38883.32
474.03	39913.16
474.21	39938.90
474.39	40137.85
474.57	40123.80
474.75	40350.84
474.93	40563.82
475.12	39421.64
475.30	39461.43
475.48	39276.53
475.66	40374.24
475.84	39349.09
476.02	38979.28
476.20	38710.12
476.38	39297.59
476.56	40495.95
476.74	41326.84
476.92	40746.39
477.10	41698.98
477.28	43026.07
477.46	42913.72
477.64	43470.77
477.82	42965.21
478.00	43761.00
478.18	43260.12
478.36	43203.95
478.54	42969.90
478.72	43115.01
478.90	43632.27
479.08	45045.95
479.26	46153.02
479.44	45237.87
479.62	45193.40
479.80	45118.51
479.98	45738.75
480.16	45654.49
480.34	45261.28
480.52	45603.00
480.70	45989.19
480.88	46265.37
481.06	46623.47
481.24	47250.74
481.41	48268.87
481.59	48547.39
481.77	48409.30
481.95	47718.84
482.13	47592.45
482.31	47737.57
482.49	48341.42
482.67	48353.13
482.85	48423.34
483.03	48907.83
483.21	49169.97
483.39	49216.78
483.57	48610.59
483.74	48238.44
483.92	48608.25
484.10	48596.54
484.28	49677.87
484.46	49921.29
484.64	50635.15
484.82	49429.77
485.00	49193.38
485.18	48318.02
485.35	47295.21
485.53	43838.23
485.71	40287.64
485.89	39814.85
486.07	41808.99
486.25	45083.40
486.43	47393.51
486.61	47859.27
486.78	47681.39
486.96	48163.54
487.14	49848.73
487.32	50581.32
487.50	51416.89
487.68	52451.41
487.85	52692.48
488.03	52582.48
488.21	52530.98
488.39	51793.71
488.57	51129.00
488.75	50880.91
488.92	51650.94
489.10	53705.93
489.28	54946.42
489.46	55547.93
489.64	55381.76
489.81	55686.03
489.99	55180.47
490.17	55370.05
490.35	55728.16
490.53	55297.50
490.70	54864.50
490.88	54576.61
491.06	55454.31
491.24	55526.87
491.41	54901.95
491.59	53415.71
491.77	52392.89
491.95	53434.43
492.13	54576.61
492.30	55693.05
492.48	56533.30
492.66	56898.42
492.84	56956.94
493.01	56596.49
493.19	56116.68
493.37	56004.34
493.54	55709.43
493.72	56196.26
493.90	57345.47
494.08	57780.81
494.25	58019.54
494.43	58232.53
494.61	58679.57
494.79	58787.24
494.96	58670.21
495.14	57930.60
495.32	57394.62
495.49	56371.80
495.67	57319.72
495.85	58735.74
496.02	59030.65
496.20	59004.91
496.38	58464.24
496.55	58492.33
496.73	58733.40
496.91	58810.64
497.09	59543.23
497.26	59714.09
497.44	59274.07
497.62	58773.19
497.79	58040.60
497.97	56849.27
498.14	56891.40
498.32	57883.79
498.50	59035.33
498.67	59398.12
498.85	59178.10
499.03	59358.33
499.20	59554.93
499.38	59774.94
499.56	59531.53
499.73	59100.87
499.91	58777.87
500.08	58181.04
500.26	57605.26
500.44	58092.10
500.61	58574.25
500.79	58770.85
500.97	58127.20
501.14	58108.48
501.32	57991.45
501.49	57918.90
501.67	58262.96
501.84	58691.27
502.02	58707.66
502.20	59091.51
502.37	59182.79
502.55	59353.65
502.72	59475.35
502.90	60245.39
503.07	59758.56
503.25	59522.16
503.43	58869.15
503.60	58185.72
503.78	57457.81
503.95	57841.66
504.13	59159.38
504.30	60086.23
504.48	59917.71
504.65	59519.82
504.83	59533.87
505.01	60179.85
505.18	60383.48
505.36	61186.28
505.53	60921.80
505.71	61078.62
505.88	61441.40
506.06	60615.19
506.23	60441.99
506.41	60055.81
506.58	60451.36
506.76	60177.51
506.93	60313.26
507.11	60088.57
507.28	60083.89
507.46	59723.45
507.63	59040.01
507.81	58983.84
507.98	59360.67
508.16	59866.22
508.33	60727.54
508.50	60757.97
508.68	60874.99
508.85	61254.16
509.03	61399.27
509.20	61050.53
509.38	60685.41
509.55	59697.70
509.73	60006.65
509.90	60390.50
510.08	60882.02
510.25	60699.45
510.42	60406.89
510.60	60673.71
510.77	60718.18
510.95	61179.26
511.12	61102.03
511.30	61523.32
511.47	61745.67
511.64	61769.08
511.82	61427.36
511.99	60769.67
512.17	60378.80
512.34	59971.55
512.51	60271.14
512.69	60151.77
512.86	60238.37
513.04	60746.26
513.21	60846.91
513.38	60601.15
513.56	59908.35
513.73	59332.58
513.90	59767.92
514.08	59657.91
514.25	60147.09
514.43	60273.48
514.60	60236.03
514.77	60378.80
514.95	60507.53
515.12	60493.49
515.29	60701.79
515.47	60935.85
515.64	61331.40
515.81	60921.80
515.99	60231.35
516.16	59245.98
516.33	56947.57
516.51	55683.69
516.68	54775.56
516.85	54763.85
517.03	54955.78
517.20	57097.37
517.37	59669.62
517.54	60587.11
517.72	60076.87
517.89	57932.94
518.06	55360.69
518.24	55891.99
518.41	57696.55
518.58	59253.00
518.75	59402.80
518.93	59751.54
519.10	59599.40
519.27	59931.76
519.45	60161.13
519.62	60664.35
519.79	61008.40
519.96	60889.04
520.14	60303.90
520.31	59568.97
520.48	59601.74
520.65	59952.82
520.83	60811.80
521.00	61226.07
521.17	60879.67
521.34	60404.55
521.52	60718.18
521.69	61031.81
521.86	61851.00
522.03	61429.70
522.20	60275.82
522.38	59426.20
522.55	59285.77
522.72	59894.31
522.89	60104.96
523.07	60149.43
523.24	60584.77
523.41	61179.26
523.58	61513.96
523.75	61883.76
523.92	61769.08
524.10	61778.44
524.27	61879.08
524.44	61638.01
524.61	61418.00
524.78	61382.89
524.96	61155.86
525.13	61188.63
525.30	61509.28
525.47	62108.46
525.64	61717.59
525.81	61228.41
525.98	59894.31
526.16	58536.80
526.33	57785.49
526.50	57595.90
526.67	57109.07
526.84	57769.10
527.01	58686.59
527.18	59367.69
527.36	60392.84
527.53	61202.67
527.70	61296.29
527.87	60823.50
528.04	60320.29
528.21	60804.78
528.38	61520.98
528.55	62063.99
528.72	62162.29
528.89	62522.73
529.07	62096.75
529.24	61490.55
529.41	60917.12
529.58	60303.90
529.75	60540.30
529.92	60900.74
530.09	61289.27
530.26	61876.74
530.43	62005.47
530.60	61965.68
530.77	62293.36
530.94	62300.38
531.11	61825.25
531.28	61516.30
531.46	61286.93
531.63	61616.94
531.80	61455.45
531.97	61134.79
532.14	60226.66
532.31	59367.69
532.48	58738.08
532.65	58824.68
532.82	59688.34
532.99	60669.03
533.16	61087.98
533.33	61495.24
533.50	61535.02
533.67	60823.50
533.84	60353.05
534.01	60493.49
534.18	60683.07
534.35	61038.83
534.52	60783.71
534.69	60938.19
534.86	61216.71
535.03	61581.84
535.20	61989.09
535.37	62195.06
535.54	62241.87
535.71	62019.52
535.88	61703.54
536.05	61134.79
536.22	60729.88
536.38	60392.84
536.55	59938.78
536.72	59690.68
536.89	59496.42
537.06	60355.39
537.23	60921.80
537.40	61022.45
537.57	61322.04
537.74	61111.39
537.91	60893.72
538.08	60940.53
538.25	60795.42
538.42	61193.31
538.59	61102.03
538.75	60371.78
538.92	60191.56
539.09	60130.70
539.26	59880.27
539.43	59742.17
539.60	59751.54
539.77	59962.18
539.94	59898.99
540.11	59161.72
540.28	58564.88
540.44	58805.96
540.61	59096.19
540.78	59114.91
540.95	59585.36
541.12	59861.54
541.29	60114.32
541.46	60420.93
541.62	60430.29
541.79	60486.46
541.96	59796.01
542.13	59788.98
542.30	59943.46
542.47	60245.39
542.63	60149.43
542.80	59901.33
542.97	59973.89
543.14	59831.11
543.31	59849.84
543.48	60261.77
543.64	61092.66
543.81	61338.42
543.98	61169.90
544.15	60498.17
544.32	60025.38
544.48	59964.52
544.65	60346.03
544.82	60935.85
544.99	60512.21
545.16	60107.30
545.32	60016.02
545.49	60577.75
545.66	61064.58
545.83	60769.67
546.00	60395.18
546.16	59959.84
546.33	59959.84
546.50	60243.05
546.67	60324.97
546.83	60137.72
547.00	59959.84
547.17	59487.06
547.34	59203.85
547.50	58904.26
547.67	59250.66
547.84	59442.59
548.00	59943.46
548.17	60224.32
548.34	59959.84
548.51	60074.53
548.67	60048.78
548.84	60432.63
549.01	60303.90
549.18	60011.34
549.34	60093.25
549.51	60018.36
549.68	60027.72
549.84	59763.24
550.01	59763.24
550.18	59463.65
550.34	59561.95
550.51	59704.73
550.68	59861.54
550.84	59386.41
551.01	59402.80
551.18	59313.86
551.34	59594.72
551.51	59774.94
551.68	60093.25
551.84	60023.04
552.01	60058.15
552.18	59786.64
552.34	59128.95
552.51	58791.92
552.68	58555.52
552.84	59124.27
553.01	59384.07
553.18	59374.71
553.34	59173.42
553.51	59742.17
553.67	59976.23
553.84	59852.18
554.01	59559.61
554.17	59700.04
554.34	59681.32
554.51	59758.56
554.67	60172.83
554.84	59966.87
555.00	59547.91
555.17	59341.94
555.33	59416.84
555.50	59550.25
555.67	59267.05
555.83	59241.30
556.00	58855.11
556.16	58796.60
556.33	58583.61
556.50	58452.54
556.66	58546.16
556.83	58136.57
556.99	58234.87
557.16	58300.40
557.32	58511.05
557.49	58869.15
557.65	58918.31
557.82	58901.92
557.98	58604.67
558.15	58415.09
558.32	57577.18
558.48	56802.46
558.65	57036.51
558.81	57329.08
558.98	57464.83
559.14	57656.76
559.31	57865.06
559.47	57998.48
559.64	57745.70
559.80	57083.33
559.97	57141.84
560.13	57378.23
560.30	58646.80
560.46	59089.16
560.63	59264.70
560.79	59147.68
560.96	58880.86
561.12	57722.29
561.29	56999.07
561.45	57097.37
561.61	57506.96
561.78	57979.75
561.94	57745.70
562.11	57771.44
562.27	57708.25
562.44	57722.29
562.60	58092.10
562.77	58223.17
562.93	58396.37
563.10	58225.51
563.26	57464.83
563.42	57680.16
563.59	57588.88
563.75	57544.41
563.92	57668.46
564.08	57560.79
564.24	57851.02
564.41	57752.72
564.57	57876.77
564.74	57652.08
564.90	57584.20
565.07	57207.37
565.23	56814.16
565.39	56467.76
565.56	56402.23
565.72	55976.25
565.88	56484.15
566.05	56390.53
566.21	56938.21
566.38	56933.53
566.54	56959.28
566.70	57022.47
566.87	57766.76
567.03	57432.07
567.19	57701.23
567.36	57476.54
567.52	57069.28
567.68	57099.71
567.85	56320.31
568.01	56168.18
568.17	55648.58
568.34	55683.69
568.50	55826.46
568.66	55671.98
568.83	56231.37
568.99	56123.71
569.15	56413.93
569.32	56411.59
569.48	56093.28
569.64	56200.94
569.81	55735.18
569.97	55646.24
570.13	55674.32
570.30	55016.63
570.46	54813.01
570.62	54335.54
570.78	54354.26
570.95	54686.62
571.11	55224.94
571.27	55199.19
571.43	55365.37
571.60	55683.69
571.76	55941.14
571.92	56296.91
572.09	56449.04
572.25	56292.22
572.41	56236.05
572.57	56182.22
572.74	56067.53
572.90	55742.20
573.06	55721.13
573.22	55962.21
573.38	55910.72
573.55	55803.05
573.71	55877.95
573.87	56030.08
574.03	55557.30
574.20	55667.30
574.36	55281.11
574.52	55283.45
574.68	55154.72
574.84	54649.17
575.01	54232.55
575.17	54260.64
575.33	54480.65
575.49	54710.02
575.65	54859.82
575.82	54698.32
575.98	54670.23
576.14	54674.91
576.30	55150.04
576.46	55306.86
576.62	55075.15
576.79	54805.98
576.95	54691.30
577.11	54843.43
577.27	54684.28
577.43	54885.56
577.59	54398.73
577.75	54115.53
577.92	53600.61
578.08	53514.01
578.24	53359.53
578.40	53841.68
578.56	53792.53
578.72	53825.30
578.88	54164.68
579.04	54073.40
579.21	54150.63
579.37	54326.17
579.53	54450.22
579.69	54396.39
579.85	54705.34
580.01	54389.37
580.17	54270.00
580.33	53965.73
580.49	54014.88
580.65	53935.30
580.82	54375.33
580.98	54520.44
581.14	54150.63
581.30	54223.19
581.46	54213.83
581.62	54394.05
581.78	54351.92
581.94	54569.59
582.10	54389.37
582.26	54618.74
582.42	54738.11
582.58	54281.70
582.74	54450.22
582.90	54515.76
583.06	54459.58
583.22	54253.62
583.38	54103.82
583.54	54330.86
583.70	54178.72
583.86	54134.25
584.02	54082.76
584.18	54265.32
584.34	54042.97
584.50	53801.89
584.66	53876.79
584.82	53481.24
584.98	53488.26
585.14	52985.05
