SpectraSuite Data File
++++++++++++++++++++++++++++++++++++
Date: Mon Oct 07 14:54:59 GMT-05:00 2013
User: price-jones
Dark Spectrum Present: No
Reference Spectrum Present: No
Number of Sampled Component Spectra: 1
Spectrometers: USB2+H05261
Integration Time (usec): 10000 (USB2+H05261)
Spectra Averaged: 1 (USB2+H05261)
Boxcar Smoothing: 0 (USB2+H05261)
Correct for Electrical Dark: No (USB2+H05261)
Strobe/Lamp Enabled: No (USB2+H05261)
Correct for Detector Non-linearity: No (USB2+H05261)
Correct for Stray Light: No (USB2+H05261)
Number of Pixels in Processed Spectrum: 2048
>>>>>Begin Processed Spectral Data<<<<<
365.73	0.00
365.92	0.00
366.12	0.00
366.32	0.00
366.52	0.00
366.72	0.00
366.91	0.00
367.11	0.00
367.31	0.00
367.51	0.00
367.70	0.00
367.90	0.00
368.10	0.00
368.30	0.00
368.49	0.00
368.69	0.00
368.89	0.00
369.09	0.00
369.28	0.00
369.48	0.00
369.68	0.00
369.87	0.00
370.07	0.00
370.27	0.00
370.47	32.77
370.66	1371.55
370.86	1551.78
371.06	1736.68
371.25	1680.50
371.45	1493.26
371.65	1488.58
371.84	1338.79
372.04	1490.92
372.24	1572.84
372.44	1724.97
372.63	1575.18
372.83	1439.43
373.03	1207.72
373.22	1088.35
373.42	1390.28
373.62	1631.35
373.81	1596.25
374.01	1607.95
374.21	1383.26
374.40	1371.55
374.60	1490.92
374.79	1739.02
374.99	1994.14
375.19	2026.90
375.38	2069.03
375.58	1980.09
375.78	1874.77
375.97	1912.22
376.17	1956.69
376.37	2015.20
376.56	2040.95
376.76	2296.07
376.95	2429.48
377.15	2511.39
377.35	2654.17
377.54	2764.17
377.74	2818.00
377.93	2822.69
378.13	2691.62
378.33	2523.10
378.52	2256.28
378.72	2209.47
378.91	2319.47
379.11	2073.71
379.31	2019.88
379.50	2169.68
379.70	2242.23
379.89	2399.05
380.09	2703.32
380.28	2736.09
380.48	2813.32
380.68	2527.78
380.87	2551.18
381.07	2286.70
381.26	2160.31
381.46	1987.11
381.65	1977.75
381.85	1830.30
382.04	1804.55
382.24	1593.90
382.43	1535.39
382.63	1607.95
382.83	1558.80
383.02	1673.48
383.22	1678.16
383.41	1603.27
383.61	1771.79
383.80	2036.27
384.00	2340.54
384.19	2670.55
384.39	2815.66
384.58	2724.38
384.78	2614.38
384.97	2406.07
385.17	2424.80
385.36	2272.66
385.56	2211.81
385.75	2392.03
385.95	2829.71
386.14	2710.34
386.34	2792.26
386.53	2583.95
386.72	2466.92
386.92	2729.06
387.11	2778.22
387.31	2871.84
387.50	2574.59
387.70	2698.64
387.89	2722.04
388.09	2787.58
388.28	2672.89
388.48	2761.83
388.67	2993.55
388.86	3276.75
389.06	3318.88
389.25	3595.06
389.45	3665.28
389.64	3623.15
389.84	3541.23
390.03	3545.91
390.22	3679.32
390.42	3747.20
390.61	4060.83
390.81	4278.50
391.00	4334.67
391.19	4175.52
391.39	4105.30
391.58	3882.95
391.78	3630.17
391.97	3545.91
392.16	3253.34
392.36	2822.69
392.55	2174.36
392.75	1708.59
392.94	1474.54
393.13	1612.63
393.33	1994.14
393.52	2532.46
393.71	3019.29
393.91	3361.01
394.10	3653.58
394.29	4060.83
394.49	4250.41
394.68	4816.82
394.88	4629.58
395.07	4725.54
395.26	4542.98
395.46	4306.59
395.65	4063.17
395.84	3557.61
396.04	2848.43
396.23	2394.37
396.42	1968.39
396.62	2036.27
396.81	2558.21
397.00	3361.01
397.19	4037.42
397.39	4835.55
397.58	5231.10
397.77	5500.26
397.97	5689.84
398.16	5696.86
398.35	6120.50
398.55	6300.72
398.74	6345.19
398.93	6394.34
399.12	6417.75
399.32	6129.86
399.51	6235.19
399.70	6731.38
399.90	6527.75
400.09	6719.68
400.28	6544.14
400.47	6672.87
400.67	6846.07
400.86	7037.99
401.05	7070.76
401.24	7176.08
401.44	7344.60
401.63	7489.71
401.82	7353.96
402.01	7330.56
402.21	7452.27
402.40	7510.78
402.59	7265.02
402.78	6712.66
402.97	6808.62
403.17	7248.64
403.36	7405.46
403.55	7719.09
403.74	7906.33
403.93	7346.94
404.13	6806.28
404.32	6949.05
404.51	7391.41
404.70	7868.88
404.89	7583.34
405.09	7433.54
405.28	7330.56
405.47	7445.24
405.66	7529.50
405.85	7211.19
406.05	6998.20
406.24	7115.23
406.43	7428.86
406.62	7733.13
406.81	7655.89
407.00	7370.35
407.20	7098.84
407.39	7407.80
407.58	7688.66
407.77	7871.22
407.96	8344.01
408.15	8175.49
408.34	8414.23
408.54	8765.31
408.73	8690.41
408.92	8369.76
409.11	8252.73
409.30	8112.30
409.49	7489.71
409.68	6892.88
409.87	6977.14
410.07	7499.08
410.26	7978.89
410.45	8205.92
410.64	8580.40
410.83	8999.36
411.02	9263.84
411.21	9467.47
411.40	9135.11
411.59	9090.64
411.78	9214.69
411.98	9088.30
412.17	9465.13
412.36	9212.35
412.55	9249.80
412.74	8720.84
412.93	8685.73
413.12	8933.82
413.31	9598.54
413.50	9558.75
413.69	9767.06
413.88	9362.14
414.07	9401.93
414.26	9607.90
414.45	9760.03
414.64	9657.05
414.83	9818.55
415.02	9413.63
415.22	9596.20
415.41	9898.13
415.60	10169.63
415.79	10707.95
415.98	10920.94
416.17	10787.53
416.36	10349.85
416.55	10272.61
416.74	9706.20
416.93	9673.43
417.12	9689.82
417.31	9682.80
417.50	10029.20
417.69	10298.36
417.88	10317.08
418.07	10291.34
418.26	10059.62
418.45	10289.00
418.64	10721.99
418.83	10829.66
419.02	10789.87
419.21	10445.81
419.39	10122.82
419.58	9790.46
419.77	9734.29
419.96	10394.32
420.15	10794.55
420.34	11030.94
420.53	11279.04
420.72	11475.65
420.91	11147.97
421.10	11204.14
421.29	11267.34
421.48	11019.24
421.67	11414.79
421.86	10630.71
422.05	10111.11
422.24	9022.77
422.43	9764.72
422.61	10712.63
422.80	11225.21
422.99	10806.25
423.18	10267.93
423.37	10326.44
423.56	10197.71
423.75	10736.04
423.94	11063.71
424.13	10555.82
424.32	10326.44
424.50	10441.13
424.69	10354.53
424.88	10464.54
425.07	10310.06
425.26	10408.36
425.45	10202.40
425.64	10097.07
425.83	10270.27
426.01	10808.59
426.20	10764.12
426.39	10780.51
426.58	9724.93
426.77	9160.86
426.96	9041.49
427.15	9469.81
427.33	10263.25
427.52	10394.32
427.71	10586.24
427.90	10354.53
428.09	10190.69
428.28	9893.44
428.46	9631.30
428.65	9605.56
428.84	10052.60
429.03	10059.62
429.22	9575.13
429.40	8856.59
429.59	7918.03
429.78	7258.00
429.97	7499.08
430.16	7155.02
430.34	7300.13
430.53	7431.20
430.72	7803.35
430.91	8809.78
431.10	10303.04
431.28	11915.67
431.47	12741.88
431.66	12500.80
431.85	10963.07
432.03	10293.68
432.22	10370.91
432.41	10801.57
432.60	11609.06
432.79	12210.57
432.97	12266.75
433.16	11859.49
433.35	10766.46
433.54	9762.37
433.72	9448.74
433.91	10052.60
434.10	10916.26
434.28	11606.72
434.47	12226.96
434.66	11793.96
434.85	11744.81
435.03	11854.81
435.22	11576.29
435.41	12414.20
435.59	12835.50
435.78	12772.30
435.97	12905.71
436.16	13378.50
436.34	12912.74
436.53	12737.20
436.72	12989.97
436.90	12095.89
437.09	12091.21
437.28	12091.21
437.46	12493.78
437.65	12262.07
437.84	11094.14
438.02	10457.51
438.21	10743.06
438.40	10885.83
438.58	12100.57
438.77	12449.31
438.96	12709.11
439.14	13116.36
439.33	13390.20
439.52	13317.65
439.70	12959.55
439.89	12472.71
440.08	12329.94
440.26	12835.50
440.45	13228.71
440.63	13996.40
440.82	14670.48
441.01	14054.92
441.19	14106.41
441.38	14675.16
441.57	14869.42
441.75	14927.94
441.94	15314.13
442.12	15197.10
442.31	15169.01
442.50	15499.03
442.68	14860.06
442.87	14963.04
443.05	14728.99
443.24	14890.49
443.43	15435.83
443.61	15499.03
443.80	15772.87
443.98	15007.52
444.17	14906.87
444.35	15740.10
444.54	15967.13
444.73	15634.78
444.91	14925.60
445.10	14377.91
445.28	13921.51
445.47	13514.25
445.65	13703.84
445.84	14356.85
446.02	14831.97
446.21	15358.60
446.39	15049.64
446.58	15316.47
446.77	15475.62
446.95	15754.15
447.14	16142.67
447.32	16112.25
447.51	15761.17
447.69	14916.23
447.88	15089.43
448.06	15648.82
448.25	15721.38
448.43	15807.98
448.62	15496.69
448.80	15681.59
448.99	15005.17
449.17	15688.61
449.36	15681.59
449.54	16381.41
449.73	16755.90
449.91	16514.82
450.10	17385.50
450.28	17518.91
450.46	17390.18
450.65	17397.20
450.83	17282.52
451.02	17104.64
451.20	16802.71
451.39	17050.80
451.57	16755.90
451.76	16510.14
451.94	16423.54
452.13	16350.98
452.31	15199.44
452.49	14441.11
452.68	14906.87
452.86	14853.04
453.05	15283.70
453.23	15737.76
453.42	16163.74
453.60	15929.69
453.78	16545.25
453.97	16119.27
454.15	16142.67
454.34	15609.03
454.52	16023.31
454.70	15950.75
454.89	15812.66
455.07	15964.79
455.26	16437.58
455.44	16964.20
455.62	16982.93
455.81	17444.01
455.99	17256.77
456.17	17022.72
456.36	17209.96
456.54	17788.07
456.73	17029.74
456.91	17476.78
457.09	17919.14
457.28	18331.08
457.46	17296.56
457.64	16893.99
457.83	16570.99
458.01	16465.67
458.19	17301.24
458.38	17170.17
458.56	17685.09
458.74	17348.05
458.93	17046.12
459.11	16947.82
459.29	16919.73
459.48	17020.38
459.66	16739.51
459.84	17439.33
460.03	17575.08
460.21	18036.17
460.39	18520.66
460.57	18085.32
460.76	17998.72
460.94	18302.99
461.12	17687.43
461.31	17832.54
461.49	18354.48
461.67	17837.22
461.85	18532.36
462.04	18494.91
462.22	18515.98
462.40	18408.31
462.59	18396.61
462.77	18410.65
462.95	18408.31
463.13	18185.96
463.32	17687.43
463.50	17832.54
463.68	18129.79
463.86	18302.99
464.05	17472.10
464.23	17355.07
464.41	17247.41
464.59	17125.70
464.78	18160.22
464.96	18022.12
465.14	17797.43
465.32	18237.45
465.50	18766.42
465.69	18984.09
465.87	18611.94
466.05	17722.54
466.23	16812.07
466.41	16643.55
466.60	17745.94
466.78	17469.76
466.96	17401.88
467.14	17687.43
467.32	17649.98
467.51	17888.71
467.69	16919.73
467.87	17434.65
468.05	17977.65
468.23	17884.03
468.41	17987.02
468.60	18127.45
468.78	17848.93
468.96	17614.87
469.14	18260.86
469.32	18118.09
469.50	17282.52
469.69	17106.98
469.87	16875.26
470.05	17429.97
470.23	17380.82
470.41	17458.06
470.59	17413.59
470.77	17916.80
470.95	18054.89
471.14	18272.56
471.32	18302.99
471.50	19278.99
471.68	19641.78
471.86	19599.65
472.04	19440.49
472.22	19356.23
472.40	18403.63
472.58	18174.26
472.77	18223.41
472.95	18604.92
473.13	19222.82
473.31	18967.70
473.49	18911.53
473.67	18874.08
473.85	19194.73
474.03	20156.69
474.21	20163.72
474.39	20500.75
474.57	20091.16
474.75	20723.10
474.93	20079.46
475.12	19431.13
475.30	19637.09
475.48	19281.33
475.66	19386.66
475.84	19381.98
476.02	19236.86
476.20	18867.06
476.38	19833.70
476.56	20205.84
476.74	20570.97
476.92	20161.37
477.10	20751.19
477.28	21617.19
477.46	21303.56
477.64	21497.82
477.82	21912.10
478.00	22326.37
478.18	21369.09
478.36	21198.23
478.54	21546.97
478.72	22038.48
478.90	22668.09
479.08	23016.83
479.26	22918.53
479.44	22803.84
479.62	22544.04
479.80	22834.27
479.98	22974.70
480.16	23318.76
480.34	22670.43
480.52	23309.40
480.70	23796.23
480.88	23250.88
481.06	23805.59
481.24	23634.73
481.41	24137.94
481.59	25017.99
481.77	24620.10
481.95	24397.74
482.13	24753.51
482.31	25104.59
482.49	25411.20
482.67	25240.34
482.85	25053.09
483.03	25614.82
483.21	26459.76
483.39	25364.39
483.57	24517.11
483.74	24442.21
483.92	25153.74
484.10	25074.16
484.28	25635.89
484.46	25886.32
484.64	25979.95
484.82	25153.74
485.00	24945.43
485.18	24524.13
485.35	23171.30
485.53	21116.31
485.71	19473.26
485.89	20163.72
486.07	20837.79
486.25	22719.58
486.43	24329.87
486.61	24383.70
486.78	24800.32
486.96	25598.44
487.14	26118.04
487.32	25872.28
487.50	27248.52
487.68	27271.92
487.85	28158.99
488.03	28746.46
488.21	28201.11
488.39	27234.47
488.57	26111.02
488.75	26410.60
488.92	28533.47
489.10	29666.29
489.28	30050.14
489.46	31290.62
489.64	30707.83
489.81	31318.71
489.99	30576.76
490.17	31232.11
490.35	30806.13
490.53	30167.16
490.70	29872.26
490.88	30050.14
491.06	30829.54
491.24	30969.97
491.41	29109.24
491.59	28622.41
491.77	27597.26
491.95	28982.85
492.13	30623.57
492.30	31372.54
492.48	32411.74
492.66	32662.18
492.84	32004.49
493.01	31906.18
493.19	31454.46
493.37	31571.49
493.54	31541.06
493.72	32987.51
493.90	32938.36
494.08	33167.73
494.25	34625.89
494.43	34176.50
494.61	34501.84
494.79	34511.20
494.96	34345.02
495.14	33432.21
495.32	32622.39
495.49	32769.84
495.67	33729.46
495.85	35531.67
496.02	35442.73
496.20	35229.74
496.38	34642.27
496.55	35007.39
496.73	35154.85
496.91	35386.56
497.09	36287.67
497.26	35777.43
497.44	35316.34
497.62	34504.18
497.79	33834.78
497.97	32762.82
498.14	33333.91
498.32	35491.88
498.50	35501.25
498.67	35625.29
498.85	35950.63
499.03	35859.35
499.20	36514.70
499.38	36708.96
499.56	36165.96
499.73	35405.28
499.91	34153.10
500.08	33853.51
500.26	32994.53
500.44	34029.05
500.61	34843.56
500.79	34487.79
500.97	33537.54
501.14	33872.23
501.32	33280.08
501.49	34029.05
501.67	34375.45
501.84	34539.29
502.02	35384.22
502.20	35281.24
502.37	35765.73
502.55	35751.68
502.72	36123.83
502.90	36903.23
503.07	35632.32
503.25	34873.98
503.43	33963.51
503.60	33610.09
503.78	33692.01
503.95	34370.77
504.13	35929.56
504.30	37017.91
504.48	35765.73
504.65	36177.66
504.83	35852.33
505.01	36388.31
505.18	36442.14
505.36	36996.85
505.53	37694.33
505.71	37982.21
505.88	39082.27
506.06	38075.84
506.23	37368.99
506.41	37062.38
506.58	37598.37
506.76	36943.02
506.93	36795.56
507.11	35887.43
507.28	36575.55
507.46	36182.34
507.63	35587.85
507.81	34740.57
507.98	34871.64
508.16	36734.71
508.33	37825.40
508.50	37677.94
508.68	37699.01
508.85	39449.73
509.03	38504.15
509.20	37830.08
509.38	36233.83
509.55	36561.51
509.73	37280.05
509.90	37130.26
510.08	36678.54
510.25	36914.93
510.42	36458.52
510.60	37251.97
510.77	38239.67
510.95	39192.27
511.12	38490.11
511.30	39545.69
511.47	38464.36
511.64	38998.01
511.82	38139.03
511.99	36989.83
512.17	36982.80
512.34	37102.17
512.51	37034.30
512.69	36013.82
512.86	36140.21
513.04	37598.37
513.21	37701.35
513.38	36587.25
513.56	35140.80
513.73	34747.59
513.90	35204.00
514.08	35452.09
514.25	36329.80
514.43	36385.97
514.60	36533.42
514.77	36016.16
514.95	37832.42
515.12	36907.91
515.29	36715.98
515.47	37179.41
515.64	37771.57
515.81	37783.27
515.99	36610.66
516.16	34099.26
516.33	31417.01
516.51	31037.84
516.68	29317.55
516.85	29123.29
517.03	30848.26
517.20	33769.25
517.37	36503.00
517.54	36598.96
517.72	34866.96
517.89	32481.95
518.06	30843.58
518.24	32439.82
518.41	33656.90
518.58	35672.10
518.75	36479.59
518.93	35564.44
519.10	35882.75
519.27	35805.52
519.45	36662.15
519.62	37432.19
519.79	37560.92
519.96	37263.67
520.14	36840.03
520.31	35276.55
520.48	35569.12
520.65	36467.89
520.83	38014.98
521.00	38036.05
521.17	36861.10
521.34	37605.39
521.52	37954.13
521.69	37514.11
521.86	38281.80
522.03	38094.56
522.20	36318.09
522.38	35414.65
522.55	36503.00
522.72	36032.55
522.89	35849.99
523.07	36350.86
523.24	36861.10
523.41	38040.73
523.58	37919.02
523.75	38239.67
523.92	39007.37
524.10	39241.42
524.27	38983.96
524.44	38979.28
524.61	38010.30
524.78	37406.44
524.96	37518.79
525.13	37350.27
525.30	38174.14
525.47	38770.97
525.64	38543.94
525.81	36947.70
525.98	34983.99
526.16	34380.13
526.33	32629.41
526.50	31597.23
526.67	31812.56
526.84	33331.57
527.01	35108.04
527.18	35903.82
527.36	37219.20
527.53	37027.28
527.70	37329.20
527.87	36100.42
528.04	37134.94
528.21	37148.98
528.38	38731.18
528.55	39885.07
528.72	40154.23
528.89	39896.77
529.07	38930.13
529.24	37415.80
529.41	36734.71
529.58	37586.66
529.75	37399.42
529.92	38164.78
530.09	39033.11
530.26	38731.18
530.43	39789.11
530.60	39365.47
530.77	39105.67
530.94	39180.57
531.11	37944.76
531.28	37387.72
531.46	37518.79
531.63	37319.84
531.80	36947.70
531.97	35754.02
532.14	35239.11
532.31	33766.91
532.48	35428.69
532.65	34590.78
532.82	35665.08
532.99	37453.25
533.16	38246.69
533.33	38017.32
533.50	36208.09
533.67	36488.95
533.84	36947.70
534.01	36608.32
534.18	36732.37
534.35	37886.25
534.52	36243.20
534.69	37706.03
534.86	38014.98
535.03	37177.07
535.20	38394.15
535.37	39608.89
535.54	39145.46
535.71	38880.98
535.88	38548.62
536.05	37139.62
536.22	37001.53
536.38	36622.36
536.55	34660.99
536.72	34827.17
536.89	34885.68
537.06	36034.89
537.23	38068.81
537.40	37581.98
537.57	37904.98
537.74	37656.88
537.91	37837.10
538.08	36514.70
538.25	36629.38
538.42	37223.88
538.59	37170.05
538.75	35763.39
538.92	36039.57
539.09	36669.17
539.26	35931.90
539.43	35620.61
539.60	35508.27
539.77	37102.17
539.94	35569.12
540.11	34263.10
540.28	33785.63
540.44	33865.21
540.61	35519.97
540.78	36346.18
540.95	36938.33
541.12	36720.66
541.29	36175.32
541.46	36545.12
541.62	36568.53
541.79	37474.32
541.96	36620.02
542.13	35597.21
542.30	35342.09
542.47	35339.75
542.63	35445.07
542.80	35299.96
542.97	36531.08
543.14	34988.67
543.31	35917.86
543.48	36002.12
543.64	36634.06
543.81	36924.29
543.98	37266.01
544.15	36704.28
544.32	35023.78
544.48	36435.12
544.65	36928.97
544.82	37296.44
544.99	36126.17
545.16	35562.10
545.32	35835.94
545.49	37174.73
545.66	35943.61
545.83	35667.42
546.00	35178.25
546.16	35903.82
546.33	36055.95
546.50	35129.10
546.67	36872.80
546.83	36006.80
547.00	35061.22
547.17	34794.40
547.34	33977.56
547.50	34991.01
547.67	35295.28
547.84	35372.52
548.00	36006.80
548.17	35948.29
548.34	35468.48
548.51	35480.18
548.67	36378.95
548.84	36313.41
549.01	36847.05
549.18	36392.99
549.34	35798.49
549.51	35466.14
549.68	36191.70
549.84	35709.55
550.01	35168.89
550.18	35852.33
550.34	35058.88
550.51	35288.26
550.68	34857.60
550.84	35267.19
551.01	34998.03
551.18	35550.40
551.34	35651.04
551.51	35105.70
551.68	35702.53
551.84	36825.99
552.01	36149.57
552.18	35332.73
552.34	34993.35
552.51	35171.23
552.68	35189.95
552.84	35697.85
553.01	35627.63
553.18	34501.84
553.34	34843.56
553.51	35686.15
553.67	35548.06
553.84	34628.23
554.01	35232.08
554.17	35225.06
554.34	36121.49
554.51	34480.77
554.67	34459.71
554.84	35592.53
555.00	34848.24
555.17	34927.81
555.33	34576.73
555.50	35323.36
555.67	34190.55
555.83	33682.65
556.00	32774.52
556.16	33469.66
556.33	32992.19
556.50	34129.69
556.66	34223.31
556.83	34345.02
556.99	33703.71
557.16	33516.47
557.32	34209.27
557.49	34806.11
557.65	34691.42
557.82	34595.46
557.98	34267.78
558.15	33935.43
558.32	33385.40
558.48	32123.85
558.65	31988.10
558.81	30911.46
558.98	31665.11
559.14	32961.76
559.31	33872.23
559.47	32570.90
559.64	31452.12
559.80	30466.75
559.97	32343.86
560.13	33074.11
560.30	33647.54
560.46	34471.41
560.63	34892.71
560.79	35386.56
560.96	33371.36
561.12	32224.50
561.29	32013.85
561.45	31297.64
561.61	31580.85
561.78	32163.64
561.94	33041.34
562.11	32645.79
562.27	33420.51
562.44	33308.16
562.60	33972.88
562.77	34230.33
562.93	33240.29
563.10	32503.02
563.26	32130.87
563.42	32556.85
563.59	32184.71
563.75	31672.13
563.92	32467.91
564.08	32643.45
564.24	31894.48
564.41	32027.89
564.57	32996.87
564.74	31976.40
564.90	31725.96
565.07	31562.12
565.23	30609.53
565.39	30602.50
565.56	30890.39
565.72	30497.18
565.88	29905.02
566.05	30976.99
566.21	31847.67
566.38	30693.79
566.54	31620.64
566.70	32095.77
566.87	32540.47
567.03	31632.34
567.19	31337.43
567.36	32119.17
567.52	31391.26
567.68	31964.70
567.85	30911.46
568.01	29420.53
568.17	30246.74
568.34	31449.78
568.50	31058.91
568.66	31536.38
568.83	31154.87
568.99	31260.20
569.15	31047.21
569.32	31807.88
569.48	30962.95
569.64	29991.62
569.81	30859.96
569.97	30515.90
570.13	30333.34
570.30	30113.33
570.46	29872.26
570.62	29125.63
570.78	29032.00
570.95	29839.49
571.11	30452.71
571.27	30368.45
571.43	31005.08
571.60	30338.02
571.76	30377.81
571.92	31051.89
572.09	30426.96
572.25	30998.06
572.41	32217.47
572.57	32320.46
572.74	31964.70
572.90	31248.49
573.06	30773.36
573.22	29895.66
573.38	29511.81
573.55	30242.06
573.71	29216.91
573.87	29731.83
574.03	30010.35
574.20	30494.84
574.36	30532.29
574.52	30955.93
574.68	29371.38
574.84	29034.35
575.01	28460.91
575.17	29069.45
575.33	29502.45
575.49	29027.32
575.65	29411.17
575.82	29359.68
575.98	29153.71
576.14	29235.63
576.30	28959.45
576.46	29104.56
576.62	29612.46
576.79	29926.09
576.95	29261.38
577.11	28236.22
577.27	29144.35
577.43	29457.98
577.59	28786.25
577.75	28980.51
577.92	28074.73
578.08	27868.76
578.24	27969.40
578.40	27653.43
578.56	28020.89
578.72	28966.47
578.88	28762.84
579.04	29188.82
579.21	28519.43
579.37	28816.68
579.53	30078.22
579.69	30431.65
579.85	28945.41
580.01	28666.88
580.17	28320.48
580.33	29043.71
580.49	28980.51
580.65	27803.22
580.82	28091.11
580.98	28430.49
581.14	29167.76
581.30	28563.90
581.46	28479.64
581.62	28325.16
581.78	28491.34
581.94	28879.87
582.10	29223.93
582.26	29060.09
582.42	29050.73
582.58	28929.02
582.74	28760.50
582.90	29151.37
583.06	29235.63
583.22	29170.10
583.38	29364.36
583.54	28594.32
583.70	29237.97
583.86	28898.59
584.02	28678.58
584.18	29001.58
584.34	29256.70
584.50	28353.25
584.66	28112.17
584.82	27854.72
584.98	28109.83
585.14	27592.58
585.30	27234.47
585.46	27424.06
585.62	26817.86
585.78	27365.54
585.94	27810.25
586.10	26609.55
586.26	27026.17
586.42	27658.11
