SpectraSuite Data File
++++++++++++++++++++++++++++++++++++
Date: Mon Oct 07 14:54:59 GMT-05:00 2013
User: price-jones
Dark Spectrum Present: No
Reference Spectrum Present: No
Number of Sampled Component Spectra: 1
Spectrometers: USB2+H05261
Integration Time (usec): 10000 (USB2+H05261)
Spectra Averaged: 1 (USB2+H05261)
Boxcar Smoothing: 0 (USB2+H05261)
Correct for Electrical Dark: No (USB2+H05261)
Strobe/Lamp Enabled: No (USB2+H05261)
Correct for Detector Non-linearity: No (USB2+H05261)
Correct for Stray Light: No (USB2+H05261)
Number of Pixels in Processed Spectrum: 2048
>>>>>Begin Processed Spectral Data<<<<<
365.73	0.00
365.92	0.00
366.12	0.00
366.32	0.00
366.52	0.00
366.72	0.00
366.91	0.00
367.11	0.00
367.31	0.00
367.51	0.00
367.70	0.00
367.90	0.00
368.10	0.00
368.30	0.00
368.49	0.00
368.69	0.00
368.89	0.00
369.09	0.00
369.28	0.00
369.48	0.00
369.68	0.00
369.87	0.00
370.07	0.00
370.27	0.00
370.47	0.00
370.66	807.48
370.86	929.19
371.06	1086.01
371.25	950.26
371.45	917.49
371.65	795.78
371.84	793.44
372.04	917.49
372.24	1015.79
372.44	1022.81
372.63	1071.97
372.83	823.87
373.03	727.91
373.22	669.39
373.42	898.77
373.62	910.47
373.81	1088.35
374.01	964.30
374.21	840.25
374.40	802.80
374.60	823.87
374.79	990.05
374.99	1174.95
375.19	1231.12
375.38	1306.02
375.58	1196.01
375.78	1090.69
375.97	1160.91
376.17	1214.74
376.37	1252.19
376.56	1277.93
376.76	1355.17
376.95	1378.58
377.15	1547.09
377.35	1600.93
377.54	1739.02
377.74	1722.63
377.93	1722.63
378.13	1589.22
378.33	1481.56
378.52	1392.62
378.72	1420.71
378.91	1310.70
379.11	1254.53
379.31	1273.25
379.50	1277.93
379.70	1411.34
379.89	1561.14
380.09	1678.16
380.28	1710.93
380.48	1643.06
380.68	1547.09
380.87	1713.27
381.07	1451.13
381.26	1310.70
381.46	1196.01
381.65	1167.93
381.85	1153.88
382.04	1043.88
382.24	1039.20
382.43	1001.75
382.63	929.19
382.83	919.83
383.02	891.74
383.22	938.55
383.41	912.81
383.61	1057.92
383.80	1151.54
384.00	1423.05
384.19	1631.35
384.39	1657.10
384.58	1570.50
384.78	1586.88
384.97	1523.69
385.17	1451.13
385.36	1401.98
385.56	1341.13
385.75	1483.90
385.95	1647.74
386.14	1708.59
386.34	1568.16
386.53	1488.58
386.72	1483.90
386.92	1547.09
387.11	1673.48
387.31	1626.67
387.50	1624.33
387.70	1549.43
387.89	1526.03
388.09	1554.12
388.28	1631.35
388.48	1706.25
388.67	1785.83
388.86	1982.43
389.06	2136.91
389.25	2165.00
389.45	2249.25
389.64	2228.19
389.84	2193.08
390.03	2216.49
390.22	2115.84
390.42	2207.13
390.61	2410.75
390.81	2569.91
391.00	2541.82
391.19	2487.99
391.39	2485.65
391.58	2326.49
391.78	2179.04
391.97	2090.10
392.16	1940.30
392.36	1710.93
392.55	1203.04
392.75	1011.11
392.94	903.45
393.13	1015.79
393.33	1050.90
393.52	1474.54
393.71	1741.36
393.91	1912.22
394.10	2385.01
394.29	2396.71
394.49	2614.38
394.68	2696.30
394.88	2738.43
395.07	2684.59
395.26	2675.23
395.46	2605.02
395.65	2326.49
395.84	2122.87
396.04	1680.50
396.23	1369.21
396.42	1170.27
396.62	1240.48
396.81	1406.66
397.00	1956.69
397.19	2441.18
397.39	2736.09
397.58	3089.51
397.77	3171.43
397.97	3164.40
398.16	3407.82
398.35	3576.34
398.55	3730.81
398.74	3915.72
398.93	3868.91
399.12	3824.44
399.32	3688.68
399.51	3847.84
399.70	4131.05
399.90	4014.02
400.09	4093.60
400.28	4007.00
400.47	4032.74
400.67	4173.18
400.86	4322.97
401.05	4231.69
401.24	4358.08
401.44	4297.22
401.63	4360.42
401.82	4334.67
402.01	4484.47
402.21	4346.37
402.40	4383.82
402.59	4313.61
402.78	3962.53
402.97	4018.70
403.17	4142.75
403.36	4311.27
403.55	4407.23
403.74	4636.60
403.93	4514.89
404.13	4053.81
404.32	3946.14
404.51	4273.82
404.70	4533.62
404.89	4428.29
405.09	4367.44
405.28	4297.22
405.47	4304.25
405.66	4367.44
405.85	4201.26
406.05	4159.13
406.24	4315.95
406.43	4315.95
406.62	4435.32
406.81	4468.08
407.00	4217.65
407.20	4313.61
407.39	4245.73
407.58	4496.17
407.77	4650.64
407.96	4828.53
408.15	4655.33
408.34	4950.23
408.54	4994.70
408.73	5018.11
408.92	4929.17
409.11	4688.09
409.30	4587.45
409.49	4299.56
409.68	3908.69
409.87	4002.32
410.07	4271.48
410.26	4713.84
410.45	4695.11
410.64	4863.63
410.83	5231.10
411.02	5334.08
411.21	5359.83
411.40	5245.14
411.59	5259.18
411.78	5210.03
411.98	5294.29
412.17	5289.61
412.36	5053.22
412.55	5053.22
412.74	5048.54
412.93	4950.23
413.12	5181.95
413.31	5518.98
413.50	5502.60
413.69	5341.10
413.88	5373.87
414.07	5188.97
414.26	5565.79
414.45	5488.56
414.64	5425.36
414.83	5570.48
415.02	5474.51
415.22	5533.03
415.41	5703.89
415.60	5729.63
415.79	6087.73
415.98	6134.54
416.17	5998.79
416.36	5870.06
416.55	5746.02
416.74	5558.77
416.93	5598.56
417.12	5448.77
417.31	5720.27
417.50	5673.46
417.69	5654.73
417.88	5799.85
418.07	5846.66
418.26	5776.44
418.45	6008.16
418.64	5963.68
418.83	6202.42
419.02	6099.44
419.21	5928.58
419.39	5659.42
419.58	5198.33
419.77	5448.77
419.96	5771.76
420.15	6104.12
420.34	6054.97
420.53	6251.57
420.72	6319.45
420.91	6380.30
421.10	6436.47
421.29	6403.71
421.48	6338.17
421.67	6612.01
421.86	5959.00
422.05	5500.26
422.24	5139.82
422.43	5226.42
422.61	5839.64
422.80	6118.16
422.99	6010.50
423.18	5853.68
423.37	5872.40
423.56	5907.51
423.75	5776.44
423.94	5973.05
424.13	5467.49
424.32	5776.44
424.50	5738.99
424.69	5841.98
424.88	5741.33
425.07	5617.29
425.26	5451.11
425.45	5591.54
425.64	5369.19
425.83	5509.62
426.01	5947.30
426.20	5881.77
426.39	5928.58
426.58	5331.74
426.77	4887.04
426.96	4975.98
427.15	5104.71
427.33	5486.22
427.52	5556.43
427.71	5713.25
427.90	5586.86
428.09	5495.58
428.28	5240.46
428.46	5174.92
428.65	5404.30
428.84	5270.89
429.03	5273.23
429.22	4830.87
429.40	4737.24
429.59	4299.56
429.78	3857.20
429.97	3831.46
430.16	3798.69
430.34	3913.38
430.53	3995.29
430.72	3988.27
430.91	4688.09
431.10	5757.72
431.28	6284.34
431.47	6691.59
431.66	6553.50
431.85	5879.43
432.03	5369.19
432.22	5425.36
432.41	5907.51
432.60	6363.92
432.79	6417.75
432.97	6345.19
433.16	6448.18
433.35	5741.33
433.54	5163.22
433.72	5008.75
433.91	5193.65
434.10	5888.79
434.28	6239.87
434.47	6483.28
434.66	6176.67
434.85	6380.30
435.03	6314.77
435.22	6354.55
435.41	6841.39
435.59	6773.51
435.78	6672.87
435.97	7016.93
436.16	6932.67
436.34	6740.74
436.53	6731.38
436.72	6841.39
436.90	6193.06
437.09	6305.40
437.28	6445.84
437.46	6640.10
437.65	6256.25
437.84	6017.52
438.02	5483.88
438.21	5509.62
438.40	5841.98
438.58	6076.03
438.77	6459.88
438.96	6548.82
439.14	6918.62
439.33	6829.68
439.52	6890.54
439.70	6707.98
439.89	6593.29
440.08	6640.10
440.26	6696.27
440.45	6747.76
440.63	7087.14
440.82	7452.27
441.01	7314.17
441.19	7499.08
441.38	7520.14
441.57	7634.83
441.75	7698.02
441.94	7911.01
442.12	7852.50
442.31	8004.63
442.50	7866.54
442.68	7660.57
442.87	7822.07
443.05	7590.36
443.24	7786.96
443.43	7948.46
443.61	7854.84
443.80	8116.98
443.98	7494.40
444.17	7702.70
444.35	7981.23
444.54	8023.36
444.73	8124.00
444.91	7655.89
445.10	7365.67
445.28	6923.30
445.47	7042.67
445.65	7030.97
445.84	7403.11
446.02	7679.30
446.21	7620.78
446.39	7592.70
446.58	7698.02
446.77	7616.10
446.95	7770.58
447.14	8257.41
447.32	8416.57
447.51	7845.48
447.69	7468.65
447.88	7674.62
448.06	7723.77
448.25	7978.89
448.43	8028.04
448.62	7908.67
448.80	7658.23
448.99	7934.42
449.17	7854.84
449.36	7915.69
449.54	8262.09
449.73	8411.89
449.91	8224.64
450.10	8456.36
450.28	8659.98
450.46	8575.72
450.65	8580.40
450.83	8287.84
451.02	8255.07
451.20	8308.90
451.39	8407.20
451.57	8362.73
451.76	8105.28
451.94	8194.22
452.13	7784.62
452.31	7679.30
452.49	7325.88
452.68	7286.09
452.86	7330.56
453.05	7435.88
453.23	7801.01
453.42	8114.64
453.60	8175.49
453.78	8039.74
453.97	7983.57
454.15	7997.61
454.34	7772.92
454.52	7824.41
454.70	7588.02
454.89	7941.44
455.07	8088.89
455.26	8205.92
455.44	8446.99
455.62	8568.70
455.81	8428.27
455.99	8201.24
456.17	8177.83
456.36	8397.84
456.54	8421.25
456.73	8348.69
456.91	8559.34
457.09	8411.89
457.28	8587.43
457.46	8131.02
457.64	8191.88
457.83	7985.91
458.01	7843.14
458.19	8088.89
458.38	8177.83
458.56	8266.77
458.74	8173.15
458.93	8058.46
459.11	8299.54
459.29	8255.07
459.48	8194.22
459.66	8112.30
459.84	7978.89
460.03	8294.86
460.21	8383.80
460.39	8795.73
460.57	8507.85
460.76	8601.47
460.94	8779.35
461.12	8341.67
461.31	8521.89
461.49	8468.06
461.67	8355.71
461.85	8648.28
462.04	8449.33
462.22	8596.79
462.40	8545.30
462.59	8425.93
462.77	8652.96
462.95	8549.98
463.13	8475.08
463.32	8320.60
463.50	8105.28
463.68	8016.33
463.86	8187.19
464.05	8285.50
464.23	8093.57
464.41	8051.44
464.59	8028.04
464.78	8051.44
464.96	8336.99
465.14	8081.87
465.32	8241.03
465.50	8472.74
465.69	8519.55
465.87	8449.33
466.05	8241.03
466.23	7873.56
466.41	7618.44
466.60	8013.99
466.78	7929.74
466.96	8112.30
467.14	8004.63
467.32	8056.12
467.51	8229.32
467.69	7740.15
467.87	7786.96
468.05	8191.88
468.23	8156.77
468.41	8063.15
468.60	7913.35
468.78	8161.45
468.96	8088.89
469.14	8353.37
469.32	8217.62
469.50	7859.52
469.69	7644.19
469.87	7674.62
470.05	7749.51
470.23	7602.06
470.41	7655.89
470.59	7880.58
470.77	7857.18
470.95	8035.06
471.14	8215.28
471.32	8315.92
471.50	8636.58
471.68	8585.08
471.86	8692.75
472.04	8762.97
472.22	8865.95
472.40	8243.37
472.58	8145.06
472.77	8088.89
472.95	8245.71
473.13	8468.06
473.31	8439.97
473.49	8402.52
473.67	8531.25
473.85	8594.45
474.03	9085.96
474.21	8615.51
474.39	9039.15
474.57	8919.78
474.75	8915.10
474.93	8667.00
475.12	8606.15
475.30	8468.06
475.48	8526.57
475.66	8503.17
475.84	8540.61
476.02	8425.93
476.20	8503.17
476.38	8528.91
476.56	8641.26
476.74	8952.55
476.92	8875.31
477.10	9273.20
477.28	9305.97
477.46	9228.73
477.64	9525.98
477.82	9460.45
478.00	9507.26
478.18	9163.20
478.36	9137.45
478.54	9280.22
478.72	9174.90
478.90	9462.79
479.08	9657.05
479.26	10073.67
479.44	9949.62
479.62	9823.23
479.80	9605.56
479.98	9668.75
480.16	9666.41
480.34	9893.44
480.52	9954.30
480.70	9771.74
480.88	9769.40
481.06	10244.52
481.24	10200.05
481.41	10293.68
481.59	10281.97
481.77	10167.29
481.95	10473.90
482.13	10600.29
482.31	10150.90
482.49	10595.61
482.67	10651.78
482.85	10644.76
483.03	10590.92
483.21	10855.40
483.39	10581.56
483.57	10532.41
483.74	10377.94
483.92	10588.58
484.10	10485.60
484.28	10731.36
484.46	10944.34
484.64	11019.24
484.82	10399.00
485.00	10083.03
485.18	10061.96
485.35	9937.91
485.53	8833.18
485.71	8348.69
485.89	8430.61
486.07	8669.34
486.25	9610.24
486.43	10066.64
486.61	10427.09
486.78	10160.27
486.96	10281.97
487.14	10455.17
487.32	10759.44
487.50	11119.89
487.68	11321.17
487.85	11379.68
488.03	11461.60
488.21	11272.02
488.39	11044.99
488.57	10942.00
488.75	10700.93
488.92	11646.51
489.10	12231.64
489.28	12528.89
489.46	12505.48
489.64	12571.02
489.81	12582.72
489.99	12414.20
490.17	12159.08
490.35	12809.75
490.53	12388.46
490.70	12283.13
490.88	12072.48
491.06	12793.37
491.24	12599.10
491.41	11960.14
491.59	11279.04
491.77	11162.01
491.95	11580.97
492.13	11749.49
492.30	12599.10
492.48	13114.02
492.66	12999.34
492.84	12947.84
493.01	12741.88
493.19	12690.38
493.37	12524.21
493.54	12320.58
493.72	12816.77
493.90	13298.92
494.08	13474.46
494.25	13563.40
494.43	13839.59
494.61	13998.74
494.79	13795.12
494.96	13729.58
495.14	13217.01
495.32	12945.50
495.49	13153.81
495.67	13355.10
495.85	14148.54
496.02	13827.88
496.20	13926.19
496.38	13577.45
496.55	13284.88
496.73	13830.23
496.91	13895.76
497.09	14295.99
497.26	14068.96
497.44	13921.51
497.62	13392.55
497.79	13109.34
497.97	12915.08
498.14	13254.45
498.32	13600.85
498.50	13738.94
498.67	14052.58
498.85	14090.02
499.03	13968.32
499.20	14115.77
499.38	14054.92
499.56	14338.12
499.73	13722.56
499.91	13635.96
500.08	13156.15
500.26	13020.40
500.44	12961.89
500.61	13600.85
500.79	13369.14
500.97	13219.35
501.14	13319.99
501.32	13128.06
501.49	13432.33
501.67	13350.42
501.84	13565.74
502.02	13734.26
502.20	13385.52
502.37	13729.58
502.55	13626.60
502.72	13767.03
502.90	14171.94
503.07	13902.78
503.25	13472.12
503.43	13329.35
503.60	12732.51
503.78	12746.56
503.95	12744.22
504.13	13334.03
504.30	13664.05
504.48	13813.84
504.65	13600.85
504.83	13481.49
505.01	13879.38
505.18	14214.07
505.36	14649.41
505.53	14972.41
505.71	14541.75
505.88	14668.14
506.06	14462.17
506.23	13834.91
506.41	13640.64
506.58	13729.58
506.76	13851.29
506.93	13973.00
507.11	13771.71
507.28	13675.75
507.46	13469.78
507.63	12947.84
507.81	13343.39
507.98	13514.25
508.16	13802.14
508.33	13706.18
508.50	14267.91
508.68	14031.51
508.85	14565.15
509.03	14637.71
509.20	14195.35
509.38	13855.97
509.55	13422.97
509.73	13312.97
509.90	13689.79
510.08	13673.41
510.25	13619.58
510.42	13341.05
510.60	13760.01
510.77	13706.18
510.95	14204.71
511.12	14181.31
511.30	13956.61
511.47	14450.47
511.64	14560.47
511.82	13813.84
511.99	13736.60
512.17	13441.70
512.34	13432.33
512.51	13596.17
512.69	13596.17
512.86	13406.59
513.04	13603.19
513.21	13731.92
513.38	13509.57
513.56	13224.03
513.73	12830.82
513.90	13163.17
514.08	13195.94
514.25	13252.11
514.43	13312.97
514.60	13638.30
514.77	13420.63
514.95	13624.26
515.12	13294.24
515.29	13102.32
515.47	13645.32
515.64	13916.83
515.81	13909.80
515.99	13479.15
516.16	12737.20
516.33	11742.47
516.51	11066.05
516.68	10714.97
516.85	10462.19
517.03	10827.32
517.20	11793.96
517.37	13067.21
517.54	13245.09
517.72	12526.55
517.89	11410.11
518.06	11101.16
518.24	11309.47
518.41	12006.95
518.58	12507.82
518.75	12788.69
518.93	13053.17
519.10	12681.02
519.27	12982.95
519.45	13139.77
519.62	13013.38
519.79	13486.17
519.96	13195.94
520.14	13036.78
520.31	12517.18
520.48	12713.79
520.65	12926.78
520.83	13266.16
521.00	13549.36
521.17	13209.98
521.34	13095.30
521.52	13338.71
521.69	13729.58
521.86	13577.45
522.03	13132.75
522.20	13153.81
522.38	12423.56
522.55	12489.10
522.72	12606.13
522.89	12318.24
523.07	12957.21
523.24	13486.17
523.41	13540.00
523.58	13589.15
523.75	13460.42
523.92	13944.91
524.10	13727.24
524.27	13612.56
524.44	13350.42
524.61	13238.07
524.78	13256.79
524.96	12938.48
525.13	13380.84
525.30	13238.07
525.47	13570.43
525.64	13167.85
525.81	12940.82
525.98	12044.40
526.16	11379.68
526.33	11187.76
526.50	11396.07
526.67	11187.76
526.84	11522.46
527.01	12259.73
527.18	12163.76
527.36	12901.03
527.53	13057.85
527.70	12945.50
527.87	12776.98
528.04	12425.90
528.21	12971.25
528.38	13315.31
528.55	13764.69
528.72	13720.22
528.89	13647.66
529.07	13434.68
529.24	13434.68
529.41	12666.98
529.58	12652.94
529.75	12744.22
529.92	13004.02
530.09	12968.91
530.26	13334.03
530.43	13071.89
530.60	13418.29
530.77	13474.46
530.94	13128.06
531.11	13067.21
531.28	12851.88
531.46	12662.30
531.63	12849.54
531.80	12676.34
531.97	12931.46
532.14	12271.43
532.31	11758.85
532.48	11761.19
532.65	11630.12
532.82	12095.89
532.99	12807.41
533.16	12786.35
533.33	13057.85
533.50	12821.45
533.67	12444.63
533.84	12166.10
534.01	12297.17
534.18	12517.18
534.35	12507.82
534.52	12292.49
534.69	12624.85
534.86	12582.72
535.03	12971.25
535.20	12973.59
535.37	12901.03
535.54	13212.32
535.71	13018.06
535.88	13088.28
536.05	12517.18
536.22	12730.17
536.38	12376.75
536.55	12147.38
536.72	12189.51
536.89	11903.96
537.06	12140.36
537.23	12093.55
537.40	12355.69
537.57	12695.07
537.74	12201.21
537.91	12208.23
538.08	12425.90
538.25	12606.13
538.42	12475.06
538.59	12477.40
538.75	12067.80
538.92	11798.64
539.09	11529.48
539.26	11410.11
539.43	11323.51
539.60	11384.37
539.77	11316.49
539.94	11501.39
540.11	11154.99
540.28	11101.16
540.44	11176.06
540.61	11372.66
540.78	11229.89
540.95	11864.18
541.12	11831.41
541.29	11812.68
541.46	11740.13
541.62	11875.88
541.79	11756.51
541.96	11421.81
542.13	11646.51
542.30	11548.20
542.47	11683.95
542.63	11545.86
542.80	11356.28
542.97	11721.40
543.14	11445.22
543.31	11257.98
543.48	11641.82
543.64	12121.63
543.81	11894.60
543.98	12114.61
544.15	11805.66
544.32	11309.47
544.48	11634.80
544.65	11698.00
544.82	11447.56
544.99	11440.54
545.16	11398.41
545.32	11169.04
545.49	11740.13
545.66	11618.42
545.83	11913.33
546.00	11485.01
546.16	11445.22
546.33	11529.48
546.50	11506.07
546.67	11758.85
546.83	11503.73
547.00	11714.38
547.17	11229.89
547.34	11154.99
547.50	11000.52
547.67	11253.30
547.84	11037.97
548.00	11466.28
548.17	11356.28
548.34	11211.17
548.51	11442.88
548.67	11648.85
548.84	11838.43
549.01	11456.92
549.18	11468.62
549.34	11389.05
549.51	11543.52
549.68	11379.68
549.84	11384.37
550.01	11332.87
550.18	11026.26
550.34	10913.92
550.51	10754.76
550.68	10937.32
550.84	10932.64
551.01	10897.53
551.18	11084.78
551.34	10946.69
551.51	11138.61
551.68	11358.62
551.84	11365.64
552.01	11096.48
552.18	10869.45
552.34	10796.89
552.51	10766.46
552.68	10780.51
552.84	10490.28
553.01	10707.95
553.18	10981.79
553.34	11009.88
553.51	10944.34
553.67	10719.65
553.84	10860.09
554.01	11044.99
554.17	10977.11
554.34	11150.31
554.51	11054.35
554.67	11215.85
554.84	10942.00
555.00	11328.19
555.17	11208.83
555.33	11049.67
555.50	11136.27
555.67	10860.09
555.83	10787.53
556.00	10469.22
556.16	10633.05
556.33	10403.68
556.50	10267.93
556.66	10253.89
556.83	10274.95
556.99	10539.43
557.16	10289.00
557.32	10471.56
557.49	10850.72
557.65	10300.70
557.82	10480.92
557.98	10373.25
558.15	10366.23
558.32	9994.09
558.48	9701.52
558.65	9694.50
558.81	9783.44
558.98	9848.97
559.14	10092.39
559.31	10178.99
559.47	9963.66
559.64	9832.59
559.80	9783.44
559.97	9966.00
560.13	9933.23
560.30	10525.39
560.46	10902.22
560.63	11019.24
560.79	10516.03
560.96	10387.30
561.12	10146.22
561.29	9741.31
561.45	9624.28
561.61	9706.20
561.78	9984.73
561.94	9818.55
562.11	9933.23
562.27	10010.47
562.44	10291.34
562.60	10331.12
562.77	10150.90
562.93	10141.54
563.10	10214.10
563.26	9886.42
563.42	9813.87
563.59	9757.69
563.75	10040.90
563.92	9954.30
564.08	9750.67
564.24	9806.84
564.41	9834.93
564.57	10033.88
564.74	9851.31
564.90	9797.48
565.07	9586.83
565.23	9437.04
565.39	9465.13
565.56	9380.87
565.72	9118.73
565.88	9493.21
566.05	9687.48
566.21	9322.35
566.38	9149.15
566.54	9366.82
566.70	9820.89
566.87	9446.40
567.03	9809.19
567.19	9554.07
567.36	9453.42
567.52	9472.15
567.68	9570.45
567.85	9165.54
568.01	8908.08
568.17	8919.78
568.34	8994.68
568.50	9011.06
568.66	8943.19
568.83	8861.27
568.99	9259.16
569.15	9125.75
569.32	8997.02
569.48	9050.85
569.64	9041.49
569.81	9029.79
569.97	9062.55
570.13	8812.12
570.30	8777.01
570.46	8606.15
570.62	8367.42
570.78	8259.75
570.95	8430.61
571.11	8702.11
571.27	9001.70
571.43	8755.94
571.60	8863.61
571.76	8933.82
571.92	8903.40
572.09	8917.44
572.25	8950.21
572.41	8943.19
572.57	9060.21
572.74	8905.74
572.90	8903.40
573.06	8882.33
573.22	9048.51
573.38	9174.90
573.55	8994.68
573.71	9043.83
573.87	8964.25
574.03	8891.70
574.20	8823.82
574.36	8889.35
574.52	8557.00
574.68	8699.77
574.84	8411.89
575.01	8472.74
575.17	7927.39
575.33	8170.81
575.49	8374.44
575.65	8236.35
575.82	8451.67
575.98	8287.84
576.14	8383.80
576.30	8297.20
576.46	8124.00
576.62	8182.51
576.79	8709.13
576.95	8390.82
577.11	8641.26
577.27	8379.12
577.43	8472.74
577.59	8355.71
577.75	8252.73
577.92	8133.36
578.08	7932.08
578.24	7889.95
578.40	8119.32
578.56	8063.15
578.72	7896.97
578.88	8098.25
579.04	7985.91
579.21	8430.61
579.37	8131.02
579.53	8116.98
579.69	7990.59
579.85	7950.80
580.01	7969.52
580.17	8037.40
580.33	8154.43
580.49	8386.14
580.65	8114.64
580.82	8149.75
580.98	8021.02
581.14	7985.91
581.30	8308.90
581.46	8236.35
581.62	8290.18
581.78	8315.92
581.94	8449.33
582.10	8037.40
582.26	8208.26
582.42	8173.15
582.58	8418.91
582.74	8390.82
582.90	8311.24
583.06	8519.55
583.22	8332.31
583.38	8131.02
583.54	8086.55
583.70	7962.50
583.86	8294.86
584.02	8058.46
584.18	8327.63
584.34	8397.84
584.50	8418.91
584.66	8245.71
584.82	8021.02
584.98	7925.05
585.14	7861.86
585.30	7588.02
585.46	7613.76
585.62	7700.36
585.78	7705.04
585.94	7606.74
586.10	7667.60
586.26	7896.97
586.42	7990.59
586.58	7808.03
586.74	7634.83
586.90	7782.28
587.06	7578.65
587.22	7534.18
587.38	7433.54
587.54	7438.22
587.70	7454.61
587.86	7527.16
588.02	7431.20
588.18	7403.11
588.34	6984.16
588.49	6738.40
588.65	6267.95
588.81	6375.62
588.97	6544.14
589.13	6335.83
589.29	6380.30
589.45	6473.92
589.61	6787.55
589.77	7026.29
589.93	6963.09
590.08	7213.53
590.24	7295.45
590.40	7302.47
590.56	7255.66
590.72	7056.72
590.88	7112.89
591.04	7164.38
591.20	6993.52
591.35	7035.65
591.51	6930.33
591.67	7293.11
591.83	6906.92
591.99	6977.14
