SpectraSuite Data File
++++++++++++++++++++++++++++++++++++
Date: Mon Oct 07 14:54:54 GMT-05:00 2013
User: price-jones
Dark Spectrum Present: No
Reference Spectrum Present: No
Number of Sampled Component Spectra: 1
Spectrometers: USB2+H05261
Integration Time (usec): 10000 (USB2+H05261)
Spectra Averaged: 1 (USB2+H05261)
Boxcar Smoothing: 0 (USB2+H05261)
Correct for Electrical Dark: No (USB2+H05261)
Strobe/Lamp Enabled: No (USB2+H05261)
Correct for Detector Non-linearity: No (USB2+H05261)
Correct for Stray Light: No (USB2+H05261)
Number of Pixels in Processed Spectrum: 2048
>>>>>Begin Processed Spectral Data<<<<<
365.73	0.00
365.92	0.00
366.12	0.00
366.32	0.00
366.52	0.00
366.72	0.00
366.91	0.00
367.11	0.00
367.31	0.00
367.51	0.00
367.70	0.00
367.90	0.00
368.10	0.00
368.30	0.00
368.49	0.00
368.69	0.00
368.89	0.00
369.09	0.00
369.28	0.00
369.48	0.00
369.68	0.00
369.87	0.00
370.07	0.00
370.27	0.00
370.47	0.00
370.66	0.00
370.86	25.75
371.06	51.49
371.25	0.00
371.45	0.00
371.65	0.00
371.84	0.00
372.04	0.00
372.24	0.00
372.44	0.00
372.63	0.00
372.83	67.88
373.03	18.72
373.22	0.00
373.42	0.00
373.62	72.56
373.81	72.56
374.01	25.75
374.21	74.90
374.40	0.00
374.60	16.38
374.79	7.02
374.99	84.26
375.19	126.39
375.38	149.79
375.58	42.13
375.78	67.88
375.97	131.07
376.17	95.96
376.37	98.30
376.56	91.28
376.76	105.32
376.95	187.24
377.15	114.69
377.35	133.41
377.54	182.56
377.74	208.31
377.93	182.56
378.13	201.29
378.33	91.28
378.52	147.45
378.72	100.64
378.91	177.88
379.11	161.50
379.31	16.38
379.50	88.94
379.70	67.88
379.89	217.67
380.09	175.54
380.28	203.63
380.48	194.26
380.68	238.73
380.87	159.16
381.07	168.52
381.26	44.47
381.46	135.75
381.65	0.00
381.85	0.00
382.04	7.02
382.24	2.34
382.43	28.09
382.63	58.51
382.83	49.15
383.02	70.22
383.22	0.00
383.41	0.00
383.61	0.00
383.80	112.35
384.00	114.69
384.19	145.11
384.39	159.16
384.58	201.29
384.78	159.16
384.97	173.20
385.17	145.11
385.36	86.60
385.56	88.94
385.75	114.69
385.95	79.58
386.14	205.97
386.34	224.69
386.53	170.86
386.72	128.73
386.92	140.43
387.11	243.42
387.31	318.31
387.50	161.50
387.70	231.71
387.89	131.07
388.09	170.86
388.28	182.56
388.48	205.97
388.67	180.22
388.86	264.48
389.06	311.29
389.25	290.23
389.45	355.76
389.64	325.33
389.84	355.76
390.03	294.91
390.22	266.82
390.42	388.53
390.61	386.19
390.81	414.27
391.00	360.44
391.19	388.53
391.39	353.42
391.58	341.72
391.78	313.63
391.97	337.04
392.16	231.71
392.36	238.73
392.55	60.85
392.75	70.22
392.94	23.41
393.13	0.00
393.33	11.70
393.52	180.22
393.71	191.92
393.91	201.29
394.10	285.55
394.29	252.78
394.49	388.53
394.68	587.47
394.88	388.53
395.07	493.85
395.26	390.87
395.46	496.19
395.65	353.42
395.84	299.59
396.04	210.65
396.23	86.60
396.42	77.24
396.62	107.66
396.81	84.26
397.00	201.29
397.19	400.23
397.39	472.79
397.58	519.60
397.77	561.73
397.97	543.00
398.16	498.53
398.35	751.31
398.55	573.43
398.74	620.24
398.93	723.23
399.12	781.74
399.32	645.99
399.51	718.54
399.70	784.08
399.90	734.93
400.09	718.54
400.28	763.01
400.47	849.61
400.67	795.78
400.86	805.14
401.05	863.66
401.24	781.74
401.44	856.64
401.63	830.89
401.82	833.23
402.01	786.42
402.21	851.96
402.40	774.72
402.59	830.89
402.78	732.59
402.97	711.52
403.17	840.25
403.36	812.17
403.55	903.45
403.74	919.83
403.93	901.11
404.13	807.48
404.32	777.06
404.51	788.76
404.70	866.00
404.89	802.80
405.09	938.55
405.28	805.14
405.47	889.40
405.66	854.30
405.85	858.98
406.05	868.34
406.24	751.31
406.43	826.21
406.62	844.93
406.81	837.91
407.00	858.98
407.20	884.72
407.39	802.80
407.58	791.10
407.77	873.02
407.96	1032.18
408.15	978.34
408.34	1067.28
408.54	1053.24
408.73	1114.10
408.92	987.71
409.11	919.83
409.30	896.43
409.49	849.61
409.68	699.82
409.87	683.44
410.07	772.38
410.26	868.34
410.45	926.85
410.64	980.68
410.83	931.53
411.02	1076.65
411.21	1090.69
411.40	1181.97
411.59	1097.71
411.78	1093.03
411.98	1055.58
412.17	1020.47
412.36	1088.35
412.55	1006.43
412.74	1090.69
412.93	957.28
413.12	1050.90
413.31	1022.81
413.50	1198.35
413.69	1158.57
413.88	1118.78
414.07	1043.88
414.26	1097.71
414.45	1139.84
414.64	1144.52
414.83	1123.46
415.02	1048.56
415.22	1114.10
415.41	1174.95
415.60	1186.65
415.79	1233.46
415.98	1228.78
416.17	1231.12
416.36	1135.16
416.55	1179.63
416.74	1128.14
416.93	1107.07
417.12	1235.80
417.31	1137.50
417.50	1144.52
417.69	1186.65
417.88	1226.44
418.07	1118.78
418.26	1254.53
418.45	1177.29
418.64	1200.69
418.83	1268.57
419.02	1203.04
419.21	1249.85
419.39	1095.37
419.58	1100.05
419.77	1100.05
419.96	1142.18
420.15	1174.95
420.34	1287.29
420.53	1263.89
420.72	1371.55
420.91	1242.82
421.10	1259.21
421.29	1376.24
421.48	1207.72
421.67	1320.06
421.86	1268.57
422.05	1123.46
422.24	1025.15
422.43	1027.50
422.61	1132.82
422.80	1313.04
422.99	1289.64
423.18	1219.42
423.37	1177.29
423.56	1158.57
423.75	1170.27
423.94	1254.53
424.13	1249.85
424.32	1219.42
424.50	1275.59
424.69	1144.52
424.88	1228.78
425.07	1198.35
425.26	1081.33
425.45	1198.35
425.64	1228.78
425.83	1107.07
426.01	1200.69
426.20	1188.99
426.39	1217.08
426.58	1146.86
426.77	980.68
426.96	987.71
427.15	919.83
427.33	950.26
427.52	1090.69
427.71	1273.25
427.90	1071.97
428.09	1015.79
428.28	1107.07
428.46	992.39
428.65	1036.86
428.84	1095.37
429.03	1132.82
429.22	1086.01
429.40	1004.09
429.59	884.72
429.78	723.23
429.97	746.63
430.16	732.59
430.34	753.65
430.53	741.95
430.72	812.17
430.91	835.57
431.10	985.37
431.28	1322.40
431.47	1554.12
431.66	1392.62
431.85	1256.87
432.03	1184.31
432.22	1121.12
432.41	1207.72
432.60	1198.35
432.79	1383.26
432.97	1413.68
433.16	1359.85
433.35	1200.69
433.54	1146.86
433.72	950.26
433.91	1062.60
434.10	1172.61
434.28	1324.74
434.47	1369.21
434.66	1420.71
434.85	1313.04
435.03	1306.02
435.22	1317.72
435.41	1453.47
435.59	1371.55
435.78	1394.96
435.97	1481.56
436.16	1439.43
436.34	1472.20
436.53	1441.77
436.72	1409.00
436.90	1322.40
437.09	1387.94
437.28	1242.82
437.46	1315.38
437.65	1430.07
437.84	1242.82
438.02	1240.48
438.21	1111.75
438.40	1193.67
438.58	1303.68
438.77	1430.07
438.96	1500.28
439.14	1509.65
439.33	1526.03
439.52	1460.49
439.70	1488.58
439.89	1348.15
440.08	1371.55
440.26	1373.89
440.45	1425.39
440.63	1504.96
440.82	1610.29
441.01	1591.56
441.19	1605.61
441.38	1500.28
441.57	1715.61
441.75	1750.72
441.94	1692.21
442.12	1657.10
442.31	1710.93
442.50	1717.95
442.68	1724.97
442.87	1764.76
443.05	1685.19
443.24	1624.33
443.43	1823.28
443.61	1755.40
443.80	1750.72
443.98	1699.23
444.17	1631.35
444.35	1750.72
444.54	1769.44
444.73	1813.92
444.91	1703.91
445.10	1614.97
445.28	1540.07
445.47	1530.71
445.65	1617.31
445.84	1624.33
446.02	1621.99
446.21	1614.97
446.39	1685.19
446.58	1563.48
446.77	1626.67
446.95	1736.68
447.14	1825.62
447.32	1762.42
447.51	1771.79
447.69	1799.87
447.88	1652.42
448.06	1666.46
448.25	1813.92
448.43	1720.29
448.62	1547.09
448.80	1720.29
448.99	1830.30
449.17	1724.97
449.36	1682.85
449.54	1834.98
449.73	1820.94
449.91	1928.60
450.10	1879.45
450.28	1949.67
450.46	1919.24
450.65	1942.64
450.83	1923.92
451.02	1811.57
451.20	1860.73
451.39	1844.34
451.57	1884.13
451.76	1895.83
451.94	1898.17
452.13	1790.51
452.31	1685.19
452.49	1614.97
452.68	1682.85
452.86	1521.35
453.05	1540.07
453.23	1755.40
453.42	1708.59
453.60	1818.60
453.78	1689.87
453.97	1937.96
454.15	1727.32
454.34	1671.14
454.52	1652.42
454.70	1727.32
454.89	1727.32
455.07	1722.63
455.26	1774.13
455.44	1799.87
455.62	1942.64
455.81	2003.50
455.99	1860.73
456.17	1970.73
456.36	1905.20
456.54	1902.86
456.73	1937.96
456.91	2083.08
457.09	2038.61
457.28	2022.22
457.46	1886.47
457.64	1825.62
457.83	1937.96
458.01	1762.42
458.19	1781.15
458.38	1797.53
458.56	1912.22
458.74	1956.69
458.93	1886.47
459.11	1783.49
459.29	1783.49
459.48	1767.10
459.66	1806.89
459.84	1846.68
460.03	1914.56
460.21	1877.11
460.39	1912.22
460.57	1970.73
460.76	1970.73
460.94	1935.62
461.12	1867.75
461.31	1998.82
461.49	1919.24
461.67	1820.94
461.85	1984.77
462.04	1973.07
462.22	1944.99
462.40	2012.86
462.59	1977.75
462.77	2003.50
462.95	2033.93
463.13	1977.75
463.32	1989.46
463.50	1907.54
463.68	1865.41
463.86	1804.55
464.05	1923.92
464.23	1757.74
464.41	1928.60
464.59	1825.62
464.78	1870.09
464.96	1905.20
465.14	1832.64
465.32	1935.62
465.50	1905.20
465.69	1984.77
465.87	1977.75
466.05	1914.56
466.23	1898.17
466.41	1757.74
466.60	1877.11
466.78	1839.66
466.96	1706.25
467.14	1811.57
467.32	1891.15
467.51	1937.96
467.69	1783.49
467.87	1816.26
468.05	1989.46
468.23	1790.51
468.41	1895.83
468.60	1886.47
468.78	2059.67
468.96	1947.33
469.14	1919.24
469.32	1937.96
469.50	1898.17
469.69	1846.68
469.87	1795.19
470.05	1898.17
470.23	1804.55
470.41	1891.15
470.59	1778.81
470.77	1851.36
470.95	1846.68
471.14	1982.43
471.32	1820.94
471.50	2108.82
471.68	2094.78
471.86	2092.44
472.04	2150.95
472.22	2092.44
472.40	1947.33
472.58	2064.35
472.77	1867.75
472.95	1982.43
473.13	2092.44
473.31	1900.52
473.49	1748.38
473.67	2010.52
473.85	2062.01
474.03	2057.33
474.21	1998.82
474.39	2197.76
474.57	2064.35
474.75	2181.38
474.93	2136.91
475.12	2066.69
475.30	2083.08
475.48	2050.31
475.66	2090.10
475.84	1959.03
476.02	2162.66
476.20	1944.99
476.38	1991.80
476.56	2132.23
476.74	2162.66
476.92	2172.02
477.10	2270.32
477.28	2265.64
477.46	2265.64
477.64	2277.34
477.82	2354.58
478.00	2249.25
478.18	2305.43
478.36	2246.91
478.54	2143.93
478.72	2216.49
478.90	2312.45
479.08	2389.69
479.26	2436.50
479.44	2368.62
479.62	2389.69
479.80	2354.58
479.98	2504.37
480.16	2469.27
480.34	2382.67
480.52	2403.73
480.70	2331.17
480.88	2422.45
481.06	2429.48
481.24	2431.82
481.41	2548.84
481.59	2630.76
481.77	2548.84
481.95	2511.39
482.13	2464.58
482.31	2588.63
482.49	2588.63
482.67	2490.33
482.85	2649.49
483.03	2696.30
483.21	2583.95
483.39	2649.49
483.57	2572.25
483.74	2616.72
483.92	2459.90
484.10	2633.10
484.28	2567.57
484.46	2853.11
484.64	2752.47
484.82	2640.12
485.00	2623.74
485.18	2504.37
485.35	2487.99
485.53	2239.89
485.71	2036.27
485.89	1949.67
486.07	2179.04
486.25	2422.45
486.43	2471.61
486.61	2427.14
486.78	2581.61
486.96	2677.57
487.14	2590.97
487.32	2773.53
487.50	2832.05
487.68	2960.78
487.85	2944.39
488.03	2979.50
488.21	2928.01
488.39	2974.82
488.57	2794.60
488.75	2906.95
488.92	2899.92
489.10	3063.76
489.28	3297.81
489.46	3150.36
489.64	3173.77
489.81	3332.92
489.99	3157.38
490.17	3098.87
490.35	3222.92
490.53	3176.11
490.70	3173.77
490.88	3192.49
491.06	3124.62
491.24	3218.24
491.41	3094.19
491.59	2897.58
491.77	2829.71
491.95	3073.12
492.13	3089.51
492.30	3234.62
492.48	3218.24
492.66	3492.08
492.84	3400.80
493.01	3529.53
493.19	3365.69
493.37	3246.32
493.54	3138.66
493.72	3363.35
493.90	3377.39
494.08	3421.86
494.25	3529.53
494.43	3630.17
494.61	3662.94
494.79	3576.34
494.96	3686.34
495.14	3545.91
495.32	3494.42
495.49	3396.12
495.67	3442.93
495.85	3508.46
496.02	3705.07
496.20	3597.40
496.38	3644.21
496.55	3709.75
496.73	3620.81
496.91	3669.96
497.09	3747.20
497.26	3901.67
497.44	3695.71
497.62	3543.57
497.79	3452.29
497.97	3311.86
498.14	3393.78
498.32	3482.72
498.50	3709.75
498.67	3817.41
498.85	3627.83
499.03	3791.67
499.20	3875.93
499.38	3782.31
499.56	3681.66
499.73	3742.52
499.91	3695.71
500.08	3492.08
500.26	3421.86
500.44	3578.68
500.61	3590.38
500.79	3602.08
500.97	3564.64
501.14	3550.59
501.32	3492.08
501.49	3545.91
501.67	3466.33
501.84	3751.88
502.02	3489.74
502.20	3599.74
502.37	3786.99
502.55	3754.22
502.72	3772.94
502.90	3861.88
503.07	3796.35
503.25	3826.78
503.43	3620.81
503.60	3478.04
503.78	3485.06
503.95	3478.04
504.13	3712.09
504.30	3758.90
504.48	3854.86
504.65	3698.05
504.83	3637.19
505.01	3735.50
505.18	3782.31
505.36	3707.41
505.53	3899.33
505.71	4051.47
505.88	4084.23
506.06	3880.61
506.23	3693.37
506.41	3707.41
506.58	3801.03
506.76	3721.45
506.93	3819.75
507.11	3709.75
507.28	3861.88
507.46	3765.92
507.63	3742.52
507.81	3581.02
507.98	3648.90
508.16	3634.85
508.33	3817.41
508.50	3850.18
508.68	3904.01
508.85	3918.06
509.03	3896.99
509.20	3995.29
509.38	3836.14
509.55	3796.35
509.73	3761.24
509.90	3723.79
510.08	3805.71
510.25	3808.05
510.42	3904.01
510.60	3852.52
510.77	3915.72
510.95	3929.76
511.12	3997.64
511.30	4016.36
511.47	3892.31
511.64	4007.00
511.82	3943.80
511.99	3885.29
512.17	3801.03
512.34	3602.08
512.51	3669.96
512.69	3829.12
512.86	3672.30
513.04	3819.75
513.21	3908.69
513.38	3789.33
513.56	3688.68
513.73	3513.14
513.90	3674.64
514.08	3669.96
514.25	3733.15
514.43	3716.77
514.60	3686.34
514.77	3843.16
514.95	3915.72
515.12	3852.52
515.29	3763.58
515.47	3981.25
515.64	4056.15
515.81	3768.26
515.99	3726.13
516.16	3712.09
516.33	3288.45
516.51	3131.64
516.68	3042.70
516.85	3089.51
517.03	3049.72
517.20	3276.75
517.37	3613.79
517.54	3770.60
517.72	3674.64
517.89	3480.38
518.06	3176.11
518.24	3159.72
518.41	3400.80
518.58	3609.11
518.75	3686.34
518.93	3639.53
519.10	3510.80
519.27	3684.00
519.45	3749.54
519.62	3925.08
519.79	3990.61
519.96	3838.48
520.14	3850.18
520.31	3632.51
520.48	3524.85
520.65	3817.41
520.83	3847.84
521.00	4046.79
521.17	3705.07
521.34	3801.03
521.52	3936.78
521.69	3946.14
521.86	4100.62
522.03	3824.44
522.20	3737.84
522.38	3639.53
522.55	3501.44
522.72	3655.92
522.89	3763.58
523.07	3709.75
523.24	3632.51
523.41	3913.38
523.58	4102.96
523.75	3843.16
523.92	3850.18
524.10	3906.35
524.27	3936.78
524.44	4009.34
524.61	3911.04
524.78	3911.04
524.96	3838.48
525.13	3880.61
525.30	3939.12
525.47	3918.06
525.64	3985.93
525.81	3878.27
525.98	3632.51
526.16	3375.05
526.33	3426.54
526.50	3344.63
526.67	3325.90
526.84	3297.81
527.01	3552.93
527.18	3599.74
527.36	3665.28
527.53	3737.84
527.70	3920.40
527.87	3794.01
528.04	3627.83
528.21	3805.71
528.38	3920.40
528.55	3943.80
528.72	4035.08
528.89	4121.68
529.07	4030.40
529.24	3908.69
529.41	3918.06
529.58	3719.11
529.75	3756.56
529.92	3810.39
530.09	3906.35
530.26	3976.57
530.43	4035.08
530.60	3887.63
530.77	4051.47
530.94	4004.66
531.11	3948.48
531.28	4007.00
531.46	3845.50
531.63	3880.61
531.80	3953.16
531.97	3779.97
532.14	3632.51
532.31	3548.25
532.48	3431.23
532.65	3421.86
532.82	3541.23
532.99	3765.92
533.16	3803.37
533.33	3831.46
533.50	3873.59
533.67	3569.32
533.84	3679.32
534.01	3669.96
534.18	3824.44
534.35	3758.90
534.52	3742.52
534.69	3665.28
534.86	3850.18
535.03	3882.95
535.20	3918.06
535.37	4046.79
535.54	4067.85
535.71	3957.85
535.88	3913.38
536.05	3864.22
536.22	3705.07
536.38	3726.13
536.55	3693.37
536.72	3571.66
536.89	3569.32
537.06	3702.73
537.23	3770.60
537.40	3768.26
537.57	3735.50
537.74	3779.97
537.91	3770.60
538.08	3742.52
538.25	3782.31
538.42	3866.56
538.59	3808.05
538.75	3674.64
538.92	3658.26
539.09	3648.90
539.26	3527.19
539.43	3529.53
539.60	3531.87
539.77	3534.21
539.94	3672.30
540.11	3389.10
540.28	3485.06
540.44	3361.01
540.61	3555.27
540.78	3522.51
540.95	3557.61
541.12	3524.85
541.29	3707.41
541.46	3768.26
541.62	3702.73
541.79	3501.44
541.96	3461.65
542.13	3590.38
542.30	3613.79
542.47	3749.54
542.63	3527.19
542.80	3625.49
542.97	3735.50
543.14	3576.34
543.31	3585.70
543.48	3735.50
543.64	3768.26
543.81	3707.41
543.98	3707.41
544.15	3534.21
544.32	3688.68
544.48	3595.06
544.65	3763.58
544.82	3700.39
544.99	3721.45
545.16	3721.45
545.32	3595.06
545.49	3655.92
545.66	3613.79
545.83	3662.94
546.00	3702.73
546.16	3606.77
546.33	3744.86
546.50	3576.34
546.67	3655.92
546.83	3578.68
547.00	3681.66
547.17	3370.37
547.34	3414.84
547.50	3403.14
547.67	3396.12
547.84	3506.12
548.00	3536.55
548.17	3517.83
548.34	3576.34
548.51	3522.51
548.67	3602.08
548.84	3669.96
549.01	3590.38
549.18	3583.36
549.34	3623.15
549.51	3515.48
549.68	3508.46
549.84	3597.40
550.01	3534.21
550.18	3463.99
550.34	3508.46
550.51	3562.30
550.68	3473.36
550.84	3431.23
551.01	3447.61
551.18	3449.95
551.34	3543.57
551.51	3384.41
551.68	3515.48
551.84	3714.43
552.01	3569.32
552.18	3592.72
552.34	3283.77
552.51	3421.86
552.68	3243.98
552.84	3323.56
553.01	3473.36
553.18	3426.54
553.34	3588.04
553.51	3482.72
553.67	3510.80
553.84	3520.17
554.01	3597.40
554.17	3522.51
554.34	3513.14
554.51	3456.97
554.67	3545.91
554.84	3363.35
555.00	3447.61
555.17	3344.63
555.33	3403.14
555.50	3478.04
555.67	3335.26
555.83	3251.00
556.00	3417.18
556.16	3361.01
556.33	3260.37
556.50	3335.26
556.66	3286.11
556.83	3049.72
556.99	3295.47
557.16	3248.66
557.32	3243.98
557.49	3314.20
557.65	3309.52
557.82	3473.36
557.98	3227.60
558.15	3220.58
558.32	3234.62
558.48	3075.46
558.65	3185.47
558.81	3094.19
558.98	3232.28
559.14	3129.30
559.31	3133.98
559.47	3124.62
559.64	3208.87
559.80	3122.27
559.97	3131.64
560.13	3251.00
560.30	3253.34
560.46	3269.73
560.63	3370.37
560.79	3225.26
560.96	3356.33
561.12	3192.49
561.29	3084.83
561.45	3112.91
561.61	3148.02
561.78	3204.19
561.94	3192.49
562.11	3197.17
562.27	3136.32
562.44	3122.27
562.60	3260.37
562.77	3236.96
562.93	3328.24
563.10	3251.00
563.26	3115.25
563.42	3185.47
563.59	3138.66
563.75	3143.34
563.92	3098.87
564.08	3091.85
564.24	3066.10
564.41	3239.30
564.57	3159.72
564.74	3061.42
564.90	3084.83
565.07	3110.57
565.23	2946.73
565.39	2967.80
565.56	3080.14
565.72	2906.95
565.88	3042.70
566.05	3035.67
566.21	3035.67
566.38	3038.02
566.54	3047.38
566.70	3009.93
566.87	3145.68
567.03	3192.49
567.19	3108.23
567.36	3152.70
567.52	3075.46
567.68	3061.42
567.85	2979.50
568.01	2841.41
568.17	2883.54
568.34	2796.94
568.50	2843.75
568.66	2822.69
568.83	2888.22
568.99	2977.16
569.15	2965.46
569.32	2960.78
569.48	2937.37
569.64	2993.55
569.81	2675.23
569.97	2874.18
570.13	2878.86
570.30	2839.07
570.46	2864.82
570.62	2665.87
570.78	2637.78
570.95	2789.92
571.11	2953.76
571.27	2853.11
571.43	2750.13
571.60	2881.20
571.76	2857.79
571.92	2942.05
572.09	3028.65
572.25	2967.80
572.41	3101.21
572.57	3056.74
572.74	2963.12
572.90	2956.10
573.06	2993.55
573.22	2855.45
573.38	3026.31
573.55	2939.71
573.71	2937.37
573.87	3007.59
574.03	2848.43
574.20	2930.35
574.36	2850.77
574.52	2911.63
574.68	2878.86
574.84	2722.04
575.01	2583.95
575.17	2736.09
575.33	2691.62
575.49	2857.79
575.65	2773.53
575.82	2820.35
575.98	2778.22
576.14	2717.36
576.30	2768.85
576.46	2796.94
576.62	2731.41
576.79	2878.86
576.95	2752.47
577.11	2729.06
577.27	2780.56
577.43	2785.24
577.59	2843.75
577.75	2729.06
577.92	2548.84
578.08	2574.59
578.24	2541.82
578.40	2670.55
578.56	2663.53
578.72	2696.30
578.88	2656.51
579.04	2649.49
579.21	2602.68
579.37	2679.91
579.53	2726.72
579.69	2869.50
579.85	2754.81
580.01	2705.66
580.17	2705.66
580.33	2665.87
580.49	2698.64
580.65	2715.02
580.82	2747.79
580.98	2787.58
581.14	2675.23
581.30	2670.55
581.46	2635.44
581.62	2705.66
581.78	2733.75
581.94	2696.30
582.10	2689.28
582.26	2761.83
582.42	2764.17
582.58	2689.28
582.74	2778.22
582.90	2651.83
583.06	2768.85
583.22	2810.98
583.38	2796.94
583.54	2661.19
583.70	2696.30
583.86	2621.40
584.02	2736.09
584.18	2675.23
584.34	2595.65
584.50	2614.38
584.66	2548.84
584.82	2726.72
584.98	2492.67
585.14	2555.86
585.30	2555.86
585.46	2534.80
585.62	2457.56
585.78	2588.63
585.94	2612.04
586.10	2495.01
586.26	2555.86
586.42	2614.38
586.58	2525.44
586.74	2590.97
586.90	2654.17
587.06	2649.49
587.22	2698.64
587.38	2644.81
587.54	2546.50
587.70	2473.95
587.86	2588.63
588.02	2457.56
588.18	2506.71
588.34	2387.35
588.49	2253.94
588.65	2099.46
588.81	2054.99
588.97	2094.78
589.13	2150.95
589.29	2211.81
589.45	2062.01
589.61	2204.78
589.77	2277.34
589.93	2389.69
590.08	2448.20
590.24	2495.01
590.40	2492.67
590.56	2422.45
590.72	2443.52
590.88	2389.69
591.04	2387.35
591.20	2417.77
591.35	2324.15
591.51	2420.11
591.67	2349.90
591.83	2359.26
591.99	2354.58
592.15	2347.56
592.31	2471.61
592.46	2347.56
592.62	2438.84
592.78	2377.98
592.94	2487.99
593.10	2314.79
593.26	2352.24
593.41	2424.80
593.57	2457.56
593.73	2282.02
593.89	2387.35
594.05	2232.87
594.20	2310.11
594.36	2253.94
594.52	2298.41
594.68	2157.97
594.84	2200.10
594.99	2401.39
595.15	2242.23
595.31	2303.09
595.47	2253.94
595.62	2349.90
595.78	2392.03
595.94	2272.66
596.10	2275.00
596.25	2452.88
596.41	2338.20
596.57	2165.00
596.73	2225.85
596.88	2282.02
597.04	2312.45
597.20	2289.04
597.36	2293.72
597.51	2300.75
597.67	2232.87
597.83	2172.02
597.99	2298.41
598.14	2246.91
598.30	2267.98
598.46	2260.96
598.61	2242.23
598.77	2202.44
598.93	2244.57
599.09	2321.81
599.24	2258.62
599.40	2209.47
599.56	2282.02
