SpectraSuite Data File
++++++++++++++++++++++++++++++++++++
Date: Mon Oct 07 14:54:54 GMT-05:00 2013
User: price-jones
Dark Spectrum Present: No
Reference Spectrum Present: No
Number of Sampled Component Spectra: 1
Spectrometers: USB2+H05261
Integration Time (usec): 10000 (USB2+H05261)
Spectra Averaged: 1 (USB2+H05261)
Boxcar Smoothing: 0 (USB2+H05261)
Correct for Electrical Dark: No (USB2+H05261)
Strobe/Lamp Enabled: No (USB2+H05261)
Correct for Detector Non-linearity: No (USB2+H05261)
Correct for Stray Light: No (USB2+H05261)
Number of Pixels in Processed Spectrum: 2048
>>>>>Begin Processed Spectral Data<<<<<
365.73	0.00
365.92	0.00
366.12	0.00
366.32	0.00
366.52	0.00
366.72	0.00
366.91	0.00
367.11	0.00
367.31	0.00
367.51	0.00
367.70	0.00
367.90	0.00
368.10	0.00
368.30	0.00
368.49	0.00
368.69	0.00
368.89	0.00
369.09	0.00
369.28	0.00
369.48	0.00
369.68	0.00
369.87	0.00
370.07	0.00
370.27	0.00
370.47	0.00
370.66	0.00
370.86	0.00
371.06	0.00
371.25	16.38
371.45	0.00
371.65	0.00
371.84	0.00
372.04	0.00
372.24	0.00
372.44	0.00
372.63	53.83
372.83	32.77
373.03	0.00
373.22	0.00
373.42	2.34
373.62	14.04
373.81	30.43
374.01	0.00
374.21	0.00
374.40	51.49
374.60	39.79
374.79	0.00
374.99	67.88
375.19	74.90
375.38	126.39
375.58	131.07
375.78	63.19
375.97	0.00
376.17	126.39
376.37	74.90
376.56	95.96
376.76	77.24
376.95	131.07
377.15	46.81
377.35	152.13
377.54	77.24
377.74	182.56
377.93	236.39
378.13	203.63
378.33	149.79
378.52	140.43
378.72	81.92
378.91	35.11
379.11	58.51
379.31	74.90
379.50	145.11
379.70	187.24
379.89	170.86
380.09	212.99
380.28	175.54
380.48	198.95
380.68	177.88
380.87	220.01
381.07	98.30
381.26	152.13
381.46	119.37
381.65	70.22
381.85	124.05
382.04	42.13
382.24	23.41
382.43	35.11
382.63	0.00
382.83	9.36
383.02	93.62
383.22	2.34
383.41	30.43
383.61	35.11
383.80	147.45
384.00	124.05
384.19	220.01
384.39	131.07
384.58	142.77
384.78	140.43
384.97	126.39
385.17	110.01
385.36	156.82
385.56	194.26
385.75	124.05
385.95	184.90
386.14	110.01
386.34	140.43
386.53	149.79
386.72	117.03
386.92	180.22
387.11	205.97
387.31	182.56
387.50	152.13
387.70	191.92
387.89	170.86
388.09	201.29
388.28	156.82
388.48	145.11
388.67	243.42
388.86	217.67
389.06	337.04
389.25	327.68
389.45	238.73
389.64	360.44
389.84	365.12
390.03	285.55
390.22	301.93
390.42	229.37
390.61	290.23
390.81	393.21
391.00	339.38
391.19	330.02
391.39	355.76
391.58	327.68
391.78	297.25
391.97	294.91
392.16	248.10
392.36	234.05
392.55	180.22
392.75	63.19
392.94	0.00
393.13	0.00
393.33	0.00
393.52	114.69
393.71	245.76
393.91	245.76
394.10	297.25
394.29	440.02
394.49	369.80
394.68	355.76
394.88	421.30
395.07	526.62
395.26	479.81
395.46	404.91
395.65	400.23
395.84	334.70
396.04	273.84
396.23	131.07
396.42	18.72
396.62	0.00
396.81	107.66
397.00	238.73
397.19	318.31
397.39	451.72
397.58	472.79
397.77	550.03
397.97	543.00
398.16	624.92
398.35	540.66
398.55	683.44
398.74	720.88
398.93	636.63
399.12	660.03
399.32	568.75
399.51	664.71
399.70	709.18
399.90	702.16
400.09	634.29
400.28	734.93
400.47	746.63
400.67	763.01
400.86	751.31
401.05	812.17
401.24	720.88
401.44	791.10
401.63	809.83
401.82	849.61
402.01	816.85
402.21	723.23
402.40	861.32
402.59	800.46
402.78	746.63
402.97	645.99
403.17	744.29
403.36	784.08
403.55	837.91
403.74	933.87
403.93	807.48
404.13	667.05
404.32	732.59
404.51	718.54
404.70	809.83
404.89	821.53
405.09	847.27
405.28	676.41
405.47	730.25
405.66	690.46
405.85	702.16
406.05	746.63
406.24	737.27
406.43	758.33
406.62	828.55
406.81	791.10
407.00	753.65
407.20	746.63
407.39	755.99
407.58	870.68
407.77	938.55
407.96	863.66
408.15	891.74
408.34	891.74
408.54	933.87
408.73	1029.84
408.92	936.21
409.11	870.68
409.30	863.66
409.49	805.14
409.68	662.37
409.87	660.03
410.07	688.12
410.26	898.77
410.45	858.98
410.64	931.53
410.83	922.17
411.02	978.34
411.21	1022.81
411.40	1008.77
411.59	1022.81
411.78	891.74
411.98	997.07
412.17	1020.47
412.36	1032.18
412.55	1078.99
412.74	1057.92
412.93	961.96
413.12	1029.84
413.31	1109.41
413.50	1041.54
413.69	992.39
413.88	1057.92
414.07	954.94
414.26	1116.44
414.45	1081.33
414.64	1067.28
414.83	1149.20
415.02	1078.99
415.22	1015.79
415.41	1088.35
415.60	1043.88
415.79	1207.72
415.98	1137.50
416.17	1167.93
416.36	1139.84
416.55	1139.84
416.74	1151.54
416.93	983.02
417.12	1015.79
417.31	987.71
417.50	1020.47
417.69	1137.50
417.88	1158.57
418.07	1100.05
418.26	1118.78
418.45	1100.05
418.64	1118.78
418.83	1238.14
419.02	1207.72
419.21	1128.14
419.39	1013.45
419.58	1060.26
419.77	1027.50
419.96	1078.99
420.15	1282.61
420.34	1193.67
420.53	1268.57
420.72	1282.61
420.91	1224.10
421.10	1228.78
421.29	1277.93
421.48	1240.48
421.67	1198.35
421.86	1287.29
422.05	1184.31
422.24	959.62
422.43	954.94
422.61	978.34
422.80	1291.98
422.99	1256.87
423.18	1055.58
423.37	1144.52
423.56	1167.93
423.75	1198.35
423.94	1179.63
424.13	1132.82
424.32	1149.20
424.50	1107.07
424.69	1076.65
424.88	1130.48
425.07	1109.41
425.26	1193.67
425.45	1071.97
425.64	1036.86
425.83	1102.39
426.01	1081.33
426.20	1078.99
426.39	1188.99
426.58	1064.94
426.77	1015.79
426.96	952.60
427.15	922.17
427.33	1181.97
427.52	1144.52
427.71	1151.54
427.90	1102.39
428.09	1111.75
428.28	1114.10
428.46	1004.09
428.65	999.41
428.84	1074.31
429.03	1074.31
429.22	933.87
429.40	1008.77
429.59	833.23
429.78	692.80
429.97	638.97
430.16	615.56
430.34	685.78
430.53	718.54
430.72	748.97
430.91	851.96
431.10	1034.52
431.28	1301.34
431.47	1411.34
431.66	1334.11
431.85	1254.53
432.03	1018.13
432.22	1114.10
432.41	1158.57
432.60	1235.80
432.79	1277.93
432.97	1401.98
433.16	1287.29
433.35	1170.27
433.54	1046.22
433.72	863.66
433.91	978.34
434.10	1177.29
434.28	1259.21
434.47	1299.00
434.66	1256.87
434.85	1341.13
435.03	1322.40
435.22	1430.07
435.41	1315.38
435.59	1458.15
435.78	1348.15
435.97	1404.32
436.16	1317.72
436.34	1434.75
436.53	1486.24
436.72	1462.83
436.90	1345.81
437.09	1249.85
437.28	1259.21
437.46	1261.55
437.65	1355.17
437.84	1186.65
438.02	1013.45
438.21	997.07
438.40	1184.31
438.58	1362.19
438.77	1287.29
438.96	1224.10
439.14	1352.83
439.33	1376.24
439.52	1467.52
439.70	1439.43
439.89	1394.96
440.08	1299.00
440.26	1294.32
440.45	1327.08
440.63	1502.62
440.82	1523.69
441.01	1523.69
441.19	1474.54
441.38	1519.01
441.57	1657.10
441.75	1664.12
441.94	1614.97
442.12	1666.46
442.31	1643.06
442.50	1661.78
442.68	1596.25
442.87	1570.50
443.05	1572.84
443.24	1638.38
443.43	1727.32
443.61	1746.04
443.80	1689.87
443.98	1549.43
444.17	1533.05
444.35	1682.85
444.54	1732.00
444.73	1640.72
444.91	1563.48
445.10	1556.46
445.28	1514.33
445.47	1387.94
445.65	1502.62
445.84	1558.80
446.02	1556.46
446.21	1650.08
446.39	1565.82
446.58	1563.48
446.77	1640.72
446.95	1631.35
447.14	1657.10
447.32	1657.10
447.51	1692.21
447.69	1668.80
447.88	1570.50
448.06	1549.43
448.25	1687.53
448.43	1638.38
448.62	1673.48
448.80	1596.25
448.99	1675.82
449.17	1556.46
449.36	1582.20
449.54	1757.74
449.73	1636.03
449.91	1792.85
450.10	1886.47
450.28	1755.40
450.46	1933.28
450.65	1816.26
450.83	1795.19
451.02	1886.47
451.20	1685.19
451.39	1832.64
451.57	1830.30
451.76	1792.85
451.94	1785.83
452.13	1605.61
452.31	1640.72
452.49	1521.35
452.68	1502.62
452.86	1521.35
453.05	1598.59
453.23	1640.72
453.42	1671.14
453.60	1631.35
453.78	1727.32
453.97	1802.21
454.15	1703.91
454.34	1661.78
454.52	1654.76
454.70	1598.59
454.89	1678.16
455.07	1638.38
455.26	1699.23
455.44	1799.87
455.62	1804.55
455.81	1818.60
455.99	1818.60
456.17	1734.34
456.36	1820.94
456.54	1713.27
456.73	1788.17
456.91	1872.43
457.09	1792.85
457.28	1872.43
457.46	1715.61
457.64	1767.10
457.83	1685.19
458.01	1785.83
458.19	1757.74
458.38	1689.87
458.56	1771.79
458.74	1743.70
458.93	1673.48
459.11	1820.94
459.29	1715.61
459.48	1732.00
459.66	1851.36
459.84	1851.36
460.03	1851.36
460.21	1928.60
460.39	1799.87
460.57	1806.89
460.76	1923.92
460.94	1860.73
461.12	1713.27
461.31	1860.73
461.49	1842.00
461.67	1973.07
461.85	1849.02
462.04	1900.52
462.22	2019.88
462.40	1970.73
462.59	1937.96
462.77	1937.96
462.95	1867.75
463.13	1947.33
463.32	1790.51
463.50	1804.55
463.68	1647.74
463.86	1975.41
464.05	1748.38
464.23	1783.49
464.41	1809.23
464.59	1636.03
464.78	1816.26
464.96	1844.34
465.14	1771.79
465.32	1811.57
465.50	1956.69
465.69	1863.07
465.87	1771.79
466.05	1708.59
466.23	1692.21
466.41	1661.78
466.60	1659.44
466.78	1682.85
466.96	1715.61
467.14	1769.44
467.32	1877.11
467.51	1914.56
467.69	1736.68
467.87	1870.09
468.05	1774.13
468.23	1769.44
468.41	1764.76
468.60	1830.30
468.78	1769.44
468.96	1825.62
469.14	1870.09
469.32	1867.75
469.50	1760.08
469.69	1806.89
469.87	1813.92
470.05	1685.19
470.23	1736.68
470.41	1795.19
470.59	1703.91
470.77	1781.15
470.95	1774.13
471.14	2001.16
471.32	1788.17
471.50	1916.90
471.68	1994.14
471.86	1954.35
472.04	1914.56
472.22	1860.73
472.40	1888.81
472.58	1888.81
472.77	1884.13
472.95	1849.02
473.13	1905.20
473.31	1919.24
473.49	1844.34
473.67	1973.07
473.85	1940.30
474.03	1944.99
474.21	2008.18
474.39	1947.33
474.57	2057.33
474.75	2022.22
474.93	1980.09
475.12	1905.20
475.30	2066.69
475.48	1942.64
475.66	2045.63
475.84	1900.52
476.02	1942.64
476.20	1834.98
476.38	2022.22
476.56	2015.20
476.74	2038.61
476.92	2160.31
477.10	2172.02
477.28	2211.81
477.46	2141.59
477.64	2167.34
477.82	2136.91
478.00	2167.34
478.18	2087.76
478.36	2223.51
478.54	2104.14
478.72	2244.57
478.90	2251.60
479.08	2457.56
479.26	2319.47
479.44	2382.67
479.62	2338.20
479.80	2293.72
479.98	2345.22
480.16	2286.70
480.34	2172.02
480.52	2312.45
480.70	2408.41
480.88	2263.30
481.06	2317.13
481.24	2321.81
481.41	2377.98
481.59	2457.56
481.77	2530.12
481.95	2445.86
482.13	2422.45
482.31	2459.90
482.49	2523.10
482.67	2504.37
482.85	2492.67
483.03	2560.55
483.21	2623.74
483.39	2546.50
483.57	2434.16
483.74	2441.18
483.92	2469.27
484.10	2352.24
484.28	2541.82
484.46	2544.16
484.64	2738.43
484.82	2602.68
485.00	2455.22
485.18	2478.63
485.35	2251.60
485.53	2221.17
485.71	2026.90
485.89	2045.63
486.07	2059.67
486.25	2211.81
486.43	2279.68
486.61	2427.14
486.78	2438.84
486.96	2459.90
487.14	2546.50
487.32	2539.48
487.50	2696.30
487.68	2560.55
487.85	2806.30
488.03	2864.82
488.21	2743.11
488.39	2782.90
488.57	2609.70
488.75	2665.87
488.92	2696.30
489.10	2806.30
489.28	2995.89
489.46	3138.66
489.64	3028.65
489.81	3091.85
489.99	3171.43
490.17	3056.74
490.35	3129.30
490.53	3061.42
490.70	2951.42
490.88	3019.29
491.06	3133.98
491.24	3087.17
491.41	3066.10
491.59	2972.48
491.77	2724.38
491.95	2885.88
492.13	2953.76
492.30	3052.06
492.48	3190.15
492.66	3265.05
492.84	3112.91
493.01	3155.04
493.19	3066.10
493.37	3129.30
493.54	3012.27
493.72	3157.38
493.90	3269.73
494.08	3419.52
494.25	3407.82
494.43	3426.54
494.61	3370.37
494.79	3541.23
494.96	3382.07
495.14	3351.65
495.32	3279.09
495.49	3260.37
495.67	3342.28
495.85	3363.35
496.02	3461.65
496.20	3473.36
496.38	3557.61
496.55	3435.91
496.73	3562.30
496.91	3442.93
497.09	3588.04
497.26	3602.08
497.44	3644.21
497.62	3335.26
497.79	3421.86
497.97	3215.90
498.14	3164.40
498.32	3405.48
498.50	3646.55
498.67	3480.38
498.85	3536.55
499.03	3541.23
499.20	3623.15
499.38	3686.34
499.56	3569.32
499.73	3442.93
499.91	3361.01
500.08	3281.43
500.26	3349.31
500.44	3269.73
500.61	3524.85
500.79	3459.31
500.97	3471.01
501.14	3328.24
501.32	3365.69
501.49	3311.86
501.67	3400.80
501.84	3559.95
502.02	3314.20
502.20	3478.04
502.37	3499.10
502.55	3585.70
502.72	3646.55
502.90	3588.04
503.07	3520.17
503.25	3571.66
503.43	3475.70
503.60	3328.24
503.78	3281.43
503.95	3258.03
504.13	3534.21
504.30	3705.07
504.48	3534.21
504.65	3651.24
504.83	3459.31
505.01	3655.92
505.18	3761.24
505.36	3747.20
505.53	3728.47
505.71	3878.27
505.88	3646.55
506.06	3602.08
506.23	3726.13
506.41	3599.74
506.58	3583.36
506.76	3611.45
506.93	3522.51
507.11	3651.24
507.28	3637.19
507.46	3599.74
507.63	3339.94
507.81	3295.47
507.98	3372.71
508.16	3543.57
508.33	3702.73
508.50	3737.84
508.68	3684.00
508.85	3801.03
509.03	3852.52
509.20	3866.56
509.38	3637.19
509.55	3555.27
509.73	3555.27
509.90	3609.11
510.08	3646.55
510.25	3585.70
510.42	3602.08
510.60	3524.85
510.77	3716.77
510.95	3749.54
511.12	3595.06
511.30	3705.07
511.47	3875.93
511.64	3840.82
511.82	3772.94
511.99	3658.26
512.17	3744.86
512.34	3452.29
512.51	3545.91
512.69	3581.02
512.86	3684.00
513.04	3632.51
513.21	3655.92
513.38	3669.96
513.56	3569.32
513.73	3435.91
513.90	3595.06
514.08	3480.38
514.25	3737.84
514.43	3531.87
514.60	3557.61
514.77	3613.79
514.95	3676.98
515.12	3459.31
515.29	3726.13
515.47	3627.83
515.64	3655.92
515.81	3606.77
515.99	3496.76
516.16	3405.48
516.33	3110.57
516.51	2928.01
516.68	2895.24
516.85	2902.26
517.03	2974.82
517.20	3084.83
517.37	3454.63
517.54	3620.81
517.72	3487.40
517.89	3255.69
518.06	2935.03
518.24	2916.31
518.41	3171.43
518.58	3447.61
518.75	3447.61
518.93	3410.16
519.10	3363.35
519.27	3510.80
519.45	3492.08
519.62	3620.81
519.79	3695.71
519.96	3630.17
520.14	3719.11
520.31	3449.95
520.48	3435.91
520.65	3396.12
520.83	3625.49
521.00	3777.62
521.17	3644.21
521.34	3648.90
521.52	3730.81
521.69	3770.60
521.86	3716.77
522.03	3552.93
522.20	3548.25
522.38	3304.84
522.55	3349.31
522.72	3501.44
522.89	3555.27
523.07	3513.14
523.24	3527.19
523.41	3599.74
523.58	3674.64
523.75	3779.97
523.92	3805.71
524.10	3660.60
524.27	3929.76
524.44	3801.03
524.61	3688.68
524.78	3529.53
524.96	3733.15
525.13	3627.83
525.30	3651.24
525.47	3913.38
525.64	3723.79
525.81	3651.24
525.98	3459.31
526.16	3183.13
526.33	3157.38
526.50	3218.24
526.67	3066.10
526.84	3328.24
527.01	3281.43
527.18	3384.41
527.36	3585.70
527.53	3658.26
527.70	3709.75
527.87	3545.91
528.04	3452.29
528.21	3536.55
528.38	3681.66
528.55	3812.73
528.72	3756.56
528.89	3801.03
529.07	3925.08
529.24	3672.30
529.41	3648.90
529.58	3606.77
529.75	3609.11
529.92	3655.92
530.09	3693.37
530.26	3662.94
530.43	3681.66
530.60	3756.56
530.77	3740.18
530.94	3875.93
531.11	3634.85
531.28	3747.20
531.46	3691.02
531.63	3651.24
531.80	3620.81
531.97	3611.45
532.14	3564.64
532.31	3466.33
532.48	3454.63
532.65	3323.56
532.82	3482.72
532.99	3566.98
533.16	3592.72
533.33	3658.26
533.50	3634.85
533.67	3452.29
533.84	3557.61
534.01	3574.00
534.18	3588.04
534.35	3529.53
534.52	3653.58
534.69	3531.87
534.86	3646.55
535.03	3674.64
535.20	3679.32
535.37	3716.77
535.54	3875.93
535.71	3784.65
535.88	3667.62
536.05	3602.08
536.22	3590.38
536.38	3482.72
536.55	3403.14
536.72	3501.44
536.89	3236.96
537.06	3358.67
537.23	3499.10
537.40	3562.30
537.57	3588.04
537.74	3503.78
537.91	3485.06
538.08	3503.78
538.25	3492.08
538.42	3651.24
538.59	3515.48
538.75	3447.61
538.92	3510.80
539.09	3412.50
539.26	3447.61
539.43	3414.84
539.60	3358.67
539.77	3325.90
539.94	3508.46
540.11	3274.41
540.28	3260.37
540.44	3302.50
540.61	3208.87
540.78	3293.13
540.95	3337.60
541.12	3461.65
541.29	3398.46
541.46	3438.25
541.62	3461.65
541.79	3419.52
541.96	3335.26
542.13	3412.50
542.30	3377.39
542.47	3389.10
542.63	3461.65
542.80	3346.97
542.97	3389.10
543.14	3314.20
543.31	3403.14
543.48	3463.99
543.64	3569.32
543.81	3583.36
543.98	3435.91
544.15	3510.80
544.32	3262.71
544.48	3218.24
544.65	3400.80
544.82	3571.66
544.99	3517.83
545.16	3382.07
545.32	3258.03
545.49	3485.06
545.66	3520.17
545.83	3396.12
546.00	3382.07
546.16	3318.88
546.33	3396.12
546.50	3396.12
546.67	3435.91
546.83	3384.41
547.00	3438.25
547.17	3377.39
547.34	3241.64
547.50	3222.92
547.67	3325.90
547.84	3293.13
548.00	3435.91
548.17	3428.88
548.34	3356.33
548.51	3351.65
548.67	3356.33
548.84	3314.20
549.01	3452.29
549.18	3393.78
549.34	3536.55
549.51	3279.09
549.68	3346.97
549.84	3403.14
550.01	3433.57
550.18	3356.33
550.34	3279.09
550.51	3274.41
550.68	3349.31
550.84	3213.56
551.01	3222.92
551.18	3171.43
551.34	3290.79
551.51	3375.05
551.68	3372.71
551.84	3353.99
552.01	3454.63
552.18	3316.54
552.34	3150.36
552.51	3084.83
552.68	3126.96
552.84	3339.94
553.01	3293.13
553.18	3185.47
553.34	3234.62
553.51	3283.77
553.67	3304.84
553.84	3368.03
554.01	3337.60
554.17	3290.79
554.34	3283.77
554.51	3372.71
554.67	3225.26
554.84	3384.41
555.00	3431.23
555.17	3192.49
555.33	3162.06
555.50	3309.52
555.67	3300.16
555.83	3185.47
556.00	3136.32
556.16	3133.98
556.33	3157.38
556.50	3126.96
556.66	3171.43
556.83	3192.49
556.99	3073.12
557.16	3129.30
557.32	3141.00
557.49	3138.66
557.65	3108.23
557.82	3117.59
557.98	3033.33
558.15	3033.33
558.32	3009.93
558.48	2871.84
558.65	2932.69
558.81	3059.08
558.98	2937.37
559.14	2911.63
559.31	3059.08
559.47	2953.76
559.64	3028.65
559.80	2890.56
559.97	2958.44
560.13	3028.65
560.30	3096.53
560.46	3164.40
560.63	3180.79
560.79	3194.83
560.96	3180.79
561.12	3087.17
561.29	2925.67
561.45	2892.90
561.61	2972.48
561.78	3063.76
561.94	3080.14
562.11	2935.03
562.27	2965.46
562.44	3082.49
562.60	3131.64
562.77	3089.51
562.93	2970.14
563.10	2970.14
563.26	2883.54
563.42	2937.37
563.59	2949.08
563.75	2895.24
563.92	3112.91
564.08	2965.46
564.24	3047.38
564.41	2974.82
564.57	3019.29
564.74	3009.93
564.90	2981.84
565.07	2988.86
565.23	2885.88
565.39	2621.40
565.56	2829.71
565.72	2780.56
565.88	2850.77
566.05	2857.79
566.21	2904.60
566.38	2789.92
566.54	2864.82
566.70	2963.12
566.87	3056.74
567.03	2977.16
567.19	2995.89
567.36	2946.73
567.52	3045.04
567.68	2843.75
567.85	2832.05
568.01	2860.13
568.17	2759.49
568.34	2775.88
568.50	2703.32
568.66	2789.92
568.83	2794.60
568.99	2761.83
569.15	2878.86
569.32	2818.00
569.48	2761.83
569.64	2754.81
569.81	2738.43
569.97	2689.28
570.13	2759.49
570.30	2651.83
570.46	2583.95
570.62	2551.18
570.78	2684.59
570.95	2609.70
571.11	2787.58
571.27	2700.98
571.43	2670.55
571.60	2726.72
571.76	2686.94
571.92	2806.30
572.09	2822.69
572.25	2745.45
572.41	2729.06
572.57	2888.22
572.74	2787.58
572.90	2747.79
573.06	2785.24
573.22	2682.25
573.38	2691.62
573.55	2773.53
573.71	2813.32
573.87	2642.46
574.03	2717.36
574.20	2663.53
574.36	2813.32
574.52	2621.40
574.68	2640.12
574.84	2509.05
575.01	2478.63
575.17	2532.46
575.33	2499.69
575.49	2649.49
575.65	2602.68
575.82	2555.86
575.98	2576.93
576.14	2562.89
576.30	2640.12
576.46	2534.80
576.62	2546.50
576.79	2597.99
576.95	2621.40
577.11	2579.27
577.27	2534.80
577.43	2670.55
577.59	2546.50
577.75	2499.69
577.92	2436.50
578.08	2504.37
578.24	2335.85
578.40	2569.91
578.56	2434.16
578.72	2410.75
578.88	2593.31
579.04	2588.63
579.21	2509.05
579.37	2661.19
579.53	2562.89
579.69	2586.29
579.85	2665.87
580.01	2628.42
580.17	2485.65
580.33	2473.95
580.49	2502.03
580.65	2569.91
580.82	2586.29
580.98	2614.38
581.14	2476.29
581.30	2422.45
581.46	2459.90
581.62	2663.53
581.78	2621.40
581.94	2583.95
582.10	2541.82
582.26	2658.85
582.42	2429.48
582.58	2630.76
582.74	2597.99
582.90	2541.82
583.06	2518.42
583.22	2473.95
583.38	2525.44
583.54	2513.74
583.70	2576.93
583.86	2396.71
584.02	2597.99
584.18	2644.81
584.34	2579.27
584.50	2572.25
584.66	2495.01
584.82	2436.50
584.98	2541.82
585.14	2464.58
585.30	2424.80
585.46	2314.79
585.62	2436.50
585.78	2375.64
585.94	2396.71
586.10	2340.54
586.26	2340.54
586.42	2527.78
586.58	2424.80
586.74	2417.77
586.90	2429.48
587.06	2576.93
587.22	2448.20
587.38	2345.22
587.54	2410.75
587.70	2305.43
587.86	2368.62
588.02	2361.60
588.18	2305.43
588.34	2139.25
588.49	2080.74
588.65	1928.60
588.81	1844.34
588.97	1900.52
589.13	1937.96
589.29	1977.75
589.45	1849.02
589.61	2015.20
589.77	2078.40
589.93	2284.36
590.08	2207.13
590.24	2216.49
590.40	2296.07
590.56	2228.19
590.72	2197.76
590.88	2169.68
591.04	2111.16
591.20	2216.49
591.35	2143.93
591.51	2293.72
591.67	2225.85
591.83	2221.17
591.99	2338.20
592.15	2244.57
592.31	2331.17
592.46	2104.14
592.62	2237.55
592.78	2298.41
592.94	2202.44
593.10	2197.76
593.26	2279.68
593.41	2279.68
593.57	2160.31
593.73	2101.80
593.89	2235.21
594.05	2150.95
594.20	2129.89
594.36	2200.10
594.52	2090.10
594.68	2115.84
594.84	2239.89
594.99	2118.18
595.15	2153.29
595.31	2094.78
595.47	2221.17
595.62	2258.62
595.78	2160.31
595.94	2258.62
596.10	2176.70
596.25	2160.31
596.41	2312.45
596.57	2139.25
596.73	2221.17
596.88	2169.68
597.04	2188.40
597.20	2155.63
597.36	2108.82
597.51	2125.21
597.67	2062.01
597.83	2113.50
597.99	2134.57
598.14	2090.10
598.30	2120.53
598.46	2120.53
598.61	2122.87
598.77	2125.21
598.93	2069.03
599.09	2066.69
599.24	2143.93
599.40	2080.74
599.56	2113.50
599.71	2174.36
