SpectraSuite Data File
++++++++++++++++++++++++++++++++++++
Date: Mon Oct 07 14:54:00 GMT-05:00 2013
User: price-jones
Dark Spectrum Present: No
Reference Spectrum Present: No
Number of Sampled Component Spectra: 1
Spectrometers: USB2+H05261
Integration Time (usec): 100000 (USB2+H05261)
Spectra Averaged: 1 (USB2+H05261)
Boxcar Smoothing: 0 (USB2+H05261)
Correct for Electrical Dark: No (USB2+H05261)
Strobe/Lamp Enabled: No (USB2+H05261)
Correct for Detector Non-linearity: No (USB2+H05261)
Correct for Stray Light: No (USB2+H05261)
Number of Pixels in Processed Spectrum: 2048
>>>>>Begin Processed Spectral Data<<<<<
365.73	0.00
365.92	0.00
366.12	0.00
366.32	0.00
366.52	0.00
366.72	0.00
366.91	0.00
367.11	0.00
367.31	0.00
367.51	0.00
367.70	0.00
367.90	0.00
368.10	0.00
368.30	0.00
368.49	0.00
368.69	0.00
368.89	0.00
369.09	0.00
369.28	0.00
369.48	0.00
369.68	0.00
369.87	0.00
370.07	0.00
370.27	0.00
370.47	725.57
370.66	3412.50
370.86	3983.59
371.06	4353.40
371.25	4568.73
371.45	4168.49
371.65	3574.00
371.84	3400.80
372.04	3508.46
372.24	3969.55
372.44	4191.90
372.63	4109.98
372.83	3845.50
373.03	3368.03
373.22	3162.06
373.42	3281.43
373.62	3775.28
373.81	4161.47
374.01	3857.20
374.21	3679.32
374.40	3419.52
374.60	3653.58
374.79	3894.65
374.99	4657.67
375.19	5015.77
375.38	4980.66
375.58	4655.33
375.78	4489.15
375.97	4631.92
376.17	4908.10
376.37	4823.84
376.56	5043.85
376.76	5240.46
376.95	5636.01
377.15	5914.53
377.35	6141.57
377.54	6319.45
377.74	6518.39
377.93	6595.63
378.13	6567.54
378.33	6190.72
378.52	5771.76
378.72	5486.22
378.91	5467.49
379.11	5322.38
379.31	4968.96
379.50	4985.34
379.70	5357.49
379.89	5940.28
380.09	6342.85
380.28	6696.27
380.48	6548.82
380.68	6321.79
380.87	6127.52
381.07	5837.30
381.26	5273.23
381.46	4919.81
381.65	4968.96
381.85	4737.24
382.04	4306.59
382.24	4252.75
382.43	4004.66
382.63	3845.50
382.83	4021.04
383.02	3960.19
383.22	3894.65
383.41	3796.35
383.61	4109.98
383.80	4961.94
384.00	5390.25
384.19	6115.82
384.39	6441.15
384.58	6373.28
384.78	6188.38
384.97	6150.93
385.17	5951.98
385.36	5617.29
385.56	5315.36
385.75	5530.69
385.95	5982.41
386.14	6630.74
386.34	6675.21
386.53	6265.61
386.72	5902.83
386.92	6045.60
387.11	6415.41
387.31	6696.27
387.50	6595.63
387.70	6216.46
387.89	6183.70
388.09	6370.94
388.28	6237.53
388.48	6345.19
388.67	6693.93
388.86	7463.97
389.06	8023.36
389.25	8582.74
389.45	8423.59
389.64	8470.40
389.84	8395.50
390.03	8470.40
390.22	8304.22
390.42	8610.83
390.61	9097.66
390.81	9530.66
391.00	9792.80
391.19	9902.81
391.39	9556.41
391.58	9048.51
391.78	8404.86
391.97	7969.52
392.16	7719.09
392.36	6810.96
392.55	5633.67
392.75	4395.53
392.94	3637.19
393.13	3571.66
393.33	4327.65
393.52	5313.02
393.71	6733.72
393.91	7407.80
394.10	8095.91
394.29	8926.80
394.49	9549.39
394.68	10328.78
394.88	10389.64
395.07	10920.94
395.26	10693.91
395.46	10256.23
395.65	9769.40
395.84	8526.57
396.04	7377.37
396.23	5841.98
396.42	4727.88
396.62	4622.56
396.81	5427.70
397.00	7087.14
397.19	8734.88
397.39	10457.51
397.58	11702.68
397.77	12582.72
397.97	12910.40
398.16	13081.25
398.35	13540.00
398.55	13720.22
398.74	14317.06
398.93	14712.61
399.12	14438.76
399.32	13996.40
399.51	14099.39
399.70	15393.70
399.90	15059.01
400.09	15124.54
400.28	14995.81
400.47	15227.53
400.67	15873.51
400.86	16362.69
401.05	16299.49
401.24	16184.80
401.44	16774.62
401.63	16458.65
401.82	16666.95
402.01	16650.57
402.21	16713.77
402.40	16992.29
402.59	16465.67
402.78	15733.08
402.97	15506.05
403.17	15719.04
403.36	16514.82
403.55	17544.66
403.74	17862.97
403.93	16875.26
404.13	15758.83
404.32	15178.37
404.51	15901.60
404.70	17114.00
404.89	17177.19
405.09	16910.37
405.28	16170.76
405.47	16397.79
405.66	16421.20
405.85	15910.96
406.05	15630.10
406.24	15957.77
406.43	16542.91
406.62	17235.70
406.81	17160.81
407.00	16493.76
407.20	16245.66
407.39	16383.75
407.58	16814.41
407.77	17654.66
407.96	18317.03
408.15	18246.82
408.34	18534.70
408.54	19482.62
408.73	19456.87
408.92	19269.63
409.11	18611.94
409.30	17797.43
409.49	16683.34
409.68	15515.41
409.87	14988.79
410.07	16248.00
410.26	17296.56
410.45	18405.97
410.64	19026.21
410.83	19405.38
411.02	19782.21
411.21	20535.86
411.40	20367.34
411.59	20706.72
411.78	20126.27
411.98	20060.73
412.17	20381.38
412.36	19948.39
412.55	19971.79
412.74	19489.64
412.93	19222.82
413.12	19344.53
413.31	20947.79
413.50	21280.15
413.69	21563.36
413.88	20900.98
414.07	20332.23
414.26	20552.24
414.45	21156.10
414.64	21348.03
414.83	21422.92
415.02	21083.55
415.22	21076.52
415.41	21731.87
415.60	22448.08
415.79	23103.43
415.98	23346.84
416.17	23620.69
416.36	23040.23
416.55	22625.96
416.74	21792.73
416.93	20795.66
417.12	21095.25
417.31	21474.42
417.50	21799.75
417.69	22590.85
417.88	22274.88
418.07	22497.23
418.26	22015.08
418.45	22043.17
418.64	22567.45
418.83	23803.25
419.02	23510.68
419.21	23257.90
419.39	22040.82
419.58	20800.34
419.77	21172.49
419.96	21996.35
420.15	23288.33
420.34	23873.46
420.53	24809.68
420.72	25177.14
420.91	25116.29
421.10	24687.97
421.29	24517.11
421.48	23491.96
421.67	24861.17
421.86	23946.02
422.05	22548.72
422.24	20166.06
422.43	20100.52
422.61	21963.59
422.80	24112.20
422.99	23971.77
423.18	23054.28
423.37	22801.50
423.56	22600.21
423.75	22857.67
423.94	23438.12
424.13	22225.73
424.32	22223.39
424.50	22239.77
424.69	22134.45
424.88	22574.47
425.07	22361.48
425.26	22104.02
425.45	22082.95
425.64	21568.04
425.83	21640.59
426.01	22824.90
426.20	23431.10
426.39	23131.51
426.58	21392.50
426.77	19875.83
426.96	19255.59
427.15	19683.91
427.33	21453.35
427.52	22244.45
427.71	22473.82
427.90	22394.25
428.09	22031.46
428.28	21579.74
428.46	21006.31
428.65	20435.22
428.84	21142.06
429.03	21226.32
429.22	19903.92
429.40	19262.61
429.59	17465.08
429.78	15356.25
429.97	15499.03
430.16	15569.24
430.34	15597.33
430.53	15913.30
430.72	15775.21
430.91	17657.00
431.10	20823.75
431.28	24451.58
431.47	26506.57
431.66	27054.25
431.85	24219.86
432.03	22546.38
432.22	21380.79
432.41	22370.84
432.60	24795.64
432.79	25862.92
432.97	26347.41
433.16	25991.65
433.35	23412.38
433.54	21057.80
433.72	19758.80
433.91	20601.40
434.10	23152.58
434.28	24587.33
434.47	25666.31
434.66	25572.69
434.85	24737.12
435.03	24442.21
435.22	24924.36
435.41	26719.56
435.59	26904.46
435.78	26813.18
435.97	27922.59
436.16	27997.49
436.34	27400.65
436.53	27021.48
436.72	26792.11
436.90	25631.21
437.09	25488.43
437.28	24678.61
437.46	26176.55
437.65	25743.55
437.84	24287.74
438.02	22312.33
438.21	22043.17
438.40	23342.16
438.58	25221.61
438.77	25713.13
438.96	26125.06
439.14	27000.42
439.33	28184.73
439.52	28484.32
439.70	27950.68
439.89	27201.71
440.08	25996.33
440.26	26085.27
440.45	27124.47
440.63	28893.91
440.82	30684.42
441.01	29605.44
441.19	29809.06
441.38	30242.06
441.57	31166.57
441.75	31447.44
441.94	32114.49
442.12	31686.17
442.31	32130.87
442.50	32077.04
442.68	31611.28
442.87	31161.89
443.05	30747.62
443.24	31016.78
443.43	31892.14
443.61	33057.73
443.80	33172.41
443.98	31232.11
444.17	31009.76
444.35	32996.87
444.54	33766.91
444.73	32982.83
444.91	31714.26
445.10	30244.40
445.28	28882.21
445.47	28629.43
445.65	28804.97
445.84	29797.36
446.02	30527.61
446.21	31227.43
446.39	31250.83
446.58	31725.96
446.77	32311.10
446.95	32531.11
447.14	33528.17
447.32	33780.95
447.51	33039.00
447.69	31747.03
447.88	31260.20
448.06	31810.22
448.25	32587.28
448.43	32783.88
448.62	32158.96
448.80	31775.11
448.99	32217.47
449.17	32566.21
449.36	32407.06
449.54	33317.53
449.73	34043.09
449.91	34651.63
450.10	35742.32
450.28	36116.81
450.46	35920.20
450.65	35803.17
450.83	35086.97
451.02	34747.59
451.20	34375.45
451.39	34354.38
451.57	33809.04
451.76	34436.30
451.94	34267.78
452.13	33535.20
452.31	31997.46
452.49	30518.25
452.68	31201.68
452.86	30778.04
453.05	31311.69
453.23	32414.08
453.42	33268.37
453.60	33816.06
453.78	34209.27
453.97	34073.52
454.15	33668.61
454.34	32929.00
454.52	32989.85
454.70	32608.34
454.89	32907.93
455.07	33109.22
455.26	33773.93
455.44	34958.24
455.62	35122.08
455.81	35360.81
455.99	35337.41
456.17	34543.97
456.36	34586.10
456.54	35894.46
456.73	35899.14
456.91	36577.89
457.09	36561.51
457.28	37460.27
457.46	35651.04
457.64	35632.32
457.83	34438.64
458.01	33530.51
458.19	34623.54
458.38	34705.46
458.56	36231.49
458.74	35803.17
458.93	34653.97
459.11	35182.93
459.29	34958.24
459.48	35302.30
459.66	34707.80
459.84	35367.84
460.03	35667.42
460.21	35662.74
460.39	36392.99
460.57	36184.68
460.76	37085.79
460.94	36732.37
461.12	36383.63
461.31	36400.01
461.49	36119.15
461.67	36163.62
461.85	37687.31
462.04	37357.29
462.22	38045.41
462.40	37869.87
462.59	37462.61
462.77	37221.54
462.95	37291.76
463.13	36933.65
463.32	36547.47
463.50	36247.88
463.68	36264.26
463.86	36584.91
464.05	35971.69
464.23	35201.66
464.41	34815.47
464.59	34677.38
464.78	35915.52
464.96	36098.08
465.14	35445.07
465.32	36563.85
465.50	37500.06
465.69	37933.06
465.87	36811.95
466.05	35690.83
466.23	34417.58
466.41	33315.19
466.60	34473.75
466.78	34632.91
466.96	35419.33
467.14	35880.41
467.32	36238.51
467.51	36121.49
467.69	34518.22
467.87	35697.85
468.05	35791.47
468.23	36285.33
468.41	35957.65
468.60	36088.72
468.78	36334.48
468.96	35967.01
469.14	36495.97
469.32	36882.16
469.50	35440.39
469.69	35199.32
469.87	34771.00
470.05	34527.58
470.23	34953.56
470.41	34902.07
470.59	35681.47
470.77	35817.22
470.95	36683.22
471.14	36905.57
471.32	36978.12
471.50	38749.91
471.68	39203.97
471.86	39072.90
472.04	39489.52
472.22	39136.10
472.40	37539.85
472.58	37415.80
472.77	36999.19
472.95	37493.04
473.13	38403.51
473.31	37816.04
473.49	37909.66
473.67	38223.29
473.85	38696.08
474.03	39395.90
474.21	39840.60
474.39	40201.04
474.57	40442.12
474.75	40484.25
474.93	39861.66
475.12	39035.45
475.30	39100.99
475.48	39393.56
475.66	39592.50
475.84	39110.35
476.02	39108.01
476.20	38597.77
476.38	39131.42
476.56	40350.84
476.74	40996.82
476.92	40879.80
477.10	41584.30
477.28	42817.76
477.46	42614.13
477.64	43419.28
477.82	43620.56
478.00	43629.93
478.18	42822.44
478.36	42520.51
478.54	42747.54
478.72	42955.85
478.90	44016.11
479.08	45102.12
479.26	45717.68
479.44	45181.70
479.62	44828.28
479.80	45036.59
479.98	45371.28
480.16	45670.87
480.34	44765.09
480.52	45663.85
480.70	45827.69
480.88	45701.30
481.06	46838.80
481.24	46735.82
481.41	47805.44
481.59	48098.01
481.77	48072.26
481.95	47243.71
482.13	46941.78
482.31	47636.92
482.49	48423.34
482.67	47784.38
482.85	47784.38
483.03	48641.01
483.21	49069.33
483.39	48636.33
483.57	48273.55
483.74	47709.48
483.92	48531.01
484.10	48444.41
484.28	49275.30
484.46	49787.88
484.64	50028.95
484.82	49258.91
485.00	48617.61
485.18	48224.40
485.35	47276.48
485.53	43728.23
485.71	40081.67
485.89	39299.94
486.07	41457.91
486.25	44648.06
486.43	46909.02
486.61	48048.86
486.78	47501.17
486.96	48116.73
487.14	49350.20
487.32	50031.29
487.50	50941.76
487.68	52065.22
487.85	52362.46
488.03	52467.79
488.21	51964.57
488.39	51452.00
488.57	50822.39
488.75	50248.96
488.92	51330.29
489.10	53514.01
489.28	54698.32
489.46	55309.20
489.64	54855.14
489.81	55306.86
489.99	55114.94
490.17	54805.98
490.35	55360.69
490.53	55065.78
490.70	54349.58
490.88	54440.86
491.06	55311.54
491.24	55217.92
491.41	54279.36
491.59	52903.13
491.77	52133.09
491.95	52968.66
492.13	54445.54
492.30	55091.53
492.48	56060.51
492.66	56697.14
492.84	56631.60
493.01	56486.49
493.19	55985.61
493.37	55711.77
493.54	55199.19
493.72	55863.91
493.90	56811.82
494.08	57352.49
494.25	57776.12
494.43	57935.28
494.61	58010.18
494.79	58401.05
494.96	58206.78
495.14	57602.92
495.32	56739.27
495.49	56168.18
495.67	57043.54
495.85	58447.86
496.02	58581.27
496.20	58700.64
496.38	58206.78
496.55	58028.90
496.73	58433.81
496.91	58459.56
497.09	59093.85
497.26	59353.65
497.44	58862.13
497.62	58347.21
497.79	57797.19
497.97	56257.12
498.14	56563.73
498.32	57769.10
498.50	58497.01
498.67	58864.47
498.85	58801.28
499.03	59047.04
499.20	59025.97
499.38	59295.13
499.56	58939.37
499.73	58684.25
499.91	58248.91
500.08	57939.96
500.26	57151.20
500.44	57457.81
500.61	58314.45
500.79	58237.21
500.97	57591.22
501.14	57773.78
501.32	57532.71
501.49	57247.16
501.67	57389.94
501.84	58232.53
502.02	58251.25
502.20	58513.39
502.37	58724.04
502.55	58754.47
502.72	59430.88
502.90	59749.20
503.07	59449.61
503.25	59000.22
503.43	58347.21
503.60	57607.61
503.78	57036.51
503.95	57654.42
504.13	58834.05
504.30	59355.99
504.48	59360.67
504.65	59044.69
504.83	58855.11
505.01	59386.41
505.18	59999.63
505.36	60458.38
505.53	60580.09
505.71	60676.05
505.88	60830.52
506.06	60306.24
506.23	59831.11
506.41	59433.22
506.58	59842.82
506.76	59751.54
506.93	59597.06
507.11	59531.53
507.28	59592.38
507.46	59241.30
507.63	58815.32
507.81	58274.66
507.98	58649.14
508.16	59309.18
508.33	59725.79
508.50	60128.36
508.68	60467.74
508.85	60849.25
509.03	60966.27
509.20	60781.37
509.38	59852.18
509.55	59236.62
509.73	59395.77
509.90	59966.87
510.08	60088.57
510.25	60111.98
510.42	59955.16
510.60	59749.20
510.77	59990.27
510.95	60512.21
511.12	60706.47
511.30	60996.70
511.47	61148.84
511.64	61106.71
511.82	60774.35
511.99	60119.00
512.17	59641.53
512.34	59358.33
512.51	59430.88
512.69	59564.29
512.86	59611.10
513.04	60229.01
513.21	60191.56
513.38	59686.00
513.56	59379.39
513.73	58850.43
513.90	58805.96
514.08	59100.87
514.25	59414.50
514.43	59346.62
514.60	59503.44
514.77	59777.28
514.95	59980.91
515.12	59655.57
515.29	59767.92
515.47	60533.28
515.64	60701.79
515.81	60191.56
515.99	59770.26
516.16	58384.66
516.33	56437.34
516.51	54813.01
516.68	54209.15
516.85	53764.45
517.03	54031.27
517.20	56453.72
517.37	58717.02
517.54	59917.71
517.72	59384.07
517.89	57085.67
518.06	54571.93
518.24	55004.93
518.41	57219.08
518.58	58368.28
518.75	58679.57
518.93	58651.48
519.10	58436.16
519.27	59110.23
519.45	59250.66
519.62	60111.98
519.79	60233.69
519.96	60140.07
520.14	59568.97
520.31	58901.92
520.48	58820.00
520.65	59194.49
520.83	60128.36
521.00	60437.31
521.17	59924.74
521.34	59709.41
521.52	60093.25
521.69	60444.33
521.86	60872.65
522.03	60823.50
522.20	59501.10
522.38	58513.39
522.55	58319.13
522.72	59037.67
522.89	59093.85
523.07	59400.46
523.24	59934.10
523.41	60336.67
523.58	60945.21
523.75	61268.20
523.92	61118.41
524.10	60748.60
524.27	60910.10
524.44	60804.78
524.61	60530.93
524.78	60549.66
524.96	60360.08
525.13	60313.26
525.30	60659.66
525.47	60994.36
525.64	60816.48
525.81	60095.60
525.98	59040.01
526.16	57745.70
526.33	56987.36
526.50	56610.54
526.67	56282.86
526.84	56839.91
527.01	57858.04
527.18	58452.54
527.36	59423.86
527.53	60158.79
527.70	60324.97
527.87	59887.29
528.04	59508.12
528.21	60140.07
528.38	60554.34
528.55	61172.24
528.72	61268.20
528.89	61436.72
529.07	61195.65
529.24	60650.30
529.41	59997.29
529.58	59526.84
529.75	59674.30
529.92	60058.15
530.09	60413.91
530.26	60907.76
530.43	61106.71
530.60	60945.21
530.77	61275.22
530.94	61315.01
531.11	60910.10
531.28	60509.87
531.46	60350.71
531.63	60444.33
531.80	60486.46
531.97	60037.08
532.14	59419.18
532.31	58499.35
532.48	57549.09
532.65	57865.06
532.82	58639.78
532.99	59742.17
533.16	60067.51
533.33	60547.32
533.50	60388.16
533.67	59674.30
533.84	59323.22
534.01	59458.97
534.18	59772.60
534.35	59906.01
534.52	59838.14
534.69	60018.36
534.86	60158.79
535.03	60458.38
535.20	60856.27
535.37	61272.88
535.54	61336.08
535.71	60989.68
535.88	60587.11
536.05	60156.45
536.22	59796.01
536.38	59367.69
536.55	59089.16
536.72	58511.05
536.89	58248.91
537.06	59255.34
537.23	60149.43
537.40	60044.10
537.57	60317.95
537.74	60027.72
537.91	60116.66
538.08	59992.61
538.25	59861.54
538.42	60346.03
538.59	59938.78
538.75	59257.68
538.92	59128.95
539.09	59140.66
539.26	58922.99
539.43	58571.91
539.60	58784.90
539.77	58899.58
539.94	58958.09
540.11	57888.47
540.28	57605.26
540.44	57628.67
540.61	57883.79
540.78	58162.31
540.95	58403.39
541.12	58897.24
541.29	59091.51
541.46	59423.86
541.62	59517.48
541.79	59250.66
541.96	58684.25
542.13	58759.15
542.30	58981.50
542.47	59302.15
542.63	59061.08
542.80	58642.12
542.97	58721.70
543.14	58578.93
543.31	58578.93
543.48	59437.90
543.64	59784.30
543.81	60079.21
543.98	60100.28
544.15	59480.03
544.32	58901.92
544.48	58794.26
544.65	59173.42
544.82	59798.35
544.99	59316.20
545.16	58995.54
545.32	58604.67
545.49	59625.15
545.66	59866.22
545.83	59388.75
546.00	59121.93
546.16	58852.77
546.33	58827.02
546.50	58761.49
546.67	59274.07
546.83	58974.48
547.00	58850.43
547.17	58379.98
547.34	57963.37
547.50	57750.38
547.67	58188.06
547.84	58227.85
548.00	58665.53
548.17	59025.97
548.34	58836.39
548.51	58611.70
548.67	58855.11
548.84	58899.58
549.01	58934.69
549.18	58611.70
549.34	58897.24
549.51	58726.38
549.68	58892.56
549.84	58337.85
550.01	58438.50
550.18	58410.41
550.34	58363.60
550.51	58431.47
550.68	58550.84
550.84	57996.13
551.01	58223.17
551.18	58164.65
551.34	58141.25
551.51	58520.41
551.68	58838.73
551.84	58850.43
552.01	58607.01
552.18	58632.76
552.34	57677.82
552.51	57530.37
552.68	57181.63
552.84	57741.02
553.01	57893.15
553.18	57998.48
553.34	58131.89
553.51	58117.84
553.67	58557.86
553.84	58522.76
554.01	58497.01
554.17	58302.74
554.34	58307.43
554.51	58487.65
554.67	58777.87
554.84	58316.79
555.00	58181.04
555.17	58085.07
555.33	57963.37
555.50	58078.05
555.67	58028.90
555.83	57733.99
556.00	57591.22
556.16	57645.05
556.33	57104.39
556.50	56924.17
556.66	57202.69
556.83	56587.13
556.99	56891.40
557.16	57066.94
557.32	57371.21
557.49	57691.86
557.65	57235.46
557.82	57392.28
557.98	57457.81
558.15	56793.10
558.32	56229.03
558.48	55281.11
558.65	55515.17
558.81	55704.75
558.98	55875.61
559.14	56545.00
559.31	56442.02
559.47	56243.07
559.64	55896.67
559.80	55899.01
559.97	55835.82
560.13	55908.38
560.30	57064.60
560.46	57560.79
560.63	57696.55
560.79	57797.19
560.96	57352.49
561.12	56252.44
561.29	55405.16
561.45	55793.69
561.61	55899.01
561.78	56458.40
561.94	56439.68
562.11	56126.05
562.27	55924.76
562.44	56374.14
562.60	56727.56
562.77	56856.29
562.93	56757.99
563.10	56678.41
563.26	56217.33
563.42	56451.38
563.59	55899.01
563.75	56023.06
563.92	55997.32
564.08	55889.65
564.24	56275.84
564.41	56449.04
564.57	56097.96
564.74	56214.99
564.90	56037.11
565.07	55807.73
565.23	55325.58
565.39	54862.16
565.56	54405.75
565.72	54349.58
565.88	54679.60
566.05	54988.55
566.21	55182.81
566.38	55327.92
566.54	55374.73
566.70	55533.89
566.87	55833.48
567.03	55760.92
567.19	56247.75
567.36	55793.69
567.52	55690.71
567.68	55423.89
567.85	54766.20
568.01	54794.28
568.17	54145.95
568.34	54021.90
568.50	53984.46
568.66	53792.53
568.83	54602.36
568.99	54611.72
569.15	54876.20
569.32	54698.32
569.48	54405.75
569.64	54017.22
569.81	53846.36
569.97	53991.48
570.13	53914.24
570.30	53382.94
570.46	53083.35
570.62	52383.53
570.78	52353.10
570.95	52722.91
571.11	53221.44
571.27	53286.98
571.43	53883.81
571.60	53949.35
571.76	54286.39
571.92	54536.82
572.09	54681.94
572.25	54578.95
572.41	54347.24
572.57	54368.30
572.74	54433.84
572.90	53979.78
573.06	53719.98
573.22	54213.83
573.38	54148.29
573.55	54190.42
573.71	54066.38
573.87	53853.39
574.03	53652.10
574.20	53710.61
574.36	53506.99
574.52	53724.66
574.68	53169.95
574.84	52858.66
575.01	52465.45
575.17	52301.61
575.33	52622.26
575.49	53031.86
575.65	52931.22
575.82	52430.34
575.98	52500.56
576.14	52509.92
576.30	53031.86
576.46	53263.57
576.62	53081.01
576.79	53088.03
576.95	52418.64
577.11	52587.16
577.27	52734.61
577.43	52772.06
577.59	52219.69
577.75	51971.60
577.92	51136.02
578.08	51199.22
578.24	50981.55
578.40	51576.04
578.56	51880.31
578.72	51983.30
578.88	51971.60
579.04	52030.11
579.21	52182.24
579.37	52378.85
579.53	52317.99
579.69	52182.24
579.85	52605.88
580.01	52317.99
580.17	51487.10
580.33	51728.18
580.49	51990.32
580.65	52093.30
580.82	52193.95
580.98	52011.38
581.14	52219.69
581.30	52341.40
581.46	52200.97
581.62	52336.72
581.78	52538.01
581.94	52540.35
582.10	52409.28
582.26	52322.68
582.42	52292.25
582.58	52519.28
582.74	52491.19
582.90	52074.58
583.06	52376.51
583.22	51859.25
583.38	51873.29
583.54	51798.40
583.70	52069.90
583.86	51929.47
584.02	51739.88
584.18	51859.25
584.34	51910.74
584.50	51973.94
584.66	51707.12
584.82	51042.40
584.98	51030.70
585.14	51021.34
