SpectraSuite Data File
++++++++++++++++++++++++++++++++++++
Date: Mon Oct 07 14:52:54 GMT-05:00 2013
User: price-jones
Dark Spectrum Present: No
Reference Spectrum Present: No
Number of Sampled Component Spectra: 1
Spectrometers: USB2+H05261
Integration Time (usec): 100000 (USB2+H05261)
Spectra Averaged: 1 (USB2+H05261)
Boxcar Smoothing: 0 (USB2+H05261)
Correct for Electrical Dark: No (USB2+H05261)
Strobe/Lamp Enabled: No (USB2+H05261)
Correct for Detector Non-linearity: No (USB2+H05261)
Correct for Stray Light: No (USB2+H05261)
Number of Pixels in Processed Spectrum: 2048
>>>>>Begin Processed Spectral Data<<<<<
365.73	0.00
365.92	0.00
366.12	0.00
366.32	0.00
366.52	0.00
366.72	0.00
366.91	0.00
367.11	0.00
367.31	0.00
367.51	0.00
367.70	0.00
367.90	0.00
368.10	0.00
368.30	0.00
368.49	0.00
368.69	0.00
368.89	0.00
369.09	0.00
369.28	0.00
369.48	0.00
369.68	0.00
369.87	0.00
370.07	0.00
370.27	0.00
370.47	589.82
370.66	3194.83
370.86	3786.99
371.06	4243.39
371.25	4098.28
371.45	3768.26
371.65	3337.60
371.84	3084.83
372.04	3351.65
372.24	3749.54
372.44	3889.97
372.63	3819.75
372.83	3485.06
373.03	3150.36
373.22	2953.76
373.42	3201.85
373.62	3564.64
373.81	3852.52
374.01	3730.81
374.21	3358.67
374.40	3157.38
374.60	3267.39
374.79	3747.20
374.99	4313.61
375.19	4664.69
375.38	4582.77
375.58	4283.18
375.78	4215.30
375.97	4437.66
376.17	4573.41
376.37	4477.44
376.56	4734.90
376.76	4802.78
376.95	5226.42
377.15	5689.84
377.35	5996.45
377.54	6087.73
377.74	6303.06
377.93	6235.19
378.13	5961.34
378.33	5671.12
378.52	5359.83
378.72	4968.96
378.91	5116.41
379.11	4833.21
379.31	4732.56
379.50	4638.94
379.70	5142.16
379.89	5521.32
380.09	5762.40
380.28	6239.87
380.48	6057.31
380.68	6181.35
380.87	5940.28
381.07	5411.32
381.26	5081.30
381.46	4690.43
381.65	4540.64
381.85	4440.00
382.04	4161.47
382.24	3913.38
382.43	3735.50
382.63	3688.68
382.83	3574.00
383.02	3693.37
383.22	3801.03
383.41	3840.82
383.61	3960.19
383.80	4517.23
384.00	5268.55
384.19	5785.80
384.39	6164.97
384.58	5959.00
384.78	5781.12
384.97	5919.21
385.17	5507.28
385.36	5298.97
385.56	5018.11
385.75	5305.99
385.95	5760.06
386.14	6216.46
386.34	6132.20
386.53	5996.45
386.72	5458.13
386.92	5584.52
387.11	5930.92
387.31	6310.08
387.50	6218.80
387.70	6008.16
387.89	5923.90
388.09	5893.47
388.28	6010.50
388.48	6090.07
388.67	6473.92
388.86	7066.08
389.06	7695.68
389.25	7962.50
389.45	8184.85
389.64	7953.14
389.84	8053.78
390.03	7709.72
390.22	7957.82
390.42	8224.64
390.61	8875.31
390.81	9399.59
391.00	9191.28
391.19	9163.20
391.39	8926.80
391.58	8449.33
391.78	8114.64
391.97	7815.05
392.16	7286.09
392.36	6396.68
392.55	5305.99
392.75	4238.71
392.94	3382.07
393.13	3391.44
393.33	4044.45
393.52	5308.34
393.71	6279.66
393.91	7126.93
394.10	7669.94
394.29	8355.71
394.49	9174.90
394.68	9757.69
394.88	9846.63
395.07	10073.67
395.26	9816.21
395.46	9738.97
395.65	9294.27
395.84	7864.20
396.04	6825.00
396.23	5495.58
396.42	4774.69
396.62	4461.06
396.81	5224.08
397.00	6799.26
397.19	8531.25
397.39	9809.19
397.58	11066.05
397.77	11995.25
397.97	12465.69
398.16	12437.61
398.35	12877.63
398.55	13053.17
398.74	13914.48
398.93	14083.00
399.12	14052.58
399.32	13160.83
399.51	13757.67
399.70	14752.40
399.90	14604.94
400.09	14658.78
400.28	14429.40
400.47	14328.76
400.67	15407.75
400.86	15616.05
401.05	15389.02
401.24	15735.42
401.44	15812.66
401.63	15922.66
401.82	15880.53
402.01	16161.40
402.21	15925.00
402.40	16503.12
402.59	15784.57
402.78	14939.64
402.97	14946.66
403.17	15246.25
403.36	16304.17
403.55	16336.94
403.74	17146.76
403.93	16098.20
404.13	14712.61
404.32	14672.82
404.51	15510.73
404.70	16538.23
404.89	16381.41
405.09	16194.17
405.28	15590.31
405.47	15445.20
405.66	16130.97
405.85	15290.72
406.05	14705.59
406.24	15145.61
406.43	15536.48
406.62	16248.00
406.81	16428.22
407.00	15953.09
407.20	15590.31
407.39	15906.28
407.58	16648.23
407.77	16910.37
407.96	17811.48
408.15	18017.44
408.34	17935.53
408.54	18651.73
408.73	18883.44
408.92	18410.65
409.11	17970.63
409.30	17301.24
409.49	15908.62
409.68	14906.87
409.87	14738.35
410.07	15513.07
410.26	16901.01
410.45	17724.88
410.64	18120.43
410.83	18668.11
411.02	19159.63
411.21	20198.82
411.40	19323.46
411.59	19857.10
411.78	19599.65
411.98	19412.40
412.17	19737.74
412.36	19264.95
412.55	19225.16
412.74	18937.27
412.93	18417.68
413.12	19222.82
413.31	20556.93
413.50	20360.32
413.69	20996.95
413.88	20430.54
414.07	19866.47
414.26	20285.42
414.45	20713.74
414.64	20814.38
414.83	20861.19
415.02	20283.08
415.22	20388.41
415.41	20971.20
415.60	21624.21
415.79	22597.87
415.98	23222.80
416.17	23080.02
416.36	22097.00
416.55	22043.17
416.74	21472.07
416.93	20369.68
417.12	20463.30
417.31	20964.18
417.50	21429.94
417.69	21923.80
417.88	21809.11
418.07	21649.96
418.26	21500.16
418.45	21490.80
418.64	22565.10
418.83	23044.91
419.02	22792.14
419.21	22775.75
419.39	21472.07
419.58	20627.14
419.77	20760.55
419.96	21642.93
420.15	22871.72
420.34	23421.74
420.53	24229.23
420.72	24781.59
420.91	24622.44
421.10	24212.84
421.29	23683.88
421.48	23091.73
421.67	24210.50
421.86	23414.72
422.05	22050.19
422.24	19716.67
422.43	19768.16
422.61	21687.40
422.80	23339.82
422.99	23360.89
423.18	22960.66
423.37	22136.79
423.56	22237.43
423.75	22712.56
423.94	23026.19
424.13	22122.74
424.32	22228.07
424.50	22185.94
424.69	21891.03
424.88	22164.87
425.07	22038.48
425.26	22054.87
425.45	21305.90
425.64	21394.84
425.83	21280.15
426.01	22485.53
426.20	22700.86
426.39	22642.34
426.58	21172.49
426.77	19791.57
426.96	19087.07
427.15	19686.25
427.33	21621.87
427.52	21802.09
427.71	22401.27
427.90	21919.12
428.09	21949.54
428.28	21329.30
428.46	20659.91
428.65	20273.72
428.84	20917.37
429.03	21081.21
429.22	19967.11
429.40	18794.50
429.59	16922.07
429.78	15332.85
429.97	15499.03
430.16	15700.31
430.34	15754.15
430.53	15473.28
430.72	15995.22
430.91	17710.83
431.10	21088.23
431.28	24821.38
431.47	26473.80
431.66	26511.25
431.85	23934.32
432.03	22139.13
432.22	21198.23
432.41	22537.02
432.60	24751.17
432.79	25640.57
432.97	26178.89
433.16	25230.98
433.35	23260.24
433.54	21041.42
433.72	19435.81
433.91	20910.35
434.10	22946.61
434.28	24519.45
434.47	25666.31
434.66	25172.46
434.85	24573.28
435.03	24512.43
435.22	25305.87
435.41	26675.09
435.59	26728.92
435.78	26951.27
435.97	27805.56
436.16	27824.29
436.34	27758.75
436.53	26747.64
436.72	26881.05
436.90	25521.20
437.09	25750.57
437.28	25474.39
437.46	26113.36
437.65	25560.99
437.84	24259.65
438.02	22136.79
438.21	22319.35
438.40	23480.25
438.58	25294.17
438.77	26017.40
438.96	26291.24
439.14	27241.50
439.33	27938.97
439.52	28161.33
439.70	27494.27
439.89	27122.13
440.08	26005.69
440.26	26218.68
440.45	27660.45
440.63	29034.35
440.82	30520.59
441.01	29991.62
441.19	29813.74
441.38	29860.55
441.57	31578.51
441.75	31793.84
441.94	31962.36
442.12	31480.21
442.31	32601.32
442.50	32109.81
442.68	32142.58
442.87	31367.86
443.05	30899.75
443.24	31693.19
443.43	31908.52
443.61	32655.15
443.80	33446.26
443.98	31512.97
444.17	31419.35
444.35	33411.15
444.54	33558.60
444.73	33270.72
444.91	31646.38
445.10	30595.48
445.28	29366.70
445.47	28959.45
445.65	29003.92
445.84	29993.97
446.02	31108.06
446.21	31503.61
446.39	31307.01
446.58	32032.57
446.77	32554.51
446.95	32790.91
447.14	33797.34
447.32	34267.78
447.51	33060.07
447.69	32290.03
447.88	31859.37
448.06	32081.72
448.25	33174.75
448.43	32985.17
448.62	32568.55
448.80	32442.17
448.99	32671.54
449.17	33039.00
449.36	33266.03
449.54	34082.88
449.73	34700.78
449.91	35349.11
450.10	36282.98
450.28	36823.65
450.46	36421.08
450.65	36285.33
450.83	36203.41
451.02	35318.68
451.20	35157.19
451.39	34895.05
451.57	35236.77
451.76	34902.07
451.94	34567.37
452.13	34057.14
452.31	32271.31
452.49	31358.50
452.68	32081.72
452.86	31737.66
453.05	32102.79
453.23	33167.73
453.42	34223.31
453.60	34384.81
453.78	34611.84
453.97	34543.97
454.15	33944.79
454.34	33846.49
454.52	33617.11
454.70	33673.29
454.89	33446.26
455.07	33532.86
455.26	34609.50
455.44	35494.22
455.62	36095.74
455.81	36189.36
455.99	36130.85
456.17	35637.00
456.36	35833.60
456.54	36868.12
456.73	36634.06
456.91	37324.52
457.09	37715.39
457.28	37865.19
457.46	36994.51
457.64	36100.42
457.83	35175.91
458.01	34089.90
458.19	35454.44
458.38	35585.50
458.56	37158.34
458.74	36437.46
458.93	36032.55
459.11	35807.86
459.29	35634.66
459.48	36318.09
459.66	35536.35
459.84	36144.89
460.03	36685.56
460.21	36624.70
460.39	37839.44
460.57	37626.45
460.76	37876.89
460.94	38052.43
461.12	37385.38
461.31	37778.59
461.49	37949.45
461.67	37549.21
461.85	38679.69
462.04	38312.23
462.22	39122.05
462.40	38525.22
462.59	38363.72
462.77	38588.41
462.95	38513.52
463.13	38167.12
463.32	37525.81
463.50	37694.33
463.68	37949.45
463.86	37432.19
464.05	37099.83
464.23	36189.36
464.41	36299.37
464.59	35828.92
464.78	37282.39
464.96	37422.83
465.14	36701.94
465.32	37787.95
465.50	38799.06
465.69	39276.53
465.87	38265.42
466.05	37148.98
466.23	35880.41
466.41	34686.74
466.60	36074.68
466.78	35852.33
466.96	36692.58
467.14	37200.47
467.32	37544.53
467.51	37612.41
467.69	36051.27
467.87	36769.82
468.05	37490.70
468.23	37450.91
468.41	37853.48
468.60	37713.05
468.78	37741.14
468.96	37280.05
469.14	38443.30
469.32	38391.81
469.50	36488.95
469.69	36645.77
469.87	36212.77
470.05	36273.62
470.23	36308.73
470.41	36687.90
470.59	36896.20
470.77	37015.57
470.95	37900.29
471.14	38218.61
471.32	38499.47
471.50	39873.37
471.68	40896.18
471.86	40865.75
472.04	41015.55
472.22	41406.42
472.40	39168.87
472.58	38848.21
472.77	38597.77
472.95	39159.50
473.13	40399.99
473.31	39122.05
473.49	39672.08
473.67	40163.59
473.85	40458.50
474.03	41729.41
474.21	41741.11
474.39	41776.22
474.57	42075.81
474.75	42059.43
474.93	41865.16
475.12	40615.32
475.30	40896.18
475.48	41053.00
475.66	41457.91
475.84	41017.89
476.02	40502.97
476.20	40474.88
476.38	41177.04
476.56	42220.92
476.74	42890.32
476.92	43005.00
477.10	43676.74
477.28	44839.98
477.46	44839.98
477.64	45052.97
477.82	44919.56
478.00	45464.91
478.18	44512.31
478.36	44479.54
478.54	44788.49
478.72	45069.36
478.90	45783.22
479.08	47154.77
479.26	47590.11
479.44	47229.67
479.62	47004.98
479.80	47077.54
479.98	47489.47
480.16	47686.07
480.34	47208.61
480.52	47538.62
480.70	47997.37
480.88	47863.96
481.06	48603.56
481.24	48456.11
481.41	49628.72
481.59	50279.39
481.77	50071.08
481.95	49401.69
482.13	49406.37
482.31	49375.94
482.49	49961.08
482.67	49766.81
482.85	50019.59
483.03	50574.30
483.21	50827.07
483.39	51051.76
483.57	50375.35
483.74	49851.07
483.92	50143.64
484.10	50117.89
484.28	51241.35
484.46	51374.76
484.64	52168.20
484.82	51353.69
485.00	51056.45
485.18	50162.36
485.35	48879.75
485.53	45640.45
485.71	41949.42
485.89	41965.81
486.07	44027.82
486.25	46913.70
486.43	49109.12
486.61	49963.42
486.78	49883.84
486.96	49907.24
487.14	51295.18
487.32	52182.24
487.50	53502.31
487.68	53682.53
487.85	54152.97
488.03	54309.79
488.21	53813.60
488.39	53441.45
488.57	52779.08
488.75	52512.26
488.92	53794.87
489.10	55367.71
489.28	56186.90
489.46	57106.73
489.64	56760.33
489.81	57073.96
489.99	56683.09
490.17	56879.70
490.35	56945.23
490.53	56622.24
490.70	56147.11
490.88	56222.01
491.06	57183.97
491.24	56835.23
491.41	56004.34
491.59	54693.64
491.77	54227.87
491.95	54817.69
492.13	56186.90
492.30	57113.75
492.48	57848.68
492.66	58363.60
492.84	58246.57
493.01	58073.37
493.19	57237.80
493.37	57237.80
493.54	56961.62
493.72	57698.89
493.90	58712.34
494.08	59189.81
494.25	59721.11
494.43	59896.65
494.61	60072.19
494.79	60289.86
494.96	59604.08
495.14	59220.23
495.32	58417.43
495.49	57942.30
495.67	58934.69
495.85	59931.76
496.02	60392.84
496.20	60266.45
496.38	59753.88
496.55	59604.08
496.73	60259.43
496.91	60376.46
497.09	60853.93
497.26	61076.28
497.44	60556.68
497.62	59957.50
497.79	59292.79
497.97	58197.42
498.14	58569.57
498.32	59494.08
498.50	60179.85
498.67	60757.97
498.85	60650.30
499.03	60692.43
499.20	61048.19
499.38	61022.45
499.56	60610.51
499.73	60474.76
499.91	59992.61
500.08	59550.25
500.26	59072.78
500.44	59627.49
500.61	59938.78
500.79	59868.56
500.97	59564.29
501.14	59363.01
501.32	59143.00
501.49	59203.85
501.67	59388.75
501.84	60046.44
502.02	60058.15
502.20	60395.18
502.37	60640.94
502.55	60694.77
502.72	61237.78
502.90	61513.96
503.07	61205.01
503.25	60879.67
503.43	59992.61
503.60	59597.06
503.78	59192.15
503.95	59566.63
504.13	60676.05
504.30	61441.40
504.48	61183.94
504.65	60896.06
504.83	60982.66
505.01	61593.54
505.18	61848.66
505.36	62422.09
505.53	62543.80
505.71	62459.54
505.88	62599.97
506.06	61930.58
506.23	61738.65
506.41	61312.67
506.58	61778.44
506.76	61712.91
506.93	61532.68
507.11	61212.03
507.28	61567.79
507.46	61027.13
507.63	60460.72
507.81	60446.68
507.98	60786.05
508.16	61333.74
508.33	61703.54
508.50	62134.20
508.68	62370.60
508.85	62770.83
509.03	62906.58
509.20	62574.22
509.38	61930.58
509.55	61214.37
509.73	61539.71
509.90	61968.02
510.08	62056.96
510.25	62063.99
510.42	61904.83
510.60	61902.49
510.77	62047.60
510.95	62560.18
511.12	62686.57
511.30	62986.16
511.47	63147.65
511.64	62946.37
511.82	62742.74
511.99	61975.05
512.17	61879.08
512.34	61221.39
512.51	61630.99
512.69	61750.35
512.86	61902.49
513.04	62113.14
513.21	62178.67
513.38	61785.46
513.56	61427.36
513.73	60846.91
513.90	61080.96
514.08	61226.07
514.25	61380.55
514.43	61712.91
514.60	61656.73
514.77	61640.35
514.95	61970.36
515.12	61865.04
515.29	62106.12
515.47	62583.58
515.64	62775.51
515.81	62230.16
515.99	61703.54
516.16	60500.51
516.33	58429.13
516.51	57242.48
516.68	56526.28
516.85	56112.00
517.03	56652.67
517.20	59121.93
517.37	61006.06
517.54	62026.54
517.72	61485.87
517.89	59157.04
518.06	57286.95
518.24	57764.42
518.41	59784.30
518.58	60453.70
518.75	60753.29
518.93	61125.43
519.10	60928.83
519.27	61340.76
519.45	61544.39
519.62	62370.60
519.79	62539.11
519.96	62342.51
520.14	61930.58
520.31	61223.73
520.48	61296.29
520.65	61535.02
520.83	62555.50
521.00	62557.84
521.17	62192.72
521.34	62244.21
521.52	62368.26
521.69	62616.35
521.86	63213.19
522.03	62841.04
522.20	61633.33
522.38	60938.19
522.55	60865.63
522.72	61422.68
522.89	61616.94
523.07	61705.88
523.24	62127.18
523.41	62841.04
523.58	63182.76
523.75	63599.38
523.92	63285.75
524.10	63285.75
524.27	63222.55
524.44	63157.02
524.61	62801.25
524.78	62911.26
524.96	62625.71
525.13	62934.66
525.30	62915.94
525.47	63430.86
525.64	63215.53
525.81	62665.50
525.98	61251.82
526.16	60086.23
526.33	59468.33
526.50	59264.70
526.67	58894.90
526.84	59597.06
527.01	60397.52
527.18	61216.71
527.36	61939.94
527.53	62709.97
527.70	62763.81
527.87	62241.87
528.04	62103.77
528.21	62511.03
528.38	63128.93
528.55	63648.53
528.72	63718.74
528.89	64013.65
529.07	63632.14
529.24	63058.71
529.41	62489.96
529.58	62019.52
529.75	62241.87
529.92	62468.90
530.09	62911.26
530.26	63267.02
530.43	63442.56
530.60	63510.44
530.77	63746.83
530.94	63863.86
531.11	63379.37
531.28	63112.55
531.46	62827.00
531.63	63262.34
531.80	62981.48
531.97	62635.08
532.14	62014.83
532.31	60933.51
532.48	60140.07
532.65	60474.76
532.82	61263.52
532.99	62358.89
533.16	62426.77
533.33	62993.18
533.50	62787.21
533.67	62213.78
533.84	62080.37
534.01	62173.99
534.18	62199.74
534.35	62562.52
534.52	62071.01
534.69	62541.45
534.86	62873.81
535.03	63355.96
535.20	63503.42
535.37	63781.94
535.54	63980.88
535.71	63547.89
535.88	63220.21
536.05	62499.33
536.22	62220.80
536.38	61883.76
536.55	61520.98
536.72	61146.50
536.89	61293.95
537.06	62010.15
537.23	62738.06
537.40	62974.45
537.57	62929.98
537.74	62843.38
537.91	62749.76
538.08	62695.93
538.25	62822.32
538.42	62869.13
538.59	62454.86
538.75	61925.89
538.92	61921.21
539.09	61614.60
539.26	61586.52
539.43	61322.04
539.60	61420.34
539.77	61855.68
539.94	61429.70
540.11	61001.38
540.28	60446.68
540.44	60507.53
540.61	60580.09
540.78	60973.30
540.95	61378.21
541.12	61616.94
541.29	62031.22
541.46	62052.28
541.62	62248.89
541.79	62014.83
541.96	61630.99
542.13	61530.34
542.30	61780.78
542.47	62010.15
542.63	61712.91
542.80	61680.14
542.97	61661.41
543.14	61649.71
543.31	61619.28
543.48	61911.85
543.64	62646.78
543.81	63035.31
543.98	62969.77
544.15	62220.80
544.32	61614.60
544.48	62045.26
544.65	62279.31
544.82	62695.93
544.99	62197.40
545.16	61946.96
545.32	61696.52
545.49	62213.78
545.66	62681.89
545.83	62466.56
546.00	61979.73
546.16	61886.10
546.33	61771.42
546.50	61855.68
546.67	62115.48
546.83	61745.67
547.00	61883.76
547.17	61291.61
547.34	60786.05
547.50	60638.60
547.67	61216.71
547.84	61172.24
548.00	61478.85
548.17	62028.88
548.34	61872.06
548.51	61841.63
548.67	61858.02
548.84	61977.39
549.01	61764.40
549.18	61740.99
549.34	61663.75
549.51	61652.05
549.68	61509.28
549.84	61298.63
550.01	61092.66
550.18	61340.76
550.34	61343.10
550.51	61474.17
550.68	61448.42
550.84	60980.32
551.01	61174.58
551.18	61106.71
551.34	61219.05
551.51	61523.32
551.68	61748.01
551.84	61928.23
552.01	61642.69
552.18	61352.46
552.34	60711.16
552.51	60601.15
552.68	60636.26
552.84	60903.08
553.01	61172.24
553.18	61160.54
553.34	61326.72
553.51	61336.08
553.67	61698.86
553.84	61740.99
554.01	61537.36
554.17	61258.84
554.34	61499.92
554.51	61638.01
554.67	61930.58
554.84	61535.02
555.00	61312.67
555.17	61181.60
555.33	61251.82
555.50	61024.79
555.67	61116.07
555.83	60928.83
556.00	60764.99
556.16	60666.69
556.33	60439.65
556.50	60224.32
556.66	60430.29
556.83	60107.30
556.99	60327.31
557.16	60341.35
557.32	60594.13
557.49	60900.74
557.65	60832.86
557.82	60556.68
557.98	60346.03
558.15	60083.89
558.32	59400.46
558.48	58714.68
558.65	58805.96
558.81	59215.55
558.98	59590.04
559.14	59526.84
559.31	59884.95
559.47	59805.37
559.64	59370.03
559.80	59103.21
559.97	59386.41
560.13	59561.95
560.30	60313.26
560.46	60755.63
560.63	60970.96
560.79	61048.19
560.96	60580.09
561.12	59728.13
561.29	59063.42
561.45	59180.45
561.61	59526.84
561.78	60013.68
561.94	59742.17
562.11	59721.11
562.27	59487.06
562.44	59702.38
562.60	60130.70
562.77	60486.46
562.93	60226.66
563.10	60121.34
563.26	59590.04
563.42	59667.28
563.59	59723.45
563.75	59400.46
563.92	59725.79
564.08	59426.20
564.24	59821.75
564.41	59833.46
564.57	59573.66
564.74	59810.05
564.90	59475.35
565.07	59334.92
565.23	58834.05
565.39	58478.28
565.56	58351.90
565.72	58356.58
565.88	58482.97
566.05	58508.71
566.21	58834.05
566.38	58887.88
566.54	58911.28
566.70	59238.96
566.87	59405.14
567.03	59484.72
567.19	59566.63
567.36	59351.30
567.52	59487.06
567.68	58728.72
567.85	58489.99
568.01	58033.58
568.17	57797.19
568.34	57762.08
568.50	57825.28
568.66	58028.90
568.83	58209.12
568.99	58515.73
569.15	58656.17
569.32	58508.71
569.48	58323.81
569.64	58148.27
569.81	57780.81
569.97	58071.03
570.13	57778.46
570.30	57509.30
570.46	56905.44
570.62	56495.85
570.78	56343.72
570.95	56556.70
571.11	57209.71
571.27	57652.08
571.43	57661.44
571.60	58094.44
571.76	58136.57
571.92	58480.63
572.09	58660.85
572.25	58349.56
572.41	58562.54
572.57	58302.74
572.74	58333.17
572.90	58096.78
573.06	57881.45
573.22	58122.52
573.38	57851.02
573.55	57733.99
573.71	58335.51
573.87	57890.81
574.03	57813.57
574.20	57682.50
574.36	57434.41
574.52	57443.77
574.68	57162.90
574.84	56816.50
575.01	56341.38
575.17	56596.49
575.33	56823.53
575.49	56961.62
575.65	57228.44
575.82	56966.30
575.98	56767.35
576.14	56811.82
576.30	56992.04
576.46	57361.85
576.62	57193.33
576.79	57176.95
576.95	56636.28
577.11	56734.59
577.27	56678.41
577.43	56821.19
577.59	56556.70
577.75	56137.75
577.92	55828.80
578.08	55430.91
578.24	55442.61
578.40	55796.03
578.56	56224.35
578.72	55964.55
578.88	56371.80
579.04	56294.56
579.21	56479.47
579.37	56769.69
579.53	56566.07
579.69	56680.75
579.85	56786.08
580.01	56397.55
580.17	56074.55
580.33	56217.33
580.49	56381.16
580.65	56523.94
580.82	56699.48
580.98	56591.81
581.14	56528.62
581.30	56556.70
581.46	56470.11
581.62	56666.71
581.78	56521.60
581.94	56804.80
582.10	56865.66
582.26	56802.46
582.42	56708.84
582.58	56821.19
582.74	56528.62
582.90	56945.23
583.06	56664.37
583.22	56435.00
583.38	56324.99
583.54	56395.21
583.70	56350.74
583.86	56755.65
584.02	56439.68
584.18	56516.92
584.34	56254.78
584.50	56367.12
584.66	56060.51
584.82	55817.10
584.98	55833.48
585.14	55325.58
