SpectraSuite Data File
++++++++++++++++++++++++++++++++++++
Date: Mon Oct 07 14:55:03 GMT-05:00 2013
User: price-jones
Dark Spectrum Present: No
Reference Spectrum Present: No
Number of Sampled Component Spectra: 1
Spectrometers: USB2+H05261
Integration Time (usec): 10000 (USB2+H05261)
Spectra Averaged: 1 (USB2+H05261)
Boxcar Smoothing: 0 (USB2+H05261)
Correct for Electrical Dark: No (USB2+H05261)
Strobe/Lamp Enabled: No (USB2+H05261)
Correct for Detector Non-linearity: No (USB2+H05261)
Correct for Stray Light: No (USB2+H05261)
Number of Pixels in Processed Spectrum: 2048
>>>>>Begin Processed Spectral Data<<<<<
365.73	0.00
365.92	0.00
366.12	0.00
366.32	0.00
366.52	0.00
366.72	0.00
366.91	0.00
367.11	0.00
367.31	0.00
367.51	0.00
367.70	0.00
367.90	0.00
368.10	0.00
368.30	0.00
368.49	0.00
368.69	0.00
368.89	0.00
369.09	0.00
369.28	0.00
369.48	0.00
369.68	0.00
369.87	0.00
370.07	0.00
370.27	0.00
370.47	498.53
370.66	3033.33
370.86	3365.69
371.06	3808.05
371.25	3571.66
371.45	3108.23
371.65	2977.16
371.84	2658.85
372.04	2974.82
372.24	3246.32
372.44	3400.80
372.63	3363.35
372.83	3061.42
373.03	2593.31
373.22	2602.68
373.42	2782.90
373.62	3288.45
373.81	3342.28
374.01	3269.73
374.21	2888.22
374.40	2761.83
374.60	3026.31
374.79	3513.14
374.99	4014.02
375.19	4308.93
375.38	4145.09
375.58	3836.14
375.78	3840.82
375.97	4067.85
376.17	4021.04
376.37	4133.39
376.56	4269.14
376.76	4592.13
376.95	4730.22
377.15	5158.54
377.35	5268.55
377.54	5526.00
377.74	5579.84
377.93	5561.11
378.13	5366.85
378.33	5004.07
378.52	4800.44
378.72	4526.60
378.91	4603.83
379.11	4306.59
379.31	4222.33
379.50	4273.82
379.70	4683.41
379.89	5186.63
380.09	5383.23
380.28	5654.73
380.48	5502.60
380.68	5481.53
380.87	5203.01
381.07	4788.74
381.26	4339.35
381.46	4131.05
381.65	4014.02
381.85	3925.08
382.04	3557.61
382.24	3351.65
382.43	3339.94
382.63	3311.86
382.83	3215.90
383.02	3248.66
383.22	3344.63
383.41	3419.52
383.61	3597.40
383.80	4276.16
384.00	4807.46
384.19	5397.28
384.39	5533.03
384.58	5636.01
384.78	5373.87
384.97	5270.89
385.17	5090.67
385.36	4933.85
385.56	4667.03
385.75	4992.36
385.95	5437.06
386.14	5923.90
386.34	5626.65
386.53	5205.35
386.72	5085.98
386.92	5305.99
387.11	5605.58
387.31	5619.63
387.50	5715.59
387.70	5479.19
387.89	5563.45
388.09	5401.96
388.28	5329.40
388.48	5710.91
388.67	6097.10
388.86	6878.83
389.06	7136.29
389.25	7503.76
389.45	7482.69
389.64	7435.88
389.84	7297.79
390.03	7101.19
390.22	7557.59
390.42	7801.01
390.61	8102.93
390.81	8659.98
391.00	9020.42
391.19	8507.85
391.39	8294.86
391.58	7901.65
391.78	7267.36
391.97	7206.51
392.16	6614.35
392.36	5877.09
392.55	4613.20
392.75	3667.62
392.94	3171.43
393.13	3246.32
393.33	4098.28
393.52	5114.07
393.71	6052.63
393.91	6902.24
394.10	7318.86
394.29	8285.50
394.49	8521.89
394.68	9408.95
394.88	9235.75
395.07	9598.54
395.26	9565.77
395.46	9174.90
395.65	8446.99
395.84	7169.06
396.04	5867.72
396.23	4758.31
396.42	4140.41
396.62	4329.99
396.81	5254.50
397.00	6736.06
397.19	8336.99
397.39	9774.08
397.58	11084.78
397.77	11281.38
397.97	11796.30
398.16	12030.35
398.35	12119.29
398.55	12535.91
398.74	12940.82
398.93	13575.11
399.12	13212.32
399.32	12849.54
399.51	12924.44
399.70	13954.27
399.90	13631.28
400.09	13455.74
400.28	13476.80
400.47	13956.61
400.67	14743.03
400.86	14810.91
401.05	14848.36
401.24	14850.70
401.44	15424.13
401.63	15229.87
401.82	15103.48
402.01	15098.80
402.21	15683.93
402.40	15199.44
402.59	14506.64
402.78	13998.74
402.97	13827.88
403.17	14939.64
403.36	15639.46
403.55	15882.88
403.74	16142.67
403.93	15304.76
404.13	14134.50
404.32	14258.54
404.51	15199.44
404.70	15838.41
404.89	15676.91
405.09	15543.50
405.28	15208.80
405.47	15323.49
405.66	15143.27
405.85	14759.42
406.05	14398.98
406.24	14768.78
406.43	15529.45
406.62	15552.86
406.81	15676.91
407.00	15510.73
407.20	14998.15
407.39	15358.60
407.58	15922.66
407.77	16582.70
407.96	16786.32
408.15	17172.51
408.34	17832.54
408.54	18207.03
408.73	18022.12
408.92	17701.47
409.11	17233.36
409.30	16449.28
409.49	15126.88
409.68	14333.44
409.87	14354.51
410.07	15360.94
410.26	16116.93
410.45	17219.32
410.64	18125.11
410.83	18850.67
411.02	18974.72
411.21	19524.75
411.40	19124.52
411.59	19400.70
411.78	19293.04
411.98	18948.98
412.17	19161.97
412.36	18876.42
412.55	18925.57
412.74	18541.72
412.93	18232.77
413.12	18691.52
413.31	20629.48
413.50	20489.05
413.69	20163.72
413.88	19749.44
414.07	19426.45
414.26	20119.24
414.45	20482.03
414.64	19805.61
414.83	20070.09
415.02	19810.29
415.22	19878.17
415.41	20631.82
415.60	21231.00
415.79	22082.95
415.98	22836.61
416.17	22319.35
416.36	21771.66
416.55	21305.90
416.74	20575.65
416.93	20533.52
417.12	20669.27
417.31	20533.52
417.50	21120.99
417.69	21776.34
417.88	21635.91
418.07	21284.83
418.26	21060.14
418.45	21635.91
418.64	22401.27
418.83	23302.37
419.02	22731.28
419.21	22302.96
419.39	21116.31
419.58	20568.63
419.77	20491.39
419.96	21745.92
420.15	23023.85
420.34	23618.35
420.53	24112.20
420.72	24290.08
420.91	24154.33
421.10	23873.46
421.29	23381.95
421.48	23152.58
421.67	24390.72
421.86	23105.77
422.05	20996.95
422.24	19513.05
422.43	20039.67
422.61	22286.58
422.80	23843.04
422.99	23129.17
423.18	22223.39
423.37	22661.07
423.56	22480.85
423.75	23192.37
423.94	23358.55
424.13	22214.02
424.32	22036.14
424.50	21982.31
424.69	22092.32
424.88	22656.39
425.07	22298.28
425.26	22251.47
425.45	21039.08
425.64	21181.85
425.83	21546.97
426.01	22754.69
426.20	23262.58
426.39	22717.24
426.58	20856.51
426.77	19468.58
426.96	19309.42
427.15	20273.72
427.33	21984.65
427.52	22321.69
427.71	22614.26
427.90	22171.89
428.09	21790.39
428.28	21537.61
428.46	20264.36
428.65	20453.94
428.84	21369.09
429.03	21303.56
429.22	20058.39
429.40	18497.25
429.59	16713.77
429.78	15255.61
429.97	15798.62
430.16	15316.47
430.34	15660.52
430.53	15749.46
430.72	16681.00
430.91	18696.20
431.10	21874.65
431.28	25001.60
431.47	26778.07
431.66	26024.42
431.85	23307.05
432.03	22256.15
432.22	22010.40
432.41	23480.25
432.60	25041.39
432.79	25811.43
432.97	26370.82
433.16	25413.54
433.35	22860.01
433.54	20819.07
433.72	20013.92
433.91	21305.90
434.10	23714.31
434.28	24952.45
434.47	26078.25
434.66	24945.43
434.85	24915.00
435.03	25252.04
435.22	25635.89
435.41	26913.82
435.59	27503.64
435.78	27520.02
435.97	28343.89
436.16	28477.30
436.34	28123.88
436.53	27168.94
436.72	27489.59
436.90	26185.91
437.09	25958.88
437.28	25656.95
437.46	26426.99
437.65	25919.09
437.84	23756.44
438.02	22511.27
438.21	22679.79
438.40	23880.49
438.58	25916.75
438.77	26466.78
438.96	27035.53
439.14	28032.60
439.33	28402.40
439.52	28463.25
439.70	27894.50
439.89	27089.36
440.08	27002.76
440.26	27536.40
440.45	28306.44
440.63	30576.76
440.82	31157.21
441.01	30609.53
441.19	30806.13
441.38	31157.21
441.57	31704.90
441.75	31894.48
441.94	32278.33
442.12	32105.13
442.31	33762.23
442.50	33371.36
442.68	32500.68
442.87	32147.26
443.05	31864.05
443.24	32575.58
443.43	33397.10
443.61	33633.50
443.80	33869.89
443.98	32786.22
444.17	32528.77
444.35	33294.12
444.54	34227.99
444.73	33486.04
444.91	32247.90
445.10	31236.79
445.28	30363.77
445.47	29556.28
445.65	29759.91
445.84	30885.71
446.02	31386.58
446.21	32292.37
446.39	32458.55
446.58	32994.53
446.77	33582.01
446.95	33907.34
447.14	34820.15
447.32	35246.13
447.51	34429.28
447.69	33010.92
447.88	33195.82
448.06	33909.68
448.25	34183.52
448.43	33661.58
448.62	33149.01
448.80	33385.40
448.99	33731.80
449.17	33897.98
449.36	34368.43
449.54	35943.61
449.73	35590.19
449.91	36495.97
450.10	37457.93
450.28	37268.35
450.46	37263.67
450.65	37289.42
450.83	36720.66
451.02	36240.86
451.20	36491.29
451.39	36503.00
451.57	35707.21
451.76	36339.16
451.94	35550.40
452.13	34637.59
452.31	32858.78
452.49	31618.30
452.68	32685.58
452.86	32823.67
453.05	32842.40
453.23	34682.06
453.42	34845.90
453.60	35868.71
453.78	36360.22
453.97	36144.89
454.15	35222.72
454.34	34106.29
454.52	34122.67
454.70	34188.21
454.89	34239.70
455.07	34534.60
455.26	35023.78
455.44	36524.06
455.62	37387.72
455.81	37017.91
455.99	36818.97
456.17	36833.01
456.36	37479.00
456.54	37816.04
456.73	37888.59
456.91	38312.23
457.09	38394.15
457.28	39985.71
457.46	37532.83
457.64	36907.91
457.83	36341.50
458.01	35454.44
458.19	36954.72
458.38	38066.47
458.56	38672.67
458.74	38108.60
458.93	37085.79
459.11	36814.29
459.29	36907.91
459.48	37329.20
459.66	36706.62
459.84	37228.56
460.03	38096.90
460.21	38192.86
460.39	39494.20
460.57	38705.44
460.76	38990.98
460.94	38827.15
461.12	39154.82
461.31	39374.83
461.49	39735.27
461.67	39063.54
461.85	40385.94
462.04	40189.34
462.22	40147.21
462.40	40009.12
462.59	39707.19
462.77	40116.78
462.95	40020.82
463.13	39419.30
463.32	38675.01
463.50	38501.81
463.68	38457.34
463.86	39035.45
464.05	38164.78
464.23	37504.74
464.41	37542.19
464.59	37242.60
464.78	38759.27
464.96	37914.34
465.14	37357.29
465.32	39613.57
465.50	40411.69
465.69	40804.90
465.87	39587.82
466.05	38445.64
466.23	37226.22
466.41	36154.26
466.60	37722.41
466.78	37521.13
466.96	37200.47
467.14	38904.38
467.32	38653.95
467.51	39253.12
467.69	37046.00
467.87	38677.35
468.05	39505.90
468.23	38768.63
468.41	39037.80
468.60	39227.38
468.78	39463.77
468.96	39295.25
469.14	39852.30
469.32	39639.31
469.50	37654.54
469.69	38312.23
469.87	37254.31
470.05	37532.83
470.23	37624.11
470.41	38141.37
470.59	38405.85
470.77	37921.36
470.95	39306.96
471.14	39709.53
471.32	40079.33
471.50	42476.04
471.68	41865.16
471.86	42501.79
472.04	42291.14
472.22	42101.56
472.40	40720.64
472.58	40601.27
472.77	40968.74
472.95	41097.47
473.13	42520.51
473.31	41127.89
473.49	41830.05
473.67	42029.00
473.85	42747.54
474.03	43826.53
474.21	44161.23
474.39	43796.10
474.57	43906.11
474.75	44236.12
474.93	42897.34
475.12	42213.90
475.30	43133.73
475.48	42796.70
475.66	43290.55
475.84	42562.64
476.02	43005.00
476.20	42038.36
476.38	43026.07
476.56	44594.23
476.74	44652.74
476.92	44935.95
477.10	45483.63
477.28	45848.75
477.46	46976.89
477.64	47435.64
477.82	47009.66
478.00	46899.65
478.18	45984.51
478.36	46134.30
478.54	46363.67
478.72	47117.32
478.90	48488.88
479.08	48893.79
479.26	48390.58
479.44	50293.43
479.62	49186.36
479.80	49226.15
479.98	49151.25
480.16	49237.85
480.34	48332.06
480.52	49563.18
480.70	49436.80
480.88	49822.98
481.06	49813.62
481.24	50475.99
481.41	51374.76
481.59	51854.57
481.77	50944.10
481.95	50794.31
482.13	51236.67
482.31	51388.80
482.49	51936.49
482.67	51557.32
482.85	51725.84
483.03	52416.30
483.21	52617.58
483.39	52371.83
483.57	51941.17
483.74	51983.30
483.92	51789.03
484.10	51959.89
484.28	52650.35
484.46	52769.72
484.64	53848.71
484.82	52655.03
485.00	52561.41
485.18	52020.75
485.35	49883.84
485.53	45567.89
485.71	42234.97
485.89	44079.31
486.07	46794.33
486.25	48973.37
486.43	51313.90
486.61	51480.08
486.78	51044.74
486.96	52306.29
487.14	53160.59
487.32	53939.99
487.50	54471.29
487.68	55749.22
487.85	55622.83
488.03	55533.89
488.21	54660.87
488.39	54562.57
488.57	53148.88
488.75	53776.15
488.92	55100.89
489.10	56685.43
489.28	57240.14
489.46	58045.29
489.64	57340.78
489.81	58127.20
489.99	57757.40
490.17	57918.90
490.35	58272.32
490.53	57780.81
490.70	57855.70
490.88	57542.07
491.06	58649.14
491.24	58618.72
491.41	57277.59
491.59	56378.82
491.77	55753.90
491.95	56985.02
492.13	58113.16
492.30	58609.35
492.48	59767.92
492.66	59517.48
492.84	59096.19
493.01	58735.74
493.19	58515.73
493.37	58457.22
493.54	58597.65
493.72	59611.10
493.90	60299.22
494.08	60638.60
494.25	61087.98
494.43	61483.53
494.61	61408.64
494.79	61104.37
494.96	61350.12
495.14	61102.03
495.32	59583.02
495.49	59774.94
495.67	60757.97
495.85	61490.55
496.02	62138.88
496.20	61310.33
496.38	61160.54
496.55	61024.79
496.73	61738.65
496.91	61970.36
497.09	62183.35
497.26	63049.35
497.44	61616.94
497.62	60966.27
497.79	60718.18
497.97	59973.89
498.14	60554.34
498.32	61293.95
498.50	61478.85
498.67	61537.36
498.85	61478.85
499.03	61771.42
499.20	62038.24
499.38	61645.03
499.56	61057.56
499.73	61228.41
499.91	61195.65
500.08	60432.63
500.26	60392.84
500.44	60832.86
500.61	61446.08
500.79	61073.94
500.97	60697.11
501.14	60523.91
501.32	59751.54
501.49	60177.51
501.67	60931.17
501.84	60830.52
502.02	61373.53
502.20	61616.94
502.37	61542.05
502.55	62063.99
502.72	63047.01
502.90	63370.00
503.07	62782.53
503.25	62063.99
503.43	61132.45
503.60	60750.94
503.78	61013.08
503.95	61286.93
504.13	62368.26
504.30	62941.69
504.48	62408.04
504.65	62286.34
504.83	62546.14
505.01	63086.80
505.18	63128.93
505.36	63875.56
505.53	63585.33
505.71	63267.02
505.88	63920.03
506.06	63561.93
506.23	63135.95
506.41	62709.97
506.58	62740.40
506.76	62677.21
506.93	62412.73
507.11	62705.29
507.28	62695.93
507.46	61865.04
507.63	62183.35
507.81	61968.02
507.98	62258.25
508.16	62988.50
508.33	63290.43
508.50	63362.98
508.68	63952.80
508.85	64327.28
509.03	64334.31
509.20	63915.35
509.38	63309.15
509.55	63430.86
509.73	63224.89
509.90	63194.46
510.08	63323.19
510.25	63042.33
510.42	62667.84
510.60	62967.43
510.77	63505.76
510.95	63770.24
511.12	64364.73
511.30	64903.06
511.47	64933.48
511.64	64341.33
511.82	64788.37
511.99	63601.72
512.17	63491.71
512.34	62845.72
512.51	63496.39
512.69	63671.93
512.86	62719.34
513.04	63217.87
513.21	62866.79
513.38	62466.56
513.56	61998.45
513.73	61689.50
513.90	62869.13
514.08	62445.49
514.25	62787.21
514.43	62927.64
514.60	62873.81
514.77	63341.92
514.95	63856.84
515.12	63594.70
515.29	63882.58
515.47	64205.58
515.64	64240.68
515.81	63987.91
515.99	62791.89
516.16	61109.05
516.33	59196.83
516.51	59128.95
516.68	57897.83
516.85	56896.08
517.03	58560.20
517.20	60889.04
517.37	62791.89
517.54	63405.11
517.72	62754.44
517.89	59749.20
518.06	58248.91
518.24	59458.97
518.41	60977.98
518.58	62653.80
518.75	62286.34
518.93	62136.54
519.10	61942.28
519.27	62990.84
519.45	63086.80
519.62	63873.22
519.79	63849.81
519.96	63601.72
520.14	63587.67
520.31	62581.24
520.48	62354.21
520.65	63313.83
520.83	64013.65
521.00	63407.45
521.17	63161.70
521.34	63475.33
521.52	63927.05
521.69	64317.92
521.86	64544.95
522.03	63980.88
522.20	62585.92
522.38	62026.54
522.55	62501.67
522.72	62557.84
522.89	62429.11
523.07	63414.47
523.24	64001.95
523.41	64128.34
523.58	64661.98
523.75	64680.70
523.92	64896.03
524.10	64601.13
524.27	64231.32
524.44	63711.72
524.61	63135.95
524.78	64015.99
524.96	63594.70
525.13	64032.38
525.30	64404.52
525.47	64938.16
525.64	64793.05
525.81	63732.79
525.98	62515.71
526.16	61254.16
526.33	61006.06
526.50	60484.12
526.67	60949.89
526.84	61570.13
527.01	62199.74
527.18	62480.60
527.36	63168.72
527.53	63826.41
527.70	63519.80
527.87	62632.74
528.04	63002.54
528.21	63599.38
528.38	64051.10
528.55	65165.20
528.72	64999.02
528.89	64589.42
529.07	64711.13
529.24	63533.84
529.41	63274.04
529.58	63463.63
529.75	64097.91
529.92	64439.63
530.09	64626.87
530.26	64835.18
530.43	65282.22
530.60	65066.89
530.77	65043.49
530.94	65097.32
531.11	64353.03
531.28	64294.52
531.46	64149.40
531.63	64399.84
531.80	64364.73
531.97	64055.78
532.14	63636.83
532.31	62344.85
532.48	61635.67
532.65	62078.03
532.82	62595.29
532.99	64619.85
533.16	64666.66
533.33	64547.29
533.50	64463.03
533.67	63746.83
533.84	63744.49
534.01	64025.35
534.18	63854.50
534.35	63781.94
534.52	63112.55
534.69	63732.79
534.86	64336.65
535.03	64619.85
535.20	64549.63
535.37	65235.41
535.54	65420.31
535.71	64563.68
535.88	64790.71
536.05	63793.64
536.22	63316.17
536.38	63248.30
536.55	63182.76
536.72	62569.54
536.89	63217.87
537.06	63238.93
537.23	63985.57
537.40	63358.30
537.57	63433.20
537.74	63723.43
537.91	63931.73
538.08	63634.48
538.25	64189.19
538.42	64659.64
538.59	64271.11
538.75	63590.01
538.92	62642.10
539.09	62946.37
539.26	63054.03
539.43	62979.14
539.60	62487.62
539.77	63201.49
539.94	62756.78
540.11	62164.63
540.28	61806.53
540.44	61794.82
540.61	62021.86
540.78	62630.40
540.95	62773.17
541.12	62927.64
541.29	63175.74
541.46	63079.78
541.62	63868.54
541.79	62960.41
541.96	62599.97
542.13	62990.84
542.30	63089.14
542.47	62929.98
542.63	63021.26
542.80	62979.14
542.97	62709.97
543.14	62934.66
543.31	63051.69
543.48	63845.13
543.64	64144.72
543.81	64467.72
543.98	64420.90
544.15	63412.13
544.32	63482.35
544.48	63229.57
544.65	63166.38
544.82	63641.51
544.99	62953.39
545.16	62712.31
545.32	62782.53
545.49	63639.17
545.66	63786.62
545.83	63430.86
546.00	63798.32
546.16	62955.73
546.33	62894.88
546.50	62625.71
546.67	63384.05
546.83	63178.08
547.00	63416.82
547.17	62110.80
547.34	61520.98
547.50	61518.64
547.67	62209.10
547.84	62812.96
548.00	63337.24
548.17	63227.23
548.34	63470.65
548.51	63236.59
548.67	62642.10
548.84	62913.60
549.01	63393.41
549.18	62695.93
549.34	62976.79
549.51	63482.35
549.68	63613.42
549.84	62527.41
550.01	61928.23
550.18	62284.00
550.34	62461.88
550.51	62550.82
550.68	62906.58
550.84	63386.39
551.01	62328.47
551.18	62199.74
551.34	62618.69
551.51	63367.66
551.68	63398.09
551.84	64140.04
552.01	63124.25
552.18	62583.58
552.34	61853.34
552.51	61602.90
552.68	61530.34
552.84	62136.54
553.01	62185.69
553.18	61829.93
553.34	62326.13
553.51	62482.94
553.67	62894.88
553.84	63051.69
554.01	63515.12
554.17	62450.17
554.34	62529.75
554.51	62473.58
554.67	62159.95
554.84	62405.70
555.00	61663.75
555.17	61939.94
555.33	62103.77
555.50	61963.34
555.67	62115.48
555.83	62658.48
556.00	61687.16
556.16	61677.80
556.33	61394.59
556.50	61715.25
556.66	61509.28
556.83	61123.09
556.99	61146.50
557.16	61925.89
557.32	61176.92
557.49	61998.45
557.65	61797.16
557.82	61937.60
557.98	61982.07
558.15	61359.48
558.32	60935.85
558.48	60285.18
558.65	59971.55
558.81	60261.77
558.98	61132.45
559.14	60743.92
559.31	60828.18
559.47	60736.90
559.64	60739.24
559.80	60074.53
559.97	60566.04
560.13	61265.86
560.30	62017.17
560.46	62447.83
560.63	62707.63
560.79	62871.47
560.96	61670.78
561.12	60917.12
561.29	61036.49
561.45	61099.68
561.61	61759.72
561.78	60636.26
561.94	60928.83
562.11	60863.29
562.27	60498.17
562.44	61446.08
562.60	61673.12
562.77	61659.07
562.93	61340.76
563.10	61279.91
563.26	61497.58
563.42	61317.35
563.59	61310.33
563.75	60837.54
563.92	60795.42
564.08	60767.33
564.24	61661.41
564.41	60783.71
564.57	61865.04
564.74	61015.43
564.90	60928.83
565.07	60416.25
565.23	59751.54
565.39	59388.75
565.56	59498.76
565.72	60100.28
565.88	59681.32
566.05	61162.88
566.21	60301.56
566.38	60395.18
566.54	60956.91
566.70	61780.78
566.87	61272.88
567.03	61286.93
567.19	61865.04
567.36	61715.25
567.52	60741.58
567.68	60317.95
567.85	59767.92
568.01	60121.34
568.17	60037.08
568.34	60095.60
568.50	59531.53
568.66	59330.24
568.83	59248.32
568.99	59171.08
569.15	59496.42
569.32	59243.64
569.48	59566.63
569.64	59669.62
569.81	59330.24
569.97	59386.41
570.13	58433.81
570.30	57677.82
570.46	57937.62
570.62	57464.83
570.78	57860.38
570.95	58394.03
571.11	59194.49
571.27	58251.25
571.43	59194.49
571.60	58969.80
571.76	59487.06
571.92	59828.77
572.09	60062.83
572.25	59620.47
572.41	59147.68
572.57	59540.89
572.74	59964.52
572.90	60285.18
573.06	60502.85
573.22	60453.70
573.38	60238.37
573.55	60802.44
573.71	59746.86
573.87	59456.63
574.03	59723.45
574.20	59032.99
574.36	58433.81
574.52	58513.39
574.68	58560.20
574.84	58342.53
575.01	57996.13
575.17	57408.66
575.33	58323.81
575.49	58609.35
575.65	57680.16
575.82	57710.59
575.98	58344.87
576.14	58965.12
576.30	59540.89
576.46	58267.64
576.62	58269.98
576.79	58658.51
576.95	58660.85
577.11	58864.47
577.27	58461.90
577.43	58543.82
577.59	58440.84
577.75	57949.32
577.92	57799.53
578.08	57979.75
578.24	57743.36
578.40	57783.15
578.56	56914.81
578.72	57691.86
578.88	57565.48
579.04	58174.02
579.21	57649.74
579.37	57813.57
579.53	57881.45
579.69	57567.82
579.85	57169.93
580.01	57261.21
580.17	57146.52
580.33	57649.74
580.49	58005.50
580.65	57923.58
580.82	58064.01
580.98	57836.98
581.14	57818.25
581.30	57528.03
581.46	57102.05
581.62	57572.50
581.78	58288.70
581.94	58365.94
582.10	58171.67
582.26	58489.99
582.42	58382.32
582.58	58092.10
582.74	57895.49
582.90	57691.86
583.06	58588.29
583.22	58183.38
583.38	58164.65
583.54	58178.70
583.70	57991.45
583.86	58454.88
584.02	57099.71
584.18	57406.32
584.34	57315.04
584.50	57064.60
584.66	57095.03
584.82	57237.80
584.98	57174.61
585.14	56439.68
585.30	56193.92
