SpectraSuite Data File
++++++++++++++++++++++++++++++++++++
Date: Mon Oct 07 14:53:31 GMT-05:00 2013
User: price-jones
Dark Spectrum Present: No
Reference Spectrum Present: No
Number of Sampled Component Spectra: 1
Spectrometers: USB2+H05261
Integration Time (usec): 100000 (USB2+H05261)
Spectra Averaged: 1 (USB2+H05261)
Boxcar Smoothing: 0 (USB2+H05261)
Correct for Electrical Dark: No (USB2+H05261)
Strobe/Lamp Enabled: No (USB2+H05261)
Correct for Detector Non-linearity: No (USB2+H05261)
Correct for Stray Light: No (USB2+H05261)
Number of Pixels in Processed Spectrum: 2048
>>>>>Begin Processed Spectral Data<<<<<
365.73	0.00
365.92	0.00
366.12	0.00
366.32	0.00
366.52	0.00
366.72	0.00
366.91	0.00
367.11	0.00
367.31	0.00
367.51	0.00
367.70	0.00
367.90	0.00
368.10	0.00
368.30	0.00
368.49	0.00
368.69	0.00
368.89	0.00
369.09	0.00
369.28	0.00
369.48	0.00
369.68	0.00
369.87	0.00
370.07	0.00
370.27	0.00
370.47	634.29
370.66	2899.92
370.86	3391.44
371.06	3770.60
371.25	3831.46
371.45	3330.58
371.65	3136.32
371.84	2874.18
372.04	2890.56
372.24	3358.67
372.44	3590.38
372.63	3435.91
372.83	3206.53
373.03	3045.04
373.22	2663.53
373.42	2803.96
373.62	3190.15
373.81	3658.26
374.01	3536.55
374.21	3178.45
374.40	2916.31
374.60	3091.85
374.79	3426.54
374.99	3859.54
375.19	4428.29
375.38	4465.74
375.58	3953.16
375.78	3943.80
375.97	4112.32
376.17	4205.94
376.37	4287.86
376.56	4341.69
376.76	4587.45
376.95	4725.54
377.15	5139.82
377.35	5434.72
377.54	5645.37
377.74	5802.19
377.93	5764.74
378.13	5640.69
378.33	5387.91
378.52	5067.26
378.72	4816.82
378.91	4896.40
379.11	4545.32
379.31	4369.78
379.50	4369.78
379.70	4702.14
379.89	5282.59
380.09	5451.11
380.28	5708.57
380.48	5659.42
380.68	5413.66
380.87	5497.92
381.07	5064.92
381.26	4748.95
381.46	4444.68
381.65	4341.69
381.85	4255.09
382.04	3927.42
382.24	3578.68
382.43	3400.80
382.63	3375.05
382.83	3588.04
383.02	3456.97
383.22	3361.01
383.41	3405.48
383.61	3779.97
383.80	4231.69
384.00	4894.06
384.19	5526.00
384.39	5703.89
384.58	5664.10
384.78	5497.92
384.97	5465.15
385.17	5245.14
385.36	4990.02
385.56	4784.06
385.75	4933.85
385.95	5158.54
386.14	5930.92
386.34	5956.66
386.53	5575.16
386.72	5317.70
386.92	5315.36
387.11	5568.13
387.31	5987.09
387.50	5631.33
387.70	5596.22
387.89	5467.49
388.09	5427.70
388.28	5591.54
388.48	5671.12
388.67	6085.39
388.86	6731.38
389.06	7169.06
389.25	7651.21
389.45	7557.59
389.64	7527.16
389.84	7449.93
390.03	7248.64
390.22	7162.04
390.42	7370.35
390.61	8177.83
390.81	8814.46
391.00	8767.65
391.19	8753.60
391.39	8486.78
391.58	8046.76
391.78	7578.65
391.97	7353.96
392.16	6810.96
392.36	6050.28
392.55	4938.53
392.75	3985.93
392.94	3260.37
393.13	3215.90
393.33	3709.75
393.52	4887.04
393.71	5781.12
393.91	6679.89
394.10	7180.76
394.29	7810.37
394.49	8456.36
394.68	9226.39
394.88	9280.22
395.07	9598.54
395.26	9509.60
395.46	9097.66
395.65	8491.46
395.84	7721.43
396.04	6588.61
396.23	5203.01
396.42	4472.76
396.62	4257.43
396.81	4777.03
397.00	6363.92
397.19	8145.06
397.39	9217.03
397.58	10438.79
397.77	10977.11
397.97	11417.13
398.16	11623.10
398.35	11964.82
398.55	12353.35
398.74	12659.96
398.93	13275.52
399.12	12894.01
399.32	12678.68
399.51	12950.18
399.70	13748.31
399.90	13518.93
400.09	13699.16
400.28	13254.45
400.47	13542.34
400.67	14356.85
400.86	14504.30
401.05	14382.59
401.24	14579.20
401.44	14661.12
401.63	14670.48
401.82	15084.75
402.01	14850.70
402.21	14965.39
402.40	15372.64
402.59	14960.70
402.78	14314.72
402.97	13701.50
403.17	14075.98
403.36	15019.22
403.55	15578.61
403.74	15936.71
403.93	15171.35
404.13	14164.92
404.32	13617.24
404.51	14279.61
404.70	15641.80
404.89	15344.55
405.09	15255.61
405.28	14937.30
405.47	14843.68
405.66	14761.76
405.85	14377.91
406.05	14085.34
406.24	14115.77
406.43	14930.28
406.62	15367.96
406.81	15335.19
407.00	14965.39
407.20	14513.66
407.39	14707.93
407.58	15372.64
407.77	15770.53
407.96	16283.11
408.15	16568.65
408.34	16861.22
408.54	17261.45
408.73	17516.57
408.92	17355.07
409.11	16863.56
409.30	16240.98
409.49	15028.58
409.68	14029.17
409.87	13575.11
410.07	14429.40
410.26	15506.05
410.45	16517.16
410.64	17097.61
410.83	17535.29
411.02	18008.08
411.21	18738.33
411.40	18424.70
411.59	18455.12
411.78	18078.30
411.98	18127.45
412.17	18654.07
412.36	18260.86
412.55	17958.93
412.74	17776.37
412.93	17404.22
413.12	17570.40
413.31	18951.32
413.50	19131.54
413.69	19817.32
413.88	18970.04
414.07	18129.79
414.26	18775.78
414.45	19445.17
414.64	19351.55
414.83	19178.35
415.02	18963.02
415.22	18920.89
415.41	19733.06
415.60	20128.61
415.79	20985.24
415.98	21514.20
416.17	21326.96
416.36	20561.61
416.55	20376.70
416.74	20039.67
416.93	19300.06
417.12	19187.71
417.31	19365.59
417.50	19950.73
417.69	20526.50
417.88	20650.55
418.07	20177.76
418.26	19763.48
418.45	19978.81
418.64	20655.23
418.83	21322.28
419.02	21366.75
419.21	21036.74
419.39	20095.84
419.58	19346.87
419.77	19398.36
419.96	19950.73
420.15	21404.20
420.34	21790.39
420.53	22689.15
420.72	23431.10
420.91	22551.06
421.10	22628.30
421.29	22106.36
421.48	21427.60
421.67	22684.47
421.86	22092.32
422.05	20863.54
422.24	18422.36
422.43	18136.81
422.61	19772.85
422.80	21991.67
422.99	21984.65
423.18	21413.56
423.37	20615.44
423.56	20643.52
423.75	20968.86
423.94	21422.92
424.13	20512.46
424.32	20526.50
424.50	20790.98
424.69	20350.96
424.88	20292.44
425.07	20315.85
425.26	20601.40
425.45	20086.48
425.64	19730.72
425.83	19814.98
426.01	21027.37
426.20	21394.84
426.39	21205.25
426.58	19751.78
426.77	18302.99
426.96	17582.10
427.15	18265.54
427.33	19915.62
427.52	20432.88
427.71	20442.24
427.90	20372.02
428.09	20308.83
428.28	19871.15
428.46	19302.40
428.65	18721.95
428.84	19288.35
429.03	19597.31
429.22	18288.95
429.40	17530.61
429.59	16049.05
429.78	14012.79
429.97	14118.11
430.16	14178.97
430.34	14574.52
430.53	14492.60
430.72	14469.19
430.91	16219.91
431.10	18838.97
431.28	22363.82
431.47	24355.61
431.66	24814.36
431.85	22537.02
432.03	20568.63
432.22	19580.92
432.41	20327.55
432.60	22712.56
432.79	23758.78
432.97	24173.05
433.16	23950.70
433.35	21603.14
433.54	19311.76
433.72	18223.41
433.91	18679.82
434.10	20929.07
434.28	22742.99
434.47	23742.39
434.66	23417.06
434.85	22827.24
435.03	22623.62
435.22	23187.69
435.41	25013.31
435.59	24568.60
435.78	24980.54
435.97	25619.50
436.16	25333.96
436.34	25406.52
436.53	25249.70
436.72	24758.19
436.90	23618.35
437.09	23531.75
437.28	23009.81
437.46	23983.47
437.65	23791.55
437.84	22696.17
438.02	20357.98
438.21	20320.53
438.40	21385.47
438.58	23140.88
438.77	23564.51
438.96	24166.03
439.14	25025.01
439.33	25340.98
439.52	26064.21
439.70	25553.97
439.89	25301.19
440.08	24238.59
440.26	24332.21
440.45	24847.13
440.63	26567.42
440.82	28187.07
441.01	27974.08
441.19	27765.78
441.38	27786.84
441.57	28732.42
441.75	29317.55
441.94	29387.77
442.12	29172.44
442.31	29860.55
442.50	29666.29
442.68	29869.92
442.87	29261.38
443.05	28341.55
443.24	28996.90
443.43	29408.83
443.61	30026.73
443.80	30611.87
443.98	28842.42
444.17	28903.28
444.35	30211.64
444.54	31009.76
444.73	30316.96
444.91	29041.37
445.10	27948.34
445.28	27192.34
445.47	26448.05
445.65	27061.27
445.84	27285.97
446.02	28659.86
446.21	29193.50
446.39	28980.51
446.58	29308.19
446.77	29780.98
446.95	29972.90
447.14	31000.40
447.32	31356.16
447.51	31007.42
447.69	29450.96
447.88	29193.50
448.06	29626.50
448.25	30185.89
448.43	30562.72
448.62	29685.01
448.80	29855.87
448.99	30136.74
449.17	30333.34
449.36	30274.83
449.54	31222.75
449.73	31601.91
449.91	32016.19
450.10	33287.10
450.28	33558.60
450.46	33521.15
450.65	33701.37
450.83	33149.01
451.02	32390.67
451.20	32210.45
451.39	32095.77
451.57	31868.73
451.76	31992.78
451.94	31740.00
452.13	31185.30
452.31	29963.54
452.49	28613.05
452.68	28971.15
452.86	28985.19
453.05	29029.66
453.23	30235.04
453.42	30700.81
453.60	31527.02
453.78	31943.63
453.97	31721.28
454.15	31344.45
454.34	30857.62
454.52	30705.49
454.70	30480.80
454.89	31119.76
455.07	30969.97
455.26	31225.09
455.44	32444.51
455.62	33198.16
455.81	33174.75
455.99	33340.93
456.17	32414.08
456.36	32540.47
456.54	33804.36
456.73	33677.97
456.91	34117.99
457.09	34117.99
457.28	35182.93
457.46	33853.51
457.64	33312.84
457.83	32355.57
458.01	31562.12
458.19	32041.93
458.38	32816.65
458.56	33670.95
458.74	33422.85
458.93	33469.66
459.11	32961.76
459.29	32219.81
459.48	32837.72
459.66	32084.06
459.84	32863.46
460.03	33605.41
460.21	33600.73
460.39	34019.69
460.57	34375.45
460.76	34852.92
460.94	34941.86
461.12	34017.35
461.31	34745.25
461.49	34522.90
461.67	34600.14
461.85	35524.65
462.04	34789.72
462.22	35639.34
462.40	35318.68
462.59	35042.50
462.77	35349.11
462.95	34911.43
463.13	34508.86
463.32	34302.89
463.50	34284.17
463.68	34415.24
463.86	34216.29
464.05	34162.46
464.23	33436.89
464.41	33062.41
464.59	32086.40
464.78	34192.89
464.96	34017.35
465.14	33420.51
465.32	34782.70
465.50	35395.92
465.69	35323.36
465.87	35381.88
466.05	34237.36
466.23	32460.89
466.41	31842.99
466.60	32589.62
466.78	32870.48
466.96	33266.03
467.14	33876.91
467.32	34422.26
467.51	34476.09
467.69	32643.45
467.87	33144.33
468.05	34043.09
468.23	34150.76
468.41	34288.85
468.60	34307.57
468.78	34387.15
468.96	34110.97
469.14	34913.77
469.32	34869.30
469.50	33619.46
469.69	33582.01
469.87	32959.42
470.05	32989.85
470.23	32903.25
470.41	33053.05
470.59	33684.99
470.77	33837.12
470.95	34686.74
471.14	34876.32
471.32	34960.58
471.50	36776.84
471.68	36931.31
471.86	37223.88
472.04	37219.20
472.22	37539.85
472.40	35557.42
472.58	35328.05
472.77	34976.97
472.95	35548.06
473.13	36664.49
473.31	35508.27
473.49	35854.67
473.67	36828.33
473.85	37060.04
474.03	37804.33
474.21	37785.61
474.39	38047.75
474.57	38405.85
474.75	37933.06
474.93	38000.94
475.12	37258.99
475.30	37111.53
475.48	37343.25
475.66	37694.33
475.84	37420.48
476.02	36751.09
476.20	36758.11
476.38	37031.96
476.56	38326.27
476.74	39210.99
476.92	39108.01
477.10	39852.30
477.28	41251.94
477.46	40940.65
477.64	41214.49
477.82	41612.38
478.00	41387.69
478.18	40849.37
478.36	41043.63
478.54	40758.09
478.72	41593.66
478.90	42052.41
479.08	42766.27
479.26	44170.59
479.44	43688.44
479.62	43225.01
479.80	43014.37
479.98	43674.40
480.16	43716.53
480.34	43512.90
480.52	43885.04
480.70	43828.87
480.88	44002.07
481.06	44973.39
481.24	44980.42
481.41	45841.73
481.59	46370.69
481.77	45918.97
481.95	45521.08
482.13	45467.25
482.31	45315.11
482.49	45975.14
482.67	46064.08
482.85	46038.34
483.03	46569.64
483.21	47372.44
483.39	47606.50
483.57	46424.53
483.74	46185.79
483.92	46515.81
484.10	46534.53
484.28	47899.06
484.46	47936.51
484.64	48566.12
484.82	47342.02
485.00	46972.21
485.18	46279.41
485.35	45359.58
485.53	42078.15
485.71	38663.31
485.89	37574.96
486.07	39335.04
486.25	42553.28
486.43	45179.36
486.61	46178.77
486.78	45940.04
486.96	46284.09
487.14	47966.94
487.32	48285.25
487.50	49570.21
487.68	50162.36
487.85	51016.66
488.03	50944.10
488.21	50670.26
488.39	49961.08
488.57	49064.65
488.75	48783.79
488.92	49909.58
489.10	52435.02
489.28	53312.72
489.46	53984.46
489.64	53832.32
489.81	54258.30
489.99	53586.57
490.17	53708.27
490.35	54195.10
490.53	53984.46
490.70	53413.37
490.88	53071.65
491.06	54049.99
491.24	54270.00
491.41	52980.37
491.59	51810.10
491.77	50836.44
491.95	51859.25
492.13	52975.69
492.30	54124.89
492.48	55358.35
492.66	55587.72
492.84	55456.65
493.01	55283.45
493.19	54660.87
493.37	54337.88
493.54	54157.66
493.72	54817.69
493.90	55681.34
494.08	56465.42
494.25	56493.51
494.43	56797.78
494.61	57179.29
494.79	57598.24
494.96	57310.36
495.14	56458.40
495.32	55714.11
495.49	55058.76
495.67	56023.06
495.85	57343.12
496.02	57537.39
496.20	57495.26
496.38	56917.15
496.55	57059.92
496.73	57469.51
496.91	57476.54
497.09	58288.70
497.26	58464.24
497.44	57757.40
497.62	57275.25
497.79	56500.53
497.97	55112.59
498.14	55571.34
498.32	56537.98
498.50	57350.15
498.67	58284.02
498.85	57879.11
499.03	58122.52
499.20	58164.65
499.38	58419.77
499.56	58056.99
499.73	57729.31
499.91	57062.26
500.08	56832.89
500.26	56133.07
500.44	56509.89
500.61	57467.17
500.79	57097.37
500.97	56856.29
501.14	56542.66
501.32	56453.72
501.49	56388.19
501.67	56760.33
501.84	57333.76
502.02	57240.14
502.20	57939.96
502.37	57867.40
502.55	57799.53
502.72	58492.33
502.90	59105.55
503.07	58616.38
503.25	58279.34
503.43	57329.08
503.60	57031.83
503.78	56112.00
503.95	56371.80
504.13	58120.18
504.30	58698.30
504.48	58452.54
504.65	58225.51
504.83	58211.46
505.01	58958.09
505.18	59040.01
505.36	59695.36
505.53	59901.33
505.71	60044.10
505.88	59997.29
506.06	59388.75
506.23	58993.20
506.41	58707.66
506.58	59032.99
506.76	58829.37
506.93	58993.20
507.11	58679.57
507.28	58782.55
507.46	58398.71
507.63	57717.61
507.81	57577.18
507.98	57869.75
508.16	58436.16
508.33	59091.51
508.50	59447.27
508.68	59634.51
508.85	60301.56
509.03	60119.00
509.20	60088.57
509.38	59241.30
509.55	58529.78
509.73	58630.42
509.90	59189.81
510.08	59400.46
510.25	59243.64
510.42	59035.33
510.60	59112.57
510.77	59267.05
510.95	60037.08
511.12	59849.84
511.30	60093.25
511.47	60252.41
511.64	60437.31
511.82	60030.06
511.99	59269.39
512.17	59051.72
512.34	58527.44
512.51	58810.64
512.69	58986.18
512.86	59201.51
513.04	59545.57
513.21	59475.35
513.38	59152.36
513.56	58649.14
513.73	58199.76
513.90	58365.94
514.08	58478.28
514.25	58518.07
514.43	58789.58
514.60	59016.61
514.77	59004.91
514.95	59213.21
515.12	59140.66
515.29	59386.41
515.47	59777.28
515.64	59964.52
515.81	59351.30
515.99	59098.53
516.16	57708.25
516.33	55466.02
516.51	54227.87
516.68	53186.33
516.85	52940.58
517.03	53092.71
517.20	55831.14
517.37	58307.43
517.54	59250.66
517.72	58693.61
517.89	56486.49
518.06	53748.06
518.24	54241.92
518.41	56516.92
518.58	57745.70
518.75	57954.00
518.93	58354.24
519.10	58010.18
519.27	58555.52
519.45	58667.87
519.62	59231.94
519.79	59826.43
519.96	59231.94
520.14	58993.20
520.31	58181.04
520.48	58358.92
520.65	58581.27
520.83	59414.50
521.00	59819.41
521.17	59519.82
521.34	59159.38
521.52	59611.10
521.69	59842.82
521.86	60402.21
522.03	60128.36
522.20	58993.20
522.38	57939.96
522.55	57895.49
522.72	58459.56
522.89	58693.61
523.07	58829.37
523.24	59320.88
523.41	59906.01
523.58	60259.43
523.75	60584.77
523.92	60498.17
524.10	60446.68
524.27	60376.46
524.44	60254.75
524.61	59852.18
524.78	59901.33
524.96	60027.72
525.13	59910.69
525.30	60219.64
525.47	60535.62
525.64	60465.40
525.81	59765.58
525.98	58468.92
526.16	56982.68
526.33	56570.75
526.50	55966.89
526.67	55810.07
526.84	56460.74
527.01	57172.27
527.18	58035.92
527.36	58681.91
527.53	59704.73
527.70	60130.70
527.87	59400.46
528.04	59047.04
528.21	59545.57
528.38	60006.65
528.55	60867.97
528.72	61043.51
528.89	61212.03
529.07	61109.05
529.24	60247.73
529.41	59405.14
529.58	59032.99
529.75	59187.47
529.92	59456.63
530.09	59861.54
530.26	60491.15
530.43	60739.24
530.60	60830.52
530.77	60832.86
530.94	61020.11
531.11	60687.75
531.28	60247.73
531.46	60238.37
531.63	60079.21
531.80	60135.38
531.97	59800.69
532.14	58934.69
532.31	58028.90
532.48	57359.51
532.65	57403.98
532.82	58375.30
532.99	59290.45
533.16	59657.91
533.33	60184.54
533.50	60041.76
533.67	59187.47
533.84	58855.11
534.01	59323.22
534.18	59365.35
534.35	59749.20
534.52	59501.10
534.69	59714.09
534.86	59952.82
535.03	60140.07
535.20	60397.52
535.37	60853.93
535.54	61095.00
535.71	60828.18
535.88	60519.23
536.05	59723.45
536.22	59533.87
536.38	58995.54
536.55	58698.30
536.72	58246.57
536.89	58127.20
537.06	58829.37
537.23	59721.11
537.40	59915.37
537.57	59901.33
537.74	59749.20
537.91	59620.47
538.08	59608.76
538.25	59718.77
538.42	59847.50
538.59	59760.90
538.75	59147.68
538.92	58859.79
539.09	58562.54
539.26	58447.86
539.43	58120.18
539.60	58234.87
539.77	58511.05
539.94	58539.14
540.11	57930.60
540.28	57216.74
540.44	57291.63
540.61	57595.90
540.78	57563.14
540.95	58319.13
541.12	58749.79
541.29	58918.31
541.46	59241.30
541.62	59250.66
541.79	59089.16
541.96	58520.41
542.13	58394.03
542.30	58857.45
542.47	58871.49
542.63	58724.04
542.80	58508.71
542.97	58583.61
543.14	58548.50
543.31	58412.75
543.48	58885.54
543.64	59620.47
543.81	59896.65
543.98	59889.63
544.15	59199.17
544.32	58410.41
544.48	58782.55
544.65	59049.38
544.82	59730.47
544.99	59213.21
545.16	58894.90
545.32	58513.39
545.49	59264.70
545.66	59786.64
545.83	59391.09
546.00	59009.59
546.16	58677.23
546.33	58590.63
546.50	58717.02
546.67	59124.27
546.83	58897.24
547.00	58866.81
547.17	58099.12
547.34	57469.51
547.50	57631.01
547.67	57911.88
547.84	58101.46
548.00	58342.53
548.17	58798.94
548.34	58798.94
548.51	58649.14
548.67	58869.15
548.84	58733.40
549.01	58756.81
549.18	58602.33
549.34	58646.80
549.51	58417.43
549.68	58468.92
549.84	58405.73
550.01	58319.13
550.18	58033.58
550.34	58379.98
550.51	58136.57
550.68	58333.17
550.84	57958.69
551.01	58003.16
551.18	57930.60
551.34	58078.05
551.51	58408.07
551.68	58768.51
551.84	58894.90
552.01	58665.53
552.18	58440.84
552.34	57715.27
552.51	57373.55
552.68	57399.30
552.84	58134.23
553.01	58096.78
553.18	57682.50
553.34	58110.82
553.51	57984.43
553.67	58431.47
553.84	58422.11
554.01	58398.71
554.17	58391.68
554.34	58202.10
554.51	58225.51
554.67	58637.44
554.84	58681.91
555.00	58129.54
555.17	57954.00
555.33	57923.58
555.50	57911.88
555.67	57928.26
555.83	57902.51
556.00	57638.03
556.16	57434.41
556.33	57181.63
556.50	56992.04
556.66	57080.98
556.83	56760.33
556.99	56961.62
557.16	57221.42
557.32	57202.69
557.49	57572.50
557.65	57221.42
557.82	57490.58
557.98	57368.87
558.15	56903.10
558.32	55936.46
558.48	55199.19
558.65	55470.70
558.81	55927.10
558.98	56107.32
559.14	56353.08
559.31	56413.93
559.47	56516.92
559.64	56147.11
559.80	55810.07
559.97	55564.32
560.13	56128.39
560.30	56954.60
560.46	57511.64
560.63	57743.36
560.79	57956.35
560.96	57286.95
561.12	56381.16
561.29	55529.21
561.45	55583.04
561.61	55955.19
561.78	56451.38
561.94	56254.78
562.11	56322.65
562.27	56231.37
562.44	56545.00
562.60	56910.13
562.77	57020.13
562.93	56767.35
563.10	56701.82
563.26	56126.05
563.42	56282.86
563.59	55976.25
563.75	56051.15
563.92	55849.86
564.08	56163.50
564.24	56299.25
564.41	56453.72
564.57	56203.28
564.74	56058.17
564.90	55978.59
565.07	55770.28
565.23	55283.45
565.39	54990.89
565.56	54897.27
565.72	54515.76
565.88	54805.98
566.05	54995.57
566.21	55217.92
566.38	55433.25
566.54	55571.34
566.70	55786.67
566.87	55884.97
567.03	55899.01
567.19	56229.03
567.36	55976.25
567.52	55695.39
567.68	55655.60
567.85	54918.33
568.01	54424.48
568.17	54279.36
568.34	54150.63
568.50	54143.61
568.66	54054.67
568.83	54681.94
568.99	55150.04
569.15	54815.35
569.32	54866.84
569.48	54452.56
569.64	54443.20
569.81	54075.74
569.97	54042.97
570.13	53900.20
570.30	53497.62
570.46	53242.51
570.62	52577.79
570.78	52350.76
570.95	52963.98
571.11	53518.69
571.27	53764.45
571.43	54038.29
571.60	54368.30
571.76	54431.50
571.92	54733.43
572.09	54962.80
572.25	54717.04
572.41	54527.46
572.57	54747.47
572.74	54658.53
572.90	54305.11
573.06	54419.80
573.22	54143.61
573.38	53939.99
573.55	54351.92
573.71	54494.69
573.87	54255.96
574.03	54120.21
574.20	54089.78
574.36	53797.21
574.52	53947.01
574.68	53364.21
574.84	53179.31
575.01	52788.44
575.17	52594.18
575.33	53022.50
575.49	53029.52
575.65	53233.14
575.82	53069.31
575.98	52858.66
576.14	53375.92
576.30	53509.33
576.46	53389.96
576.62	53453.15
576.79	53343.15
576.95	52884.40
577.11	52973.34
577.27	52999.09
577.43	53193.36
577.59	52774.40
577.75	52030.11
577.92	51634.56
578.08	51594.77
578.24	51702.43
578.40	51957.55
578.56	51817.12
578.72	52072.24
578.88	52645.67
579.04	52289.91
579.21	52673.76
579.37	52549.71
579.53	52790.78
579.69	52655.03
579.85	53092.71
580.01	52961.64
580.17	52446.72
580.33	52072.24
580.49	52322.68
580.65	52303.95
580.82	52804.83
580.98	52547.37
581.14	52743.97
581.30	52664.39
581.46	52409.28
581.62	52877.38
581.78	52694.82
581.94	52921.85
582.10	52769.72
582.26	53029.52
582.42	52626.95
582.58	52612.90
582.74	53081.01
582.90	52872.70
583.06	52851.64
583.22	52346.08
583.38	52617.58
583.54	52280.55
583.70	52411.62
583.86	52313.31
584.02	52610.56
584.18	52568.43
584.34	52411.62
584.50	52168.20
584.66	51964.57
584.82	51948.19
584.98	51854.57
585.14	51124.32
585.30	50443.23
