SpectraSuite Data File
++++++++++++++++++++++++++++++++++++
Date: Mon Oct 07 14:54:57 GMT-05:00 2013
User: price-jones
Dark Spectrum Present: No
Reference Spectrum Present: No
Number of Sampled Component Spectra: 1
Spectrometers: USB2+H05261
Integration Time (usec): 10000 (USB2+H05261)
Spectra Averaged: 1 (USB2+H05261)
Boxcar Smoothing: 0 (USB2+H05261)
Correct for Electrical Dark: No (USB2+H05261)
Strobe/Lamp Enabled: No (USB2+H05261)
Correct for Detector Non-linearity: No (USB2+H05261)
Correct for Stray Light: No (USB2+H05261)
Number of Pixels in Processed Spectrum: 2048
>>>>>Begin Processed Spectral Data<<<<<
365.73	0.00
365.92	0.00
366.12	0.00
366.32	0.00
366.52	0.00
366.72	0.00
366.91	0.00
367.11	0.00
367.31	0.00
367.51	0.00
367.70	0.00
367.90	0.00
368.10	0.00
368.30	0.00
368.49	0.00
368.69	0.00
368.89	0.00
369.09	0.00
369.28	0.00
369.48	0.00
369.68	0.00
369.87	0.00
370.07	0.00
370.27	0.00
370.47	657.69
370.66	3342.28
370.86	3854.86
371.06	4067.85
371.25	4124.02
371.45	3681.66
371.65	3232.28
371.84	3286.11
372.04	3454.63
372.24	3822.09
372.44	3831.46
372.63	3763.58
372.83	3468.67
373.03	3073.12
373.22	3019.29
373.42	3129.30
373.62	3602.08
373.81	3871.25
374.01	3606.77
374.21	3323.56
374.40	3176.11
374.60	3410.16
374.79	4023.38
374.99	4681.07
375.19	4718.52
375.38	4634.26
375.58	4442.34
375.78	4421.27
375.97	4503.19
376.17	4550.00
376.37	4580.43
376.56	4830.87
376.76	5050.88
376.95	5404.30
377.15	5753.04
377.35	5996.45
377.54	6113.48
377.74	6466.90
377.93	6291.36
378.13	6033.90
378.33	5769.42
378.52	5427.70
378.72	5217.05
378.91	4884.70
379.11	4933.85
379.31	4744.27
379.50	4973.64
379.70	5263.86
379.89	5731.97
380.09	6012.84
380.28	6392.00
380.48	6232.85
380.68	6134.54
380.87	5806.87
381.07	5444.09
381.26	5008.75
381.46	4837.89
381.65	4641.28
381.85	4496.17
382.04	4126.36
382.24	3882.95
382.43	3786.99
382.63	3850.18
382.83	3873.59
383.02	3798.69
383.22	3805.71
383.41	3868.91
383.61	4210.62
383.80	4795.76
384.00	5420.68
384.19	6029.22
384.39	6160.29
384.58	6010.50
384.78	6026.88
384.97	6036.24
385.17	5680.48
385.36	5352.81
385.56	5277.91
385.75	5509.62
385.95	6108.80
386.14	6457.54
386.34	6399.02
386.53	5951.98
386.72	5685.16
386.92	6036.24
387.11	6459.88
387.31	6520.73
387.50	6310.08
387.70	6059.65
387.89	6148.59
388.09	6162.63
388.28	6326.47
388.48	6338.17
388.67	6951.39
388.86	7662.91
389.06	7976.55
389.25	8287.84
389.45	8409.54
389.64	8456.36
389.84	8170.81
390.03	8102.93
390.22	8355.71
390.42	8847.22
390.61	9282.56
390.81	9694.50
391.00	9963.66
391.19	9694.50
391.39	9488.53
391.58	8889.35
391.78	8365.07
391.97	8168.47
392.16	7550.57
392.36	6590.95
392.55	5114.07
392.75	4114.66
392.94	3424.20
393.13	3709.75
393.33	4451.70
393.52	5856.02
393.71	6984.16
393.91	7620.78
394.10	8587.43
394.29	9479.17
394.49	9851.31
394.68	10792.21
394.88	10483.26
395.07	11073.07
395.26	10534.75
395.46	10328.78
395.65	9570.45
395.84	8121.66
396.04	6757.13
396.23	5451.11
396.42	4655.33
396.62	4844.91
396.81	5935.60
397.00	7639.51
397.19	9305.97
397.39	10995.84
397.58	12222.28
397.77	12599.10
397.97	13071.89
398.16	13277.86
398.35	14017.47
398.55	14314.72
398.74	14850.70
398.93	14934.96
399.12	14665.80
399.32	14434.08
399.51	15051.99
399.70	15702.65
399.90	15510.73
400.09	15562.22
400.28	15822.02
400.47	15786.91
400.67	16402.47
400.86	16783.98
401.05	16727.81
401.24	16893.99
401.44	17252.09
401.63	17106.98
401.82	17270.81
402.01	17221.66
402.21	17429.97
402.40	17034.42
402.59	16772.28
402.78	15742.44
402.97	16013.95
403.17	16732.49
403.36	17415.93
403.55	18174.26
403.74	18174.26
403.93	17483.80
404.13	15894.58
404.32	16009.26
404.51	16882.28
404.70	17951.91
404.89	17680.41
405.09	17273.15
405.28	16830.79
405.47	17022.72
405.66	16903.35
405.85	16390.77
406.05	16215.23
406.24	16798.02
406.43	17483.80
406.62	17919.14
406.81	17661.68
407.00	17331.67
407.20	16933.78
407.39	17036.76
407.58	18225.75
407.77	18853.02
407.96	19087.07
408.15	19770.51
408.34	19697.95
408.54	20486.71
408.73	20704.38
408.92	20219.89
409.11	19461.55
409.30	18576.83
409.49	17027.40
409.68	15925.00
409.87	16135.65
410.07	17743.60
410.26	18972.38
410.45	19501.34
410.64	19957.75
410.83	20903.32
411.02	21221.64
411.21	21816.13
411.40	20999.29
411.59	21603.14
411.78	21617.19
411.98	21441.65
412.17	21675.70
412.36	21074.18
412.55	21228.66
412.74	20739.49
412.93	20467.98
413.12	21362.07
413.31	22862.35
413.50	22602.55
413.69	22895.12
413.88	22122.74
414.07	22038.48
414.26	22398.93
414.45	22717.24
414.64	22967.68
414.83	22948.95
415.02	22436.38
415.22	22539.36
415.41	23351.52
415.60	24077.09
415.79	24809.68
415.98	25060.12
416.17	24978.20
416.36	24390.72
416.55	24372.00
416.74	23278.97
416.93	22778.09
417.12	23112.79
417.31	23094.07
417.50	23971.77
417.69	24524.13
417.88	24170.71
418.07	24304.12
418.26	23749.42
418.45	24437.53
418.64	25111.61
418.83	26235.06
419.02	25422.90
419.21	25275.45
419.39	23854.74
419.58	23241.52
419.77	23632.39
419.96	25064.80
420.15	26118.04
420.34	26478.48
420.53	27180.64
420.72	27674.49
420.91	27623.00
421.10	26597.85
421.29	27070.64
421.48	25949.52
421.67	27498.95
421.86	26354.43
422.05	24208.16
422.24	21799.75
422.43	22675.11
422.61	25263.74
422.80	26726.58
422.99	26387.20
423.18	25329.28
423.37	24601.37
423.56	25310.55
423.75	25596.10
423.94	26246.77
424.13	24964.15
424.32	24510.09
424.50	24744.14
424.69	24781.59
424.88	24755.85
425.07	24865.85
425.26	24774.57
425.45	23779.84
425.64	23508.34
425.83	24556.90
426.01	25610.14
426.20	26665.72
426.39	25647.59
426.58	23300.03
426.77	22031.46
426.96	21628.89
427.15	22721.92
427.33	24828.40
427.52	25160.76
427.71	25329.28
427.90	24737.12
428.09	24336.89
428.28	24128.58
428.46	22855.33
428.65	22836.61
428.84	23838.36
429.03	23828.99
429.22	22441.06
429.40	21118.65
429.59	19407.72
429.78	17362.09
429.97	17558.70
430.16	17619.55
430.34	17441.67
430.53	17731.90
430.72	18466.83
430.91	21137.38
431.10	24896.28
431.28	29352.66
431.47	30485.48
431.66	29628.84
431.85	26757.00
432.03	24992.24
432.22	25170.12
432.41	26457.42
432.60	28748.80
432.79	29879.28
432.97	30225.68
433.16	29027.32
433.35	25834.83
433.54	23632.39
433.72	22780.43
433.91	24058.37
434.10	27309.37
434.28	28882.21
434.47	29394.79
434.66	28336.87
434.85	28322.82
435.03	28091.11
435.22	29294.14
435.41	30572.08
435.59	30773.36
435.78	31646.38
435.97	31906.18
436.16	31442.76
436.34	31082.31
436.53	30387.18
436.72	30958.27
436.90	29144.35
437.09	29020.30
437.28	29439.26
437.46	30450.37
437.65	29483.73
437.84	26583.80
438.02	25415.88
438.21	25989.31
438.40	26916.16
438.58	29516.50
438.77	30436.33
438.96	30321.64
439.14	32177.68
439.33	32540.47
439.52	32264.28
439.70	31887.46
439.89	30719.53
440.08	30237.38
440.26	30668.04
440.45	32259.60
440.63	34291.19
440.82	35571.46
441.01	34658.65
441.19	34366.09
441.38	35854.67
441.57	36596.62
441.75	36051.27
441.94	36177.66
442.12	36598.96
442.31	37734.12
442.50	37469.64
442.68	36837.69
442.87	36481.93
443.05	35838.28
443.24	37804.33
443.43	37701.35
443.61	38188.18
443.80	38270.10
443.98	37076.43
444.17	36568.53
444.35	38733.53
444.54	39470.79
444.73	38951.20
444.91	36383.63
445.10	35363.15
445.28	34099.26
445.47	33560.94
445.65	34068.84
445.84	35276.55
446.02	37053.02
446.21	37275.37
446.39	36655.13
446.58	37610.07
446.77	38359.04
446.95	38335.63
447.14	39793.79
447.32	40081.67
447.51	38773.31
447.69	37198.13
447.88	36978.12
448.06	37879.23
448.25	38209.25
448.43	38522.88
448.62	37780.93
448.80	37563.26
448.99	37579.64
449.17	38909.07
449.36	38925.45
449.54	39629.95
449.73	40205.72
449.91	41378.33
450.10	42878.61
450.28	42777.97
450.46	42604.77
450.65	42735.84
450.83	42234.97
451.02	40765.11
451.20	40404.67
451.39	40884.48
451.57	41212.15
451.76	40521.69
451.94	40187.00
452.13	39049.50
452.31	37893.27
452.49	37434.53
452.68	38129.67
452.86	37509.43
453.05	38003.28
453.23	40123.80
453.42	40772.13
453.60	40697.24
453.78	41057.68
453.97	40367.22
454.15	40479.57
454.34	39503.56
454.52	39491.86
454.70	39213.34
454.89	40062.95
455.07	39934.22
455.26	40584.89
455.44	41820.69
455.62	42817.76
455.81	42913.72
455.99	41544.51
456.17	41841.76
456.36	42131.98
456.54	42478.38
456.73	42642.22
456.91	43529.28
457.09	43349.06
457.28	44273.57
457.46	42642.22
457.64	42141.35
457.83	40884.48
458.01	40900.86
458.19	42632.86
458.38	42876.27
458.56	44205.70
458.74	42693.71
458.93	42391.78
459.11	42029.00
459.29	41668.56
459.48	42220.92
459.66	41539.83
459.84	42621.16
460.03	42274.76
460.21	42836.48
460.39	44580.18
460.57	43250.76
460.76	43863.98
460.94	43683.76
461.12	43452.05
461.31	43962.28
461.49	44296.98
461.67	43643.97
461.85	45237.87
462.04	45186.38
462.22	44519.33
462.40	45170.00
462.59	45317.45
462.77	45483.63
462.95	44404.64
463.13	45017.86
463.32	44364.85
463.50	44158.89
463.68	43955.26
463.86	44329.75
464.05	43700.14
464.23	42351.99
464.41	42651.58
464.59	42892.66
464.78	44566.14
464.96	43622.90
465.14	43456.73
465.32	44301.66
465.50	45474.27
465.69	45694.28
465.87	44626.99
466.05	43192.25
466.23	41689.62
466.41	40760.43
466.60	43161.82
466.78	43150.12
466.96	42560.30
467.14	43812.49
467.32	43625.25
467.51	43681.42
467.69	42438.59
467.87	43306.93
468.05	44210.38
468.23	44357.83
468.41	44081.65
468.60	44704.23
468.78	45158.30
468.96	44250.17
469.14	45382.99
469.32	44547.42
469.50	43416.94
469.69	43772.70
469.87	43260.12
470.05	43082.24
470.23	43220.33
470.41	43489.49
470.59	44175.27
470.77	43929.51
470.95	45015.52
471.14	45858.12
471.32	45549.17
471.50	48088.65
471.68	47697.78
471.86	48315.68
472.04	47927.15
472.22	47475.43
472.40	45893.22
472.58	46000.89
472.77	44933.60
472.95	46040.68
473.13	46948.81
473.31	46740.50
473.49	46527.51
473.67	47133.71
473.85	47168.82
474.03	49015.50
474.21	48802.51
474.39	49015.50
474.57	49109.12
474.75	48158.86
474.93	47332.65
475.12	47679.05
475.30	48336.74
475.48	48231.42
475.66	49361.90
475.84	47887.36
476.02	48222.06
476.20	47075.19
476.38	47725.86
476.56	49429.77
476.74	50295.77
476.92	49928.31
477.10	50827.07
477.28	51260.07
477.46	50918.35
477.64	51112.62
477.82	51948.19
478.00	52051.17
478.18	51606.47
478.36	51473.06
478.54	51889.68
478.72	52109.69
478.90	52547.37
479.08	53549.12
479.26	53396.98
479.44	53205.06
479.62	53579.54
479.80	53900.20
479.98	54169.36
480.16	54602.36
480.34	53736.36
480.52	53935.30
480.70	53820.62
480.88	54176.38
481.06	55023.65
481.24	54939.39
481.41	55236.64
481.59	55473.04
481.77	55189.83
481.95	54789.60
482.13	54761.51
482.31	54653.85
482.49	55491.76
482.67	55540.91
482.85	55978.59
483.03	56708.84
483.21	56037.11
483.39	56498.19
483.57	55938.80
483.74	55969.23
483.92	55966.89
484.10	55894.33
484.28	56842.25
484.46	57668.46
484.64	57546.75
484.82	56762.67
485.00	56004.34
485.18	55447.29
485.35	54658.53
485.53	51625.20
485.71	48664.42
485.89	50052.36
486.07	51828.82
486.25	53867.43
486.43	55526.87
486.61	55569.00
486.78	55863.91
486.96	56404.57
487.14	57272.91
487.32	57308.02
487.50	58340.19
487.68	58710.00
487.85	59107.89
488.03	58571.91
488.21	58670.21
488.39	58431.47
488.57	58241.89
488.75	57930.60
488.92	58871.49
489.10	60521.57
489.28	61340.76
489.46	61855.68
489.64	61102.03
489.81	61771.42
489.99	61387.57
490.17	61797.16
490.35	61743.33
490.53	61656.73
490.70	61528.00
490.88	61808.87
491.06	62075.69
491.24	61694.18
491.41	60882.02
491.59	60243.05
491.77	59913.03
491.95	60659.66
492.13	61565.45
492.30	62309.74
492.48	62712.31
492.66	62920.62
492.84	63047.01
493.01	62581.24
493.19	62595.29
493.37	62475.92
493.54	62274.63
493.72	63426.18
493.90	63421.50
494.08	63980.88
494.25	64032.38
494.43	64156.42
494.61	64179.83
494.79	64219.62
494.96	64266.43
495.14	63608.74
495.32	62850.41
495.49	62958.07
495.67	64062.80
495.85	64947.53
496.02	64886.67
496.20	64779.01
496.38	64547.29
496.55	64135.36
496.73	64858.59
496.91	65041.15
497.09	65535.00
497.26	65535.00
497.44	65099.66
497.62	64114.29
497.79	63126.59
497.97	62492.30
498.14	63391.07
498.32	64303.88
498.50	65031.78
498.67	65535.00
498.85	65371.16
499.03	65179.24
499.20	64987.31
499.38	65219.03
499.56	65116.04
499.73	64659.64
499.91	64919.44
500.08	64144.72
500.26	63353.62
500.44	63824.07
500.61	64921.78
500.79	64633.89
500.97	64502.82
501.14	64292.18
501.32	64001.95
501.49	64448.99
501.67	64549.63
501.84	65013.06
502.02	65155.83
502.20	64535.59
502.37	64999.02
502.55	65329.03
502.72	65535.00
502.90	65535.00
503.07	65535.00
503.25	65151.15
503.43	65085.62
503.60	63987.91
503.78	64250.05
503.95	64526.23
504.13	65535.00
504.30	65535.00
504.48	65535.00
504.65	65516.28
504.83	65535.00
505.01	65535.00
505.18	65535.00
505.36	65535.00
505.53	65535.00
505.71	65535.00
505.88	65535.00
506.06	65535.00
506.23	65535.00
506.41	65535.00
506.58	65535.00
506.76	65535.00
506.93	65535.00
507.11	65525.64
507.28	65535.00
507.46	65535.00
507.63	65535.00
507.81	65483.51
507.98	65535.00
508.16	65535.00
508.33	65535.00
508.50	65535.00
508.68	65535.00
508.85	65535.00
509.03	65535.00
509.20	65535.00
509.38	65535.00
509.55	65535.00
509.73	65535.00
509.90	65535.00
510.08	65535.00
510.25	65535.00
510.42	65535.00
510.60	65535.00
510.77	65535.00
510.95	65535.00
511.12	65535.00
511.30	65535.00
511.47	65535.00
511.64	65535.00
511.82	65535.00
511.99	65535.00
512.17	65535.00
512.34	65535.00
512.51	65535.00
512.69	65535.00
512.86	65535.00
513.04	65535.00
513.21	65535.00
513.38	65535.00
513.56	65535.00
513.73	65535.00
513.90	65535.00
514.08	65535.00
514.25	65535.00
514.43	65535.00
514.60	65535.00
514.77	65535.00
514.95	65535.00
515.12	65535.00
515.29	65535.00
515.47	65535.00
515.64	65535.00
515.81	65535.00
515.99	65535.00
516.16	65535.00
516.33	62995.52
516.51	61993.77
516.68	61490.55
516.85	61179.26
517.03	63030.63
517.20	64919.44
517.37	65535.00
517.54	65535.00
517.72	65535.00
517.89	63332.56
518.06	62754.44
518.24	63622.78
518.41	65097.32
518.58	65535.00
518.75	65535.00
518.93	65535.00
519.10	65284.56
519.27	65535.00
519.45	65535.00
519.62	65535.00
519.79	65535.00
519.96	65535.00
520.14	65535.00
520.31	65535.00
520.48	65535.00
520.65	65535.00
520.83	65535.00
521.00	65535.00
521.17	65535.00
521.34	65535.00
521.52	65535.00
521.69	65535.00
521.86	65535.00
522.03	65535.00
522.20	65535.00
522.38	65535.00
522.55	65535.00
522.72	65535.00
522.89	65535.00
523.07	65535.00
523.24	65535.00
523.41	65535.00
523.58	65535.00
523.75	65535.00
523.92	65535.00
524.10	65535.00
524.27	65535.00
524.44	65535.00
524.61	65535.00
524.78	65535.00
524.96	65535.00
525.13	65535.00
525.30	65535.00
525.47	65535.00
525.64	65535.00
525.81	65535.00
525.98	65535.00
526.16	65535.00
526.33	64259.41
526.50	63805.34
526.67	64523.89
526.84	65043.49
527.01	65340.74
527.18	65535.00
527.36	65535.00
527.53	65535.00
527.70	65535.00
527.87	65535.00
528.04	65535.00
528.21	65535.00
528.38	65535.00
528.55	65535.00
528.72	65535.00
528.89	65535.00
529.07	65535.00
529.24	65535.00
529.41	65535.00
529.58	65535.00
529.75	65535.00
529.92	65535.00
530.09	65535.00
530.26	65535.00
530.43	65535.00
530.60	65535.00
530.77	65535.00
530.94	65535.00
531.11	65535.00
531.28	65535.00
531.46	65535.00
531.63	65535.00
531.80	65535.00
531.97	65535.00
532.14	65535.00
532.31	65535.00
532.48	64671.34
532.65	65291.58
532.82	65535.00
532.99	65535.00
533.16	65535.00
533.33	65535.00
533.50	65535.00
533.67	65535.00
533.84	65535.00
534.01	65535.00
534.18	65535.00
534.35	65535.00
534.52	65535.00
534.69	65535.00
534.86	65535.00
535.03	65535.00
535.20	65535.00
535.37	65535.00
535.54	65535.00
535.71	65535.00
535.88	65535.00
536.05	65535.00
536.22	65535.00
536.38	65535.00
536.55	65535.00
536.72	65535.00
536.89	65535.00
537.06	65535.00
537.23	65535.00
537.40	65535.00
537.57	65535.00
537.74	65535.00
537.91	65535.00
538.08	65535.00
538.25	65535.00
538.42	65535.00
538.59	65535.00
538.75	65535.00
538.92	65535.00
539.09	65535.00
539.26	65535.00
539.43	65535.00
539.60	65535.00
539.77	65535.00
539.94	65535.00
540.11	65535.00
540.28	65413.29
540.44	65535.00
540.61	65492.87
540.78	65535.00
540.95	65535.00
541.12	65535.00
541.29	65535.00
541.46	65535.00
541.62	65535.00
541.79	65535.00
541.96	65535.00
542.13	65535.00
542.30	65535.00
542.47	65535.00
542.63	65535.00
542.80	65535.00
542.97	65535.00
543.14	65535.00
543.31	65535.00
543.48	65535.00
543.64	65535.00
543.81	65535.00
543.98	65535.00
544.15	65535.00
544.32	65535.00
544.48	65535.00
544.65	65535.00
544.82	65535.00
544.99	65535.00
545.16	65535.00
545.32	65535.00
545.49	65535.00
545.66	65535.00
545.83	65535.00
546.00	65535.00
546.16	65535.00
546.33	65535.00
546.50	65535.00
546.67	65535.00
546.83	65535.00
547.00	65535.00
547.17	65535.00
547.34	65219.03
547.50	65275.20
547.67	65481.17
547.84	65535.00
548.00	65535.00
548.17	65535.00
548.34	65535.00
548.51	65535.00
548.67	65535.00
548.84	65535.00
549.01	65535.00
549.18	65535.00
549.34	65535.00
549.51	65535.00
549.68	65535.00
549.84	65535.00
550.01	65535.00
550.18	65535.00
550.34	65535.00
550.51	65535.00
550.68	65535.00
550.84	65535.00
551.01	65535.00
551.18	65535.00
551.34	65535.00
551.51	65535.00
551.68	65535.00
551.84	65535.00
552.01	65535.00
552.18	65535.00
552.34	65535.00
552.51	65176.90
552.68	64917.10
552.84	65535.00
553.01	65535.00
553.18	65535.00
553.34	65535.00
553.51	65535.00
553.67	65535.00
553.84	65535.00
554.01	65535.00
554.17	65535.00
554.34	65535.00
554.51	65535.00
554.67	65535.00
554.84	65535.00
555.00	65535.00
555.17	65535.00
555.33	65535.00
555.50	65535.00
555.67	65535.00
555.83	65535.00
556.00	65535.00
556.16	65097.32
556.33	65399.25
556.50	64942.84
556.66	64825.82
556.83	65137.11
556.99	65038.81
557.16	65535.00
557.32	65535.00
557.49	65443.72
557.65	65535.00
557.82	65535.00
557.98	65535.00
558.15	65127.75
558.32	63997.27
558.48	64086.21
558.65	63999.61
558.81	65303.29
558.98	64666.66
559.14	64575.38
559.31	64303.88
559.47	64671.34
559.64	64446.65
559.80	64526.23
559.97	64933.48
560.13	65118.38
560.30	65535.00
560.46	65535.00
560.63	65535.00
560.79	65535.00
560.96	65535.00
561.12	64095.57
561.29	64233.66
561.45	64619.85
561.61	64587.08
561.78	64690.07
561.94	64603.47
562.11	65258.82
562.27	64842.20
562.44	64889.01
562.60	65158.17
562.77	65261.16
562.93	65137.11
563.10	64959.23
563.26	64605.81
563.42	64870.29
563.59	64268.77
563.75	65202.64
563.92	65324.35
564.08	65055.19
564.24	64989.66
564.41	64891.35
564.57	64905.40
564.74	64329.62
564.90	64268.77
565.07	64231.32
565.23	63480.01
565.39	63920.03
565.56	63210.85
565.72	63346.60
565.88	63901.31
566.05	63861.52
566.21	64881.99
566.38	64952.21
566.54	64973.27
566.70	64942.84
566.87	64519.21
567.03	64863.27
567.19	65535.00
567.36	64645.60
567.52	64530.91
567.68	64165.79
567.85	63536.18
568.01	63498.73
568.17	62768.49
568.34	62585.92
568.50	62609.33
568.66	62993.18
568.83	64006.63
568.99	63276.38
569.15	63451.92
569.32	63400.43
569.48	63405.11
569.64	63594.70
569.81	63707.04
569.97	63400.43
570.13	62995.52
570.30	62457.20
570.46	61867.38
570.62	61907.17
570.78	62433.79
570.95	61982.07
571.11	62707.63
571.27	63756.19
571.43	63821.73
571.60	63833.43
571.76	63529.16
571.92	63510.44
572.09	64001.95
572.25	64062.80
572.41	63304.47
572.57	63491.71
572.74	63323.19
572.90	62546.14
573.06	63229.57
573.22	63075.10
573.38	63267.02
573.55	63414.47
573.71	64706.45
573.87	64217.28
574.03	63346.60
574.20	62918.28
574.36	62433.79
574.52	62466.56
574.68	61759.72
574.84	62063.99
575.01	61528.00
575.17	61956.32
575.33	62241.87
575.49	63608.74
575.65	62929.98
575.82	61755.03
575.98	61848.66
576.14	61520.98
576.30	61928.23
576.46	62504.01
576.62	63035.31
576.79	63100.84
576.95	62808.28
577.11	62899.56
577.27	62429.11
577.43	62216.12
577.59	61647.37
577.75	61834.61
577.92	61235.44
578.08	61467.15
578.24	61153.52
578.40	61724.61
578.56	62185.69
578.72	62578.90
578.88	61881.42
579.04	61600.56
579.21	62588.27
579.37	62651.46
579.53	61799.50
579.69	61680.14
579.85	62466.56
580.01	62265.27
580.17	62286.34
580.33	62162.29
580.49	61286.93
580.65	61984.41
580.82	61371.19
580.98	61134.79
581.14	62454.86
581.30	62328.47
581.46	62438.47
581.62	62660.82
581.78	61663.75
581.94	61869.72
582.10	62012.49
582.26	62876.15
582.42	63140.63
582.58	63192.12
582.74	63295.11
582.90	63334.90
583.06	62763.81
583.22	62848.06
583.38	62122.50
583.54	61551.41
583.70	61357.14
583.86	62122.50
584.02	61752.69
584.18	61965.68
584.34	62159.95
584.50	62499.33
584.66	61813.55
584.82	61048.19
584.98	60722.86
585.14	61818.23
