SpectraSuite Data File
++++++++++++++++++++++++++++++++++++
Date: Mon Oct 07 14:53:01 GMT-05:00 2013
User: price-jones
Dark Spectrum Present: No
Reference Spectrum Present: No
Number of Sampled Component Spectra: 1
Spectrometers: USB2+H05261
Integration Time (usec): 100000 (USB2+H05261)
Spectra Averaged: 1 (USB2+H05261)
Boxcar Smoothing: 0 (USB2+H05261)
Correct for Electrical Dark: No (USB2+H05261)
Strobe/Lamp Enabled: No (USB2+H05261)
Correct for Detector Non-linearity: No (USB2+H05261)
Correct for Stray Light: No (USB2+H05261)
Number of Pixels in Processed Spectrum: 2048
>>>>>Begin Processed Spectral Data<<<<<
365.73	0.00
365.92	0.00
366.12	0.00
366.32	0.00
366.52	0.00
366.72	0.00
366.91	0.00
367.11	0.00
367.31	0.00
367.51	0.00
367.70	0.00
367.90	0.00
368.10	0.00
368.30	0.00
368.49	0.00
368.69	0.00
368.89	0.00
369.09	0.00
369.28	0.00
369.48	0.00
369.68	0.00
369.87	0.00
370.07	0.00
370.27	0.00
370.47	596.84
370.66	2850.77
370.86	3295.47
371.06	3616.13
371.25	3803.37
371.45	3260.37
371.65	2923.33
371.84	2881.20
372.04	2993.55
372.24	3276.75
372.44	3478.04
372.63	3454.63
372.83	3155.04
373.03	2750.13
373.22	2497.35
373.42	2726.72
373.62	3208.87
373.81	3316.54
374.01	3295.47
374.21	2993.55
374.40	2871.84
374.60	3059.08
374.79	3330.58
374.99	3901.67
375.19	4119.34
375.38	4236.37
375.58	4039.76
375.78	3824.44
375.97	3950.82
376.17	4046.79
376.37	4035.08
376.56	4329.99
376.76	4449.36
376.95	4833.21
377.15	5060.24
377.35	5188.97
377.54	5495.58
377.74	5652.39
377.93	5570.48
378.13	5483.88
378.33	5107.05
378.52	4926.83
378.72	4561.70
378.91	4479.79
379.11	4564.04
379.31	4257.43
379.50	4236.37
379.70	4699.80
379.89	5004.07
380.09	5385.57
380.28	5523.66
380.48	5530.69
380.68	5502.60
380.87	5252.16
381.07	4823.84
381.26	4599.15
381.46	4248.07
381.65	4121.68
381.85	4098.28
382.04	3681.66
382.24	3524.85
382.43	3288.45
382.63	3346.97
382.83	3346.97
383.02	3328.24
383.22	3375.05
383.41	3262.71
383.61	3606.77
383.80	4053.81
384.00	4669.37
384.19	5228.76
384.39	5631.33
384.58	5423.02
384.78	5408.98
384.97	5334.08
385.17	4983.00
385.36	4844.91
385.56	4678.73
385.75	4723.20
385.95	5071.94
386.14	5577.50
386.34	5589.20
386.53	5254.50
386.72	5149.18
386.92	5123.43
387.11	5401.96
387.31	5593.88
387.50	5521.32
387.70	5359.83
387.89	5355.15
388.09	5352.81
388.28	5341.10
388.48	5369.19
388.67	5839.64
388.86	6466.90
389.06	7007.56
389.25	7286.09
389.45	7349.28
389.64	7428.86
389.84	7232.26
390.03	7082.46
390.22	7056.72
390.42	7267.36
390.61	7857.18
390.81	8407.20
391.00	8313.58
391.19	8484.44
391.39	8128.68
391.58	7747.17
391.78	7171.40
391.97	7073.10
392.16	6583.93
392.36	5933.26
392.55	4695.11
392.75	3847.84
392.94	3218.24
393.13	3012.27
393.33	3712.09
393.52	4695.11
393.71	5764.74
393.91	6429.45
394.10	6916.28
394.29	7571.63
394.49	8374.44
394.68	8971.27
394.88	9008.72
395.07	9317.67
395.26	9193.62
395.46	8919.78
395.65	8400.18
395.84	7267.36
396.04	6211.78
396.23	4990.02
396.42	4203.60
396.62	4039.76
396.81	4959.60
397.00	6045.60
397.19	7571.63
397.39	9048.51
397.58	10244.52
397.77	10789.87
397.97	11262.66
398.16	11241.59
398.35	11655.87
398.55	11929.71
398.74	12493.78
398.93	12638.89
399.12	12657.62
399.32	12313.56
399.51	12388.46
399.70	13315.31
399.90	12980.61
400.09	13111.68
400.28	13060.19
400.47	13032.10
400.67	13797.46
400.86	14265.57
401.05	14197.69
401.24	14141.52
401.44	14391.95
401.63	14368.55
401.82	14436.42
402.01	14682.18
402.21	14764.10
402.40	14693.88
402.59	14368.55
402.78	13680.43
402.97	13259.13
403.17	13963.64
403.36	14871.76
403.55	15138.58
403.74	15337.53
403.93	14644.73
404.13	13767.03
404.32	13303.60
404.51	13928.53
404.70	14946.66
404.89	15035.60
405.09	14712.61
405.28	14202.37
405.47	14359.19
405.66	14328.76
405.85	13841.93
406.05	13331.69
406.24	13734.26
406.43	14478.55
406.62	15012.20
406.81	15117.52
407.00	14340.46
407.20	14155.56
407.39	14174.28
407.58	15002.83
407.77	15323.49
407.96	16030.33
408.15	16091.18
408.34	16212.89
408.54	16882.28
408.73	17020.38
408.92	16613.12
409.11	16425.88
409.30	15449.88
409.49	14478.55
409.68	13671.07
409.87	13041.46
410.07	14073.64
410.26	14878.79
410.45	16011.60
410.64	16262.04
410.83	16865.90
411.02	17334.01
411.21	18366.18
411.40	17860.63
411.59	18005.74
411.78	17825.52
411.98	17497.84
412.17	17872.33
412.36	17563.38
412.55	17584.44
412.74	17511.89
412.93	16812.07
413.12	17139.74
413.31	18740.67
413.50	18998.13
413.69	19147.92
413.88	18623.64
414.07	17565.72
414.26	18185.96
414.45	18967.70
414.64	18787.48
414.83	18670.45
415.02	18494.91
415.22	18537.04
415.41	19021.53
415.60	19461.55
415.79	20173.08
415.98	20388.41
416.17	20746.51
416.36	20287.76
416.55	20109.88
416.74	19438.15
416.93	18527.68
417.12	18679.82
417.31	18700.88
417.50	19318.78
417.69	20086.48
417.88	19714.33
418.07	19503.68
418.26	19044.94
418.45	19508.37
418.64	20184.78
418.83	21137.38
419.02	20545.22
419.21	20435.22
419.39	19517.73
419.58	18654.07
419.77	18616.62
419.96	19658.16
420.15	20372.02
420.34	21312.92
420.53	21823.16
420.72	22410.63
420.91	22167.21
421.10	21907.41
421.29	21551.65
421.48	20884.60
421.67	22104.02
421.86	21652.30
422.05	20149.67
422.24	17832.54
422.43	17823.18
422.61	19798.59
422.80	21240.36
422.99	21556.33
423.18	20620.12
423.37	20114.56
423.56	20166.06
423.75	20758.21
423.94	21013.33
424.13	19962.43
424.32	20194.14
424.50	20023.28
424.69	19798.59
424.88	19920.30
425.07	20079.46
425.26	19611.35
425.45	19789.23
425.64	19225.16
425.83	19454.53
426.01	20444.58
426.20	20926.73
426.39	20786.30
426.58	19190.05
426.77	17853.61
426.96	17158.47
427.15	17785.73
427.33	19204.10
427.52	20020.94
427.71	20046.69
427.90	20081.80
428.09	19716.67
428.28	19398.36
428.46	18590.88
428.65	18361.50
428.84	18904.51
429.03	19356.23
429.22	18127.45
429.40	17011.01
429.59	15342.21
429.78	13607.87
429.97	13921.51
430.16	13987.04
430.34	14141.52
430.53	14155.56
430.72	14438.76
430.91	16116.93
431.10	18785.14
431.28	22174.24
431.47	24046.66
431.66	23950.70
431.85	21933.16
432.03	20065.41
432.22	19346.87
432.41	20123.93
432.60	22363.82
432.79	23307.05
432.97	23672.18
433.16	23222.80
433.35	20982.90
433.54	18925.57
433.72	17689.77
433.91	18750.03
434.10	20739.49
434.28	22148.49
434.47	23129.17
434.66	22808.52
434.85	22010.40
435.03	22391.91
435.22	22782.77
435.41	24177.73
435.59	24245.61
435.78	24622.44
435.97	25280.13
436.16	25245.02
436.34	24826.06
436.53	24451.58
436.72	24872.87
436.90	22970.02
437.09	23014.49
437.28	23051.94
437.46	23648.77
437.65	23342.16
437.84	21827.84
438.02	19960.09
438.21	20084.14
438.40	21364.41
438.58	22808.52
438.77	23545.79
438.96	23527.06
439.14	24622.44
439.33	25172.46
439.52	25851.22
439.70	24907.98
439.89	24477.32
440.08	23669.84
440.26	23744.73
440.45	24882.24
440.63	26258.47
440.82	27592.58
441.01	27040.21
441.19	26773.39
441.38	27660.45
441.57	28496.02
441.75	28854.12
441.94	28716.03
442.12	28795.61
442.31	29521.18
442.50	29446.28
442.68	28858.81
442.87	28364.95
443.05	28222.18
443.24	28573.26
443.43	29259.04
443.61	29600.76
443.80	30073.54
443.98	28687.95
444.17	28376.66
444.35	29919.07
444.54	30408.24
444.73	30441.01
444.91	28669.22
445.10	27885.14
445.28	26548.70
445.47	26118.04
445.65	26356.77
445.84	27154.90
446.02	28203.46
446.21	28493.68
446.39	28444.53
446.58	29118.60
446.77	29223.93
446.95	29743.53
447.14	30340.36
447.32	30831.88
447.51	30319.30
447.69	29254.36
447.88	28849.44
448.06	29455.64
448.25	29820.77
448.43	30518.25
448.62	29745.87
448.80	29261.38
448.99	29556.28
449.17	29954.18
449.36	29867.58
449.54	30810.81
449.73	31243.81
449.91	32100.45
450.10	32872.82
450.28	33289.44
450.46	33127.94
450.65	32996.87
450.83	32723.03
451.02	32009.17
451.20	31957.67
451.39	31793.84
451.57	31583.19
451.76	31571.49
451.94	31377.22
452.13	30885.71
452.31	29406.49
452.49	28259.63
452.68	28453.89
452.86	28559.22
453.05	29163.08
453.23	29600.76
453.42	30511.22
453.60	31000.40
453.78	31377.22
453.97	31311.69
454.15	30946.56
454.34	30148.44
454.52	31021.46
454.70	29727.14
454.89	30204.61
455.07	30501.86
455.26	31122.10
455.44	32526.42
455.62	32793.25
455.81	32950.06
455.99	32924.32
456.17	32240.88
456.36	32407.06
456.54	33188.80
456.73	33607.75
456.91	33916.70
457.09	34106.29
457.28	34705.46
457.46	33406.47
457.64	32940.70
457.83	32187.05
458.01	31529.36
458.19	32297.05
458.38	32360.25
458.56	33610.09
458.74	33200.50
458.93	32526.42
459.11	32645.79
459.29	32425.78
459.48	32666.86
459.66	32538.13
459.84	33191.14
460.03	33034.32
460.21	33343.27
460.39	34108.63
460.57	34007.98
460.76	34525.24
460.94	34876.32
461.12	34253.74
461.31	34057.14
461.49	34103.95
461.67	33703.71
461.85	35477.84
462.04	35028.46
462.22	35538.69
462.40	34852.92
462.59	34771.00
462.77	34541.63
462.95	35030.80
463.13	34782.70
463.32	34272.46
463.50	33900.32
463.68	34277.15
463.86	34457.37
464.05	33170.07
464.23	32828.35
464.41	32760.48
464.59	32460.89
464.78	33696.69
464.96	33696.69
465.14	33483.70
465.32	34143.74
465.50	35122.08
465.69	35697.85
465.87	34352.04
466.05	33696.69
466.23	32215.13
466.41	31644.04
466.60	32245.56
466.78	32704.31
466.96	33212.20
467.14	33684.99
467.32	33928.41
467.51	34022.03
467.69	32458.55
467.87	33460.30
468.05	34005.64
468.23	33745.84
468.41	33736.48
468.60	33584.35
468.78	34609.50
468.96	33795.00
469.14	34455.03
469.32	34796.74
469.50	33207.52
469.69	33652.22
469.87	33053.05
470.05	32964.10
470.23	32826.01
470.41	32985.17
470.59	33345.61
470.77	33528.17
470.95	34239.70
471.14	34707.80
471.32	34953.56
471.50	36325.11
471.68	36655.13
471.86	37366.65
472.04	37757.52
472.22	37319.84
472.40	35761.05
472.58	35030.80
472.77	34728.87
472.95	35349.11
473.13	36818.97
473.31	35431.03
473.49	35557.42
473.67	36765.14
473.85	36629.38
474.03	37713.05
474.21	37659.22
474.39	37958.81
474.57	38195.20
474.75	38265.42
474.93	37965.83
475.12	37006.21
475.30	37010.89
475.48	37167.71
475.66	38237.33
475.84	37481.34
476.02	37303.46
476.20	36603.64
476.38	37193.45
476.56	38174.14
476.74	39082.27
476.92	39292.91
477.10	39517.60
477.28	41172.36
477.46	40725.32
477.64	41333.86
477.82	41347.90
478.00	41572.60
478.18	40790.86
478.36	40470.20
478.54	40755.75
478.72	40837.67
478.90	41792.61
479.08	43131.39
479.26	43470.77
479.44	43421.62
479.62	42967.55
479.80	43281.19
479.98	43295.23
480.16	43248.42
480.34	43103.31
480.52	43847.60
480.70	43683.76
480.88	43941.22
481.06	44453.79
481.24	45228.51
481.41	46293.46
481.59	46354.31
481.77	46066.42
481.95	45162.98
482.13	45441.50
482.31	45315.11
482.49	46457.29
482.67	45865.14
482.85	46272.39
483.03	46483.04
483.21	47234.35
483.39	47349.04
483.57	46644.54
483.74	46127.28
483.92	46658.58
484.10	46773.27
484.28	47512.88
484.46	47655.65
484.64	48793.15
484.82	47384.15
485.00	46665.60
485.18	46241.96
485.35	44641.04
485.53	41780.90
485.71	37881.57
485.89	37471.98
486.07	39871.03
486.25	43281.19
486.43	45017.86
486.61	45918.97
486.78	45897.91
486.96	46368.35
487.14	48158.86
487.32	48924.22
487.50	49890.86
487.68	50763.88
487.85	50761.54
488.03	51175.81
488.21	50583.66
488.39	50040.65
488.57	49504.67
488.75	48708.89
488.92	50185.77
489.10	52395.23
489.28	53298.68
489.46	53944.67
489.64	53951.69
489.81	54129.57
489.99	53731.68
490.17	53811.26
490.35	54223.19
490.53	53846.36
490.70	53188.67
490.88	53380.60
491.06	54270.00
491.24	54230.21
491.41	53151.23
491.59	51774.99
491.77	50747.50
491.95	52116.71
492.13	53277.61
492.30	54209.15
492.48	54930.03
492.66	55667.30
492.84	55442.61
493.01	55203.88
493.19	54632.78
493.37	54382.35
493.54	53956.37
493.72	55068.12
493.90	55929.44
494.08	56727.56
494.25	56975.66
494.43	57043.54
494.61	57434.41
494.79	57436.75
494.96	57162.90
495.14	56453.72
495.32	55524.53
495.49	55206.22
495.67	56231.37
495.85	57315.04
496.02	57858.04
496.20	57532.71
496.38	57221.42
496.55	57186.31
496.73	57670.80
496.91	57792.51
497.09	58265.30
497.26	58468.92
497.44	57939.96
497.62	57499.94
497.79	56671.39
497.97	55585.38
498.14	55545.59
498.32	57013.11
498.50	57656.76
498.67	58426.79
498.85	58164.65
499.03	58199.76
499.20	58387.00
499.38	58557.86
499.56	58323.81
499.73	57764.42
499.91	57467.17
500.08	57183.97
500.26	56397.55
500.44	56811.82
500.61	57633.35
500.79	57298.65
500.97	57013.11
501.14	56755.65
501.32	56594.15
501.49	56685.43
501.67	56856.29
501.84	57588.88
502.02	57682.50
502.20	57986.77
502.37	57935.28
502.55	58321.47
502.72	58770.85
502.90	59159.38
503.07	58834.05
503.25	58260.62
503.43	57612.29
503.60	57006.09
503.78	56156.47
503.95	56947.57
504.13	58220.83
504.30	58887.88
504.48	58625.74
504.65	58541.48
504.83	58288.70
505.01	59079.80
505.18	59444.93
505.36	59898.99
505.53	59901.33
505.71	60327.31
505.88	60278.16
506.06	59561.95
506.23	59234.28
506.41	58967.46
506.58	59215.55
506.76	59107.89
506.93	59124.27
507.11	58899.58
507.28	59070.44
507.46	58674.89
507.63	58024.22
507.81	57918.90
507.98	58166.99
508.16	58768.51
508.33	59250.66
508.50	59625.15
508.68	59952.82
508.85	60463.06
509.03	60315.61
509.20	60163.47
509.38	59426.20
509.55	58759.15
509.73	59016.61
509.90	59489.40
510.08	59587.70
510.25	59646.21
510.42	59379.39
510.60	59334.92
510.77	59515.14
510.95	60271.14
511.12	60287.52
511.30	60554.34
511.47	60750.94
511.64	60739.24
511.82	60413.91
511.99	59332.58
512.17	59302.15
512.34	58894.90
512.51	59047.04
512.69	59332.58
512.86	59386.41
513.04	59681.32
513.21	59625.15
513.38	59365.35
513.56	58866.81
513.73	58071.03
513.90	58848.09
514.08	58777.87
514.25	58894.90
514.43	59304.49
514.60	59093.85
514.77	59316.20
514.95	59313.86
515.12	59421.52
515.29	59746.86
515.47	59976.23
515.64	60200.92
515.81	59915.37
515.99	59498.76
516.16	57918.90
516.33	55756.24
516.51	54216.17
516.68	53436.77
516.85	53071.65
517.03	53900.20
517.20	56161.15
517.37	58763.83
517.54	59526.84
517.72	59131.29
517.89	56406.91
518.06	54251.28
518.24	55084.51
518.41	57111.41
518.58	58148.27
518.75	58099.12
518.93	58288.70
519.10	58412.75
519.27	58749.79
519.45	59180.45
519.62	59819.41
519.79	60053.47
519.96	60027.72
520.14	59346.62
520.31	58461.90
520.48	58719.36
520.65	59021.29
520.83	59910.69
521.00	60095.60
521.17	59854.52
521.34	59524.50
521.52	59838.14
521.69	60481.78
521.86	60617.53
522.03	60214.96
522.20	59168.74
522.38	58159.97
522.55	58391.68
522.72	59032.99
522.89	59185.13
523.07	59381.73
523.24	59690.68
523.41	60402.21
523.58	60631.58
523.75	61099.68
523.92	60823.50
524.10	60858.61
524.27	60654.98
524.44	60605.83
524.61	60512.21
524.78	60289.86
524.96	60521.57
525.13	60420.93
525.30	60783.71
525.47	61190.97
525.64	60753.29
525.81	59908.35
525.98	58665.53
526.16	57523.35
526.33	56966.30
526.50	56629.26
526.67	56093.28
526.84	56828.21
527.01	57876.77
527.18	58546.16
527.36	59515.14
527.53	60126.02
527.70	60378.80
527.87	59934.10
528.04	59536.21
528.21	60062.83
528.38	60526.25
528.55	61137.13
528.72	61373.53
528.89	61429.70
529.07	61345.44
529.24	60477.10
529.41	60013.68
529.58	59611.10
529.75	59611.10
529.92	60100.28
530.09	60383.48
530.26	60802.44
530.43	61181.60
530.60	61186.28
530.77	61408.64
530.94	61413.32
531.11	60954.57
531.28	60645.62
531.46	60516.89
531.63	60612.85
531.80	60423.27
531.97	60111.98
532.14	59316.20
532.31	58471.26
532.48	57869.75
532.65	58052.31
532.82	58588.29
532.99	59779.62
533.16	60128.36
533.33	60507.53
533.50	60392.84
533.67	59798.35
533.84	59571.32
534.01	59681.32
534.18	59707.07
534.35	59966.87
534.52	59723.45
534.69	60037.08
534.86	60507.53
535.03	60673.71
535.20	61069.26
535.37	61516.30
535.54	61497.58
535.71	61127.77
535.88	60762.65
536.05	59894.31
536.22	59786.64
536.38	59419.18
536.55	59229.60
536.72	58440.84
536.89	58569.57
537.06	59400.46
537.23	60294.54
537.40	60631.58
537.57	60315.61
537.74	60144.75
537.91	60205.60
538.08	60058.15
538.25	60088.57
538.42	60301.56
538.59	60168.15
538.75	59568.97
538.92	59454.29
539.09	59171.08
539.26	58983.84
539.43	58913.62
539.60	58883.20
539.77	59110.23
539.94	59002.56
540.11	58136.57
540.28	57642.71
540.44	57890.81
540.61	58108.48
540.78	58464.24
540.95	58747.45
541.12	59288.11
541.29	59484.72
541.46	59676.64
541.62	59810.05
541.79	59554.93
541.96	58688.93
542.13	59061.08
542.30	59215.55
542.47	59433.22
542.63	59447.27
542.80	58990.86
542.97	59105.55
543.14	59096.19
543.31	59203.85
543.48	59599.40
543.64	60334.33
543.81	60549.66
543.98	60289.86
544.15	59538.55
544.32	59203.85
544.48	59288.11
544.65	59557.27
544.82	59983.25
544.99	59678.98
545.16	59168.74
545.32	59063.42
545.49	59814.73
545.66	60177.51
545.83	59817.07
546.00	59302.15
546.16	59079.80
546.33	59224.92
546.50	59402.80
546.67	59669.62
546.83	59274.07
547.00	59346.62
547.17	58604.67
547.34	58019.54
547.50	58197.42
547.67	58623.40
547.84	58576.59
548.00	59058.74
548.17	59601.74
548.34	59419.18
548.51	59278.75
548.67	59395.77
548.84	59498.76
549.01	59351.30
549.18	59348.96
549.34	59238.96
549.51	59302.15
549.68	59098.53
549.84	58967.46
550.01	58735.74
550.18	58805.96
550.34	59110.23
550.51	58899.58
550.68	59002.56
550.84	58602.33
551.01	58646.80
551.18	58604.67
551.34	58714.68
551.51	59023.63
551.68	59442.59
551.84	59264.70
552.01	59283.43
552.18	58969.80
552.34	58344.87
552.51	58244.23
552.68	58073.37
552.84	58482.97
553.01	58576.59
553.18	58707.66
553.34	58665.53
553.51	58946.39
553.67	59007.25
553.84	59210.87
554.01	58976.82
554.17	58981.50
554.34	58946.39
554.51	59011.93
554.67	59554.93
554.84	59187.47
555.00	58702.98
555.17	58595.31
555.33	58518.07
555.50	58831.71
555.67	58941.71
555.83	58415.09
556.00	58384.66
556.16	58244.23
556.33	57705.91
556.50	57687.18
556.66	57984.43
556.83	57436.75
556.99	57607.61
557.16	57614.63
557.32	57993.79
557.49	58309.77
557.65	58003.16
557.82	58145.93
557.98	57897.83
558.15	57478.88
558.32	56636.28
558.48	55922.42
558.65	56172.86
558.81	56530.96
558.98	56580.11
559.14	57130.14
559.31	57088.01
559.47	57247.16
559.64	56865.66
559.80	56404.57
559.97	56608.20
560.13	57162.90
560.30	57958.69
560.46	58438.50
560.63	58700.64
560.79	58489.99
560.96	58082.73
561.12	57207.37
561.29	56083.92
561.45	56409.25
561.61	56970.98
561.78	57427.38
561.94	57167.58
562.11	57027.15
562.27	56947.57
562.44	57537.39
562.60	57523.35
562.77	57993.79
562.93	57446.11
563.10	57546.75
563.26	56999.07
563.42	57059.92
563.59	56884.38
563.75	56788.42
563.92	56928.85
564.08	56825.87
564.24	57212.06
564.41	57193.33
564.57	57214.40
564.74	56889.06
564.90	56690.12
565.07	56706.50
565.23	56207.97
565.39	55742.20
565.56	55391.12
565.72	55421.55
565.88	55758.58
566.05	55943.48
566.21	56217.33
566.38	56245.41
566.54	56287.54
566.70	56619.90
566.87	56837.57
567.03	56807.14
567.19	57111.41
567.36	56601.18
567.52	56463.08
567.68	56460.74
567.85	55831.14
568.01	55676.66
568.17	54908.97
568.34	55033.02
568.50	55114.94
568.66	55112.59
568.83	55807.73
568.99	55686.03
569.15	55887.31
569.32	55573.68
569.48	55702.41
569.64	55189.83
569.81	55173.45
569.97	54969.82
570.13	54887.90
570.30	54674.91
570.46	54349.58
570.62	53588.91
570.78	53375.92
570.95	54260.64
571.11	54843.43
571.27	54644.49
571.43	54817.69
571.60	55323.24
571.76	55264.73
571.92	55681.34
572.09	55952.85
572.25	55629.85
572.41	56062.85
572.57	55648.58
572.74	55569.00
572.90	55044.72
573.06	55049.40
573.22	55269.41
573.38	55250.69
573.55	55234.30
573.71	55318.56
573.87	55278.77
574.03	54918.33
574.20	55058.76
574.36	54583.63
574.52	54700.66
574.68	54546.18
574.84	53757.42
575.01	53741.04
575.17	53642.74
575.33	53961.05
575.49	54251.28
575.65	54049.99
575.82	54066.38
575.98	53954.03
576.14	54047.65
576.30	54302.77
576.46	54419.80
576.62	54447.88
576.79	54365.96
576.95	53954.03
577.11	53925.94
577.27	54054.67
577.43	54300.43
577.59	53441.45
577.75	53347.83
577.92	52760.36
578.08	52509.92
578.24	52612.90
578.40	52933.56
578.56	53146.54
578.72	53097.39
578.88	53694.23
579.04	53401.66
579.21	53535.07
579.37	53558.48
579.53	53867.43
579.69	54117.87
579.85	54071.06
580.01	53652.10
580.17	53286.98
580.33	53308.04
580.49	53289.32
580.65	53635.72
580.82	53624.01
580.98	53621.67
581.14	53408.68
581.30	53888.49
581.46	53689.55
581.62	53614.65
581.78	53869.77
581.94	53881.47
582.10	53972.75
582.26	54169.36
582.42	54059.35
582.58	53886.15
582.74	54122.55
582.90	54152.97
583.06	53748.06
583.22	53579.54
583.38	53759.76
583.54	53556.14
583.70	53602.95
583.86	53745.72
584.02	53474.22
584.18	53530.39
584.34	53476.56
584.50	53069.31
584.66	53230.80
584.82	52870.36
584.98	52821.21
585.14	52051.17
585.30	51744.56
