SpectraSuite Data File
++++++++++++++++++++++++++++++++++++
Date: Mon Oct 07 14:53:21 GMT-05:00 2013
User: price-jones
Dark Spectrum Present: No
Reference Spectrum Present: No
Number of Sampled Component Spectra: 1
Spectrometers: USB2+H05261
Integration Time (usec): 100000 (USB2+H05261)
Spectra Averaged: 1 (USB2+H05261)
Boxcar Smoothing: 0 (USB2+H05261)
Correct for Electrical Dark: No (USB2+H05261)
Strobe/Lamp Enabled: No (USB2+H05261)
Correct for Detector Non-linearity: No (USB2+H05261)
Correct for Stray Light: No (USB2+H05261)
Number of Pixels in Processed Spectrum: 2048
>>>>>Begin Processed Spectral Data<<<<<
365.73	0.00
365.92	0.00
366.12	0.00
366.32	0.00
366.52	0.00
366.72	0.00
366.91	0.00
367.11	0.00
367.31	0.00
367.51	0.00
367.70	0.00
367.90	0.00
368.10	0.00
368.30	0.00
368.49	0.00
368.69	0.00
368.89	0.00
369.09	0.00
369.28	0.00
369.48	0.00
369.68	0.00
369.87	0.00
370.07	0.00
370.27	0.00
370.47	554.71
370.66	2696.30
370.86	3342.28
371.06	3595.06
371.25	3791.67
371.45	3424.20
371.65	2998.23
371.84	2822.69
372.04	2920.99
372.24	3166.74
372.44	3459.31
372.63	3384.41
372.83	3089.51
373.03	2689.28
373.22	2569.91
373.42	2691.62
373.62	3089.51
373.81	3332.92
374.01	3463.99
374.21	3112.91
374.40	2761.83
374.60	3096.53
374.79	3166.74
374.99	3812.73
375.19	4056.15
375.38	4306.59
375.58	3969.55
375.78	3899.33
375.97	3946.14
376.17	4009.34
376.37	4121.68
376.56	4285.52
376.76	4496.17
376.95	4774.69
377.15	4964.28
377.35	5170.24
377.54	5357.49
377.74	5600.90
377.93	5579.84
378.13	5305.99
378.33	5219.39
378.52	4739.58
378.72	4667.03
378.91	4397.87
379.11	4257.43
379.31	4229.35
379.50	4166.15
379.70	4550.00
379.89	5011.09
380.09	5472.17
380.28	5650.05
380.48	5633.67
380.68	5394.93
380.87	5357.49
381.07	4929.17
381.26	4552.34
381.46	4250.41
381.65	3983.59
381.85	3892.31
382.04	3815.07
382.24	3576.34
382.43	3426.54
382.63	3176.11
382.83	3400.80
383.02	3255.69
383.22	3332.92
383.41	3386.76
383.61	3602.08
383.80	4093.60
384.00	4634.26
384.19	5121.09
384.39	5486.22
384.58	5526.00
384.78	5371.53
384.97	5275.57
385.17	4973.64
385.36	4793.42
385.56	4599.15
385.75	4706.82
385.95	5083.64
386.14	5528.35
386.34	5586.86
386.53	5331.74
386.72	4992.36
386.92	5114.07
387.11	5331.74
387.31	5631.33
387.50	5493.24
387.70	5268.55
387.89	5259.18
388.09	5359.83
388.28	5352.81
388.48	5504.94
388.67	5685.16
388.86	6324.13
389.06	6918.62
389.25	7349.28
389.45	7555.25
389.64	7218.21
389.84	7089.48
390.03	6970.12
390.22	7049.69
390.42	7403.11
390.61	7740.15
390.81	8194.22
391.00	8472.74
391.19	8353.37
391.39	7927.39
391.58	7707.38
391.78	7105.87
391.97	6897.56
392.16	6551.16
392.36	6106.46
392.55	4737.24
392.75	3805.71
392.94	3056.74
393.13	3124.62
393.33	3660.60
393.52	4636.60
393.71	5600.90
393.91	6387.32
394.10	6911.60
394.29	7623.12
394.49	8397.84
394.68	8896.38
394.88	8973.61
395.07	9118.73
395.26	9242.78
395.46	8851.91
395.65	8245.71
395.84	7250.98
396.04	6040.92
396.23	5022.79
396.42	4112.32
396.62	3894.65
396.81	4681.07
397.00	5858.36
397.19	7480.35
397.39	9027.45
397.58	10162.61
397.77	10656.46
397.97	11227.55
398.16	11056.69
398.35	11459.26
398.55	12077.16
398.74	12360.37
398.93	12713.79
399.12	12552.29
399.32	12025.67
399.51	12187.17
399.70	13123.38
399.90	12891.67
400.09	12798.05
400.28	12879.97
400.47	13097.64
400.67	13689.79
400.86	13862.99
401.05	13853.63
401.24	13989.38
401.44	14480.89
401.63	14108.75
401.82	14420.04
402.01	14478.55
402.21	14118.11
402.40	14595.58
402.59	14097.05
402.78	13437.02
402.97	12828.48
403.17	13738.94
403.36	14375.57
403.55	14970.07
403.74	15363.28
403.93	14492.60
404.13	13399.57
404.32	13053.17
404.51	13715.54
404.70	14995.81
404.89	14752.40
405.09	14782.82
405.28	14265.57
405.47	14249.18
405.66	14406.00
405.85	13687.45
406.05	13411.27
406.24	13657.03
406.43	14090.02
406.62	14841.34
406.81	14888.15
407.00	14628.35
407.20	13834.91
407.39	14148.54
407.58	14616.65
407.77	15183.06
407.96	15646.48
408.15	15880.53
408.34	16002.24
408.54	16739.51
408.73	17125.70
408.92	16601.42
409.11	16077.14
409.30	15019.22
409.49	14469.19
409.68	13607.87
409.87	13165.51
410.07	13926.19
410.26	15112.84
410.45	15882.88
410.64	16606.10
410.83	16744.19
411.02	17109.32
411.21	17701.47
411.40	17572.74
411.59	17703.81
411.78	17570.40
411.98	17280.18
412.17	17626.57
412.36	17436.99
412.55	17600.83
412.74	16945.48
412.93	16556.95
413.12	16957.18
413.31	18478.53
413.50	18586.19
413.69	19126.86
413.88	17944.89
414.07	17804.46
414.26	17937.87
414.45	18583.85
414.64	18569.81
414.83	18728.97
415.02	18300.65
415.22	18094.68
415.41	18586.19
415.60	19204.10
415.79	20255.00
415.98	20601.40
416.17	20507.77
416.36	20107.54
416.55	19740.08
416.74	19318.78
416.93	18581.51
417.12	18625.98
417.31	18925.57
417.50	18899.83
417.69	19386.66
417.88	19571.56
418.07	19206.44
418.26	19070.68
418.45	19639.44
418.64	19857.10
418.83	20585.01
419.02	20531.18
419.21	20133.29
419.39	19119.84
419.58	18492.57
419.77	18420.02
419.96	19433.47
420.15	20540.54
420.34	21069.50
420.53	21708.47
420.72	21996.35
420.91	21979.97
421.10	21729.53
421.29	21759.96
421.48	20711.40
421.67	21436.97
421.86	21071.84
422.05	19637.09
422.24	17759.98
422.43	16996.97
422.61	19529.43
422.80	21069.50
422.99	20793.32
423.18	20217.55
423.37	19971.79
423.56	20030.30
423.75	20414.15
423.94	20439.90
424.13	19339.85
424.32	19639.44
424.50	19716.67
424.69	19480.28
424.88	19531.77
425.07	19344.53
425.26	19646.46
425.45	19606.67
425.64	18822.59
425.83	18981.74
426.01	20039.67
426.20	20411.81
426.39	20631.82
426.58	18647.05
426.77	17352.73
426.96	16840.15
427.15	17366.78
427.33	19105.79
427.52	19758.80
427.71	19742.42
427.90	19220.48
428.09	19286.01
428.28	18857.70
428.46	18328.74
428.65	17750.62
428.84	18265.54
429.03	19005.15
429.22	17879.35
429.40	16908.03
429.59	15243.91
429.78	13666.39
429.97	13767.03
430.16	13713.20
430.34	13701.50
430.53	13951.93
430.72	14274.93
430.91	15634.78
431.10	18380.23
431.28	21551.65
431.47	23396.00
431.66	23604.30
431.85	21397.18
432.03	19503.68
432.22	18986.43
432.41	19777.53
432.60	21778.68
432.79	22677.45
432.97	23285.99
433.16	22448.08
433.35	20723.10
433.54	18918.55
433.72	17439.33
433.91	17942.55
434.10	20004.56
434.28	21708.47
434.47	22913.84
434.66	22415.31
434.85	21792.73
435.03	21879.33
435.22	22375.52
435.41	23892.19
435.59	23772.82
435.78	24091.13
435.97	24460.94
436.16	25090.54
436.34	24301.78
436.53	24002.19
436.72	23843.04
436.90	22448.08
437.09	22436.38
437.28	22401.27
437.46	23112.79
437.65	22860.01
437.84	21453.35
438.02	19620.71
438.21	19456.87
438.40	20563.95
438.58	22356.80
438.77	23002.78
438.96	23152.58
439.14	24269.01
439.33	24683.29
439.52	25158.42
439.70	24797.98
439.89	23711.97
440.08	23201.73
440.26	23150.24
440.45	23817.29
440.63	25495.46
440.82	27072.98
441.01	26600.19
441.19	26312.30
441.38	26728.92
441.57	27681.52
441.75	28093.45
441.94	28226.86
442.12	27910.89
442.31	28797.95
442.50	28533.47
442.68	28266.65
442.87	27990.47
443.05	27571.51
443.24	27791.52
443.43	28737.10
443.61	28999.24
443.80	29252.02
443.98	28004.51
444.17	27515.34
444.35	29069.45
444.54	29785.66
444.73	29233.29
444.91	27960.04
445.10	27026.17
445.28	26293.58
445.47	25465.03
445.65	25701.42
445.84	26251.45
446.02	27445.12
446.21	27714.28
446.39	27763.43
446.58	28175.37
446.77	28573.26
446.95	28943.06
447.14	29640.54
447.32	30005.67
447.51	29708.42
447.69	28329.84
447.88	28130.90
448.06	28430.49
448.25	29188.82
448.43	29436.92
448.62	28657.52
448.80	28407.08
448.99	28662.20
449.17	29149.03
449.36	29123.29
449.54	29912.05
449.73	30665.70
449.91	31035.50
450.10	31779.79
450.28	31976.40
450.46	31978.74
450.65	31967.04
450.83	31906.18
451.02	31356.16
451.20	31005.08
451.39	30391.86
451.57	30864.64
451.76	30831.88
451.94	30263.13
452.13	29984.60
452.31	28631.77
452.49	27208.73
452.68	27632.36
452.86	27555.13
453.05	28311.12
453.23	29252.02
453.42	29537.56
453.60	30101.63
453.78	30249.08
453.97	30073.54
454.15	30576.76
454.34	29919.07
454.52	30178.87
454.70	29134.99
454.89	29708.42
455.07	29399.47
455.26	30295.89
455.44	31686.17
455.62	31660.43
455.81	31957.67
455.99	31768.09
456.17	31414.67
456.36	31578.51
456.54	32556.85
456.73	32676.22
456.91	32936.02
457.09	32828.35
457.28	33514.13
457.46	32208.11
457.64	31952.99
457.83	30806.13
458.01	30539.31
458.19	31337.43
458.38	31630.00
458.56	32744.09
458.74	32362.59
458.93	31798.52
459.11	31641.70
459.29	31522.34
459.48	31541.06
459.66	31578.51
459.84	32002.14
460.03	32559.19
460.21	32451.53
460.39	33188.80
460.57	32779.20
460.76	33624.14
460.94	33567.96
461.12	32945.38
461.31	32994.53
461.49	32844.74
461.67	32882.19
461.85	33855.85
462.04	33455.62
462.22	34710.14
462.40	34134.37
462.59	33963.51
462.77	33900.32
462.95	33881.60
463.13	33462.64
463.32	33153.69
463.50	33027.30
463.68	33029.64
463.86	33308.16
464.05	32678.56
464.23	31847.67
464.41	31754.05
464.59	30993.37
464.78	32774.52
464.96	32737.07
465.14	32102.79
465.32	33362.00
465.50	34338.00
465.69	33944.79
465.87	33663.93
466.05	32830.69
466.23	31529.36
466.41	30541.65
466.60	31442.76
466.78	31683.83
466.96	32116.83
467.14	32559.19
467.32	33584.35
467.51	33027.30
467.69	31512.97
467.87	32173.00
468.05	32793.25
468.23	33034.32
468.41	32907.93
468.60	32725.37
468.78	33326.89
468.96	32980.49
469.14	33240.29
469.32	33649.88
469.50	32144.92
469.69	32570.90
469.87	32084.06
470.05	31782.13
470.23	31880.44
470.41	31906.18
470.59	32446.85
470.77	32500.68
470.95	33041.34
471.14	33301.14
471.32	33333.91
471.50	35309.32
471.68	35550.40
471.86	35541.03
472.04	36011.48
472.22	35959.99
472.40	34050.11
472.58	34174.16
472.77	33785.63
472.95	34422.26
473.13	35232.08
473.31	34242.04
473.49	34492.47
473.67	35318.68
473.85	35545.72
474.03	36383.63
474.21	36498.31
474.39	36395.33
474.57	36837.69
474.75	36800.24
474.93	36715.98
475.12	35475.50
475.30	36070.00
475.48	35917.86
475.66	36723.01
475.84	36144.89
476.02	35360.81
476.20	35461.46
476.38	36025.53
476.56	36947.70
476.74	37757.52
476.92	37713.05
477.10	38050.09
477.28	39030.77
477.46	39412.28
477.64	39796.13
477.82	40334.45
478.00	39618.25
478.18	39110.35
478.36	39023.75
478.54	39292.91
478.72	39353.77
478.90	40725.32
479.08	41549.19
479.26	41881.55
479.44	41801.97
479.62	41177.04
479.80	41787.92
479.98	42113.26
480.16	42368.38
480.34	41797.29
480.52	42171.77
480.70	42223.26
480.88	42281.78
481.06	43208.63
481.24	43393.53
481.41	44184.63
481.59	44774.45
481.77	44336.77
481.95	43761.00
482.13	43512.90
482.31	44355.49
482.49	44161.23
482.67	44516.99
482.85	44804.88
483.03	45284.68
483.21	45663.85
483.39	45420.44
483.57	44762.75
483.74	44289.96
483.92	44818.92
484.10	45280.00
484.28	46258.35
484.46	46691.35
484.64	46791.99
484.82	46461.97
485.00	45443.84
485.18	44549.76
485.35	43407.58
485.53	40577.87
485.71	36704.28
485.89	36374.27
486.07	38061.79
486.25	41092.79
486.43	43824.19
486.61	44556.78
486.78	44556.78
486.96	44765.09
487.14	46323.88
487.32	47262.44
487.50	48016.09
487.68	49104.44
487.85	49043.59
488.03	49549.14
488.21	49158.27
488.39	48643.35
488.57	47789.06
488.75	47002.64
488.92	48458.45
489.10	50777.92
489.28	51955.21
489.46	53137.18
489.64	52528.64
489.81	52577.79
489.99	52273.52
490.17	52650.35
490.35	53066.97
490.53	52612.90
490.70	52163.52
490.88	51765.63
491.06	53029.52
491.24	52746.31
491.41	51632.22
491.59	50124.91
491.77	49303.38
491.95	50621.11
492.13	51711.80
492.30	53045.90
492.48	53879.13
492.66	54576.61
492.84	54546.18
493.01	54078.08
493.19	53572.52
493.37	53160.59
493.54	52959.30
493.72	54012.54
493.90	54532.14
494.08	55391.12
494.25	55580.70
494.43	55866.25
494.61	56418.61
494.79	56280.52
494.96	55971.57
495.14	55454.31
495.32	54644.49
495.49	54141.27
495.67	54962.80
495.85	56210.31
496.02	56350.74
496.20	56519.26
496.38	55945.83
496.55	56037.11
496.73	56416.27
496.91	56666.71
497.09	57127.80
497.26	57125.46
497.44	56956.94
497.62	56369.46
497.79	55718.79
497.97	54342.56
498.14	54246.60
498.32	55435.59
498.50	56605.86
498.67	57235.46
498.85	56755.65
499.03	57036.51
499.20	57109.07
499.38	57219.08
499.56	57141.84
499.73	56573.09
499.91	56231.37
500.08	55936.46
500.26	55262.39
500.44	55491.76
500.61	56126.05
500.79	56222.01
500.97	55566.66
501.14	55564.32
501.32	55339.63
501.49	55466.02
501.67	55468.36
501.84	56306.27
502.02	56378.82
502.20	56743.95
502.37	56772.03
502.55	56938.21
502.72	57429.72
502.90	57836.98
503.07	57532.71
503.25	57116.09
503.43	56224.35
503.60	55887.31
503.78	55238.98
503.95	55559.64
504.13	57038.86
504.30	57813.57
504.48	57357.17
504.65	57202.69
504.83	57282.27
505.01	57806.55
505.18	58052.31
505.36	58597.65
505.53	58710.00
505.71	59128.95
505.88	59004.91
506.06	58358.92
506.23	57935.28
506.41	57565.48
506.58	57970.39
506.76	57886.13
506.93	57991.45
507.11	57385.25
507.28	57565.48
507.46	57233.12
507.63	56900.76
507.81	56523.94
507.98	56769.69
508.16	57455.47
508.33	58089.76
508.50	58340.19
508.68	58482.97
508.85	59105.55
509.03	59077.46
509.20	58944.05
509.38	58211.46
509.55	57336.10
509.73	57560.79
509.90	58211.46
510.08	58356.58
510.25	58494.67
510.42	58251.25
510.60	58064.01
510.77	58347.21
510.95	58918.31
511.12	59056.40
511.30	59302.15
511.47	59433.22
511.64	59372.37
511.82	59262.36
511.99	58164.65
512.17	58047.63
512.34	57570.16
512.51	57659.10
512.69	57907.19
512.86	58014.86
513.04	58443.18
513.21	58513.39
513.38	58136.57
513.56	57490.58
513.73	57015.45
513.90	57317.38
514.08	57137.16
514.25	57762.08
514.43	57855.70
514.60	58005.50
514.77	58035.92
514.95	58056.99
515.12	58010.18
515.29	58232.53
515.47	58695.95
515.64	59018.95
515.81	58459.56
515.99	58059.33
516.16	56477.13
516.33	54169.36
516.51	52814.19
516.68	52097.98
516.85	51552.64
517.03	51938.83
517.20	54656.19
517.37	57155.88
517.54	58255.93
517.72	57682.50
517.89	55206.22
518.06	52779.08
518.24	53172.29
518.41	55606.45
518.58	56683.09
518.75	56868.00
518.93	57059.92
519.10	56961.62
519.27	57401.64
519.45	57694.21
519.62	58361.26
519.79	58770.85
519.96	58326.15
520.14	58185.72
520.31	57228.44
520.48	57205.03
520.65	57532.71
520.83	58700.64
521.00	58869.15
521.17	58550.84
521.34	58253.59
521.52	58548.50
521.69	58864.47
521.86	59482.37
522.03	59110.23
522.20	58127.20
522.38	56868.00
522.55	56868.00
522.72	57567.82
522.89	57553.77
523.07	57944.64
523.24	58141.25
523.41	59072.78
523.58	59374.71
523.75	59742.17
523.92	59536.21
524.10	59344.28
524.27	59515.14
524.44	59189.81
524.61	59103.21
524.78	58930.01
524.96	58908.94
525.13	59065.76
525.30	59236.62
525.47	59606.42
525.64	59613.44
525.81	58927.67
525.98	57455.47
526.16	56137.75
526.33	55231.96
526.50	55061.10
526.67	54653.85
526.84	55302.18
527.01	56294.56
527.18	57139.50
527.36	58244.23
527.53	58944.05
527.70	58899.58
527.87	58262.96
528.04	58038.26
528.21	58637.44
528.38	59084.48
528.55	59538.55
528.72	59997.29
528.89	60065.17
529.07	59896.65
529.24	59203.85
529.41	58583.61
529.58	57977.41
529.75	58197.42
529.92	58731.06
530.09	58955.75
530.26	59426.20
530.43	59749.20
530.60	59770.26
530.77	60046.44
530.94	60097.94
531.11	59634.51
531.28	59271.73
531.46	59227.26
531.63	59238.96
531.80	59166.40
531.97	58588.29
532.14	57865.06
532.31	56985.02
532.48	56439.68
532.65	56336.69
532.82	57165.24
532.99	58326.15
533.16	58599.99
533.33	59250.66
533.50	59047.04
533.67	58370.62
533.84	57911.88
534.01	58464.24
534.18	58489.99
534.35	58525.10
534.52	58431.47
534.69	58892.56
534.86	58918.31
535.03	59121.93
535.20	59554.93
535.37	59964.52
535.54	60142.41
535.71	59597.06
535.88	59264.70
536.05	58707.66
536.22	58494.67
536.38	58078.05
536.55	57574.84
536.72	57261.21
536.89	57038.86
537.06	58162.31
537.23	58731.06
537.40	59070.44
537.57	58838.73
537.74	58747.45
537.91	58803.62
538.08	58569.57
538.25	58489.99
538.42	58843.41
538.59	58571.91
538.75	57949.32
538.92	57998.48
539.09	57684.84
539.26	57509.30
539.43	57286.95
539.60	57296.31
539.77	57607.61
539.94	57474.20
540.11	56809.48
540.28	56065.19
540.44	56530.96
540.61	56563.73
540.78	56743.95
540.95	57146.52
541.12	57312.70
541.29	57532.71
541.46	58019.54
541.62	58120.18
541.79	58087.42
541.96	57434.41
542.13	57427.38
542.30	57869.75
542.47	57930.60
542.63	57663.78
542.80	57593.56
542.97	57743.36
543.14	57308.02
543.31	57413.34
543.48	58094.44
543.64	58887.88
543.81	59023.63
543.98	58749.79
544.15	58211.46
544.32	57453.13
544.48	57822.93
544.65	58064.01
544.82	58431.47
544.99	58071.03
545.16	57762.08
545.32	57659.10
545.49	58443.18
545.66	58684.25
545.83	58272.32
546.00	58024.22
546.16	57581.86
546.33	57776.12
546.50	57794.85
546.67	58047.63
546.83	57764.42
547.00	57822.93
547.17	57198.01
547.34	56575.43
547.50	56460.74
547.67	56868.00
547.84	56996.73
548.00	57340.78
548.17	57928.26
548.34	57563.14
548.51	57551.43
548.67	57719.95
548.84	57778.46
549.01	57872.09
549.18	57771.44
549.34	57780.81
549.51	57640.37
549.68	57567.82
549.84	57219.08
550.01	57326.74
550.18	57212.06
550.34	57235.46
550.51	57357.17
550.68	57553.77
550.84	56830.55
551.01	56975.66
551.18	56844.59
551.34	57078.64
551.51	57549.09
551.68	57738.68
551.84	57715.27
552.01	57446.11
552.18	57478.88
552.34	56694.80
552.51	56350.74
552.68	56285.20
552.84	56727.56
553.01	57013.11
553.18	56633.94
553.34	57125.46
553.51	57200.35
553.67	57315.04
553.84	57450.79
554.01	57003.75
554.17	57319.72
554.34	57148.86
554.51	57462.49
554.67	57738.68
554.84	57396.96
555.00	57111.41
555.17	57043.54
555.33	57069.28
555.50	56905.44
555.67	56992.04
555.83	56839.91
556.00	56371.80
556.16	56411.59
556.33	56257.12
556.50	55510.49
556.66	56062.85
556.83	55767.94
556.99	55763.26
557.16	55789.01
557.32	56371.80
557.49	56619.90
557.65	56324.99
557.82	56577.77
557.98	56287.54
558.15	55814.76
558.32	54815.35
558.48	54211.49
558.65	54394.05
558.81	54815.35
558.98	54885.56
559.14	55189.83
559.31	55217.92
559.47	55316.22
559.64	55030.68
559.80	54644.49
559.97	54670.23
560.13	55253.03
560.30	56072.21
560.46	56374.14
560.63	56605.86
560.79	56683.09
560.96	56048.81
561.12	55189.83
561.29	54216.17
561.45	54344.90
561.61	55004.93
561.78	55414.52
561.94	55327.92
562.11	55299.84
562.27	55182.81
562.44	55295.16
562.60	55987.95
562.77	55849.86
562.93	55613.47
563.10	55648.58
563.26	54937.05
563.42	55018.97
563.59	55035.36
563.75	54937.05
563.92	54913.65
564.08	54761.51
564.24	55168.77
564.41	55400.48
564.57	55154.72
564.74	54770.88
564.90	54850.45
565.07	54752.15
565.23	54281.70
565.39	53710.61
565.56	53586.57
565.72	53090.37
565.88	53708.27
566.05	53771.47
566.21	54094.46
566.38	54459.58
566.54	54445.54
566.70	54813.01
566.87	54918.33
567.03	54836.41
567.19	54887.90
567.36	54674.91
567.52	54595.34
567.68	54447.88
567.85	53727.00
568.01	53214.42
568.17	52776.74
568.34	53111.44
568.50	52917.17
568.66	53221.44
568.83	53521.03
568.99	53624.01
569.15	53696.57
569.32	53975.09
569.48	53462.52
569.64	53380.60
569.81	53045.90
569.97	52694.82
570.13	52643.33
570.30	52100.32
570.46	52034.79
570.62	51253.05
570.78	51009.64
570.95	51634.56
571.11	52266.50
571.27	52495.88
571.43	52652.69
571.60	53123.14
571.76	53010.79
571.92	53460.18
572.09	53656.78
572.25	53446.13
572.41	53670.82
572.57	53088.03
572.74	53418.05
572.90	52978.03
573.06	52917.17
573.22	53247.19
573.38	52879.72
573.55	52849.30
573.71	53286.98
573.87	52987.39
574.03	52765.04
574.20	52968.66
574.36	52514.60
574.52	52542.69
574.68	52179.90
574.84	51938.83
575.01	51157.09
575.17	51379.44
575.33	51723.50
575.49	51674.35
575.65	51997.34
575.82	51796.06
575.98	51693.07
576.14	51777.33
576.30	52055.85
576.46	52179.90
576.62	51952.87
576.79	52020.75
576.95	51732.86
577.11	51526.89
577.27	52013.73
577.43	51803.08
577.59	51255.39
577.75	51049.42
577.92	50424.50
578.08	50260.66
578.24	50209.17
578.40	50691.32
578.56	50813.03
578.72	50639.83
578.88	50740.47
579.04	51236.67
579.21	51236.67
579.37	51124.32
579.53	51571.36
579.69	51304.54
579.85	51704.77
580.01	51529.23
580.17	51105.60
580.33	50817.71
580.49	50843.46
580.65	50887.93
580.82	51236.67
580.98	51192.20
581.14	51079.85
581.30	51112.62
581.46	51150.07
581.62	51407.53
581.78	51224.96
581.94	51494.13
582.10	51210.92
582.26	51601.79
582.42	51461.36
582.58	51664.99
582.74	51461.36
582.90	51461.36
583.06	51332.63
583.22	51004.95
583.38	51239.01
583.54	51063.47
583.70	50965.17
583.86	50979.21
584.02	51203.90
584.18	50908.99
584.34	50988.57
584.50	50841.12
584.66	50656.21
584.82	50426.84
584.98	50258.32
585.14	50007.89
585.30	48924.22
