SpectraSuite Data File
++++++++++++++++++++++++++++++++++++
Date: Mon Oct 07 14:55:00 GMT-05:00 2013
User: price-jones
Dark Spectrum Present: No
Reference Spectrum Present: No
Number of Sampled Component Spectra: 1
Spectrometers: USB2+H05261
Integration Time (usec): 10000 (USB2+H05261)
Spectra Averaged: 1 (USB2+H05261)
Boxcar Smoothing: 0 (USB2+H05261)
Correct for Electrical Dark: No (USB2+H05261)
Strobe/Lamp Enabled: No (USB2+H05261)
Correct for Detector Non-linearity: No (USB2+H05261)
Correct for Stray Light: No (USB2+H05261)
Number of Pixels in Processed Spectrum: 2048
>>>>>Begin Processed Spectral Data<<<<<
365.73	0.00
365.92	0.00
366.12	0.00
366.32	0.00
366.52	0.00
366.72	0.00
366.91	0.00
367.11	0.00
367.31	0.00
367.51	0.00
367.70	0.00
367.90	0.00
368.10	0.00
368.30	0.00
368.49	0.00
368.69	0.00
368.89	0.00
369.09	0.00
369.28	0.00
369.48	0.00
369.68	0.00
369.87	0.00
370.07	0.00
370.27	0.00
370.47	110.01
370.66	1406.66
370.86	1689.87
371.06	1916.90
371.25	1755.40
371.45	1572.84
371.65	1380.92
371.84	1331.76
372.04	1446.45
372.24	1638.38
372.44	1568.16
372.63	1680.50
372.83	1469.86
373.03	1310.70
373.22	1186.65
373.42	1390.28
373.62	1678.16
373.81	1781.15
374.01	1619.65
374.21	1409.00
374.40	1296.66
374.60	1495.60
374.79	1673.48
374.99	2001.16
375.19	2118.18
375.38	2127.55
375.58	1914.56
375.78	1973.07
375.97	1884.13
376.17	1940.30
376.37	2122.87
376.56	2097.12
376.76	2270.32
376.95	2495.01
377.15	2485.65
377.35	2630.76
377.54	2768.85
377.74	2890.56
377.93	2918.65
378.13	2717.36
378.33	2558.21
378.52	2438.84
378.72	2289.04
378.91	2263.30
379.11	2113.50
379.31	2052.65
379.50	2176.70
379.70	2380.32
379.89	2663.53
380.09	2773.53
380.28	2747.79
380.48	2736.09
380.68	2644.81
380.87	2708.00
381.07	2354.58
381.26	2300.75
381.46	2010.52
381.65	2024.56
381.85	1921.58
382.04	1825.62
382.24	1724.97
382.43	1701.57
382.63	1739.02
382.83	1589.22
383.02	1636.03
383.22	1668.80
383.41	1790.51
383.61	1827.96
383.80	2176.70
384.00	2392.03
384.19	2626.08
384.39	2775.88
384.58	2715.02
384.78	2600.34
384.97	2635.44
385.17	2429.48
385.36	2424.80
385.56	2277.34
385.75	2504.37
385.95	2548.84
386.14	2801.62
386.34	2834.39
386.53	2626.08
386.72	2607.36
386.92	2509.05
387.11	2684.59
387.31	2841.41
387.50	2965.46
387.70	2675.23
387.89	2658.85
388.09	2799.28
388.28	2813.32
388.48	2818.00
388.67	3005.25
388.86	3267.39
389.06	3538.89
389.25	3735.50
389.45	3899.33
389.64	3770.60
389.84	3611.45
390.03	3613.79
390.22	3632.51
390.42	3852.52
390.61	4191.90
390.81	4418.93
391.00	4381.48
391.19	4376.80
391.39	4184.88
391.58	3854.86
391.78	3735.50
391.97	3599.74
392.16	3386.76
392.36	2885.88
392.55	2190.74
392.75	1689.87
392.94	1493.26
393.13	1600.93
393.33	2017.54
393.52	2555.86
393.71	3087.17
393.91	3288.45
394.10	3873.59
394.29	4046.79
394.49	4329.99
394.68	4692.77
394.88	4657.67
395.07	4828.53
395.26	4669.37
395.46	4643.62
395.65	4060.83
395.84	3602.08
396.04	2909.29
396.23	2335.85
396.42	1998.82
396.62	2246.91
396.81	2642.46
397.00	3405.48
397.19	4217.65
397.39	5039.17
397.58	5383.23
397.77	5577.50
397.97	5877.09
398.16	6071.35
398.35	6307.74
398.55	6356.90
398.74	6565.20
398.93	6649.46
399.12	6427.11
399.32	6417.75
399.51	6600.31
399.70	7019.27
399.90	6764.15
400.09	6911.60
400.28	7019.27
400.47	7007.56
400.67	7190.13
400.86	7466.31
401.05	7510.78
401.24	7363.33
401.44	7555.25
401.63	7461.63
401.82	7665.25
402.01	7515.46
402.21	7618.44
402.40	7606.74
402.59	7358.64
402.78	7028.63
402.97	7014.59
403.17	7342.26
403.36	7698.02
403.55	7997.61
403.74	7913.35
403.93	7503.76
404.13	6794.58
404.32	7035.65
404.51	7557.59
404.70	7981.23
404.89	7955.48
405.09	7541.21
405.28	7419.50
405.47	7559.93
405.66	7461.63
405.85	7276.73
406.05	7035.65
406.24	7241.62
406.43	7698.02
406.62	8074.85
406.81	7817.39
407.00	7424.18
407.20	7279.07
407.39	7513.12
407.58	8051.44
407.77	8400.18
407.96	8446.99
408.15	8741.90
408.34	8573.38
408.54	8786.37
408.73	9069.58
408.92	8889.35
409.11	8753.60
409.30	8163.79
409.49	7597.38
409.68	7108.21
409.87	6998.20
410.07	7749.51
410.26	8269.11
410.45	8535.93
410.64	8688.07
410.83	9104.68
411.02	9343.42
411.21	9650.03
411.40	9355.12
411.59	9437.04
411.78	9584.49
411.98	9217.03
412.17	9446.40
412.36	9446.40
412.55	9469.81
412.74	9228.73
412.93	8997.02
413.12	9067.24
413.31	10225.80
413.50	9989.41
413.69	10059.62
413.88	9511.94
414.07	9556.41
414.26	9720.24
414.45	9886.42
414.64	9881.74
414.83	10176.65
415.02	9893.44
415.22	9881.74
415.41	10153.24
415.60	10450.49
415.79	10815.62
415.98	10977.11
416.17	10942.00
416.36	10846.04
416.55	10291.34
416.74	10066.64
416.93	9785.78
417.12	9977.70
417.31	10080.69
417.50	10485.60
417.69	10513.69
417.88	10525.39
418.07	10450.49
418.26	10459.85
418.45	10724.33
418.64	11112.86
418.83	11162.01
419.02	10986.47
419.21	10848.38
419.39	10174.31
419.58	10015.15
419.77	10015.15
419.96	10558.16
420.15	11377.34
420.34	11543.52
420.53	11382.03
420.72	11648.85
420.91	11796.30
421.10	11187.76
421.29	11445.22
421.48	11138.61
421.67	11676.93
421.86	11108.18
422.05	10352.19
422.24	9364.48
422.43	9783.44
422.61	10974.77
422.80	11494.37
422.99	11246.27
423.18	10871.79
423.37	10665.82
423.56	10815.62
423.75	11016.90
423.94	11419.47
424.13	10686.89
424.32	10504.32
424.50	10663.48
424.69	10785.19
424.88	10630.71
425.07	10750.08
425.26	10581.56
425.45	10370.91
425.64	10300.70
425.83	10607.31
426.01	10993.50
426.20	11232.23
426.39	11016.90
426.58	10176.65
426.77	9441.72
426.96	9217.03
427.15	9745.99
427.33	10490.28
427.52	10590.92
427.71	10616.67
427.90	10689.23
428.09	10480.92
428.28	10342.83
428.46	9872.38
428.65	10099.41
428.84	10291.34
429.03	10469.22
429.22	9666.41
429.40	8863.61
429.59	8266.77
429.78	7358.64
429.97	7452.27
430.16	7581.00
430.34	7569.29
430.53	7758.88
430.72	7892.29
430.91	8966.59
431.10	10572.20
431.28	12381.43
431.47	12842.52
431.66	12849.54
431.85	11351.60
432.03	10675.18
432.22	10668.16
432.41	11091.80
432.60	12123.98
432.79	12765.28
432.97	12875.29
433.16	12280.79
433.35	10984.13
433.54	10019.83
433.72	9797.48
433.91	10359.21
434.10	11300.11
434.28	11955.46
434.47	12517.18
434.66	12025.67
434.85	11887.58
435.03	12161.42
435.22	12149.72
435.41	12615.49
435.59	13261.48
435.78	13090.62
435.97	13434.68
436.16	13474.46
436.34	13088.28
436.53	13165.51
436.72	13341.05
436.90	12538.25
437.09	12463.35
437.28	12217.60
437.46	12802.73
437.65	12524.21
437.84	11330.53
438.02	10953.71
438.21	11056.69
438.40	11274.36
438.58	12437.61
438.77	12795.71
438.96	12870.61
439.14	13483.83
439.33	13458.08
439.52	13776.39
439.70	13404.25
439.89	12622.51
440.08	12793.37
440.26	13092.96
440.45	13565.74
440.63	14328.76
440.82	14766.44
441.01	14649.41
441.19	14712.61
441.38	15007.52
441.57	15461.58
441.75	15456.90
441.94	15789.25
442.12	15702.65
442.31	15833.72
442.50	15948.41
442.68	15208.80
442.87	15293.06
443.05	15197.10
443.24	15286.04
443.43	16002.24
443.61	16046.71
443.80	16121.61
443.98	15534.14
444.17	15360.94
444.35	16081.82
444.54	16463.33
444.73	16355.66
444.91	15461.58
445.10	14761.76
445.28	14193.01
445.47	13898.10
445.65	14530.05
445.84	14682.18
446.02	15286.04
446.21	15644.14
446.39	15583.29
446.58	15585.63
446.77	16023.31
446.95	16074.80
447.14	16512.48
447.32	16702.06
447.51	16102.89
447.69	15730.74
447.88	15726.06
448.06	16081.82
448.25	16037.35
448.43	15932.03
448.62	15946.07
448.80	15922.66
448.99	15899.26
449.17	16065.44
449.36	16147.36
449.54	16730.15
449.73	17235.70
449.91	17385.50
450.10	17874.67
450.28	17989.36
450.46	17727.22
450.65	17933.18
450.83	17872.33
451.02	17387.84
451.20	17205.28
451.39	17132.72
451.57	17362.09
451.76	17057.82
451.94	16774.62
452.13	16636.53
452.31	15279.02
452.49	14808.57
452.68	15321.15
452.86	15049.64
453.05	15630.10
453.23	16416.52
453.42	16734.83
453.60	16727.81
453.78	17029.74
453.97	16772.28
454.15	16828.45
454.34	16156.72
454.52	16486.73
454.70	16070.12
454.89	16346.30
455.07	16102.89
455.26	16966.54
455.44	17345.71
455.62	17891.06
455.81	17556.36
455.99	17610.19
456.17	17460.40
456.36	17687.43
456.54	18352.14
456.73	17710.83
456.91	18113.41
457.09	18415.34
457.28	18651.73
457.46	18136.81
457.64	17598.49
457.83	17191.23
458.01	16863.56
458.19	17523.59
458.38	17621.89
458.56	18118.09
458.74	18033.83
458.93	17586.79
459.11	17647.64
459.29	17200.60
459.48	17923.82
459.66	17259.11
459.84	17659.34
460.03	17898.08
460.21	18017.44
460.39	19049.62
460.57	18551.09
460.76	18345.12
460.94	18534.70
461.12	18328.74
461.31	17991.70
461.49	18375.55
461.67	18560.45
461.85	18909.19
462.04	18750.03
462.22	19400.70
462.40	18937.27
462.59	18752.37
462.77	18925.57
462.95	18607.26
463.13	18689.18
463.32	18389.59
463.50	18483.21
463.68	18464.49
463.86	18735.99
464.05	18218.73
464.23	17444.01
464.41	17736.58
464.59	17455.72
464.78	18396.61
464.96	18167.24
465.14	18319.37
465.32	18656.41
465.50	18881.10
465.69	19541.13
465.87	18654.07
466.05	18003.40
466.23	17170.17
466.41	16994.63
466.60	18225.75
466.78	17582.10
466.96	17996.38
467.14	18230.43
467.32	18185.96
467.51	18342.78
467.69	17317.62
467.87	18036.17
468.05	18394.27
468.23	18253.84
468.41	18373.21
468.60	18141.49
468.78	18387.25
468.96	18092.34
469.14	18768.76
469.32	18743.01
469.50	17802.11
469.69	17806.80
469.87	17453.37
470.05	17961.27
470.23	17715.51
470.41	17977.65
470.59	18017.44
470.77	18260.86
470.95	18431.72
471.14	18946.64
471.32	18604.92
471.50	19580.92
471.68	19845.40
471.86	19871.15
472.04	20271.38
472.22	19957.75
472.40	18775.78
472.58	18850.67
472.77	18787.48
472.95	19019.19
473.13	19557.52
473.31	18956.00
473.49	19293.04
473.67	19618.37
473.85	19833.70
474.03	20453.94
474.21	20556.93
474.39	20781.62
474.57	20666.93
474.75	20898.64
474.93	20575.65
475.12	20259.68
475.30	19733.06
475.48	19817.32
475.66	20013.92
475.84	19852.42
476.02	19763.48
476.20	19154.94
476.38	20166.06
476.56	20865.88
476.74	20971.20
476.92	20947.79
477.10	21097.59
477.28	22349.78
477.46	21940.18
477.64	22094.66
477.82	22375.52
478.00	22885.76
478.18	22005.72
478.36	21713.15
478.54	22197.64
478.72	22497.23
478.90	23269.61
479.08	24034.96
479.26	23456.85
479.44	23414.72
479.62	23381.95
479.80	23073.00
479.98	23690.90
480.16	24100.50
480.34	23396.00
480.52	23992.83
480.70	24437.53
480.88	23903.89
481.06	24613.07
481.24	24252.63
481.41	25144.38
481.59	25628.87
481.77	25420.56
481.95	25713.13
482.13	25521.20
482.31	25132.67
482.49	26146.12
482.67	25902.71
482.85	25909.73
483.03	26015.05
483.21	26597.85
483.39	26195.28
483.57	25326.94
483.74	24952.45
483.92	25804.41
484.10	25624.18
484.28	26279.54
484.46	26438.69
484.64	26494.86
484.82	25881.64
485.00	25577.37
485.18	25249.70
485.35	24065.39
485.53	21474.42
485.71	20135.63
485.89	20542.88
486.07	21469.73
486.25	23716.65
486.43	24559.24
486.61	25310.55
486.78	25310.55
486.96	26403.58
487.14	26452.73
487.32	26586.15
487.50	28079.41
487.68	28549.85
487.85	29261.38
488.03	29020.30
488.21	28732.42
488.39	27941.32
488.57	27288.31
488.75	27740.03
488.92	29013.28
489.10	30831.88
489.28	31199.34
489.46	31962.36
489.64	31559.78
489.81	31686.17
489.99	31604.25
490.17	31793.84
490.35	32203.43
490.53	31056.57
490.70	30494.84
490.88	30778.04
491.06	31538.72
491.24	31512.97
491.41	30075.88
491.59	28804.97
491.77	28257.29
491.95	29860.55
492.13	31199.34
492.30	31985.76
492.48	33277.74
492.66	33582.01
492.84	33177.09
493.01	32886.87
493.19	32093.43
493.37	32444.51
493.54	33008.58
493.72	33888.62
493.90	34036.07
494.08	33633.50
494.25	35124.42
494.43	35019.10
494.61	35044.84
494.79	35768.07
494.96	34862.28
495.14	34073.52
495.32	33694.35
495.49	33472.00
495.67	34789.72
495.85	36055.95
496.02	36528.74
496.20	36318.09
496.38	35681.47
496.55	35587.85
496.73	36240.86
496.91	35871.05
497.09	37574.96
497.26	36973.44
497.44	36226.81
497.62	35222.72
497.79	34635.25
497.97	33769.25
498.14	34291.19
498.32	36046.59
498.50	36451.50
498.67	36254.90
498.85	36889.18
499.03	36727.69
499.20	37479.00
499.38	37989.24
499.56	37165.37
499.73	36278.30
499.91	35463.80
500.08	34190.55
500.26	33865.21
500.44	34660.99
500.61	35714.23
500.79	35306.98
500.97	34520.56
501.14	34717.17
501.32	34621.20
501.49	35089.31
501.67	35395.92
501.84	35608.91
502.02	35981.06
502.20	36388.31
502.37	36519.38
502.55	36378.95
502.72	36622.36
502.90	37411.12
503.07	36844.71
503.25	36102.76
503.43	35154.85
503.60	34885.68
503.78	33996.28
503.95	35089.31
504.13	37401.76
504.30	37834.76
504.48	37078.77
504.65	36683.22
504.83	36678.54
505.01	37289.42
505.18	37401.76
505.36	38143.71
505.53	39021.41
505.71	39566.76
505.88	40112.10
506.06	39297.59
506.23	38644.59
506.41	38345.00
506.58	38682.03
506.76	37607.73
506.93	37844.12
507.11	37535.17
507.28	37219.20
507.46	37083.45
507.63	36568.53
507.81	36009.14
507.98	36018.50
508.16	37146.64
508.33	38710.12
508.50	38604.80
508.68	39166.52
508.85	39791.45
509.03	39761.02
509.20	38897.36
509.38	37123.24
509.55	37600.71
509.73	37982.21
509.90	38066.47
510.08	37612.41
510.25	38075.84
510.42	37146.64
510.60	38309.89
510.77	39590.16
510.95	40034.86
511.12	39597.18
511.30	40446.80
511.47	39854.64
511.64	39777.40
511.82	39093.97
511.99	37706.03
512.17	38127.33
512.34	37394.74
512.51	37401.76
512.69	36931.31
512.86	36889.18
513.04	38693.74
513.21	38146.05
513.38	37336.23
513.56	36210.43
513.73	35393.58
513.90	36699.60
514.08	36151.91
514.25	37439.21
514.43	37361.97
514.60	37502.40
514.77	37177.07
514.95	38778.00
515.12	37888.59
515.29	37385.38
515.47	38178.82
515.64	39215.68
515.81	38663.31
515.99	37170.05
516.16	34717.17
516.33	31941.29
516.51	31388.92
516.68	30466.75
516.85	30061.84
517.03	31311.69
517.20	34644.61
517.37	37893.27
517.54	37467.30
517.72	36011.48
517.89	33684.99
518.06	32116.83
518.24	32863.46
518.41	34562.69
518.58	37404.10
518.75	37055.36
518.93	36596.62
519.10	36392.99
519.27	36591.94
519.45	38007.96
519.62	37467.30
519.79	37738.80
519.96	38148.39
520.14	37656.88
520.31	36299.37
520.48	36797.90
520.65	37315.16
520.83	39260.15
521.00	39068.22
521.17	38473.73
521.34	39012.05
521.52	38829.49
521.69	38424.57
521.86	39037.80
522.03	38803.74
522.20	37055.36
522.38	36067.66
522.55	37275.37
522.72	37048.34
522.89	36643.43
523.07	37514.11
523.24	37921.36
523.41	39201.63
523.58	38686.71
523.75	39491.86
523.92	40222.11
524.10	39662.72
524.27	39660.38
524.44	40055.93
524.61	39093.97
524.78	38464.36
524.96	38426.92
525.13	38033.71
525.30	38693.74
525.47	39510.58
525.64	39489.52
525.81	37926.04
525.98	35861.69
526.16	35545.72
526.33	33125.60
526.50	32631.75
526.67	32531.11
526.84	33923.72
527.01	35931.90
527.18	36402.35
527.36	38382.45
527.53	37998.60
527.70	37968.17
527.87	37111.53
528.04	38295.85
528.21	38567.35
528.38	40121.46
528.55	41158.32
528.72	41144.28
528.89	40851.71
529.07	39892.09
529.24	38176.48
529.41	37902.64
529.58	38026.68
529.75	38211.59
529.92	39639.31
530.09	40030.18
530.26	39798.47
530.43	40484.25
530.60	40194.02
530.77	40016.14
530.94	40212.74
531.11	39040.14
531.28	38330.95
531.46	38129.67
531.63	38017.32
531.80	38068.81
531.97	36847.05
532.14	36425.76
532.31	35035.48
532.48	35824.24
532.65	35826.58
532.82	36456.18
532.99	38363.72
533.16	39241.42
533.33	38389.47
533.50	37090.47
533.67	37434.53
533.84	37958.81
534.01	37757.52
534.18	38234.99
534.35	38630.54
534.52	37537.51
534.69	39814.85
534.86	39051.84
535.03	38099.24
535.20	39618.25
535.37	40229.13
535.54	40357.86
535.71	40011.46
535.88	39068.22
536.05	38031.36
536.22	37869.87
536.38	37591.34
536.55	35445.07
536.72	35674.45
536.89	36411.71
537.06	36683.22
537.23	39108.01
537.40	38988.64
537.57	38953.54
537.74	38440.96
537.91	38976.94
538.08	37907.32
538.25	37675.60
538.42	38288.82
538.59	38387.13
538.75	36561.51
538.92	36891.52
539.09	37296.44
539.26	36856.42
539.43	36514.70
539.60	36744.07
539.77	38036.05
539.94	36671.51
540.11	35292.94
540.28	34668.02
540.44	35028.46
540.61	35821.90
540.78	37202.82
540.95	37979.87
541.12	37326.86
541.29	37661.56
541.46	37673.26
541.62	38286.48
541.79	38686.71
541.96	37507.08
542.13	36161.28
542.30	35920.20
542.47	36107.44
542.63	36470.23
542.80	36044.25
542.97	36847.05
543.14	36177.66
543.31	36751.09
543.48	37221.54
543.64	37865.19
543.81	38422.23
543.98	38057.11
544.15	37090.47
544.32	35955.31
544.48	37125.58
544.65	37722.41
544.82	38417.55
544.99	36825.99
545.16	36788.54
545.32	36662.15
545.49	37778.59
545.66	37134.94
545.83	35974.03
546.00	36591.94
546.16	36861.10
546.33	36795.56
546.50	36205.75
546.67	37666.24
546.83	36896.20
547.00	36261.92
547.17	35967.01
547.34	35089.31
547.50	35777.43
547.67	36311.07
547.84	36306.39
548.00	37188.77
548.17	37020.25
548.34	36500.65
548.51	36385.97
548.67	37640.50
548.84	37509.43
549.01	37617.09
549.18	37376.01
549.34	36517.04
549.51	36765.14
549.68	37233.24
549.84	36830.67
550.01	36086.38
550.18	36510.02
550.34	35534.01
550.51	36037.23
550.68	36465.55
550.84	35934.24
551.01	35871.05
551.18	36547.47
551.34	36851.73
551.51	35992.76
551.68	36692.58
551.84	37942.42
552.01	37528.15
552.18	36503.00
552.34	36044.25
552.51	35634.66
552.68	36367.24
552.84	36765.14
553.01	35730.62
553.18	35634.66
553.34	35594.87
553.51	36676.19
553.67	36713.64
553.84	35873.39
554.01	35833.60
554.17	35959.99
554.34	36360.22
554.51	35601.89
554.67	35679.13
554.84	36254.90
555.00	36425.76
555.17	36037.23
555.33	35365.49
555.50	36025.53
555.67	34855.26
555.83	34595.46
556.00	33397.10
556.16	34347.36
556.33	33780.95
556.50	35108.04
556.66	35442.73
556.83	35494.22
556.99	34873.98
557.16	34600.14
557.32	35154.85
557.49	35564.44
557.65	35452.09
557.82	35730.62
557.98	35267.19
558.15	35206.34
558.32	34600.14
558.48	32182.37
558.65	32343.86
558.81	31793.84
558.98	32409.40
559.14	34052.45
559.31	34920.79
559.47	33223.90
559.64	32425.78
559.80	31189.98
559.97	32896.23
560.13	34230.33
560.30	34195.23
560.46	35402.94
560.63	35955.31
560.79	36495.97
560.96	34251.40
561.12	33062.41
561.29	32781.54
561.45	32318.12
561.61	32627.07
561.78	32783.88
561.94	33830.10
562.11	33549.24
562.27	34457.37
562.44	34352.04
562.60	34668.02
562.77	34703.12
562.93	34593.12
563.10	33392.42
563.26	33165.39
563.42	33369.02
563.59	32402.38
563.75	32575.58
563.92	32884.53
564.08	33483.70
564.24	32774.52
564.41	32624.73
564.57	34132.03
564.74	33167.73
564.90	32772.18
565.07	32849.42
565.23	31676.81
565.39	31557.44
565.56	31660.43
565.72	30806.13
565.88	30995.71
566.05	32079.38
566.21	33195.82
566.38	31681.49
566.54	32341.52
566.70	33003.89
566.87	33205.18
567.03	32493.66
567.19	32165.98
567.36	32439.82
567.52	31976.40
567.68	32652.81
567.85	31194.66
568.01	30312.28
568.17	31164.23
568.34	32278.33
568.50	32009.17
568.66	32760.48
568.83	32116.83
568.99	31791.50
569.15	31962.36
569.32	32526.42
569.48	31367.86
569.64	31023.80
569.81	31625.32
569.97	31180.62
570.13	31880.44
570.30	31615.96
570.46	30443.35
570.62	29677.99
570.78	29708.42
570.95	30817.83
571.11	31187.64
571.27	31381.90
571.43	31768.09
571.60	31197.00
571.76	31604.25
571.92	32154.28
572.09	31412.33
572.25	32430.46
572.41	32856.44
572.57	33111.56
572.74	32795.59
572.90	32357.91
573.06	31796.18
573.22	30632.93
573.38	30892.73
573.55	30934.86
573.71	30228.02
573.87	30473.78
574.03	31140.83
574.20	31061.25
574.36	31468.50
574.52	32257.26
574.68	30424.62
574.84	29310.53
575.01	29694.38
575.17	30022.05
575.33	30625.91
575.49	29818.42
575.65	29876.94
575.82	30422.28
575.98	30003.33
576.14	29783.32
576.30	29626.50
576.46	30054.82
576.62	30801.45
576.79	30773.36
576.95	29696.72
577.11	28783.91
577.27	29930.77
577.43	30452.71
577.59	29869.92
577.75	29858.21
577.92	28570.92
578.08	28348.57
578.24	29167.76
578.40	28648.16
578.56	29104.56
578.72	29425.22
578.88	29142.01
579.04	29919.07
579.21	29546.92
579.37	29516.50
579.53	30417.60
579.69	31000.40
579.85	29902.68
580.01	29392.45
580.17	28886.89
580.33	29677.99
580.49	29905.02
580.65	28678.58
580.82	29008.60
580.98	29249.67
581.14	30490.16
581.30	29163.08
581.46	29816.08
581.62	29425.22
581.78	29455.64
581.94	29556.28
582.10	30213.98
582.26	29937.79
582.42	29851.19
582.58	29738.85
582.74	29806.72
582.90	29706.08
583.06	29792.68
583.22	29457.98
583.38	29851.19
583.54	29516.50
583.70	29820.77
583.86	29633.52
584.02	29921.41
584.18	29979.92
584.34	30162.48
584.50	29233.29
584.66	29134.99
584.82	28919.66
584.98	29069.45
585.14	28442.19
585.30	28084.09
585.46	28299.42
585.62	27995.15
585.78	28112.17
585.94	28603.69
586.10	27697.90
586.26	27995.15
