SpectraSuite Data File
++++++++++++++++++++++++++++++++++++
Date: Mon Oct 07 14:54:56 GMT-05:00 2013
User: price-jones
Dark Spectrum Present: No
Reference Spectrum Present: No
Number of Sampled Component Spectra: 1
Spectrometers: USB2+H05261
Integration Time (usec): 10000 (USB2+H05261)
Spectra Averaged: 1 (USB2+H05261)
Boxcar Smoothing: 0 (USB2+H05261)
Correct for Electrical Dark: No (USB2+H05261)
Strobe/Lamp Enabled: No (USB2+H05261)
Correct for Detector Non-linearity: No (USB2+H05261)
Correct for Stray Light: No (USB2+H05261)
Number of Pixels in Processed Spectrum: 2048
>>>>>Begin Processed Spectral Data<<<<<
365.73	0.00
365.92	0.00
366.12	0.00
366.32	0.00
366.52	0.00
366.72	0.00
366.91	0.00
367.11	0.00
367.31	0.00
367.51	0.00
367.70	0.00
367.90	0.00
368.10	0.00
368.30	0.00
368.49	0.00
368.69	0.00
368.89	0.00
369.09	0.00
369.28	0.00
369.48	0.00
369.68	0.00
369.87	0.00
370.07	0.00
370.27	0.00
370.47	0.00
370.66	0.00
370.86	58.51
371.06	159.16
371.25	166.18
371.45	110.01
371.65	91.28
371.84	16.38
372.04	53.83
372.24	145.11
372.44	100.64
372.63	182.56
372.83	93.62
373.03	98.30
373.22	44.47
373.42	149.79
373.62	91.28
373.81	182.56
374.01	210.65
374.21	102.98
374.40	126.39
374.60	100.64
374.79	86.60
374.99	220.01
375.19	287.89
375.38	346.40
375.58	271.50
375.78	245.76
375.97	311.29
376.17	184.90
376.37	231.71
376.56	161.50
376.76	334.70
376.95	308.95
377.15	334.70
377.35	276.18
377.54	395.55
377.74	418.96
377.93	407.25
378.13	360.44
378.33	353.42
378.52	346.40
378.72	313.63
378.91	306.61
379.11	229.37
379.31	245.76
379.50	224.69
379.70	330.02
379.89	365.12
380.09	301.93
380.28	297.25
380.48	444.70
380.68	425.98
380.87	372.15
381.07	311.29
381.26	243.42
381.46	220.01
381.65	229.37
381.85	220.01
382.04	81.92
382.24	117.03
382.43	81.92
382.63	70.22
382.83	131.07
383.02	163.84
383.22	112.35
383.41	128.73
383.61	140.43
383.80	252.78
384.00	220.01
384.19	294.91
384.39	344.06
384.58	428.32
384.78	402.57
384.97	311.29
385.17	313.63
385.36	306.61
385.56	241.08
385.75	220.01
385.95	372.15
386.14	327.68
386.34	341.72
386.53	341.72
386.72	222.35
386.92	365.12
387.11	304.27
387.31	362.78
387.50	358.10
387.70	367.46
387.89	330.02
388.09	322.99
388.28	290.23
388.48	346.40
388.67	355.76
388.86	456.40
389.06	498.53
389.25	564.07
389.45	533.64
389.64	547.69
389.84	545.34
390.03	550.03
390.22	704.50
390.42	540.66
390.61	620.24
390.81	634.29
391.00	683.44
391.19	678.76
391.39	657.69
391.58	557.05
391.78	517.26
391.97	521.94
392.16	582.79
392.36	418.96
392.55	322.99
392.75	229.37
392.94	46.81
393.13	114.69
393.33	173.20
393.52	205.97
393.71	425.98
393.91	461.09
394.10	507.90
394.29	566.41
394.49	620.24
394.68	653.01
394.88	716.20
395.07	723.23
395.26	704.50
395.46	709.18
395.65	753.65
395.84	507.90
396.04	451.72
396.23	322.99
396.42	119.37
396.62	191.92
396.81	280.86
397.00	437.68
397.19	613.22
397.39	681.10
397.58	793.44
397.77	898.77
397.97	896.43
398.16	924.51
398.35	959.62
398.55	1046.22
398.74	1114.10
398.93	1050.90
399.12	1078.99
399.32	1006.43
399.51	1011.11
399.70	1177.29
399.90	1104.73
400.09	1132.82
400.28	1130.48
400.47	1114.10
400.67	978.34
400.86	1228.78
401.05	1193.67
401.24	1212.40
401.44	1193.67
401.63	1196.01
401.82	1266.23
402.01	1270.91
402.21	1369.21
402.40	1268.57
402.59	1212.40
402.78	1181.97
402.97	1116.44
403.17	1121.12
403.36	1132.82
403.55	1343.47
403.74	1306.02
403.93	1289.64
404.13	1210.06
404.32	1093.03
404.51	1186.65
404.70	1228.78
404.89	1282.61
405.09	1263.89
405.28	1238.14
405.47	1226.44
405.66	1177.29
405.85	1212.40
406.05	1130.48
406.24	1104.73
406.43	1242.82
406.62	1291.98
406.81	1301.34
407.00	1165.59
407.20	1186.65
407.39	1172.61
407.58	1294.32
407.77	1322.40
407.96	1401.98
408.15	1416.02
408.34	1413.68
408.54	1603.27
408.73	1425.39
408.92	1537.73
409.11	1430.07
409.30	1465.18
409.49	1181.97
409.68	1142.18
409.87	1004.09
410.07	1130.48
410.26	1299.00
410.45	1451.13
410.64	1451.13
410.83	1521.35
411.02	1399.64
411.21	1593.90
411.40	1465.18
411.59	1528.37
411.78	1497.94
411.98	1556.46
412.17	1675.82
412.36	1516.67
412.55	1668.80
412.74	1575.18
412.93	1434.75
413.12	1488.58
413.31	1748.38
413.50	1713.27
413.69	1610.29
413.88	1605.61
414.07	1563.48
414.26	1678.16
414.45	1696.89
414.64	1579.86
414.83	1671.14
415.02	1610.29
415.22	1556.46
415.41	1668.80
415.60	1666.46
415.79	1816.26
415.98	1739.02
416.17	1849.02
416.36	1764.76
416.55	1853.70
416.74	1661.78
416.93	1547.09
417.12	1640.72
417.31	1647.74
417.50	1673.48
417.69	1685.19
417.88	1701.57
418.07	1717.95
418.26	1694.55
418.45	1664.12
418.64	1757.74
418.83	1820.94
419.02	1846.68
419.21	1923.92
419.39	1750.72
419.58	1572.84
419.77	1591.56
419.96	1753.06
420.15	1696.89
420.34	1816.26
420.53	1884.13
420.72	1996.48
420.91	2029.24
421.10	1858.39
421.29	1842.00
421.48	1865.41
421.67	1944.99
421.86	1760.08
422.05	1694.55
422.24	1558.80
422.43	1598.59
422.61	1703.91
422.80	1832.64
422.99	1846.68
423.18	1781.15
423.37	1708.59
423.56	1703.91
423.75	1825.62
423.94	1851.36
424.13	1685.19
424.32	1760.08
424.50	1774.13
424.69	1673.48
424.88	1778.81
425.07	1720.29
425.26	1713.27
425.45	1652.42
425.64	1593.90
425.83	1645.40
426.01	1767.10
426.20	1762.42
426.39	1853.70
426.58	1577.52
426.77	1427.73
426.96	1439.43
427.15	1458.15
427.33	1694.55
427.52	1699.23
427.71	1720.29
427.90	1647.74
428.09	1666.46
428.28	1694.55
428.46	1645.40
428.65	1617.31
428.84	1591.56
429.03	1607.95
429.22	1511.99
429.40	1469.86
429.59	1301.34
429.78	1036.86
429.97	1123.46
430.16	1200.69
430.34	1219.42
430.53	1160.91
430.72	1210.06
430.91	1355.17
431.10	1596.25
431.28	1877.11
431.47	1954.35
431.66	2026.90
431.85	1811.57
432.03	1743.70
432.22	1666.46
432.41	1699.23
432.60	1790.51
432.79	1874.77
432.97	1959.03
433.16	1940.30
433.35	1820.94
433.54	1481.56
433.72	1465.18
433.91	1514.33
434.10	1643.06
434.28	1816.26
434.47	2043.29
434.66	1830.30
434.85	1792.85
435.03	1724.97
435.22	1954.35
435.41	2043.29
435.59	2085.42
435.78	2022.22
435.97	2157.97
436.16	2176.70
436.34	2146.27
436.53	1968.39
436.72	1926.26
436.90	1956.69
437.09	1954.35
437.28	1998.82
437.46	2012.86
437.65	1935.62
437.84	1844.34
438.02	1640.72
438.21	1582.20
438.40	1753.06
438.58	1858.39
438.77	1942.64
438.96	2010.52
439.14	2031.58
439.33	2118.18
439.52	2179.04
439.70	2176.70
439.89	1977.75
440.08	2026.90
440.26	1989.46
440.45	2080.74
440.63	2157.97
440.82	2331.17
441.01	2239.89
441.19	2298.41
441.38	2333.51
441.57	2427.14
441.75	2413.09
441.94	2389.69
442.12	2401.39
442.31	2502.03
442.50	2516.08
442.68	2525.44
442.87	2462.24
443.05	2420.11
443.24	2424.80
443.43	2457.56
443.61	2562.89
443.80	2483.31
443.98	2340.54
444.17	2420.11
444.35	2476.29
444.54	2436.50
444.73	2583.95
444.91	2466.92
445.10	2392.03
445.28	2328.83
445.47	2211.81
445.65	2200.10
445.84	2244.57
446.02	2410.75
446.21	2359.26
446.39	2403.73
446.58	2401.39
446.77	2443.52
446.95	2506.71
447.14	2619.06
447.32	2588.63
447.51	2434.16
447.69	2324.15
447.88	2420.11
448.06	2415.43
448.25	2509.05
448.43	2537.14
448.62	2459.90
448.80	2429.48
448.99	2471.61
449.17	2429.48
449.36	2356.92
449.54	2586.29
449.73	2583.95
449.91	2710.34
450.10	2745.45
450.28	2789.92
450.46	2696.30
450.65	2700.98
450.83	2747.79
451.02	2747.79
451.20	2551.18
451.39	2700.98
451.57	2588.63
451.76	2583.95
451.94	2651.83
452.13	2633.10
452.31	2452.88
452.49	2328.83
452.68	2427.14
452.86	2324.15
453.05	2335.85
453.23	2368.62
453.42	2583.95
453.60	2567.57
453.78	2605.02
453.97	2612.04
454.15	2623.74
454.34	2544.16
454.52	2427.14
454.70	2583.95
454.89	2406.07
455.07	2424.80
455.26	2504.37
455.44	2736.09
455.62	2602.68
455.81	2630.76
455.99	2693.96
456.17	2729.06
456.36	2658.85
456.54	2825.03
456.73	2778.22
456.91	2722.04
457.09	2782.90
457.28	2850.77
457.46	2705.66
457.64	2590.97
457.83	2665.87
458.01	2544.16
458.19	2532.46
458.38	2665.87
458.56	2810.98
458.74	2836.73
458.93	2644.81
459.11	2656.51
459.29	2619.06
459.48	2480.97
459.66	2609.70
459.84	2593.31
460.03	2757.15
460.21	2722.04
460.39	2590.97
460.57	2764.17
460.76	2745.45
460.94	2818.00
461.12	2829.71
461.31	2780.56
461.49	2771.19
461.67	2839.07
461.85	2773.53
462.04	2876.52
462.22	2977.16
462.40	2951.42
462.59	2827.37
462.77	2888.22
462.95	2883.54
463.13	2712.68
463.32	2708.00
463.50	2736.09
463.68	2813.32
463.86	2705.66
464.05	2691.62
464.23	2686.94
464.41	2665.87
464.59	2520.76
464.78	2785.24
464.96	2761.83
465.14	2626.08
465.32	2712.68
465.50	2857.79
465.69	2885.88
465.87	2771.19
466.05	2759.49
466.23	2612.04
466.41	2544.16
466.60	2649.49
466.78	2628.42
466.96	2651.83
467.14	2658.85
467.32	2729.06
467.51	2752.47
467.69	2600.34
467.87	2595.65
468.05	2752.47
468.23	2916.31
468.41	2738.43
468.60	2820.35
468.78	2752.47
468.96	2658.85
469.14	2747.79
469.32	2853.11
469.50	2574.59
469.69	2614.38
469.87	2677.57
470.05	2661.19
470.23	2612.04
470.41	2736.09
470.59	2661.19
470.77	2658.85
470.95	2708.00
471.14	2761.83
471.32	2754.81
471.50	2949.08
471.68	2993.55
471.86	2972.48
472.04	3042.70
472.22	2977.16
472.40	2876.52
472.58	2864.82
472.77	2794.60
472.95	2836.73
473.13	3023.97
473.31	2808.64
473.49	2881.20
473.67	2890.56
473.85	2949.08
474.03	3131.64
474.21	3014.61
474.39	2972.48
474.57	3030.99
474.75	3030.99
474.93	3016.95
475.12	2906.95
475.30	2916.31
475.48	2986.52
475.66	3009.93
475.84	2984.18
476.02	3115.25
476.20	2972.48
476.38	2963.12
476.56	3035.67
476.74	3171.43
476.92	3009.93
477.10	3197.17
477.28	3180.79
477.46	3386.76
477.64	3405.48
477.82	3330.58
478.00	3117.59
478.18	3321.22
478.36	3159.72
478.54	3136.32
478.72	3316.54
478.90	3368.03
479.08	3550.59
479.26	3543.57
479.44	3478.04
479.62	3435.91
479.80	3417.18
479.98	3534.21
480.16	3620.81
480.34	3508.46
480.52	3501.44
480.70	3536.55
480.88	3599.74
481.06	3609.11
481.24	3548.25
481.41	3812.73
481.59	3904.01
481.77	3672.30
481.95	3698.05
482.13	3768.26
482.31	3672.30
482.49	3684.00
482.67	3784.65
482.85	3702.73
483.03	3824.44
483.21	3913.38
483.39	3815.07
483.57	3630.17
483.74	3684.00
483.92	3672.30
484.10	3705.07
484.28	3962.53
484.46	3786.99
484.64	4004.66
484.82	3866.56
485.00	3723.79
485.18	3669.96
485.35	3623.15
485.53	3234.62
485.71	3002.91
485.89	2902.26
486.07	3038.02
486.25	3454.63
486.43	3714.43
486.61	3653.58
486.78	3723.79
486.96	3770.60
487.14	3815.07
487.32	3880.61
487.50	4037.42
487.68	4180.20
487.85	4283.18
488.03	4222.33
488.21	4297.22
488.39	4004.66
488.57	3978.91
488.75	4182.54
488.92	4142.75
489.10	4292.54
489.28	4629.58
489.46	4650.64
489.64	4601.49
489.81	4725.54
489.99	4575.75
490.17	4751.29
490.35	4702.14
490.53	4594.47
490.70	4557.02
490.88	4397.87
491.06	4650.64
491.24	4798.10
491.41	4418.93
491.59	4344.03
491.77	4109.98
491.95	4283.18
492.13	4451.70
492.30	4629.58
492.48	4896.40
492.66	4847.25
492.84	4870.65
493.01	4945.55
493.19	4779.37
493.37	4683.41
493.54	4517.23
493.72	4910.44
493.90	5008.75
494.08	5074.28
494.25	5057.90
494.43	5158.54
494.61	5296.63
494.79	5277.91
494.96	5123.43
495.14	5144.50
495.32	4882.36
495.49	4779.37
495.67	5046.20
495.85	5163.22
496.02	5317.70
496.20	5366.85
496.38	5207.69
496.55	5268.55
496.73	5313.02
496.91	5191.31
497.09	5385.57
497.26	5547.07
497.44	5266.21
497.62	5334.08
497.79	5170.24
497.97	5025.13
498.14	4840.23
498.32	5104.71
498.50	5280.25
498.67	5310.68
498.85	5343.44
499.03	5338.76
499.20	5416.00
499.38	5320.04
499.56	5397.28
499.73	5418.34
499.91	5184.29
500.08	5046.20
500.26	4959.60
500.44	5109.39
500.61	5107.05
500.79	5125.77
500.97	5055.56
501.14	5167.90
501.32	4952.57
501.49	5071.94
501.67	5142.16
501.84	5308.34
502.02	5245.14
502.20	5144.50
502.37	5383.23
502.55	5224.08
502.72	5589.20
502.90	5423.02
503.07	5556.43
503.25	5437.06
503.43	5228.76
503.60	5069.60
503.78	5036.83
503.95	5043.85
504.13	5315.36
504.30	5399.62
504.48	5266.21
504.65	5200.67
504.83	5430.04
505.01	5420.68
505.18	5621.97
505.36	5694.52
505.53	5572.82
505.71	5762.40
505.88	5731.97
506.06	5624.31
506.23	5441.75
506.41	5404.30
506.58	5486.22
506.76	5427.70
506.93	5392.59
507.11	5458.13
507.28	5397.28
507.46	5305.99
507.63	5156.20
507.81	5331.74
507.98	5210.03
508.16	5334.08
508.33	5537.71
508.50	5652.39
508.68	5830.27
508.85	5533.03
509.03	5771.76
509.20	5783.46
509.38	5638.35
509.55	5416.00
509.73	5336.42
509.90	5392.59
510.08	5493.24
510.25	5575.16
510.42	5511.96
510.60	5472.17
510.77	5540.05
510.95	5755.38
511.12	5621.97
511.30	5748.36
511.47	5860.70
511.64	5872.40
511.82	5724.95
511.99	5533.03
512.17	5483.88
512.34	5380.89
512.51	5378.55
512.69	5399.62
512.86	5570.48
513.04	5568.13
513.21	5689.84
513.38	5373.87
513.56	5210.03
513.73	5289.61
513.90	5291.95
514.08	5380.89
514.25	5394.93
514.43	5254.50
514.60	5416.00
514.77	5479.19
514.95	5500.26
515.12	5371.53
515.29	5479.19
515.47	5577.50
515.64	5783.46
515.81	5537.71
515.99	5540.05
516.16	5137.48
516.33	4652.98
516.51	4671.71
516.68	4505.53
516.85	4308.93
517.03	4355.74
517.20	4793.42
517.37	5046.20
517.54	5526.00
517.72	5334.08
517.89	4807.46
518.06	4540.64
518.24	4599.15
518.41	4968.96
518.58	5097.69
518.75	5011.09
518.93	5102.37
519.10	5184.29
519.27	5348.12
519.45	5378.55
519.62	5533.03
519.79	5483.88
519.96	5528.35
520.14	5345.78
520.31	5142.16
520.48	5273.23
520.65	5399.62
520.83	5497.92
521.00	5509.62
521.17	5504.94
521.34	5490.90
521.52	5397.28
521.69	5572.82
521.86	5827.93
522.03	5668.78
522.20	5437.06
522.38	5027.47
522.55	5249.82
522.72	5011.09
522.89	5355.15
523.07	5507.28
523.24	5472.17
523.41	5593.88
523.58	5537.71
523.75	5757.72
523.92	5659.42
524.10	5575.16
524.27	5724.95
524.44	5750.70
524.61	5554.09
524.78	5727.29
524.96	5645.37
525.13	5561.11
525.30	5720.27
525.47	5741.33
525.64	5703.89
525.81	5607.92
525.98	5088.32
526.16	4849.59
526.33	4812.14
526.50	4704.48
526.67	4660.01
526.84	4723.20
527.01	4875.34
527.18	5128.11
527.36	5341.10
527.53	5612.60
527.70	5621.97
527.87	5430.04
528.04	5305.99
528.21	5533.03
528.38	5631.33
528.55	5858.36
528.72	5827.93
528.89	5792.83
529.07	5928.58
529.24	5675.80
529.41	5582.18
529.58	5298.97
529.75	5275.57
529.92	5448.77
530.09	5495.58
530.26	5636.01
530.43	5692.18
530.60	5673.46
530.77	5802.19
530.94	5738.99
531.11	5774.10
531.28	5636.01
531.46	5610.26
531.63	5626.65
531.80	5504.94
531.97	5467.49
532.14	5287.27
532.31	5114.07
532.48	4851.93
532.65	4971.30
532.82	5111.73
532.99	5263.86
533.16	5425.36
533.33	5514.30
533.50	5551.75
533.67	5439.40
533.84	5315.36
534.01	5659.42
534.18	5387.91
534.35	5345.78
534.52	5210.03
534.69	5366.85
534.86	5348.12
535.03	5399.62
535.20	5558.77
535.37	5806.87
535.54	5841.98
535.71	5724.95
535.88	5687.50
536.05	5458.13
536.22	5453.45
536.38	5259.18
536.55	5397.28
536.72	5177.26
536.89	5128.11
537.06	5123.43
537.23	5465.15
537.40	5528.35
537.57	5549.41
537.74	5533.03
537.91	5547.07
538.08	5462.81
538.25	5469.83
538.42	5533.03
538.59	5591.54
538.75	5273.23
538.92	5214.71
539.09	5043.85
539.26	5109.39
539.43	5125.77
539.60	5296.63
539.77	5022.79
539.94	5104.71
540.11	5036.83
540.28	4983.00
540.44	4898.74
540.61	4926.83
540.78	5027.47
540.95	4980.66
541.12	5259.18
541.29	5266.21
541.46	5366.85
541.62	5387.91
541.79	5228.76
541.96	5153.86
542.13	5074.28
542.30	5256.84
542.47	5200.67
542.63	5205.35
542.80	5107.05
542.97	5046.20
543.14	5301.31
543.31	5200.67
543.48	5334.08
543.64	5413.66
543.81	5352.81
543.98	5308.34
544.15	5296.63
544.32	5076.62
544.48	5231.10
544.65	5432.38
544.82	5394.93
544.99	5219.39
545.16	5235.78
545.32	5060.24
545.49	5259.18
545.66	5455.79
545.83	5263.86
546.00	5174.92
546.16	5308.34
546.33	5160.88
546.50	5191.31
546.67	5268.55
546.83	5188.97
547.00	5238.12
547.17	5004.07
547.34	4926.83
547.50	5001.72
547.67	4908.10
547.84	4983.00
548.00	5015.77
548.17	5242.80
548.34	5069.60
548.51	5088.32
548.67	5280.25
548.84	5139.82
549.01	5247.48
549.18	5303.65
549.34	5076.62
549.51	5135.14
549.68	5167.90
549.84	5081.30
550.01	5057.90
550.18	5090.67
550.34	4959.60
550.51	5020.45
550.68	5097.69
550.84	5001.72
551.01	4975.98
551.18	4947.89
551.34	5078.96
551.51	5142.16
551.68	5046.20
551.84	5219.39
552.01	5041.51
552.18	5085.98
552.34	5020.45
552.51	4816.82
552.68	4959.60
552.84	4884.70
553.01	4880.02
553.18	4802.78
553.34	4966.62
553.51	5004.07
553.67	5144.50
553.84	5048.54
554.01	4994.70
554.17	4968.96
554.34	4999.38
554.51	4915.12
554.67	5034.49
554.84	4936.19
555.00	5104.71
555.17	5083.64
555.33	4847.25
555.50	5032.15
555.67	5020.45
555.83	4945.55
556.00	4781.71
556.16	4798.10
556.33	4882.36
556.50	4730.22
556.66	4826.18
556.83	4716.18
556.99	4858.95
557.16	4842.57
557.32	4823.84
557.49	4816.82
557.65	4826.18
557.82	4716.18
557.98	4760.65
558.15	4847.25
558.32	4493.83
558.48	4573.41
558.65	4582.77
558.81	4631.92
558.98	4652.98
559.14	4645.96
559.31	4734.90
559.47	4748.95
559.64	4603.83
559.80	4339.35
559.97	4479.79
560.13	4369.78
560.30	4870.65
560.46	4753.63
560.63	4812.14
560.79	4755.97
560.96	4823.84
561.12	4622.56
561.29	4463.40
561.45	4585.11
561.61	4690.43
561.78	4641.28
561.94	4762.99
562.11	4592.13
562.27	4540.64
562.44	4683.41
562.60	4571.07
562.77	4685.75
562.93	4542.98
563.10	4802.78
563.26	4507.87
563.42	4592.13
563.59	4547.66
563.75	4573.41
563.92	4652.98
564.08	4486.81
564.24	4493.83
564.41	4505.53
564.57	4521.92
564.74	4498.51
564.90	4557.02
565.07	4475.10
565.23	4353.40
565.39	4411.91
565.56	4404.89
565.72	4287.86
565.88	4521.92
566.05	4358.08
566.21	4512.55
566.38	4449.36
566.54	4418.93
566.70	4589.79
566.87	4449.36
567.03	4463.40
567.19	4585.11
567.36	4503.19
567.52	4610.86
567.68	4482.13
567.85	4435.32
568.01	4329.99
568.17	4271.48
568.34	4320.63
568.50	4280.84
568.66	4269.14
568.83	4341.69
568.99	4332.33
569.15	4322.97
569.32	4437.66
569.48	4320.63
569.64	4383.82
569.81	4278.50
569.97	4114.66
570.13	4276.16
570.30	4189.56
570.46	4086.58
570.62	4056.15
570.78	4032.74
570.95	4053.81
571.11	4245.73
571.27	4081.89
571.43	4238.71
571.60	4189.56
571.76	4339.35
571.92	4180.20
572.09	4227.01
572.25	4304.25
572.41	4320.63
572.57	4184.88
572.74	4311.27
572.90	4154.45
573.06	4215.30
573.22	4117.00
573.38	4189.56
573.55	4184.88
573.71	4217.65
573.87	4252.75
574.03	4161.47
574.20	4161.47
574.36	4140.41
574.52	4117.00
574.68	4009.34
574.84	4131.05
575.01	4074.87
575.17	4039.76
575.33	3960.19
575.49	4028.06
575.65	4037.42
575.82	4042.11
575.98	3960.19
576.14	4067.85
576.30	4142.75
576.46	4030.40
576.62	4180.20
576.79	3913.38
576.95	4021.04
577.11	4037.42
577.27	4035.08
577.43	3845.50
577.59	4147.43
577.75	3990.61
577.92	3829.12
578.08	3801.03
578.24	3871.25
578.40	3742.52
578.56	4044.45
578.72	4014.02
578.88	3995.29
579.04	3929.76
579.21	4037.42
579.37	3927.42
579.53	3857.20
579.69	4145.09
579.85	3969.55
580.01	3908.69
580.17	3992.95
580.33	3922.74
580.49	4037.42
580.65	3808.05
580.82	3992.95
580.98	4126.36
581.14	3990.61
581.30	3911.04
581.46	3784.65
581.62	4037.42
581.78	3915.72
581.94	3838.48
582.10	3899.33
582.26	4035.08
582.42	3946.14
582.58	4011.68
582.74	3992.95
582.90	3974.23
583.06	3941.46
583.22	4044.45
583.38	3896.99
583.54	3889.97
583.70	4032.74
583.86	4004.66
584.02	4070.19
584.18	3819.75
584.34	3920.40
584.50	4002.32
584.66	3950.82
584.82	3824.44
584.98	3812.73
585.14	3847.84
585.30	3681.66
585.46	3721.45
585.62	3618.47
585.78	3592.72
585.94	3712.09
586.10	3765.92
586.26	3709.75
586.42	3864.22
586.58	3843.16
586.74	3859.54
586.90	3688.68
587.06	3889.97
587.22	3843.16
587.38	3822.09
587.54	3747.20
587.70	3620.81
587.86	3630.17
588.02	3522.51
588.18	3583.36
588.34	3433.57
588.49	3243.98
588.65	3255.69
588.81	3035.67
588.97	3070.78
589.13	3047.38
589.29	3190.15
589.45	3157.38
589.61	3157.38
589.77	3323.56
589.93	3389.10
590.08	3459.31
590.24	3581.02
590.40	3534.21
590.56	3592.72
590.72	3461.65
590.88	3456.97
591.04	3548.25
591.20	3414.84
591.35	3428.88
591.51	3475.70
591.67	3440.59
591.83	3543.57
591.99	3564.64
592.15	3475.70
592.31	3492.08
592.46	3412.50
592.62	3398.46
592.78	3410.16
592.94	3424.20
593.10	3456.97
593.26	3508.46
593.41	3478.04
593.57	3412.50
593.73	3478.04
593.89	3410.16
594.05	3431.23
594.20	3468.67
594.36	3461.65
594.52	3267.39
594.68	3176.11
594.84	3323.56
594.99	3461.65
595.15	3370.37
595.31	3407.82
595.47	3309.52
595.62	3339.94
595.78	3452.29
595.94	3550.59
596.10	3562.30
596.25	3531.87
596.41	3384.41
596.57	3424.20
596.73	3379.73
596.88	3419.52
597.04	3323.56
597.20	3279.09
597.36	3157.38
597.51	3314.20
597.67	3290.79
597.83	3126.96
597.99	3243.98
598.14	3211.22
