SpectraSuite Data File
++++++++++++++++++++++++++++++++++++
Date: Mon Oct 07 14:54:55 GMT-05:00 2013
User: price-jones
Dark Spectrum Present: No
Reference Spectrum Present: No
Number of Sampled Component Spectra: 1
Spectrometers: USB2+H05261
Integration Time (usec): 10000 (USB2+H05261)
Spectra Averaged: 1 (USB2+H05261)
Boxcar Smoothing: 0 (USB2+H05261)
Correct for Electrical Dark: No (USB2+H05261)
Strobe/Lamp Enabled: No (USB2+H05261)
Correct for Detector Non-linearity: No (USB2+H05261)
Correct for Stray Light: No (USB2+H05261)
Number of Pixels in Processed Spectrum: 2048
>>>>>Begin Processed Spectral Data<<<<<
365.73	0.00
365.92	0.00
366.12	0.00
366.32	0.00
366.52	0.00
366.72	0.00
366.91	0.00
367.11	0.00
367.31	0.00
367.51	0.00
367.70	0.00
367.90	0.00
368.10	0.00
368.30	0.00
368.49	0.00
368.69	0.00
368.89	0.00
369.09	0.00
369.28	0.00
369.48	0.00
369.68	0.00
369.87	0.00
370.07	0.00
370.27	0.00
370.47	0.00
370.66	0.00
370.86	63.19
371.06	18.72
371.25	21.06
371.45	37.45
371.65	0.00
371.84	0.00
372.04	0.00
372.24	60.85
372.44	0.00
372.63	126.39
372.83	0.00
373.03	0.00
373.22	4.68
373.42	0.00
373.62	0.00
373.81	42.13
374.01	56.17
374.21	18.72
374.40	23.41
374.60	0.00
374.79	142.77
374.99	86.60
375.19	84.26
375.38	110.01
375.58	93.62
375.78	53.83
375.97	126.39
376.17	135.75
376.37	112.35
376.56	81.92
376.76	198.95
376.95	126.39
377.15	205.97
377.35	215.33
377.54	177.88
377.74	278.52
377.93	269.16
378.13	257.46
378.33	166.18
378.52	177.88
378.72	170.86
378.91	166.18
379.11	180.22
379.31	126.39
379.50	93.62
379.70	74.90
379.89	156.82
380.09	191.92
380.28	196.60
380.48	264.48
380.68	224.69
380.87	196.60
381.07	142.77
381.26	166.18
381.46	156.82
381.65	98.30
381.85	177.88
382.04	23.41
382.24	100.64
382.43	86.60
382.63	60.85
382.83	2.34
383.02	91.28
383.22	42.13
383.41	39.79
383.61	46.81
383.80	63.19
384.00	159.16
384.19	142.77
384.39	250.44
384.58	201.29
384.78	170.86
384.97	180.22
385.17	156.82
385.36	161.50
385.56	112.35
385.75	138.09
385.95	229.37
386.14	241.08
386.34	175.54
386.53	170.86
386.72	271.50
386.92	166.18
387.11	170.86
387.31	147.45
387.50	194.26
387.70	217.67
387.89	135.75
388.09	159.16
388.28	198.95
388.48	205.97
388.67	255.12
388.86	320.65
389.06	299.59
389.25	351.08
389.45	393.21
389.64	360.44
389.84	322.99
390.03	414.27
390.22	395.55
390.42	376.83
390.61	447.04
390.81	456.40
391.00	477.47
391.19	418.96
391.39	418.96
391.58	372.15
391.78	308.95
391.97	379.17
392.16	280.86
392.36	231.71
392.55	126.39
392.75	67.88
392.94	0.00
393.13	0.00
393.33	30.43
393.52	159.16
393.71	205.97
393.91	322.99
394.10	348.74
394.29	400.23
394.49	456.40
394.68	477.47
394.88	308.95
395.07	454.06
395.26	472.79
395.46	477.47
395.65	510.24
395.84	374.49
396.04	299.59
396.23	166.18
396.42	91.28
396.62	53.83
396.81	152.13
397.00	290.23
397.19	397.89
397.39	465.77
397.58	503.22
397.77	678.76
397.97	627.26
398.16	641.31
398.35	779.40
398.55	692.80
398.74	786.42
398.93	840.25
399.12	821.53
399.32	725.57
399.51	807.48
399.70	814.51
399.90	826.21
400.09	765.36
400.28	786.42
400.47	856.64
400.67	866.00
400.86	866.00
401.05	847.27
401.24	866.00
401.44	840.25
401.63	945.58
401.82	866.00
402.01	943.24
402.21	1011.11
402.40	980.68
402.59	954.94
402.78	795.78
402.97	695.14
403.17	875.36
403.36	800.46
403.55	922.17
403.74	966.64
403.93	894.08
404.13	849.61
404.32	823.87
404.51	917.49
404.70	847.27
404.89	983.02
405.09	947.92
405.28	912.81
405.47	924.51
405.66	875.36
405.85	826.21
406.05	898.77
406.24	800.46
406.43	940.90
406.62	898.77
406.81	980.68
407.00	940.90
407.20	891.74
407.39	931.53
407.58	924.51
407.77	926.85
407.96	976.00
408.15	1022.81
408.34	1067.28
408.54	1167.93
408.73	1015.79
408.92	1078.99
409.11	1018.13
409.30	957.28
409.49	889.40
409.68	903.45
409.87	812.17
410.07	887.06
410.26	938.55
410.45	950.26
410.64	1025.15
410.83	1008.77
411.02	1074.31
411.21	1125.80
411.40	1053.24
411.59	1163.25
411.78	1123.46
411.98	1097.71
412.17	1102.39
412.36	1050.90
412.55	1043.88
412.74	1121.12
412.93	1151.54
413.12	1097.71
413.31	1156.22
413.50	1158.57
413.69	1217.08
413.88	1116.44
414.07	1181.97
414.26	1217.08
414.45	1184.31
414.64	1172.61
414.83	1320.06
415.02	1165.59
415.22	1172.61
415.41	1252.19
415.60	1224.10
415.79	1345.81
415.98	1345.81
416.17	1320.06
416.36	1320.06
416.55	1315.38
416.74	1174.95
416.93	1186.65
417.12	1233.46
417.31	1299.00
417.50	1280.27
417.69	1306.02
417.88	1224.10
418.07	1212.40
418.26	1310.70
418.45	1221.76
418.64	1263.89
418.83	1327.08
419.02	1373.89
419.21	1336.45
419.39	1280.27
419.58	1114.10
419.77	1142.18
419.96	1198.35
420.15	1282.61
420.34	1299.00
420.53	1453.47
420.72	1453.47
420.91	1465.18
421.10	1476.88
421.29	1366.87
421.48	1394.96
421.67	1331.76
421.86	1376.24
422.05	1266.23
422.24	1114.10
422.43	1102.39
422.61	1282.61
422.80	1308.36
422.99	1359.85
423.18	1380.92
423.37	1226.44
423.56	1205.38
423.75	1210.06
423.94	1284.95
424.13	1268.57
424.32	1219.42
424.50	1310.70
424.69	1174.95
424.88	1224.10
425.07	1263.89
425.26	1254.53
425.45	1217.08
425.64	1200.69
425.83	1170.27
426.01	1259.21
426.20	1373.89
426.39	1369.21
426.58	1188.99
426.77	1097.71
426.96	1041.54
427.15	1081.33
427.33	1132.82
427.52	1275.59
427.71	1196.01
427.90	1240.48
428.09	1266.23
428.28	1219.42
428.46	1163.25
428.65	1093.03
428.84	1291.98
429.03	1107.07
429.22	1123.46
429.40	971.32
429.59	1001.75
429.78	730.25
429.97	800.46
430.16	779.40
430.34	788.76
430.53	720.88
430.72	840.25
430.91	954.94
431.10	1177.29
431.28	1362.19
431.47	1591.56
431.66	1554.12
431.85	1376.24
432.03	1261.55
432.22	1303.68
432.41	1313.04
432.60	1404.32
432.79	1537.73
432.97	1523.69
433.16	1430.07
433.35	1329.42
433.54	1252.19
433.72	1090.69
433.91	1109.41
434.10	1301.34
434.28	1387.94
434.47	1481.56
434.66	1401.98
434.85	1441.77
435.03	1416.02
435.22	1427.73
435.41	1441.77
435.59	1610.29
435.78	1561.14
435.97	1617.31
436.16	1636.03
436.34	1621.99
436.53	1455.81
436.72	1540.07
436.90	1390.28
437.09	1380.92
437.28	1373.89
437.46	1446.45
437.65	1423.05
437.84	1188.99
438.02	1231.12
438.21	1146.86
438.40	1380.92
438.58	1427.73
438.77	1526.03
438.96	1413.68
439.14	1507.30
439.33	1624.33
439.52	1551.78
439.70	1652.42
439.89	1483.90
440.08	1446.45
440.26	1401.98
440.45	1507.30
440.63	1605.61
440.82	1556.46
441.01	1678.16
441.19	1657.10
441.38	1694.55
441.57	1795.19
441.75	1771.79
441.94	1832.64
442.12	1816.26
442.31	1891.15
442.50	1844.34
442.68	1760.08
442.87	1863.07
443.05	1717.95
443.24	1781.15
443.43	1832.64
443.61	1916.90
443.80	1813.92
443.98	1750.72
444.17	1762.42
444.35	1912.22
444.54	1926.26
444.73	1827.96
444.91	1837.32
445.10	1736.68
445.28	1657.10
445.47	1715.61
445.65	1533.05
445.84	1668.80
446.02	1631.35
446.21	1750.72
446.39	1790.51
446.58	1905.20
446.77	1788.17
446.95	1842.00
447.14	1877.11
447.32	1895.83
447.51	1858.39
447.69	1753.06
447.88	1811.57
448.06	1799.87
448.25	1975.41
448.43	1914.56
448.62	1783.49
448.80	1827.96
448.99	1888.81
449.17	1898.17
449.36	1872.43
449.54	1942.64
449.73	1994.14
449.91	1998.82
450.10	2047.97
450.28	2106.48
450.46	2071.37
450.65	1926.26
450.83	2087.76
451.02	1987.11
451.20	2031.58
451.39	2015.20
451.57	1942.64
451.76	1944.99
451.94	2010.52
452.13	1940.30
452.31	1804.55
452.49	1633.69
452.68	1703.91
452.86	1797.53
453.05	1877.11
453.23	1755.40
453.42	1834.98
453.60	2097.12
453.78	1916.90
453.97	2036.27
454.15	1947.33
454.34	1811.57
454.52	1818.60
454.70	1755.40
454.89	1846.68
455.07	1860.73
455.26	1928.60
455.44	2071.37
455.62	2022.22
455.81	2085.42
455.99	2064.35
456.17	2010.52
456.36	1984.77
456.54	2078.40
456.73	2003.50
456.91	2071.37
457.09	2134.57
457.28	2139.25
457.46	2118.18
457.64	1870.09
457.83	1900.52
458.01	1856.04
458.19	1839.66
458.38	1998.82
458.56	2125.21
458.74	1987.11
458.93	1975.41
459.11	2019.88
459.29	1989.46
459.48	1919.24
459.66	2026.90
459.84	2047.97
460.03	2073.71
460.21	1984.77
460.39	1947.33
460.57	2143.93
460.76	1963.71
460.94	2057.33
461.12	2120.53
461.31	2113.50
461.49	2054.99
461.67	2026.90
461.85	2101.80
462.04	2221.17
462.22	2146.27
462.40	2228.19
462.59	2139.25
462.77	2195.42
462.95	2062.01
463.13	2139.25
463.32	2101.80
463.50	2001.16
463.68	1891.15
463.86	2122.87
464.05	2036.27
464.23	1975.41
464.41	1914.56
464.59	1928.60
464.78	2085.42
464.96	2038.61
465.14	2050.31
465.32	2031.58
465.50	2296.07
465.69	2094.78
465.87	2141.59
466.05	2033.93
466.23	1921.58
466.41	1881.79
466.60	1926.26
466.78	1907.54
466.96	1926.26
467.14	1996.48
467.32	2113.50
467.51	2010.52
467.69	1959.03
467.87	1879.45
468.05	1984.77
468.23	1970.73
468.41	2076.06
468.60	2113.50
468.78	2036.27
468.96	1944.99
469.14	2078.40
469.32	2120.53
469.50	2031.58
469.69	2085.42
469.87	1898.17
470.05	1884.13
470.23	1947.33
470.41	2003.50
470.59	1893.49
470.77	2017.54
470.95	2148.61
471.14	2097.12
471.32	2069.03
471.50	2146.27
471.68	2211.81
471.86	2204.78
472.04	2216.49
472.22	2223.51
472.40	2073.71
472.58	2202.44
472.77	2076.06
472.95	2052.65
473.13	2043.29
473.31	2127.55
473.49	2202.44
473.67	2204.78
473.85	2218.83
474.03	2169.68
474.21	2282.02
474.39	2230.53
474.57	2293.72
474.75	2275.00
474.93	2169.68
475.12	2230.53
475.30	2289.04
475.48	2277.34
475.66	2157.97
475.84	2242.23
476.02	2078.40
476.20	2139.25
476.38	2267.98
476.56	2270.32
476.74	2389.69
476.92	2291.38
477.10	2270.32
477.28	2459.90
477.46	2511.39
477.64	2420.11
477.82	2502.03
478.00	2476.29
478.18	2506.71
478.36	2457.56
478.54	2370.96
478.72	2483.31
478.90	2623.74
479.08	2555.86
479.26	2651.83
479.44	2626.08
479.62	2633.10
479.80	2590.97
479.98	2609.70
480.16	2679.91
480.34	2745.45
480.52	2705.66
480.70	2572.25
480.88	2532.46
481.06	2719.70
481.24	2808.64
481.41	2801.62
481.59	2815.66
481.77	2963.12
481.95	2710.34
482.13	2759.49
482.31	2752.47
482.49	2712.68
482.67	2698.64
482.85	2829.71
483.03	2832.05
483.21	2846.09
483.39	2995.89
483.57	2855.45
483.74	2698.64
483.92	2761.83
484.10	2860.13
484.28	2876.52
484.46	2974.82
484.64	2972.48
484.82	2885.88
485.00	2862.48
485.18	2745.45
485.35	2773.53
485.53	2518.42
485.71	2279.68
485.89	2167.34
486.07	2291.38
486.25	2616.72
486.43	2757.15
486.61	2759.49
486.78	2813.32
486.96	2759.49
487.14	2853.11
487.32	2867.16
487.50	3133.98
487.68	3138.66
487.85	3103.55
488.03	3166.74
488.21	3159.72
488.39	3066.10
488.57	2979.50
488.75	2979.50
488.92	3206.53
489.10	3295.47
489.28	3368.03
489.46	3492.08
489.64	3503.78
489.81	3365.69
489.99	3449.95
490.17	3471.01
490.35	3478.04
490.53	3426.54
490.70	3485.06
490.88	3433.57
491.06	3517.83
491.24	3517.83
491.41	3407.82
491.59	3148.02
491.77	2932.69
491.95	3286.11
492.13	3358.67
492.30	3660.60
492.48	3545.91
492.66	3698.05
492.84	3616.13
493.01	3662.94
493.19	3431.23
493.37	3576.34
493.54	3421.86
493.72	3510.80
493.90	3714.43
494.08	3873.59
494.25	4051.47
494.43	3794.01
494.61	3749.54
494.79	3882.95
494.96	3871.25
495.14	3644.21
495.32	3737.84
495.49	3543.57
495.67	3641.87
495.85	3941.46
496.02	4023.38
496.20	3913.38
496.38	3707.41
496.55	3899.33
496.73	3810.39
496.91	3845.50
497.09	3901.67
497.26	4149.77
497.44	4081.89
497.62	3988.27
497.79	3847.84
497.97	3541.23
498.14	3611.45
498.32	3946.14
498.50	3964.87
498.67	3946.14
498.85	4227.01
499.03	3969.55
499.20	4152.11
499.38	4194.24
499.56	3978.91
499.73	3847.84
499.91	3889.97
500.08	3742.52
500.26	3674.64
500.44	3686.34
500.61	3829.12
500.79	3906.35
500.97	3782.31
501.14	3812.73
501.32	3749.54
501.49	3740.18
501.67	3826.78
501.84	3709.75
502.02	3911.04
502.20	4046.79
502.37	3999.98
502.55	3852.52
502.72	4088.92
502.90	4102.96
503.07	4241.05
503.25	3896.99
503.43	3964.87
503.60	3707.41
503.78	3803.37
503.95	3651.24
504.13	3929.76
504.30	4269.14
504.48	4149.77
504.65	3936.78
504.83	3999.98
505.01	4140.41
505.18	4159.13
505.36	4194.24
505.53	4238.71
505.71	4329.99
505.88	4283.18
506.06	4215.30
506.23	4219.99
506.41	4018.70
506.58	4114.66
506.76	4079.55
506.93	4184.88
507.11	4028.06
507.28	4081.89
507.46	4009.34
507.63	3978.91
507.81	3964.87
507.98	3878.27
508.16	4002.32
508.33	4100.62
508.50	4030.40
508.68	4320.63
508.85	4341.69
509.03	4264.46
509.20	4301.90
509.38	4135.73
509.55	3997.64
509.73	3936.78
509.90	4191.90
510.08	4351.06
510.25	4114.66
510.42	4227.01
510.60	4107.64
510.77	4100.62
510.95	4217.65
511.12	4269.14
511.30	4264.46
511.47	4599.15
511.64	4285.52
511.82	4432.97
511.99	4208.28
512.17	4077.21
512.34	4088.92
512.51	4025.72
512.69	4098.28
512.86	4063.17
513.04	3999.98
513.21	4109.98
513.38	4273.82
513.56	3936.78
513.73	3957.85
513.90	3857.20
514.08	4009.34
514.25	4042.11
514.43	3995.29
514.60	4121.68
514.77	4086.58
514.95	4074.87
515.12	4037.42
515.29	4002.32
515.47	4245.73
515.64	4222.33
515.81	4329.99
515.99	3953.16
516.16	3845.50
516.33	3566.98
516.51	3295.47
516.68	3253.34
516.85	3171.43
517.03	3239.30
517.20	3506.12
517.37	3936.78
517.54	4154.45
517.72	4004.66
517.89	3602.08
518.06	3405.48
518.24	3389.10
518.41	3721.45
518.58	3922.74
518.75	3915.72
518.93	3885.29
519.10	3878.27
519.27	4072.53
519.45	4039.76
519.62	4196.58
519.79	4163.81
519.96	4191.90
520.14	4081.89
520.31	3927.42
520.48	4014.02
520.65	3925.08
520.83	4065.51
521.00	4109.98
521.17	4182.54
521.34	3983.59
521.52	4114.66
521.69	4280.84
521.86	4299.56
522.03	4315.95
522.20	3929.76
522.38	3845.50
522.55	4011.68
522.72	3913.38
522.89	4011.68
523.07	3960.19
523.24	3946.14
523.41	4147.43
523.58	4091.26
523.75	4262.12
523.92	4327.65
524.10	4292.54
524.27	4273.82
524.44	4248.07
524.61	4217.65
524.78	4205.94
524.96	4166.15
525.13	4159.13
525.30	4191.90
525.47	4294.88
525.64	4358.08
525.81	4191.90
525.98	3957.85
526.16	3730.81
526.33	3492.08
526.50	3749.54
526.67	3487.40
526.84	3676.98
527.01	3616.13
527.18	3779.97
527.36	3999.98
527.53	4159.13
527.70	4231.69
527.87	4084.23
528.04	4058.49
528.21	4131.05
528.38	4007.00
528.55	4409.57
528.72	4372.12
528.89	4447.02
529.07	4440.00
529.24	4187.22
529.41	4051.47
529.58	4128.70
529.75	4175.52
529.92	4086.58
530.09	4109.98
530.26	4163.81
530.43	4374.46
530.60	4311.27
530.77	4496.17
530.94	4423.61
531.11	4320.63
531.28	4269.14
531.46	4093.60
531.63	4184.88
531.80	4152.11
531.97	4086.58
532.14	4002.32
532.31	3765.92
532.48	3831.46
532.65	3662.94
532.82	3726.13
532.99	4114.66
533.16	4140.41
533.33	4173.18
533.50	4140.41
533.67	4098.28
533.84	4007.00
534.01	3995.29
534.18	4016.36
534.35	4140.41
534.52	4058.49
534.69	4121.68
534.86	4145.09
535.03	4245.73
535.20	4215.30
535.37	4273.82
535.54	4278.50
535.71	4280.84
535.88	4088.92
536.05	4088.92
536.22	3936.78
536.38	4091.26
536.55	3911.04
536.72	3772.94
536.89	3730.81
537.06	3922.74
537.23	4098.28
537.40	4030.40
537.57	4149.77
537.74	4077.21
537.91	4119.34
538.08	4037.42
538.25	4105.30
538.42	4177.86
538.59	4063.17
538.75	3943.80
538.92	3922.74
539.09	3815.07
539.26	3817.41
539.43	3779.97
539.60	3843.16
539.77	4004.66
539.94	3840.82
540.11	3705.07
540.28	3723.79
540.44	3632.51
540.61	3824.44
540.78	3665.28
540.95	3918.06
541.12	3875.93
541.29	3964.87
541.46	4058.49
541.62	4161.47
541.79	3995.29
541.96	3831.46
542.13	3782.31
542.30	3801.03
542.47	3976.57
542.63	3770.60
542.80	3850.18
542.97	3777.62
543.14	3946.14
543.31	3810.39
543.48	3866.56
543.64	4156.79
543.81	4145.09
543.98	4081.89
544.15	4004.66
544.32	3861.88
544.48	3819.75
544.65	3913.38
544.82	3962.53
544.99	3971.89
545.16	3845.50
545.32	3779.97
545.49	4028.06
545.66	4131.05
545.83	4028.06
546.00	3892.31
546.16	3786.99
546.33	3810.39
546.50	3880.61
546.67	3981.25
546.83	3894.65
547.00	3896.99
547.17	3786.99
547.34	3679.32
547.50	3857.20
547.67	3684.00
547.84	3843.16
548.00	3918.06
548.17	3836.14
548.34	3904.01
548.51	3861.88
548.67	3756.56
548.84	3939.12
549.01	3997.64
549.18	3810.39
549.34	3808.05
549.51	3857.20
549.68	3712.09
549.84	3847.84
550.01	3784.65
550.18	3576.34
550.34	3873.59
550.51	3887.63
550.68	3791.67
550.84	3845.50
551.01	3889.97
551.18	3733.15
551.34	3889.97
551.51	3894.65
551.68	3826.78
551.84	3887.63
552.01	3894.65
552.18	3824.44
552.34	3777.62
552.51	3588.04
552.68	3595.06
552.84	3613.79
553.01	3709.75
553.18	3705.07
553.34	3609.11
553.51	3674.64
553.67	3707.41
553.84	3817.41
554.01	3702.73
554.17	3698.05
554.34	3728.47
554.51	3714.43
554.67	3705.07
554.84	3777.62
555.00	3885.29
555.17	3637.19
555.33	3620.81
555.50	3691.02
555.67	3843.16
555.83	3684.00
556.00	3721.45
556.16	3637.19
556.33	3606.77
556.50	3442.93
556.66	3548.25
556.83	3578.68
556.99	3440.59
557.16	3520.17
557.32	3592.72
557.49	3662.94
557.65	3651.24
557.82	3564.64
557.98	3520.17
558.15	3510.80
558.32	3330.58
558.48	3283.77
558.65	3295.47
558.81	3325.90
558.98	3461.65
559.14	3328.24
559.31	3468.67
559.47	3419.52
559.64	3389.10
559.80	3398.46
559.97	3396.12
560.13	3438.25
560.30	3623.15
560.46	3705.07
560.63	3599.74
560.79	3674.64
560.96	3588.04
561.12	3571.66
561.29	3318.88
561.45	3239.30
561.61	3536.55
561.78	3426.54
561.94	3529.53
562.11	3400.80
562.27	3412.50
562.44	3492.08
562.60	3513.14
562.77	3517.83
562.93	3407.82
563.10	3494.42
563.26	3419.52
563.42	3328.24
563.59	3459.31
563.75	3515.48
563.92	3262.71
564.08	3410.16
564.24	3454.63
564.41	3541.23
564.57	3307.18
564.74	3461.65
564.90	3325.90
565.07	3229.94
565.23	3379.73
565.39	3328.24
565.56	3311.86
565.72	3213.56
565.88	3276.75
566.05	3253.34
566.21	3288.45
566.38	3358.67
566.54	3192.49
566.70	3342.28
566.87	3431.23
567.03	3475.70
567.19	3433.57
567.36	3412.50
567.52	3389.10
567.68	3290.79
567.85	3243.98
568.01	3288.45
568.17	3176.11
568.34	3105.89
568.50	3190.15
568.66	3105.89
568.83	3281.43
568.99	3229.94
569.15	3421.86
569.32	3241.64
569.48	3213.56
569.64	3173.77
569.81	3143.34
569.97	3082.49
570.13	3232.28
570.30	2970.14
570.46	3073.12
570.62	2984.18
570.78	3059.08
570.95	2951.42
571.11	3077.80
571.27	3066.10
571.43	3105.89
571.60	3180.79
571.76	3206.53
571.92	3171.43
572.09	3199.51
572.25	3276.75
572.41	3222.92
572.57	3201.85
572.74	3220.58
572.90	3049.72
573.06	3108.23
573.22	3185.47
573.38	3176.11
573.55	3145.68
573.71	3101.21
573.87	3290.79
574.03	2949.08
574.20	2986.52
574.36	3112.91
574.52	3148.02
574.68	3101.21
574.84	3066.10
575.01	2974.82
575.17	3038.02
575.33	2988.86
575.49	3070.78
575.65	2995.89
575.82	3042.70
575.98	2928.01
576.14	2890.56
576.30	3148.02
576.46	3070.78
576.62	3033.33
576.79	3028.65
576.95	2918.65
577.11	2935.03
577.27	3145.68
577.43	2958.44
577.59	2944.39
577.75	2885.88
577.92	2869.50
578.08	2855.45
578.24	2888.22
578.40	2953.76
578.56	2841.41
578.72	2972.48
578.88	2829.71
579.04	2904.60
579.21	2888.22
579.37	2846.09
579.53	2993.55
579.69	2977.16
579.85	3049.72
580.01	2944.39
580.17	2878.86
580.33	2899.92
580.49	2832.05
580.65	2876.52
580.82	2932.69
580.98	2860.13
581.14	3026.31
581.30	2946.73
581.46	2995.89
581.62	2818.00
581.78	2967.80
581.94	3068.44
582.10	2881.20
582.26	2757.15
582.42	2963.12
582.58	2972.48
582.74	3082.49
582.90	2860.13
583.06	2920.99
583.22	2892.90
583.38	2855.45
583.54	2958.44
583.70	2892.90
583.86	2794.60
584.02	3038.02
584.18	2850.77
584.34	2874.18
584.50	2848.43
584.66	2944.39
584.82	2752.47
584.98	2874.18
585.14	2789.92
585.30	2656.51
585.46	2764.17
585.62	2822.69
585.78	2754.81
585.94	2752.47
586.10	2729.06
586.26	2703.32
586.42	2818.00
586.58	2850.77
586.74	2801.62
586.90	2970.14
587.06	2810.98
587.22	2862.48
587.38	2759.49
587.54	2700.98
587.70	2724.38
587.86	2600.34
588.02	2740.77
588.18	2675.23
588.34	2572.25
588.49	2282.02
588.65	2256.28
588.81	2223.51
588.97	2249.25
589.13	2312.45
589.29	2186.06
589.45	2314.79
589.61	2352.24
589.77	2565.23
589.93	2513.74
590.08	2626.08
590.24	2708.00
590.40	2644.81
590.56	2668.21
590.72	2651.83
590.88	2789.92
591.04	2532.46
591.20	2623.74
591.35	2605.02
591.51	2670.55
591.67	2534.80
591.83	2473.95
591.99	2534.80
592.15	2761.83
592.31	2415.43
592.46	2513.74
592.62	2612.04
592.78	2581.61
592.94	2562.89
593.10	2630.76
593.26	2745.45
593.41	2696.30
593.57	2630.76
593.73	2537.14
593.89	2541.82
594.05	2387.35
594.20	2396.71
594.36	2441.18
594.52	2527.78
594.68	2443.52
594.84	2401.39
594.99	2548.84
595.15	2448.20
595.31	2562.89
595.47	2438.84
595.62	2448.20
595.78	2569.91
595.94	2527.78
596.10	2462.24
596.25	2455.22
596.41	2544.16
596.57	2394.37
596.73	2445.86
596.88	2576.93
597.04	2581.61
597.20	2422.45
597.36	2485.65
597.51	2424.80
597.67	2417.77
597.83	2495.01
597.99	2368.62
598.14	2422.45
598.30	2487.99
598.46	2361.60
598.61	2495.01
598.77	2450.54
598.93	2427.14
599.09	2513.74
599.24	2483.31
