SpectraSuite Data File
++++++++++++++++++++++++++++++++++++
Date: Mon Oct 07 14:55:49 GMT-05:00 2013
User: price-jones
Dark Spectrum Present: No
Reference Spectrum Present: No
Number of Sampled Component Spectra: 1
Spectrometers: USB2+H05261
Integration Time (usec): 1000000 (USB2+H05261)
Spectra Averaged: 1 (USB2+H05261)
Boxcar Smoothing: 0 (USB2+H05261)
Correct for Electrical Dark: No (USB2+H05261)
Strobe/Lamp Enabled: No (USB2+H05261)
Correct for Detector Non-linearity: No (USB2+H05261)
Correct for Stray Light: No (USB2+H05261)
Number of Pixels in Processed Spectrum: 2048
>>>>>Begin Processed Spectral Data<<<<<
365.73	0.00
365.92	0.00
366.12	0.00
366.32	0.00
366.52	0.00
366.72	184.90
366.91	0.00
367.11	217.67
367.31	140.43
367.51	105.32
367.70	273.84
367.90	533.64
368.10	212.99
368.30	241.08
368.49	0.00
368.69	395.55
368.89	170.86
369.09	72.56
369.28	142.77
369.48	0.00
369.68	56.17
369.87	194.26
370.07	53.83
370.27	545.34
370.47	1121.12
370.66	3435.91
370.86	4098.28
371.06	4550.00
371.25	4947.89
371.45	3719.11
371.65	3707.41
371.84	3211.22
372.04	3332.92
372.24	3829.12
372.44	3871.25
372.63	3988.27
372.83	4168.49
373.03	3286.11
373.22	2876.52
373.42	3124.62
373.62	3634.85
373.81	4016.36
374.01	4009.34
374.21	3698.05
374.40	3386.76
374.60	3765.92
374.79	3927.42
374.99	4454.04
375.19	4589.79
375.38	4645.96
375.58	4315.95
375.78	4564.04
375.97	4283.18
376.17	5029.81
376.37	4547.66
376.56	4592.13
376.76	4575.75
376.95	4943.21
377.15	5556.43
377.35	5727.29
377.54	5963.68
377.74	5874.74
377.93	5785.80
378.13	5804.53
378.33	5900.49
378.52	5174.92
378.72	5111.73
378.91	5114.07
379.11	4655.33
379.31	4531.28
379.50	4306.59
379.70	5313.02
379.89	5781.12
380.09	5528.35
380.28	5495.58
380.48	5741.33
380.68	5600.90
380.87	5200.67
381.07	5123.43
381.26	5095.35
381.46	4725.54
381.65	4477.44
381.85	4093.60
382.04	4320.63
382.24	3995.29
382.43	3669.96
382.63	3534.21
382.83	3674.64
383.02	3822.09
383.22	4004.66
383.41	3606.77
383.61	3875.93
383.80	4702.14
384.00	5001.72
384.19	5411.32
384.39	5607.92
384.58	5694.52
384.78	5589.20
384.97	5486.22
385.17	5195.99
385.36	4884.70
385.56	5118.75
385.75	4880.02
385.95	5263.86
386.14	5951.98
386.34	5640.69
386.53	5535.37
386.72	5212.37
386.92	5666.44
387.11	5792.83
387.31	5790.49
387.50	5420.68
387.70	5416.00
387.89	5570.48
388.09	5317.70
388.28	5177.26
388.48	5310.68
388.67	6181.35
388.86	6483.28
389.06	6759.47
389.25	7190.13
389.45	7307.15
389.64	7087.14
389.84	7255.66
390.03	7073.10
390.22	6979.48
390.42	7356.30
390.61	7452.27
390.81	7758.88
391.00	8269.11
391.19	8449.33
391.39	7756.54
391.58	7478.01
391.78	6977.14
391.97	6815.64
392.16	5998.79
392.36	6057.31
392.55	5006.41
392.75	3850.18
392.94	3208.87
393.13	3630.17
393.33	3859.54
393.52	4910.44
393.71	6207.10
393.91	6338.17
394.10	6675.21
394.29	7576.31
394.49	7943.78
394.68	8847.22
394.88	8744.24
395.07	9228.73
395.26	8552.32
395.46	8493.80
395.65	8100.59
395.84	6918.62
396.04	6743.08
396.23	4812.14
396.42	4276.16
396.62	4447.02
396.81	5163.22
397.00	6162.63
397.19	7552.91
397.39	8519.55
397.58	9963.66
397.77	9984.73
397.97	10387.30
398.16	10375.59
398.35	10932.64
398.55	10766.46
398.74	11492.03
398.93	12060.78
399.12	11611.40
399.32	11545.86
399.51	11543.52
399.70	12645.91
399.90	11751.83
400.09	11995.25
400.28	12023.33
400.47	11880.56
400.67	13107.00
400.86	12842.52
401.05	12938.48
401.24	13174.88
401.44	13214.66
401.63	13160.83
401.82	13446.38
402.01	12954.87
402.21	13282.54
402.40	13575.11
402.59	12854.22
402.78	12156.74
402.97	12044.40
403.17	12517.18
403.36	13392.55
403.55	13858.31
403.74	14171.94
403.93	13366.80
404.13	13188.92
404.32	12678.68
404.51	13266.16
404.70	14005.77
404.89	13186.58
405.09	13750.65
405.28	13015.72
405.47	12624.85
405.66	13053.17
405.85	12786.35
406.05	12372.07
406.24	12439.95
406.43	13373.82
406.62	13776.39
406.81	14232.80
407.00	13348.08
407.20	12823.80
407.39	13029.76
407.58	13633.62
407.77	14017.47
407.96	14782.82
408.15	14747.72
408.34	14684.52
408.54	15447.54
408.73	15257.95
408.92	14787.50
409.11	14759.42
409.30	14190.67
409.49	12798.05
409.68	12280.79
409.87	12201.21
410.07	12739.54
410.26	13949.59
410.45	14171.94
410.64	14445.79
410.83	15225.18
411.02	15646.48
411.21	16575.67
411.40	15953.09
411.59	15960.11
411.78	15630.10
411.98	15817.34
412.17	15637.12
412.36	15513.07
412.55	15583.29
412.74	15386.68
412.93	15279.02
413.12	14965.39
413.31	16870.58
413.50	16779.30
413.69	16706.74
413.88	16212.89
414.07	15742.44
414.26	15981.18
414.45	16365.03
414.64	16528.86
414.83	16678.66
415.02	16273.74
415.22	16652.91
415.41	16847.18
415.60	17165.49
415.79	17488.48
415.98	18221.07
416.17	18214.05
416.36	17678.07
416.55	17240.39
416.74	16788.66
416.93	16762.92
417.12	16615.46
417.31	16870.58
417.50	16678.66
417.69	17996.38
417.88	17448.69
418.07	16774.62
418.26	16994.63
418.45	17027.40
418.64	18012.76
418.83	18321.71
419.02	17956.59
419.21	17783.39
419.39	17174.85
419.58	16102.89
419.77	16142.67
419.96	17015.69
420.15	18649.39
420.34	18352.14
420.53	19073.03
420.72	19220.48
420.91	19222.82
421.10	18436.40
421.29	18649.39
421.48	18373.21
421.67	19051.96
421.86	18239.79
422.05	16908.03
422.24	15302.42
422.43	15873.51
422.61	17013.35
422.80	18277.24
422.99	18134.47
423.18	17240.39
423.37	17448.69
423.56	17444.01
423.75	17816.16
423.94	17816.16
424.13	16975.91
424.32	16973.56
424.50	17046.12
424.69	17020.38
424.88	17654.66
425.07	16835.47
425.26	17245.07
425.45	16945.48
425.64	16432.90
425.83	16414.18
426.01	17958.93
426.20	17834.88
426.39	17507.21
426.58	15899.26
426.77	15094.11
426.96	15009.86
427.15	15777.55
427.33	16416.52
427.52	16931.44
427.71	17270.81
427.90	16851.86
428.09	16430.56
428.28	16086.50
428.46	15683.93
428.65	15976.50
428.84	16126.29
429.03	16734.83
429.22	15215.82
429.40	14108.75
429.59	12926.78
429.78	12315.90
429.97	11899.28
430.16	11990.56
430.34	11864.18
430.53	12102.91
430.72	12571.02
430.91	13956.61
431.10	16079.48
431.28	18637.69
431.47	20112.22
431.66	20105.20
431.85	17914.46
432.03	16814.41
432.22	16982.93
432.41	17043.78
432.60	19236.86
432.79	19180.69
432.97	19676.88
433.16	18855.36
433.35	17467.42
433.54	15644.14
433.72	15384.34
433.91	15992.88
434.10	17158.47
434.28	18785.14
434.47	19346.87
434.66	18951.32
434.85	18326.39
435.03	19609.01
435.22	22061.89
435.41	24975.86
435.59	25046.07
435.78	23084.70
435.97	21825.50
436.16	21553.99
436.34	20311.17
436.53	19988.18
436.72	20460.96
436.90	19400.70
437.09	19164.31
437.28	18895.14
437.46	19761.14
437.65	19288.35
437.84	17823.18
438.02	16603.76
438.21	16872.92
438.40	17570.40
438.58	18745.35
438.77	19274.31
438.96	19447.51
439.14	19969.45
439.33	20908.01
439.52	21104.61
439.70	20315.85
439.89	20325.21
440.08	19754.12
440.26	19576.24
440.45	20545.22
440.63	21738.90
440.82	22160.19
441.01	21748.26
441.19	21888.69
441.38	22047.85
441.57	23033.21
441.75	23489.62
441.94	23356.21
442.12	23225.14
442.31	23616.01
442.50	23290.67
442.68	22864.69
442.87	22899.80
443.05	22237.43
443.24	23318.76
443.43	23765.80
443.61	24528.81
443.80	24063.05
443.98	22970.02
444.17	22586.17
444.35	24346.25
444.54	24095.82
444.73	23950.70
444.91	23585.58
445.10	22054.87
445.28	21151.42
445.47	21383.13
445.65	21451.01
445.84	21860.60
446.02	22731.28
446.21	22597.87
446.39	22705.54
446.58	23159.60
446.77	23599.62
446.95	23644.09
447.14	24308.80
447.32	25043.73
447.51	24187.10
447.69	23037.89
447.88	23145.56
448.06	24163.69
448.25	23751.76
448.43	23726.01
448.62	23269.61
448.80	23445.15
448.99	23606.64
449.17	23367.91
449.36	23737.71
449.54	24858.83
449.73	24629.46
449.91	25488.43
450.10	25956.54
450.28	26878.71
450.46	26022.08
450.65	26324.01
450.83	25912.07
451.02	25015.65
451.20	24891.60
451.39	24861.17
451.57	24919.68
451.76	24886.92
451.94	24601.37
452.13	24208.16
452.31	23421.74
452.49	21979.97
452.68	22111.04
452.86	22504.25
453.05	23236.84
453.23	23269.61
453.42	23513.02
453.60	24629.46
453.78	24690.31
453.97	24547.54
454.15	24383.70
454.34	23592.60
454.52	23775.16
454.70	23838.36
454.89	23934.32
455.07	23798.57
455.26	24299.44
455.44	25355.02
455.62	25216.93
455.81	25909.73
455.99	25102.25
456.17	25441.62
456.36	25036.71
456.54	25575.03
456.73	25493.12
456.91	25923.77
457.09	26312.30
457.28	27072.98
457.46	25240.34
457.64	26029.10
457.83	24479.66
458.01	24243.27
458.19	24781.59
458.38	25043.73
458.56	26136.76
458.74	25270.76
458.93	25022.67
459.11	25556.31
459.29	24659.88
459.48	25149.06
459.66	25223.95
459.84	25378.43
460.03	26771.05
460.21	25537.59
460.39	26036.12
460.57	26384.86
460.76	26462.10
460.94	26450.39
461.12	26373.16
461.31	26469.12
461.49	26010.37
461.67	26150.81
461.85	26834.24
462.04	26441.03
462.22	33406.47
462.40	26871.69
462.59	27005.10
462.77	26654.02
462.95	26483.16
463.13	25902.71
463.32	26197.62
463.50	25785.68
463.68	25855.90
463.86	26335.71
464.05	25483.75
464.23	25450.99
464.41	25106.93
464.59	24470.30
464.78	25549.29
464.96	25156.08
465.14	25280.13
465.32	25923.77
465.50	26593.17
465.69	26625.93
465.87	25486.09
466.05	25752.91
466.23	24219.86
466.41	23887.51
466.60	24517.11
466.78	24737.12
466.96	25268.42
467.14	25565.67
467.32	25867.60
467.51	25713.13
467.69	24875.21
467.87	25668.66
468.05	25163.10
468.23	25804.41
468.41	25724.83
468.60	25340.98
468.78	25741.21
468.96	25783.34
469.14	26038.46
469.32	25591.42
469.50	24577.97
469.69	24863.51
469.87	24758.19
470.05	24620.10
470.23	24687.97
470.41	24615.41
470.59	25060.12
470.77	25256.72
470.95	25291.83
471.14	26312.30
471.32	25895.69
471.50	27754.07
471.68	27702.58
471.86	27398.31
472.04	27140.85
472.22	27250.86
472.40	26040.80
472.58	26017.40
472.77	25404.17
472.95	26878.71
473.13	27688.54
473.31	26726.58
473.49	26436.35
473.67	26782.75
473.85	27206.39
474.03	27850.03
474.21	27929.61
474.39	28599.01
474.57	29034.35
474.75	28489.00
474.93	27349.16
475.12	27049.57
475.30	27229.79
475.48	27274.26
475.66	27910.89
475.84	27239.15
476.02	26981.70
476.20	26878.71
476.38	27550.45
476.56	28936.04
476.74	28402.40
476.92	28648.16
477.10	29099.88
477.28	29792.68
477.46	29715.44
477.64	29694.38
477.82	29883.96
478.00	30096.95
478.18	29902.68
478.36	29455.64
478.54	29631.18
478.72	30082.91
478.90	30775.70
479.08	31718.94
479.26	31459.14
479.44	31651.06
479.62	31140.83
479.80	31456.80
479.98	31033.16
480.16	31679.15
480.34	31903.84
480.52	31875.76
480.70	32254.92
480.88	32161.30
481.06	32484.30
481.24	33017.94
481.41	33558.60
481.59	34096.92
481.77	33483.70
481.95	33425.19
482.13	33729.46
482.31	33408.81
482.49	33443.91
482.67	33982.24
482.85	33837.12
483.03	34560.35
483.21	34920.79
483.39	34726.53
483.57	34204.59
483.74	34291.19
483.92	34370.77
484.10	34335.66
484.28	35660.40
484.46	36055.95
484.64	35814.88
484.82	35225.06
485.00	34157.78
485.18	33659.24
485.35	32528.77
485.53	29867.58
485.71	28189.41
485.89	27667.47
486.07	29462.66
486.25	32201.09
486.43	33956.49
486.61	34059.48
486.78	34122.67
486.96	33450.94
487.14	35337.41
487.32	35751.68
487.50	36919.61
487.68	37556.24
487.85	37965.83
488.03	38398.83
488.21	37935.40
488.39	36833.01
488.57	36570.87
488.75	36306.39
488.92	40814.26
489.10	39959.97
489.28	41567.91
489.46	41242.58
489.64	41614.72
489.81	41652.17
489.99	41827.71
490.17	41074.06
490.35	42543.92
490.53	40596.59
490.70	39936.56
490.88	40669.15
491.06	41638.13
491.24	41577.28
491.41	40629.36
491.59	38249.03
491.77	37380.70
491.95	38621.18
492.13	40051.25
492.30	42064.11
492.48	42394.12
492.66	43290.55
492.84	43311.61
493.01	42792.01
493.19	41827.71
493.37	41890.91
493.54	41698.98
493.72	42574.34
493.90	43489.49
494.08	44570.82
494.25	44877.43
494.43	45280.00
494.61	45067.02
494.79	45357.24
494.96	45088.08
495.14	44144.84
495.32	42911.38
495.49	42518.17
495.67	44076.97
495.85	45670.87
496.02	46195.15
496.20	45972.80
496.38	45270.64
496.55	45010.84
496.73	45970.46
496.91	46174.09
497.09	46871.57
497.26	46202.18
497.44	46047.70
497.62	45155.96
497.79	44142.50
497.97	42328.59
498.14	43569.07
498.32	44631.68
498.50	45560.87
498.67	46536.87
498.85	46309.84
499.03	46649.22
499.20	46721.77
499.38	46770.93
499.56	46080.47
499.73	46124.94
499.91	45586.61
500.08	44781.47
500.26	43648.65
500.44	44212.72
500.61	45537.46
500.79	44282.94
500.97	43978.67
501.14	44245.49
501.32	43887.39
501.49	43973.98
501.67	44154.21
501.84	44910.20
502.02	45460.23
502.20	46471.34
502.37	46241.96
502.55	46417.50
502.72	46745.18
502.90	47601.82
503.07	46813.05
503.25	46550.91
503.43	44952.33
503.60	44114.42
503.78	42934.79
503.95	44044.20
504.13	45848.75
504.30	46927.74
504.48	46981.57
504.65	46520.49
504.83	46506.44
505.01	47028.38
505.18	47239.03
505.36	48732.29
505.53	48446.75
505.71	48727.61
505.88	49141.89
506.06	47922.47
506.23	47550.32
506.41	47065.83
506.58	47433.30
506.76	47107.96
506.93	47056.47
507.11	46878.59
507.28	46841.14
507.46	45897.91
507.63	45123.19
507.81	44964.03
507.98	45776.20
508.16	46782.63
508.33	47613.52
508.50	48261.85
508.68	47826.51
508.85	49312.75
509.03	48727.61
509.20	48133.12
509.38	47653.31
509.55	46862.21
509.73	47096.26
509.90	48027.79
510.08	47578.41
510.25	47599.47
510.42	47342.02
510.60	46850.50
510.77	47782.04
510.95	48669.10
511.12	48397.60
511.30	49277.64
511.47	49570.21
511.64	49394.67
511.82	48540.37
511.99	47423.93
512.17	47054.13
512.34	46663.26
512.51	46997.96
512.69	46527.51
512.86	47299.89
513.04	47700.12
513.21	47669.69
513.38	46930.08
513.56	46803.69
513.73	45488.31
513.90	45794.92
514.08	45949.40
514.25	46822.42
514.43	47402.87
514.60	46850.50
514.77	47007.32
514.95	47285.84
515.12	47494.15
515.29	47526.92
515.47	48425.68
515.64	48561.44
515.81	47903.74
515.99	47173.50
516.16	44856.37
516.33	41783.24
516.51	40109.76
516.68	39175.89
516.85	38698.42
517.03	39913.16
517.20	43257.78
517.37	46101.53
517.54	47068.17
517.72	46028.98
517.89	42752.23
518.06	39669.74
518.24	41750.48
518.41	44535.71
518.58	45553.85
518.75	45272.98
518.93	46284.09
519.10	45574.91
519.27	46586.02
519.45	46766.24
519.62	47767.99
519.79	48449.09
519.96	47856.93
520.14	46955.83
520.31	45916.63
520.48	46096.85
520.65	46604.75
520.83	47906.08
521.00	48507.60
521.17	48346.11
521.34	47070.51
521.52	48105.03
521.69	48886.77
521.86	49027.20
522.03	48933.58
522.20	47545.64
522.38	45413.41
522.55	46071.10
522.72	46499.42
522.89	46541.55
523.07	47758.63
523.24	47976.30
523.41	48748.68
523.58	48891.45
523.75	49450.84
523.92	49029.54
524.10	49427.43
524.27	49329.13
524.44	48732.29
524.61	49235.51
524.78	48868.05
524.96	49076.35
525.13	48655.06
525.30	49200.40
525.47	49837.03
525.64	48964.01
525.81	47948.21
525.98	46319.20
526.16	44060.58
526.33	43622.90
526.50	42120.28
526.67	41855.80
526.84	43002.66
527.01	44212.72
527.18	45982.16
527.36	46848.16
527.53	48027.79
527.70	48453.77
527.87	48025.45
528.04	47653.31
528.21	48156.52
528.38	49134.87
528.55	50181.09
528.72	50445.57
528.89	50780.26
529.07	49766.81
529.24	48519.31
529.41	48149.50
529.58	47407.55
529.75	47550.32
529.92	48514.62
530.09	49158.27
530.26	49694.25
530.43	50145.98
530.60	50028.95
530.77	50005.55
530.94	50286.41
531.11	49336.15
531.28	49013.16
531.46	48921.88
531.63	49570.21
531.80	49050.61
531.97	48346.11
532.14	46859.87
532.31	46061.74
532.48	45298.73
532.65	45638.11
532.82	46389.42
532.99	47875.66
533.16	48163.54
533.33	49130.19
533.50	48914.86
533.67	47234.35
533.84	48023.11
534.01	47222.65
534.18	47922.47
534.35	48196.31
534.52	48325.04
534.69	49027.20
534.86	48905.49
535.03	49193.38
535.20	49647.44
535.37	50808.35
535.54	50450.25
535.71	49947.03
535.88	49415.73
536.05	48825.92
536.22	48273.55
536.38	47803.10
536.55	47084.56
536.72	47220.31
536.89	46735.82
537.06	47679.05
537.23	48617.61
537.40	48765.06
537.57	48947.62
537.74	49275.30
537.91	49109.12
538.08	48877.41
538.25	49169.97
538.42	49256.57
538.59	49237.85
538.75	48074.60
538.92	48046.52
539.09	48081.63
539.26	47767.99
539.43	48318.02
539.60	48116.73
539.77	48910.17
539.94	48259.51
540.11	47693.10
540.28	47732.89
540.44	47648.63
540.61	48100.35
540.78	48921.88
540.95	49521.05
541.12	51011.98
541.29	51288.16
541.46	51676.69
541.62	51784.35
541.79	51599.45
541.96	50759.20
542.13	50670.26
542.30	50972.19
542.47	51480.08
542.63	50344.92
542.80	50464.29
542.97	50511.10
543.14	50181.09
543.31	50602.38
543.48	51084.53
543.64	52032.45
543.81	52502.90
543.98	51910.74
544.15	51028.36
544.32	50328.54
544.48	50536.85
544.65	50560.25
544.82	51452.00
544.99	50834.10
545.16	50731.11
545.32	51325.61
545.49	54279.36
545.66	56467.76
545.83	57020.13
546.00	55056.42
546.16	52303.95
546.33	51215.60
546.50	49757.45
546.67	50419.82
546.83	49336.15
547.00	49432.11
547.17	48186.95
547.34	47672.03
547.50	47842.89
547.67	48348.45
547.84	48474.84
548.00	48912.52
548.17	48760.38
548.34	49181.68
548.51	49483.61
548.67	48910.17
548.84	48949.96
549.01	48971.03
549.18	48746.34
549.34	48692.50
549.51	48327.38
549.68	48236.10
549.84	47885.02
550.01	47367.76
550.18	48556.75
550.34	48243.12
550.51	47578.41
550.68	48090.99
550.84	46466.66
551.01	46909.02
551.18	47086.90
551.34	47550.32
551.51	47590.11
551.68	48229.08
551.84	48446.75
552.01	47210.95
552.18	47426.28
552.34	46211.54
552.51	45525.76
552.68	45645.13
552.84	46167.07
553.01	46597.73
553.18	46681.98
553.34	46181.11
553.51	46396.44
553.67	46710.07
553.84	47587.77
554.01	46965.19
554.17	46815.40
554.34	46265.37
554.51	47129.03
554.67	47435.64
554.84	47075.19
555.00	46387.08
555.17	46164.73
555.33	46604.75
555.50	46232.60
555.67	45713.00
555.83	45771.52
556.00	45347.88
556.16	47070.51
556.33	44662.10
556.50	44694.87
556.66	44428.05
556.83	43777.38
556.99	44161.23
557.16	44715.93
557.32	44935.95
557.49	45230.85
557.65	45214.47
557.82	44404.64
557.98	44842.32
558.15	44086.33
558.32	43356.08
558.48	41930.70
558.65	42450.30
558.81	42820.10
558.98	42684.35
559.14	43599.50
559.31	43519.92
559.47	43597.16
559.64	42869.25
559.80	42794.36
559.97	42733.50
560.13	43459.07
560.30	43957.60
560.46	44797.85
560.63	44947.65
560.79	45453.20
560.96	44631.68
561.12	42787.33
561.29	41467.27
561.45	42227.95
561.61	42689.03
561.78	44545.08
561.94	43365.45
562.11	43133.73
562.27	43000.32
562.44	43496.52
562.60	43782.06
562.77	44034.84
562.93	44669.12
563.10	43798.44
563.26	42632.86
563.42	43210.97
563.59	42532.22
563.75	42497.11
563.92	42937.13
564.08	42579.03
564.24	43194.59
564.41	43552.69
564.57	42934.79
564.74	42405.83
564.90	42670.31
565.07	42817.76
565.23	42124.96
565.39	41392.37
565.56	40671.49
565.72	40486.59
565.88	41057.68
566.05	40877.46
566.21	41586.64
566.38	41375.99
566.54	41670.90
566.70	42115.60
566.87	42895.00
567.03	42436.25
567.19	42597.75
567.36	42312.20
567.52	41982.19
567.68	41759.84
567.85	41139.60
568.01	40652.76
568.17	39576.12
568.34	39840.60
568.50	39882.73
568.66	39704.85
568.83	41567.91
568.99	40645.74
569.15	40947.67
569.32	40659.79
569.48	40608.29
569.64	40390.62
569.81	39969.33
569.97	39796.13
570.13	39934.22
570.30	39143.12
570.46	38824.81
570.62	38192.86
570.78	37912.00
570.95	38148.39
571.11	40304.02
571.27	39981.03
571.43	39543.35
571.60	40587.23
571.76	39931.88
571.92	40664.47
572.09	40512.33
572.25	40704.26
572.41	40343.81
572.57	40189.34
572.74	41062.36
572.90	40563.82
573.06	40058.27
573.22	40332.11
573.38	40016.14
573.55	40163.59
573.71	40383.60
573.87	39955.29
574.03	39639.31
574.20	39400.58
574.36	39321.00
574.52	39271.85
574.68	39196.95
574.84	38813.10
575.01	38415.21
575.17	38345.00
575.33	38279.46
575.49	38902.04
575.65	39548.03
575.82	38848.21
575.98	39040.14
576.14	38934.81
576.30	39842.94
576.46	40975.76
576.62	41179.39
576.79	41099.81
576.95	40311.05
577.11	39262.49
577.27	39196.95
577.43	39218.02
577.59	38246.69
577.75	37958.81
577.92	37160.69
578.08	36847.05
578.24	36985.15
578.40	38529.90
578.56	39856.98
578.72	40486.59
578.88	40615.32
579.04	39541.01
579.21	38916.09
579.37	38682.03
579.53	38464.36
579.69	38572.03
579.85	38948.85
580.01	39489.52
580.17	38387.13
580.33	38382.45
580.49	38459.68
580.65	38595.43
580.82	39229.72
580.98	38380.10
581.14	38199.88
581.30	39047.16
581.46	38665.65
581.62	39220.36
581.78	38665.65
581.94	39262.49
582.10	38623.52
582.26	39023.75
582.42	39136.10
582.58	39122.05
582.74	39103.33
582.90	39175.89
583.06	39299.94
583.22	38609.48
583.38	39147.80
583.54	38733.53
583.70	39398.24
583.86	39199.29
584.02	38698.42
584.18	39236.74
584.34	38864.60
584.50	38595.43
584.66	38127.33
584.82	37759.86
584.98	38099.24
