SpectraSuite Data File
++++++++++++++++++++++++++++++++++++
Date: Mon Oct 07 14:54:59 GMT-05:00 2013
User: price-jones
Dark Spectrum Present: No
Reference Spectrum Present: No
Number of Sampled Component Spectra: 1
Spectrometers: USB2+H05261
Integration Time (usec): 10000 (USB2+H05261)
Spectra Averaged: 1 (USB2+H05261)
Boxcar Smoothing: 0 (USB2+H05261)
Correct for Electrical Dark: No (USB2+H05261)
Strobe/Lamp Enabled: No (USB2+H05261)
Correct for Detector Non-linearity: No (USB2+H05261)
Correct for Stray Light: No (USB2+H05261)
Number of Pixels in Processed Spectrum: 2048
>>>>>Begin Processed Spectral Data<<<<<
365.73	0.00
365.92	0.00
366.12	0.00
366.32	0.00
366.52	0.00
366.72	0.00
366.91	0.00
367.11	0.00
367.31	0.00
367.51	0.00
367.70	0.00
367.90	0.00
368.10	0.00
368.30	0.00
368.49	0.00
368.69	0.00
368.89	0.00
369.09	0.00
369.28	0.00
369.48	0.00
369.68	0.00
369.87	0.00
370.07	0.00
370.27	0.00
370.47	53.83
370.66	1188.99
370.86	1502.62
371.06	1472.20
371.25	1472.20
371.45	1294.32
371.65	1203.04
371.84	1088.35
372.04	1301.34
372.24	1455.81
372.44	1465.18
372.63	1420.71
372.83	1263.89
373.03	1282.61
373.22	966.64
373.42	1226.44
373.62	1327.08
373.81	1514.33
374.01	1371.55
374.21	1240.48
374.40	1198.35
374.60	1263.89
374.79	1446.45
374.99	1799.87
375.19	1912.22
375.38	1839.66
375.58	1769.44
375.78	1666.46
375.97	1687.53
376.17	1720.29
376.37	1699.23
376.56	1795.19
376.76	1849.02
376.95	2120.53
377.15	2235.21
377.35	2237.55
377.54	2434.16
377.74	2530.12
377.93	2352.24
378.13	2366.28
378.33	2207.13
378.52	2073.71
378.72	1987.11
378.91	1905.20
379.11	1804.55
379.31	1832.64
379.50	1860.73
379.70	2029.24
379.89	2106.48
380.09	2270.32
380.28	2469.27
380.48	2427.14
380.68	2359.26
380.87	2312.45
381.07	2118.18
381.26	1970.73
381.46	1783.49
381.65	1734.34
381.85	1717.95
382.04	1526.03
382.24	1444.11
382.43	1409.00
382.63	1348.15
382.83	1334.11
383.02	1434.75
383.22	1430.07
383.41	1486.24
383.61	1547.09
383.80	1827.96
384.00	2031.58
384.19	2394.37
384.39	2387.35
384.58	2436.50
384.78	2258.62
384.97	2324.15
385.17	2160.31
385.36	2066.69
385.56	2022.22
385.75	2090.10
385.95	2275.00
386.14	2476.29
386.34	2448.20
386.53	2214.15
386.72	2179.04
386.92	2340.54
387.11	2387.35
387.31	2359.26
387.50	2438.84
387.70	2382.67
387.89	2324.15
388.09	2204.78
388.28	2347.56
388.48	2492.67
388.67	2588.63
388.86	2874.18
389.06	3094.19
389.25	3339.94
389.45	3251.00
389.64	3197.17
389.84	3103.55
390.03	3112.91
390.22	3129.30
390.42	3377.39
390.61	3426.54
390.81	3559.95
391.00	3789.33
391.19	3847.84
391.39	3463.99
391.58	3218.24
391.78	3056.74
391.97	3276.75
392.16	2668.21
392.36	2490.33
392.55	1989.46
392.75	1547.09
392.94	1268.57
393.13	1394.96
393.33	1746.04
393.52	2071.37
393.71	2635.44
393.91	2958.44
394.10	3253.34
394.29	3442.93
394.49	3698.05
394.68	4086.58
394.88	4025.72
395.07	4219.99
395.26	4063.17
395.46	3922.74
395.65	3639.53
395.84	3005.25
396.04	2656.51
396.23	2031.58
396.42	1776.47
396.62	1802.21
396.81	2172.02
397.00	2918.65
397.19	3590.38
397.39	4278.50
397.58	4631.92
397.77	4870.65
397.97	5076.62
398.16	5130.45
398.35	5296.63
398.55	5404.30
398.74	5516.64
398.93	5853.68
399.12	5856.02
399.32	5483.88
399.51	5570.48
399.70	6008.16
399.90	5757.72
400.09	5825.59
400.28	5856.02
400.47	5933.26
400.67	6181.35
400.86	6457.54
401.05	6265.61
401.24	6197.74
401.44	6509.03
401.63	6520.73
401.82	6396.68
402.01	6480.94
402.21	6328.81
402.40	6499.67
402.59	6218.80
402.78	5966.03
402.97	6059.65
403.17	6384.98
403.36	6700.95
403.55	6691.59
403.74	6654.14
403.93	6530.09
404.13	5844.32
404.32	6223.48
404.51	6525.41
404.70	6759.47
404.89	6780.53
405.09	6640.10
405.28	6263.27
405.47	6342.85
405.66	6394.34
405.85	6265.61
406.05	6024.54
406.24	6153.27
406.43	6574.56
406.62	6698.61
406.81	6572.22
407.00	6452.86
407.20	6181.35
407.39	6427.11
407.58	6850.75
407.77	6977.14
407.96	7052.03
408.15	7234.60
408.34	7417.16
408.54	7576.31
408.73	7557.59
408.92	7414.82
409.11	7363.33
409.30	6773.51
409.49	6113.48
409.68	5994.11
409.87	6073.69
410.07	6394.34
410.26	6794.58
410.45	7206.51
410.64	7482.69
410.83	7765.90
411.02	7812.71
411.21	8180.17
411.40	7894.63
411.59	7974.21
411.78	7901.65
411.98	7960.16
412.17	7976.55
412.36	7695.68
412.55	7852.50
412.74	7768.24
412.93	7480.35
413.12	7747.17
413.31	8383.80
413.50	8582.74
413.69	8187.19
413.88	8086.55
414.07	8053.78
414.26	8077.19
414.45	8266.77
414.64	8245.71
414.83	8358.05
415.02	8126.34
415.22	8294.86
415.41	8578.06
415.60	8645.94
415.79	9083.62
415.98	9469.81
416.17	9369.16
416.36	9029.79
416.55	8800.41
416.74	8290.18
416.93	8138.04
417.12	8318.26
417.31	8589.77
417.50	8798.07
417.69	8896.38
417.88	8999.36
418.07	8840.20
418.26	8547.64
418.45	8891.70
418.64	9170.22
418.83	9638.33
419.02	9060.21
419.21	9095.32
419.39	8601.47
419.58	8390.82
419.77	8437.63
419.96	9046.17
420.15	9341.08
420.34	9460.45
420.53	9827.91
420.72	9687.48
420.91	10031.54
421.10	9689.82
421.29	9624.28
421.48	9535.34
421.67	9921.53
421.86	9310.65
422.05	8418.91
422.24	7819.73
422.43	8325.29
422.61	9226.39
422.80	9579.81
422.99	9350.44
423.18	9107.02
423.37	9025.11
423.56	9076.60
423.75	9254.48
423.94	9362.14
424.13	8905.74
424.32	8926.80
424.50	9088.30
424.69	9184.26
424.88	8961.91
425.07	8889.35
425.26	8908.08
425.45	8524.23
425.64	8765.31
425.83	8821.48
426.01	9224.05
426.20	9303.63
426.39	9053.19
426.58	8557.00
426.77	8006.97
426.96	7583.34
427.15	8009.31
427.33	8758.28
427.52	8915.10
427.71	8938.51
427.90	8772.33
428.09	8727.86
428.28	8519.55
428.46	8294.86
428.65	8329.97
428.84	8608.49
429.03	8437.63
429.22	7899.31
429.40	7323.54
429.59	6693.93
429.78	6225.82
429.97	6403.71
430.16	6272.64
430.34	6380.30
430.53	6387.32
430.72	6827.34
430.91	7630.15
431.10	9006.38
431.28	10181.33
431.47	10743.06
431.66	10530.07
431.85	9488.53
432.03	8933.82
432.22	8901.06
432.41	9233.41
432.60	10043.24
432.79	10476.24
432.97	10668.16
433.16	9982.38
433.35	9228.73
433.54	8226.98
433.72	8156.77
433.91	8526.57
434.10	9408.95
434.28	9966.00
434.47	10415.38
434.66	9771.74
434.85	9771.74
435.03	9912.17
435.22	10141.54
435.41	10382.62
435.59	11049.67
435.78	11112.86
435.97	11232.23
436.16	11241.59
436.34	10897.53
436.53	10633.05
436.72	10820.30
436.90	10443.47
437.09	10237.50
437.28	10223.46
437.46	10200.05
437.65	10249.21
437.84	9631.30
438.02	9294.27
438.21	8929.14
438.40	9411.29
438.58	10155.58
438.77	10415.38
438.96	10422.41
439.14	10906.90
439.33	11190.10
439.52	11236.91
439.70	11183.08
439.89	10607.31
440.08	10562.84
440.26	10801.57
440.45	10991.16
440.63	11810.34
440.82	12299.52
441.01	12116.95
441.19	11967.16
441.38	12180.15
441.57	12830.82
441.75	12720.81
441.94	12975.93
442.12	12659.96
442.31	13193.60
442.50	13319.99
442.68	13055.51
442.87	12702.09
443.05	12571.02
443.24	12816.77
443.43	13006.36
443.61	12891.67
443.80	13511.91
443.98	12594.42
444.17	12641.23
444.35	13472.12
444.54	13462.76
444.73	13467.44
444.91	12535.91
445.10	12224.62
445.28	11674.59
445.47	11538.84
445.65	12044.40
445.84	12217.60
446.02	12844.86
446.21	13104.66
446.39	12762.94
446.58	12875.29
446.77	13212.32
446.95	13238.07
447.14	13556.38
447.32	14113.43
447.51	13582.13
447.69	12713.79
447.88	12683.36
448.06	13352.76
448.25	13359.78
448.43	13383.18
448.62	13275.52
448.80	13004.02
448.99	13357.44
449.17	13413.61
449.36	13355.10
449.54	14052.58
449.73	14080.66
449.91	13921.51
450.10	14808.57
450.28	15279.02
450.46	14693.88
450.65	14581.54
450.83	14338.12
451.02	14230.46
451.20	14118.11
451.39	14274.93
451.57	13914.48
451.76	13760.01
451.94	13586.81
452.13	13200.62
452.31	12922.10
452.49	12362.71
452.68	12603.78
452.86	12556.97
453.05	12664.64
453.23	13401.91
453.42	13462.76
453.60	13811.50
453.78	13928.53
453.97	13664.05
454.15	13710.86
454.34	13338.71
454.52	13268.50
454.70	13209.98
454.89	13055.51
455.07	13408.93
455.26	13769.37
455.44	14075.98
455.62	14389.61
455.81	14712.61
455.99	14396.64
456.17	14429.40
456.36	14555.79
456.54	14824.95
456.73	14789.85
456.91	14934.96
457.09	15262.63
457.28	15452.22
457.46	14553.45
457.64	14544.09
457.83	14080.66
458.01	13760.01
458.19	14338.12
458.38	14553.45
458.56	14747.72
458.74	14548.77
458.93	14221.10
459.11	14260.88
459.29	14171.94
459.48	14295.99
459.66	14143.86
459.84	14445.79
460.03	14473.87
460.21	14637.71
460.39	15021.56
460.57	15075.39
460.76	15667.55
460.94	15487.32
461.12	14700.90
461.31	14998.15
461.49	15232.21
461.67	14934.96
461.85	15412.43
462.04	15377.32
462.22	15335.19
462.40	15101.14
462.59	15424.13
462.77	15105.82
462.95	15150.29
463.13	14754.74
463.32	15056.67
463.50	14607.28
463.68	15154.97
463.86	14750.06
464.05	14602.60
464.23	14185.99
464.41	14146.20
464.59	14272.59
464.78	14930.28
464.96	14707.93
465.14	14719.63
465.32	14714.95
465.50	15407.75
465.69	15789.25
465.87	15117.52
466.05	14534.73
466.23	13886.40
466.41	13982.36
466.60	14654.09
466.78	14127.47
466.96	14459.83
467.14	14810.91
467.32	14623.67
467.51	14953.68
467.69	14038.53
467.87	14548.77
468.05	14714.95
468.23	14817.93
468.41	15056.67
468.60	14909.21
468.78	15239.23
468.96	15054.33
469.14	14867.08
469.32	14546.43
469.50	14441.11
469.69	14312.38
469.87	14171.94
470.05	14562.81
470.23	14551.11
470.41	14752.40
470.59	14911.55
470.77	14537.07
470.95	15082.41
471.14	15454.56
471.32	15304.76
471.50	16020.97
471.68	15950.75
471.86	16119.27
472.04	16102.89
472.22	15946.07
472.40	14923.26
472.58	15089.43
472.77	15028.58
472.95	15805.64
473.13	15988.20
473.31	15765.85
473.49	16114.59
473.67	16212.89
473.85	16379.07
474.03	17128.04
474.21	16437.58
474.39	16339.28
474.57	16615.46
474.75	16688.02
474.93	16238.64
475.12	15946.07
475.30	16315.87
475.48	15976.50
475.66	16175.44
475.84	15964.79
476.02	15719.04
476.20	15609.03
476.38	16386.09
476.56	17043.78
476.74	17022.72
476.92	16947.82
477.10	17280.18
477.28	17968.29
477.46	17369.12
477.64	18232.77
477.82	17877.01
478.00	17996.38
478.18	17930.84
478.36	17902.76
478.54	18134.47
478.72	17638.28
478.90	18544.06
479.08	19543.47
479.26	18881.10
479.44	18665.77
479.62	18768.76
479.80	18672.79
479.98	18471.51
480.16	19257.93
480.34	18934.93
480.52	19286.01
480.70	19456.87
480.88	18916.21
481.06	20013.92
481.24	19569.22
481.41	19707.31
481.59	20535.86
481.77	20072.43
481.95	20006.90
482.13	19751.78
482.31	19531.77
482.49	20320.53
482.67	20294.79
482.85	20617.78
483.03	20486.71
483.21	20933.75
483.39	20716.08
483.57	20526.50
483.74	20236.27
483.92	20500.75
484.10	20643.52
484.28	21579.74
484.46	21254.40
484.64	21841.88
484.82	20896.30
485.00	20133.29
485.18	20049.03
485.35	19557.52
485.53	17542.32
485.71	16088.84
485.89	16634.19
486.07	17666.36
486.25	19073.03
486.43	20027.96
486.61	19644.12
486.78	20636.50
486.96	20372.02
487.14	21408.88
487.32	21862.94
487.50	22150.83
487.68	23091.73
487.85	22677.45
488.03	22890.44
488.21	22665.75
488.39	21729.53
488.57	21696.77
488.75	21853.58
488.92	22530.00
489.10	24170.71
489.28	24467.96
489.46	25163.10
489.64	25371.41
489.81	25355.02
489.99	24879.89
490.17	25156.08
490.35	25713.13
490.53	24854.15
490.70	24322.85
490.88	24687.97
491.06	25949.52
491.24	25387.79
491.41	24971.18
491.59	23016.83
491.77	23213.43
491.95	24088.79
492.13	24575.62
492.30	25603.12
492.48	26335.71
492.66	26403.58
492.84	26857.65
493.01	26806.16
493.19	25776.32
493.37	25263.74
493.54	25329.28
493.72	26225.70
493.90	26607.21
494.08	26920.84
494.25	27477.89
494.43	27995.15
494.61	28002.17
494.79	27702.58
494.96	27810.25
495.14	27042.55
495.32	26529.97
495.49	26857.65
495.67	27737.69
495.85	28327.50
496.02	28503.04
496.20	28737.10
496.38	28386.02
496.55	27662.79
496.73	28226.86
496.91	28709.01
497.09	29523.52
497.26	29254.36
497.44	29198.18
497.62	28608.37
497.79	27824.29
497.97	26309.96
498.14	26600.19
498.32	28177.71
498.50	29048.39
498.67	29078.82
498.85	29565.65
499.03	29525.86
499.20	29542.24
499.38	29598.41
499.56	28896.25
499.73	28804.97
499.91	28353.25
500.08	27669.81
500.26	27178.30
500.44	28322.82
500.61	28140.26
500.79	27632.36
500.97	27941.32
501.14	27192.34
501.32	27108.08
501.49	27218.09
501.67	27538.74
501.84	28016.21
502.02	27866.42
502.20	28428.15
502.37	28737.10
502.55	29067.11
502.72	29738.85
502.90	30602.50
503.07	29139.67
503.25	28793.27
503.43	27718.96
503.60	27419.38
503.78	26366.13
503.95	27470.87
504.13	29413.51
504.30	29888.64
504.48	28950.09
504.65	29371.38
504.83	29268.40
505.01	29797.36
505.18	30305.26
505.36	30944.22
505.53	31328.07
505.71	31061.25
505.88	31269.56
506.06	30572.08
506.23	30515.90
506.41	30005.67
506.58	30370.79
506.76	29982.26
506.93	29851.19
507.11	29228.61
507.28	29069.45
507.46	28858.81
507.63	28463.25
507.81	28489.00
507.98	28451.55
508.16	29287.12
508.33	30410.58
508.50	29993.97
508.68	30583.78
508.85	31480.21
509.03	31405.31
509.20	31161.89
509.38	29287.12
509.55	29940.13
509.73	30333.34
509.90	30171.85
510.08	30029.07
510.25	29535.22
510.42	29853.53
510.60	30354.41
510.77	30621.23
510.95	31033.16
511.12	30866.98
511.30	31332.75
511.47	31648.72
511.64	31644.04
511.82	31126.78
511.99	29816.08
512.17	29635.86
512.34	29617.14
512.51	30274.83
512.69	30033.75
512.86	30110.99
513.04	30441.01
513.21	30345.05
513.38	29127.97
513.56	29024.98
513.73	28135.58
513.90	28119.20
514.08	28709.01
514.25	30661.02
514.43	29982.26
514.60	29813.74
514.77	29851.19
514.95	29638.20
515.12	29680.33
515.29	29876.94
515.47	30857.62
515.64	30654.00
515.81	30742.94
515.99	30024.39
516.16	27356.18
516.33	25678.02
516.51	24985.22
516.68	23316.42
516.85	23623.03
517.03	24723.08
517.20	27501.29
517.37	29146.69
517.54	29514.16
517.72	28517.09
517.89	26022.08
518.06	25495.46
518.24	26562.74
518.41	28481.98
518.58	28467.94
518.75	28018.55
518.93	28540.49
519.10	29071.79
519.27	28823.70
519.45	29886.30
519.62	30529.95
519.79	30157.80
519.96	30003.33
520.14	29652.25
520.31	28755.82
520.48	28851.78
520.65	29104.56
520.83	30742.94
521.00	30513.56
521.17	29617.14
521.34	29020.30
521.52	30312.28
521.69	31007.42
521.86	30696.13
522.03	30487.82
522.20	28753.48
522.38	28285.37
522.55	29263.72
522.72	29158.39
522.89	29853.53
523.07	30370.79
523.24	30242.06
523.41	30670.38
523.58	30759.32
523.75	31248.49
523.92	31452.12
524.10	32088.74
524.27	31311.69
524.44	30408.24
524.61	30244.40
524.78	30682.08
524.96	30534.63
525.13	30267.81
525.30	31002.74
525.47	30492.50
525.64	30012.69
525.81	29631.18
525.98	28357.93
526.16	27463.85
526.33	26778.07
526.50	25802.07
526.67	26675.09
526.84	26864.67
527.01	27129.15
527.18	28531.13
527.36	30473.78
527.53	30621.23
527.70	29523.52
527.87	29399.47
528.04	30462.07
528.21	29343.30
528.38	31264.88
528.55	32657.49
528.72	32634.09
528.89	31871.07
529.07	30438.67
529.24	29457.98
529.41	29355.00
529.58	29993.97
529.75	30029.07
529.92	29900.34
530.09	30745.28
530.26	31466.16
530.43	30813.15
530.60	30223.34
530.77	31653.40
530.94	30604.84
531.11	31061.25
531.28	30927.84
531.46	29769.27
531.63	30010.35
531.80	29301.17
531.97	29022.64
532.14	28510.07
532.31	27346.82
532.48	27648.75
532.65	27704.92
532.82	28758.16
532.99	29989.28
533.16	30426.96
533.33	30410.58
533.50	30146.10
533.67	29914.39
533.84	29425.22
534.01	29104.56
534.18	29504.79
534.35	30209.29
534.52	29565.65
534.69	30457.39
534.86	30342.70
535.03	30965.29
535.20	31777.45
535.37	31735.32
535.54	31608.93
535.71	30551.01
535.88	30319.30
536.05	29493.09
536.22	29467.34
536.38	28772.21
536.55	28229.20
536.72	28041.96
536.89	28549.85
537.06	29717.78
537.23	30773.36
537.40	29429.90
537.57	30068.86
537.74	29874.60
537.91	29371.38
538.08	28863.49
538.25	30527.61
538.42	30485.48
538.59	29617.14
538.75	29095.20
538.92	28650.50
539.09	28308.78
539.26	28687.95
539.43	28428.15
539.60	28002.17
539.77	28245.58
539.94	27346.82
540.11	27159.58
540.28	27646.41
540.44	26904.46
540.61	28261.97
540.78	29228.61
540.95	28699.65
541.12	28643.48
541.29	28603.69
541.46	29256.70
541.62	29043.71
541.79	28716.03
541.96	28538.15
542.13	28004.51
542.30	28542.83
542.47	29139.67
542.63	29001.58
542.80	28669.22
542.97	28922.00
543.14	27697.90
543.31	27999.83
543.48	28460.91
543.64	29191.16
543.81	28947.75
543.98	28959.45
544.15	28205.80
544.32	28212.82
544.48	28760.50
544.65	28301.76
544.82	29481.39
544.99	28369.63
545.16	27880.46
545.32	28304.10
545.49	29605.44
545.66	29827.79
545.83	29036.69
546.00	28198.77
546.16	28655.18
546.33	28496.02
546.50	27894.50
546.67	29144.35
546.83	28009.19
547.00	28219.84
547.17	27941.32
547.34	27950.68
547.50	26916.16
547.67	27091.70
547.84	28067.70
548.00	27882.80
548.17	27623.00
548.34	27569.17
548.51	28339.21
548.67	27988.13
548.84	28456.23
549.01	28435.17
549.18	28751.14
549.34	27721.30
549.51	28409.42
549.68	28470.28
549.84	28865.83
550.01	28486.66
550.18	28617.73
550.34	27714.28
550.51	27934.29
550.68	27339.80
550.84	27367.88
551.01	27232.13
551.18	27288.31
551.34	28610.71
551.51	27693.22
551.68	27531.72
551.84	28016.21
552.01	27768.12
552.18	26616.57
552.34	27108.08
552.51	27562.15
552.68	27473.21
552.84	27370.22
553.01	28060.68
553.18	27854.72
553.34	27693.22
553.51	28498.36
553.67	28278.35
553.84	27330.44
554.01	27410.01
554.17	27236.81
554.34	27601.94
554.51	27197.02
554.67	27641.73
554.84	28311.12
555.00	27620.66
555.17	27239.15
555.33	27599.60
555.50	28231.54
555.67	27157.24
555.83	27571.51
556.00	26785.09
556.16	27318.73
556.33	26455.08
556.50	26988.72
556.66	26368.48
556.83	25460.35
556.99	25282.47
557.16	25362.04
557.32	26155.49
557.49	27075.32
557.65	26991.06
557.82	26836.58
557.98	26450.39
558.15	25605.46
558.32	25575.03
558.48	25153.74
558.65	24793.29
558.81	24746.48
558.98	25179.48
559.14	26015.05
559.31	26541.68
559.47	25633.55
559.64	24767.55
559.80	24540.52
559.97	24524.13
560.13	25219.27
560.30	26019.74
560.46	26752.32
560.63	28416.44
560.79	28718.37
560.96	27131.49
561.12	25399.49
561.29	24671.59
561.45	25308.21
561.61	25212.25
561.78	25532.90
561.94	25116.29
562.11	25193.53
562.27	24924.36
562.44	25603.12
562.60	26492.52
562.77	26129.74
562.93	26607.21
563.10	26492.52
563.26	25654.61
563.42	25642.91
563.59	25415.88
563.75	25032.03
563.92	24573.28
564.08	25668.66
564.24	24858.83
564.41	24819.04
564.57	25902.71
564.74	25809.09
564.90	25010.96
565.07	23946.02
565.23	24046.66
565.39	24025.60
565.56	24561.58
565.72	23896.87
565.88	24400.08
566.05	24861.17
566.21	24512.43
566.38	23585.58
566.54	25322.26
566.70	25769.30
566.87	24671.59
567.03	24596.69
567.19	25771.64
567.36	24081.77
567.52	24313.48
567.68	24051.34
567.85	23857.08
568.01	23150.24
568.17	23218.11
568.34	23288.33
568.50	23365.57
568.66	24161.35
568.83	22862.35
568.99	23697.92
569.15	23623.03
569.32	23543.45
569.48	23805.59
569.64	23016.83
569.81	23470.89
569.97	23175.98
570.13	22326.37
570.30	22192.96
570.46	22150.83
570.62	22480.85
570.78	21893.37
570.95	22202.32
571.11	22946.61
571.27	23054.28
571.43	23063.64
571.60	23903.89
571.76	23693.24
571.92	24208.16
572.09	23887.51
572.25	23733.03
572.41	24276.04
572.57	25795.04
572.74	24472.64
572.90	23728.35
573.06	23723.67
573.22	23475.57
573.38	23117.47
573.55	23456.85
573.71	23073.00
573.87	23208.75
574.03	23791.55
574.20	22939.59
574.36	22710.22
574.52	23386.63
574.68	23283.65
574.84	22317.01
575.01	21528.25
575.17	21853.58
575.33	21759.96
575.49	21755.28
575.65	22368.50
575.82	22295.94
575.98	22803.84
576.14	22246.79
576.30	22270.20
576.46	22506.59
576.62	21900.39
576.79	22651.70
576.95	22307.65
577.11	22328.71
577.27	22473.82
577.43	22459.78
577.59	22391.91
577.75	22506.59
577.92	22075.93
578.08	21664.00
578.24	22113.38
578.40	22590.85
578.56	21795.07
578.72	22249.13
578.88	21638.25
579.04	21984.65
579.21	22122.74
579.37	21944.86
579.53	21965.93
579.69	22611.92
579.85	22300.62
580.01	20844.81
580.17	20594.37
580.33	21792.73
580.49	22293.60
580.65	21869.97
580.82	21649.96
580.98	21275.47
581.14	21436.97
581.30	20704.38
581.46	21142.06
581.62	21378.45
581.78	21493.14
581.94	21816.13
582.10	21553.99
582.26	22001.04
582.42	23033.21
582.58	22654.05
582.74	22651.70
582.90	23021.51
583.06	23220.45
583.22	22618.94
583.38	22342.75
583.54	21846.56
583.70	22012.74
583.86	22239.77
584.02	21600.80
584.18	22073.59
584.34	22586.17
584.50	22305.31
584.66	21589.10
584.82	21741.24
584.98	21212.28
585.14	20629.48
585.30	20664.59
585.46	20615.44
585.62	20610.76
585.78	20465.64
585.94	20652.89
586.10	20446.92
586.26	20114.56
586.42	20664.59
586.58	21137.38
586.74	21109.29
586.90	21142.06
587.06	20659.91
587.22	20407.13
