SpectraSuite Data File
++++++++++++++++++++++++++++++++++++
Date: Mon Oct 07 14:53:46 GMT-05:00 2013
User: price-jones
Dark Spectrum Present: No
Reference Spectrum Present: No
Number of Sampled Component Spectra: 1
Spectrometers: USB2+H05261
Integration Time (usec): 100000 (USB2+H05261)
Spectra Averaged: 1 (USB2+H05261)
Boxcar Smoothing: 0 (USB2+H05261)
Correct for Electrical Dark: No (USB2+H05261)
Strobe/Lamp Enabled: No (USB2+H05261)
Correct for Detector Non-linearity: No (USB2+H05261)
Correct for Stray Light: No (USB2+H05261)
Number of Pixels in Processed Spectrum: 2048
>>>>>Begin Processed Spectral Data<<<<<
365.73	0.00
365.92	0.00
366.12	0.00
366.32	0.00
366.52	0.00
366.72	0.00
366.91	0.00
367.11	0.00
367.31	0.00
367.51	0.00
367.70	0.00
367.90	0.00
368.10	0.00
368.30	0.00
368.49	0.00
368.69	0.00
368.89	0.00
369.09	0.00
369.28	0.00
369.48	0.00
369.68	0.00
369.87	0.00
370.07	0.00
370.27	0.00
370.47	561.73
370.66	3012.27
370.86	3569.32
371.06	3770.60
371.25	3953.16
371.45	3597.40
371.65	3227.60
371.84	2965.46
372.04	3000.57
372.24	3574.00
372.44	3651.24
372.63	3543.57
372.83	3524.85
373.03	3110.57
373.22	2724.38
373.42	2834.39
373.62	3342.28
373.81	3534.21
374.01	3592.72
374.21	3318.88
374.40	2946.73
374.60	3068.44
374.79	3611.45
374.99	4161.47
375.19	4257.43
375.38	4372.12
375.58	4145.09
375.78	4114.66
375.97	4182.54
376.17	4297.22
376.37	4341.69
376.56	4585.11
376.76	4751.29
376.95	4758.31
377.15	5481.53
377.35	5755.38
377.54	5813.89
377.74	5921.56
377.93	5914.53
378.13	5844.32
378.33	5628.99
378.52	5205.35
378.72	4936.19
378.91	4992.36
379.11	4585.11
379.31	4655.33
379.50	4479.79
379.70	4894.06
379.89	5291.95
380.09	5575.16
380.28	5891.13
380.48	5811.55
380.68	5825.59
380.87	5401.96
381.07	5210.03
381.26	4727.88
381.46	4491.49
381.65	4318.29
381.85	4313.61
382.04	3943.80
382.24	3784.65
382.43	3655.92
382.63	3454.63
382.83	3581.02
383.02	3501.44
383.22	3391.44
383.41	3562.30
383.61	3817.41
383.80	4208.28
384.00	4978.32
384.19	5467.49
384.39	5797.51
384.58	5841.98
384.78	5666.44
384.97	5884.11
385.17	5233.44
385.36	5207.69
385.56	4945.55
385.75	4898.74
385.95	5493.24
386.14	5996.45
386.34	6193.06
386.53	5685.16
386.72	5172.58
386.92	5448.77
387.11	5755.38
387.31	5933.26
387.50	5947.30
387.70	5600.90
387.89	5514.30
388.09	5696.86
388.28	5849.00
388.48	5703.89
388.67	6179.01
388.86	6834.36
389.06	7222.89
389.25	7576.31
389.45	7651.21
389.64	7641.85
389.84	7637.17
390.03	7646.53
390.22	7653.55
390.42	7798.66
390.61	8166.13
390.81	8908.08
391.00	9046.17
391.19	8910.42
391.39	8624.87
391.58	7901.65
391.78	7627.81
391.97	7382.05
392.16	7000.54
392.36	6239.87
392.55	5135.14
392.75	3960.19
392.94	3241.64
393.13	3281.43
393.33	3749.54
393.52	4819.16
393.71	6047.94
393.91	6820.32
394.10	7314.17
394.29	8049.10
394.49	8844.88
394.68	9394.91
394.88	9366.82
395.07	9872.38
395.26	9643.01
395.46	9678.12
395.65	8744.24
395.84	7779.94
396.04	6537.12
396.23	5404.30
396.42	4465.74
396.62	4236.37
396.81	5076.62
397.00	6377.96
397.19	7850.16
397.39	9640.67
397.58	10691.57
397.77	11281.38
397.97	11595.01
398.16	11793.96
398.35	12369.73
398.55	12538.25
398.74	13256.79
398.93	13392.55
399.12	13401.91
399.32	12709.11
399.51	13055.51
399.70	14050.24
399.90	13813.84
400.09	13844.27
400.28	13568.09
400.47	13769.37
400.67	14508.98
400.86	15098.80
401.05	14693.88
401.24	15110.50
401.44	14939.64
401.63	15389.02
401.82	15288.38
402.01	15400.72
402.21	15342.21
402.40	15618.39
402.59	15035.60
402.78	14501.96
402.97	14026.83
403.17	14354.51
403.36	15267.31
403.55	15908.62
403.74	16526.52
403.93	15246.25
404.13	14497.28
404.32	13891.08
404.51	14471.53
404.70	15915.64
404.89	15573.92
405.09	15459.24
405.28	14930.28
405.47	15105.82
405.66	15272.00
405.85	14611.96
406.05	14169.60
406.24	14401.32
406.43	14885.81
406.62	15417.11
406.81	15871.17
407.00	14979.43
407.20	14841.34
407.39	15054.33
407.58	15721.38
407.77	16184.80
407.96	16673.98
408.15	17153.79
408.34	17144.42
408.54	17813.82
408.73	17874.67
408.92	17685.09
409.11	17184.21
409.30	16196.51
409.49	15393.70
409.68	14125.13
409.87	13743.63
410.07	14960.70
410.26	15960.11
410.45	16702.06
410.64	17474.44
410.83	18001.06
411.02	18532.36
411.21	18881.10
411.40	19213.46
411.59	19016.85
411.78	18878.76
411.98	18459.81
412.17	18937.27
412.36	18389.59
412.55	18480.87
412.74	18202.35
412.93	17638.28
413.12	17991.70
413.31	19426.45
413.50	19782.21
413.69	20231.59
413.88	19461.55
414.07	18838.97
414.26	18923.23
414.45	19662.84
414.64	19814.98
414.83	19601.99
415.02	19693.27
415.22	19206.44
415.41	19756.46
415.60	20592.03
415.79	21514.20
415.98	21766.98
416.17	22199.98
416.36	21158.44
416.55	20915.03
416.74	20507.77
416.93	19400.70
417.12	19552.84
417.31	19953.07
417.50	20226.91
417.69	20854.17
417.88	20690.34
418.07	20589.69
418.26	20320.53
418.45	20638.84
418.64	20985.24
418.83	21624.21
419.02	21689.74
419.21	21366.75
419.39	20746.51
419.58	19726.04
419.77	19892.21
419.96	20638.84
420.15	21586.76
420.34	22202.32
420.53	23087.04
420.72	23468.55
420.91	23211.09
421.10	23260.24
421.29	22864.69
421.48	22352.12
421.67	22862.35
421.86	22317.01
422.05	21146.74
422.24	18860.04
422.43	18581.51
422.61	20608.42
422.80	22286.58
422.99	22314.67
423.18	21551.65
423.37	21006.31
423.56	21376.11
423.75	21413.56
423.94	22005.72
424.13	20690.34
424.32	20905.66
424.50	20919.71
424.69	20748.85
424.88	21027.37
425.07	20748.85
425.26	20725.44
425.45	20458.62
425.64	20006.90
425.83	19875.83
426.01	21050.78
426.20	21759.96
426.39	21855.92
426.58	19941.36
426.77	18448.10
426.96	18043.19
427.15	18689.18
427.33	20290.10
427.52	20683.31
427.71	21067.16
427.90	20931.41
428.09	20482.03
428.28	20428.20
428.46	19658.16
428.65	18951.32
428.84	19679.22
429.03	20058.39
429.22	18853.02
429.40	18092.34
429.59	16262.04
429.78	14560.47
429.97	14410.68
430.16	14831.97
430.34	14752.40
430.53	14743.03
430.72	15166.67
430.91	16379.07
431.10	19484.96
431.28	22771.07
431.47	24802.66
431.66	25345.66
431.85	23309.40
432.03	21013.33
432.22	19948.39
432.41	21008.65
432.60	23211.09
432.79	24353.27
432.97	24877.55
433.16	24175.39
433.35	22207.00
433.54	19985.83
433.72	18628.32
433.91	19218.14
434.10	21420.58
434.28	23241.52
434.47	24058.37
434.66	23920.28
434.85	23461.53
435.03	23215.77
435.22	23812.61
435.41	25387.79
435.59	25273.10
435.78	25338.64
435.97	26274.85
436.16	26644.66
436.34	26022.08
436.53	25312.89
436.72	25748.23
436.90	24418.81
437.09	24175.39
437.28	23381.95
437.46	24552.22
437.65	24273.70
437.84	22998.10
438.02	20980.56
438.21	20896.30
438.40	22171.89
438.58	23850.06
438.77	24254.97
438.96	24449.24
439.14	25570.35
439.33	26178.89
439.52	26656.36
439.70	26246.77
439.89	25317.57
440.08	24910.32
440.26	24634.14
440.45	25607.80
440.63	27482.57
440.82	28690.29
441.01	28460.91
441.19	28105.15
441.38	28840.08
441.57	29450.96
441.75	30031.41
441.94	30293.55
442.12	30139.08
442.31	30314.62
442.50	30092.27
442.68	29942.47
442.87	29654.59
443.05	29156.05
443.24	29633.52
443.43	30459.73
443.61	30560.37
443.80	31412.33
443.98	29352.66
444.17	29439.26
444.35	31414.67
444.54	31496.59
444.73	31115.08
444.91	30162.48
445.10	28767.52
445.28	27508.32
445.47	27115.11
445.65	27290.65
445.84	28477.30
446.02	29249.67
446.21	29685.01
446.39	29642.88
446.58	29923.75
446.77	30508.88
446.95	30773.36
447.14	31653.40
447.32	32329.82
447.51	31805.54
447.69	30127.38
447.88	30132.06
448.06	30424.62
448.25	30913.80
448.43	31424.03
448.62	30834.22
448.80	30384.83
448.99	30644.63
449.17	31456.80
449.36	30845.92
449.54	31924.91
449.73	32634.09
449.91	33319.87
450.10	33984.58
450.28	34515.88
450.46	33741.16
450.65	34043.09
450.83	33684.99
451.02	33240.29
451.20	32872.82
451.39	33036.66
451.57	32687.92
451.76	32641.11
451.94	32437.48
452.13	31805.54
452.31	30464.41
452.49	29010.94
452.68	29832.47
452.86	29488.41
453.05	29776.30
453.23	31051.89
453.42	31342.11
453.60	32348.54
453.78	32830.69
453.97	32067.68
454.15	32613.02
454.34	31398.29
454.52	31735.32
454.70	31260.20
454.89	31716.60
455.07	31903.84
455.26	31695.53
455.44	33020.28
455.62	33729.46
455.81	34050.11
455.99	34148.42
456.17	33504.77
456.36	33195.82
456.54	34319.28
456.73	34246.72
456.91	35042.50
457.09	35070.59
457.28	35445.07
457.46	34342.68
457.64	33958.83
457.83	32870.48
458.01	32580.26
458.19	32947.72
458.38	33539.88
458.56	34801.43
458.74	34316.93
458.93	33687.33
459.11	33230.93
459.29	33537.54
459.48	33834.78
459.66	33366.68
459.84	33621.80
460.03	34450.35
460.21	34204.59
460.39	35108.04
460.57	34869.30
460.76	35681.47
460.94	35903.82
461.12	34899.73
461.31	35522.31
461.49	35438.05
461.67	35370.18
461.85	36458.52
462.04	36224.47
462.22	36175.32
462.40	36299.37
462.59	35779.77
462.77	35711.89
462.95	36128.51
463.13	35508.27
463.32	35103.35
463.50	35264.85
463.68	35122.08
463.86	35299.96
464.05	35007.39
464.23	34504.18
464.41	33741.16
464.59	33443.91
464.78	35168.89
464.96	34937.18
465.14	34242.04
465.32	35384.22
465.50	35772.75
465.69	36126.17
465.87	35845.30
466.05	35007.39
466.23	33212.20
466.41	32393.01
466.60	33532.86
466.78	33184.12
466.96	33785.63
467.14	34520.56
467.32	35377.20
467.51	35199.32
467.69	33757.55
467.87	34125.01
468.05	34881.00
468.23	34717.17
468.41	34904.41
468.60	34976.97
468.78	35662.74
468.96	34649.29
469.14	35475.50
469.32	35725.94
469.50	34583.76
469.69	34319.28
469.87	33582.01
470.05	33453.28
470.23	33986.92
470.41	33855.85
470.59	34508.86
470.77	34600.14
470.95	35304.64
471.14	35611.25
471.32	35604.23
471.50	37003.87
471.68	37558.58
471.86	38019.66
472.04	37900.29
472.22	38698.42
472.40	36573.21
472.58	36336.82
472.77	35840.62
472.95	36613.00
473.13	37680.28
473.31	36280.64
473.49	36811.95
473.67	37490.70
473.85	37628.79
474.03	38724.16
474.21	38462.02
474.39	39040.14
474.57	39260.15
474.75	39349.09
474.93	39316.32
475.12	38050.09
475.30	38256.06
475.48	38359.04
475.66	39150.14
475.84	38565.01
476.02	38040.73
476.20	37422.83
476.38	37799.65
476.56	39056.52
476.74	39590.16
476.92	40119.12
477.10	40573.19
477.28	41698.98
477.46	41837.08
477.64	42319.23
477.82	42618.81
478.00	42321.57
478.18	41661.54
478.36	41535.15
478.54	41762.18
478.72	41928.36
478.90	42899.68
479.08	43875.68
479.26	44472.52
479.44	44432.73
479.62	43831.21
479.80	44081.65
479.98	44135.48
480.16	44664.44
480.34	44217.40
480.52	44615.29
480.70	44678.49
480.88	44816.58
481.06	45221.49
481.24	45663.85
481.41	46569.64
481.59	47512.88
481.77	46770.93
481.95	46473.68
482.13	46071.10
482.31	46122.60
482.49	47070.51
482.67	46717.09
482.85	47358.40
483.03	47812.46
483.21	47887.36
483.39	47842.89
483.57	47056.47
483.74	47035.41
483.92	47201.58
484.10	47791.40
484.28	48523.99
484.46	49139.55
484.64	49076.35
484.82	48151.84
485.00	47735.23
485.18	47126.69
485.35	46075.79
485.53	42782.65
485.71	39440.37
485.89	38562.67
486.07	40465.52
486.25	43672.06
486.43	46295.80
486.61	47208.61
486.78	46740.50
486.96	47014.34
487.14	48715.91
487.32	49263.60
487.50	50501.74
487.68	51166.45
487.85	51824.14
488.03	51667.33
488.21	51262.41
488.39	50766.22
488.57	50145.98
488.75	49153.59
488.92	50958.14
489.10	52615.24
489.28	54092.12
489.46	54658.53
489.64	54679.60
489.81	54740.45
489.99	54372.99
490.17	54424.48
490.35	54798.96
490.53	54321.49
490.70	54117.87
490.88	53897.86
491.06	54754.49
491.24	54712.36
491.41	53731.68
491.59	52215.01
491.77	51496.47
491.95	52601.20
492.13	53705.93
492.30	54805.98
492.48	55501.12
492.66	56011.36
492.84	56275.84
493.01	55817.10
493.19	55231.96
493.37	55065.78
493.54	54609.38
493.72	55217.92
493.90	56320.31
494.08	57052.90
494.25	57162.90
494.43	57485.90
494.61	57806.55
494.79	57963.37
494.96	57792.51
495.14	57076.30
495.32	56203.28
495.49	55580.70
495.67	56692.46
495.85	57909.53
496.02	58342.53
496.20	58068.69
496.38	57813.57
496.55	57535.05
496.73	58223.17
496.91	58223.17
497.09	58775.53
497.26	58871.49
497.44	58403.39
497.62	57848.68
497.79	57120.77
497.97	56074.55
498.14	55985.61
498.32	56994.39
498.50	57970.39
498.67	58635.10
498.85	58518.07
499.03	58599.99
499.20	58721.70
499.38	58948.73
499.56	58719.36
499.73	58485.31
499.91	57834.64
500.08	57359.51
500.26	56814.16
500.44	57118.43
500.61	57918.90
500.79	57729.31
500.97	57474.20
501.14	57048.22
501.32	57099.71
501.49	57116.09
501.67	57298.65
501.84	57745.70
502.02	58014.86
502.20	58281.68
502.37	58529.78
502.55	58272.32
502.72	59164.06
502.90	59400.46
503.07	59168.74
503.25	58798.94
503.43	58148.27
503.60	57436.75
503.78	56577.77
503.95	57205.03
504.13	58410.41
504.30	59210.87
504.48	58962.78
504.65	58674.89
504.83	58702.98
505.01	59313.86
505.18	59643.87
505.36	60395.18
505.53	60374.12
505.71	60423.27
505.88	60505.19
506.06	59978.57
506.23	59643.87
506.41	59131.29
506.58	59496.42
506.76	59477.69
506.93	59571.32
507.11	59180.45
507.28	59344.28
507.46	59021.29
507.63	58431.47
507.81	58269.98
507.98	58382.32
508.16	59077.46
508.33	59344.28
508.50	59671.96
508.68	60196.24
508.85	60669.03
509.03	60308.58
509.20	60479.44
509.38	59870.90
509.55	59107.89
509.73	59220.23
509.90	59592.38
510.08	59763.24
510.25	59744.51
510.42	59583.02
510.60	59585.36
510.77	59955.16
510.95	60280.50
511.12	60493.49
511.30	60654.98
511.47	61020.11
511.64	60994.36
511.82	60748.60
511.99	59999.63
512.17	59484.72
512.34	59161.72
512.51	59426.20
512.69	59468.33
512.86	59615.79
513.04	59964.52
513.21	59957.50
513.38	59709.41
513.56	59426.20
513.73	58623.40
513.90	58885.54
514.08	58864.47
514.25	59217.89
514.43	59309.18
514.60	59264.70
514.77	59590.04
514.95	59767.92
515.12	59716.43
515.29	59821.75
515.47	60257.09
515.64	60463.06
515.81	60107.30
515.99	59519.82
516.16	58260.62
516.33	56025.40
516.51	54827.05
516.68	53932.96
516.85	53439.11
517.03	54120.21
517.20	56329.67
517.37	58688.93
517.54	59704.73
517.72	59412.16
517.89	57284.61
518.06	54663.21
518.24	54965.14
518.41	57097.37
518.58	58370.62
518.75	58721.70
518.93	58738.08
519.10	58546.16
519.27	59089.16
519.45	59199.17
519.62	59920.05
519.79	60280.50
519.96	59948.14
520.14	59618.13
520.31	58817.66
520.48	58756.81
520.65	59281.09
520.83	60116.66
521.00	60383.48
521.17	60109.64
521.34	59690.68
521.52	59992.61
521.69	60636.26
521.86	60968.61
522.03	60589.45
522.20	59547.91
522.38	58511.05
522.55	58501.69
522.72	59168.74
522.89	59295.13
523.07	59381.73
523.24	59636.85
523.41	60434.97
523.58	60781.37
523.75	61212.03
523.92	60919.46
524.10	61151.18
524.27	61050.53
524.44	60928.83
524.61	60580.09
524.78	60313.26
524.96	60259.43
525.13	60434.97
525.30	60643.28
525.47	60917.12
525.64	61048.19
525.81	60329.65
525.98	59157.04
526.16	57696.55
526.33	56842.25
526.50	56776.72
526.67	56362.44
526.84	56978.00
527.01	58019.54
527.18	58527.44
527.36	59449.61
527.53	59990.27
527.70	60587.11
527.87	59969.21
528.04	59440.24
528.21	60055.81
528.38	60779.03
528.55	61095.00
528.72	61361.82
528.89	61661.41
529.07	61535.02
529.24	60697.11
529.41	60067.51
529.58	59681.32
529.75	59674.30
529.92	60383.48
530.09	60631.58
530.26	60769.67
530.43	61085.64
530.60	61300.97
530.77	61436.72
530.94	61605.24
531.11	61031.81
531.28	60680.73
531.46	60577.75
531.63	60774.35
531.80	60729.88
531.97	60100.28
532.14	59302.15
532.31	58719.36
532.48	57925.92
532.65	57954.00
532.82	59011.93
532.99	59634.51
533.16	60123.68
533.33	60650.30
533.50	60460.72
533.67	59971.55
533.84	59620.47
534.01	59772.60
534.18	59842.82
534.35	60109.64
534.52	59948.14
534.69	60252.41
534.86	60388.16
535.03	60629.24
535.20	61162.88
535.37	61359.48
535.54	61584.18
535.71	61256.50
535.88	60905.42
536.05	60355.39
536.22	59697.70
536.38	59568.97
536.55	59096.19
536.72	58667.87
536.89	58588.29
537.06	59318.54
537.23	60184.54
537.40	60336.67
537.57	60552.00
537.74	60294.54
537.91	60062.83
538.08	60006.65
538.25	60104.96
538.42	60301.56
538.59	60273.48
538.75	59339.60
538.92	59269.39
539.09	59281.09
539.26	58993.20
539.43	58962.78
539.60	58913.62
539.77	59178.10
539.94	59161.72
540.11	58295.72
540.28	57680.16
540.44	57968.05
540.61	58307.43
540.78	58335.51
540.95	58794.26
541.12	59065.76
541.29	59320.88
541.46	59648.55
541.62	59543.23
541.79	59444.93
541.96	58995.54
542.13	58817.66
542.30	59351.30
542.47	59585.36
542.63	59054.06
542.80	59016.61
542.97	59269.39
543.14	58801.28
543.31	58782.55
543.48	59515.14
543.64	60205.60
543.81	60636.26
543.98	60236.03
544.15	59470.67
544.32	59032.99
544.48	59428.54
544.65	59648.55
544.82	59903.67
544.99	59639.19
545.16	59393.43
545.32	58876.18
545.49	59877.93
545.66	60210.28
545.83	59835.80
546.00	59566.63
546.16	59061.08
546.33	59372.37
546.50	59253.00
546.67	59681.32
546.83	59435.56
547.00	59377.05
547.17	58574.25
547.34	58284.02
547.50	58220.83
547.67	58609.35
547.84	58461.90
548.00	59082.14
548.17	59355.99
548.34	59213.21
548.51	59164.06
548.67	59253.00
548.84	59334.92
549.01	59213.21
549.18	59180.45
549.34	59255.34
549.51	59180.45
549.68	59135.98
549.84	59004.91
550.01	58937.03
550.18	58576.59
550.34	58728.72
550.51	58899.58
550.68	58714.68
550.84	58387.00
551.01	58305.09
551.18	58342.53
551.34	58714.68
551.51	58784.90
551.68	59297.47
551.84	59327.90
552.01	59100.87
552.18	59084.48
552.34	58246.57
552.51	58054.65
552.68	57663.78
552.84	58195.08
553.01	58595.31
553.18	58384.66
553.34	58499.35
553.51	58424.45
553.67	58850.43
553.84	58834.05
554.01	59054.06
554.17	58614.04
554.34	58761.49
554.51	58780.21
554.67	59222.58
554.84	59119.59
555.00	58674.89
555.17	58471.26
555.33	58485.31
555.50	58515.73
555.67	58543.82
555.83	58136.57
556.00	57925.92
556.16	57986.77
556.33	57476.54
556.50	57631.01
556.66	57528.03
556.83	57230.78
556.99	57502.28
557.16	57434.41
557.32	57963.37
557.49	58059.33
557.65	58024.22
557.82	57958.69
557.98	57853.36
558.15	57176.95
558.32	56605.86
558.48	55653.26
558.65	55835.82
558.81	56240.73
558.98	56505.21
559.14	56809.48
559.31	56821.19
559.47	56804.80
559.64	56622.24
559.80	56200.94
559.97	56210.31
560.13	56938.21
560.30	57631.01
560.46	58216.14
560.63	58328.49
560.79	58159.97
560.96	58014.86
561.12	56917.15
561.29	56315.63
561.45	56168.18
561.61	56542.66
561.78	56970.98
561.94	56973.32
562.11	56622.24
562.27	56619.90
562.44	56910.13
562.60	57251.84
562.77	57577.18
562.93	57286.95
563.10	57326.74
563.26	56608.20
563.42	57001.41
563.59	56451.38
563.75	56622.24
563.92	56694.80
564.08	56437.34
564.24	56959.28
564.41	56905.44
564.57	56743.95
564.74	56673.73
564.90	56540.32
565.07	56306.27
565.23	56009.02
565.39	55599.43
565.56	55096.21
565.72	55210.90
565.88	55856.88
566.05	55264.73
566.21	55735.18
566.38	55760.92
566.54	56184.56
566.70	56435.00
566.87	56334.35
567.03	56736.93
567.19	56537.98
567.36	56324.99
567.52	56317.97
567.68	56193.92
567.85	55489.42
568.01	55136.00
568.17	54986.21
568.34	54628.10
568.50	54981.52
568.66	55157.06
568.83	55262.39
568.99	55316.22
569.15	55503.46
569.32	55316.22
569.48	55363.03
569.64	55210.90
569.81	55007.27
569.97	54857.48
570.13	54731.09
570.30	54117.87
570.46	53862.75
570.62	53228.46
570.78	53081.01
570.95	53436.77
571.11	54363.62
571.27	54368.30
571.43	54747.47
571.60	54820.03
571.76	54920.67
571.92	55309.20
572.09	55269.41
572.25	55487.08
572.41	55079.83
572.57	55267.07
572.74	55353.67
572.90	54632.78
573.06	54813.01
573.22	54656.19
573.38	54906.63
573.55	54995.57
573.71	54838.75
573.87	54995.57
574.03	54600.02
574.20	54901.95
574.36	54323.83
574.52	54412.77
574.68	53928.28
574.84	53937.65
575.01	53226.12
575.17	53209.74
575.33	53322.08
575.49	53631.04
575.65	53738.70
575.82	53766.79
575.98	53457.84
576.14	53558.48
576.30	53708.27
576.46	53907.22
576.62	54078.08
576.79	53944.67
576.95	53584.22
577.11	53586.57
577.27	53656.78
577.43	53801.89
577.59	53518.69
577.75	53066.97
577.92	52390.55
578.08	52018.41
578.24	52444.38
578.40	52648.01
578.56	52891.43
578.72	52706.52
578.88	52697.16
579.04	53174.63
579.21	53099.73
579.37	53085.69
579.53	53326.77
579.69	53361.87
579.85	53406.34
580.01	53385.28
580.17	52825.89
580.33	52732.27
580.49	52978.03
580.65	53066.97
580.82	53205.06
580.98	53411.02
581.14	53291.66
581.30	53165.27
581.46	52956.96
581.62	53429.75
581.78	53282.30
581.94	53521.03
582.10	53631.04
582.26	53303.36
582.42	53600.61
582.58	53804.24
582.74	53298.68
582.90	53396.98
583.06	53207.40
583.22	53097.39
583.38	53034.20
583.54	52790.78
583.70	52954.62
583.86	52956.96
584.02	52769.72
584.18	52900.79
584.34	52889.09
584.50	52790.78
584.66	52832.91
584.82	52360.12
584.98	52420.98
585.14	51913.08
585.30	51304.54
