SpectraSuite Data File
++++++++++++++++++++++++++++++++++++
Date: Mon Oct 07 14:54:56 GMT-05:00 2013
User: price-jones
Dark Spectrum Present: No
Reference Spectrum Present: No
Number of Sampled Component Spectra: 1
Spectrometers: USB2+H05261
Integration Time (usec): 10000 (USB2+H05261)
Spectra Averaged: 1 (USB2+H05261)
Boxcar Smoothing: 0 (USB2+H05261)
Correct for Electrical Dark: No (USB2+H05261)
Strobe/Lamp Enabled: No (USB2+H05261)
Correct for Detector Non-linearity: No (USB2+H05261)
Correct for Stray Light: No (USB2+H05261)
Number of Pixels in Processed Spectrum: 2048
>>>>>Begin Processed Spectral Data<<<<<
365.73	0.00
365.92	0.00
366.12	0.00
366.32	0.00
366.52	0.00
366.72	0.00
366.91	0.00
367.11	0.00
367.31	0.00
367.51	0.00
367.70	0.00
367.90	0.00
368.10	0.00
368.30	0.00
368.49	0.00
368.69	0.00
368.89	0.00
369.09	0.00
369.28	0.00
369.48	0.00
369.68	0.00
369.87	0.00
370.07	0.00
370.27	0.00
370.47	0.00
370.66	622.58
370.86	903.45
371.06	936.21
371.25	863.66
371.45	753.65
371.65	823.87
371.84	610.88
372.04	809.83
372.24	919.83
372.44	898.77
372.63	821.53
372.83	758.33
373.03	643.65
373.22	617.90
373.42	699.82
373.62	861.32
373.81	901.11
374.01	882.38
374.21	641.31
374.40	648.33
374.60	837.91
374.79	950.26
374.99	1109.41
375.19	1062.60
375.38	1064.94
375.58	1039.20
375.78	1001.75
375.97	1123.46
376.17	1062.60
376.37	1090.69
376.56	1116.44
376.76	1224.10
376.95	1177.29
377.15	1383.26
377.35	1409.00
377.54	1507.30
377.74	1572.84
377.93	1607.95
378.13	1509.65
378.33	1291.98
378.52	1280.27
378.72	1186.65
378.91	1200.69
379.11	1179.63
379.31	1100.05
379.50	1046.22
379.70	1149.20
379.89	1378.58
380.09	1420.71
380.28	1399.64
380.48	1460.49
380.68	1486.24
380.87	1345.81
381.07	1231.12
381.26	1142.18
381.46	1032.18
381.65	971.32
381.85	964.30
382.04	973.66
382.24	760.67
382.43	767.70
382.63	805.14
382.83	814.51
383.02	760.67
383.22	847.27
383.41	835.57
383.61	828.55
383.80	1060.26
384.00	1116.44
384.19	1345.81
384.39	1308.36
384.58	1380.92
384.78	1401.98
384.97	1280.27
385.17	1299.00
385.36	1289.64
385.56	1128.14
385.75	1289.64
385.95	1277.93
386.14	1385.60
386.34	1427.73
386.53	1275.59
386.72	1282.61
386.92	1350.49
387.11	1409.00
387.31	1313.04
387.50	1313.04
387.70	1334.11
387.89	1228.78
388.09	1327.08
388.28	1280.27
388.48	1364.53
388.67	1465.18
388.86	1605.61
389.06	1804.55
389.25	1804.55
389.45	1856.04
389.64	1916.90
389.84	1792.85
390.03	1832.64
390.22	1774.13
390.42	1870.09
390.61	2026.90
390.81	2188.40
391.00	2218.83
391.19	2118.18
391.39	1942.64
391.58	1806.89
391.78	1811.57
391.97	1619.65
392.16	1544.75
392.36	1343.47
392.55	1034.52
392.75	851.96
392.94	608.54
393.13	695.14
393.33	805.14
393.52	1121.12
393.71	1404.32
393.91	1495.60
394.10	1804.55
394.29	1928.60
394.49	2050.31
394.68	2216.49
394.88	2253.94
395.07	2267.98
395.26	2314.79
395.46	2071.37
395.65	1952.01
395.84	1806.89
396.04	1392.62
396.23	1029.84
396.42	985.37
396.62	903.45
396.81	1048.56
397.00	1460.49
397.19	1907.54
397.39	2204.78
397.58	2373.30
397.77	2597.99
397.97	2499.69
398.16	2654.17
398.35	2803.96
398.55	2874.18
398.74	3012.27
398.93	3016.95
399.12	2986.52
399.32	2930.35
399.51	2974.82
399.70	3222.92
399.90	3082.49
400.09	3112.91
400.28	3105.89
400.47	3262.71
400.67	3258.03
400.86	3190.15
401.05	3403.14
401.24	3325.90
401.44	3456.97
401.63	3391.44
401.82	3330.58
402.01	3428.88
402.21	3361.01
402.40	3480.38
402.59	3325.90
402.78	3049.72
402.97	2958.44
403.17	3234.62
403.36	3372.71
403.55	3529.53
403.74	3482.72
403.93	3283.77
404.13	2960.78
404.32	3122.27
404.51	3164.40
404.70	3435.91
404.89	3316.54
405.09	3328.24
405.28	3171.43
405.47	3204.19
405.66	3173.77
405.85	3183.13
406.05	2981.84
406.24	3082.49
406.43	3251.00
406.62	3211.22
406.81	3321.22
407.00	3152.70
407.20	3105.89
407.39	3122.27
407.58	3379.73
407.77	3377.39
407.96	3510.80
408.15	3698.05
408.34	3681.66
408.54	3777.62
408.73	3854.86
408.92	3679.32
409.11	3604.42
409.30	3342.28
409.49	3080.14
409.68	2899.92
409.87	2991.20
410.07	3201.85
410.26	3349.31
410.45	3616.13
410.64	3669.96
410.83	3707.41
411.02	3887.63
411.21	3992.95
411.40	3791.67
411.59	3794.01
411.78	3730.81
411.98	3716.77
412.17	3871.25
412.36	3763.58
412.55	3866.56
412.74	3756.56
412.93	3698.05
413.12	3686.34
413.31	3861.88
413.50	4011.68
413.69	3904.01
413.88	3784.65
414.07	3723.79
414.26	3777.62
414.45	3922.74
414.64	3892.31
414.83	3918.06
415.02	3960.19
415.22	3985.93
415.41	3997.64
415.60	4140.41
415.79	4264.46
415.98	4362.76
416.17	4306.59
416.36	4198.92
416.55	4074.87
416.74	3974.23
416.93	3833.80
417.12	3850.18
417.31	3756.56
417.50	3950.82
417.69	3997.64
417.88	3995.29
418.07	4025.72
418.26	3836.14
418.45	3983.59
418.64	4243.39
418.83	4383.82
419.02	4161.47
419.21	4119.34
419.39	3974.23
419.58	3716.77
419.77	3866.56
419.96	4095.94
420.15	4180.20
420.34	4362.76
420.53	4559.36
420.72	4435.32
420.91	4519.57
421.10	4362.76
421.29	4311.27
421.48	4194.24
421.67	4264.46
421.86	4189.56
422.05	3801.03
422.24	3555.27
422.43	3487.40
422.61	4028.06
422.80	4023.38
422.99	4088.92
423.18	3995.29
423.37	3974.23
423.56	4021.04
423.75	4067.85
423.94	4248.07
424.13	3843.16
424.32	3953.16
424.50	3833.80
424.69	3918.06
424.88	3925.08
425.07	3932.10
425.26	3782.31
425.45	3761.24
425.64	3639.53
425.83	3637.19
426.01	3962.53
426.20	3880.61
426.39	3892.31
426.58	3630.17
426.77	3365.69
426.96	3463.99
427.15	3459.31
427.33	3777.62
427.52	3836.14
427.71	3723.79
427.90	3763.58
428.09	3714.43
428.28	3667.62
428.46	3482.72
428.65	3489.74
428.84	3447.61
429.03	3475.70
429.22	3222.92
429.40	3183.13
429.59	2829.71
429.78	2509.05
429.97	2656.51
430.16	2663.53
430.34	2497.35
430.53	2569.91
430.72	2597.99
430.91	3063.76
431.10	3583.36
431.28	4100.62
431.47	4447.02
431.66	4334.67
431.85	3894.65
432.03	3770.60
432.22	3625.49
432.41	3712.09
432.60	4095.94
432.79	4231.69
432.97	4315.95
433.16	4117.00
433.35	3861.88
433.54	3414.84
433.72	3323.56
433.91	3384.41
434.10	3786.99
434.28	3941.46
434.47	4236.37
434.66	4018.70
434.85	3997.64
435.03	4063.17
435.22	4154.45
435.41	4271.48
435.59	4234.03
435.78	4416.59
435.97	4468.08
436.16	4608.51
436.34	4348.72
436.53	4327.65
436.72	4306.59
436.90	4119.34
437.09	4280.84
437.28	4049.13
437.46	4117.00
437.65	4102.96
437.84	3742.52
438.02	3634.85
438.21	3550.59
438.40	3578.68
438.58	4138.07
438.77	4196.58
438.96	4231.69
439.14	4383.82
439.33	4428.29
439.52	4367.44
439.70	4238.71
439.89	4196.58
440.08	4299.56
440.26	4229.35
440.45	4276.16
440.63	4585.11
440.82	4751.29
441.01	4667.03
441.19	4606.17
441.38	4685.75
441.57	4854.27
441.75	4851.93
441.94	4961.94
442.12	4816.82
442.31	5053.22
442.50	4922.15
442.68	4842.57
442.87	4755.97
443.05	4868.31
443.24	4891.72
443.43	4954.91
443.61	4926.83
443.80	5029.81
443.98	4786.40
444.17	4580.43
444.35	4997.04
444.54	5013.43
444.73	5053.22
444.91	4959.60
445.10	4512.55
445.28	4315.95
445.47	4346.37
445.65	4346.37
445.84	4512.55
446.02	4526.60
446.21	4753.63
446.39	4648.30
446.58	4777.03
446.77	4786.40
446.95	4873.00
447.14	4994.70
447.32	5247.48
447.51	4992.36
447.69	4882.36
447.88	4671.71
448.06	4854.27
448.25	4905.76
448.43	4884.70
448.62	4950.23
448.80	4718.52
448.99	4767.67
449.17	4917.47
449.36	4807.46
449.54	5015.77
449.73	5107.05
449.91	5203.01
450.10	5397.28
450.28	5313.02
450.46	5174.92
450.65	5371.53
450.83	5284.93
451.02	5034.49
451.20	4968.96
451.39	5109.39
451.57	5085.98
451.76	5130.45
451.94	4985.34
452.13	4713.84
452.31	4674.05
452.49	4360.42
452.68	4400.21
452.86	4578.09
453.05	4507.87
453.23	4617.88
453.42	4898.74
453.60	4870.65
453.78	4868.31
453.97	5022.79
454.15	4842.57
454.34	4823.84
454.52	4826.18
454.70	4685.75
454.89	4739.58
455.07	4741.93
455.26	4830.87
455.44	5032.15
455.62	5078.96
455.81	5060.24
455.99	5008.75
456.17	4961.94
456.36	4938.53
456.54	5088.32
456.73	4922.15
456.91	5097.69
457.09	5341.10
457.28	5296.63
457.46	4961.94
457.64	4912.78
457.83	4938.53
458.01	4746.61
458.19	4882.36
458.38	4788.74
458.56	4908.10
458.74	4891.72
458.93	4919.81
459.11	4950.23
459.29	4966.62
459.48	4877.68
459.66	4683.41
459.84	4854.27
460.03	4994.70
460.21	4987.68
460.39	5146.84
460.57	5107.05
460.76	5195.99
460.94	5334.08
461.12	5151.52
461.31	5001.72
461.49	4912.78
461.67	5022.79
461.85	5266.21
462.04	5266.21
462.22	5111.73
462.40	5219.39
462.59	5181.95
462.77	5090.67
462.95	5205.35
463.13	5128.11
463.32	4936.19
463.50	4950.23
463.68	5109.39
463.86	5027.47
464.05	4765.33
464.23	4833.21
464.41	4739.58
464.59	4636.60
464.78	5170.24
464.96	4961.94
465.14	4823.84
465.32	4968.96
465.50	5163.22
465.69	5217.05
465.87	5062.58
466.05	4837.89
466.23	4709.16
466.41	4634.26
466.60	4842.57
466.78	4807.46
466.96	4938.53
467.14	4950.23
467.32	4929.17
467.51	4933.85
467.69	4718.52
467.87	4512.55
468.05	4660.01
468.23	4704.48
468.41	4891.72
468.60	4814.48
468.78	4835.55
468.96	4681.07
469.14	4812.14
469.32	4917.47
469.50	4751.29
469.69	4704.48
469.87	4634.26
470.05	4650.64
470.23	4767.67
470.41	4587.45
470.59	4697.46
470.77	4837.89
470.95	4762.99
471.14	4835.55
471.32	4793.42
471.50	5207.69
471.68	5198.33
471.86	5198.33
472.04	5252.16
472.22	5249.82
472.40	4877.68
472.58	4807.46
472.77	4915.12
472.95	4844.91
473.13	4891.72
473.31	4858.95
473.49	4905.76
473.67	5050.88
473.85	5011.09
474.03	5158.54
474.21	5348.12
474.39	5231.10
474.57	5310.68
474.75	5083.64
474.93	5254.50
475.12	5071.94
475.30	5078.96
475.48	5104.71
475.66	5116.41
475.84	5114.07
476.02	5153.86
476.20	5123.43
476.38	5008.75
476.56	5315.36
476.74	5324.72
476.92	5275.57
477.10	5362.17
477.28	5607.92
477.46	5467.49
477.64	5554.09
477.82	5408.98
478.00	5638.35
478.18	5476.85
478.36	5392.59
478.54	5427.70
478.72	5266.21
478.90	5584.52
479.08	5827.93
479.26	5799.85
479.44	5858.36
479.62	5888.79
479.80	5865.38
479.98	6033.90
480.16	5951.98
480.34	5769.42
480.52	5863.04
480.70	6120.50
480.88	5886.45
481.06	5951.98
481.24	6083.05
481.41	6029.22
481.59	6265.61
481.77	6181.35
481.95	6113.48
482.13	6054.97
482.31	6036.24
482.49	6066.67
482.67	6253.91
482.85	6162.63
483.03	6270.30
483.21	6321.79
483.39	6349.87
483.57	6324.13
483.74	5982.41
483.92	6183.70
484.10	6153.27
484.28	6338.17
484.46	6401.37
484.64	6541.80
484.82	6389.66
485.00	6314.77
485.18	5970.71
485.35	5907.51
485.53	5458.13
485.71	4882.36
485.89	4973.64
486.07	5144.50
486.25	5554.09
486.43	6031.56
486.61	6085.39
486.78	5954.32
486.96	5991.77
487.14	6331.15
487.32	6408.39
487.50	6738.40
487.68	6796.92
487.85	6864.79
488.03	6895.22
488.21	6743.08
488.39	6621.38
488.57	6417.75
488.75	6408.39
488.92	6670.53
489.10	7066.08
489.28	7382.05
489.46	7716.75
489.64	7557.59
489.81	7398.43
489.99	7592.70
490.17	7534.18
490.35	7527.16
490.53	7592.70
490.70	7155.02
490.88	7070.76
491.06	7566.95
491.24	7655.89
491.41	7208.85
491.59	6977.14
491.77	6792.23
491.95	6974.80
492.13	7108.21
492.30	7606.74
492.48	7740.15
492.66	7934.42
492.84	7793.98
493.01	7665.25
493.19	7693.34
493.37	7534.18
493.54	7463.97
493.72	7609.08
493.90	8077.19
494.08	7974.21
494.25	8098.25
494.43	8086.55
494.61	8442.31
494.79	8210.60
494.96	8236.35
495.14	8032.72
495.32	7611.42
495.49	7723.77
495.67	7903.99
495.85	8444.65
496.02	8470.40
496.20	8290.18
496.38	8325.29
496.55	8278.47
496.73	8435.29
496.91	8238.69
497.09	8559.34
497.26	8638.92
497.44	8348.69
497.62	8351.03
497.79	8142.72
497.97	7808.03
498.14	7878.24
498.32	8149.75
498.50	8348.69
498.67	8154.43
498.85	8292.52
499.03	8531.25
499.20	8753.60
499.38	8599.13
499.56	8388.48
499.73	8446.99
499.91	8006.97
500.08	7908.67
500.26	7777.60
500.44	7934.42
500.61	8088.89
500.79	8128.68
500.97	8140.38
501.14	7957.82
501.32	7871.22
501.49	7714.41
501.67	7882.92
501.84	8074.85
502.02	8191.88
502.20	8245.71
502.37	8215.28
502.55	8390.82
502.72	8629.56
502.90	8568.70
503.07	8374.44
503.25	8180.17
503.43	8051.44
503.60	7847.82
503.78	7651.21
503.95	7880.58
504.13	8231.66
504.30	8414.23
504.48	8423.59
504.65	8177.83
504.83	8374.44
505.01	8533.59
505.18	8688.07
505.36	8657.64
505.53	8828.50
505.71	9013.40
505.88	8929.14
506.06	8592.11
506.23	8383.80
506.41	8451.67
506.58	8512.53
506.76	8552.32
506.93	8341.67
507.11	8208.26
507.28	8226.98
507.46	8505.51
507.63	8067.83
507.81	8037.40
507.98	8231.66
508.16	8234.00
508.33	8397.84
508.50	8849.57
508.68	8648.28
508.85	8849.57
509.03	8704.45
509.20	8685.73
509.38	8486.78
509.55	8269.11
509.73	8262.09
509.90	8652.96
510.08	8571.04
510.25	8594.45
510.42	8414.23
510.60	8322.94
510.77	8503.17
510.95	8542.96
511.12	8519.55
511.30	8568.70
511.47	8777.01
511.64	8884.67
511.82	8844.88
511.99	8358.05
512.17	8285.50
512.34	8196.56
512.51	8205.92
512.69	8241.03
512.86	8297.20
513.04	8533.59
513.21	8517.21
513.38	8339.33
513.56	8236.35
513.73	7969.52
513.90	7934.42
514.08	8021.02
514.25	8196.56
514.43	8439.97
514.60	8332.31
514.77	8322.94
514.95	8306.56
515.12	8355.71
515.29	8257.41
515.47	8432.95
515.64	8617.85
515.81	8353.37
515.99	8194.22
516.16	7793.98
516.33	7028.63
516.51	6693.93
516.68	6628.40
516.85	6567.54
517.03	6623.72
517.20	7403.11
517.37	7969.52
517.54	8430.61
517.72	8046.76
517.89	7351.62
518.06	6848.41
518.24	7042.67
518.41	7382.05
518.58	7578.65
518.75	7815.05
518.93	7775.26
519.10	7988.25
519.27	8046.76
519.45	8212.94
519.62	8402.52
519.79	8353.37
519.96	8442.31
520.14	8203.58
520.31	7758.88
520.48	7866.54
520.65	7985.91
520.83	8423.59
521.00	8542.96
521.17	8348.69
521.34	8035.06
521.52	8273.79
521.69	8365.07
521.86	8358.05
522.03	8535.93
522.20	7939.10
522.38	7665.25
522.55	7995.27
522.72	7840.79
522.89	8135.70
523.07	8149.75
523.24	8046.76
523.41	8322.94
523.58	8479.76
523.75	8547.64
523.92	8676.37
524.10	8596.79
524.27	8746.58
524.44	8613.17
524.61	8491.46
524.78	8344.01
524.96	8332.31
525.13	8332.31
525.30	8421.25
525.47	8519.55
525.64	8624.87
525.81	8318.26
525.98	7936.76
526.16	7400.77
526.33	7412.48
526.50	7115.23
526.67	7077.78
526.84	7243.96
527.01	7625.47
527.18	7889.95
527.36	7974.21
527.53	8465.72
527.70	8369.76
527.87	8081.87
528.04	8051.44
528.21	8177.83
528.38	8248.05
528.55	8798.07
528.72	8704.45
528.89	8711.47
529.07	8564.02
529.24	8376.78
529.41	8079.53
529.58	7976.55
529.75	8084.21
529.92	8006.97
530.09	8271.45
530.26	8332.31
530.43	8388.48
530.60	8578.06
530.77	8674.03
530.94	8564.02
531.11	8439.97
531.28	8259.75
531.46	8170.81
531.63	8379.12
531.80	8198.90
531.97	8079.53
532.14	7903.99
532.31	7688.66
532.48	7691.00
532.65	7424.18
532.82	7772.92
532.99	8091.23
533.16	8191.88
533.33	8226.98
533.50	8236.35
533.67	8135.70
533.84	7920.37
534.01	7864.20
534.18	7873.56
534.35	8194.22
534.52	8138.04
534.69	8386.14
534.86	8091.23
535.03	8201.24
535.20	8346.35
535.37	8500.83
535.54	8526.57
535.71	8393.16
535.88	8210.60
536.05	8081.87
536.22	7939.10
536.38	7686.32
536.55	7627.81
536.72	7616.10
536.89	7480.35
537.06	7836.11
537.23	7983.57
537.40	8039.74
537.57	8074.85
537.74	7981.23
537.91	8044.42
538.08	7850.16
538.25	7768.24
538.42	7985.91
538.59	8042.08
538.75	7817.39
538.92	7630.15
539.09	7658.23
539.26	7637.17
539.43	7613.76
539.60	7438.22
539.77	7719.09
539.94	7667.60
540.11	7335.24
540.28	7248.64
540.44	7318.86
540.61	7307.15
540.78	7286.09
540.95	7618.44
541.12	7606.74
541.29	7590.36
541.46	7737.81
541.62	7805.69
541.79	7667.60
541.96	7421.84
542.13	7454.61
542.30	7531.84
542.47	7747.17
542.63	7578.65
542.80	7400.77
542.97	7506.10
543.14	7290.77
543.31	7585.68
543.48	7801.01
543.64	7864.20
543.81	8044.42
543.98	7878.24
544.15	7740.15
544.32	7653.55
544.48	7566.95
544.65	7770.58
544.82	7796.32
544.99	7459.29
545.16	7529.50
545.32	7508.44
545.49	7679.30
545.66	7824.41
545.83	7590.36
546.00	7721.43
546.16	7613.76
546.33	7597.38
546.50	7522.48
546.67	7595.04
546.83	7583.34
547.00	7489.71
547.17	7272.04
547.34	7204.17
547.50	7300.13
547.67	7372.69
547.84	7398.43
548.00	7447.58
548.17	7573.97
548.34	7524.82
548.51	7548.23
548.67	7761.22
548.84	7536.52
549.01	7396.09
549.18	7403.11
549.34	7564.61
549.51	7407.80
549.68	7412.48
549.84	7272.04
550.01	7269.70
550.18	7487.37
550.34	7117.57
550.51	7393.75
550.68	7445.24
550.84	7108.21
551.01	7143.32
551.18	7307.15
551.34	7314.17
551.51	7325.88
551.68	7606.74
551.84	7506.10
552.01	7272.04
552.18	7368.01
552.34	7115.23
552.51	6951.39
552.68	7119.91
552.84	7281.41
553.01	7028.63
553.18	7112.89
553.34	7204.17
553.51	7073.10
553.67	7375.03
553.84	7276.73
554.01	7431.20
554.17	7239.28
554.34	7339.92
554.51	7421.84
554.67	7297.79
554.84	7169.06
555.00	7204.17
555.17	7171.40
555.33	7274.38
555.50	7061.40
555.67	7152.68
555.83	7197.15
556.00	7199.49
556.16	7094.16
556.33	6867.13
556.50	6883.52
556.66	6883.52
556.83	6899.90
556.99	6855.43
557.16	6857.77
557.32	6972.46
557.49	6991.18
557.65	6942.03
557.82	7089.48
557.98	6857.77
558.15	6906.92
558.32	6686.91
558.48	6576.91
558.65	6581.59
558.81	6616.69
558.98	6780.53
559.14	6738.40
559.31	6808.62
559.47	6860.11
559.64	6647.12
559.80	6487.96
559.97	6415.41
560.13	6633.08
560.30	6871.81
560.46	7115.23
560.63	7077.78
560.79	7037.99
560.96	6885.86
561.12	6743.08
561.29	6562.86
561.45	6675.21
561.61	6644.78
561.78	6918.62
561.94	6637.76
562.11	6827.34
562.27	6712.66
562.44	6853.09
562.60	6796.92
562.77	6916.28
562.93	6710.32
563.10	6782.87
563.26	6656.48
563.42	6511.37
563.59	6567.54
563.75	6558.18
563.92	6506.69
564.08	6630.74
564.24	6588.61
564.41	6691.59
564.57	6729.04
564.74	6548.82
564.90	6565.20
565.07	6452.86
565.23	6209.44
565.39	6403.71
565.56	6286.68
565.72	6174.33
565.88	6246.89
566.05	6256.25
566.21	6368.60
566.38	6216.46
566.54	6307.74
566.70	6436.47
566.87	6541.80
567.03	6441.15
567.19	6478.60
567.36	6483.28
567.52	6441.15
567.68	6349.87
567.85	6195.40
568.01	6216.46
568.17	6314.77
568.34	6143.91
568.50	6092.41
568.66	6242.21
568.83	6101.78
568.99	6139.23
569.15	6256.25
569.32	6380.30
569.48	6312.42
569.64	6232.85
569.81	6099.44
569.97	6153.27
570.13	6033.90
570.30	5951.98
570.46	5881.77
570.62	5724.95
570.78	5657.07
570.95	5832.62
571.11	5893.47
571.27	6061.99
571.43	6101.78
571.60	5963.68
571.76	6012.84
571.92	6193.06
572.09	6251.57
572.25	6284.34
572.41	6249.23
572.57	6239.87
572.74	6230.51
572.90	6164.97
573.06	6122.84
573.22	5994.11
573.38	6078.37
573.55	6059.65
573.71	6132.20
573.87	6104.12
574.03	6005.81
574.20	6076.03
574.36	5912.19
574.52	6022.20
574.68	6012.84
574.84	5930.92
575.01	5722.61
575.17	5834.96
575.33	5923.90
575.49	5790.49
575.65	5746.02
575.82	5636.01
575.98	5584.52
576.14	5671.12
576.30	5940.28
576.46	5919.21
576.62	5762.40
576.79	5846.66
576.95	5813.89
577.11	5750.70
577.27	5930.92
577.43	5680.48
577.59	5729.63
577.75	5706.23
577.92	5458.13
578.08	5565.79
578.24	5418.34
578.40	5668.78
578.56	5500.26
578.72	5481.53
578.88	5617.29
579.04	5806.87
579.21	5633.67
579.37	5640.69
579.53	5788.14
579.69	5827.93
579.85	5678.14
580.01	5650.05
580.17	5633.67
580.33	5762.40
580.49	5568.13
580.65	5626.65
580.82	5806.87
580.98	5748.36
581.14	5734.31
581.30	5619.63
581.46	5603.24
581.62	5703.89
581.78	5734.31
581.94	5785.80
582.10	5664.10
582.26	5603.24
582.42	5717.93
582.58	5650.05
582.74	5678.14
582.90	5694.52
583.06	5788.14
583.22	5811.55
583.38	5516.64
583.54	5591.54
583.70	5799.85
583.86	5710.91
584.02	5565.79
584.18	5626.65
584.34	5535.37
584.50	5586.86
584.66	5460.47
584.82	5460.47
584.98	5432.38
585.14	5458.13
585.30	5331.74
585.46	5163.22
585.62	5184.29
585.78	5317.70
585.94	5556.43
586.10	5460.47
586.26	5446.43
586.42	5462.81
586.58	5458.13
586.74	5359.83
586.90	5511.96
587.06	5392.59
587.22	5467.49
587.38	5308.34
587.54	5284.93
587.70	5179.61
587.86	5273.23
588.02	5191.31
588.18	5282.59
588.34	4917.47
588.49	4744.27
588.65	4514.89
588.81	4332.33
588.97	4629.58
589.13	4423.61
589.29	4395.53
589.45	4582.77
589.61	4695.11
589.77	4777.03
589.93	4924.49
590.08	5085.98
590.24	5102.37
590.40	5198.33
590.56	5184.29
590.72	5041.51
590.88	5074.28
591.04	5008.75
591.20	5013.43
591.35	4844.91
591.51	5027.47
591.67	4882.36
591.83	5048.54
591.99	5057.90
592.15	5043.85
592.31	4947.89
592.46	5055.56
592.62	4854.27
592.78	5076.62
592.94	4924.49
593.10	4957.25
593.26	4994.70
593.41	5034.49
593.57	4954.91
593.73	4889.38
593.89	4957.25
594.05	4901.08
594.20	4765.33
594.36	4746.61
594.52	4667.03
594.68	4732.56
594.84	4802.78
594.99	4814.48
595.15	4652.98
595.31	4837.89
595.47	4812.14
595.62	4821.50
595.78	4931.51
595.94	4875.34
596.10	4784.06
596.25	4777.03
596.41	4732.56
596.57	4873.00
596.73	4734.90
596.88	4894.06
