SpectraSuite Data File
++++++++++++++++++++++++++++++++++++
Date: Mon Oct 07 14:53:55 GMT-05:00 2013
User: price-jones
Dark Spectrum Present: No
Reference Spectrum Present: No
Number of Sampled Component Spectra: 1
Spectrometers: USB2+H05261
Integration Time (usec): 100000 (USB2+H05261)
Spectra Averaged: 1 (USB2+H05261)
Boxcar Smoothing: 0 (USB2+H05261)
Correct for Electrical Dark: No (USB2+H05261)
Strobe/Lamp Enabled: No (USB2+H05261)
Correct for Detector Non-linearity: No (USB2+H05261)
Correct for Stray Light: No (USB2+H05261)
Number of Pixels in Processed Spectrum: 2048
>>>>>Begin Processed Spectral Data<<<<<
365.73	0.00
365.92	0.00
366.12	0.00
366.32	0.00
366.52	0.00
366.72	0.00
366.91	0.00
367.11	0.00
367.31	0.00
367.51	0.00
367.70	0.00
367.90	0.00
368.10	0.00
368.30	0.00
368.49	0.00
368.69	0.00
368.89	0.00
369.09	0.00
369.28	0.00
369.48	0.00
369.68	0.00
369.87	0.00
370.07	0.00
370.27	0.00
370.47	533.64
370.66	2689.28
370.86	3166.74
371.06	3349.31
371.25	3700.39
371.45	3229.94
371.65	2822.69
371.84	2740.77
372.04	2773.53
372.24	3229.94
372.44	3400.80
372.63	3424.20
372.83	3063.76
373.03	2675.23
373.22	2480.97
373.42	2705.66
373.62	3173.77
373.81	3393.78
374.01	3220.58
374.21	2951.42
374.40	2642.46
374.60	3014.61
374.79	3286.11
374.99	3733.15
375.19	4124.02
375.38	4128.70
375.58	3693.37
375.78	3665.28
375.97	3758.90
376.17	3864.22
376.37	4107.64
376.56	4140.41
376.76	4283.18
376.95	4587.45
377.15	4634.26
377.35	5132.79
377.54	5193.65
377.74	5444.09
377.93	5383.23
378.13	5191.31
378.33	5085.98
378.52	4568.73
378.72	4437.66
378.91	4362.76
379.11	4241.05
379.31	4180.20
379.50	4283.18
379.70	4484.47
379.89	4727.88
380.09	5139.82
380.28	5298.97
380.48	5371.53
380.68	5310.68
380.87	5203.01
381.07	4770.01
381.26	4337.01
381.46	4128.70
381.65	4028.06
381.85	3915.72
382.04	3548.25
382.24	3438.25
382.43	3204.19
382.63	3262.71
382.83	3131.64
383.02	3283.77
383.22	3199.51
383.41	3206.53
383.61	3466.33
383.80	3864.22
384.00	4521.92
384.19	4861.29
384.39	5305.99
384.58	5334.08
384.78	5205.35
384.97	5165.56
385.17	4880.02
385.36	4589.79
385.56	4512.55
385.75	4711.50
385.95	4961.94
386.14	5523.66
386.34	5441.75
386.53	5128.11
386.72	4894.06
386.92	4929.17
387.11	5256.84
387.31	5437.06
387.50	5467.49
387.70	5228.76
387.89	5130.45
388.09	5235.78
388.28	5303.65
388.48	5226.42
388.67	5720.27
388.86	6209.44
389.06	6733.72
389.25	6885.86
389.45	7014.59
389.64	6981.82
389.84	7019.27
390.03	6759.47
390.22	6733.72
390.42	6963.09
390.61	7662.91
390.81	8049.10
391.00	8332.31
391.19	8037.40
391.39	8093.57
391.58	7442.90
391.78	7047.35
391.97	6710.32
392.16	6260.93
392.36	5846.66
392.55	4545.32
392.75	3840.82
392.94	2960.78
393.13	2878.86
393.33	3353.99
393.52	4496.17
393.71	5533.03
393.91	6204.76
394.10	6642.44
394.29	7353.96
394.49	7793.98
394.68	8517.21
394.88	8622.53
395.07	8837.86
395.26	8678.71
395.46	8390.82
395.65	8035.06
395.84	7009.90
396.04	5968.37
396.23	4894.06
396.42	4084.23
396.62	3817.41
396.81	4482.13
397.00	5846.66
397.19	7335.24
397.39	8699.77
397.58	9591.52
397.77	10188.35
397.97	10567.52
398.16	10857.75
398.35	11126.91
398.55	11414.79
398.74	11927.37
398.93	12018.65
399.12	11838.43
399.32	11667.57
399.51	11939.07
399.70	12463.35
399.90	12301.86
400.09	12592.08
400.28	12486.76
400.47	12390.80
400.67	12844.86
400.86	13404.25
401.05	13298.92
401.24	13488.51
401.44	13734.26
401.63	13455.74
401.82	13895.76
402.01	13673.41
402.21	13930.87
402.40	13855.97
402.59	13572.77
402.78	13191.26
402.97	12624.85
403.17	13039.12
403.36	13734.26
403.55	14532.39
403.74	14752.40
403.93	13886.40
404.13	12996.99
404.32	12596.76
404.51	13362.12
404.70	14520.68
404.89	13982.36
405.09	13860.65
405.28	13678.09
405.47	13467.44
405.66	13619.58
405.85	13345.73
406.05	12844.86
406.24	12837.84
406.43	13607.87
406.62	14132.15
406.81	14382.59
407.00	13743.63
407.20	13284.88
407.39	13357.44
407.58	14164.92
407.77	14604.94
407.96	14974.75
408.15	15068.37
408.34	15344.55
408.54	16128.63
408.73	16215.23
408.92	15850.11
409.11	15393.70
409.30	14745.38
409.49	13951.93
409.68	12755.92
409.87	12601.44
410.07	13497.87
410.26	14141.52
410.45	15311.78
410.64	15531.80
410.83	15983.52
411.02	16301.83
411.21	17003.99
411.40	16910.37
411.59	16851.86
411.78	16847.18
411.98	16566.31
412.17	17116.34
412.36	16491.41
412.55	16849.52
412.74	16318.22
412.93	15800.96
413.12	16231.62
413.31	17692.11
413.50	17561.04
413.69	18122.77
413.88	16950.16
414.07	17149.11
414.26	17275.49
414.45	17696.79
414.64	17736.58
414.83	17877.01
415.02	17329.33
415.22	17392.52
415.41	18068.94
415.60	18214.05
415.79	19197.07
415.98	19536.45
416.17	19440.49
416.36	19077.71
416.55	18759.39
416.74	17961.27
416.93	17539.97
417.12	17479.12
417.31	17788.07
417.50	18106.38
417.69	18897.49
417.88	18635.35
418.07	18625.98
418.26	18085.32
418.45	18422.36
418.64	19044.94
418.83	19695.61
419.02	19367.93
419.21	19360.91
419.39	18541.72
419.58	17610.19
419.77	17809.14
419.96	18427.04
420.15	19232.18
420.34	19843.06
420.53	20460.96
420.72	21139.72
420.91	20603.74
421.10	20357.98
421.29	20365.00
421.48	19585.60
421.67	20449.26
421.86	20191.80
422.05	18642.37
422.24	16858.88
422.43	16615.46
422.61	18445.76
422.80	19957.75
422.99	19775.19
423.18	19353.89
423.37	18794.50
423.56	18792.16
423.75	18902.17
423.94	19454.53
424.13	18335.76
424.32	18703.22
424.50	18719.60
424.69	18560.45
424.88	18815.57
425.07	18719.60
425.26	18743.01
425.45	18214.05
425.64	17947.23
425.83	17811.48
426.01	19012.17
426.20	19332.82
426.39	19194.73
426.58	17916.80
426.77	16652.91
426.96	15969.48
427.15	16311.19
427.33	17942.55
427.52	18815.57
427.71	18806.20
427.90	18527.68
428.09	18340.44
428.28	18001.06
428.46	17462.74
428.65	16945.48
428.84	17287.20
429.03	17612.53
429.22	17011.01
429.40	16095.86
429.59	14656.43
429.78	12772.30
429.97	12638.89
430.16	13165.51
430.34	13170.19
430.53	13027.42
430.72	13324.67
430.91	14661.12
431.10	17418.27
431.28	20278.40
431.47	21982.31
431.66	22530.00
431.85	20205.84
432.03	18754.71
432.22	18054.89
432.41	18581.51
432.60	20772.25
432.79	21282.49
432.97	22106.36
433.16	21446.33
433.35	19583.26
433.54	17888.71
433.72	16624.83
433.91	16915.05
434.10	18874.08
434.28	20498.41
434.47	21619.53
434.66	21118.65
434.85	20533.52
435.03	20790.98
435.22	20905.66
435.41	22314.67
435.59	22590.85
435.78	22934.91
435.97	23283.65
436.16	23241.52
436.34	23016.83
436.53	22211.68
436.72	22583.83
436.90	21453.35
437.09	21092.91
437.28	20826.09
437.46	21647.61
437.65	21544.63
437.84	20322.87
438.02	18567.47
438.21	18281.92
438.40	19302.40
438.58	21219.30
438.77	21369.09
438.96	21869.97
439.14	22635.32
439.33	23175.98
439.52	23852.40
439.70	22923.21
439.89	22508.93
440.08	21635.91
440.26	21848.90
440.45	22775.75
440.63	23931.98
440.82	25245.02
441.01	24891.60
441.19	24673.93
441.38	25064.80
441.57	25785.68
441.75	26197.62
441.94	26307.62
442.12	26368.48
442.31	27075.32
442.50	26862.33
442.68	26094.63
442.87	26565.08
443.05	25874.62
443.24	25991.65
443.43	26733.60
443.61	27257.88
443.80	27630.02
443.98	25895.69
444.17	26218.68
444.35	27578.53
444.54	27941.32
444.73	27470.87
444.91	26759.34
445.10	25422.90
445.28	24535.84
445.47	23910.91
445.65	24177.73
445.84	24985.22
446.02	25465.03
446.21	25930.80
446.39	26319.32
446.58	26239.75
446.77	26604.87
446.95	27152.55
447.14	27990.47
447.32	28371.97
447.51	28147.28
447.69	26544.02
447.88	26389.54
448.06	26532.31
448.25	27330.44
448.43	27714.28
448.62	26810.84
448.80	26735.94
448.99	26806.16
449.17	27475.55
449.36	27328.10
449.54	27978.76
449.73	28222.18
449.91	29284.78
450.10	29729.48
450.28	30410.58
450.46	29694.38
450.65	30040.78
450.83	29905.02
451.02	28896.25
451.20	29289.46
451.39	29024.98
451.57	28631.77
451.76	28706.67
451.94	28479.64
452.13	28229.20
452.31	26892.76
452.49	25549.29
452.68	25930.80
452.86	26080.59
453.05	26450.39
453.23	26937.23
453.42	27683.86
453.60	28444.53
453.78	28388.36
453.97	28636.45
454.15	28561.56
454.34	27613.64
454.52	27868.76
454.70	27204.05
454.89	27281.28
455.07	27768.12
455.26	27964.72
455.44	29280.10
455.62	29666.29
455.81	29544.58
455.99	29867.58
456.17	28875.19
456.36	29017.96
456.54	30216.32
456.73	30394.20
456.91	30621.23
457.09	30768.68
457.28	31316.37
457.46	30363.77
457.64	29682.67
457.83	28847.10
458.01	28460.91
458.19	29500.11
458.38	29109.24
458.56	30047.80
458.74	30436.33
458.93	29612.46
459.11	29158.39
459.29	29226.27
459.48	29474.37
459.66	29315.21
459.84	29446.28
460.03	29851.19
460.21	29872.26
460.39	30373.13
460.57	30649.32
460.76	30911.46
460.94	30618.89
461.12	30543.99
461.31	30806.13
461.49	30693.79
461.67	30677.40
461.85	31559.78
462.04	31400.63
462.22	32294.71
462.40	31599.57
462.59	31405.31
462.77	31522.34
462.95	31267.22
463.13	31288.28
463.32	30728.89
463.50	30534.63
463.68	30539.31
463.86	30686.76
464.05	30396.54
464.23	29387.77
464.41	29720.12
464.59	28795.61
464.78	30436.33
464.96	30384.83
465.14	29762.25
465.32	30696.13
465.50	31573.83
465.69	32013.85
465.87	30560.37
466.05	30560.37
466.23	28716.03
466.41	28231.54
466.60	29252.02
466.78	28893.91
466.96	29799.70
467.14	30380.15
467.32	30377.81
467.51	30752.30
467.69	29142.01
467.87	29926.09
468.05	30071.20
468.23	30349.73
468.41	30319.30
468.60	30675.06
468.78	30794.43
468.96	30551.01
469.14	31257.85
469.32	30764.00
469.50	29481.39
469.69	30155.46
469.87	29436.92
470.05	29181.80
470.23	29455.64
470.41	29528.20
470.59	30101.63
470.77	29898.00
470.95	30450.37
471.14	30476.12
471.32	30813.15
471.50	32788.56
471.68	32374.29
471.86	33296.46
472.04	33216.88
472.22	33219.22
472.40	32173.00
472.58	31541.06
472.77	31110.40
472.95	31651.06
473.13	32329.82
473.31	31885.12
473.49	31475.52
473.67	32500.68
473.85	33013.26
474.03	33266.03
474.21	33476.68
474.39	33916.70
474.57	33502.43
474.75	34155.44
474.93	33240.29
475.12	32760.48
475.30	32912.61
475.48	33083.47
475.66	33797.34
475.84	33397.10
476.02	33174.75
476.20	32781.54
476.38	33184.12
476.56	34323.96
476.74	34220.97
476.92	34848.24
477.10	35021.44
477.28	36130.85
477.46	36346.18
477.64	36704.28
477.82	36755.77
478.00	37015.57
478.18	36498.31
478.36	35976.37
478.54	35899.14
478.72	36423.42
478.90	37535.17
479.08	37912.00
479.26	38880.98
479.44	39089.29
479.62	38572.03
479.80	38298.19
479.98	38557.99
480.16	38986.30
480.34	38143.71
480.52	38637.56
480.70	39330.36
480.88	38960.56
481.06	39608.89
481.24	39981.03
481.41	40645.74
481.59	41184.07
481.77	41460.25
481.95	40479.57
482.13	40776.81
482.31	41139.60
482.49	41469.61
482.67	41092.79
482.85	41624.09
483.03	42096.88
483.21	42253.69
483.39	42234.97
483.57	41471.95
483.74	40788.52
483.92	41390.03
484.10	41399.40
484.28	42871.59
484.46	43054.15
484.64	43540.99
484.82	42253.69
485.00	41694.30
485.18	41467.27
485.35	40407.01
485.53	37071.75
485.71	33809.04
485.89	33303.48
486.07	35068.25
486.25	38148.39
486.43	40285.30
486.61	40973.42
486.78	41060.02
486.96	41104.49
487.14	42733.50
487.32	43639.29
487.50	44863.39
487.68	45563.21
487.85	46089.83
488.03	46164.73
488.21	46017.27
488.39	44996.80
488.57	44411.67
488.75	44006.75
488.92	45111.49
489.10	47840.55
489.28	49322.11
489.46	49654.47
489.64	49614.68
489.81	50033.63
489.99	49427.43
490.17	49350.20
490.35	50141.30
490.53	49338.49
490.70	48933.58
490.88	48584.84
491.06	50033.63
491.24	49942.35
491.41	48949.96
491.59	46855.18
491.77	45764.49
491.95	46990.94
492.13	48395.26
492.30	49741.06
492.48	51192.20
492.66	51454.34
492.84	51578.39
493.01	51473.06
493.19	50632.81
493.37	50092.15
493.54	49525.74
493.72	50908.99
493.90	51463.70
494.08	52631.63
494.25	53261.23
494.43	53322.08
494.61	53694.23
494.79	53537.41
494.96	53408.68
495.14	52664.39
495.32	51707.12
495.49	50724.09
495.67	52182.24
495.85	53509.33
496.02	54150.63
496.20	54003.18
496.38	53542.10
496.55	53083.35
496.73	53862.75
496.91	53982.12
497.09	54700.66
497.26	54766.20
497.44	54185.74
497.62	53666.14
497.79	52846.96
497.97	51543.28
498.14	51482.42
498.32	52931.22
498.50	53698.91
498.67	54506.40
498.85	54237.23
499.03	54326.17
499.20	54656.19
499.38	54759.17
499.56	54417.46
499.73	53989.14
499.91	53612.31
500.08	52989.73
500.26	52467.79
500.44	52545.03
500.61	53649.76
500.79	53024.84
500.97	52832.91
501.14	52636.31
501.32	52694.82
501.49	52633.97
501.67	52690.14
501.84	53654.44
502.02	53488.26
502.20	54237.23
502.37	54085.10
502.55	54234.89
502.72	54948.76
502.90	55313.88
503.07	54993.23
503.25	54677.25
503.43	53546.78
503.60	53038.88
503.78	52189.27
503.95	52575.45
504.13	54272.34
504.30	55124.30
504.48	55264.73
504.65	54445.54
504.83	54377.67
505.01	55159.41
505.18	55547.93
505.36	56002.00
505.53	56121.37
505.71	56261.80
505.88	56547.34
506.06	55702.41
506.23	55580.70
506.41	55021.31
506.58	55379.42
506.76	55480.06
506.93	55276.43
507.11	54934.71
507.28	55185.15
507.46	54553.21
507.63	54141.27
507.81	53925.94
507.98	54038.29
508.16	54705.34
508.33	55288.13
508.50	55852.20
508.68	56121.37
508.85	56720.54
509.03	56772.03
509.20	56348.40
509.38	55910.72
509.55	54738.11
509.73	55136.00
509.90	55561.98
510.08	55842.84
510.25	55564.32
510.42	55365.37
510.60	55505.80
510.77	55910.72
510.95	56348.40
511.12	56320.31
511.30	56580.11
511.47	57102.05
511.64	56743.95
511.82	56566.07
511.99	55676.66
512.17	55250.69
512.34	54918.33
512.51	54862.16
512.69	55311.54
512.86	55407.50
513.04	55875.61
513.21	55840.50
513.38	55477.72
513.56	54749.81
513.73	54461.93
513.90	54583.63
514.08	54405.75
514.25	54859.82
514.43	55089.19
514.60	55217.92
514.77	55248.35
514.95	55561.98
515.12	55398.14
515.29	55618.15
515.47	56090.94
515.64	56317.97
515.81	55936.46
515.99	55341.97
516.16	53705.93
516.33	51370.08
516.51	49258.91
516.68	48329.72
516.85	47536.28
517.03	48481.86
517.20	51634.56
517.37	54248.94
517.54	55552.62
517.72	54880.88
517.89	52109.69
518.06	49392.33
518.24	50040.65
518.41	52781.42
518.58	53715.29
518.75	54204.47
518.93	54251.28
519.10	53954.03
519.27	54880.88
519.45	54925.35
519.62	55683.69
519.79	56271.16
519.96	55718.79
520.14	55515.17
520.31	54396.39
520.48	54354.26
520.65	54705.34
520.83	55800.71
521.00	56250.09
521.17	55870.93
521.34	55267.07
521.52	55618.15
521.69	56252.44
521.86	56818.84
522.03	56282.86
522.20	55056.42
522.38	53991.48
522.55	53961.05
522.72	54789.60
522.89	54590.66
523.07	55227.28
523.24	55494.10
523.41	56259.46
523.58	56526.28
523.75	57052.90
523.92	56757.99
524.10	57055.24
524.27	56898.42
524.44	56608.20
524.61	56491.17
524.78	56011.36
524.96	56016.04
525.13	55866.25
525.30	56287.54
525.47	56690.12
525.64	56734.59
525.81	55868.59
525.98	54403.41
526.16	53038.88
526.33	51973.94
526.50	51648.60
526.67	51220.28
526.84	52006.70
527.01	53146.54
527.18	53937.65
527.36	55131.32
527.53	56133.07
527.70	56226.69
527.87	55859.23
528.04	55217.92
528.21	55805.39
528.38	56451.38
528.55	57041.20
528.72	57221.42
528.89	57345.47
529.07	56973.32
529.24	56570.75
529.41	55554.96
529.58	55098.55
529.75	55061.10
529.92	55763.26
530.09	56044.13
530.26	56594.15
530.43	56903.10
530.60	57141.84
530.77	57247.16
530.94	57099.71
531.11	56715.86
531.28	56451.38
531.46	56048.81
531.63	56416.27
531.80	56133.07
531.97	56137.75
532.14	55044.72
532.31	53825.30
532.48	53200.38
532.65	53198.04
532.82	54293.41
532.99	55440.27
533.16	55835.82
533.33	56435.00
533.50	55917.74
533.67	55379.42
533.84	54838.75
534.01	55430.91
534.18	55419.20
534.35	55711.77
534.52	55489.42
534.69	55763.26
534.86	56018.38
535.03	56399.89
535.20	56818.84
535.37	57244.82
535.54	57102.05
535.71	56793.10
535.88	56481.81
536.05	55796.03
536.22	55348.99
536.38	55332.60
536.55	54691.30
536.72	54049.99
536.89	54054.67
537.06	54859.82
537.23	56051.15
537.40	55880.29
537.57	55938.80
537.74	55889.65
537.91	55430.91
538.08	55854.54
538.25	55807.73
538.42	55863.91
538.59	55777.31
538.75	54972.16
538.92	54742.79
539.09	54450.22
539.26	54578.95
539.43	54164.68
539.60	54031.27
539.77	54719.38
539.94	54532.14
540.11	53457.84
540.28	52879.72
540.44	53102.07
540.61	53078.67
540.78	53588.91
540.95	54347.24
541.12	54522.78
541.29	54695.98
541.46	55086.85
541.62	55011.95
541.79	54937.05
541.96	54377.67
542.13	54267.66
542.30	54728.75
542.47	54665.55
542.63	54480.65
542.80	54192.76
542.97	54204.47
543.14	54270.00
543.31	54380.01
543.48	55037.70
543.64	55819.44
543.81	56308.61
543.98	55529.21
544.15	54995.57
544.32	54440.86
544.48	54754.49
544.65	55143.02
544.82	55559.64
544.99	55009.61
545.16	54698.32
545.32	54518.10
545.49	55341.97
545.66	55686.03
545.83	55409.84
546.00	54843.43
546.16	54684.28
546.33	54618.74
546.50	54560.23
546.67	55004.93
546.83	54438.52
547.00	54759.17
547.17	54019.56
547.34	53315.06
547.50	52900.79
547.67	53890.83
547.84	53815.94
548.00	54244.26
548.17	54487.67
548.34	54431.50
548.51	54504.06
548.67	54473.63
548.84	54609.38
549.01	54628.10
549.18	54623.42
549.34	54309.79
549.51	54574.27
549.68	54363.62
549.84	54024.25
550.01	53951.69
550.18	53907.22
550.34	54113.19
550.51	54103.82
550.68	54068.72
550.84	53523.37
551.01	53638.06
551.18	53762.11
551.34	53986.80
551.51	54178.72
551.68	54639.81
551.84	54646.83
552.01	54241.92
552.18	54162.34
552.34	53326.77
552.51	52832.91
552.68	52736.95
552.84	53279.96
553.01	53684.87
553.18	53628.69
553.34	53911.90
553.51	53684.87
553.67	53839.34
553.84	53947.01
554.01	53834.66
554.17	54049.99
554.34	53773.81
554.51	53975.09
554.67	54429.16
554.84	54115.53
555.00	53848.71
555.17	53464.86
555.33	53539.75
555.50	53490.60
555.67	53668.48
555.83	53249.53
556.00	52956.96
556.16	53088.03
556.33	52893.77
556.50	52432.68
556.66	52327.36
556.83	52219.69
556.99	52207.99
557.16	52458.43
557.32	52921.85
557.49	52921.85
557.65	52879.72
557.82	52692.48
557.98	52652.69
558.15	52074.58
558.32	51461.36
558.48	50319.18
558.65	50513.44
558.81	50426.84
558.98	51288.16
559.14	51426.25
559.31	51613.49
559.47	51526.89
559.64	51192.20
559.80	50649.19
559.97	50904.31
560.13	50993.25
560.30	52643.33
560.46	52821.21
560.63	53212.08
560.79	53375.92
560.96	52851.64
561.12	51700.09
561.29	50670.26
561.45	50857.50
561.61	51288.16
561.78	51629.88
561.94	51323.27
562.11	51379.44
562.27	51299.86
562.44	51512.85
562.60	52097.98
562.77	52399.91
562.93	52058.20
563.10	52126.07
563.26	51452.00
563.42	51267.09
563.59	51061.13
563.75	51077.51
563.92	51079.85
564.08	51030.70
564.24	51620.52
564.41	51629.88
564.57	51262.41
564.74	51501.15
564.90	51164.11
565.07	50780.26
565.23	50204.49
565.39	49497.65
565.56	49364.24
565.72	49209.76
565.88	49132.53
566.05	49654.47
566.21	49757.45
566.38	49907.24
566.54	50356.63
566.70	50583.66
566.87	50976.87
567.03	50848.14
567.19	51313.90
567.36	50749.84
567.52	50820.05
567.68	50424.50
567.85	50124.91
568.01	49125.50
568.17	48783.79
568.34	48699.53
568.50	48636.33
568.66	48910.17
568.83	49476.58
568.99	49158.27
569.15	50017.25
569.32	49689.57
569.48	49422.75
569.64	49027.20
569.81	48479.52
569.97	48575.48
570.13	48516.96
570.30	47861.61
570.46	47370.10
570.62	46705.39
570.78	46614.11
570.95	46871.57
571.11	47885.02
571.27	48226.74
571.43	48224.40
571.60	48832.94
571.76	48610.59
571.92	49347.86
572.09	49490.63
572.25	49265.94
572.41	49324.45
572.57	49062.31
572.74	49169.97
572.90	48568.46
573.06	48580.16
573.22	48940.60
573.38	48666.76
573.55	48392.92
573.71	48458.45
573.87	48989.75
574.03	48289.93
574.20	48596.54
574.36	48140.14
574.52	47945.87
574.68	47751.61
574.84	47433.30
575.01	47056.47
575.17	46532.19
575.33	46986.25
575.49	46799.01
575.65	47164.14
575.82	47203.92
575.98	46618.79
576.14	47182.86
576.30	47435.64
576.46	47845.23
576.62	47681.39
576.79	47758.63
576.95	46817.74
577.11	47372.44
577.27	46892.63
577.43	47154.77
577.59	46925.40
577.75	46197.49
577.92	45722.37
578.08	45324.47
578.24	45263.62
578.40	45673.21
578.56	46356.65
578.72	45759.81
578.88	46520.49
579.04	46263.03
579.21	46192.81
579.37	46574.32
579.53	46653.90
579.69	46635.17
579.85	46941.78
580.01	46611.77
580.17	45659.17
580.33	45696.62
580.49	46122.60
580.65	46316.86
580.82	46955.83
580.98	46677.30
581.14	46351.97
581.30	46450.27
581.46	46045.36
581.62	46663.26
581.78	46401.12
581.94	46499.42
582.10	46782.63
582.26	46815.40
582.42	46644.54
582.58	46885.61
582.74	46391.76
582.90	46590.70
583.06	46789.65
583.22	46389.42
583.38	46536.87
583.54	46422.19
583.70	46340.27
583.86	45961.10
584.02	46499.42
584.18	46518.15
584.34	45947.06
584.50	46096.85
584.66	45916.63
584.82	45020.20
584.98	45233.19
585.14	45015.52
585.30	43791.42
