SpectraSuite Data File
++++++++++++++++++++++++++++++++++++
Date: Mon Oct 07 14:53:04 GMT-05:00 2013
User: price-jones
Dark Spectrum Present: No
Reference Spectrum Present: No
Number of Sampled Component Spectra: 1
Spectrometers: USB2+H05261
Integration Time (usec): 100000 (USB2+H05261)
Spectra Averaged: 1 (USB2+H05261)
Boxcar Smoothing: 0 (USB2+H05261)
Correct for Electrical Dark: No (USB2+H05261)
Strobe/Lamp Enabled: No (USB2+H05261)
Correct for Detector Non-linearity: No (USB2+H05261)
Correct for Stray Light: No (USB2+H05261)
Number of Pixels in Processed Spectrum: 2048
>>>>>Begin Processed Spectral Data<<<<<
365.73	0.00
365.92	0.00
366.12	0.00
366.32	0.00
366.52	0.00
366.72	0.00
366.91	0.00
367.11	0.00
367.31	0.00
367.51	0.00
367.70	0.00
367.90	0.00
368.10	0.00
368.30	0.00
368.49	0.00
368.69	0.00
368.89	0.00
369.09	0.00
369.28	0.00
369.48	0.00
369.68	0.00
369.87	0.00
370.07	0.00
370.27	0.00
370.47	510.24
370.66	2555.86
370.86	3091.85
371.06	3131.64
371.25	3405.48
371.45	2902.26
371.65	2640.12
371.84	2548.84
372.04	2860.13
372.24	2963.12
372.44	3152.70
372.63	3166.74
372.83	2869.50
373.03	2450.54
373.22	2349.90
373.42	2473.95
373.62	2902.26
373.81	2965.46
374.01	3007.59
374.21	2745.45
374.40	2642.46
374.60	2818.00
374.79	2991.20
374.99	3485.06
375.19	3740.18
375.38	3871.25
375.58	3611.45
375.78	3454.63
375.97	3557.61
376.17	3716.77
376.37	3726.13
376.56	3826.78
376.76	4018.70
376.95	4332.33
377.15	4545.32
377.35	4741.93
377.54	4987.68
377.74	4975.98
377.93	5121.09
378.13	4931.51
378.33	4648.30
378.52	4273.82
378.72	4091.26
378.91	4189.56
379.11	3882.95
379.31	3779.97
379.50	3843.16
379.70	4119.34
379.89	4505.53
380.09	4718.52
380.28	4922.15
380.48	4767.67
380.68	4779.37
380.87	4636.60
381.07	4280.84
381.26	3948.48
381.46	3859.54
381.65	3693.37
381.85	3452.29
382.04	3454.63
382.24	3105.89
382.43	3185.47
382.63	3021.63
382.83	2995.89
383.02	3042.70
383.22	2939.71
383.41	2951.42
383.61	3227.60
383.80	3634.85
384.00	4074.87
384.19	4674.05
384.39	4826.18
384.58	4901.08
384.78	4755.97
384.97	4793.42
385.17	4432.97
385.36	4227.01
385.56	4112.32
385.75	4180.20
385.95	4660.01
386.14	5048.54
386.34	5018.11
386.53	4980.66
386.72	4486.81
386.92	4498.51
387.11	4868.31
387.31	5104.71
387.50	4805.12
387.70	4681.07
387.89	4650.64
388.09	4910.44
388.28	4784.06
388.48	4840.23
388.67	5149.18
388.86	5743.67
389.06	6218.80
389.25	6466.90
389.45	6672.87
389.64	6420.09
389.84	6399.02
390.03	6214.12
390.22	6263.27
390.42	6436.47
390.61	6972.46
390.81	7531.84
391.00	7543.55
391.19	7410.14
391.39	7232.26
391.58	6593.29
391.78	6368.60
391.97	6380.30
392.16	5626.65
392.36	5273.23
392.55	4337.01
392.75	3370.37
392.94	2750.13
393.13	2651.83
393.33	3213.56
393.52	4161.47
393.71	5146.84
393.91	5727.29
394.10	6207.10
394.29	6820.32
394.49	7489.71
394.68	8035.06
394.88	7857.18
395.07	8313.58
395.26	8140.38
395.46	7843.14
395.65	7564.61
395.84	6604.99
396.04	5586.86
396.23	4339.35
396.42	3775.28
396.62	3681.66
396.81	4404.89
397.00	5296.63
397.19	6775.85
397.39	7957.82
397.58	9090.64
397.77	9582.15
397.97	9912.17
398.16	9937.91
398.35	10303.04
398.55	10806.25
398.74	11084.78
398.93	11506.07
399.12	11222.87
399.32	10801.57
399.51	11180.74
399.70	11852.47
399.90	11461.60
400.09	11492.03
400.28	11552.88
400.47	11751.83
400.67	12353.35
400.86	12564.00
401.05	12500.80
401.24	12542.93
401.44	12894.01
401.63	12666.98
401.82	12676.34
402.01	12943.16
402.21	12840.18
402.40	13200.62
402.59	12730.17
402.78	12233.98
402.97	11527.14
403.17	12065.46
403.36	13057.85
403.55	13589.15
403.74	13549.36
403.93	13102.32
404.13	11948.43
404.32	11971.84
404.51	12461.01
404.70	13312.97
404.89	13327.01
405.09	13109.34
405.28	12575.70
405.47	12517.18
405.66	12407.18
405.85	12273.77
406.05	11910.99
406.24	12276.11
406.43	12657.62
406.62	13060.19
406.81	13130.41
407.00	12535.91
407.20	12575.70
407.39	12592.08
407.58	13008.70
407.77	13614.90
407.96	13858.31
408.15	14363.87
408.34	14553.45
408.54	15077.73
408.73	15014.54
408.92	14857.72
409.11	14436.42
409.30	13579.79
409.49	12861.24
409.68	12081.85
409.87	11623.10
410.07	12400.16
410.26	13584.47
410.45	14310.04
410.64	14478.55
410.83	15161.99
411.02	15374.98
411.21	16147.36
411.40	15618.39
411.59	16058.42
411.78	15843.09
411.98	15405.41
412.17	16147.36
412.36	15620.74
412.55	15396.04
412.74	15145.61
412.93	15185.40
413.12	14941.98
413.31	16561.63
413.50	16657.59
413.69	16812.07
413.88	16439.92
414.07	15637.12
414.26	16243.32
414.45	16308.85
414.64	16542.91
414.83	16783.98
415.02	16376.73
415.22	16535.88
415.41	17034.42
415.60	17535.29
415.79	18066.60
415.98	18310.01
416.17	18614.28
416.36	17689.77
416.55	17441.67
416.74	17165.49
416.93	16421.20
417.12	16510.14
417.31	16840.15
417.50	16943.14
417.69	17207.62
417.88	17467.42
418.07	17233.36
418.26	17013.35
418.45	17287.20
418.64	17848.93
418.83	18478.53
419.02	18508.96
419.21	17802.11
419.39	17074.21
419.58	16570.99
419.77	16393.11
419.96	17383.16
420.15	18214.05
420.34	18497.25
420.53	19358.57
420.72	19854.76
420.91	19679.22
421.10	19370.27
421.29	19201.76
421.48	18441.08
421.67	19346.87
421.86	18827.27
422.05	17528.27
422.24	15852.45
422.43	15697.97
422.61	17547.00
422.80	18693.86
422.99	18747.69
423.18	17804.46
423.37	17486.14
423.56	17759.98
423.75	18057.23
423.94	18438.74
424.13	17439.33
424.32	17465.08
424.50	17638.28
424.69	17586.79
424.88	17324.65
425.07	17631.26
425.26	17547.00
425.45	17303.58
425.64	17011.01
425.83	17165.49
426.01	18068.94
426.20	18368.52
426.39	18113.41
426.58	16840.15
426.77	15726.06
426.96	15009.86
427.15	15653.50
427.33	16945.48
427.52	17614.87
427.71	17427.63
427.90	17572.74
428.09	17420.61
428.28	17235.70
428.46	16437.58
428.65	16133.31
428.84	16484.39
429.03	17226.34
429.22	15833.72
429.40	14668.14
429.59	13528.30
429.78	12142.70
429.97	12395.48
430.16	12334.62
430.34	12451.65
430.53	12098.23
430.72	12695.07
430.91	14108.75
431.10	16444.60
431.28	19384.32
431.47	20999.29
431.66	21053.12
431.85	19194.73
432.03	17759.98
432.22	17055.48
432.41	17586.79
432.60	19389.00
432.79	20542.88
432.97	20945.45
433.16	20535.86
433.35	18544.06
433.54	16491.41
433.72	15714.36
433.91	16348.64
434.10	18310.01
434.28	19531.77
434.47	20514.80
434.66	20290.10
434.85	19566.88
435.03	19594.96
435.22	20166.06
435.41	21282.49
435.59	21329.30
435.78	21556.33
435.97	22174.24
436.16	22375.52
436.34	21617.19
436.53	21231.00
436.72	21205.25
436.90	19967.11
437.09	20318.19
437.28	19789.23
437.46	20673.95
437.65	20500.75
437.84	19143.24
438.02	17771.69
438.21	17355.07
438.40	18572.15
438.58	20056.05
438.77	20262.02
438.96	20917.37
439.14	21668.68
439.33	22150.83
439.52	22504.25
439.70	22113.38
439.89	21783.37
440.08	20793.32
440.26	20915.03
440.45	21923.80
440.63	23484.94
440.82	24224.54
441.01	23943.68
441.19	23711.97
441.38	24404.77
441.57	24823.72
441.75	25020.33
441.94	25453.33
442.12	24961.81
442.31	25766.96
442.50	25802.07
442.68	25418.22
442.87	24905.64
443.05	24442.21
443.24	25039.05
443.43	25518.86
443.61	26162.51
443.80	26258.47
443.98	24524.13
444.17	25111.61
444.35	26462.10
444.54	26677.43
444.73	26541.68
444.91	25310.55
445.10	24231.57
445.28	23426.42
445.47	22930.23
445.65	23119.81
445.84	24149.65
446.02	24465.62
446.21	24907.98
446.39	25226.29
446.58	25177.14
446.77	25357.36
446.95	26005.69
447.14	26867.01
447.32	27138.51
447.51	26375.50
447.69	25649.93
447.88	25078.84
448.06	25708.44
448.25	26036.12
448.43	26698.49
448.62	26024.42
448.80	25879.30
448.99	26160.17
449.17	26040.80
449.36	25912.07
449.54	27005.10
449.73	27531.72
449.91	27782.16
450.10	28989.88
450.28	29219.25
450.46	29055.41
450.65	28823.70
450.83	28350.91
451.02	28425.81
451.20	28247.93
451.39	27847.69
451.57	27819.61
451.76	27814.93
451.94	27410.01
452.13	27084.68
452.31	25682.70
452.49	24367.32
452.68	25085.86
452.86	25010.96
453.05	25331.62
453.23	26401.24
453.42	26778.07
453.60	27417.04
453.78	27824.29
453.97	27033.19
454.15	27164.26
454.34	26324.01
454.52	26656.36
454.70	26691.47
454.89	26888.07
455.07	26607.21
455.26	27407.67
455.44	28315.80
455.62	28718.37
455.81	29067.11
455.99	28755.82
456.17	28039.62
456.36	28521.77
456.54	28795.61
456.73	29516.50
456.91	30101.63
457.09	29589.05
457.28	30483.14
457.46	29017.96
457.64	28781.57
457.83	28123.88
458.01	27110.43
458.19	28409.42
458.38	28521.77
458.56	29270.74
458.74	29467.34
458.93	28723.05
459.11	28554.54
459.29	28098.13
459.48	28465.60
459.66	28266.65
459.84	28680.92
460.03	28858.81
460.21	29315.21
460.39	29502.45
460.57	29839.49
460.76	30019.71
460.94	30316.96
461.12	29858.21
461.31	29727.14
461.49	29820.77
461.67	29577.35
461.85	30733.57
462.04	30431.65
462.22	31253.17
462.40	30815.49
462.59	30438.67
462.77	30703.15
462.95	30754.64
463.13	30043.12
463.32	30066.52
463.50	29890.98
463.68	29905.02
463.86	29809.06
464.05	29427.56
464.23	28748.80
464.41	28751.14
464.59	28383.68
464.78	29490.75
464.96	29483.73
465.14	29493.09
465.32	29958.86
465.50	30850.60
465.69	31136.15
465.87	30391.86
466.05	29591.39
466.23	28428.15
466.41	27566.83
466.60	28404.74
466.78	28556.88
466.96	28884.55
467.14	29235.63
467.32	30183.55
467.51	29958.86
467.69	28823.70
467.87	29081.16
468.05	29347.98
468.23	29635.86
468.41	29673.31
468.60	29881.62
468.78	29890.98
468.96	29481.39
469.14	30335.68
469.32	30438.67
469.50	29062.43
469.69	29551.60
469.87	28790.93
470.05	28531.13
470.23	28720.71
470.41	29149.03
470.59	29401.81
470.77	29710.76
470.95	30136.74
471.14	30529.95
471.32	30382.49
471.50	32299.39
471.68	32484.30
471.86	32765.16
472.04	32811.97
472.22	32437.48
472.40	30703.15
472.58	31084.65
472.77	30239.72
472.95	31147.85
473.13	32130.87
473.31	31154.87
473.49	31175.94
473.67	32004.49
473.85	32158.96
474.03	33153.69
474.21	33359.66
474.39	33727.12
474.57	33092.83
474.75	34249.06
474.93	32774.52
475.12	32547.49
475.30	32400.04
475.48	32760.48
475.66	33235.61
475.84	33060.07
476.02	32631.75
476.20	31964.70
476.38	32811.97
476.56	33731.80
476.74	34059.48
476.92	34518.22
477.10	34911.43
477.28	35700.19
477.46	35952.97
477.64	35857.01
477.82	36364.90
478.00	36376.61
478.18	35658.06
478.36	35566.78
478.54	35688.49
478.72	36208.09
478.90	37076.43
479.08	37546.87
479.26	38415.21
479.44	38068.81
479.62	38071.15
479.80	37813.70
479.98	38054.77
480.16	38230.31
480.34	37710.71
480.52	38480.75
480.70	38628.20
480.88	39030.77
481.06	39168.87
481.24	40009.12
481.41	40383.60
481.59	41083.42
481.77	40470.20
481.95	40360.20
482.13	40271.26
482.31	40011.46
482.49	41095.13
482.67	40500.63
482.85	40800.22
483.03	41661.54
483.21	41977.51
483.39	41930.70
483.57	41095.13
483.74	41064.70
483.92	40921.93
484.10	41441.53
484.28	42249.01
484.46	42883.30
484.64	42770.95
484.82	42064.11
485.00	41785.58
485.18	40896.18
485.35	39550.37
485.53	36191.70
485.71	33710.74
485.89	33015.60
486.07	34855.26
486.25	37914.34
486.43	40161.25
486.61	40678.51
486.78	40591.91
486.96	41045.97
487.14	42295.82
487.32	43475.45
487.50	45148.93
487.68	45563.21
487.85	46057.06
488.03	46019.61
488.21	45532.78
488.39	44865.73
488.57	44222.08
488.75	43597.16
488.92	45191.06
489.10	47672.03
489.28	49125.50
489.46	49757.45
489.64	49389.98
489.81	50050.02
489.99	49008.48
490.17	49165.29
490.35	49991.50
490.53	49097.42
490.70	48699.53
490.88	49055.29
491.06	49736.38
491.24	49588.93
491.41	48184.61
491.59	46813.05
491.77	45914.29
491.95	47208.61
492.13	48788.47
492.30	50134.28
492.48	51285.82
492.66	51505.83
492.84	51393.48
493.01	51114.96
493.19	50733.45
493.37	50045.33
493.54	49640.42
493.72	50857.50
493.90	51533.92
494.08	52713.55
494.25	53179.31
494.43	53357.19
494.61	53467.20
494.79	53607.63
494.96	53338.47
495.14	52453.75
495.32	51681.37
495.49	51096.24
495.67	52554.39
495.85	53801.89
496.02	54188.08
496.20	53890.83
496.38	53605.29
496.55	53097.39
496.73	53750.40
496.91	53710.61
497.09	54557.89
497.26	54972.16
497.44	54209.15
497.62	53499.97
497.79	52788.44
497.97	51461.36
498.14	51810.10
498.32	52980.37
498.50	53712.95
498.67	54583.63
498.85	54611.72
499.03	54534.48
499.20	54745.13
499.38	54518.10
499.56	54822.37
499.73	54230.21
499.91	53579.54
500.08	53090.37
500.26	52362.46
500.44	53066.97
500.61	53822.96
500.79	53244.85
500.97	53066.97
501.14	52856.32
501.32	52659.71
501.49	52739.29
501.67	53179.31
501.84	53668.48
502.02	54038.29
502.20	54316.81
502.37	54358.94
502.55	54695.98
502.72	55210.90
502.90	55433.25
503.07	55236.64
503.25	54724.07
503.43	53794.87
503.60	52711.20
503.78	52381.19
503.95	52905.47
504.13	54403.41
504.30	55192.17
504.48	54752.15
504.65	54717.04
504.83	54576.61
505.01	55264.73
505.18	55906.04
505.36	56350.74
505.53	56636.28
505.71	56687.78
505.88	56603.52
506.06	56130.73
506.23	55770.28
506.41	55416.86
506.58	55587.72
506.76	55311.54
506.93	55461.33
507.11	55278.77
507.28	55625.17
507.46	54997.91
507.63	54288.73
507.81	54082.76
507.98	54527.46
508.16	55274.09
508.33	55826.46
508.50	56350.74
508.68	56247.75
508.85	56931.19
509.03	56809.48
509.20	56713.52
509.38	55999.66
509.55	55180.47
509.73	55267.07
509.90	55927.10
510.08	56058.17
510.25	56034.77
510.42	55999.66
510.60	55978.59
510.77	56074.55
510.95	56612.88
511.12	56940.55
511.30	57130.14
511.47	57350.15
511.64	57062.26
511.82	56942.89
511.99	55866.25
512.17	55807.73
512.34	55330.26
512.51	55419.20
512.69	55714.11
512.86	55924.76
513.04	56210.31
513.21	56147.11
513.38	55845.18
513.56	55140.68
513.73	54497.03
513.90	55011.95
514.08	55112.59
514.25	55206.22
514.43	55554.96
514.60	55576.02
514.77	55753.90
514.95	56135.41
515.12	55547.93
515.29	55976.25
515.47	56542.66
515.64	56694.80
515.81	56343.72
515.99	55725.81
516.16	54218.51
516.33	51573.70
516.51	49986.82
516.68	49008.48
516.85	48596.54
517.03	49258.91
517.20	52278.21
517.37	55004.93
517.54	55959.87
517.72	55262.39
517.89	52481.83
518.06	50279.39
518.24	50787.28
518.41	53066.97
518.58	54365.96
518.75	54691.30
518.93	54630.44
519.10	54649.17
519.27	55325.58
519.45	55679.00
519.62	56271.16
519.79	56535.64
519.96	56069.87
520.14	55758.58
520.31	54866.84
520.48	54749.81
520.65	55606.45
520.83	56332.01
521.00	56713.52
521.17	56362.44
521.34	55807.73
521.52	56535.64
521.69	56921.83
521.86	57202.69
522.03	56687.78
522.20	55615.81
522.38	54672.57
522.55	54628.10
522.72	55505.80
522.89	55561.98
523.07	55653.26
523.24	56088.60
523.41	56931.19
523.58	57198.01
523.75	57733.99
523.92	57462.49
524.10	57352.49
524.27	57443.77
524.44	57174.61
524.61	56910.13
524.78	56917.15
524.96	56671.39
525.13	56802.46
525.30	57031.83
525.47	57448.45
525.64	57406.32
525.81	56671.39
525.98	55267.07
526.16	53794.87
526.33	53102.07
526.50	52584.82
526.67	52079.26
526.84	52935.90
527.01	54092.12
527.18	54770.88
527.36	56133.07
527.53	56830.55
527.70	57172.27
527.87	56442.02
528.04	55917.74
528.21	56367.12
528.38	57095.03
528.55	57719.95
528.72	57860.38
528.89	57904.85
529.07	57647.39
529.24	57066.94
529.41	56423.29
529.58	55842.84
529.75	56088.60
529.92	56591.81
530.09	56987.36
530.26	57518.67
530.43	57930.60
530.60	57708.25
530.77	57986.77
530.94	58166.99
531.11	57495.26
531.28	57167.58
531.46	57034.17
531.63	57123.11
531.80	57022.47
531.97	56640.96
532.14	55772.63
532.31	54901.95
532.48	53911.90
532.65	54323.83
532.82	55128.98
532.99	56247.75
533.16	56645.65
533.33	57139.50
533.50	56947.57
533.67	56374.14
533.84	55894.33
534.01	55861.57
534.18	56292.22
534.35	56502.87
534.52	56360.10
534.69	56495.85
534.86	57134.82
535.03	57251.84
535.20	57911.88
535.37	57946.98
535.54	58035.92
535.71	57780.81
535.88	57373.55
536.05	56659.69
536.22	56231.37
536.38	56081.58
536.55	55601.77
536.72	55049.40
536.89	54908.97
537.06	55737.52
537.23	56905.44
537.40	56765.01
537.57	56970.98
537.74	56655.01
537.91	56647.99
538.08	56566.07
538.25	56868.00
538.42	56900.76
538.59	56608.20
538.75	56130.73
538.92	55683.69
539.09	55913.06
539.26	55405.16
539.43	55405.16
539.60	55526.87
539.77	55620.49
539.94	55260.05
540.11	54590.66
540.28	53937.65
540.44	54286.39
540.61	54550.87
540.78	54651.51
540.95	55126.64
541.12	55526.87
541.29	56011.36
541.46	56247.75
541.62	56200.94
541.79	55936.46
541.96	55325.58
542.13	55356.01
542.30	55669.64
542.47	55732.84
542.63	55737.52
542.80	55180.47
542.97	55480.06
543.14	55327.92
543.31	55533.89
543.48	56154.13
543.64	56863.32
543.81	56905.44
543.98	56760.33
544.15	56034.77
544.32	55325.58
544.48	55681.34
544.65	56114.34
544.82	56423.29
544.99	56184.56
545.16	55758.58
545.32	55763.26
545.49	56423.29
545.66	56736.93
545.83	56334.35
546.00	56123.71
546.16	55526.87
546.33	55662.62
546.50	55758.58
546.67	56112.00
546.83	55971.57
547.00	55643.90
547.17	55107.91
547.34	54754.49
547.50	54333.20
547.67	55138.34
547.84	55054.08
548.00	55416.86
548.17	55966.89
548.34	55805.39
548.51	55643.90
548.67	55557.30
548.84	55908.38
549.01	55650.92
549.18	55753.90
549.34	55646.24
549.51	55838.16
549.68	55536.23
549.84	55360.69
550.01	55238.98
550.18	55346.65
550.34	55206.22
550.51	55447.29
550.68	55281.11
550.84	54969.82
551.01	55178.13
551.18	55035.36
551.34	55138.34
551.51	55522.19
551.68	55987.95
551.84	56013.70
552.01	55824.12
552.18	55365.37
552.34	54536.82
552.51	54230.21
552.68	54298.09
552.84	54754.49
553.01	54838.75
553.18	54808.32
553.34	54714.70
553.51	55056.42
553.67	55332.60
553.84	55533.89
554.01	55327.92
554.17	55264.73
554.34	55248.35
554.51	55381.76
554.67	55613.47
554.84	55620.49
555.00	55264.73
555.17	55077.49
555.33	55248.35
555.50	54925.35
555.67	54813.01
555.83	54693.64
556.00	54593.00
556.16	54593.00
556.33	53947.01
556.50	53755.08
556.66	53958.71
556.83	53516.35
556.99	53616.99
557.16	53839.34
557.32	54101.48
557.49	54562.57
557.65	54401.07
557.82	54497.03
557.98	54265.32
558.15	53591.25
558.32	52870.36
558.48	51889.68
558.65	52245.44
558.81	52622.26
558.98	52912.49
559.14	53235.48
559.31	53357.19
559.47	53244.85
559.64	52996.75
559.80	52472.47
559.97	52488.85
560.13	53174.63
560.30	54096.80
560.46	54550.87
560.63	54988.55
560.79	54848.11
560.96	54419.80
561.12	53272.93
561.29	52224.37
561.45	52428.00
561.61	53088.03
561.78	53254.21
561.94	53134.84
562.11	53176.97
562.27	52846.96
562.44	53350.17
562.60	53626.35
562.77	53914.24
562.93	53652.10
563.10	53741.04
563.26	53216.76
563.42	53244.85
563.59	53071.65
563.75	53034.20
563.92	53029.52
564.08	53186.33
564.24	53303.36
564.41	53193.36
564.57	53268.25
564.74	53109.10
564.90	52638.65
565.07	52683.12
565.23	52268.84
565.39	51653.28
565.56	51461.36
565.72	51290.50
565.88	51627.54
566.05	51861.59
566.21	52048.83
566.38	51948.19
566.54	52233.74
566.70	52821.21
566.87	52772.06
567.03	53006.11
567.19	53382.94
567.36	52690.14
567.52	52708.86
567.68	52446.72
567.85	51695.41
568.01	51363.06
568.17	50756.86
568.34	51026.02
568.50	50974.53
568.66	51136.02
568.83	51114.96
568.99	51201.56
569.15	51763.29
569.32	51664.99
569.48	51552.64
569.64	51166.45
569.81	50981.55
569.97	50890.27
570.13	50759.20
570.30	50113.21
570.46	49712.98
570.62	49024.86
570.78	49045.93
570.95	49462.54
571.11	50417.48
571.27	50513.44
571.43	50499.40
571.60	51222.62
571.76	50920.70
571.92	51269.43
572.09	51508.17
572.25	51896.70
572.41	51660.30
572.57	51421.57
572.74	51334.97
572.90	50873.88
573.06	51049.42
573.22	51040.06
573.38	50918.35
573.55	50878.57
573.71	51194.54
573.87	50983.89
574.03	50775.58
574.20	50522.80
574.36	50508.76
574.52	50206.83
574.68	49928.31
574.84	49340.83
575.01	49113.80
575.17	48966.35
575.33	49535.10
575.49	49710.64
575.65	50059.38
575.82	49645.10
575.98	49462.54
576.14	49818.30
576.30	49841.71
576.46	50010.23
576.62	50134.28
576.79	50302.79
576.95	49516.37
577.11	49911.92
577.27	49717.66
577.43	49567.87
577.59	49371.26
577.75	48451.43
577.92	48123.75
578.08	47758.63
578.24	47641.60
578.40	48477.18
578.56	48491.22
578.72	48179.93
578.88	48846.98
579.04	49066.99
579.21	49088.06
579.37	49083.37
579.53	49109.12
579.69	49169.97
579.85	49481.27
580.01	49212.10
580.17	48554.41
580.33	48343.77
580.49	48346.11
580.65	48879.75
580.82	49006.14
580.98	49076.35
581.14	49144.23
581.30	49191.04
581.46	48898.47
581.62	49301.04
581.78	49167.63
581.94	49677.87
582.10	49371.26
582.26	49593.61
582.42	49436.80
582.58	49460.20
582.74	49558.50
582.90	49544.46
583.06	49588.93
583.22	49146.57
583.38	49081.03
583.54	48935.92
583.70	49022.52
583.86	49184.02
584.02	48821.23
584.18	49083.37
584.34	49277.64
584.50	48854.00
584.66	48804.85
584.82	48378.87
584.98	48257.17
585.14	47653.31
585.30	46398.78
