SpectraSuite Data File
++++++++++++++++++++++++++++++++++++
Date: Mon Oct 07 14:53:17 GMT-05:00 2013
User: price-jones
Dark Spectrum Present: No
Reference Spectrum Present: No
Number of Sampled Component Spectra: 1
Spectrometers: USB2+H05261
Integration Time (usec): 100000 (USB2+H05261)
Spectra Averaged: 1 (USB2+H05261)
Boxcar Smoothing: 0 (USB2+H05261)
Correct for Electrical Dark: No (USB2+H05261)
Strobe/Lamp Enabled: No (USB2+H05261)
Correct for Detector Non-linearity: No (USB2+H05261)
Correct for Stray Light: No (USB2+H05261)
Number of Pixels in Processed Spectrum: 2048
>>>>>Begin Processed Spectral Data<<<<<
365.73	0.00
365.92	0.00
366.12	0.00
366.32	0.00
366.52	0.00
366.72	0.00
366.91	0.00
367.11	0.00
367.31	0.00
367.51	0.00
367.70	0.00
367.90	0.00
368.10	0.00
368.30	0.00
368.49	0.00
368.69	0.00
368.89	0.00
369.09	0.00
369.28	0.00
369.48	0.00
369.68	0.00
369.87	0.00
370.07	0.00
370.27	0.00
370.47	1193.67
370.66	5392.59
370.86	6134.54
371.06	6424.77
371.25	6399.02
371.45	5774.10
371.65	5305.99
371.84	5107.05
372.04	5369.19
372.24	6033.90
372.44	6092.41
372.63	5968.37
372.83	5605.58
373.03	4896.40
373.22	4676.39
373.42	4753.63
373.62	5570.48
373.81	5823.25
374.01	5893.47
374.21	5259.18
374.40	5076.62
374.60	5270.89
374.79	5926.24
374.99	6771.17
375.19	7279.07
375.38	7162.04
375.58	6644.78
375.78	6750.10
375.97	6764.15
376.17	6871.81
376.37	6993.52
376.56	7222.89
376.76	7768.24
376.95	8241.03
377.15	8636.58
377.35	9121.07
377.54	9383.21
377.74	9577.47
377.93	9502.58
378.13	9081.28
378.33	8830.84
378.52	7892.29
378.72	7749.51
378.91	7503.76
379.11	7290.77
379.31	7096.50
379.50	7211.19
379.70	7775.26
379.89	8664.66
380.09	8987.66
380.28	9383.21
380.48	9008.72
380.68	9060.21
380.87	8671.68
381.07	8198.90
381.26	7527.16
381.46	7124.59
381.65	6951.39
381.85	6672.87
382.04	6408.39
382.24	5930.92
382.43	5703.89
382.63	5521.32
382.83	5563.45
383.02	5472.17
383.22	5469.83
383.41	5736.65
383.61	6050.28
383.80	6942.03
384.00	7852.50
384.19	8802.75
384.39	9041.49
384.58	9240.44
384.78	8802.75
384.97	8805.10
385.17	8266.77
385.36	8060.80
385.56	7489.71
385.75	7941.44
385.95	8657.64
386.14	9481.51
386.34	9401.93
386.53	8657.64
386.72	8439.97
386.92	8458.70
387.11	8926.80
387.31	9198.31
387.50	9193.62
387.70	8702.11
387.89	8505.51
388.09	9032.13
388.28	8737.22
388.48	9095.32
388.67	9542.36
388.86	10663.48
389.06	11337.56
389.25	11775.24
389.45	11892.26
389.64	11899.28
389.84	11709.70
390.03	11632.46
390.22	11286.06
390.42	12142.70
390.61	12762.94
390.81	13561.06
391.00	13532.98
391.19	13614.90
391.39	13207.64
391.58	12332.28
391.78	11751.83
391.97	11288.40
392.16	10703.27
392.36	9500.23
392.55	7470.99
392.75	6200.08
392.94	5186.63
393.13	5078.96
393.33	6127.52
393.52	7691.00
393.71	9266.18
393.91	10476.24
394.10	11417.13
394.29	12477.40
394.49	13235.73
394.68	14321.74
394.88	14324.08
395.07	14895.17
395.26	14658.78
395.46	14176.62
395.65	13399.57
395.84	11676.93
396.04	9696.84
396.23	7840.79
396.42	6672.87
396.62	6593.29
396.81	7772.92
397.00	9926.21
397.19	12542.93
397.39	14864.74
397.58	16446.94
397.77	17558.70
397.97	17888.71
398.16	18340.44
398.35	18944.30
398.55	19253.25
398.74	19948.39
398.93	20189.46
399.12	19889.87
399.32	19686.25
399.51	19941.36
399.70	21188.87
399.90	20767.57
400.09	20863.54
400.28	20781.62
400.47	20475.01
400.67	21862.94
400.86	22370.84
401.05	22373.18
401.24	22427.01
401.44	22789.80
401.63	22583.83
401.82	23342.16
402.01	23143.22
402.21	23440.47
402.40	23541.11
402.59	22162.53
402.78	21823.16
402.97	21202.91
403.17	21970.61
403.36	23508.34
403.55	24247.95
403.74	24395.40
403.93	23035.55
404.13	21607.83
404.32	21174.83
404.51	22019.76
404.70	23728.35
404.89	23730.69
405.09	23424.08
405.28	22457.44
405.47	22635.32
405.66	22405.95
405.85	22143.81
406.05	21474.42
406.24	21694.43
406.43	22731.28
406.62	23564.51
406.81	23730.69
407.00	22459.78
407.20	21930.82
407.39	22267.86
407.58	23470.89
407.77	24570.94
407.96	25113.95
408.15	25373.75
408.34	25336.30
408.54	26654.02
408.73	26513.59
408.92	26307.62
409.11	25720.15
409.30	24510.09
409.49	22820.22
409.68	21558.67
409.87	20774.60
410.07	22412.97
410.26	23950.70
410.45	25752.91
410.64	26190.59
410.83	27131.49
411.02	27295.33
411.21	28797.95
411.40	28339.21
411.59	27882.80
411.78	27704.92
411.98	27805.56
412.17	28119.20
412.36	27608.96
412.55	27756.41
412.74	27208.73
412.93	26085.27
413.12	26513.59
413.31	29523.52
413.50	29944.81
413.69	29942.47
413.88	28797.95
414.07	28060.68
414.26	28762.84
414.45	29579.69
414.64	29347.98
414.83	29752.89
415.02	29017.96
415.22	28769.86
415.41	29453.30
415.60	30520.59
415.79	31529.36
415.98	32807.29
416.17	32460.89
416.36	31793.84
416.55	31194.66
416.74	30204.61
416.93	29036.69
417.12	29160.73
417.31	29785.66
417.50	30253.76
417.69	31161.89
417.88	30969.97
418.07	30686.76
418.26	30293.55
418.45	30862.30
418.64	31805.54
418.83	32278.33
419.02	32119.17
419.21	32149.60
419.39	30508.88
419.58	29029.66
419.77	29516.50
419.96	30590.80
420.15	32063.00
420.34	33324.55
420.53	34660.99
420.72	34642.27
420.91	34780.36
421.10	34288.85
421.29	33921.38
421.48	32416.42
421.67	33802.02
421.86	33017.94
422.05	30876.35
422.24	28091.11
422.43	28109.83
422.61	30764.00
422.80	32865.80
422.99	32919.63
423.18	31693.19
423.37	31463.82
423.56	31370.20
423.75	31971.72
423.94	32919.63
424.13	30862.30
424.32	30841.24
424.50	31129.12
424.69	30834.22
424.88	31168.91
425.07	31445.10
425.26	30501.86
425.45	30848.26
425.64	29947.15
425.83	29923.75
426.01	31618.30
426.20	32109.81
426.39	32016.19
426.58	29752.89
426.77	27723.65
426.96	26852.97
427.15	27903.87
427.33	30197.59
427.52	30930.18
427.71	31250.83
427.90	30799.11
428.09	30450.37
428.28	29926.09
428.46	29237.97
428.65	28854.12
428.84	29411.17
429.03	29563.31
429.22	27873.44
429.40	26380.18
429.59	24109.86
429.78	21298.88
429.97	21619.53
430.16	21816.13
430.34	21926.14
430.53	22040.82
430.72	22185.94
430.91	24886.92
431.10	29097.54
431.28	34092.24
431.47	36657.47
431.66	37022.59
431.85	33972.88
432.03	30904.43
432.22	30387.18
432.41	31365.52
432.60	34520.56
432.79	35641.68
432.97	36725.35
433.16	35962.33
433.35	32217.47
433.54	29244.99
433.72	27484.91
433.91	28615.39
434.10	31920.23
434.28	34183.52
434.47	35707.21
434.66	35267.19
434.85	34462.05
435.03	34466.73
435.22	34883.34
435.41	36999.19
435.59	37390.06
435.78	37832.42
435.97	38789.70
436.16	38504.15
436.34	38054.77
436.53	37436.87
436.72	37684.97
436.90	35613.59
437.09	35569.12
437.28	35122.08
437.46	36109.78
437.65	35784.45
437.84	33563.28
438.02	31119.76
438.21	31007.42
438.40	32849.42
438.58	35608.91
438.77	36226.81
438.96	36554.49
439.14	38426.92
439.33	39126.74
439.52	39159.50
439.70	38192.86
439.89	37591.34
440.08	36545.12
440.26	36437.46
440.45	37893.27
440.63	40392.97
440.82	42220.92
441.01	41837.08
441.19	41394.71
441.38	41958.78
441.57	43480.13
441.75	43646.31
441.94	44060.58
442.12	43786.74
442.31	44329.75
442.50	44360.17
442.68	43634.61
442.87	43353.74
443.05	42731.16
443.24	43533.96
443.43	44294.64
443.61	44622.31
443.80	45610.02
443.98	43449.70
444.17	42859.89
444.35	44903.18
444.54	45801.94
444.73	45322.13
444.91	43643.97
445.10	42298.16
445.28	40673.83
445.47	40243.17
445.65	40673.83
445.84	41586.64
446.02	43086.92
446.21	43269.48
446.39	43370.13
446.58	43917.81
446.77	44685.51
446.95	45013.18
447.14	46036.00
447.32	46719.43
447.51	45528.10
447.69	44055.90
447.88	43665.03
448.06	44486.56
448.25	45280.00
448.43	45532.78
448.62	44301.66
448.80	43999.73
448.99	44739.34
449.17	45268.30
449.36	44767.43
449.54	46756.88
449.73	47351.38
449.91	47695.44
450.10	49041.24
450.28	49298.70
450.46	49029.54
450.65	48837.62
450.83	48318.02
451.02	47873.32
451.20	47585.43
451.39	47681.39
451.57	47512.88
451.76	47627.56
451.94	47269.46
452.13	46607.09
452.31	44285.28
452.49	42841.17
452.68	43585.46
452.86	43196.93
453.05	44065.27
453.23	45191.06
453.42	45778.54
453.60	46773.27
453.78	47100.94
453.97	46714.75
454.15	46887.95
454.34	46265.37
454.52	46525.17
454.70	45703.64
454.89	45902.59
455.07	46234.94
455.26	46356.65
455.44	47676.71
455.62	48680.80
455.81	48619.95
455.99	48488.88
456.17	48257.17
456.36	48275.89
456.54	49235.51
456.73	49411.05
456.91	49897.88
457.09	49954.05
457.28	50485.36
457.46	48776.76
457.64	48811.87
457.83	47962.26
458.01	47023.70
458.19	47739.91
458.38	48044.18
458.56	49766.81
458.74	48917.20
458.93	48299.30
459.11	48547.39
459.29	48535.69
459.48	48472.49
459.66	48210.35
459.84	48767.40
460.03	49034.22
460.21	49141.89
460.39	50270.03
460.57	49925.97
460.76	50328.54
460.94	50518.12
461.12	49815.96
461.31	49808.94
461.49	50092.15
461.67	49876.82
461.85	51365.40
462.04	50941.76
462.22	50862.18
462.40	50571.96
462.59	50862.18
462.77	50843.46
462.95	51419.23
463.13	50471.31
463.32	50204.49
463.50	49872.14
463.68	50094.49
463.86	49968.10
464.05	49481.27
464.23	48720.59
464.41	48523.99
464.59	48186.95
464.78	49895.54
464.96	49766.81
465.14	49010.82
465.32	50101.51
465.50	51377.10
465.69	51199.22
465.87	50817.71
466.05	49450.84
466.23	48037.16
466.41	47480.11
466.60	48371.85
466.78	48589.52
466.96	49055.29
467.14	49633.40
467.32	50160.02
467.51	50050.02
467.69	48229.08
467.87	49172.31
468.05	49872.14
468.23	49752.77
468.41	49279.98
468.60	49979.80
468.78	50169.38
468.96	49825.32
469.14	50440.89
469.32	51007.29
469.50	48835.28
469.69	49574.89
469.87	48980.39
470.05	48554.41
470.23	48477.18
470.41	48776.76
470.59	49352.54
470.77	49488.29
470.95	49982.14
471.14	50323.86
471.32	50511.10
471.50	52397.57
471.68	52135.43
471.86	52540.35
472.04	52992.07
472.22	52732.27
472.40	51042.40
472.58	51243.69
472.77	50323.86
472.95	51395.82
473.13	52453.75
473.31	51295.18
473.49	51482.42
473.67	52112.03
473.85	52538.01
474.03	53244.85
474.21	53270.59
474.39	53642.74
474.57	53511.67
474.75	53769.13
474.93	53553.80
475.12	52690.14
475.30	52619.92
475.48	53010.79
475.66	53624.01
475.84	53043.56
476.02	52676.10
476.20	52229.05
476.38	53167.61
476.56	53954.03
476.74	54169.36
476.92	54499.37
477.10	55035.36
477.28	55552.62
477.46	55732.84
477.64	55772.63
477.82	55910.72
478.00	56135.41
478.18	55339.63
478.36	55597.09
478.54	55306.86
478.72	55917.74
478.90	56633.94
479.08	57045.88
479.26	57361.85
479.44	57265.89
479.62	56978.00
479.80	56898.42
479.98	57190.99
480.16	57324.40
480.34	57490.58
480.52	57333.76
480.70	57804.21
480.88	57628.67
481.06	58291.04
481.24	58438.50
481.41	58997.88
481.59	59489.40
481.77	59051.72
481.95	58714.68
482.13	58447.86
482.31	58859.79
482.49	59114.91
482.67	59203.85
482.85	59018.95
483.03	59784.30
483.21	59938.78
483.39	59774.94
483.57	59381.73
483.74	59128.95
483.92	59379.39
484.10	59274.07
484.28	59934.10
484.46	60364.76
484.64	60615.19
484.82	59835.80
485.00	59718.77
485.18	59290.45
485.35	58319.13
485.53	56168.18
485.71	53715.29
485.89	53537.41
486.07	55119.62
486.25	57202.69
486.43	58770.85
486.61	59093.85
486.78	58976.82
486.96	59121.93
487.14	60060.49
487.32	60734.56
487.50	61460.13
487.68	62049.94
487.85	62382.30
488.03	62230.16
488.21	61902.49
488.39	61499.92
488.57	61069.26
488.75	60996.70
488.92	61593.54
489.10	63292.77
489.28	64093.23
489.46	64647.94
489.64	64631.55
489.81	64591.76
489.99	64418.56
490.17	64500.48
490.35	64601.13
490.53	64137.70
490.70	63997.27
490.88	63889.60
491.06	64617.51
491.24	64896.03
491.41	63910.67
491.59	62883.17
491.77	62232.50
491.95	62969.77
492.13	63793.64
492.30	64793.05
492.48	65455.42
492.66	65535.00
492.84	65535.00
493.01	65535.00
493.19	65197.96
493.37	65027.10
493.54	64760.28
493.72	65331.37
493.90	65535.00
494.08	65535.00
494.25	65535.00
494.43	65535.00
494.61	65535.00
494.79	65535.00
494.96	65535.00
495.14	65535.00
495.32	65535.00
495.49	65535.00
495.67	65535.00
495.85	65535.00
496.02	65535.00
496.20	65535.00
496.38	65535.00
496.55	65535.00
496.73	65535.00
496.91	65535.00
497.09	65535.00
497.26	65535.00
497.44	65535.00
497.62	65535.00
497.79	65535.00
497.97	65535.00
498.14	65535.00
498.32	65535.00
498.50	65535.00
498.67	65535.00
498.85	65535.00
499.03	65535.00
499.20	65535.00
499.38	65535.00
499.56	65535.00
499.73	65535.00
499.91	65535.00
500.08	65535.00
500.26	65535.00
500.44	65535.00
500.61	65535.00
500.79	65535.00
500.97	65535.00
501.14	65535.00
501.32	65535.00
501.49	65535.00
501.67	65535.00
501.84	65535.00
502.02	65535.00
502.20	65535.00
502.37	65535.00
502.55	65535.00
502.72	65535.00
502.90	65535.00
503.07	65535.00
503.25	65535.00
503.43	65535.00
503.60	65535.00
503.78	65535.00
503.95	65535.00
504.13	65535.00
504.30	65535.00
504.48	65535.00
504.65	65535.00
504.83	65535.00
505.01	65535.00
505.18	65535.00
505.36	65535.00
505.53	65535.00
505.71	65535.00
505.88	65535.00
506.06	65535.00
506.23	65535.00
506.41	65535.00
506.58	65535.00
506.76	65535.00
506.93	65535.00
507.11	65535.00
507.28	65535.00
507.46	65535.00
507.63	65535.00
507.81	65535.00
507.98	65535.00
508.16	65535.00
508.33	65535.00
508.50	65535.00
508.68	65535.00
508.85	65535.00
509.03	65535.00
509.20	65535.00
509.38	65535.00
509.55	65535.00
509.73	65535.00
509.90	65535.00
510.08	65535.00
510.25	65535.00
510.42	65535.00
510.60	65535.00
510.77	65535.00
510.95	65535.00
511.12	65535.00
511.30	65535.00
511.47	65535.00
511.64	65535.00
511.82	65535.00
511.99	65535.00
512.17	65535.00
512.34	65535.00
512.51	65535.00
512.69	65535.00
512.86	65535.00
513.04	65535.00
513.21	65535.00
513.38	65535.00
513.56	65535.00
513.73	65535.00
513.90	65535.00
514.08	65535.00
514.25	65535.00
514.43	65535.00
514.60	65535.00
514.77	65535.00
514.95	65535.00
515.12	65535.00
515.29	65535.00
515.47	65535.00
515.64	65535.00
515.81	65535.00
515.99	65535.00
516.16	65535.00
516.33	65535.00
516.51	65535.00
516.68	64397.50
516.85	63910.67
517.03	64322.60
517.20	65535.00
517.37	65535.00
517.54	65535.00
517.72	65535.00
517.89	65535.00
518.06	65535.00
518.24	65359.46
518.41	65535.00
518.58	65535.00
518.75	65535.00
518.93	65535.00
519.10	65535.00
519.27	65535.00
519.45	65535.00
519.62	65535.00
519.79	65535.00
519.96	65535.00
520.14	65535.00
520.31	65535.00
520.48	65535.00
520.65	65535.00
520.83	65535.00
521.00	65535.00
521.17	65535.00
521.34	65535.00
521.52	65535.00
521.69	65535.00
521.86	65535.00
522.03	65535.00
522.20	65535.00
522.38	65535.00
522.55	65535.00
522.72	65535.00
522.89	65535.00
523.07	65535.00
523.24	65535.00
523.41	65535.00
523.58	65535.00
523.75	65535.00
523.92	65535.00
524.10	65535.00
524.27	65535.00
524.44	65535.00
524.61	65535.00
524.78	65535.00
524.96	65535.00
525.13	65535.00
525.30	65535.00
525.47	65535.00
525.64	65535.00
525.81	65535.00
525.98	65535.00
526.16	65535.00
526.33	65535.00
526.50	65535.00
526.67	65535.00
526.84	65535.00
527.01	65535.00
527.18	65535.00
527.36	65535.00
527.53	65535.00
527.70	65535.00
527.87	65535.00
528.04	65535.00
528.21	65535.00
528.38	65535.00
528.55	65535.00
528.72	65535.00
528.89	65535.00
529.07	65535.00
529.24	65535.00
529.41	65535.00
529.58	65535.00
529.75	65535.00
529.92	65535.00
530.09	65535.00
530.26	65535.00
530.43	65535.00
530.60	65535.00
530.77	65535.00
530.94	65535.00
531.11	65535.00
531.28	65535.00
531.46	65535.00
531.63	65535.00
531.80	65535.00
531.97	65535.00
532.14	65535.00
532.31	65535.00
532.48	65535.00
532.65	65535.00
532.82	65535.00
532.99	65535.00
533.16	65535.00
533.33	65535.00
533.50	65535.00
533.67	65535.00
533.84	65535.00
534.01	65535.00
534.18	65535.00
534.35	65535.00
534.52	65535.00
534.69	65535.00
534.86	65535.00
535.03	65535.00
535.20	65535.00
535.37	65535.00
535.54	65535.00
535.71	65535.00
535.88	65535.00
536.05	65535.00
536.22	65535.00
536.38	65535.00
536.55	65535.00
536.72	65535.00
536.89	65535.00
537.06	65535.00
537.23	65535.00
537.40	65535.00
537.57	65535.00
537.74	65535.00
537.91	65535.00
538.08	65535.00
538.25	65535.00
538.42	65535.00
538.59	65535.00
538.75	65535.00
538.92	65535.00
539.09	65535.00
539.26	65535.00
539.43	65535.00
539.60	65535.00
539.77	65535.00
539.94	65535.00
540.11	65535.00
540.28	65535.00
540.44	65535.00
540.61	65535.00
540.78	65535.00
540.95	65535.00
541.12	65535.00
541.29	65535.00
541.46	65535.00
541.62	65535.00
541.79	65535.00
541.96	65535.00
542.13	65535.00
542.30	65535.00
542.47	65535.00
542.63	65535.00
542.80	65535.00
542.97	65535.00
543.14	65535.00
543.31	65535.00
543.48	65535.00
543.64	65535.00
543.81	65535.00
543.98	65535.00
544.15	65535.00
544.32	65535.00
544.48	65535.00
544.65	65535.00
544.82	65535.00
544.99	65535.00
545.16	65535.00
545.32	65535.00
545.49	65535.00
545.66	65535.00
545.83	65535.00
546.00	65535.00
546.16	65535.00
546.33	65535.00
546.50	65535.00
546.67	65535.00
546.83	65535.00
547.00	65535.00
547.17	65535.00
547.34	65535.00
547.50	65535.00
547.67	65535.00
547.84	65535.00
548.00	65535.00
548.17	65535.00
548.34	65535.00
548.51	65535.00
548.67	65535.00
548.84	65535.00
549.01	65535.00
549.18	65535.00
549.34	65535.00
549.51	65535.00
549.68	65535.00
549.84	65535.00
550.01	65535.00
550.18	65535.00
550.34	65535.00
550.51	65535.00
550.68	65535.00
550.84	65535.00
551.01	65535.00
551.18	65535.00
551.34	65535.00
551.51	65535.00
551.68	65535.00
551.84	65535.00
552.01	65535.00
552.18	65535.00
552.34	65535.00
552.51	65535.00
552.68	65535.00
552.84	65535.00
553.01	65535.00
553.18	65535.00
553.34	65535.00
553.51	65535.00
553.67	65535.00
553.84	65535.00
554.01	65535.00
554.17	65535.00
554.34	65535.00
554.51	65535.00
554.67	65535.00
554.84	65535.00
555.00	65535.00
555.17	65535.00
555.33	65535.00
555.50	65535.00
555.67	65535.00
555.83	65535.00
556.00	65535.00
556.16	65535.00
556.33	65535.00
556.50	65535.00
556.66	65535.00
556.83	65535.00
556.99	65535.00
557.16	65535.00
557.32	65535.00
557.49	65535.00
557.65	65535.00
557.82	65535.00
557.98	65535.00
558.15	65535.00
558.32	65535.00
558.48	65535.00
558.65	65535.00
558.81	65535.00
558.98	65535.00
559.14	65535.00
559.31	65535.00
559.47	65535.00
559.64	65535.00
559.80	65535.00
559.97	65535.00
560.13	65535.00
560.30	65535.00
560.46	65535.00
560.63	65535.00
560.79	65535.00
560.96	65535.00
561.12	65535.00
561.29	65535.00
561.45	65535.00
561.61	65535.00
561.78	65535.00
561.94	65535.00
562.11	65535.00
562.27	65535.00
562.44	65535.00
562.60	65535.00
562.77	65535.00
562.93	65535.00
563.10	65535.00
563.26	65535.00
563.42	65535.00
563.59	65535.00
563.75	65535.00
563.92	65535.00
564.08	65535.00
564.24	65535.00
564.41	65535.00
564.57	65535.00
564.74	65535.00
564.90	65535.00
565.07	65535.00
565.23	65535.00
565.39	65535.00
565.56	65535.00
565.72	65535.00
565.88	65535.00
566.05	65535.00
566.21	65535.00
566.38	65535.00
566.54	65535.00
566.70	65535.00
566.87	65535.00
567.03	65535.00
567.19	65535.00
567.36	65535.00
567.52	65535.00
567.68	65535.00
567.85	65535.00
568.01	65535.00
568.17	65305.63
568.34	65506.91
568.50	65235.41
568.66	65457.76
568.83	65535.00
568.99	65535.00
569.15	65535.00
569.32	65535.00
569.48	65535.00
569.64	65535.00
569.81	65417.97
569.97	65247.11
570.13	65326.69
570.30	64851.56
570.46	64694.75
570.62	64301.54
570.78	64217.28
570.95	64549.63
571.11	65062.21
571.27	65059.87
571.43	65148.81
571.60	65357.12
571.76	65535.00
571.92	65535.00
572.09	65535.00
572.25	65535.00
572.41	65535.00
572.57	65535.00
572.74	65535.00
572.90	65366.48
573.06	65380.52
573.22	65291.58
573.38	65322.01
573.55	65516.28
573.71	65535.00
573.87	65464.78
574.03	65296.27
574.20	65394.57
574.36	65073.91
574.52	65045.83
574.68	64814.12
574.84	64353.03
575.01	64170.47
575.17	64207.92
575.33	64493.46
575.49	64690.07
575.65	64886.67
575.82	64360.05
575.98	64306.22
576.14	64413.88
576.30	64615.17
576.46	64814.12
576.62	64762.62
576.79	64680.70
576.95	64472.40
577.11	64563.68
577.27	64500.48
577.43	64493.46
577.59	64191.53
577.75	64013.65
577.92	63360.64
578.08	63313.83
578.24	63409.79
578.40	63765.56
578.56	63756.19
578.72	63803.00
578.88	64133.02
579.04	64067.48
579.21	64245.36
579.37	64018.33
579.53	64322.60
579.69	64149.40
579.85	64381.12
580.01	64205.58
580.17	63763.21
580.33	63557.25
580.49	64053.44
580.65	64081.53
580.82	64252.39
580.98	64296.86
581.14	63983.22
581.30	64170.47
581.46	64114.29
581.62	64392.82
581.78	64346.01
581.94	64547.29
582.10	64434.95
582.26	64502.82
582.42	64509.85
582.58	64575.38
582.74	64563.68
582.90	64444.31
583.06	64313.24
583.22	64102.59
583.38	64217.28
583.54	64041.74
583.70	64030.04
583.86	64046.42
584.02	63917.69
584.18	64149.40
584.34	63983.22
584.50	64015.99
584.66	63842.79
584.82	63379.37
584.98	63430.86
