SpectraSuite Data File
++++++++++++++++++++++++++++++++++++
Date: Mon Oct 07 14:54:58 GMT-05:00 2013
User: price-jones
Dark Spectrum Present: No
Reference Spectrum Present: No
Number of Sampled Component Spectra: 1
Spectrometers: USB2+H05261
Integration Time (usec): 10000 (USB2+H05261)
Spectra Averaged: 1 (USB2+H05261)
Boxcar Smoothing: 0 (USB2+H05261)
Correct for Electrical Dark: No (USB2+H05261)
Strobe/Lamp Enabled: No (USB2+H05261)
Correct for Detector Non-linearity: No (USB2+H05261)
Correct for Stray Light: No (USB2+H05261)
Number of Pixels in Processed Spectrum: 2048
>>>>>Begin Processed Spectral Data<<<<<
365.73	0.00
365.92	0.00
366.12	0.00
366.32	0.00
366.52	0.00
366.72	0.00
366.91	0.00
367.11	0.00
367.31	0.00
367.51	0.00
367.70	0.00
367.90	0.00
368.10	0.00
368.30	0.00
368.49	0.00
368.69	0.00
368.89	0.00
369.09	0.00
369.28	0.00
369.48	0.00
369.68	0.00
369.87	0.00
370.07	0.00
370.27	0.00
370.47	203.63
370.66	1423.05
370.86	1750.72
371.06	1689.87
371.25	1624.33
371.45	1530.71
371.65	1378.58
371.84	1399.64
372.04	1413.68
372.24	1624.33
372.44	1673.48
372.63	1600.93
372.83	1476.88
373.03	1348.15
373.22	1266.23
373.42	1437.09
373.62	1535.39
373.81	1685.19
374.01	1631.35
374.21	1427.73
374.40	1378.58
374.60	1444.11
374.79	1760.08
374.99	2029.24
375.19	2015.20
375.38	2078.40
375.58	1914.56
375.78	1940.30
375.97	1923.92
376.17	2062.01
376.37	2183.72
376.56	2197.76
376.76	2263.30
376.95	2448.20
377.15	2544.16
377.35	2560.55
377.54	2745.45
377.74	2743.11
377.93	2759.49
378.13	2698.64
378.33	2487.99
378.52	2352.24
378.72	2253.94
378.91	2195.42
379.11	2188.40
379.31	2141.59
379.50	2033.93
379.70	2265.64
379.89	2513.74
380.09	2616.72
380.28	2738.43
380.48	2733.75
380.68	2633.10
380.87	2429.48
381.07	2368.62
381.26	2160.31
381.46	2043.29
381.65	1874.77
381.85	1870.09
382.04	1774.13
382.24	1774.13
382.43	1610.29
382.63	1554.12
382.83	1685.19
383.02	1558.80
383.22	1434.75
383.41	1631.35
383.61	1856.04
383.80	2085.42
384.00	2385.01
384.19	2579.27
384.39	2675.23
384.58	2651.83
384.78	2722.04
384.97	2607.36
385.17	2499.69
385.36	2312.45
385.56	2197.76
385.75	2347.56
385.95	2614.38
386.14	2567.57
386.34	2738.43
386.53	2551.18
386.72	2513.74
386.92	2555.86
387.11	2586.29
387.31	2743.11
387.50	2775.88
387.70	2654.17
387.89	2637.78
388.09	2693.96
388.28	2560.55
388.48	2768.85
388.67	2920.99
388.86	3262.71
389.06	3478.04
389.25	3524.85
389.45	3707.41
389.64	3744.86
389.84	3606.77
390.03	3487.40
390.22	3592.72
390.42	3775.28
390.61	3885.29
390.81	4088.92
391.00	4283.18
391.19	4086.58
391.39	4025.72
391.58	3761.24
391.78	3517.83
391.97	3517.83
392.16	3148.02
392.36	2640.12
392.55	2120.53
392.75	1671.14
392.94	1530.71
393.13	1479.22
393.33	1912.22
393.52	2434.16
393.71	2967.80
393.91	3300.16
394.10	3552.93
394.29	3990.61
394.49	4079.55
394.68	4402.55
394.88	4407.23
395.07	4524.26
395.26	4596.81
395.46	4257.43
395.65	3976.57
395.84	3274.41
396.04	2773.53
396.23	2188.40
396.42	1952.01
396.62	2015.20
396.81	2562.89
397.00	3150.36
397.19	3936.78
397.39	4863.63
397.58	5050.88
397.77	5193.65
397.97	5516.64
398.16	5535.37
398.35	5809.21
398.55	5966.03
398.74	6361.58
398.93	6380.30
399.12	6291.36
399.32	6094.76
399.51	6366.26
399.70	6539.46
399.90	6459.88
400.09	6410.73
400.28	6607.33
400.47	6441.15
400.67	6785.21
400.86	7016.93
401.05	7253.32
401.24	7012.24
401.44	7187.79
401.63	7002.88
401.82	7269.70
402.01	7155.02
402.21	7204.17
402.40	7300.13
402.59	7014.59
402.78	6729.04
402.97	6497.33
403.17	6953.73
403.36	7241.62
403.55	7265.02
403.74	7585.68
403.93	7199.49
404.13	6583.93
404.32	6703.29
404.51	7009.90
404.70	7489.71
404.89	7384.39
405.09	7309.49
405.28	7045.01
405.47	7138.63
405.66	7148.00
405.85	6810.96
406.05	6771.17
406.24	6892.88
406.43	7033.31
406.62	7332.90
406.81	7293.11
407.00	6939.69
407.20	6682.23
407.39	6890.54
407.58	7421.84
407.77	7831.43
407.96	7742.49
408.15	7810.37
408.34	8114.64
408.54	8255.07
408.73	8414.23
408.92	8191.88
409.11	7885.26
409.30	7662.91
409.49	7005.22
409.68	6630.74
409.87	6843.73
410.07	7218.21
410.26	7541.21
410.45	7918.03
410.64	8257.41
410.83	8313.58
411.02	8667.00
411.21	9034.47
411.40	8659.98
411.59	8898.72
411.78	8669.34
411.98	8446.99
412.17	8697.43
412.36	8692.75
412.55	8702.11
412.74	8229.32
412.93	8196.56
413.12	8421.25
413.31	9200.65
413.50	9357.46
413.69	9310.65
413.88	8748.92
414.07	8847.22
414.26	9055.53
414.45	9434.70
414.64	9273.20
414.83	9280.22
415.02	9144.47
415.22	9263.84
415.41	9490.87
415.60	9621.94
415.79	10066.64
415.98	10274.95
416.17	9940.26
416.36	9703.86
416.55	9767.06
416.74	9444.06
416.93	9327.03
417.12	9411.29
417.31	9362.14
417.50	9474.49
417.69	9542.36
417.88	9731.95
418.07	9605.56
418.26	9486.19
418.45	9930.89
418.64	10153.24
418.83	10506.66
419.02	10057.28
419.21	9795.14
419.39	9493.21
419.58	9088.30
419.77	9277.88
419.96	9905.15
420.15	10118.14
420.34	10656.46
420.53	10972.43
420.72	11250.96
420.91	10635.39
421.10	10544.11
421.29	10661.14
421.48	10223.46
421.67	10593.26
421.86	10221.12
422.05	9310.65
422.24	8645.94
422.43	8898.72
422.61	9715.56
422.80	10176.65
422.99	10080.69
423.18	9841.95
423.37	9715.56
423.56	10104.09
423.75	10115.80
423.94	10609.65
424.13	9685.14
424.32	9490.87
424.50	9596.20
424.69	9664.07
424.88	9832.59
425.07	9628.96
425.26	9612.58
425.45	9430.02
425.64	9441.72
425.83	9701.52
426.01	10026.86
426.20	10076.01
426.39	9856.00
426.58	9100.00
426.77	8521.89
426.96	8428.27
427.15	8830.84
427.33	9502.58
427.52	9778.76
427.71	10001.11
427.90	9458.10
428.09	9525.98
428.28	9554.07
428.46	9118.73
428.65	9259.16
428.84	9322.35
429.03	9338.74
429.22	8606.15
429.40	8039.74
429.59	7349.28
429.78	6612.01
429.97	6750.10
430.16	6640.10
430.34	6679.89
430.53	6743.08
430.72	7283.75
430.91	7908.67
431.10	9455.76
431.28	10815.62
431.47	11290.74
431.66	11400.75
431.85	10001.11
432.03	9390.23
432.22	9483.85
432.41	10246.87
432.60	10888.17
432.79	11194.78
432.97	11325.85
433.16	11171.38
433.35	9914.51
433.54	8762.97
433.72	8704.45
433.91	9116.39
434.10	10216.44
434.28	10972.43
434.47	10960.73
434.66	10677.52
434.85	10572.20
435.03	10906.90
435.22	11211.17
435.41	11307.13
435.59	11566.93
435.78	11686.29
435.97	11925.03
436.16	11747.15
436.34	11854.81
436.53	11845.45
436.72	11859.49
436.90	10815.62
437.09	11119.89
437.28	11061.37
437.46	11279.04
437.65	11094.14
437.84	10265.59
438.02	9628.96
438.21	9802.16
438.40	10492.62
438.58	11136.27
438.77	11218.19
438.96	11253.30
439.14	12229.30
439.33	11899.28
439.52	12208.23
439.70	11770.55
439.89	11351.60
440.08	11426.50
440.26	11473.31
440.45	11758.85
440.63	12872.95
440.82	13275.52
441.01	13006.36
441.19	13149.13
441.38	13303.60
441.57	13518.93
441.75	13355.10
441.94	13738.94
442.12	13731.92
442.31	14366.21
442.50	14232.80
442.68	13722.56
442.87	13612.56
443.05	13476.80
443.24	14029.17
443.43	14026.83
443.61	14143.86
443.80	14441.11
443.98	13437.02
444.17	14043.21
444.35	14476.21
444.54	14476.21
444.73	14558.13
444.91	13888.74
445.10	12966.57
445.28	12776.98
445.47	12348.67
445.65	12554.63
445.84	13020.40
446.02	13474.46
446.21	13727.24
446.39	13961.30
446.58	14129.81
446.77	14345.14
446.95	14445.79
447.14	14684.52
447.32	14803.89
447.51	14513.66
447.69	13687.45
447.88	13617.24
448.06	13923.85
448.25	14141.52
448.43	14080.66
448.62	13767.03
448.80	13881.72
448.99	13940.23
449.17	14384.93
449.36	14420.04
449.54	14516.00
449.73	15227.53
449.91	15005.17
450.10	15412.43
450.28	15831.38
450.46	15279.02
450.65	15166.67
450.83	15372.64
451.02	15112.84
451.20	14731.33
451.39	14899.85
451.57	14710.27
451.76	14862.40
451.94	14616.65
452.13	14230.46
452.31	13521.27
452.49	13338.71
452.68	13556.38
452.86	13692.13
453.05	13769.37
453.23	14270.25
453.42	14480.89
453.60	14476.21
453.78	14923.26
453.97	14569.83
454.15	14396.64
454.34	13900.44
454.52	14230.46
454.70	14279.61
454.89	14246.84
455.07	14218.75
455.26	14518.34
455.44	15000.49
455.62	15030.92
455.81	15349.23
455.99	14941.98
456.17	15363.28
456.36	15077.73
456.54	15667.55
456.73	15538.82
456.91	15765.85
457.09	15887.56
457.28	15974.16
457.46	15386.68
457.64	15499.03
457.83	14754.74
458.01	14614.30
458.19	15150.29
458.38	15183.06
458.56	15328.17
458.74	15459.24
458.93	15087.09
459.11	15190.08
459.29	14934.96
459.48	14888.15
459.66	15070.71
459.84	14794.53
460.03	15679.25
460.21	15592.65
460.39	15815.00
460.57	15807.98
460.76	15971.82
460.94	16168.42
461.12	15779.89
461.31	15763.51
461.49	15857.13
461.67	15978.84
461.85	15985.86
462.04	16102.89
462.22	16273.74
462.40	16348.64
462.59	16128.63
462.77	15765.85
462.95	15981.18
463.13	16219.91
463.32	15974.16
463.50	15386.68
463.68	15779.89
463.86	15845.43
464.05	15880.53
464.23	14963.04
464.41	14787.50
464.59	14796.87
464.78	15051.99
464.96	15419.45
465.14	15178.37
465.32	15669.89
465.50	16126.29
465.69	16449.28
465.87	15665.21
466.05	15213.48
466.23	14906.87
466.41	14850.70
466.60	15391.36
466.78	15087.09
466.96	15384.34
467.14	15433.49
467.32	15365.62
467.51	15482.64
467.69	14934.96
467.87	15096.46
468.05	15761.17
468.23	15482.64
468.41	15641.80
468.60	15627.76
468.78	15548.18
468.96	15658.18
469.14	16074.80
469.32	16025.65
469.50	14927.94
469.69	15054.33
469.87	14895.17
470.05	15089.43
470.23	15152.63
470.41	15349.23
470.59	15342.21
470.77	15136.24
470.95	15562.22
471.14	15625.42
471.32	16102.89
471.50	16987.61
471.68	16753.55
471.86	17235.70
472.04	16898.67
472.22	16688.02
472.40	16074.80
472.58	16453.97
472.77	15864.15
472.95	16496.10
473.13	16645.89
473.31	16381.41
473.49	16205.87
473.67	16769.94
473.85	16304.17
474.03	16718.45
474.21	16872.92
474.39	17291.88
474.57	16877.60
474.75	17128.04
474.93	17399.54
475.12	16947.82
475.30	16985.27
475.48	16912.71
475.66	17032.08
475.84	16931.44
476.02	16856.54
476.20	16617.80
476.38	16575.67
476.56	17385.50
476.74	17898.08
476.92	18125.11
477.10	18118.09
477.28	18647.05
477.46	18546.40
477.64	18609.60
477.82	18506.62
478.00	18731.31
478.18	18590.88
478.36	18462.15
478.54	18057.23
478.72	18616.62
478.90	19489.64
479.08	19384.32
479.26	19346.87
479.44	18911.53
479.62	19604.33
479.80	19990.52
479.98	19943.70
480.16	19681.56
480.34	19473.26
480.52	19623.05
480.70	19604.33
480.88	19913.28
481.06	20594.37
481.24	20601.40
481.41	21064.82
481.59	21563.36
481.77	21022.69
481.95	20601.40
482.13	21067.16
482.31	20503.09
482.49	21268.45
482.67	20599.05
482.85	20940.77
483.03	20968.86
483.21	21348.03
483.39	21635.91
483.57	21362.07
483.74	20961.84
483.92	21249.72
484.10	21469.73
484.28	21673.36
484.46	22057.21
484.64	21539.95
484.82	21481.44
485.00	21603.14
485.18	20580.33
485.35	19992.86
485.53	17497.84
485.71	16657.59
485.89	17015.69
486.07	18040.85
486.25	19494.32
486.43	20383.73
486.61	19637.09
486.78	20262.02
486.96	20912.69
487.14	21930.82
487.32	22300.62
487.50	22396.59
487.68	22153.17
487.85	23658.14
488.03	23489.62
488.21	22724.26
488.39	21774.00
488.57	22377.86
488.75	22480.85
488.92	23704.95
489.10	25385.45
489.28	25207.57
489.46	26026.76
489.64	26295.92
489.81	26036.12
489.99	25008.62
490.17	25724.83
490.35	26417.63
490.53	25294.17
490.70	25450.99
490.88	25666.31
491.06	26654.02
491.24	26155.49
491.41	24802.66
491.59	24074.75
491.77	23604.30
491.95	24776.91
492.13	25090.54
492.30	25781.00
492.48	27213.41
492.66	27498.95
492.84	26396.56
493.01	26616.57
493.19	25998.67
493.37	24919.68
493.54	25514.18
493.72	26342.73
493.90	27349.16
494.08	28198.77
494.25	28725.39
494.43	28950.09
494.61	29694.38
494.79	29518.84
494.96	29144.35
495.14	27733.01
495.32	26813.18
495.49	26869.35
495.67	27707.26
495.85	29336.27
496.02	29214.57
496.20	29493.09
496.38	29022.64
496.55	29032.00
496.73	29284.78
496.91	28861.15
497.09	29266.06
497.26	29579.69
497.44	29879.28
497.62	29088.18
497.79	28320.48
497.97	27213.41
498.14	27503.64
498.32	28652.84
498.50	28989.88
498.67	30286.53
498.85	29600.76
499.03	29177.12
499.20	29385.43
499.38	29193.50
499.56	28559.22
499.73	28383.68
499.91	28182.39
500.08	27550.45
500.26	27131.49
500.44	28067.70
500.61	28795.61
500.79	27807.90
500.97	27686.20
501.14	27903.87
501.32	26843.60
501.49	27000.42
501.67	27840.67
501.84	28971.15
502.02	28526.45
502.20	28746.46
502.37	29745.87
502.55	29907.37
502.72	30340.36
502.90	30408.24
503.07	29888.64
503.25	29284.78
503.43	28755.82
503.60	27831.31
503.78	27227.45
503.95	28379.00
504.13	28402.40
504.30	30003.33
504.48	30401.22
504.65	29724.80
504.83	29694.38
505.01	29284.78
505.18	29593.73
505.36	31175.94
505.53	31077.63
505.71	31412.33
505.88	31688.51
506.06	31115.08
506.23	30295.89
506.41	29757.57
506.58	30455.05
506.76	29647.57
506.93	30258.45
507.11	28673.90
507.28	29680.33
507.46	29432.24
507.63	28840.08
507.81	28077.07
507.98	28751.14
508.16	29965.88
508.33	30728.89
508.50	30092.27
508.68	30857.62
508.85	31473.18
509.03	30902.09
509.20	30059.50
509.38	29795.02
509.55	29626.50
509.73	30118.01
509.90	30668.04
510.08	29752.89
510.25	29596.07
510.42	29642.88
510.60	29659.27
510.77	30794.43
510.95	31220.41
511.12	30125.04
511.30	30707.83
511.47	31875.76
511.64	30883.37
511.82	31339.77
511.99	29816.08
512.17	29799.70
512.34	30038.44
512.51	29352.66
512.69	29539.90
512.86	30377.81
513.04	30206.95
513.21	30644.63
513.38	30209.29
513.56	29579.69
513.73	28182.39
513.90	28107.49
514.08	28814.34
514.25	29062.43
514.43	29605.44
514.60	30197.59
514.77	29699.06
514.95	29996.31
515.12	29827.79
515.29	30637.61
515.47	30677.40
515.64	30251.42
515.81	30864.64
515.99	29535.22
516.16	27517.68
516.33	25408.86
516.51	24137.94
516.68	23852.40
516.85	23096.41
517.03	23974.11
517.20	26218.68
517.37	28519.43
517.54	28423.47
517.72	27040.21
517.89	25891.01
518.06	25294.17
518.24	25579.71
518.41	27239.15
518.58	28175.37
518.75	28353.25
518.93	28652.84
519.10	27983.44
519.27	28194.09
519.45	29137.33
519.62	29514.16
519.79	30426.96
519.96	29937.79
520.14	29198.18
520.31	28470.28
520.48	28383.68
520.65	28952.43
520.83	29656.93
521.00	29598.41
521.17	29137.33
521.34	28905.62
521.52	29118.60
521.69	30029.07
521.86	30148.44
522.03	29226.27
522.20	28325.16
522.38	27435.76
522.55	27730.67
522.72	28245.58
522.89	28245.58
523.07	28854.12
523.24	29282.44
523.41	29989.28
523.58	29823.11
523.75	29631.18
523.92	30632.93
524.10	30361.43
524.27	30223.34
524.44	30174.19
524.61	30934.86
524.78	30902.09
524.96	30092.27
525.13	29715.44
525.30	31112.74
525.47	31449.78
525.64	30710.17
525.81	28790.93
525.98	27255.54
526.16	25930.80
526.33	26082.93
526.50	26471.46
526.67	26188.25
526.84	26359.11
527.01	27342.14
527.18	28376.66
527.36	29008.60
527.53	30143.76
527.70	29486.07
527.87	27976.42
528.04	28161.33
528.21	29144.35
528.38	29771.61
528.55	31159.55
528.72	30651.66
528.89	30380.15
529.07	30534.63
529.24	29149.03
529.41	29209.89
529.58	28505.38
529.75	28716.03
529.92	28872.85
530.09	29448.62
530.26	29284.78
530.43	28835.40
530.60	30167.16
530.77	30600.16
530.94	30984.01
531.11	29996.31
531.28	29788.00
531.46	29443.94
531.63	30213.98
531.80	30682.08
531.97	29020.30
532.14	27604.28
532.31	26270.17
532.48	25937.82
532.65	26132.08
532.82	27257.88
532.99	28444.53
533.16	29731.83
533.33	30934.86
533.50	29708.42
533.67	28364.95
533.84	28657.52
534.01	29015.62
534.18	28800.29
534.35	28596.67
534.52	28847.10
534.69	28907.96
534.86	29024.98
535.03	29287.12
535.20	30244.40
535.37	29802.04
535.54	30054.82
535.71	29064.77
535.88	29516.50
536.05	28629.43
536.22	28053.66
536.38	27744.71
536.55	28252.61
536.72	27789.18
536.89	27695.56
537.06	28371.97
537.23	29067.11
537.40	28636.45
537.57	28517.09
537.74	28044.30
537.91	28205.80
538.08	29188.82
538.25	29081.16
538.42	28348.57
538.59	28804.97
538.75	28725.39
538.92	28435.17
539.09	27566.83
539.26	26485.50
539.43	26331.03
539.60	26864.67
539.77	26712.53
539.94	26075.91
540.11	25385.45
540.28	24823.72
540.44	25647.59
540.61	26370.82
540.78	26059.52
540.95	27222.77
541.12	27016.80
541.29	27934.29
541.46	27215.75
541.62	27615.98
541.79	26923.18
541.96	26618.91
542.13	27367.88
542.30	27358.52
542.47	27573.85
542.63	27143.19
542.80	26410.60
542.97	26436.35
543.14	26111.02
543.31	26316.98
543.48	27821.95
543.64	27946.00
543.81	28917.32
543.98	27749.39
544.15	27400.65
544.32	26621.25
544.48	27391.29
544.65	26661.04
544.82	26810.84
544.99	27075.32
545.16	26881.05
545.32	27569.17
545.49	27866.42
545.66	28032.60
545.83	27398.31
546.00	27243.84
546.16	26778.07
546.33	27049.57
546.50	27386.61
546.67	27061.27
546.83	26874.03
547.00	26412.95
547.17	26244.43
547.34	26541.68
547.50	26499.55
547.67	26391.88
547.84	26466.78
548.00	26668.06
548.17	26274.85
548.34	26118.04
548.51	26270.17
548.67	27878.12
548.84	27096.38
549.01	27136.17
549.18	26885.73
549.34	27777.48
549.51	27599.60
549.68	27187.66
549.84	26314.64
550.01	26721.90
550.18	25687.38
550.34	26073.57
550.51	26068.89
550.68	25373.75
550.84	24854.15
551.01	25064.80
551.18	24744.14
551.34	24952.45
551.51	26010.37
551.68	27110.43
551.84	26094.63
552.01	26146.12
552.18	25530.56
552.34	25273.10
552.51	25376.09
552.68	26277.19
552.84	25448.64
553.01	25802.07
553.18	26721.90
553.34	26883.39
553.51	26457.42
553.67	26256.13
553.84	27040.21
554.01	27091.70
554.17	25458.01
554.34	26408.26
554.51	26768.71
554.67	26515.93
554.84	25713.13
555.00	25706.10
555.17	25771.64
555.33	25865.26
555.50	26717.22
555.67	26061.87
555.83	26391.88
556.00	25656.95
556.16	25692.06
556.33	25046.07
556.50	24861.17
556.66	24435.19
556.83	23946.02
556.99	24364.98
557.16	24961.81
557.32	25160.76
557.49	24596.69
557.65	25095.22
557.82	24098.16
557.98	24584.99
558.15	25017.99
558.32	24245.61
558.48	23293.01
558.65	23190.03
558.81	23503.66
558.98	23489.62
559.14	24126.24
559.31	24702.01
559.47	23660.48
559.64	23711.97
559.80	24580.31
559.97	24142.63
560.13	24669.25
560.30	24716.06
560.46	24620.10
560.63	25137.35
560.79	25495.46
560.96	24723.08
561.12	23821.97
561.29	23515.36
561.45	23571.54
561.61	23566.85
561.78	23381.95
561.94	23805.59
562.11	23625.37
562.27	23758.78
562.44	24287.74
562.60	23976.45
562.77	24250.29
562.93	23917.93
563.10	23534.09
563.26	23328.12
563.42	23133.86
563.59	22867.03
563.75	23756.44
563.92	23892.19
564.08	23524.72
564.24	23522.38
564.41	22223.39
564.57	22941.93
564.74	22794.48
564.90	22448.08
565.07	22302.96
565.23	21603.14
565.39	21759.96
565.56	22675.11
565.72	22525.32
565.88	23171.30
566.05	22478.50
566.21	22422.33
566.38	22017.42
566.54	22544.04
566.70	22054.87
566.87	22349.78
567.03	23941.34
567.19	24004.53
567.36	22707.88
567.52	23477.91
567.68	22759.37
567.85	22504.25
568.01	22642.34
568.17	21568.04
568.34	20943.11
568.50	21111.63
568.66	21816.13
568.83	21776.34
568.99	22539.36
569.15	22579.15
569.32	22501.91
569.48	21998.70
569.64	21577.40
569.81	21146.74
569.97	21607.83
570.13	21729.53
570.30	21687.40
570.46	21259.09
570.62	20112.22
570.78	19309.42
570.95	20156.69
571.11	20805.02
571.27	21062.48
571.43	20793.32
571.60	21233.34
571.76	21633.57
571.92	21869.97
572.09	22075.93
572.25	21678.04
572.41	22324.03
572.57	22251.47
572.74	21397.18
572.90	21479.10
573.06	21429.94
573.22	21158.44
573.38	21083.55
573.55	20676.29
573.71	21247.38
573.87	21350.37
574.03	21429.94
574.20	21233.34
574.36	21001.63
574.52	20898.64
574.68	20372.02
574.84	20404.79
575.01	20856.51
575.17	21008.65
575.33	20552.24
575.49	20475.01
575.65	20503.09
575.82	20575.65
575.98	20355.64
576.14	20910.35
576.30	20673.95
576.46	20187.12
576.62	20854.17
576.79	20556.93
576.95	20058.39
577.11	19594.96
577.27	19609.01
577.43	19737.74
577.59	19840.72
577.75	20332.23
577.92	19527.09
578.08	19400.70
578.24	19126.86
578.40	19491.98
578.56	19440.49
578.72	19779.87
578.88	20144.99
579.04	19690.93
579.21	19960.09
579.37	20140.31
579.53	19513.05
579.69	19461.55
579.85	19176.01
580.01	19014.51
580.17	19417.08
580.33	19356.23
580.49	19192.39
580.65	19758.80
580.82	19709.65
580.98	19484.96
581.14	19278.99
581.30	20372.02
581.46	19770.51
581.62	19466.24
581.78	20128.61
581.94	20252.66
582.10	19955.41
582.26	20034.99
582.42	19782.21
582.58	20343.94
582.74	20063.07
582.90	19620.71
583.06	20039.67
583.22	19679.22
583.38	19962.43
583.54	19901.58
583.70	19936.68
583.86	19995.20
584.02	20032.65
584.18	19728.38
584.34	20023.28
584.50	20428.20
584.66	20163.72
584.82	20009.24
584.98	19470.92
585.14	18829.61
585.30	18497.25
585.46	18302.99
585.62	17825.52
585.78	18464.49
585.94	18590.88
586.10	19140.90
586.26	18815.57
586.42	19033.24
586.58	19152.60
586.74	18412.99
586.90	18394.27
