SpectraSuite Data File
++++++++++++++++++++++++++++++++++++
Date: Mon Oct 07 14:54:55 GMT-05:00 2013
User: price-jones
Dark Spectrum Present: No
Reference Spectrum Present: No
Number of Sampled Component Spectra: 1
Spectrometers: USB2+H05261
Integration Time (usec): 10000 (USB2+H05261)
Spectra Averaged: 1 (USB2+H05261)
Boxcar Smoothing: 0 (USB2+H05261)
Correct for Electrical Dark: No (USB2+H05261)
Strobe/Lamp Enabled: No (USB2+H05261)
Correct for Detector Non-linearity: No (USB2+H05261)
Correct for Stray Light: No (USB2+H05261)
Number of Pixels in Processed Spectrum: 2048
>>>>>Begin Processed Spectral Data<<<<<
365.73	0.00
365.92	0.00
366.12	0.00
366.32	0.00
366.52	0.00
366.72	0.00
366.91	0.00
367.11	0.00
367.31	0.00
367.51	0.00
367.70	0.00
367.90	0.00
368.10	0.00
368.30	0.00
368.49	0.00
368.69	0.00
368.89	0.00
369.09	0.00
369.28	0.00
369.48	0.00
369.68	0.00
369.87	0.00
370.07	0.00
370.27	0.00
370.47	0.00
370.66	86.60
370.86	95.96
371.06	128.73
371.25	231.71
371.45	30.43
371.65	74.90
371.84	0.00
372.04	147.45
372.24	184.90
372.44	177.88
372.63	182.56
372.83	142.77
373.03	152.13
373.22	53.83
373.42	4.68
373.62	126.39
373.81	128.73
374.01	168.52
374.21	117.03
374.40	156.82
374.60	95.96
374.79	196.60
374.99	238.73
375.19	262.14
375.38	280.86
375.58	292.57
375.78	189.58
375.97	201.29
376.17	222.35
376.37	189.58
376.56	304.27
376.76	339.38
376.95	297.25
377.15	407.25
377.35	423.64
377.54	414.27
377.74	430.66
377.93	484.49
378.13	425.98
378.33	449.38
378.52	379.17
378.72	306.61
378.91	313.63
379.11	369.80
379.31	205.97
379.50	245.76
379.70	332.36
379.89	386.19
380.09	440.02
380.28	358.10
380.48	425.98
380.68	379.17
380.87	465.77
381.07	393.21
381.26	278.52
381.46	337.04
381.65	224.69
381.85	238.73
382.04	133.41
382.24	222.35
382.43	117.03
382.63	65.54
382.83	18.72
383.02	170.86
383.22	224.69
383.41	234.05
383.61	163.84
383.80	273.84
384.00	257.46
384.19	362.78
384.39	463.43
384.58	374.49
384.78	339.38
384.97	346.40
385.17	376.83
385.36	337.04
385.56	173.20
385.75	271.50
385.95	393.21
386.14	374.49
386.34	479.81
386.53	444.70
386.72	304.27
386.92	337.04
387.11	290.23
387.31	433.00
387.50	393.21
387.70	383.85
387.89	409.59
388.09	428.32
388.28	423.64
388.48	330.02
388.67	407.25
388.86	514.92
389.06	550.03
389.25	718.54
389.45	613.22
389.64	596.84
389.84	517.26
390.03	589.82
390.22	564.07
390.42	622.58
390.61	645.99
390.81	667.05
391.00	702.16
391.19	744.29
391.39	716.20
391.58	674.07
391.78	531.30
391.97	524.28
392.16	498.53
392.36	425.98
392.55	252.78
392.75	180.22
392.94	161.50
393.13	107.66
393.33	215.33
393.52	341.72
393.71	353.42
393.91	507.90
394.10	650.67
394.29	606.20
394.49	739.61
394.68	809.83
394.88	732.59
395.07	786.42
395.26	763.01
395.46	833.23
395.65	711.52
395.84	599.18
396.04	528.96
396.23	393.21
396.42	255.12
396.62	236.39
396.81	294.91
397.00	456.40
397.19	674.07
397.39	758.33
397.58	922.17
397.77	959.62
397.97	973.66
398.16	1053.24
398.35	1135.16
398.55	950.26
398.74	1076.65
398.93	1137.50
399.12	1146.86
399.32	1078.99
399.51	1226.44
399.70	1235.80
399.90	1144.52
400.09	1203.04
400.28	1217.08
400.47	1338.79
400.67	1172.61
400.86	1399.64
401.05	1399.64
401.24	1380.92
401.44	1444.11
401.63	1411.34
401.82	1373.89
402.01	1324.74
402.21	1350.49
402.40	1277.93
402.59	1465.18
402.78	1345.81
402.97	1242.82
403.17	1287.29
403.36	1357.51
403.55	1593.90
403.74	1432.41
403.93	1355.17
404.13	1153.88
404.32	1219.42
404.51	1144.52
404.70	1437.09
404.89	1439.43
405.09	1310.70
405.28	1324.74
405.47	1423.05
405.66	1404.32
405.85	1217.08
406.05	1158.57
406.24	1331.76
406.43	1399.64
406.62	1427.73
406.81	1378.58
407.00	1329.42
407.20	1430.07
407.39	1217.08
407.58	1252.19
407.77	1504.96
407.96	1502.62
408.15	1523.69
408.34	1589.22
408.54	1603.27
408.73	1605.61
408.92	1682.85
409.11	1685.19
409.30	1575.18
409.49	1226.44
409.68	1301.34
409.87	1256.87
410.07	1263.89
410.26	1345.81
410.45	1465.18
410.64	1640.72
410.83	1659.44
411.02	1636.03
411.21	1680.50
411.40	1685.19
411.59	1781.15
411.78	1692.21
411.98	1640.72
412.17	1692.21
412.36	1629.01
412.55	1687.53
412.74	1614.97
412.93	1568.16
413.12	1537.73
413.31	1652.42
413.50	1769.44
413.69	1781.15
413.88	1820.94
414.07	1535.39
414.26	1659.44
414.45	1811.57
414.64	1706.25
414.83	1710.93
415.02	1708.59
415.22	1816.26
415.41	1713.27
415.60	1909.88
415.79	2024.56
415.98	1968.39
416.17	1977.75
416.36	1930.94
416.55	1966.05
416.74	1813.92
416.93	1797.53
417.12	1727.32
417.31	1699.23
417.50	1750.72
417.69	1849.02
417.88	1816.26
418.07	1877.11
418.26	1717.95
418.45	1802.21
418.64	1888.81
418.83	1991.80
419.02	1891.15
419.21	1895.83
419.39	1806.89
419.58	1816.26
419.77	1849.02
419.96	1827.96
420.15	1919.24
420.34	1907.54
420.53	2155.63
420.72	2143.93
420.91	2087.76
421.10	1975.41
421.29	2062.01
421.48	1940.30
421.67	2101.80
421.86	1994.14
422.05	1877.11
422.24	1542.41
422.43	1633.69
422.61	1788.17
422.80	1977.75
422.99	2008.18
423.18	1912.22
423.37	1914.56
423.56	2010.52
423.75	1823.28
423.94	1928.60
424.13	1912.22
424.32	1795.19
424.50	1895.83
424.69	1818.60
424.88	1792.85
425.07	1816.26
425.26	1816.26
425.45	1734.34
425.64	1769.44
425.83	1666.46
426.01	1799.87
426.20	1933.28
426.39	1991.80
426.58	1778.81
426.77	1631.35
426.96	1511.99
427.15	1526.03
427.33	1764.76
427.52	1692.21
427.71	1832.64
427.90	1846.68
428.09	1870.09
428.28	1762.42
428.46	1682.85
428.65	1572.84
428.84	1696.89
429.03	1799.87
429.22	1678.16
429.40	1570.50
429.59	1439.43
429.78	1146.86
429.97	1146.86
430.16	1205.38
430.34	1322.40
430.53	1245.16
430.72	1221.76
430.91	1441.77
431.10	1736.68
431.28	2083.08
431.47	2190.74
431.66	2139.25
431.85	2033.93
432.03	1802.21
432.22	1755.40
432.41	1844.34
432.60	2136.91
432.79	2127.55
432.97	2169.68
433.16	2108.82
433.35	2005.84
433.54	1767.10
433.72	1582.20
433.91	1652.42
434.10	1863.07
434.28	2047.97
434.47	2157.97
434.66	2076.06
434.85	1977.75
435.03	2054.99
435.22	2092.44
435.41	2221.17
435.59	2214.15
435.78	2232.87
435.97	2279.68
436.16	2392.03
436.34	2293.72
436.53	2143.93
436.72	2172.02
436.90	2097.12
437.09	2122.87
437.28	2059.67
437.46	2209.47
437.65	2167.34
437.84	1956.69
438.02	1867.75
438.21	1689.87
438.40	1837.32
438.58	2054.99
438.77	2087.76
438.96	2106.48
439.14	2235.21
439.33	2256.28
439.52	2352.24
439.70	2326.49
439.89	2242.23
440.08	2122.87
440.26	2195.42
440.45	2279.68
440.63	2267.98
440.82	2569.91
441.01	2471.61
441.19	2399.05
441.38	2469.27
441.57	2527.78
441.75	2609.70
441.94	2700.98
442.12	2630.76
442.31	2649.49
442.50	2698.64
442.68	2537.14
442.87	2509.05
443.05	2574.59
443.24	2558.21
443.43	2586.29
443.61	2670.55
443.80	2670.55
443.98	2546.50
444.17	2431.82
444.35	2576.93
444.54	2827.37
444.73	2700.98
444.91	2555.86
445.10	2473.95
445.28	2394.37
445.47	2361.60
445.65	2340.54
445.84	2356.92
446.02	2511.39
446.21	2747.79
446.39	2607.36
446.58	2516.08
446.77	2736.09
446.95	2654.17
447.14	2759.49
447.32	2825.03
447.51	2686.94
447.69	2726.72
447.88	2644.81
448.06	2682.25
448.25	2663.53
448.43	2832.05
448.62	2602.68
448.80	2553.52
448.99	2822.69
449.17	2733.75
449.36	2539.48
449.54	2722.04
449.73	2902.26
449.91	2719.70
450.10	2977.16
450.28	2918.65
450.46	3014.61
450.65	2909.29
450.83	2860.13
451.02	3042.70
451.20	2874.18
451.39	2869.50
451.57	2726.72
451.76	2717.36
451.94	2815.66
452.13	2773.53
452.31	2614.38
452.49	2551.18
452.68	2574.59
452.86	2473.95
453.05	2562.89
453.23	2640.12
453.42	2761.83
453.60	2789.92
453.78	2923.33
453.97	2843.75
454.15	2759.49
454.34	2665.87
454.52	2717.36
454.70	2712.68
454.89	2764.17
455.07	2677.57
455.26	2860.13
455.44	2925.67
455.62	2895.24
455.81	2937.37
455.99	2963.12
456.17	2813.32
456.36	2911.63
456.54	2977.16
456.73	3002.91
456.91	2920.99
457.09	3038.02
457.28	3077.80
457.46	2977.16
457.64	2899.92
457.83	2813.32
458.01	2726.72
458.19	2888.22
458.38	2822.69
458.56	2960.78
458.74	2803.96
458.93	2813.32
459.11	2902.26
459.29	2888.22
459.48	2913.97
459.66	2904.60
459.84	2862.48
460.03	3023.97
460.21	2970.14
460.39	2951.42
460.57	2911.63
460.76	2920.99
460.94	3000.57
461.12	3000.57
461.31	3014.61
461.49	3087.17
461.67	3059.08
461.85	3028.65
462.04	3005.25
462.22	3112.91
462.40	3089.51
462.59	3066.10
462.77	3192.49
462.95	2984.18
463.13	3026.31
463.32	2993.55
463.50	3063.76
463.68	3000.57
463.86	3002.91
464.05	3045.04
464.23	2871.84
464.41	2862.48
464.59	2778.22
464.78	2977.16
464.96	2918.65
465.14	2944.39
465.32	2930.35
465.50	3108.23
465.69	3054.40
465.87	2935.03
466.05	3152.70
466.23	2810.98
466.41	2733.75
466.60	2768.85
466.78	2871.84
466.96	2857.79
467.14	2857.79
467.32	2979.50
467.51	2974.82
467.69	2916.31
467.87	2818.00
468.05	2906.95
468.23	2918.65
468.41	2881.20
468.60	2932.69
468.78	3052.06
468.96	2970.14
469.14	3035.67
469.32	3023.97
469.50	2789.92
469.69	2892.90
469.87	2810.98
470.05	2743.11
470.23	2967.80
470.41	2832.05
470.59	2686.94
470.77	2881.20
470.95	2949.08
471.14	2935.03
471.32	3105.89
471.50	3150.36
471.68	3187.81
471.86	3185.47
472.04	3227.60
472.22	3248.66
472.40	3005.25
472.58	2960.78
472.77	3112.91
472.95	3028.65
473.13	3101.21
473.31	3155.04
473.49	3033.33
473.67	3183.13
473.85	3108.23
474.03	3162.06
474.21	3169.09
474.39	3159.72
474.57	3286.11
474.75	3225.26
474.93	3375.05
475.12	3124.62
475.30	3211.22
475.48	3251.00
475.66	3372.71
475.84	3162.06
476.02	3293.13
476.20	3281.43
476.38	3248.66
476.56	3351.65
476.74	3400.80
476.92	3426.54
477.10	3428.88
477.28	3606.77
477.46	3524.85
477.64	3606.77
477.82	3527.19
478.00	3566.98
478.18	3597.40
478.36	3574.00
478.54	3630.17
478.72	3487.40
478.90	3665.28
479.08	3840.82
479.26	3859.54
479.44	3829.12
479.62	3681.66
479.80	3772.94
479.98	3866.56
480.16	3749.54
480.34	3618.47
480.52	3639.53
480.70	3782.31
480.88	3934.44
481.06	3833.80
481.24	3927.42
481.41	3939.12
481.59	4081.89
481.77	4156.79
481.95	4063.17
482.13	3953.16
482.31	3941.46
482.49	4021.04
482.67	3927.42
482.85	3920.40
483.03	4142.75
483.21	4112.32
483.39	4154.45
483.57	4049.13
483.74	4063.17
483.92	4117.00
484.10	4100.62
484.28	4177.86
484.46	4152.11
484.64	4152.11
484.82	4126.36
485.00	4067.85
485.18	4051.47
485.35	3850.18
485.53	3501.44
485.71	3124.62
485.89	3131.64
486.07	3370.37
486.25	3609.11
486.43	3922.74
486.61	4007.00
486.78	4042.11
486.96	3868.91
487.14	4187.22
487.32	4283.18
487.50	4432.97
487.68	4374.46
487.85	4594.47
488.03	4594.47
488.21	4493.83
488.39	4428.29
488.57	4271.48
488.75	4231.69
488.92	4486.81
489.10	4704.48
489.28	4973.64
489.46	4975.98
489.64	5006.41
489.81	4990.02
489.99	4842.57
490.17	4940.87
490.35	5083.64
490.53	5064.92
490.70	4854.27
490.88	4849.59
491.06	5006.41
491.24	5041.51
491.41	4809.80
491.59	4671.71
491.77	4540.64
491.95	4809.80
492.13	4737.24
492.30	5011.09
492.48	5132.79
492.66	5252.16
492.84	5275.57
493.01	5104.71
493.19	5078.96
493.37	5083.64
493.54	5055.56
493.72	5121.09
493.90	5289.61
494.08	5448.77
494.25	5750.70
494.43	5633.67
494.61	5617.29
494.79	5729.63
494.96	5668.78
495.14	5490.90
495.32	5205.35
495.49	5083.64
495.67	5397.28
495.85	5589.20
496.02	5762.40
496.20	5600.90
496.38	5603.24
496.55	5453.45
496.73	5692.18
496.91	5701.54
497.09	5834.96
497.26	5980.07
497.44	5692.18
497.62	5624.31
497.79	5418.34
497.97	5224.08
498.14	5179.61
498.32	5542.39
498.50	5748.36
498.67	5577.50
498.85	5764.74
499.03	5863.04
499.20	5919.21
499.38	5851.34
499.56	5788.14
499.73	5607.92
499.91	5586.86
500.08	5399.62
500.26	5329.40
500.44	5516.64
500.61	5542.39
500.79	5685.16
500.97	5577.50
501.14	5280.25
501.32	5392.59
501.49	5362.17
501.67	5542.39
501.84	5568.13
502.02	5621.97
502.20	5668.78
502.37	5781.12
502.55	5736.65
502.72	5764.74
502.90	5954.32
503.07	5823.25
503.25	5928.58
503.43	5628.99
503.60	5476.85
503.78	5245.14
503.95	5343.44
504.13	5572.82
504.30	5867.72
504.48	5987.09
504.65	5668.78
504.83	5781.12
505.01	5799.85
505.18	6071.35
505.36	6115.82
505.53	6005.81
505.71	5982.41
505.88	6120.50
506.06	6083.05
506.23	5689.84
506.41	5970.71
506.58	5891.13
506.76	5933.26
506.93	5926.24
507.11	5884.11
507.28	5746.02
507.46	5813.89
507.63	5708.57
507.81	5596.22
507.98	5727.29
508.16	5692.18
508.33	5849.00
508.50	6057.31
508.68	6127.52
508.85	5867.72
509.03	6239.87
509.20	6143.91
509.38	5966.03
509.55	5832.62
509.73	5832.62
509.90	5841.98
510.08	6012.84
510.25	5961.34
510.42	5907.51
510.60	5788.14
510.77	5942.62
510.95	6033.90
511.12	6022.20
511.30	6230.51
511.47	6209.44
511.64	6296.04
511.82	6218.80
511.99	5980.07
512.17	5919.21
512.34	5774.10
512.51	5703.89
512.69	5818.57
512.86	5991.77
513.04	5806.87
513.21	6038.58
513.38	5916.87
513.56	5792.83
513.73	5572.82
513.90	5607.92
514.08	5678.14
514.25	5605.58
514.43	5792.83
514.60	5856.02
514.77	5769.42
514.95	5968.37
515.12	5921.56
515.29	5781.12
515.47	5926.24
515.64	5989.43
515.81	5926.24
515.99	5750.70
516.16	5579.84
516.33	4990.02
516.51	4884.70
516.68	4774.69
516.85	4748.95
517.03	4720.86
517.20	5109.39
517.37	5785.80
517.54	5905.17
517.72	5696.86
517.89	5132.79
518.06	4910.44
518.24	4870.65
518.41	5191.31
518.58	5643.03
518.75	5586.86
518.93	5582.18
519.10	5603.24
519.27	5743.67
519.45	5696.86
519.62	5895.81
519.79	6045.60
519.96	5872.40
520.14	5575.16
520.31	5743.67
520.48	5497.92
520.65	5682.82
520.83	5895.81
521.00	5928.58
521.17	5710.91
521.34	5774.10
521.52	5809.21
521.69	6071.35
521.86	6148.59
522.03	5996.45
522.20	5643.03
522.38	5565.79
522.55	5441.75
522.72	5556.43
522.89	5692.18
523.07	5767.08
523.24	5858.36
523.41	6008.16
523.58	6015.18
523.75	6186.04
523.92	5973.05
524.10	6193.06
524.27	6099.44
524.44	6197.74
524.61	6085.39
524.78	5832.62
524.96	5778.78
525.13	5856.02
525.30	6153.27
525.47	6186.04
525.64	6214.12
525.81	6069.01
525.98	5434.72
526.16	5308.34
526.33	5144.50
526.50	5022.79
526.67	5156.20
526.84	5179.61
527.01	5287.27
527.18	5434.72
527.36	5645.37
527.53	5865.38
527.70	5961.34
527.87	5994.11
528.04	5731.97
528.21	5816.23
528.38	6019.86
528.55	6108.80
528.72	6090.07
528.89	6338.17
529.07	6200.08
529.24	6024.54
529.41	5783.46
529.58	5865.38
529.75	5933.26
529.92	5881.77
530.09	5951.98
530.26	6057.31
530.43	6136.88
530.60	6179.01
530.77	6179.01
530.94	6289.02
531.11	6092.41
531.28	5973.05
531.46	5973.05
531.63	5968.37
531.80	6104.12
531.97	5975.39
532.14	5839.64
532.31	5526.00
532.48	5359.83
532.65	5275.57
532.82	5518.98
532.99	5717.93
533.16	5895.81
533.33	6024.54
533.50	5839.64
533.67	5809.21
533.84	5743.67
534.01	5612.60
534.18	5706.23
534.35	5914.53
534.52	5874.74
534.69	5720.27
534.86	5984.75
535.03	5989.43
535.20	6246.89
535.37	6342.85
535.54	6171.99
535.71	6218.80
535.88	5973.05
536.05	5881.77
536.22	5748.36
536.38	5591.54
536.55	5589.20
536.72	5528.35
536.89	5556.43
537.06	5633.67
537.23	5823.25
537.40	5912.19
537.57	6061.99
537.74	5858.36
537.91	5731.97
538.08	5774.10
538.25	5788.14
538.42	5834.96
538.59	5816.23
538.75	5774.10
538.92	5563.45
539.09	5575.16
539.26	5598.56
539.43	5441.75
539.60	5392.59
539.77	5481.53
539.94	5518.98
540.11	5212.37
540.28	5392.59
540.44	5348.12
540.61	5238.12
540.78	5427.70
540.95	5540.05
541.12	5582.18
541.29	5528.35
541.46	5820.91
541.62	5689.84
541.79	5774.10
541.96	5495.58
542.13	5476.85
542.30	5614.95
542.47	5530.69
542.63	5425.36
542.80	5486.22
542.97	5572.82
543.14	5448.77
543.31	5537.71
543.48	5687.50
543.64	5874.74
543.81	5722.61
543.98	5689.84
544.15	5722.61
544.32	5467.49
544.48	5586.86
544.65	5589.20
544.82	5706.23
544.99	5724.95
545.16	5521.32
545.32	5493.24
545.49	5687.50
545.66	5579.84
545.83	5612.60
546.00	5481.53
546.16	5518.98
546.33	5818.57
546.50	5561.11
546.67	5643.03
546.83	5516.64
547.00	5486.22
547.17	5549.41
547.34	5451.11
547.50	5284.93
547.67	5425.36
547.84	5589.20
548.00	5458.13
548.17	5514.30
548.34	5584.52
548.51	5551.75
548.67	5540.05
548.84	5570.48
549.01	5563.45
549.18	5636.01
549.34	5451.11
549.51	5575.16
549.68	5493.24
549.84	5406.64
550.01	5455.79
550.18	5320.04
550.34	5404.30
550.51	5303.65
550.68	5476.85
550.84	5287.27
551.01	5322.38
551.18	5390.25
551.34	5687.50
551.51	5460.47
551.68	5479.19
551.84	5378.55
552.01	5596.22
552.18	5418.34
552.34	5404.30
552.51	5296.63
552.68	5177.26
552.84	5238.12
553.01	5376.21
553.18	5350.46
553.34	5308.34
553.51	5406.64
553.67	5479.19
553.84	5322.38
554.01	5455.79
554.17	5399.62
554.34	5413.66
554.51	5458.13
554.67	5474.51
554.84	5488.56
555.00	5408.98
555.17	5296.63
555.33	5432.38
555.50	5362.17
555.67	5317.70
555.83	5357.49
556.00	5350.46
556.16	5305.99
556.33	5011.09
556.50	5116.41
556.66	5221.74
556.83	5130.45
556.99	5081.30
557.16	4997.04
557.32	5088.32
557.49	5224.08
557.65	5245.14
557.82	5177.26
557.98	5170.24
558.15	5018.11
558.32	4964.28
558.48	4652.98
558.65	4690.43
558.81	4863.63
558.98	4896.40
559.14	5022.79
559.31	4945.55
559.47	4732.56
559.64	4835.55
559.80	4997.04
559.97	4870.65
560.13	4835.55
560.30	5053.22
560.46	5249.82
560.63	5095.35
560.79	5298.97
560.96	5125.77
561.12	4964.28
561.29	4896.40
561.45	4744.27
561.61	4931.51
561.78	5097.69
561.94	4959.60
562.11	4968.96
562.27	4807.46
562.44	4847.25
562.60	5149.18
562.77	5188.97
562.93	5074.28
563.10	5093.01
563.26	4954.91
563.42	4961.94
563.59	5144.50
563.75	4851.93
563.92	4957.25
564.08	5001.72
564.24	4814.48
564.41	4870.65
564.57	4880.02
564.74	4947.89
564.90	4999.38
565.07	4709.16
565.23	4690.43
565.39	4744.27
565.56	4699.80
565.72	4456.38
565.88	4603.83
566.05	4547.66
566.21	4667.03
566.38	4737.24
566.54	4898.74
566.70	4910.44
566.87	4858.95
567.03	4868.31
567.19	4959.60
567.36	4905.76
567.52	4746.61
567.68	4912.78
567.85	4777.03
568.01	4669.37
568.17	4517.23
568.34	4491.49
568.50	4634.26
568.66	4615.54
568.83	4554.68
568.99	4622.56
569.15	4727.88
569.32	4889.38
569.48	4678.73
569.64	4599.15
569.81	4454.04
569.97	4514.89
570.13	4482.13
570.30	4430.63
570.46	4301.90
570.62	4215.30
570.78	4262.12
570.95	4477.44
571.11	4470.42
571.27	4465.74
571.43	4531.28
571.60	4430.63
571.76	4578.09
571.92	4411.91
572.09	4568.73
572.25	4674.05
572.41	4545.32
572.57	4592.13
572.74	4587.45
572.90	4428.29
573.06	4526.60
573.22	4545.32
573.38	4493.83
573.55	4573.41
573.71	4645.96
573.87	4711.50
574.03	4507.87
574.20	4557.02
574.36	4533.62
574.52	4355.74
574.68	4367.44
574.84	4264.46
575.01	4105.30
575.17	4114.66
575.33	4353.40
575.49	4337.01
575.65	4332.33
575.82	4238.71
575.98	4280.84
576.14	4358.08
576.30	4475.10
576.46	4395.53
576.62	4475.10
576.79	4407.23
576.95	4217.65
577.11	4465.74
577.27	4360.42
577.43	4241.05
577.59	4325.31
577.75	4198.92
577.92	4138.07
578.08	4191.90
578.24	4100.62
578.40	4348.72
578.56	4107.64
578.72	4189.56
578.88	4425.95
579.04	4304.25
579.21	4177.86
579.37	4257.43
579.53	4306.59
579.69	4210.62
579.85	4257.43
580.01	4194.24
580.17	4093.60
580.33	4238.71
580.49	4156.79
580.65	4117.00
580.82	4285.52
580.98	4362.76
581.14	4133.39
581.30	4243.39
581.46	4159.13
581.62	4189.56
581.78	4182.54
581.94	4351.06
582.10	4227.01
582.26	4117.00
582.42	4388.50
582.58	4287.86
582.74	4264.46
582.90	4461.06
583.06	4315.95
583.22	4159.13
583.38	4325.31
583.54	4147.43
583.70	4205.94
583.86	4245.73
584.02	4077.21
584.18	4117.00
584.34	4196.58
584.50	4177.86
584.66	4191.90
584.82	4095.94
584.98	4126.36
585.14	4028.06
585.30	4067.85
585.46	3889.97
585.62	3845.50
585.78	4154.45
585.94	3962.53
586.10	3950.82
586.26	4173.18
586.42	4016.36
586.58	4135.73
586.74	4060.83
586.90	3976.57
587.06	4227.01
587.22	4018.70
587.38	4009.34
587.54	4042.11
587.70	3985.93
587.86	3829.12
588.02	3899.33
588.18	3845.50
588.34	3562.30
588.49	3513.14
588.65	3279.09
588.81	3190.15
588.97	3431.23
589.13	3239.30
589.29	3342.28
589.45	3492.08
589.61	3496.76
589.77	3620.81
589.93	3707.41
590.08	3812.73
590.24	3772.94
590.40	3786.99
590.56	3875.93
590.72	3761.24
590.88	3770.60
591.04	3676.98
591.20	3590.38
591.35	3716.77
591.51	3901.67
591.67	3583.36
591.83	3667.62
591.99	3744.86
592.15	3782.31
592.31	3749.54
592.46	3655.92
592.62	3681.66
592.78	3660.60
592.94	3735.50
593.10	3740.18
593.26	3679.32
593.41	3836.14
593.57	3641.87
593.73	3705.07
593.89	3669.96
594.05	3557.61
594.20	3569.32
594.36	3536.55
594.52	3501.44
594.68	3527.19
594.84	3632.51
594.99	3639.53
595.15	3693.37
595.31	3595.06
595.47	3660.60
595.62	3688.68
595.78	3719.11
595.94	3695.71
596.10	3686.34
596.25	3578.68
596.41	3641.87
596.57	3576.34
596.73	3726.13
596.88	3538.89
597.04	3456.97
597.20	3501.44
597.36	3534.21
597.51	3524.85
597.67	3583.36
597.83	3740.18
597.99	3634.85
598.14	3641.87
