SpectraSuite Data File
++++++++++++++++++++++++++++++++++++
Date: Mon Oct 07 14:55:34 GMT-05:00 2013
User: price-jones
Dark Spectrum Present: No
Reference Spectrum Present: No
Number of Sampled Component Spectra: 1
Spectrometers: USB2+H05261
Integration Time (usec): 1000000 (USB2+H05261)
Spectra Averaged: 1 (USB2+H05261)
Boxcar Smoothing: 0 (USB2+H05261)
Correct for Electrical Dark: No (USB2+H05261)
Strobe/Lamp Enabled: No (USB2+H05261)
Correct for Detector Non-linearity: No (USB2+H05261)
Correct for Stray Light: No (USB2+H05261)
Number of Pixels in Processed Spectrum: 2048
>>>>>Begin Processed Spectral Data<<<<<
365.73	0.00
365.92	0.00
366.12	0.00
366.32	0.00
366.52	0.00
366.72	252.78
366.91	0.00
367.11	201.29
367.31	23.41
367.51	201.29
367.70	215.33
367.90	524.28
368.10	227.03
368.30	248.10
368.49	0.00
368.69	409.59
368.89	196.60
369.09	0.00
369.28	149.79
369.48	0.00
369.68	79.58
369.87	262.14
370.07	91.28
370.27	531.30
370.47	2520.76
370.66	8332.31
370.86	9535.34
371.06	10820.30
371.25	10918.60
371.45	9675.77
371.65	8875.31
371.84	7920.37
372.04	8421.25
372.24	9415.98
372.44	9834.93
372.63	9525.98
372.83	9446.40
373.03	7950.80
373.22	7176.08
373.42	7534.18
373.62	8910.42
373.81	9678.12
374.01	9806.84
374.21	9071.92
374.40	7974.21
374.60	8690.41
374.79	9102.34
374.99	10693.91
375.19	11576.29
375.38	11871.20
375.58	11108.18
375.78	11052.01
375.97	11183.08
376.17	12039.72
376.37	11173.72
376.56	11749.49
376.76	11976.52
376.95	12884.65
377.15	14174.28
377.35	14640.05
377.54	14892.83
377.74	15190.08
377.93	15056.67
378.13	14888.15
378.33	14136.84
378.52	12713.79
378.72	12596.76
378.91	12503.14
379.11	11950.78
379.31	11473.31
379.50	11044.99
379.70	12690.38
379.89	14019.81
380.09	14537.07
380.28	14719.63
380.48	14721.97
380.68	14459.83
380.87	14054.92
381.07	13453.40
381.26	12283.13
381.46	11592.67
381.65	11162.01
381.85	10600.29
382.04	10494.96
382.24	9834.93
382.43	9343.42
382.63	8971.27
382.83	9081.28
383.02	9320.01
383.22	9481.51
383.41	9057.87
383.61	9722.59
383.80	11346.92
384.00	12439.95
384.19	13881.72
384.39	14441.11
384.58	14410.68
384.78	13968.32
384.97	14075.98
385.17	13055.51
385.36	12531.23
385.56	12393.14
385.75	12362.71
385.95	13343.39
386.14	14839.00
386.34	14586.22
386.53	14183.65
386.72	13011.04
386.92	13383.18
387.11	13830.23
387.31	14700.90
387.50	14359.19
387.70	13579.79
387.89	13682.77
388.09	13870.01
388.28	13619.58
388.48	13905.12
388.67	15363.28
388.86	16430.56
389.06	17462.74
389.25	18595.56
389.45	18740.67
389.64	18738.33
389.84	18728.97
390.03	17977.65
390.22	18094.68
390.42	18487.89
390.61	19648.80
390.81	20847.15
391.00	21205.25
391.19	21074.18
391.39	20030.30
391.58	19201.76
391.78	17930.84
391.97	17666.36
392.16	16453.97
392.36	15417.11
392.55	12484.42
392.75	9813.87
392.94	8311.24
393.13	8297.20
393.33	9322.35
393.52	11910.99
393.71	14618.99
393.91	15941.39
394.10	17226.34
394.29	18782.80
394.49	20170.74
394.68	21774.00
394.88	22125.08
395.07	22567.45
395.26	22174.24
395.46	21553.99
395.65	20807.36
395.84	18270.22
396.04	16175.44
396.23	12596.76
396.42	10607.31
396.62	10251.55
396.81	11737.79
397.00	14937.30
397.19	18480.87
397.39	21607.83
397.58	24519.45
397.77	25605.46
397.97	26902.12
398.16	26918.50
398.35	28224.52
398.55	28561.56
398.74	29919.07
398.93	30623.57
399.12	30197.59
399.32	28835.40
399.51	29242.65
399.70	31742.35
399.90	31288.28
400.09	31377.22
400.28	30548.67
400.47	31023.80
400.67	32816.65
400.86	33153.69
401.05	33212.20
401.24	33603.07
401.44	33600.73
401.63	34054.79
401.82	34010.32
402.01	33535.20
402.21	34122.67
402.40	34323.96
402.59	33436.89
402.78	32025.55
402.97	30803.79
403.17	32261.94
403.36	34300.55
403.55	34890.37
403.74	35711.89
403.93	34319.28
404.13	32664.52
404.32	31529.36
404.51	32334.50
404.70	34752.27
404.89	34742.91
405.09	34693.76
405.28	33219.22
405.47	32957.08
405.66	33158.37
405.85	32568.55
406.05	31431.05
406.24	31768.09
406.43	33050.70
406.62	34824.83
406.81	35257.83
407.00	33500.09
407.20	32730.05
407.39	33095.18
407.58	34012.66
407.77	35295.28
407.96	36453.84
408.15	36844.71
408.34	36453.84
408.54	38473.73
408.73	38335.63
408.92	38213.93
409.11	37502.40
409.30	35342.09
409.49	33364.34
409.68	31938.95
409.87	30539.31
410.07	32032.57
410.26	34487.79
410.45	36524.06
410.64	36769.82
410.83	37991.58
411.02	39112.69
411.21	40329.77
411.40	40308.71
411.59	39913.16
411.78	39934.22
411.98	39604.20
412.17	40212.74
412.36	39601.86
412.55	39585.48
412.74	38639.90
412.93	38286.48
413.12	37818.38
413.31	41474.29
413.50	41834.74
413.69	42108.58
413.88	41111.51
414.07	39519.95
414.26	40030.18
414.45	41565.57
414.64	42029.00
414.83	41993.89
415.02	41113.85
415.22	40589.57
415.41	42396.46
415.60	42918.40
415.79	44189.31
415.98	45593.64
416.17	45319.79
416.36	44226.76
416.55	43491.83
416.74	42515.83
416.93	41474.29
417.12	40952.35
417.31	41448.55
417.50	42199.86
417.69	43445.02
417.88	42948.83
418.07	42314.55
418.26	42108.58
418.45	42728.82
418.64	44519.33
418.83	45350.22
419.02	44516.99
419.21	44514.65
419.39	42108.58
419.58	40870.43
419.77	40989.80
419.96	42906.70
420.15	45001.48
420.34	45415.76
420.53	47098.60
420.72	47327.97
420.91	47185.20
421.10	46574.32
421.29	45909.61
421.48	44933.60
421.67	47267.12
421.86	45471.93
422.05	43236.72
422.24	39119.71
422.43	38710.12
422.61	41745.80
422.80	45689.60
422.99	45071.70
423.18	43714.19
423.37	42714.78
423.56	43496.52
423.75	44055.90
423.94	43931.86
424.13	42199.86
424.32	42272.42
424.50	43005.00
424.69	41488.34
424.88	42682.01
425.07	42211.56
425.26	42593.07
425.45	42295.82
425.64	41141.94
425.83	41408.76
426.01	43583.12
426.20	44507.63
426.39	43868.66
426.58	41378.33
426.77	38038.39
426.96	37050.68
427.15	38071.15
427.33	41448.55
427.52	42649.24
427.71	42770.95
427.90	42078.15
428.09	42124.96
428.28	40737.02
428.46	40076.99
428.65	39618.25
428.84	39597.18
429.03	41404.08
429.22	38728.84
429.40	36603.64
429.59	33867.55
429.78	30150.78
429.97	30146.10
430.16	30096.95
430.34	30705.49
430.53	30218.66
430.72	30740.60
430.91	34639.93
431.10	39115.03
431.28	45844.07
431.47	48479.52
431.66	48854.00
431.85	45354.90
432.03	42436.25
432.22	41043.63
432.41	42188.16
432.60	45979.82
432.79	47150.09
432.97	48069.92
433.16	47688.42
433.35	44315.70
433.54	39995.07
433.72	38202.22
433.91	39077.58
434.10	42885.64
434.28	45708.32
434.47	47248.39
434.66	47166.48
434.85	46094.51
435.03	46506.44
435.22	48533.35
435.41	51243.69
435.59	51201.56
435.78	50314.50
435.97	50335.56
436.16	50031.29
436.34	49865.11
436.53	48956.99
436.72	49528.08
436.90	47016.68
437.09	47267.12
437.28	46122.60
437.46	47819.49
437.65	47606.50
437.84	45291.71
438.02	41284.71
438.21	41235.56
438.40	42983.94
438.58	46417.50
438.77	47323.29
438.96	47545.64
439.14	48980.39
439.33	49787.88
439.52	50822.39
439.70	49352.54
439.89	48959.33
440.08	48002.05
440.26	47391.17
440.45	49216.78
440.63	50719.41
440.82	52109.69
441.01	52322.68
441.19	51341.99
441.38	52011.38
441.57	52938.24
441.75	54089.78
441.94	53794.87
442.12	53516.35
442.31	54150.63
442.50	53977.43
442.68	53401.66
442.87	53595.93
443.05	53027.18
443.24	53319.74
443.43	54047.65
443.61	54915.99
443.80	54534.48
443.98	53132.50
444.17	53186.33
444.35	54864.50
444.54	54953.44
444.73	54845.77
444.91	53893.18
445.10	52334.38
445.28	51051.76
445.47	50574.30
445.65	50908.99
445.84	51643.92
446.02	52636.31
446.21	53041.22
446.39	53008.45
446.58	53202.72
446.77	54012.54
446.95	54078.08
447.14	54630.44
447.32	55625.17
447.51	54625.76
447.69	53841.68
447.88	53263.57
448.06	53717.64
448.25	54005.52
448.43	54403.41
448.62	53886.15
448.80	53935.30
448.99	53909.56
449.17	54183.40
449.36	54061.69
449.54	55372.39
449.73	55194.51
449.91	55632.19
450.10	56753.31
450.28	57050.56
450.46	56926.51
450.65	56842.25
450.83	56528.62
451.02	55929.44
451.20	55707.09
451.39	55618.15
451.57	55671.98
451.76	55777.31
451.94	55182.81
452.13	54356.60
452.31	53925.94
452.49	51746.90
452.68	52357.78
452.86	52516.94
453.05	52739.29
453.23	53879.13
453.42	53839.34
453.60	55269.41
453.78	55311.54
453.97	54873.86
454.15	54944.08
454.34	54138.93
454.52	54377.67
454.70	53876.79
454.89	54251.28
455.07	54454.90
455.26	54497.03
455.44	55840.50
455.62	56418.61
455.81	56156.47
455.99	56069.87
456.17	55929.44
456.36	55683.69
456.54	56938.21
456.73	56549.68
456.91	57214.40
457.09	57205.03
457.28	57726.97
457.46	56374.14
457.64	56406.91
457.83	55360.69
458.01	54934.71
458.19	55077.49
458.38	55323.24
458.56	56626.92
458.74	56006.68
458.93	55922.42
459.11	56002.00
459.29	55491.76
459.48	56004.34
459.66	55646.24
459.84	56158.81
460.03	56921.83
460.21	55573.68
460.39	56872.68
460.57	56823.53
460.76	57277.59
460.94	57193.33
461.12	56657.35
461.31	56837.57
461.49	56800.12
461.67	56643.30
461.85	57289.29
462.04	57301.00
462.22	58328.49
462.40	57223.76
462.59	57443.77
462.77	57460.15
462.95	57633.35
463.13	56842.25
463.32	56706.50
463.50	56512.23
463.68	56594.15
463.86	56959.28
464.05	56306.27
464.23	55718.79
464.41	55608.79
464.59	55126.64
464.78	56692.46
464.96	56226.69
465.14	56189.24
465.32	56493.51
465.50	57350.15
465.69	57270.57
465.87	57155.88
466.05	56669.05
466.23	55318.56
466.41	54504.06
466.60	55206.22
466.78	55117.28
466.96	55648.58
467.14	56072.21
467.32	56439.68
467.51	56704.16
467.69	55089.19
467.87	56058.17
468.05	55985.61
468.23	56640.96
468.41	56456.06
468.60	56072.21
468.78	56626.92
468.96	56114.34
469.14	56673.73
469.32	56837.57
469.50	55662.62
469.69	55964.55
469.87	55480.06
470.05	55131.32
470.23	55173.45
470.41	55154.72
470.59	55847.52
470.77	55484.74
470.95	56289.88
471.14	56795.44
471.32	56486.49
471.50	58291.04
471.68	58122.52
471.86	57677.82
472.04	58218.49
472.22	58129.54
472.40	57240.14
472.58	56647.99
472.77	56559.05
472.95	57399.30
473.13	57909.53
473.31	57179.29
473.49	56982.68
473.67	57375.89
473.85	58094.44
474.03	58630.42
474.21	58038.26
474.39	58901.92
474.57	58871.49
474.75	58754.47
474.93	58440.84
475.12	57733.99
475.30	57675.48
475.48	58045.29
475.66	58403.39
475.84	58174.02
476.02	58000.82
476.20	57436.75
476.38	58094.44
476.56	58394.03
476.74	58665.53
476.92	59533.87
477.10	59629.83
477.28	60172.83
477.46	60205.60
477.64	59767.92
477.82	60418.59
478.00	60692.43
478.18	59999.63
478.36	60430.29
478.54	60285.18
478.72	60505.19
478.90	60933.51
479.08	61525.66
479.26	61471.83
479.44	61663.75
479.62	61109.05
479.80	61553.75
479.98	61443.74
480.16	61560.77
480.34	61684.82
480.52	61572.47
480.70	62173.99
480.88	61958.66
481.06	62227.82
481.24	62628.05
481.41	62836.36
481.59	63594.70
481.77	63379.37
481.95	62810.62
482.13	63007.22
482.31	62555.50
482.49	63194.46
482.67	63082.12
482.85	63154.68
483.03	63402.77
483.21	63973.86
483.39	63994.93
483.57	63126.59
483.74	62677.21
483.92	63461.29
484.10	62452.51
484.28	63660.23
484.46	64121.32
484.64	64507.50
484.82	63943.44
485.00	63290.43
485.18	63070.42
485.35	62522.73
485.53	60130.70
485.71	58742.77
485.89	57680.16
486.07	59393.43
486.25	61481.19
486.43	62925.30
486.61	62908.92
486.78	62742.74
486.96	62794.23
487.14	64093.23
487.32	64437.29
487.50	65106.68
487.68	65345.42
487.85	65195.62
488.03	65535.00
488.21	65535.00
488.39	65268.18
488.57	64720.49
488.75	64617.51
488.92	65387.55
489.10	65535.00
489.28	65535.00
489.46	65535.00
489.64	65535.00
489.81	65535.00
489.99	65535.00
490.17	65535.00
490.35	65535.00
490.53	65535.00
490.70	65535.00
490.88	65535.00
491.06	65535.00
491.24	65535.00
491.41	65535.00
491.59	65535.00
491.77	65535.00
491.95	65535.00
492.13	65535.00
492.30	65535.00
492.48	65535.00
492.66	65535.00
492.84	65535.00
493.01	65535.00
493.19	65535.00
493.37	65535.00
493.54	65535.00
493.72	65535.00
493.90	65535.00
494.08	65535.00
494.25	65535.00
494.43	65535.00
494.61	65535.00
494.79	65535.00
494.96	65535.00
495.14	65535.00
495.32	65535.00
495.49	65535.00
495.67	65535.00
495.85	65535.00
496.02	65535.00
496.20	65535.00
496.38	65535.00
496.55	65535.00
496.73	65535.00
496.91	65535.00
497.09	65535.00
497.26	65535.00
497.44	65535.00
497.62	65535.00
497.79	65535.00
497.97	65535.00
498.14	65535.00
498.32	65535.00
498.50	65535.00
498.67	65535.00
498.85	65535.00
499.03	65535.00
499.20	65535.00
499.38	65535.00
499.56	65535.00
499.73	65535.00
499.91	65535.00
500.08	65535.00
500.26	65535.00
500.44	65535.00
500.61	65535.00
500.79	65535.00
500.97	65535.00
501.14	65535.00
501.32	65535.00
501.49	65535.00
501.67	65535.00
501.84	65535.00
502.02	65535.00
502.20	65535.00
502.37	65535.00
502.55	65535.00
502.72	65535.00
502.90	65535.00
503.07	65535.00
503.25	65535.00
503.43	65535.00
503.60	65535.00
503.78	65535.00
503.95	65535.00
504.13	65535.00
504.30	65535.00
504.48	65535.00
504.65	65535.00
504.83	65535.00
505.01	65535.00
505.18	65535.00
505.36	65535.00
505.53	65535.00
505.71	65535.00
505.88	65535.00
506.06	65535.00
506.23	65535.00
506.41	65535.00
506.58	65535.00
506.76	65535.00
506.93	65535.00
507.11	65535.00
507.28	65535.00
507.46	65535.00
507.63	65535.00
507.81	65535.00
507.98	65535.00
508.16	65535.00
508.33	65535.00
508.50	65535.00
508.68	65535.00
508.85	65535.00
509.03	65535.00
509.20	65535.00
509.38	65535.00
509.55	65535.00
509.73	65535.00
509.90	65535.00
510.08	65535.00
510.25	65535.00
510.42	65535.00
510.60	65535.00
510.77	65535.00
510.95	65535.00
511.12	65535.00
511.30	65535.00
511.47	65535.00
511.64	65535.00
511.82	65535.00
511.99	65535.00
512.17	65535.00
512.34	65535.00
512.51	65535.00
512.69	65535.00
512.86	65535.00
513.04	65535.00
513.21	65535.00
513.38	65535.00
513.56	65535.00
513.73	65535.00
513.90	65535.00
514.08	65535.00
514.25	65535.00
514.43	65535.00
514.60	65535.00
514.77	65535.00
514.95	65535.00
515.12	65535.00
515.29	65535.00
515.47	65535.00
515.64	65535.00
515.81	65535.00
515.99	65535.00
516.16	65535.00
516.33	65535.00
516.51	65535.00
516.68	65535.00
516.85	65535.00
517.03	65535.00
517.20	65535.00
517.37	65535.00
517.54	65535.00
517.72	65535.00
517.89	65535.00
518.06	65535.00
518.24	65535.00
518.41	65535.00
518.58	65535.00
518.75	65535.00
518.93	65535.00
519.10	65535.00
519.27	65535.00
519.45	65535.00
519.62	65535.00
519.79	65535.00
519.96	65535.00
520.14	65535.00
520.31	65535.00
520.48	65535.00
520.65	65535.00
520.83	65535.00
521.00	65535.00
521.17	65535.00
521.34	65535.00
521.52	65535.00
521.69	65535.00
521.86	65535.00
522.03	65535.00
522.20	65535.00
522.38	65535.00
522.55	65535.00
522.72	65535.00
522.89	65535.00
523.07	65535.00
523.24	65535.00
523.41	65535.00
523.58	65535.00
523.75	65535.00
523.92	65535.00
524.10	65535.00
524.27	65535.00
524.44	65535.00
524.61	65535.00
524.78	65535.00
524.96	65535.00
525.13	65535.00
525.30	65535.00
525.47	65535.00
525.64	65535.00
525.81	65535.00
525.98	65535.00
526.16	65535.00
526.33	65535.00
526.50	65535.00
526.67	65535.00
526.84	65535.00
527.01	65535.00
527.18	65535.00
527.36	65535.00
527.53	65535.00
527.70	65535.00
527.87	65535.00
528.04	65535.00
528.21	65535.00
528.38	65535.00
528.55	65535.00
528.72	65535.00
528.89	65535.00
529.07	65535.00
529.24	65535.00
529.41	65535.00
529.58	65535.00
529.75	65535.00
529.92	65535.00
530.09	65535.00
530.26	65535.00
530.43	65535.00
530.60	65535.00
530.77	65535.00
530.94	65535.00
531.11	65535.00
531.28	65535.00
531.46	65535.00
531.63	65535.00
531.80	65535.00
531.97	65535.00
532.14	65535.00
532.31	65535.00
532.48	65535.00
532.65	65535.00
532.82	65535.00
532.99	65535.00
533.16	65535.00
533.33	65535.00
533.50	65535.00
533.67	65535.00
533.84	65535.00
534.01	65535.00
534.18	65535.00
534.35	65535.00
534.52	65535.00
534.69	65535.00
534.86	65535.00
535.03	65535.00
535.20	65535.00
535.37	65535.00
535.54	65535.00
535.71	65535.00
535.88	65535.00
536.05	65535.00
536.22	65535.00
536.38	65535.00
536.55	65535.00
536.72	65535.00
536.89	65535.00
537.06	65535.00
537.23	65535.00
537.40	65535.00
537.57	65535.00
537.74	65535.00
537.91	65535.00
538.08	65535.00
538.25	65535.00
538.42	65535.00
538.59	65535.00
538.75	65535.00
538.92	65535.00
539.09	65535.00
539.26	65535.00
539.43	65535.00
539.60	65535.00
539.77	65535.00
539.94	65535.00
540.11	65535.00
540.28	65535.00
540.44	65535.00
540.61	65535.00
540.78	65535.00
540.95	65535.00
541.12	65535.00
541.29	65535.00
541.46	65535.00
541.62	65535.00
541.79	65535.00
541.96	65535.00
542.13	65535.00
542.30	65535.00
542.47	65535.00
542.63	65535.00
542.80	65535.00
542.97	65535.00
543.14	65535.00
543.31	65535.00
543.48	65535.00
543.64	65535.00
543.81	65535.00
543.98	65535.00
544.15	65535.00
544.32	65535.00
544.48	65535.00
544.65	65535.00
544.82	65535.00
544.99	65535.00
545.16	65535.00
545.32	65535.00
545.49	65535.00
545.66	65535.00
545.83	65535.00
546.00	65535.00
546.16	65535.00
546.33	65535.00
546.50	65535.00
546.67	65535.00
546.83	65535.00
547.00	65535.00
547.17	65535.00
547.34	65535.00
547.50	65535.00
547.67	65535.00
547.84	65535.00
548.00	65535.00
548.17	65535.00
548.34	65535.00
548.51	65535.00
548.67	65535.00
548.84	65535.00
549.01	65535.00
549.18	65535.00
549.34	65535.00
549.51	65535.00
549.68	65535.00
549.84	65535.00
550.01	65535.00
550.18	65535.00
550.34	65535.00
550.51	65535.00
550.68	65535.00
550.84	65535.00
551.01	65535.00
551.18	65535.00
551.34	65535.00
551.51	65535.00
551.68	65535.00
551.84	65535.00
552.01	65535.00
552.18	65535.00
552.34	65535.00
552.51	65535.00
552.68	65535.00
552.84	65535.00
553.01	65535.00
553.18	65535.00
553.34	65535.00
553.51	65535.00
553.67	65535.00
553.84	65535.00
554.01	65535.00
554.17	65535.00
554.34	65535.00
554.51	65535.00
554.67	65535.00
554.84	65535.00
555.00	65535.00
555.17	65535.00
555.33	65535.00
555.50	65535.00
555.67	65535.00
555.83	65535.00
556.00	65535.00
556.16	65535.00
556.33	65535.00
556.50	65535.00
556.66	65535.00
556.83	65535.00
556.99	65535.00
557.16	65535.00
557.32	65535.00
557.49	65535.00
557.65	65535.00
557.82	65535.00
557.98	65535.00
558.15	65535.00
558.32	65535.00
558.48	65535.00
558.65	65535.00
558.81	65535.00
558.98	65535.00
559.14	65535.00
559.31	65535.00
559.47	65535.00
559.64	65535.00
559.80	65535.00
559.97	65535.00
560.13	65535.00
560.30	65535.00
560.46	65535.00
560.63	65535.00
560.79	65535.00
560.96	65535.00
561.12	65535.00
561.29	65535.00
561.45	65535.00
561.61	65535.00
561.78	65535.00
561.94	65535.00
562.11	65535.00
562.27	65535.00
562.44	65535.00
562.60	65535.00
562.77	65535.00
562.93	65535.00
563.10	65535.00
563.26	65535.00
563.42	65535.00
563.59	65535.00
563.75	65535.00
563.92	65535.00
564.08	65535.00
564.24	65535.00
564.41	65535.00
564.57	65535.00
564.74	65535.00
564.90	65535.00
565.07	65535.00
565.23	65535.00
565.39	65535.00
565.56	65535.00
565.72	65535.00
565.88	65535.00
566.05	65535.00
566.21	65535.00
566.38	65535.00
566.54	65535.00
566.70	65535.00
566.87	65535.00
567.03	65535.00
567.19	65535.00
567.36	65535.00
567.52	65535.00
567.68	65535.00
567.85	65535.00
568.01	65535.00
568.17	65535.00
568.34	65535.00
568.50	65535.00
568.66	65535.00
568.83	65535.00
568.99	65535.00
569.15	65535.00
569.32	65535.00
569.48	65535.00
569.64	65535.00
569.81	65535.00
569.97	65535.00
570.13	65535.00
570.30	65535.00
570.46	65535.00
570.62	65535.00
570.78	65535.00
570.95	65364.14
571.11	65535.00
571.27	65535.00
571.43	65535.00
571.60	65535.00
571.76	65535.00
571.92	65535.00
572.09	65535.00
572.25	65535.00
572.41	65535.00
572.57	65535.00
572.74	65535.00
572.90	65535.00
573.06	65535.00
573.22	65535.00
573.38	65535.00
573.55	65535.00
573.71	65535.00
573.87	65535.00
574.03	65535.00
574.20	65535.00
574.36	65535.00
574.52	65535.00
574.68	65535.00
574.84	65535.00
575.01	65535.00
575.17	65293.92
575.33	65535.00
575.49	65535.00
575.65	65535.00
575.82	65535.00
575.98	65535.00
576.14	65389.89
576.30	65535.00
576.46	65535.00
576.62	65535.00
576.79	65535.00
576.95	65535.00
577.11	65535.00
577.27	65535.00
577.43	65535.00
577.59	65492.87
577.75	65265.84
577.92	64629.21
578.08	64090.89
578.24	64629.21
578.40	65181.58
578.56	65195.62
578.72	65380.52
578.88	65535.00
579.04	64900.71
579.21	65535.00
579.37	65347.76
579.53	65535.00
579.69	65223.71
579.85	65535.00
580.01	65270.52
580.17	64830.50
580.33	64795.39
580.49	65097.32
580.65	65144.13
580.82	65535.00
580.98	65048.17
581.14	65394.57
581.30	65535.00
581.46	65338.40
581.62	65535.00
581.78	65307.97
581.94	65535.00
582.10	65448.40
582.26	65535.00
582.42	65535.00
582.58	65535.00
582.74	65307.97
582.90	65535.00
583.06	65535.00
583.22	65331.37
583.38	65364.14
583.54	65535.00
583.70	65527.98
583.86	65233.07
