SpectraSuite Data File
++++++++++++++++++++++++++++++++++++
Date: Mon Oct 07 14:53:18 GMT-05:00 2013
User: price-jones
Dark Spectrum Present: No
Reference Spectrum Present: No
Number of Sampled Component Spectra: 1
Spectrometers: USB2+H05261
Integration Time (usec): 100000 (USB2+H05261)
Spectra Averaged: 1 (USB2+H05261)
Boxcar Smoothing: 0 (USB2+H05261)
Correct for Electrical Dark: No (USB2+H05261)
Strobe/Lamp Enabled: No (USB2+H05261)
Correct for Detector Non-linearity: No (USB2+H05261)
Correct for Stray Light: No (USB2+H05261)
Number of Pixels in Processed Spectrum: 2048
>>>>>Begin Processed Spectral Data<<<<<
365.73	0.00
365.92	0.00
366.12	0.00
366.32	0.00
366.52	0.00
366.72	0.00
366.91	0.00
367.11	0.00
367.31	0.00
367.51	0.00
367.70	0.00
367.90	0.00
368.10	0.00
368.30	0.00
368.49	0.00
368.69	0.00
368.89	0.00
369.09	0.00
369.28	0.00
369.48	0.00
369.68	0.00
369.87	0.00
370.07	0.00
370.27	0.00
370.47	1121.12
370.66	4484.47
370.86	5130.45
371.06	5420.68
371.25	5537.71
371.45	5076.62
371.65	4587.45
371.84	4234.03
372.04	4386.16
372.24	4910.44
372.44	5277.91
372.63	5083.64
372.83	4627.24
373.03	4124.02
373.22	4016.36
373.42	4402.55
373.62	4793.42
373.81	5041.51
374.01	5125.77
374.21	4519.57
374.40	4217.65
374.60	4435.32
374.79	4971.30
374.99	5671.12
375.19	6209.44
375.38	6195.40
375.58	5832.62
375.78	5664.10
375.97	5856.02
376.17	6057.31
376.37	6012.84
376.56	6218.80
376.76	6523.07
376.95	6963.09
377.15	7478.01
377.35	7702.70
377.54	7939.10
377.74	8292.52
377.93	8444.65
378.13	7967.18
378.33	7461.63
378.52	7061.40
378.72	6551.16
378.91	6553.50
379.11	6499.67
379.31	6204.76
379.50	6319.45
379.70	6689.25
379.89	7550.57
380.09	7901.65
380.28	8168.47
380.48	8121.66
380.68	7817.39
380.87	7641.85
381.07	7021.61
381.26	6562.86
381.46	6186.04
381.65	6038.58
381.85	5844.32
382.04	5336.42
382.24	5116.41
382.43	4929.17
382.63	4795.76
382.83	4959.60
383.02	4947.89
383.22	4767.67
383.41	4821.50
383.61	5439.40
383.80	5895.81
384.00	6766.49
384.19	7459.29
384.39	7915.69
384.58	7943.78
384.78	7676.96
384.97	7726.11
385.17	7246.30
385.36	6810.96
385.56	6448.18
385.75	6892.88
385.95	7854.84
386.14	8159.11
386.34	8203.58
386.53	7808.03
386.72	7552.91
386.92	7442.90
387.11	7775.26
387.31	8039.74
387.50	8074.85
387.70	7737.81
387.89	7536.52
388.09	7662.91
388.28	7634.83
388.48	7981.23
388.67	8571.04
388.86	9214.69
389.06	9977.70
389.25	10335.81
389.45	10548.79
389.64	10490.28
389.84	10366.23
390.03	10186.01
390.22	9984.73
390.42	10380.28
390.61	11192.44
390.81	11964.82
391.00	12166.10
391.19	12051.42
391.39	11482.67
391.58	10878.81
391.78	10375.59
391.97	9916.85
392.16	9427.68
392.36	8395.50
392.55	6768.83
392.75	5390.25
392.94	4524.26
393.13	4407.23
393.33	5371.53
393.52	6782.87
393.71	8126.34
393.91	9315.33
394.10	10066.64
394.29	10923.28
394.49	11974.18
394.68	12472.71
394.88	12652.94
395.07	13256.79
395.26	13195.94
395.46	12669.32
395.65	11782.26
395.84	10356.87
396.04	8807.44
396.23	7250.98
396.42	5984.75
396.62	5881.77
396.81	6892.88
397.00	8755.94
397.19	11068.39
397.39	12863.58
397.58	14752.40
397.77	15398.38
397.97	15882.88
398.16	16449.28
398.35	16617.80
398.55	17055.48
398.74	17619.55
398.93	18019.78
399.12	17642.96
399.32	17181.87
399.51	17254.43
399.70	19070.68
399.90	18052.55
400.09	18586.19
400.28	18300.65
400.47	18689.18
400.67	19049.62
400.86	20032.65
401.05	19257.93
401.24	19742.42
401.44	20175.42
401.63	20269.04
401.82	20503.09
402.01	20332.23
402.21	20889.28
402.40	20868.22
402.59	20271.38
402.78	19482.62
402.97	18595.56
403.17	19686.25
403.36	20713.74
403.55	21310.58
403.74	21979.97
403.93	20809.70
404.13	19243.88
404.32	18888.12
404.51	19520.07
404.70	21083.55
404.89	21113.97
405.09	21020.35
405.28	20119.24
405.47	20067.75
405.66	20147.33
405.85	19929.66
406.05	19087.07
406.24	19410.06
406.43	20280.74
406.62	20732.47
406.81	20985.24
407.00	20306.49
407.20	19749.44
407.39	20105.20
407.58	20996.95
407.77	21879.33
407.96	22403.61
408.15	22661.07
408.34	22817.88
408.54	23648.77
408.73	24037.30
408.92	23548.13
409.11	23065.98
409.30	21523.57
409.49	20018.60
409.68	19150.26
409.87	18576.83
410.07	19728.38
410.26	21317.60
410.45	22995.76
410.64	23428.76
410.83	24060.71
411.02	24868.19
411.21	25610.14
411.40	25174.80
411.59	25366.73
411.78	25125.65
411.98	24678.61
412.17	25156.08
412.36	24498.39
412.55	24709.04
412.74	24287.74
412.93	23688.56
413.12	24049.00
413.31	26558.06
413.50	26387.20
413.69	26979.36
413.88	25806.75
414.07	25317.57
414.26	25490.77
414.45	26462.10
414.64	26244.43
414.83	26380.18
415.02	25886.32
415.22	26111.02
415.41	26787.43
415.60	27314.05
415.79	28416.44
415.98	28783.91
416.17	28737.10
416.36	28217.50
416.55	28027.92
416.74	26817.86
416.93	26513.59
417.12	26246.77
417.31	26480.82
417.50	27065.96
417.69	27871.10
417.88	27538.74
418.07	27688.54
418.26	27147.87
418.45	27412.35
418.64	28327.50
418.83	29333.93
419.02	28847.10
419.21	28657.52
419.39	27229.79
419.58	26064.21
419.77	26223.36
419.96	27531.72
420.15	28723.05
420.34	29872.26
420.53	31033.16
420.72	31529.36
420.91	31253.17
421.10	30675.06
421.29	30513.56
421.48	29340.96
421.67	30871.67
421.86	29876.94
422.05	27843.01
422.24	24762.87
422.43	25006.28
422.61	27601.94
422.80	29668.63
422.99	29429.90
423.18	28992.22
423.37	28112.17
423.56	28147.28
423.75	29034.35
423.94	28872.85
424.13	27552.79
424.32	28182.39
424.50	28009.19
424.69	27548.11
424.88	28154.30
425.07	27456.82
425.26	27342.14
425.45	27328.10
425.64	26824.88
425.83	27023.83
426.01	28629.43
426.20	29076.48
426.39	28655.18
426.58	26918.50
426.77	24697.33
426.96	24198.80
427.15	24812.02
427.33	26841.26
427.52	27988.13
427.71	28025.57
427.90	27805.56
428.09	27335.12
428.28	27197.02
428.46	26059.52
428.65	25895.69
428.84	26249.11
429.03	26349.75
429.22	25315.23
429.40	23896.87
429.59	21462.71
429.78	19211.12
429.97	19571.56
430.16	19632.41
430.34	19777.53
430.53	19646.46
430.72	20116.90
430.91	22342.75
431.10	26324.01
431.28	30827.20
431.47	32992.19
431.66	33315.19
431.85	30522.93
432.03	28184.73
432.22	26937.23
432.41	28315.80
432.60	31218.07
432.79	32577.92
432.97	33385.40
433.16	31873.42
433.35	29708.42
433.54	26426.99
433.72	24982.88
433.91	25937.82
434.10	28624.75
434.28	30782.73
434.47	32598.98
434.66	31721.28
434.85	30850.60
435.03	31215.72
435.22	31615.96
435.41	33792.65
435.59	33378.38
435.78	34270.12
435.97	34595.46
436.16	35077.61
436.34	34689.08
436.53	33811.38
436.72	33879.25
436.90	32247.90
437.09	32175.34
437.28	31529.36
437.46	33046.02
437.65	32346.20
437.84	30553.35
438.02	28383.68
438.21	27824.29
438.40	29465.00
438.58	32189.39
438.77	32524.08
438.96	33488.38
439.14	34338.00
439.33	35482.52
439.52	35747.00
439.70	34965.26
439.89	33900.32
440.08	33008.58
440.26	32790.91
440.45	34139.05
440.63	36584.91
440.82	38389.47
441.01	37610.07
441.19	37333.89
441.38	38003.28
441.57	39482.50
441.75	39917.84
441.94	39889.75
442.12	39763.36
442.31	40678.51
442.50	40229.13
442.68	40144.87
442.87	39276.53
443.05	38632.88
443.24	39442.71
443.43	40594.25
443.61	41188.75
443.80	41181.73
443.98	38721.82
444.17	39449.73
444.35	41364.29
444.54	41729.41
444.73	41500.04
444.91	39952.94
445.10	38263.08
445.28	37284.73
445.47	36306.39
445.65	36613.00
445.84	37607.73
446.02	38515.86
446.21	39021.41
446.39	39475.48
446.58	40421.05
446.77	40137.85
446.95	40769.79
447.14	41801.97
447.32	42609.45
447.51	41837.08
447.69	40343.81
447.88	39849.96
448.06	40395.31
448.25	41174.70
448.43	41823.03
448.62	40580.21
448.80	40381.26
448.99	40898.52
449.17	41284.71
449.36	40795.54
449.54	42679.67
449.73	43182.88
449.91	43887.39
450.10	44751.04
450.28	45017.86
450.46	44985.10
450.65	44851.69
450.83	44875.09
451.02	43571.41
451.20	43906.11
451.39	43559.71
451.57	42880.95
451.76	43552.69
451.94	42836.48
452.13	42630.52
452.31	40858.73
452.49	38656.29
452.68	39669.74
452.86	39339.72
453.05	40149.55
453.23	41450.89
453.42	41954.10
453.60	42705.41
453.78	43196.93
453.97	42665.63
454.15	42820.10
454.34	42085.17
454.52	42223.26
454.70	41343.22
454.89	41867.50
455.07	42567.32
455.26	42960.53
455.44	44212.72
455.62	44322.72
455.81	44914.88
455.99	44610.61
456.17	44032.50
456.36	44341.45
456.54	45223.83
456.73	45219.15
456.91	46078.13
457.09	46314.52
457.28	46944.12
457.46	45413.41
457.64	44821.26
457.83	44006.75
458.01	43168.84
458.19	44208.04
458.38	44067.61
458.56	45937.69
458.74	45177.02
458.93	44458.48
459.11	44512.31
459.29	44439.75
459.48	45029.57
459.66	44280.60
459.84	44987.44
460.03	45464.91
460.21	45598.32
460.39	46153.02
460.57	46447.93
460.76	46689.01
460.94	46810.71
461.12	46206.86
461.31	46361.33
461.49	46611.77
461.67	46190.47
461.85	47819.49
462.04	47384.15
462.22	47700.12
462.40	47346.70
462.59	47391.17
462.77	47084.56
462.95	47264.78
463.13	46513.47
463.32	46155.36
463.50	46356.65
463.68	46550.91
463.86	46316.86
464.05	45855.78
464.23	45015.52
464.41	44472.52
464.59	44327.41
464.78	46447.93
464.96	46110.89
465.14	45471.93
465.32	46410.48
465.50	47686.07
465.69	47856.93
465.87	46927.74
466.05	45865.14
466.23	44404.64
466.41	43353.74
466.60	44533.37
466.78	44596.57
466.96	45177.02
467.14	45804.28
467.32	46454.95
467.51	46471.34
467.69	44229.10
467.87	45209.79
468.05	46146.00
468.23	45925.99
468.41	46054.72
468.60	46059.40
468.78	46691.35
468.96	46047.70
469.14	46646.88
469.32	46972.21
469.50	45413.41
469.69	45345.54
469.87	45006.16
470.05	44264.21
470.23	44924.24
470.41	45083.40
470.59	45298.73
470.77	45743.43
470.95	46642.20
471.14	47007.32
471.32	46986.25
471.50	48905.49
471.68	49560.84
471.86	49258.91
472.04	49715.32
472.22	49607.65
472.40	48189.29
472.58	47854.59
472.77	47150.09
472.95	47952.90
473.13	48926.56
473.31	47636.92
473.49	48259.51
473.67	49078.69
473.85	48924.22
474.03	50052.36
474.21	50337.90
474.39	50576.64
474.57	50614.08
474.75	50567.27
474.93	50216.19
475.12	49099.76
475.30	49336.15
475.48	50160.02
475.66	50330.88
475.84	49663.83
476.02	49736.38
476.20	49179.34
476.38	49832.35
476.56	50808.35
476.74	51407.53
476.92	51332.63
477.10	52210.33
477.28	52945.26
477.46	52776.74
477.64	53155.91
477.82	53155.91
478.00	53125.48
478.18	52921.85
478.36	52666.73
478.54	52603.54
478.72	53139.52
478.90	53654.44
479.08	54651.51
479.26	54712.36
479.44	54892.58
479.62	54387.03
479.80	54506.40
479.98	54892.58
480.16	55047.06
480.34	54597.68
480.52	54857.48
480.70	55257.71
480.88	55182.81
481.06	55578.36
481.24	55924.76
481.41	56439.68
481.59	57034.17
481.77	56839.91
481.95	56128.39
482.13	56229.03
482.31	56418.61
482.49	56767.35
482.67	56545.00
482.85	56968.64
483.03	57198.01
483.21	57441.43
483.39	57553.77
483.57	56662.03
483.74	56800.12
483.92	57048.22
484.10	57165.24
484.28	57755.06
484.46	58138.91
484.64	58410.41
484.82	57450.79
485.00	57305.68
485.18	56765.01
485.35	56034.77
485.53	53502.31
485.71	50625.79
485.89	50178.75
486.07	52128.41
486.25	54749.81
486.43	55899.01
486.61	56631.60
486.78	56519.26
486.96	56816.50
487.14	57701.23
487.32	58581.27
487.50	59330.24
487.68	59711.75
487.85	59985.59
488.03	60053.47
488.21	59927.08
488.39	59363.01
488.57	58695.95
488.75	58471.26
488.92	59377.05
489.10	60942.87
489.28	62085.05
489.46	62513.37
489.64	62323.78
489.81	62468.90
489.99	61961.00
490.17	62213.78
490.35	62508.69
490.53	62078.03
490.70	61820.57
490.88	61886.10
491.06	62499.33
491.24	62616.35
491.41	61680.14
491.59	60357.74
491.77	59987.93
491.95	60736.90
492.13	61748.01
492.30	62597.63
492.48	63283.40
492.66	63639.17
492.84	63629.80
493.01	63384.05
493.19	62965.09
493.37	62862.11
493.54	62508.69
493.72	62955.73
493.90	63966.84
494.08	64430.27
494.25	64638.57
494.43	64760.28
494.61	65097.32
494.79	65094.98
494.96	65071.57
495.14	64549.63
495.32	63910.67
495.49	63557.25
495.67	64378.78
495.85	65361.80
496.02	65535.00
496.20	65300.95
496.38	64940.50
496.55	65057.53
496.73	65420.31
496.91	65300.95
497.09	65535.00
497.26	65535.00
497.44	65535.00
497.62	65242.43
497.79	64748.58
497.97	63458.94
498.14	63852.15
498.32	64533.25
498.50	65298.61
498.67	65535.00
498.85	65535.00
499.03	65535.00
499.20	65535.00
499.38	65535.00
499.56	65535.00
499.73	65396.91
499.91	65200.30
500.08	64821.14
500.26	64142.38
500.44	64647.94
500.61	65240.09
500.79	65052.85
500.97	64725.17
501.14	64711.13
501.32	64594.10
501.49	64467.72
501.67	64645.60
501.84	65116.04
502.02	65392.23
502.20	65535.00
502.37	65535.00
502.55	65535.00
502.72	65535.00
502.90	65535.00
503.07	65535.00
503.25	65535.00
503.43	65289.24
503.60	64828.16
503.78	64320.26
503.95	64673.68
504.13	65535.00
504.30	65535.00
504.48	65535.00
504.65	65535.00
504.83	65535.00
505.01	65535.00
505.18	65535.00
505.36	65535.00
505.53	65535.00
505.71	65535.00
505.88	65535.00
506.06	65535.00
506.23	65535.00
506.41	65535.00
506.58	65535.00
506.76	65535.00
506.93	65535.00
507.11	65535.00
507.28	65535.00
507.46	65535.00
507.63	65535.00
507.81	65535.00
507.98	65535.00
508.16	65535.00
508.33	65535.00
508.50	65535.00
508.68	65535.00
508.85	65535.00
509.03	65535.00
509.20	65535.00
509.38	65535.00
509.55	65535.00
509.73	65535.00
509.90	65535.00
510.08	65535.00
510.25	65535.00
510.42	65535.00
510.60	65535.00
510.77	65535.00
510.95	65535.00
511.12	65535.00
511.30	65535.00
511.47	65535.00
511.64	65535.00
511.82	65535.00
511.99	65535.00
512.17	65535.00
512.34	65535.00
512.51	65535.00
512.69	65535.00
512.86	65535.00
513.04	65535.00
513.21	65535.00
513.38	65535.00
513.56	65535.00
513.73	65535.00
513.90	65535.00
514.08	65535.00
514.25	65535.00
514.43	65535.00
514.60	65535.00
514.77	65535.00
514.95	65535.00
515.12	65535.00
515.29	65535.00
515.47	65535.00
515.64	65535.00
515.81	65535.00
515.99	65535.00
516.16	65535.00
516.33	64149.40
516.51	62756.78
516.68	62028.88
516.85	61843.98
517.03	62063.99
517.20	64360.05
517.37	65535.00
517.54	65535.00
517.72	65535.00
517.89	64774.33
518.06	62618.69
518.24	63058.71
518.41	64846.88
518.58	65535.00
518.75	65535.00
518.93	65535.00
519.10	65535.00
519.27	65535.00
519.45	65535.00
519.62	65535.00
519.79	65535.00
519.96	65535.00
520.14	65535.00
520.31	65535.00
520.48	65535.00
520.65	65535.00
520.83	65535.00
521.00	65535.00
521.17	65535.00
521.34	65535.00
521.52	65535.00
521.69	65535.00
521.86	65535.00
522.03	65535.00
522.20	65535.00
522.38	65535.00
522.55	65535.00
522.72	65535.00
522.89	65535.00
523.07	65535.00
523.24	65535.00
523.41	65535.00
523.58	65535.00
523.75	65535.00
523.92	65535.00
524.10	65535.00
524.27	65535.00
524.44	65535.00
524.61	65535.00
524.78	65535.00
524.96	65535.00
525.13	65535.00
525.30	65535.00
525.47	65535.00
525.64	65535.00
525.81	65535.00
525.98	65535.00
526.16	65535.00
526.33	65076.26
526.50	64364.73
526.67	64186.85
526.84	64788.37
527.01	65518.62
527.18	65535.00
527.36	65535.00
527.53	65535.00
527.70	65535.00
527.87	65535.00
528.04	65535.00
528.21	65535.00
528.38	65535.00
528.55	65535.00
528.72	65535.00
528.89	65535.00
529.07	65535.00
529.24	65535.00
529.41	65535.00
529.58	65535.00
529.75	65535.00
529.92	65535.00
530.09	65535.00
530.26	65535.00
530.43	65535.00
530.60	65535.00
530.77	65535.00
530.94	65535.00
531.11	65535.00
531.28	65535.00
531.46	65535.00
531.63	65535.00
531.80	65535.00
531.97	65535.00
532.14	65535.00
532.31	65535.00
532.48	65535.00
532.65	65535.00
532.82	65535.00
532.99	65535.00
533.16	65535.00
533.33	65535.00
533.50	65535.00
533.67	65535.00
533.84	65535.00
534.01	65535.00
534.18	65535.00
534.35	65535.00
534.52	65535.00
534.69	65535.00
534.86	65535.00
535.03	65535.00
535.20	65535.00
535.37	65535.00
535.54	65535.00
535.71	65535.00
535.88	65535.00
536.05	65535.00
536.22	65535.00
536.38	65535.00
536.55	65535.00
536.72	65535.00
536.89	65535.00
537.06	65535.00
537.23	65535.00
537.40	65535.00
537.57	65535.00
537.74	65535.00
537.91	65535.00
538.08	65535.00
538.25	65535.00
538.42	65535.00
538.59	65535.00
538.75	65535.00
538.92	65535.00
539.09	65535.00
539.26	65535.00
539.43	65535.00
539.60	65535.00
539.77	65535.00
539.94	65535.00
540.11	65535.00
540.28	65535.00
540.44	65535.00
540.61	65535.00
540.78	65535.00
540.95	65535.00
541.12	65535.00
541.29	65535.00
541.46	65535.00
541.62	65535.00
541.79	65535.00
541.96	65535.00
542.13	65535.00
542.30	65535.00
542.47	65535.00
542.63	65535.00
542.80	65535.00
542.97	65535.00
543.14	65535.00
543.31	65535.00
543.48	65535.00
543.64	65535.00
543.81	65535.00
543.98	65535.00
544.15	65535.00
544.32	65535.00
544.48	65535.00
544.65	65535.00
544.82	65535.00
544.99	65535.00
545.16	65535.00
545.32	65535.00
545.49	65535.00
545.66	65535.00
545.83	65535.00
546.00	65535.00
546.16	65535.00
546.33	65535.00
546.50	65535.00
546.67	65535.00
546.83	65535.00
547.00	65535.00
547.17	65535.00
547.34	65535.00
547.50	65535.00
547.67	65535.00
547.84	65535.00
548.00	65535.00
548.17	65535.00
548.34	65535.00
548.51	65535.00
548.67	65535.00
548.84	65535.00
549.01	65535.00
549.18	65535.00
549.34	65535.00
549.51	65535.00
549.68	65535.00
549.84	65535.00
550.01	65535.00
550.18	65535.00
550.34	65535.00
550.51	65535.00
550.68	65535.00
550.84	65535.00
551.01	65535.00
551.18	65535.00
551.34	65535.00
551.51	65535.00
551.68	65535.00
551.84	65535.00
552.01	65535.00
552.18	65535.00
552.34	65535.00
552.51	65535.00
552.68	65535.00
552.84	65535.00
553.01	65535.00
553.18	65535.00
553.34	65535.00
553.51	65535.00
553.67	65535.00
553.84	65535.00
554.01	65535.00
554.17	65535.00
554.34	65535.00
554.51	65535.00
554.67	65535.00
554.84	65535.00
555.00	65535.00
555.17	65535.00
555.33	65535.00
555.50	65535.00
555.67	65535.00
555.83	65535.00
556.00	65535.00
556.16	65535.00
556.33	65410.95
556.50	65464.78
556.66	65488.19
556.83	65132.43
556.99	65408.61
557.16	65375.84
557.32	65535.00
557.49	65535.00
557.65	65535.00
557.82	65535.00
557.98	65535.00
558.15	65050.51
558.32	64537.93
558.48	64046.42
558.65	64137.70
558.81	64259.41
558.98	64594.10
559.14	64771.99
559.31	64858.59
559.47	65059.87
559.64	64519.21
559.80	64320.26
559.97	64594.10
560.13	64856.24
560.30	65535.00
560.46	65535.00
560.63	65535.00
560.79	65535.00
560.96	65535.00
561.12	64647.94
561.29	63966.84
561.45	64207.92
561.61	64694.75
561.78	65031.78
561.94	64935.82
562.11	64769.64
562.27	64776.67
562.44	64856.24
562.60	65202.64
562.77	65401.59
562.93	65350.10
563.10	65226.05
563.26	64823.48
563.42	64891.35
563.59	64748.58
563.75	64764.96
563.92	64779.01
564.08	64493.46
564.24	64884.33
564.41	64959.23
564.57	64860.93
564.74	64741.56
564.90	64816.46
565.07	64568.36
565.23	64240.68
565.39	63812.37
565.56	63700.02
565.72	63355.96
565.88	63681.30
566.05	63905.99
566.21	63903.65
566.38	64151.74
566.54	64065.14
566.70	64568.36
566.87	64797.73
567.03	64615.17
567.19	64856.24
567.36	64676.02
567.52	64617.51
567.68	64315.58
567.85	63756.19
568.01	63611.08
568.17	63189.78
568.34	63220.21
568.50	63159.36
568.66	63056.37
568.83	63512.78
568.99	63526.82
569.15	63805.34
569.32	63969.18
569.48	63660.23
569.64	63522.14
569.81	63248.30
569.97	63086.80
570.13	62990.84
570.30	62515.71
570.46	62555.50
570.62	61961.00
570.78	61989.09
570.95	62068.67
571.11	62695.93
571.27	62817.64
571.43	63098.50
571.60	63283.40
571.76	63477.67
571.92	63690.66
572.09	63714.06
572.25	63681.30
572.41	63573.63
572.57	63510.44
572.74	63515.12
572.90	63210.85
573.06	63210.85
573.22	63250.64
573.38	63311.49
573.55	63185.10
573.71	63416.82
573.87	63257.66
574.03	63220.21
574.20	63068.08
574.36	62756.78
574.52	62738.06
574.68	62597.63
574.84	62302.72
575.01	62042.92
575.17	61961.00
575.33	62120.16
575.49	62365.91
575.65	62677.21
575.82	62391.66
575.98	62021.86
576.14	62342.51
576.30	62555.50
576.46	62745.08
576.62	62518.05
576.79	62487.62
576.95	62124.84
577.11	62080.37
577.27	62326.13
577.43	62300.38
577.59	62035.90
577.75	61539.71
577.92	61307.99
578.08	61057.56
578.24	61188.63
578.40	61460.13
578.56	61542.05
578.72	61654.39
578.88	61843.98
579.04	61890.79
579.21	62110.80
579.37	61619.28
579.53	61972.70
579.69	61900.15
579.85	62274.63
580.01	61953.98
580.17	61556.09
580.33	61432.04
580.49	61460.13
580.65	61836.95
580.82	62115.48
580.98	62078.03
581.14	61715.25
581.30	61993.77
581.46	61801.85
581.62	62120.16
581.78	62035.90
581.94	62293.36
582.10	62265.27
582.26	62321.44
582.42	62260.59
582.58	62415.07
582.74	62078.03
582.90	62276.97
583.06	62071.01
583.22	61759.72
583.38	61942.28
583.54	61757.38
583.70	61806.53
583.86	61996.11
584.02	61642.69
584.18	61881.42
584.34	61773.76
584.50	61619.28
584.66	61485.87
584.82	61195.65
584.98	61104.37
