SpectraSuite Data File
++++++++++++++++++++++++++++++++++++
Date: Mon Oct 07 14:55:01 GMT-05:00 2013
User: price-jones
Dark Spectrum Present: No
Reference Spectrum Present: No
Number of Sampled Component Spectra: 1
Spectrometers: USB2+H05261
Integration Time (usec): 10000 (USB2+H05261)
Spectra Averaged: 1 (USB2+H05261)
Boxcar Smoothing: 0 (USB2+H05261)
Correct for Electrical Dark: No (USB2+H05261)
Strobe/Lamp Enabled: No (USB2+H05261)
Correct for Detector Non-linearity: No (USB2+H05261)
Correct for Stray Light: No (USB2+H05261)
Number of Pixels in Processed Spectrum: 2048
>>>>>Begin Processed Spectral Data<<<<<
365.73	0.00
365.92	0.00
366.12	0.00
366.32	0.00
366.52	0.00
366.72	0.00
366.91	0.00
367.11	0.00
367.31	0.00
367.51	0.00
367.70	0.00
367.90	0.00
368.10	0.00
368.30	0.00
368.49	0.00
368.69	0.00
368.89	0.00
369.09	0.00
369.28	0.00
369.48	0.00
369.68	0.00
369.87	0.00
370.07	0.00
370.27	0.00
370.47	381.51
370.66	2497.35
370.86	2862.48
371.06	2981.84
371.25	2972.48
371.45	2679.91
371.65	2375.64
371.84	2420.11
372.04	2590.97
372.24	2843.75
372.44	2918.65
372.63	2815.66
372.83	2478.63
373.03	2291.38
373.22	2218.83
373.42	2459.90
373.62	2733.75
373.81	2850.77
374.01	2661.19
374.21	2499.69
374.40	2286.70
374.60	2607.36
374.79	2935.03
374.99	3344.63
375.19	3510.80
375.38	3372.71
375.58	3213.56
375.78	3304.84
375.97	3503.78
376.17	3435.91
376.37	3571.66
376.56	3676.98
376.76	3805.71
376.95	3974.23
377.15	4269.14
377.35	4477.44
377.54	4484.47
377.74	4851.93
377.93	4636.60
378.13	4477.44
378.33	4337.01
378.52	3871.25
378.72	3999.98
378.91	3791.67
379.11	3604.42
379.31	3459.31
379.50	3431.23
379.70	3906.35
379.89	4194.24
380.09	4566.39
380.28	4547.66
380.48	4578.09
380.68	4620.22
380.87	4351.06
381.07	3946.14
381.26	3693.37
381.46	3494.42
381.65	3337.60
381.85	3463.99
382.04	3119.93
382.24	2885.88
382.43	2806.30
382.63	2850.77
382.83	2729.06
383.02	2682.25
383.22	2827.37
383.41	2764.17
383.61	3185.47
383.80	3475.70
384.00	4091.26
384.19	4477.44
384.39	4451.70
384.58	4589.79
384.78	4533.62
384.97	4482.13
385.17	4088.92
385.36	3868.91
385.56	3831.46
385.75	4170.83
385.95	4554.68
386.14	4863.63
386.34	4774.69
386.53	4458.72
386.72	4369.78
386.92	4252.75
387.11	4606.17
387.31	4940.87
387.50	4706.82
387.70	4472.76
387.89	4730.22
388.09	4552.34
388.28	4690.43
388.48	4767.67
388.67	5095.35
388.86	5708.57
389.06	6092.41
389.25	6258.59
389.45	6310.08
389.64	6155.61
389.84	6186.04
390.03	6104.12
390.22	6113.48
390.42	6560.52
390.61	6834.36
390.81	7171.40
391.00	7225.23
391.19	7166.72
391.39	6892.88
391.58	6466.90
391.78	6211.78
391.97	6003.47
392.16	5640.69
392.36	4795.76
392.55	3808.05
392.75	3049.72
392.94	2410.75
393.13	2679.91
393.33	3274.41
393.52	4173.18
393.71	5111.73
393.91	5830.27
394.10	6150.93
394.29	6834.36
394.49	7330.56
394.68	7761.22
394.88	7683.98
395.07	8028.04
395.26	8070.17
395.46	7751.85
395.65	7070.76
395.84	6010.50
396.04	4961.94
396.23	4051.47
396.42	3405.48
396.62	3597.40
396.81	4432.97
397.00	5533.03
397.19	7084.80
397.39	8154.43
397.58	9172.56
397.77	9434.70
397.97	9659.39
398.16	9987.07
398.35	10296.02
398.55	10670.50
398.74	10993.50
398.93	11044.99
399.12	11028.60
399.32	10581.56
399.51	10918.60
399.70	11882.90
399.90	11494.37
400.09	11349.26
400.28	11215.85
400.47	11473.31
400.67	12016.31
400.86	12318.24
401.05	12360.37
401.24	12381.43
401.44	12308.88
401.63	12669.32
401.82	12685.70
402.01	12807.41
402.21	12894.01
402.40	12767.62
402.59	12393.14
402.78	11885.24
402.97	11775.24
403.17	12559.31
403.36	12858.90
403.55	13387.86
403.74	13362.12
403.93	12695.07
404.13	11545.86
404.32	12016.31
404.51	12360.37
404.70	12896.35
404.89	12952.52
405.09	12706.77
405.28	12549.95
405.47	12505.48
405.66	12341.64
405.85	12177.81
406.05	11992.90
406.24	12187.17
406.43	12564.00
406.62	12919.76
406.81	13217.01
407.00	12943.16
407.20	12140.36
407.39	12681.02
407.58	13373.82
407.77	13862.99
407.96	14197.69
408.15	14380.25
408.34	14607.28
408.54	15014.54
408.73	14853.04
408.92	14787.50
409.11	14099.39
409.30	13460.42
409.49	12547.61
409.68	11882.90
409.87	12004.61
410.07	13013.38
410.26	13694.47
410.45	14558.13
410.64	14792.19
410.83	15260.29
411.02	15199.44
411.21	16009.26
411.40	15751.81
411.59	16002.24
411.78	15981.18
411.98	15634.78
412.17	16060.76
412.36	15674.57
412.55	15477.96
412.74	15180.71
412.93	15183.06
413.12	15501.37
413.31	16896.33
413.50	17015.69
413.69	17102.29
413.88	16432.90
414.07	16315.87
414.26	16578.01
414.45	16844.84
414.64	16699.72
414.83	16643.55
415.02	16636.53
415.22	16699.72
415.41	17254.43
415.60	17797.43
415.79	18094.68
415.98	18340.44
416.17	18164.90
416.36	17713.17
416.55	17612.53
416.74	16847.18
416.93	16697.38
417.12	16828.45
417.31	17074.21
417.50	17289.54
417.69	17942.55
417.88	17647.64
418.07	17692.11
418.26	17509.55
418.45	17699.13
418.64	18515.98
418.83	19012.17
419.02	18373.21
419.21	17919.14
419.39	17472.10
419.58	16645.89
419.77	17057.82
419.96	18099.36
420.15	19035.58
420.34	19332.82
420.53	19875.83
420.72	19946.05
420.91	20140.31
421.10	19585.60
421.29	19566.88
421.48	18728.97
421.67	20215.21
421.86	19054.30
422.05	17263.79
422.24	15829.04
422.43	16692.70
422.61	19087.07
422.80	19412.40
422.99	18764.07
423.18	18085.32
423.37	18125.11
423.56	18286.61
423.75	18614.28
423.94	19342.19
424.13	17933.18
424.32	17982.34
424.50	18001.06
424.69	18431.72
424.88	18515.98
425.07	18284.26
425.26	18417.68
425.45	17455.72
425.64	17621.89
425.83	17783.39
426.01	18696.20
426.20	18888.12
426.39	18600.24
426.58	17137.40
426.77	16152.04
426.96	16016.29
427.15	16886.97
427.33	18061.91
427.52	18148.51
427.71	18654.07
427.90	18136.81
428.09	17980.00
428.28	17432.31
428.46	16762.92
428.65	16699.72
428.84	17673.39
429.03	17570.40
429.22	16416.52
429.40	15239.23
429.59	13806.82
429.78	12437.61
429.97	12664.64
430.16	12559.31
430.34	12610.81
430.53	13060.19
430.72	13916.83
430.91	15300.08
431.10	18272.56
431.28	20685.65
431.47	22242.11
431.66	21738.90
431.85	19484.96
432.03	17963.61
432.22	17944.89
432.41	19250.91
432.60	21043.76
432.79	21544.63
432.97	21642.93
433.16	20910.35
433.35	18642.37
433.54	16936.12
433.72	16271.40
433.91	17378.48
434.10	19573.90
434.28	20683.31
434.47	21345.69
434.66	20744.17
434.85	20463.30
435.03	20769.91
435.22	21146.74
435.41	22061.89
435.59	22368.50
435.78	22750.01
435.97	23227.48
436.16	22881.08
436.34	22815.54
436.53	22419.99
436.72	22239.77
436.90	20940.77
437.09	21301.22
437.28	21329.30
437.46	21568.04
437.65	21179.51
437.84	19665.18
438.02	18569.81
438.21	19061.32
438.40	19744.76
438.58	20950.14
438.77	22099.34
438.96	21720.17
439.14	23206.41
439.33	23309.40
439.52	23618.35
439.70	22466.80
439.89	22061.89
440.08	21572.72
440.26	21991.67
440.45	23136.20
440.63	24589.67
440.82	24999.26
441.01	25088.20
441.19	24524.13
441.38	25563.33
441.57	26380.18
441.75	26335.71
441.94	27145.53
442.12	26595.51
442.31	26782.75
442.50	27126.81
442.68	26249.11
442.87	26024.42
443.05	26080.59
443.24	26305.28
443.43	26703.17
443.61	27241.50
443.80	27658.11
443.98	26555.72
444.17	26480.82
444.35	27744.71
444.54	28334.53
444.73	27435.76
444.91	26003.35
445.10	25275.45
445.28	24247.95
445.47	24009.22
445.65	24545.20
445.84	25186.50
446.02	25986.97
446.21	26651.68
446.39	26260.81
446.58	26895.10
446.77	27077.66
446.95	27749.39
447.14	28144.94
447.32	28556.88
447.51	28149.62
447.69	27028.51
447.88	27091.70
448.06	27405.33
448.25	27737.69
448.43	27646.41
448.62	27513.00
448.80	26948.93
448.99	27236.81
449.17	28233.88
449.36	28299.42
449.54	28767.52
449.73	28891.57
449.91	29329.25
450.10	30171.85
450.28	30349.73
450.46	30668.04
450.65	30700.81
450.83	30433.99
451.02	29324.57
451.20	29780.98
451.39	29951.84
451.57	29270.74
451.76	29165.42
451.94	28236.22
452.13	27983.44
452.31	26719.56
452.49	25736.53
452.68	26209.32
452.86	26803.82
453.05	27428.74
453.23	28489.00
453.42	28694.97
453.60	29261.38
453.78	29310.53
453.97	29511.81
454.15	28306.44
454.34	27718.96
454.52	27639.39
454.70	27632.36
454.89	28034.94
455.07	28020.89
455.26	29074.13
455.44	30141.42
455.62	30473.78
455.81	30040.78
455.99	30263.13
456.17	30284.19
456.36	30862.30
456.54	31126.78
456.73	30366.11
456.91	31213.38
457.09	31302.32
457.28	32219.81
457.46	30675.06
457.64	30085.25
457.83	29947.15
458.01	29202.86
458.19	30068.86
458.38	31023.80
458.56	31442.76
458.74	31187.64
458.93	30382.49
459.11	30094.61
459.29	29521.18
459.48	30464.41
459.66	30391.86
459.84	30019.71
460.03	30927.84
460.21	30888.05
460.39	31625.32
460.57	31426.37
460.76	32250.24
460.94	31737.66
461.12	32039.59
461.31	32098.11
461.49	32048.96
461.67	32070.02
461.85	32753.46
462.04	32664.52
462.22	32011.51
462.40	32432.80
462.59	31983.42
462.77	32158.96
462.95	31812.56
463.13	32034.91
463.32	31527.02
463.50	31152.53
463.68	31372.54
463.86	31929.59
464.05	30639.95
464.23	30415.26
464.41	30806.13
464.59	30202.27
464.78	31990.44
464.96	31136.15
465.14	30412.92
465.32	32336.84
465.50	33319.87
465.69	33551.58
465.87	32102.79
466.05	31552.76
466.23	30003.33
466.41	29518.84
466.60	30731.23
466.78	30431.65
466.96	30916.14
467.14	31761.07
467.32	31569.15
467.51	31711.92
467.69	30370.79
467.87	30897.41
468.05	31775.11
468.23	31318.71
468.41	31325.73
468.60	31470.84
468.78	32348.54
468.96	31763.41
469.14	32283.01
469.32	32268.97
469.50	30885.71
469.69	30801.45
469.87	30967.63
470.05	30623.57
470.23	30490.16
470.41	30771.02
470.59	30911.46
470.77	31573.83
470.95	32474.93
471.14	33165.39
471.32	32971.13
471.50	34178.84
471.68	34087.56
471.86	34820.15
472.04	34307.57
472.22	34307.57
472.40	33504.77
472.58	33167.73
472.77	32856.44
472.95	33656.90
473.13	34443.32
473.31	33053.05
473.49	32701.96
473.67	33722.44
473.85	34497.16
474.03	36470.23
474.21	35995.10
474.39	36009.14
474.57	35651.04
474.75	35789.13
474.93	35232.08
475.12	34876.32
475.30	34983.99
475.48	34218.63
475.66	34403.53
475.84	33776.27
476.02	34405.88
476.20	34038.41
476.38	34927.81
476.56	35929.56
476.74	36659.81
476.92	36940.68
477.10	37081.11
477.28	38061.79
477.46	37666.24
477.64	38501.81
477.82	38714.80
478.00	39086.95
478.18	37830.08
478.36	37385.38
478.54	38089.88
478.72	38707.78
478.90	40481.91
479.08	42185.82
479.26	40982.78
479.44	41394.71
479.62	40147.21
479.80	41060.02
479.98	40865.75
480.16	41748.14
480.34	40872.78
480.52	42052.41
480.70	42380.08
480.88	41698.98
481.06	42162.41
481.24	42478.38
481.41	43807.81
481.59	44666.78
481.77	43189.91
481.95	42738.18
482.13	42501.79
482.31	43124.37
482.49	43749.29
482.67	43433.32
482.85	43426.30
483.03	43555.03
483.21	44605.93
483.39	44013.77
483.57	43185.22
483.74	43917.81
483.92	44809.56
484.10	44002.07
484.28	44208.04
484.46	44201.02
484.64	46036.00
484.82	45010.84
485.00	44566.14
485.18	43477.79
485.35	41256.62
485.53	36659.81
485.71	34850.58
485.89	35157.19
486.07	37596.03
486.25	39899.11
486.43	42801.38
486.61	42859.89
486.78	42724.14
486.96	44170.59
487.14	45354.90
487.32	45951.74
487.50	47061.15
487.68	48233.76
487.85	49221.47
488.03	47917.79
488.21	47606.50
488.39	47880.34
488.57	46569.64
488.75	45954.08
488.92	47903.74
489.10	50028.95
489.28	51105.60
489.46	52390.55
489.64	52097.98
489.81	52240.76
489.99	50841.12
490.17	51292.84
490.35	51522.21
490.53	51559.66
490.70	50740.47
490.88	50600.04
491.06	51896.70
491.24	52088.62
491.41	50597.70
491.59	49001.46
491.77	49268.28
491.95	50412.80
492.13	51957.55
492.30	52334.38
492.48	53081.01
492.66	53897.86
492.84	53556.14
493.01	53113.78
493.19	52741.63
493.37	52439.70
493.54	52729.93
493.72	53759.76
493.90	54087.44
494.08	54574.27
494.25	54504.06
494.43	55220.26
494.61	55604.11
494.79	55662.62
494.96	55894.33
495.14	55526.87
495.32	53958.71
495.49	54206.81
495.67	54892.58
495.85	55934.12
496.02	56577.77
496.20	56463.08
496.38	55833.48
496.55	55496.44
496.73	56898.42
496.91	56332.01
497.09	56240.73
497.26	56643.30
497.44	56568.41
497.62	55590.06
497.79	54553.21
497.97	53848.71
498.14	54590.66
498.32	55899.01
498.50	55767.94
498.67	55772.63
498.85	56144.77
499.03	56905.44
499.20	57228.44
499.38	56381.16
499.56	56023.06
499.73	55796.03
499.91	55503.46
500.08	54981.52
500.26	54295.75
500.44	55599.43
500.61	55800.71
500.79	55590.06
500.97	55662.62
501.14	54391.71
501.32	54450.22
501.49	54787.26
501.67	54937.05
501.84	55206.22
502.02	55873.27
502.20	56561.39
502.37	56830.55
502.55	56860.97
502.72	57221.42
502.90	57645.05
503.07	57088.01
503.25	56044.13
503.43	55398.14
503.60	54693.64
503.78	54595.34
503.95	55058.76
504.13	56500.53
504.30	56666.71
504.48	56257.12
504.65	56601.18
504.83	56736.93
505.01	57352.49
505.18	57741.02
505.36	58035.92
505.53	57916.56
505.71	58468.92
505.88	58468.92
506.06	57806.55
506.23	57364.19
506.41	57453.13
506.58	57619.31
506.76	57705.91
506.93	56760.33
507.11	56774.37
507.28	57237.80
507.46	56535.64
507.63	56507.55
507.81	55739.86
507.98	56577.77
508.16	57724.63
508.33	57694.21
508.50	58087.42
508.68	58269.98
508.85	58604.67
509.03	58934.69
509.20	57956.35
509.38	57055.24
509.55	57123.11
509.73	57275.25
509.90	57605.26
510.08	57886.13
510.25	57350.15
510.42	57186.31
510.60	58021.88
510.77	57909.53
510.95	58281.68
511.12	58459.56
511.30	58901.92
511.47	59164.06
511.64	58983.84
511.82	59171.08
511.99	57993.79
512.17	58103.80
512.34	57317.38
512.51	57425.04
512.69	57806.55
512.86	57485.90
513.04	58073.37
513.21	57448.45
513.38	56491.17
513.56	56350.74
513.73	55753.90
513.90	56713.52
514.08	56968.64
514.25	56715.86
514.43	57013.11
514.60	57389.94
514.77	57544.41
514.95	57827.62
515.12	57567.82
515.29	58340.19
515.47	58644.46
515.64	58543.82
515.81	58188.06
515.99	56917.15
516.16	55054.08
516.33	52507.58
516.51	52851.64
516.68	51173.47
516.85	50389.39
517.03	52334.38
517.20	55124.30
517.37	57057.58
517.54	57867.40
517.72	56481.81
517.89	53572.52
518.06	51672.01
518.24	53338.47
518.41	55625.17
518.58	56559.05
518.75	56250.09
518.93	56404.57
519.10	55742.20
519.27	56750.97
519.45	57240.14
519.62	57991.45
519.79	58056.99
519.96	57446.11
520.14	57258.87
520.31	56168.18
520.48	56074.55
520.65	57322.06
520.83	58197.42
521.00	58223.17
521.17	57525.69
521.34	57680.16
521.52	57998.48
521.69	58375.30
521.86	58604.67
522.03	58651.48
522.20	56725.22
522.38	56252.44
522.55	57183.97
522.72	57343.12
522.89	56992.04
523.07	57745.70
523.24	57907.19
523.41	58901.92
523.58	59487.06
523.75	59531.53
523.92	59168.74
524.10	58752.13
524.27	58389.34
524.44	58225.51
524.61	58143.59
524.78	58616.38
524.96	58576.59
525.13	58656.17
525.30	59056.40
525.47	59161.72
525.64	58869.15
525.81	58232.53
525.98	56048.81
526.16	55168.77
526.33	55571.34
526.50	54726.41
526.67	54541.50
526.84	55405.16
527.01	56303.93
527.18	56949.92
527.36	57691.86
527.53	58567.23
527.70	58274.66
527.87	56746.29
528.04	57694.21
528.21	58520.41
528.38	58960.44
528.55	59686.00
528.72	59414.50
528.89	58880.86
529.07	58710.00
529.24	57619.31
529.41	57474.20
529.58	57595.90
529.75	58361.26
529.92	58599.99
530.09	58302.74
530.26	59011.93
530.43	59686.00
530.60	58871.49
530.77	59494.08
530.94	59700.04
531.11	58663.19
531.28	58995.54
531.46	58871.49
531.63	58901.92
531.80	58265.30
531.97	57659.10
532.14	57663.78
532.31	56322.65
532.48	55798.37
532.65	55863.91
532.82	56530.96
532.99	58227.85
533.16	58461.90
533.33	58342.53
533.50	58515.73
533.67	58665.53
533.84	57600.58
534.01	57975.07
534.18	58482.97
534.35	58031.24
534.52	57333.76
534.69	58164.65
534.86	58576.59
535.03	58944.05
535.20	58890.22
535.37	59524.50
535.54	59664.94
535.71	59646.21
535.88	59561.95
536.05	58220.83
536.22	57631.01
536.38	57336.10
536.55	56350.74
536.72	56301.59
536.89	57130.14
537.06	57134.82
537.23	57954.00
537.40	57937.62
537.57	57701.23
537.74	58110.82
537.91	58122.52
538.08	57806.55
538.25	57904.85
538.42	58693.61
538.59	57942.30
538.75	56875.02
538.92	56680.75
539.09	57008.43
539.26	56896.08
539.43	56989.70
539.60	57001.41
539.77	57488.24
539.94	57050.56
540.11	56690.12
540.28	56121.37
540.44	55599.43
540.61	55824.12
540.78	56231.37
540.95	57207.37
541.12	57219.08
541.29	57787.83
541.46	57846.34
541.62	58089.76
541.79	57148.86
541.96	56453.72
542.13	56353.08
542.30	56910.13
542.47	57301.00
542.63	56896.08
542.80	56839.91
542.97	56437.34
543.14	56238.39
543.31	56608.20
543.48	57591.22
543.64	57797.19
543.81	59175.76
543.98	58550.84
544.15	56999.07
544.32	57750.38
544.48	57202.69
544.65	57270.57
544.82	57799.53
544.99	56203.28
545.16	55824.12
545.32	56460.74
545.49	57050.56
545.66	57373.55
545.83	57013.11
546.00	57556.11
546.16	57289.29
546.33	57228.44
546.50	57111.41
546.67	57865.06
546.83	56741.61
547.00	57551.43
547.17	56324.99
547.34	55391.12
547.50	55683.69
547.67	56617.56
547.84	57247.16
548.00	57506.96
548.17	57020.13
548.34	57226.10
548.51	57605.26
548.67	58071.03
548.84	57750.38
549.01	57635.69
549.18	57017.79
549.34	56928.85
549.51	57162.90
549.68	57216.74
549.84	56750.97
550.01	56528.62
550.18	56069.87
550.34	56350.74
550.51	56837.57
550.68	57020.13
550.84	56940.55
551.01	56219.67
551.18	56170.52
551.34	55330.26
551.51	56657.35
551.68	56872.68
551.84	56678.41
552.01	56568.41
552.18	56163.50
552.34	55695.39
552.51	55590.06
552.68	55260.05
552.84	55585.38
553.01	55711.77
553.18	56816.50
553.34	56783.74
553.51	56853.95
553.67	56275.84
553.84	56198.60
554.01	56619.90
554.17	56072.21
554.34	56516.92
554.51	56313.29
554.67	55601.77
554.84	55868.59
555.00	55781.99
555.17	55718.79
555.33	55508.14
555.50	54775.56
555.67	56051.15
555.83	55571.34
556.00	55234.30
556.16	55150.04
556.33	54845.77
556.50	55297.50
556.66	55550.27
556.83	55206.22
556.99	54639.81
557.16	55173.45
557.32	54770.88
557.49	55217.92
557.65	54644.49
557.82	55774.97
557.98	55896.67
558.15	54834.07
558.32	53862.75
558.48	53202.72
558.65	53298.68
558.81	53916.58
558.98	54515.76
559.14	54890.24
559.31	54387.03
559.47	53719.98
559.64	53822.96
559.80	53090.37
559.97	54220.85
560.13	55126.64
560.30	56100.30
560.46	56112.00
560.63	56676.07
560.79	56355.42
560.96	55564.32
561.12	54134.25
561.29	53829.98
561.45	53612.31
561.61	55463.67
561.78	54466.61
561.94	54995.57
562.11	54979.18
562.27	54234.89
562.44	54894.92
562.60	55238.98
562.77	55557.30
562.93	54433.84
563.10	54326.17
563.26	54206.81
563.42	55117.28
563.59	54199.79
563.75	53939.99
563.92	54321.49
564.08	53673.16
564.24	54609.38
564.41	53872.11
564.57	54625.76
564.74	54501.71
564.90	53528.05
565.07	53511.67
565.23	52645.67
565.39	52158.84
565.56	52753.33
565.72	52985.05
565.88	51423.91
566.05	54145.95
566.21	54445.54
566.38	53626.35
566.54	53687.21
566.70	54438.52
566.87	54024.25
567.03	53350.17
567.19	54695.98
567.36	55042.38
567.52	53703.59
567.68	53165.27
567.85	52437.36
568.01	52739.29
568.17	52821.21
568.34	53509.33
568.50	53151.23
568.66	53125.48
568.83	52442.04
568.99	52350.76
569.15	52594.18
569.32	53050.58
569.48	52238.42
569.64	51882.66
569.81	51990.32
569.97	51856.91
570.13	51065.81
570.30	51150.07
570.46	50176.40
570.62	49020.18
570.78	49979.80
570.95	50901.97
571.11	50684.30
571.27	50096.83
571.43	50637.49
571.60	50293.43
571.76	51978.62
571.92	52273.52
572.09	52538.01
572.25	52404.59
572.41	53289.32
572.57	52821.21
572.74	52926.53
572.90	53743.38
573.06	52615.24
573.22	53207.40
573.38	52907.81
573.55	54143.61
573.71	52779.08
573.87	52729.93
574.03	52617.58
574.20	51910.74
574.36	52446.72
574.52	51304.54
574.68	51117.30
574.84	50370.67
575.01	50529.83
575.17	51246.03
575.33	51419.23
575.49	51608.81
575.65	50632.81
575.82	50965.17
575.98	50298.11
576.14	51475.40
576.30	51992.66
576.46	50466.63
576.62	50951.12
576.79	50724.09
576.95	50923.04
577.11	51138.36
577.27	51096.24
577.43	51428.59
577.59	50450.25
577.75	48980.39
577.92	49158.27
578.08	49436.80
578.24	50431.52
578.40	50508.76
578.56	49137.21
578.72	49656.81
578.88	49642.76
579.04	49832.35
579.21	49483.61
579.37	49886.18
579.53	50595.36
579.69	49357.22
579.85	49642.76
580.01	49647.44
580.17	49193.38
580.33	50377.69
580.49	50588.34
580.65	48521.65
580.82	49427.43
580.98	50705.37
581.14	50286.41
581.30	50380.03
581.46	49893.20
581.62	50045.33
581.78	50862.18
581.94	50937.08
582.10	51208.58
582.26	51339.65
582.42	50997.93
582.58	49439.14
582.74	49099.76
582.90	49432.11
583.06	50066.40
583.22	50103.85
583.38	50307.47
583.54	50422.16
583.70	50974.53
583.86	50560.25
584.02	49940.01
584.18	49853.41
584.34	49038.90
584.50	48690.16
584.66	48966.35
584.82	49251.89
584.98	49357.22
585.14	48657.40
585.30	48657.40
