SpectraSuite Data File
++++++++++++++++++++++++++++++++++++
Date: Mon Oct 07 14:53:00 GMT-05:00 2013
User: price-jones
Dark Spectrum Present: No
Reference Spectrum Present: No
Number of Sampled Component Spectra: 1
Spectrometers: USB2+H05261
Integration Time (usec): 100000 (USB2+H05261)
Spectra Averaged: 1 (USB2+H05261)
Boxcar Smoothing: 0 (USB2+H05261)
Correct for Electrical Dark: No (USB2+H05261)
Strobe/Lamp Enabled: No (USB2+H05261)
Correct for Detector Non-linearity: No (USB2+H05261)
Correct for Stray Light: No (USB2+H05261)
Number of Pixels in Processed Spectrum: 2048
>>>>>Begin Processed Spectral Data<<<<<
365.73	0.00
365.92	0.00
366.12	0.00
366.32	0.00
366.52	0.00
366.72	0.00
366.91	0.00
367.11	0.00
367.31	0.00
367.51	0.00
367.70	0.00
367.90	0.00
368.10	0.00
368.30	0.00
368.49	0.00
368.69	0.00
368.89	0.00
369.09	0.00
369.28	0.00
369.48	0.00
369.68	0.00
369.87	0.00
370.07	0.00
370.27	0.00
370.47	608.54
370.66	2974.82
370.86	3513.14
371.06	3960.19
371.25	3812.73
371.45	3555.27
371.65	3197.17
371.84	3023.97
372.04	3103.55
372.24	3588.04
372.44	3751.88
372.63	3515.48
372.83	3384.41
373.03	3045.04
373.22	2726.72
373.42	2895.24
373.62	3269.73
373.81	3665.28
374.01	3548.25
374.21	3239.30
374.40	3075.46
374.60	3211.22
374.79	3611.45
374.99	4182.54
375.19	4423.61
375.38	4587.45
375.58	4114.66
375.78	4039.76
375.97	4084.23
376.17	4386.16
376.37	4311.27
376.56	4463.40
376.76	4908.10
376.95	5032.15
377.15	5444.09
377.35	5610.26
377.54	5977.73
377.74	6015.18
377.93	5851.34
378.13	5727.29
378.33	5481.53
378.52	5001.72
378.72	4730.22
378.91	4788.74
379.11	4594.47
379.31	4566.39
379.50	4510.21
379.70	4802.78
379.89	5394.93
380.09	5741.33
380.28	5895.81
380.48	5797.51
380.68	5811.55
380.87	5455.79
381.07	5032.15
381.26	4730.22
381.46	4479.79
381.65	4287.86
381.85	4353.40
382.04	4093.60
382.24	3833.80
382.43	3566.98
382.63	3527.19
382.83	3468.67
383.02	3482.72
383.22	3510.80
383.41	3456.97
383.61	3803.37
383.80	4428.29
384.00	4739.58
384.19	5404.30
384.39	5856.02
384.58	5839.64
384.78	5652.39
384.97	5582.18
385.17	5362.17
385.36	5210.03
385.56	4924.49
385.75	5060.24
385.95	5469.83
386.14	5827.93
386.34	6111.14
386.53	5614.95
386.72	5287.27
386.92	5418.34
387.11	5694.52
387.31	5851.34
387.50	5902.83
387.70	5589.20
387.89	5598.56
388.09	5727.29
388.28	5626.65
388.48	5720.27
388.67	6298.38
388.86	6759.47
389.06	7400.77
389.25	7581.00
389.45	7644.19
389.64	7716.75
389.84	7707.38
390.03	7506.10
390.22	7536.52
390.42	7777.60
390.61	8259.75
390.81	8856.59
391.00	8966.59
391.19	8744.24
391.39	8603.81
391.58	8063.15
391.78	7611.42
391.97	7583.34
392.16	6998.20
392.36	6286.68
392.55	4966.62
392.75	4037.42
392.94	3211.22
393.13	3356.33
393.33	3964.87
393.52	4922.15
393.71	6015.18
393.91	6869.47
394.10	7414.82
394.29	7995.27
394.49	8683.39
394.68	9114.05
394.88	9671.09
395.07	9776.42
395.26	9650.03
395.46	9418.32
395.65	8769.99
395.84	7435.88
396.04	6392.00
396.23	5144.50
396.42	4458.72
396.62	4245.73
396.81	5118.75
397.00	6494.99
397.19	7990.59
397.39	9643.01
397.58	10745.40
397.77	11543.52
397.97	12112.27
398.16	11796.30
398.35	12578.04
398.55	12732.51
398.74	13336.37
398.93	13596.17
399.12	12987.63
399.32	12599.10
399.51	13053.17
399.70	13638.30
399.90	13584.47
400.09	13675.75
400.28	13771.71
400.47	13806.82
400.67	14506.64
400.86	14911.55
401.05	14654.09
401.24	14785.16
401.44	15037.94
401.63	15122.20
401.82	15012.20
402.01	15192.42
402.21	15501.37
402.40	15625.42
402.59	15033.26
402.78	14193.01
402.97	13652.34
403.17	14361.53
403.36	15433.49
403.55	15899.26
403.74	16044.37
403.93	15082.41
404.13	14314.72
404.32	13776.39
404.51	14527.71
404.70	15522.43
404.89	15672.23
405.09	15571.58
405.28	15068.37
405.47	14731.33
405.66	15087.09
405.85	14384.93
406.05	14218.75
406.24	14583.88
406.43	15133.90
406.62	15704.99
406.81	15594.99
407.00	15117.52
407.20	15073.05
407.39	14902.19
407.58	15871.17
407.77	16145.02
407.96	16753.55
408.15	16641.21
408.34	16807.39
408.54	17884.03
408.73	17762.33
408.92	17556.36
409.11	16903.35
409.30	16226.93
409.49	15166.67
409.68	14211.73
409.87	13825.54
410.07	14974.75
410.26	15779.89
410.45	17029.74
410.64	17453.37
410.83	17790.41
411.02	18209.37
411.21	18972.38
411.40	18768.76
411.59	18747.69
411.78	18625.98
411.98	18558.11
412.17	18892.80
412.36	18523.00
412.55	18497.25
412.74	18101.70
412.93	17626.57
413.12	18050.21
413.31	19578.58
413.50	19971.79
413.69	20236.27
413.88	19269.63
414.07	18466.83
414.26	19002.81
414.45	19625.39
414.64	19723.69
414.83	19641.78
415.02	19412.40
415.22	19599.65
415.41	20011.58
415.60	20512.46
415.79	21474.42
415.98	21762.30
416.17	21820.81
416.36	21315.26
416.55	21240.36
416.74	20257.34
416.93	19623.05
417.12	19552.84
417.31	20098.18
417.50	20105.20
417.69	20697.36
417.88	20781.62
418.07	20849.49
418.26	20247.97
418.45	20463.30
418.64	21525.91
418.83	21986.99
419.02	21689.74
419.21	21546.97
419.39	20767.57
419.58	19393.68
419.77	19616.03
419.96	20538.20
420.15	21607.83
420.34	22363.82
420.53	23164.28
420.72	23751.76
420.91	23590.26
421.10	23225.14
421.29	22534.68
421.48	21977.63
421.67	22794.48
421.86	22333.39
422.05	20790.98
422.24	18714.92
422.43	18740.67
422.61	20547.56
422.80	22183.60
422.99	22253.81
423.18	21518.89
423.37	21165.46
423.56	20919.71
423.75	21781.03
423.94	22036.14
424.13	20781.62
424.32	20788.64
424.50	21060.14
424.69	20526.50
424.88	20851.83
425.07	20643.52
425.26	20858.85
425.45	20493.73
425.64	20449.26
425.83	20219.89
426.01	21598.46
426.20	22225.73
426.39	21891.03
426.58	20044.35
426.77	18789.82
426.96	17673.39
427.15	18988.77
427.33	20465.64
427.52	21294.19
427.71	21184.19
427.90	21043.76
428.09	20467.98
428.28	20013.92
428.46	19520.07
428.65	19115.16
428.84	19709.65
429.03	20325.21
429.22	19061.32
429.40	17907.44
429.59	16287.79
429.78	14754.74
429.97	14459.83
430.16	14717.29
430.34	15012.20
430.53	14754.74
430.72	15145.61
430.91	16966.54
431.10	19634.75
431.28	23187.69
431.47	25006.28
431.66	25209.91
431.85	23042.57
432.03	20989.92
432.22	20381.38
432.41	21207.59
432.60	22965.34
432.79	24390.72
432.97	25125.65
433.16	23936.66
433.35	22199.98
433.54	19475.60
433.72	18824.93
433.91	19431.13
434.10	21640.59
434.28	23342.16
434.47	24645.84
434.66	24098.16
434.85	23520.04
435.03	23091.73
435.22	24226.89
435.41	25359.70
435.59	25135.01
435.78	25825.47
435.97	26459.76
436.16	26424.65
436.34	26087.61
436.53	25645.25
436.72	25336.30
436.90	23847.72
437.09	24294.76
437.28	24049.00
437.46	24732.44
437.65	24528.81
437.84	22867.03
438.02	21198.23
438.21	20964.18
438.40	22504.25
438.58	24189.44
438.77	24610.73
438.96	25060.12
439.14	25923.77
439.33	26522.95
439.52	27070.64
439.70	26520.61
439.89	25792.70
440.08	25104.59
440.26	25247.36
440.45	25607.80
440.63	27398.31
440.82	29118.60
441.01	28636.45
441.19	28261.97
441.38	29106.90
441.57	29986.94
441.75	30202.27
441.94	30646.97
442.12	29890.98
442.31	30764.00
442.50	30672.72
442.68	30239.72
442.87	30141.42
443.05	29694.38
443.24	29965.88
443.43	30366.11
443.61	31524.68
443.80	31316.37
443.98	30029.07
444.17	29626.50
444.35	31381.90
444.54	32285.35
444.73	31264.88
444.91	30405.90
445.10	28950.09
445.28	28421.13
445.47	27604.28
445.65	27690.88
445.84	28254.95
446.02	29598.41
446.21	29670.97
446.39	29876.94
446.58	30204.61
446.77	30986.35
446.95	31061.25
447.14	32252.58
447.32	32334.50
447.51	31431.05
447.69	30457.39
447.88	30314.62
448.06	30705.49
448.25	31140.83
448.43	31632.34
448.62	30836.56
448.80	30595.48
448.99	30466.75
449.17	31150.19
449.36	31358.50
449.54	32542.81
449.73	33074.11
449.91	33584.35
450.10	34223.31
450.28	34841.21
450.46	34258.42
450.65	34438.64
450.83	34211.61
451.02	33757.55
451.20	33577.33
451.39	33212.20
451.57	33191.14
451.76	33160.71
451.94	32725.37
452.13	32430.46
452.31	30857.62
452.49	29507.13
452.68	30003.33
452.86	30008.01
453.05	30436.33
453.23	31154.87
453.42	32266.63
453.60	32879.85
453.78	33039.00
453.97	32704.31
454.15	32835.38
454.34	31857.03
454.52	32140.24
454.70	31517.65
454.89	32058.32
455.07	32273.65
455.26	32673.88
455.44	33949.47
455.62	34101.61
455.81	34422.26
455.99	34141.39
456.17	33834.78
456.36	33785.63
456.54	35037.82
456.73	34939.52
456.91	35168.89
457.09	36107.44
457.28	36264.26
457.46	34771.00
457.64	34270.12
457.83	33560.94
458.01	32549.83
458.19	33816.06
458.38	34150.76
458.56	34902.07
458.74	34852.92
458.93	34298.21
459.11	34068.84
459.29	34110.97
459.48	34117.99
459.66	34043.09
459.84	34410.56
460.03	35138.46
460.21	34913.77
460.39	35470.82
460.57	35674.45
460.76	36077.02
460.94	36034.89
461.12	35622.95
461.31	35800.83
461.49	35742.32
461.67	35693.17
461.85	36863.44
462.04	36435.12
462.22	36807.26
462.40	36673.85
462.59	36734.71
462.77	36458.52
462.95	36552.15
463.13	36257.24
463.32	35606.57
463.50	35707.21
463.68	35906.16
463.86	35943.61
464.05	35129.10
464.23	34569.71
464.41	34448.00
464.59	34052.45
464.78	35351.45
464.96	35765.73
465.14	35154.85
465.32	36067.66
465.50	36779.18
465.69	37156.00
465.87	36378.95
466.05	35550.40
466.23	34038.41
466.41	33060.07
466.60	34284.17
466.78	34391.83
466.96	34572.05
467.14	35150.17
467.32	35583.16
467.51	35758.70
467.69	34078.20
467.87	34902.07
468.05	35470.82
468.23	35519.97
468.41	35515.29
468.60	35253.15
468.78	35992.76
468.96	35370.18
469.14	35641.68
469.32	36332.14
469.50	34375.45
469.69	35065.91
469.87	34452.69
470.05	34295.87
470.23	34684.40
470.41	34700.78
470.59	35112.72
470.77	34862.28
470.95	35482.52
471.14	36341.50
471.32	36308.73
471.50	38712.46
471.68	38698.42
471.86	38653.95
472.04	38899.70
472.22	38794.38
472.40	37200.47
472.58	36793.22
472.77	36584.91
472.95	37130.26
473.13	38029.02
473.31	37511.77
473.49	37347.93
473.67	38150.73
473.85	38377.76
474.03	38773.31
474.21	39225.04
474.39	39508.24
474.57	39894.43
474.75	39819.53
474.93	39178.23
475.12	38892.68
475.30	38785.02
475.48	39337.38
475.66	39936.56
475.84	39068.22
476.02	38593.09
476.20	38040.73
476.38	38993.32
476.56	40334.45
476.74	40224.45
476.92	40818.94
477.10	41546.85
477.28	42319.23
477.46	42499.45
477.64	42958.19
477.82	43122.03
478.00	43311.61
478.18	42581.37
478.36	42426.89
478.54	42644.56
478.72	42731.16
478.90	43728.23
479.08	44619.97
479.26	45221.49
479.44	45184.04
479.62	44992.12
479.80	45202.77
479.98	45305.75
480.16	45600.66
480.34	45010.84
480.52	45483.63
480.70	45949.40
480.88	45738.75
481.06	46625.81
481.24	47040.09
481.41	47875.66
481.59	48030.13
481.77	48149.50
481.95	47421.59
482.13	47077.54
482.31	47414.57
482.49	47786.72
482.67	47358.40
482.85	48367.17
483.03	48851.66
483.21	49303.38
483.39	48987.41
483.57	48264.19
483.74	48224.40
483.92	48369.51
484.10	48271.21
484.28	49518.71
484.46	49645.10
484.64	49977.46
484.82	49120.82
485.00	48912.52
485.18	48046.52
485.35	47075.19
485.53	43491.83
485.71	40121.46
485.89	39641.65
486.07	41521.10
486.25	45254.26
486.43	47009.66
486.61	48053.54
486.78	47676.71
486.96	48083.97
487.14	49731.70
487.32	50555.57
487.50	51430.93
487.68	51971.60
487.85	52640.99
488.03	52577.79
488.21	51943.51
488.39	51543.28
488.57	50574.30
488.75	50494.72
488.92	51784.35
489.10	53902.54
489.28	54965.14
489.46	55664.96
489.64	55187.49
489.81	55545.59
489.99	55154.72
490.17	55222.60
490.35	55344.31
490.53	54976.84
490.70	54749.81
490.88	54639.81
491.06	55454.31
491.24	55353.67
491.41	54468.95
491.59	52996.75
491.77	52561.41
491.95	53523.37
492.13	54546.18
492.30	55660.28
492.48	56456.06
492.66	57048.22
492.84	56498.19
493.01	56575.43
493.19	56044.13
493.37	55760.92
493.54	55547.93
493.72	56420.95
493.90	57186.31
494.08	57652.08
494.25	58014.86
494.43	58078.05
494.61	58522.76
494.79	58677.23
494.96	58464.24
495.14	57832.30
495.32	56769.69
495.49	56472.45
495.67	57570.16
495.85	58810.64
496.02	59147.68
496.20	58829.37
496.38	58340.19
496.55	58171.67
496.73	58815.32
496.91	58808.30
497.09	59451.95
497.26	59753.88
497.44	59367.69
497.62	58583.61
497.79	58012.52
497.97	56961.62
498.14	57013.11
498.32	58075.71
498.50	58794.26
498.67	59363.01
498.85	59306.83
499.03	59290.45
499.20	59599.40
499.38	59451.95
499.56	59339.60
499.73	59025.97
499.91	58841.07
500.08	58202.10
500.26	57621.65
500.44	58185.72
500.61	58562.54
500.79	58639.78
500.97	58094.44
501.14	58148.27
501.32	57970.39
501.49	57949.32
501.67	58216.14
501.84	58763.83
502.02	58827.02
502.20	59199.17
502.37	59416.84
502.55	59292.79
502.72	59828.77
502.90	60353.05
503.07	59927.08
503.25	59533.87
503.43	58782.55
503.60	58176.36
503.78	57532.71
503.95	57977.41
504.13	59302.15
504.30	60076.87
504.48	59901.33
504.65	59611.10
504.83	59608.76
505.01	60224.32
505.18	60430.29
505.36	60952.23
505.53	61303.31
505.71	61357.14
505.88	61286.93
506.06	60584.77
506.23	60509.87
506.41	60102.62
506.58	60388.16
506.76	60236.03
506.93	60383.48
507.11	60170.49
507.28	60168.15
507.46	59669.62
507.63	59260.02
507.81	58932.35
507.98	59299.81
508.16	60020.70
508.33	60514.55
508.50	60692.43
508.68	60963.93
508.85	61481.19
509.03	61654.39
509.20	61315.01
509.38	60748.60
509.55	60037.08
509.73	59920.05
509.90	60720.52
510.08	60912.44
510.25	60704.13
510.42	60584.77
510.60	60327.31
510.77	60795.42
510.95	61134.79
511.12	61443.74
511.30	61591.20
511.47	61897.81
511.64	61804.19
511.82	61303.31
511.99	60877.33
512.17	60601.15
512.34	59934.10
512.51	60381.14
512.69	60315.61
512.86	60425.61
513.04	60898.40
513.21	60814.14
513.38	60582.43
513.56	60037.08
513.73	59494.08
513.90	59877.93
514.08	59707.07
514.25	60165.81
514.43	60327.31
514.60	60388.16
514.77	60495.83
514.95	60598.81
515.12	60587.11
515.29	60776.69
515.47	61176.92
515.64	61418.00
515.81	61015.43
515.99	60404.55
516.16	59334.92
516.33	56788.42
516.51	55927.10
516.68	54995.57
516.85	54784.92
517.03	55316.22
517.20	57888.47
517.37	59765.58
517.54	60582.43
517.72	59980.91
517.89	57705.91
518.06	55643.90
518.24	56310.95
518.41	58365.94
518.58	59372.37
518.75	59538.55
518.93	59568.97
519.10	59524.50
519.27	60051.12
519.45	60378.80
519.62	60900.74
519.79	61130.11
519.96	60851.59
520.14	60594.13
520.31	59746.86
520.48	59737.49
520.65	60322.63
520.83	61036.49
521.00	61464.81
521.17	61003.72
521.34	60526.25
521.52	60973.30
521.69	61453.11
521.86	61848.66
522.03	61483.53
522.20	60336.67
522.38	59559.61
522.55	59583.02
522.72	60294.54
522.89	60287.52
523.07	60390.50
523.24	60767.33
523.41	61495.24
523.58	61808.87
523.75	62145.90
523.92	61914.19
524.10	61953.98
524.27	61949.30
524.44	61787.80
524.61	61600.56
524.78	61467.15
524.96	61481.19
525.13	61535.02
525.30	61808.87
525.47	62033.56
525.64	62021.86
525.81	61286.93
525.98	60058.15
526.16	58770.85
526.33	58181.04
526.50	58131.89
526.67	57670.80
526.84	58281.68
527.01	58951.07
527.18	59852.18
527.36	60818.82
527.53	61410.98
527.70	61443.74
527.87	60966.27
528.04	60647.96
528.21	61226.07
528.38	61755.03
528.55	62340.17
528.72	62548.48
528.89	62700.61
529.07	62307.40
529.24	61783.12
529.41	61172.24
529.58	60657.32
529.75	60764.99
529.92	61315.01
530.09	61638.01
530.26	62120.16
530.43	62171.65
530.60	62314.42
530.77	62408.04
530.94	62585.92
531.11	62061.64
531.28	61771.42
531.46	61659.07
531.63	61724.61
531.80	61628.65
531.97	61127.77
532.14	60542.64
532.31	59526.84
532.48	59014.27
532.65	59117.25
532.82	60034.74
532.99	61022.45
533.16	61315.01
533.33	61797.16
533.50	61436.72
533.67	61183.94
533.84	60631.58
534.01	60797.76
534.18	61038.83
534.35	61319.70
534.52	60891.38
534.69	61242.46
534.86	61499.92
535.03	61748.01
535.20	62258.25
535.37	62440.81
535.54	62539.11
535.71	62230.16
535.88	61867.38
536.05	61436.72
536.22	60940.53
536.38	60598.81
536.55	60184.54
536.72	59681.32
536.89	59906.01
537.06	60757.97
537.23	61516.30
537.40	61628.65
537.57	61769.08
537.74	61296.29
537.91	61214.37
538.08	61345.44
538.25	61385.23
538.42	61518.64
538.59	61340.76
538.75	60617.53
538.92	60552.00
539.09	60315.61
539.26	60221.98
539.43	59936.44
539.60	60196.24
539.77	60542.64
539.94	60308.58
540.11	59475.35
540.28	58958.09
540.44	59231.94
540.61	59388.75
540.78	59461.31
540.95	59948.14
541.12	60317.95
541.29	60659.66
541.46	60825.84
541.62	60874.99
541.79	60617.53
541.96	60137.72
542.13	60243.05
542.30	60364.76
542.47	60598.81
542.63	60331.99
542.80	60137.72
542.97	60369.44
543.14	60191.56
543.31	60069.85
543.48	60830.52
543.64	61343.10
543.81	61691.84
543.98	61375.87
544.15	60772.01
544.32	60439.65
544.48	60629.24
544.65	61134.79
544.82	61265.86
544.99	60903.08
545.16	60479.44
545.32	60336.67
545.49	61064.58
545.66	61441.40
545.83	60982.66
546.00	60640.94
546.16	60193.90
546.33	60453.70
546.50	60500.51
546.67	60966.27
546.83	60619.88
547.00	60392.84
547.17	59568.97
547.34	59501.10
547.50	59566.63
547.67	59786.64
547.84	59931.76
548.00	60257.09
548.17	60631.58
548.34	60137.72
548.51	60502.85
548.67	60727.54
548.84	60589.45
549.01	60596.47
549.18	60341.35
549.34	60388.16
549.51	60486.46
549.68	60353.05
549.84	60083.89
550.01	60149.43
550.18	59863.88
550.34	60233.69
550.51	60214.96
550.68	60308.58
550.84	59709.41
551.01	59805.37
551.18	59639.19
551.34	59835.80
551.51	60058.15
551.68	60364.76
551.84	60608.17
552.01	60219.64
552.18	60280.50
552.34	59510.46
552.51	59285.77
552.68	59068.10
552.84	59732.81
553.01	59709.41
553.18	59503.44
553.34	59908.35
553.51	60020.70
553.67	60310.92
553.84	60275.82
554.01	60133.04
554.17	60062.83
554.34	60013.68
554.51	60032.40
554.67	60509.87
554.84	60229.01
555.00	60102.62
555.17	59709.41
555.33	59690.68
555.50	59903.67
555.67	59962.18
555.83	59753.88
556.00	59311.52
556.16	59594.72
556.33	59030.65
556.50	58927.67
556.66	58972.14
556.83	58796.60
556.99	58770.85
557.16	58965.12
557.32	59194.49
557.49	59437.90
557.65	59264.70
557.82	59414.50
557.98	59044.69
558.15	58691.27
558.32	57958.69
558.48	57277.59
558.65	57492.92
558.81	57865.06
558.98	58120.18
559.14	58333.17
559.31	58450.20
559.47	58202.10
559.64	57977.41
559.80	57759.74
559.97	57851.02
560.13	58344.87
560.30	58922.99
560.46	59519.82
560.63	59934.10
560.79	59847.50
560.96	59274.07
561.12	58379.98
561.29	57570.16
561.45	57773.78
561.61	58251.25
561.78	58480.63
561.94	58181.04
562.11	58401.05
562.27	58178.70
562.44	58452.54
562.60	58904.26
562.77	59028.31
562.93	58714.68
563.10	58721.70
563.26	58218.49
563.42	58239.55
563.59	58152.95
563.75	58307.43
563.92	58120.18
564.08	58286.36
564.24	58569.57
564.41	58286.36
564.57	58309.77
564.74	58225.51
564.90	58033.58
565.07	58061.67
565.23	57605.26
565.39	56755.65
565.56	56994.39
565.72	56617.56
565.88	56994.39
566.05	57345.47
566.21	57324.40
566.38	57460.15
566.54	57677.82
566.70	57991.45
566.87	58056.99
567.03	58042.95
567.19	58330.83
567.36	58026.56
567.52	57916.56
567.68	57813.57
567.85	56802.46
568.01	56811.82
568.17	56390.53
568.34	56334.35
568.50	56430.32
568.66	56416.27
568.83	56708.84
568.99	57071.62
569.15	57176.95
569.32	57190.99
569.48	56783.74
569.64	56856.29
569.81	56570.75
569.97	56416.27
570.13	56172.86
570.30	55861.57
570.46	55416.86
570.62	54892.58
570.78	54845.77
570.95	55496.44
571.11	55987.95
571.27	55854.54
571.43	56406.91
571.60	56753.31
571.76	56662.03
571.92	56921.83
572.09	56905.44
572.25	57118.43
572.41	56928.85
572.57	56891.40
572.74	56938.21
572.90	56612.88
573.06	56516.92
573.22	56732.25
573.38	56603.52
573.55	56507.55
573.71	56568.41
573.87	56556.70
574.03	56203.28
574.20	56378.82
574.36	55922.42
574.52	55901.36
574.68	55807.73
574.84	55484.74
575.01	55114.94
575.17	55058.76
575.33	55360.69
575.49	55845.18
575.65	55599.43
575.82	55388.78
575.98	55302.18
576.14	55489.42
576.30	55976.25
576.46	55660.28
576.62	55641.56
576.79	55721.13
576.95	55585.38
577.11	55213.24
577.27	55374.73
577.43	55667.30
577.59	55056.42
577.75	54412.77
577.92	54152.97
578.08	53970.41
578.24	54206.81
578.40	54181.06
578.56	54616.40
578.72	54553.21
578.88	55063.44
579.04	54948.76
579.21	55285.79
579.37	54796.62
579.53	55072.81
579.69	55089.19
579.85	55412.18
580.01	55356.01
580.17	54983.86
580.33	54611.72
580.49	54766.20
580.65	54965.14
580.82	55274.09
580.98	54930.03
581.14	55082.17
581.30	55154.72
581.46	54841.09
581.62	55051.74
581.78	55253.03
581.94	55437.93
582.10	55412.18
582.26	55564.32
582.42	55379.42
582.58	55491.76
582.74	55304.52
582.90	55501.12
583.06	55157.06
583.22	55107.91
583.38	55274.09
583.54	55054.08
583.70	55070.46
583.86	55267.07
584.02	54955.78
584.18	55044.72
584.34	54965.14
584.50	54934.71
584.66	54653.85
584.82	54560.23
584.98	54265.32
585.14	53724.66
585.30	53488.26
