SpectraSuite Data File
++++++++++++++++++++++++++++++++++++
Date: Mon Oct 07 14:54:55 GMT-05:00 2013
User: price-jones
Dark Spectrum Present: No
Reference Spectrum Present: No
Number of Sampled Component Spectra: 1
Spectrometers: USB2+H05261
Integration Time (usec): 10000 (USB2+H05261)
Spectra Averaged: 1 (USB2+H05261)
Boxcar Smoothing: 0 (USB2+H05261)
Correct for Electrical Dark: No (USB2+H05261)
Strobe/Lamp Enabled: No (USB2+H05261)
Correct for Detector Non-linearity: No (USB2+H05261)
Correct for Stray Light: No (USB2+H05261)
Number of Pixels in Processed Spectrum: 2048
>>>>>Begin Processed Spectral Data<<<<<
365.73	0.00
365.92	0.00
366.12	0.00
366.32	0.00
366.52	0.00
366.72	0.00
366.91	0.00
367.11	0.00
367.31	0.00
367.51	0.00
367.70	0.00
367.90	0.00
368.10	0.00
368.30	0.00
368.49	0.00
368.69	0.00
368.89	0.00
369.09	0.00
369.28	0.00
369.48	0.00
369.68	0.00
369.87	0.00
370.07	0.00
370.27	0.00
370.47	0.00
370.66	0.00
370.86	0.00
371.06	0.00
371.25	0.00
371.45	0.00
371.65	0.00
371.84	0.00
372.04	0.00
372.24	42.13
372.44	88.94
372.63	51.49
372.83	4.68
373.03	35.11
373.22	0.00
373.42	0.00
373.62	86.60
373.81	0.00
374.01	86.60
374.21	37.45
374.40	0.00
374.60	14.04
374.79	16.38
374.99	60.85
375.19	84.26
375.38	77.24
375.58	131.07
375.78	182.56
375.97	84.26
376.17	93.62
376.37	81.92
376.56	175.54
376.76	177.88
376.95	154.48
377.15	196.60
377.35	194.26
377.54	217.67
377.74	348.74
377.93	278.52
378.13	112.35
378.33	133.41
378.52	255.12
378.72	121.71
378.91	119.37
379.11	131.07
379.31	100.64
379.50	131.07
379.70	145.11
379.89	159.16
380.09	189.58
380.28	227.03
380.48	294.91
380.68	184.90
380.87	255.12
381.07	110.01
381.26	88.94
381.46	65.54
381.65	79.58
381.85	112.35
382.04	46.81
382.24	25.75
382.43	11.70
382.63	0.00
382.83	42.13
383.02	49.15
383.22	14.04
383.41	9.36
383.61	42.13
383.80	117.03
384.00	149.79
384.19	184.90
384.39	201.29
384.58	234.05
384.78	145.11
384.97	152.13
385.17	88.94
385.36	98.30
385.56	39.79
385.75	175.54
385.95	180.22
386.14	276.18
386.34	269.16
386.53	210.65
386.72	196.60
386.92	220.01
387.11	212.99
387.31	191.92
387.50	245.76
387.70	168.52
387.89	205.97
388.09	170.86
388.28	177.88
388.48	259.80
388.67	299.59
388.86	294.91
389.06	308.95
389.25	386.19
389.45	327.68
389.64	278.52
389.84	449.38
390.03	301.93
390.22	344.06
390.42	353.42
390.61	344.06
390.81	416.62
391.00	444.70
391.19	498.53
391.39	381.51
391.58	369.80
391.78	348.74
391.97	322.99
392.16	330.02
392.36	215.33
392.55	138.09
392.75	74.90
392.94	51.49
393.13	0.00
393.33	4.68
393.52	201.29
393.71	198.95
393.91	297.25
394.10	227.03
394.29	290.23
394.49	404.91
394.68	470.45
394.88	458.74
395.07	585.13
395.26	589.82
395.46	477.47
395.65	423.64
395.84	315.97
396.04	236.39
396.23	194.26
396.42	110.01
396.62	91.28
396.81	119.37
397.00	280.86
397.19	280.86
397.39	496.19
397.58	477.47
397.77	526.62
397.97	720.88
398.16	629.60
398.35	634.29
398.55	741.95
398.74	709.18
398.93	674.07
399.12	763.01
399.32	767.70
399.51	812.17
399.70	753.65
399.90	830.89
400.09	821.53
400.28	805.14
400.47	795.78
400.67	837.91
400.86	884.72
401.05	833.23
401.24	816.85
401.44	821.53
401.63	868.34
401.82	851.96
402.01	983.02
402.21	830.89
402.40	976.00
402.59	844.93
402.78	798.12
402.97	791.10
403.17	802.80
403.36	936.21
403.55	856.64
403.74	954.94
403.93	919.83
404.13	873.02
404.32	833.23
404.51	880.04
404.70	858.98
404.89	1027.50
405.09	844.93
405.28	903.45
405.47	856.64
405.66	873.02
405.85	840.25
406.05	868.34
406.24	842.59
406.43	849.61
406.62	866.00
406.81	976.00
407.00	887.06
407.20	917.49
407.39	898.77
407.58	858.98
407.77	919.83
407.96	912.81
408.15	1055.58
408.34	926.85
408.54	1076.65
408.73	1107.07
408.92	1043.88
409.11	1022.81
409.30	929.19
409.49	877.70
409.68	798.12
409.87	748.97
410.07	800.46
410.26	926.85
410.45	1067.28
410.64	1048.56
410.83	1081.33
411.02	1043.88
411.21	1137.50
411.40	1193.67
411.59	1146.86
411.78	1149.20
411.98	1064.94
412.17	1191.33
412.36	1100.05
412.55	1015.79
412.74	1104.73
412.93	1083.67
413.12	1086.01
413.31	1177.29
413.50	1149.20
413.69	1151.54
413.88	1163.25
414.07	1118.78
414.26	1125.80
414.45	1179.63
414.64	1231.12
414.83	1160.91
415.02	1172.61
415.22	1205.38
415.41	1196.01
415.60	1238.14
415.79	1376.24
415.98	1369.21
416.17	1320.06
416.36	1226.44
416.55	1291.98
416.74	1268.57
416.93	1172.61
417.12	1172.61
417.31	1228.78
417.50	1158.57
417.69	1270.91
417.88	1174.95
418.07	1301.34
418.26	1277.93
418.45	1212.40
418.64	1231.12
418.83	1303.68
419.02	1313.04
419.21	1336.45
419.39	1299.00
419.58	1121.12
419.77	1149.20
419.96	1214.74
420.15	1334.11
420.34	1469.86
420.53	1486.24
420.72	1500.28
420.91	1418.36
421.10	1409.00
421.29	1394.96
421.48	1357.51
421.67	1406.66
421.86	1383.26
422.05	1310.70
422.24	1184.31
422.43	1004.09
422.61	1160.91
422.80	1336.45
422.99	1371.55
423.18	1282.61
423.37	1242.82
423.56	1184.31
423.75	1301.34
423.94	1378.58
424.13	1184.31
424.32	1238.14
424.50	1196.01
424.69	1299.00
424.88	1135.16
425.07	1266.23
425.26	1277.93
425.45	1139.84
425.64	1231.12
425.83	1153.88
426.01	1306.02
426.20	1413.68
426.39	1409.00
426.58	1210.06
426.77	1004.09
426.96	1050.90
427.15	1088.35
427.33	1149.20
427.52	1179.63
427.71	1163.25
427.90	1301.34
428.09	1256.87
428.28	1125.80
428.46	1181.97
428.65	1116.44
428.84	1060.26
429.03	1259.21
429.22	1011.11
429.40	1008.77
429.59	978.34
429.78	781.74
429.97	774.72
430.16	751.31
430.34	910.47
430.53	837.91
430.72	861.32
430.91	884.72
431.10	1179.63
431.28	1364.53
431.47	1502.62
431.66	1561.14
431.85	1397.30
432.03	1369.21
432.22	1100.05
432.41	1186.65
432.60	1387.94
432.79	1455.81
432.97	1460.49
433.16	1423.05
433.35	1270.91
433.54	1128.14
433.72	1043.88
433.91	1083.67
434.10	1275.59
434.28	1366.87
434.47	1497.94
434.66	1441.77
434.85	1462.83
435.03	1437.09
435.22	1291.98
435.41	1572.84
435.59	1596.25
435.78	1542.41
435.97	1575.18
436.16	1696.89
436.34	1586.88
436.53	1603.27
436.72	1502.62
436.90	1460.49
437.09	1479.22
437.28	1355.17
437.46	1401.98
437.65	1462.83
437.84	1373.89
438.02	1221.76
438.21	1259.21
438.40	1324.74
438.58	1502.62
438.77	1509.65
438.96	1502.62
439.14	1551.78
439.33	1495.60
439.52	1664.12
439.70	1521.35
439.89	1511.99
440.08	1439.43
440.26	1483.90
440.45	1540.07
440.63	1561.14
440.82	1645.40
441.01	1734.34
441.19	1657.10
441.38	1652.42
441.57	1717.95
441.75	1792.85
441.94	1825.62
442.12	1724.97
442.31	1818.60
442.50	1844.34
442.68	1774.13
442.87	1802.21
443.05	1682.85
443.24	1743.70
443.43	1788.17
443.61	1771.79
443.80	1947.33
443.98	1783.49
444.17	1760.08
444.35	1884.13
444.54	1921.58
444.73	1944.99
444.91	1617.31
445.10	1668.80
445.28	1647.74
445.47	1643.06
445.65	1582.20
445.84	1713.27
446.02	1771.79
446.21	1827.96
446.39	1776.47
446.58	1820.94
446.77	1764.76
446.95	1846.68
447.14	1844.34
447.32	1900.52
447.51	1914.56
447.69	1902.86
447.88	1734.34
448.06	1870.09
448.25	1937.96
448.43	1830.30
448.62	1825.62
448.80	1804.55
448.99	1746.04
449.17	1823.28
449.36	1895.83
449.54	1898.17
449.73	1921.58
449.91	1923.92
450.10	2069.03
450.28	2106.48
450.46	2010.52
450.65	2078.40
450.83	2047.97
451.02	1987.11
451.20	1881.79
451.39	1919.24
451.57	1877.11
451.76	1921.58
451.94	1940.30
452.13	1863.07
452.31	1893.49
452.49	1736.68
452.68	1792.85
452.86	1776.47
453.05	1795.19
453.23	1785.83
453.42	1851.36
453.60	1912.22
453.78	1975.41
453.97	1949.67
454.15	1996.48
454.34	1863.07
454.52	1954.35
454.70	1865.41
454.89	1724.97
455.07	1858.39
455.26	1914.56
455.44	2036.27
455.62	2022.22
455.81	1970.73
455.99	1933.28
456.17	2078.40
456.36	1982.43
456.54	2052.65
456.73	1949.67
456.91	2005.84
457.09	2012.86
457.28	2080.74
457.46	2047.97
457.64	2071.37
457.83	1856.04
458.01	1886.47
458.19	1944.99
458.38	1888.81
458.56	1994.14
458.74	1949.67
458.93	1973.07
459.11	1930.94
459.29	1949.67
459.48	2017.54
459.66	1959.03
459.84	1977.75
460.03	1977.75
460.21	1944.99
460.39	2073.71
460.57	2031.58
460.76	2153.29
460.94	2059.67
461.12	2050.31
461.31	1991.80
461.49	2080.74
461.67	2012.86
461.85	2122.87
462.04	2143.93
462.22	2165.00
462.40	2232.87
462.59	2181.38
462.77	2202.44
462.95	2127.55
463.13	2101.80
463.32	2064.35
463.50	2225.85
463.68	2045.63
463.86	2012.86
464.05	1984.77
464.23	2010.52
464.41	2092.44
464.59	1802.21
464.78	1961.37
464.96	1966.05
465.14	1984.77
465.32	2104.14
465.50	2176.70
465.69	2066.69
465.87	2108.82
466.05	1877.11
466.23	1949.67
466.41	1919.24
466.60	1959.03
466.78	1898.17
466.96	1956.69
467.14	2036.27
467.32	1961.37
467.51	2054.99
467.69	1783.49
467.87	2040.95
468.05	1923.92
468.23	2019.88
468.41	1944.99
468.60	2012.86
468.78	2005.84
468.96	1970.73
469.14	2160.31
469.32	2036.27
469.50	1898.17
469.69	1909.88
469.87	1963.71
470.05	1935.62
470.23	1844.34
470.41	2078.40
470.59	1954.35
470.77	1825.62
470.95	2094.78
471.14	2134.57
471.32	2008.18
471.50	2193.08
471.68	2076.06
471.86	2076.06
472.04	2186.06
472.22	2157.97
472.40	2076.06
472.58	2054.99
472.77	1956.69
472.95	2197.76
473.13	2120.53
473.31	2125.21
473.49	2143.93
473.67	2169.68
473.85	2108.82
474.03	2186.06
474.21	2265.64
474.39	2235.21
474.57	2377.98
474.75	2375.64
474.93	2291.38
475.12	2172.02
475.30	2125.21
475.48	2249.25
475.66	2183.72
475.84	2289.04
476.02	2225.85
476.20	2139.25
476.38	2225.85
476.56	2286.70
476.74	2265.64
476.92	2385.01
477.10	2438.84
477.28	2415.43
477.46	2469.27
477.64	2424.80
477.82	2445.86
478.00	2443.52
478.18	2331.17
478.36	2403.73
478.54	2403.73
478.72	2424.80
478.90	2630.76
479.08	2609.70
479.26	2597.99
479.44	2635.44
479.62	2537.14
479.80	2553.52
479.98	2647.15
480.16	2593.31
480.34	2616.72
480.52	2523.10
480.70	2605.02
480.88	2609.70
481.06	2810.98
481.24	2771.19
481.41	2649.49
481.59	2810.98
481.77	2665.87
481.95	2612.04
482.13	2780.56
482.31	2670.55
482.49	2839.07
482.67	2771.19
482.85	2773.53
483.03	2759.49
483.21	2850.77
483.39	2857.79
483.57	2729.06
483.74	2651.83
483.92	2822.69
484.10	2780.56
484.28	2752.47
484.46	2942.05
484.64	3009.93
484.82	2935.03
485.00	2918.65
485.18	2740.77
485.35	2569.91
485.53	2394.37
485.71	2190.74
485.89	2136.91
486.07	2251.60
486.25	2619.06
486.43	2705.66
486.61	2736.09
486.78	2843.75
486.96	2715.02
487.14	2818.00
487.32	2890.56
487.50	3021.63
487.68	3075.46
487.85	3080.14
488.03	3117.59
488.21	3227.60
488.39	3197.17
488.57	3021.63
488.75	3038.02
488.92	3180.79
489.10	3197.17
489.28	3274.41
489.46	3410.16
489.64	3478.04
489.81	3466.33
489.99	3552.93
490.17	3492.08
490.35	3487.40
490.53	3274.41
490.70	3475.70
490.88	3330.58
491.06	3407.82
491.24	3534.21
491.41	3379.73
491.59	3213.56
491.77	3112.91
491.95	3066.10
492.13	3290.79
492.30	3475.70
492.48	3555.27
492.66	3541.23
492.84	3590.38
493.01	3709.75
493.19	3597.40
493.37	3433.57
493.54	3501.44
493.72	3574.00
493.90	3798.69
494.08	3721.45
494.25	3782.31
494.43	3826.78
494.61	3880.61
494.79	3887.63
494.96	3824.44
495.14	3744.86
495.32	3613.79
495.49	3599.74
495.67	3707.41
495.85	3904.01
496.02	4098.28
496.20	3904.01
496.38	3985.93
496.55	3772.94
496.73	3955.51
496.91	3936.78
497.09	4051.47
497.26	4112.32
497.44	4044.45
497.62	3779.97
497.79	3838.48
497.97	3730.81
498.14	3702.73
498.32	3681.66
498.50	3971.89
498.67	3904.01
498.85	3889.97
499.03	3988.27
499.20	3981.25
499.38	4025.72
499.56	3948.48
499.73	3859.54
499.91	3911.04
500.08	3770.60
500.26	3698.05
500.44	3763.58
500.61	3831.46
500.79	3817.41
500.97	3681.66
501.14	3644.21
501.32	3777.62
501.49	3726.13
501.67	3660.60
501.84	3868.91
502.02	3763.58
502.20	3789.33
502.37	3904.01
502.55	3981.25
502.72	3929.76
502.90	3964.87
503.07	3918.06
503.25	4058.49
503.43	3873.59
503.60	3920.40
503.78	3641.87
503.95	3646.55
504.13	3948.48
504.30	4100.62
504.48	4023.38
504.65	4021.04
504.83	4060.83
505.01	4060.83
505.18	4074.87
505.36	4210.62
505.53	4210.62
505.71	4264.46
505.88	4100.62
506.06	4065.51
506.23	4030.40
506.41	4007.00
506.58	4198.92
506.76	4168.49
506.93	4210.62
507.11	3967.21
507.28	4133.39
507.46	3988.27
507.63	3969.55
507.81	3833.80
507.98	3918.06
508.16	4081.89
508.33	4208.28
508.50	4117.00
508.68	4124.02
508.85	4194.24
509.03	4182.54
509.20	4194.24
509.38	4086.58
509.55	4044.45
509.73	4107.64
509.90	4053.81
510.08	4035.08
510.25	4007.00
510.42	3983.59
510.60	3953.16
510.77	4191.90
510.95	4362.76
511.12	4255.09
511.30	4318.29
511.47	4243.39
511.64	4241.05
511.82	4315.95
511.99	4182.54
512.17	4102.96
512.34	3971.89
512.51	4028.06
512.69	4128.70
512.86	3948.48
513.04	4014.02
513.21	4128.70
513.38	4077.21
513.56	3995.29
513.73	3941.46
513.90	3929.76
514.08	4018.70
514.25	4035.08
514.43	3906.35
514.60	4091.26
514.77	3978.91
514.95	4126.36
515.12	4145.09
515.29	3929.76
515.47	4229.35
515.64	4318.29
515.81	3983.59
515.99	3971.89
516.16	3911.04
516.33	3480.38
516.51	3351.65
516.68	3274.41
516.85	3148.02
517.03	3365.69
517.20	3541.23
517.37	3955.51
517.54	4039.76
517.72	4042.11
517.89	3585.70
518.06	3398.46
518.24	3349.31
518.41	3634.85
518.58	3817.41
518.75	3822.09
518.93	3798.69
519.10	3712.09
519.27	3964.87
519.45	3831.46
519.62	4098.28
519.79	4215.30
519.96	4212.96
520.14	4058.49
520.31	3948.48
520.48	3847.84
520.65	3929.76
520.83	4051.47
521.00	4126.36
521.17	4117.00
521.34	4016.36
521.52	4154.45
521.69	4093.60
521.86	4248.07
522.03	4280.84
522.20	3983.59
522.38	3749.54
522.55	3824.44
522.72	3833.80
522.89	4053.81
523.07	3887.63
523.24	3913.38
523.41	4191.90
523.58	4329.99
523.75	4271.48
523.92	4468.08
524.10	4259.78
524.27	4301.90
524.44	4386.16
524.61	4095.94
524.78	4128.70
524.96	4004.66
525.13	4128.70
525.30	4142.75
525.47	4320.63
525.64	4231.69
525.81	4128.70
525.98	3864.22
526.16	3639.53
526.33	3520.17
526.50	3531.87
526.67	3475.70
526.84	3585.70
527.01	3758.90
527.18	3768.26
527.36	3999.98
527.53	4147.43
527.70	4205.94
527.87	4046.79
528.04	3962.53
528.21	3999.98
528.38	4180.20
528.55	4369.78
528.72	4395.53
528.89	4299.56
529.07	4224.67
529.24	4257.43
529.41	4060.83
529.58	3901.67
529.75	3962.53
529.92	4131.05
530.09	4187.22
530.26	4294.88
530.43	4093.60
530.60	4121.68
530.77	4322.97
530.94	4189.56
531.11	4273.82
531.28	4163.81
531.46	4058.49
531.63	4161.47
531.80	4187.22
531.97	4102.96
532.14	3962.53
532.31	3765.92
532.48	3908.69
532.65	3620.81
532.82	3761.24
532.99	4058.49
533.16	4081.89
533.33	4093.60
533.50	4109.98
533.67	3955.51
533.84	3843.16
534.01	3971.89
534.18	3815.07
534.35	4004.66
534.52	4032.74
534.69	3978.91
534.86	4205.94
535.03	4138.07
535.20	4119.34
535.37	4194.24
535.54	4360.42
535.71	4252.75
535.88	4077.21
536.05	4086.58
536.22	3929.76
536.38	3833.80
536.55	3873.59
536.72	3831.46
536.89	3822.09
537.06	3808.05
537.23	4063.17
537.40	4117.00
537.57	4046.79
537.74	4025.72
537.91	4163.81
538.08	3948.48
538.25	3875.93
538.42	4044.45
538.59	3969.55
538.75	3882.95
538.92	3880.61
539.09	3936.78
539.26	3770.60
539.43	3758.90
539.60	3754.22
539.77	3892.31
539.94	3918.06
540.11	3770.60
540.28	3754.22
540.44	3625.49
540.61	3648.90
540.78	3775.28
540.95	3822.09
541.12	3913.38
541.29	3892.31
541.46	3908.69
541.62	3896.99
541.79	3960.19
541.96	3868.91
542.13	3817.41
542.30	3763.58
542.47	3913.38
542.63	3913.38
542.80	3758.90
542.97	3819.75
543.14	3747.20
543.31	3866.56
543.48	3885.29
543.64	3885.29
543.81	4007.00
543.98	3857.20
544.15	3999.98
544.32	3920.40
544.48	3906.35
544.65	3887.63
544.82	3922.74
544.99	3859.54
545.16	3770.60
545.32	3744.86
545.49	4009.34
545.66	3948.48
545.83	3918.06
546.00	3866.56
546.16	3761.24
546.33	3878.27
546.50	3796.35
546.67	3894.65
546.83	3894.65
547.00	3817.41
547.17	3756.56
547.34	3550.59
547.50	3728.47
547.67	3754.22
547.84	3681.66
548.00	3838.48
548.17	3772.94
548.34	3857.20
548.51	3843.16
548.67	3868.91
548.84	3911.04
549.01	3763.58
549.18	3833.80
549.34	3836.14
549.51	3794.01
549.68	3911.04
549.84	3838.48
550.01	3808.05
550.18	3604.42
550.34	3623.15
550.51	3719.11
550.68	3763.58
550.84	3702.73
551.01	3667.62
551.18	3592.72
551.34	3805.71
551.51	3660.60
551.68	3847.84
551.84	3854.86
552.01	3707.41
552.18	3810.39
552.34	3679.32
552.51	3681.66
552.68	3494.42
552.84	3606.77
553.01	3751.88
553.18	3695.71
553.34	3644.21
553.51	3588.04
553.67	3726.13
553.84	3712.09
554.01	3684.00
554.17	3707.41
554.34	3726.13
554.51	3714.43
554.67	3854.86
554.84	3754.22
555.00	3684.00
555.17	3707.41
555.33	3728.47
555.50	3639.53
555.67	3714.43
555.83	3646.55
556.00	3571.66
556.16	3571.66
556.33	3531.87
556.50	3524.85
556.66	3478.04
556.83	3485.06
556.99	3431.23
557.16	3400.80
557.32	3585.70
557.49	3665.28
557.65	3566.98
557.82	3627.83
557.98	3592.72
558.15	3438.25
558.32	3424.20
558.48	3258.03
558.65	3414.84
558.81	3255.69
558.98	3363.35
559.14	3384.41
559.31	3321.22
559.47	3335.26
559.64	3281.43
559.80	3370.37
559.97	3358.67
560.13	3377.39
560.30	3382.07
560.46	3510.80
560.63	3669.96
560.79	3707.41
560.96	3613.79
561.12	3550.59
561.29	3267.39
561.45	3279.09
561.61	3384.41
561.78	3421.86
561.94	3442.93
562.11	3368.03
562.27	3393.78
562.44	3246.32
562.60	3459.31
562.77	3391.44
562.93	3503.78
563.10	3342.28
563.26	3393.78
563.42	3452.29
563.59	3227.60
563.75	3342.28
563.92	3361.01
564.08	3342.28
564.24	3449.95
564.41	3351.65
564.57	3524.85
564.74	3382.07
564.90	3344.63
565.07	3337.60
565.23	3211.22
565.39	3136.32
565.56	3136.32
565.72	3035.67
565.88	3021.63
566.05	3265.05
566.21	3318.88
566.38	3316.54
566.54	3267.39
566.70	3351.65
566.87	3295.47
567.03	3311.86
567.19	3407.82
567.36	3297.81
567.52	3339.94
567.68	3253.34
567.85	3176.11
568.01	3222.92
568.17	3166.74
568.34	3052.06
568.50	3150.36
568.66	3105.89
568.83	3234.62
568.99	3124.62
569.15	3145.68
569.32	3229.94
569.48	3129.30
569.64	3185.47
569.81	3112.91
569.97	3241.64
570.13	3133.98
570.30	3157.38
570.46	3021.63
570.62	2916.31
570.78	2932.69
570.95	2986.52
571.11	3096.53
571.27	3061.42
571.43	2965.46
571.60	3136.32
571.76	3080.14
571.92	3117.59
572.09	3112.91
572.25	3239.30
572.41	3295.47
572.57	3164.40
572.74	3119.93
572.90	3166.74
573.06	3145.68
573.22	3141.00
573.38	3131.64
573.55	3119.93
573.71	3199.51
573.87	3087.17
574.03	3215.90
574.20	2995.89
574.36	3108.23
574.52	3061.42
574.68	2949.08
574.84	2958.44
575.01	2951.42
575.17	2928.01
575.33	3052.06
575.49	2918.65
575.65	2932.69
575.82	3000.57
575.98	3038.02
576.14	3019.29
576.30	3061.42
576.46	3094.19
576.62	2944.39
576.79	2984.18
576.95	2822.69
577.11	2974.82
577.27	2998.23
577.43	3040.36
577.59	2986.52
577.75	2904.60
577.92	2832.05
578.08	2754.81
578.24	2792.26
578.40	2810.98
578.56	2960.78
578.72	2860.13
578.88	2869.50
579.04	2890.56
579.21	2860.13
579.37	2871.84
579.53	2920.99
579.69	2846.09
579.85	2930.35
580.01	2967.80
580.17	2799.28
580.33	2965.46
580.49	2876.52
580.65	2864.82
580.82	2935.03
580.98	2967.80
581.14	2932.69
581.30	2920.99
581.46	2853.11
581.62	2951.42
581.78	3061.42
581.94	3007.59
582.10	2979.50
582.26	3012.27
582.42	2909.29
582.58	2904.60
582.74	2883.54
582.90	2981.84
583.06	3014.61
583.22	2972.48
583.38	2923.33
583.54	2878.86
583.70	2888.22
583.86	2822.69
584.02	2899.92
584.18	2827.37
584.34	2857.79
584.50	2780.56
584.66	2869.50
584.82	2813.32
584.98	2745.45
585.14	2853.11
585.30	2700.98
585.46	2700.98
585.62	2478.63
585.78	2668.21
585.94	2612.04
586.10	2780.56
586.26	2719.70
586.42	2710.34
586.58	2794.60
586.74	2843.75
586.90	2785.24
587.06	2803.96
587.22	2759.49
587.38	2745.45
587.54	2703.32
587.70	2698.64
587.86	2590.97
588.02	2675.23
588.18	2527.78
588.34	2513.74
588.49	2335.85
588.65	2277.34
588.81	2267.98
588.97	2275.00
589.13	2249.25
589.29	2183.72
589.45	2265.64
589.61	2422.45
589.77	2406.07
589.93	2527.78
590.08	2527.78
590.24	2499.69
590.40	2619.06
590.56	2511.39
590.72	2539.48
590.88	2480.97
591.04	2527.78
591.20	2443.52
591.35	2509.05
591.51	2478.63
591.67	2576.93
591.83	2504.37
591.99	2452.88
592.15	2661.19
592.31	2492.67
592.46	2502.03
592.62	2466.92
592.78	2459.90
592.94	2497.35
593.10	2520.76
593.26	2623.74
593.41	2562.89
593.57	2602.68
593.73	2520.76
593.89	2480.97
594.05	2544.16
594.20	2377.98
594.36	2303.09
594.52	2331.17
594.68	2366.28
594.84	2385.01
594.99	2605.02
595.15	2438.84
595.31	2464.58
595.47	2464.58
595.62	2546.50
595.78	2480.97
595.94	2457.56
596.10	2532.46
596.25	2448.20
596.41	2574.59
596.57	2382.67
596.73	2502.03
596.88	2527.78
597.04	2431.82
597.20	2506.71
597.36	2377.98
597.51	2502.03
597.67	2305.43
597.83	2476.29
597.99	2408.41
598.14	2289.04
598.30	2396.71
598.46	2452.88
598.61	2340.54
598.77	2424.80
598.93	2410.75
599.09	2504.37
599.24	2396.71
599.40	2459.90
