SpectraSuite Data File
++++++++++++++++++++++++++++++++++++
Date: Mon Oct 07 14:53:02 GMT-05:00 2013
User: price-jones
Dark Spectrum Present: No
Reference Spectrum Present: No
Number of Sampled Component Spectra: 1
Spectrometers: USB2+H05261
Integration Time (usec): 100000 (USB2+H05261)
Spectra Averaged: 1 (USB2+H05261)
Boxcar Smoothing: 0 (USB2+H05261)
Correct for Electrical Dark: No (USB2+H05261)
Strobe/Lamp Enabled: No (USB2+H05261)
Correct for Detector Non-linearity: No (USB2+H05261)
Correct for Stray Light: No (USB2+H05261)
Number of Pixels in Processed Spectrum: 2048
>>>>>Begin Processed Spectral Data<<<<<
365.73	0.00
365.92	0.00
366.12	0.00
366.32	0.00
366.52	0.00
366.72	0.00
366.91	0.00
367.11	0.00
367.31	0.00
367.51	0.00
367.70	0.00
367.90	0.00
368.10	0.00
368.30	0.00
368.49	0.00
368.69	0.00
368.89	0.00
369.09	0.00
369.28	0.00
369.48	0.00
369.68	0.00
369.87	0.00
370.07	0.00
370.27	0.00
370.47	533.64
370.66	2743.11
370.86	3178.45
371.06	3522.51
371.25	3576.34
371.45	3246.32
371.65	2876.52
371.84	2731.41
372.04	2991.20
372.24	3166.74
372.44	3339.94
372.63	3311.86
372.83	3136.32
373.03	2679.91
373.22	2560.55
373.42	2607.36
373.62	3012.27
373.81	3141.00
374.01	3304.84
374.21	3073.12
374.40	2588.63
374.60	2869.50
374.79	3117.59
374.99	3754.22
375.19	3971.89
375.38	4102.96
375.58	3824.44
375.78	3726.13
375.97	3700.39
376.17	3824.44
376.37	3852.52
376.56	4072.53
376.76	4245.73
376.95	4507.87
377.15	4608.51
377.35	5029.81
377.54	5233.44
377.74	5518.98
377.93	5366.85
378.13	4954.91
378.33	4821.50
378.52	4603.83
378.72	4440.00
378.91	4301.90
379.11	4163.81
379.31	4049.13
379.50	4114.66
379.70	4505.53
379.89	4814.48
380.09	4999.38
380.28	5179.61
380.48	5296.63
380.68	5055.56
380.87	4940.87
381.07	4795.76
381.26	4278.50
381.46	4084.23
381.65	3999.98
381.85	3801.03
382.04	3700.39
382.24	3335.26
382.43	3283.77
382.63	3122.27
382.83	3211.22
383.02	3321.22
383.22	3066.10
383.41	3185.47
383.61	3590.38
383.80	3971.89
384.00	4552.34
384.19	4877.68
384.39	5151.52
384.58	5263.86
384.78	5029.81
384.97	5090.67
385.17	4643.62
385.36	4514.89
385.56	4451.70
385.75	4517.23
385.95	5055.56
386.14	5291.95
386.34	5308.34
386.53	5198.33
386.72	4961.94
386.92	4945.55
387.11	5207.69
387.31	5469.83
387.50	5357.49
387.70	5116.41
387.89	4966.62
388.09	5163.22
388.28	5018.11
388.48	5102.37
388.67	5673.46
388.86	6347.53
389.06	6527.75
389.25	6766.49
389.45	7023.95
389.64	7023.95
389.84	6806.28
390.03	6658.82
390.22	6745.42
390.42	6944.37
390.61	7709.72
390.81	7932.08
391.00	8257.41
391.19	8032.72
391.39	7641.85
391.58	7461.63
391.78	6986.50
391.97	6628.40
392.16	6370.94
392.36	5607.92
392.55	4477.44
392.75	3749.54
392.94	2946.73
393.13	2902.26
393.33	3520.17
393.52	4531.28
393.71	5472.17
393.91	6249.23
394.10	6614.35
394.29	7358.64
394.49	7873.56
394.68	8454.02
394.88	8667.00
395.07	8676.37
395.26	8713.81
395.46	8336.99
395.65	7922.71
395.84	7037.99
396.04	5914.53
396.23	4903.42
396.42	3918.06
396.62	3960.19
396.81	4505.53
397.00	5682.82
397.19	7164.38
397.39	8521.89
397.58	9696.84
397.77	10272.61
397.97	10665.82
398.16	10630.71
398.35	10944.34
398.55	11265.00
398.74	11852.47
398.93	12102.91
399.12	11967.16
399.32	11456.92
399.51	11915.67
399.70	12514.84
399.90	12367.39
400.09	12372.07
400.28	12196.53
400.47	12339.30
400.67	12765.28
400.86	13284.88
401.05	13327.01
401.24	13418.29
401.44	13635.96
401.63	13467.44
401.82	13680.43
402.01	13701.50
402.21	14029.17
402.40	13909.80
402.59	13537.66
402.78	12975.93
402.97	12610.81
403.17	13224.03
403.36	13781.07
403.55	14553.45
403.74	14679.84
403.93	14001.08
404.13	13008.70
404.32	12858.90
404.51	13144.45
404.70	14178.97
404.89	13973.00
405.09	14038.53
405.28	13479.15
405.47	13371.48
405.66	13378.50
405.85	13165.51
406.05	12559.31
406.24	13125.72
406.43	13795.12
406.62	14022.15
406.81	14057.26
407.00	13544.68
407.20	13142.11
407.39	13474.46
407.58	14066.62
407.77	14759.42
407.96	15236.89
408.15	15197.10
408.34	15386.68
408.54	16224.59
408.73	16049.05
408.92	15756.49
409.11	15183.06
409.30	14497.28
409.49	13673.41
409.68	12807.41
409.87	12627.19
410.07	13296.58
410.26	14401.32
410.45	15190.08
410.64	15534.14
410.83	16322.90
411.02	16762.92
411.21	17308.26
411.40	17144.42
411.59	16957.18
411.78	16872.92
411.98	16917.39
412.17	17043.78
412.36	16634.19
412.55	16652.91
412.74	16264.38
412.93	15913.30
413.12	16252.68
413.31	17848.93
413.50	17940.21
413.69	18200.01
413.88	17427.63
414.07	16936.12
414.26	17427.63
414.45	17972.97
414.64	17898.08
414.83	17909.78
415.02	17514.23
415.22	17460.40
415.41	18017.44
415.60	18284.26
415.79	19442.83
415.98	19829.02
416.17	19660.50
416.36	19297.72
416.55	18871.74
416.74	18270.22
416.93	17811.48
417.12	17586.79
417.31	17891.06
417.50	18228.09
417.69	18782.80
417.88	18747.69
418.07	18307.67
418.26	18200.01
418.45	18633.00
418.64	19363.25
418.83	19721.35
419.02	19424.11
419.21	19541.13
419.39	18827.27
419.58	17970.63
419.77	17816.16
419.96	18602.58
420.15	19679.22
420.34	19730.72
420.53	20931.41
420.72	20971.20
420.91	20982.90
421.10	20999.29
421.29	20542.88
421.48	19805.61
421.67	20999.29
421.86	20074.77
422.05	18780.46
422.24	16929.09
422.43	16617.80
422.61	18541.72
422.80	20262.02
422.99	19939.02
423.18	19452.19
423.37	19171.33
423.56	19115.16
423.75	19569.22
423.94	19370.27
424.13	18733.65
424.32	18906.85
424.50	19091.75
424.69	18504.28
424.88	18714.92
425.07	19066.00
425.26	18853.02
425.45	18497.25
425.64	18178.94
425.83	18265.54
426.01	19173.67
426.20	19789.23
426.39	19576.24
426.58	18001.06
426.77	16755.90
426.96	16510.14
427.15	16877.60
427.33	18473.85
427.52	19068.34
427.71	18824.93
427.90	18534.70
428.09	18476.19
428.28	18125.11
428.46	17612.53
428.65	17528.27
428.84	17855.95
429.03	18211.71
429.22	17071.87
429.40	16411.84
429.59	14792.19
429.78	13114.02
429.97	13188.92
430.16	12957.21
430.34	13432.33
430.53	13298.92
430.72	13689.79
430.91	15236.89
431.10	17757.64
431.28	20959.50
431.47	22625.96
431.66	22412.97
431.85	20732.47
432.03	18853.02
432.22	18307.67
432.41	19073.03
432.60	21202.91
432.79	21984.65
432.97	22445.74
433.16	21872.31
433.35	19887.53
433.54	17820.84
433.72	17025.06
433.91	17383.16
434.10	19559.86
434.28	21010.99
434.47	21781.03
434.66	21710.81
434.85	21062.48
435.03	21151.42
435.22	21364.41
435.41	23044.91
435.59	23108.11
435.78	23332.80
435.97	23833.68
436.16	23833.68
436.34	23309.40
436.53	23005.13
436.72	23019.17
436.90	21722.51
437.09	21984.65
437.28	21577.40
437.46	21687.40
437.65	22022.10
437.84	20430.54
438.02	19204.10
438.21	18960.68
438.40	20135.63
438.58	21465.05
438.77	22403.61
438.96	22300.62
439.14	23473.23
439.33	23955.38
439.52	23967.09
439.70	23613.66
439.89	23044.91
440.08	22541.70
440.26	22644.68
440.45	23222.80
440.63	24863.51
440.82	26298.26
441.01	25731.85
441.19	25448.64
441.38	25844.20
441.57	26661.04
441.75	27269.58
441.94	27456.82
442.12	26998.08
442.31	27707.26
442.50	27508.32
442.68	27484.91
442.87	26696.15
443.05	26426.99
443.24	26958.29
443.43	27646.41
443.61	28077.07
443.80	28479.64
443.98	26698.49
444.17	26396.56
444.35	28381.34
444.54	28687.95
444.73	28341.55
444.91	27260.22
445.10	26101.65
445.28	24793.29
445.47	24779.25
445.65	25081.18
445.84	25245.02
446.02	26558.06
446.21	26824.88
446.39	26817.86
446.58	27124.47
446.77	27758.75
446.95	28313.46
447.14	28400.06
447.32	29076.48
447.51	28554.54
447.69	27711.94
447.88	27077.66
448.06	27620.66
448.25	28327.50
448.43	28428.15
448.62	27620.66
448.80	27716.62
448.99	28196.43
449.17	28320.48
449.36	28102.81
449.54	29385.43
449.73	29472.03
449.91	29858.21
450.10	30810.81
450.28	30972.31
450.46	31262.54
450.65	30911.46
450.83	30654.00
451.02	29792.68
451.20	29947.15
451.39	30185.89
451.57	29741.19
451.76	29898.00
451.94	29266.06
452.13	29249.67
452.31	27672.15
452.49	26403.58
452.68	27016.80
452.86	27110.43
453.05	27023.83
453.23	28095.79
453.42	28732.42
453.60	29205.20
453.78	29926.09
453.97	29350.32
454.15	29256.70
454.34	28512.41
454.52	28795.61
454.70	28421.13
454.89	28341.55
455.07	28622.41
455.26	29336.27
455.44	30342.70
455.62	30455.05
455.81	31101.04
455.99	30843.58
456.17	30366.11
456.36	30462.07
456.54	31089.34
456.73	31290.62
456.91	32102.79
457.09	31899.16
457.28	32439.82
457.46	31218.07
457.64	31157.21
457.83	30178.87
458.01	29586.71
458.19	30436.33
458.38	30714.85
458.56	31463.82
458.74	31374.88
458.93	30747.62
459.11	30862.30
459.29	30665.70
459.48	30639.95
459.66	30532.29
459.84	30972.31
460.03	31449.78
460.21	31353.82
460.39	31871.07
460.57	31887.46
460.76	32290.03
460.94	32584.94
461.12	31969.38
461.31	32245.56
461.49	32311.10
461.67	32009.17
461.85	33408.81
462.04	32975.81
462.22	33427.53
462.40	33230.93
462.59	32872.82
462.77	32797.93
462.95	32912.61
463.13	31796.18
463.32	32158.96
463.50	32449.19
463.68	32407.06
463.86	32294.71
464.05	31850.01
464.23	30881.03
464.41	30916.14
464.59	30831.88
464.78	31850.01
464.96	31765.75
465.14	31433.39
465.32	32311.10
465.50	33453.28
465.69	33275.40
465.87	32528.77
466.05	31648.72
466.23	30689.10
466.41	29460.32
466.60	30892.73
466.78	31089.34
466.96	31452.12
467.14	31632.34
467.32	32217.47
467.51	32332.16
467.69	30663.36
467.87	31271.90
468.05	31976.40
468.23	32079.38
468.41	31805.54
468.60	31955.33
468.78	32245.56
468.96	31519.99
469.14	32615.37
469.32	32538.13
469.50	31356.16
469.69	31377.22
469.87	31145.51
470.05	31063.59
470.23	30686.76
470.41	31042.53
470.59	31529.36
470.77	31908.52
470.95	32540.47
471.14	32826.01
471.32	32657.49
471.50	34396.51
471.68	34485.45
471.86	35005.05
472.04	35440.39
472.22	34871.64
472.40	33095.18
472.58	33268.37
472.77	33024.96
472.95	33846.49
473.13	34129.69
473.31	33755.21
473.49	33640.52
473.67	34651.63
473.85	34539.29
474.03	35199.32
474.21	35510.61
474.39	35810.20
474.57	36009.14
474.75	35812.54
474.93	35938.93
475.12	34761.64
475.30	34838.87
475.48	34993.35
475.66	35323.36
475.84	35377.20
476.02	34796.74
476.20	34487.79
476.38	35232.08
476.56	36126.17
476.74	36266.60
476.92	36767.48
477.10	37486.02
477.28	38403.51
477.46	38232.65
477.64	38398.83
477.82	38841.19
478.00	38937.15
478.18	38405.85
478.36	38050.09
478.54	38541.60
478.72	38773.31
478.90	39697.83
479.08	40519.35
479.26	41268.33
479.44	41102.15
479.62	40561.48
479.80	40502.97
479.98	40821.28
480.16	41071.72
480.34	40552.12
480.52	41502.38
480.70	41701.32
480.88	41951.76
481.06	42260.71
481.24	42534.56
481.41	43398.21
481.59	43899.09
481.77	43426.30
481.95	43262.46
482.13	43079.90
482.31	42981.60
482.49	43707.16
482.67	43700.14
482.85	44179.95
483.03	44505.29
483.21	44942.97
483.39	44713.59
483.57	44128.46
483.74	43332.68
483.92	44306.34
484.10	43997.39
484.28	45228.51
484.46	45214.47
484.64	46494.74
484.82	44849.35
485.00	44486.56
485.18	43683.76
485.35	42220.92
485.53	39515.26
485.71	35967.01
485.89	35564.44
486.07	37673.26
486.25	40809.58
486.43	42934.79
486.61	43739.93
486.78	43367.79
486.96	43828.87
487.14	45280.00
487.32	46075.79
487.50	47746.93
487.68	48334.40
487.85	49010.82
488.03	48776.76
488.21	48275.89
488.39	47777.36
488.57	46857.52
488.75	46459.63
488.92	48254.82
489.10	50239.60
489.28	51344.33
489.46	52472.47
489.64	52016.07
489.81	52156.50
489.99	51955.21
490.17	51915.42
490.35	52406.94
490.53	51906.06
490.70	51356.03
490.88	51227.31
491.06	52460.77
491.24	52140.11
491.41	50969.85
491.59	49549.14
491.77	48413.98
491.95	49989.16
492.13	51290.50
492.30	52509.92
492.48	53385.28
492.66	53862.75
492.84	53673.16
493.01	53558.48
493.19	52851.64
493.37	52547.37
493.54	52416.30
493.72	53331.45
493.90	54080.42
494.08	54824.71
494.25	55117.28
494.43	55468.36
494.61	55756.24
494.79	55721.13
494.96	55372.39
495.14	54784.92
495.32	53656.78
495.49	53525.71
495.67	54595.34
495.85	55765.60
496.02	56327.33
496.20	55915.40
496.38	55620.49
496.55	55250.69
496.73	55983.27
496.91	55997.32
497.09	56687.78
497.26	56910.13
497.44	56285.20
497.62	55781.99
497.79	54983.86
497.97	53724.66
498.14	53867.43
498.32	55117.28
498.50	56168.18
498.67	56626.92
498.85	56346.06
499.03	56629.26
499.20	56807.14
499.38	56774.37
499.56	56701.82
499.73	56151.79
499.91	55796.03
500.08	55667.30
500.26	54801.30
500.44	55089.19
500.61	55927.10
500.79	55526.87
500.97	55299.84
501.14	55096.21
501.32	55121.96
501.49	54827.05
501.67	55124.30
501.84	55655.60
502.02	56135.41
502.20	56549.68
502.37	56598.83
502.55	56423.29
502.72	57162.90
502.90	57535.05
503.07	57160.56
503.25	56863.32
503.43	55959.87
503.60	55356.01
503.78	54436.18
503.95	55365.37
504.13	56559.05
504.30	57200.35
504.48	56968.64
504.65	56683.09
504.83	56921.83
505.01	57593.56
505.18	57633.35
505.36	58188.06
505.53	58527.44
505.71	58803.62
505.88	58681.91
506.06	57991.45
506.23	57415.68
506.41	57139.50
506.58	57556.11
506.76	57621.65
506.93	57485.90
507.11	57385.25
507.28	57495.26
507.46	57057.58
507.63	56350.74
507.81	55962.21
507.98	56486.49
508.16	57275.25
508.33	57872.09
508.50	58082.73
508.68	58443.18
508.85	58810.64
509.03	58632.76
509.20	58562.54
509.38	57771.44
509.55	57167.58
509.73	57301.00
509.90	57820.59
510.08	57998.48
510.25	57946.98
510.42	57682.50
510.60	57956.35
510.77	58230.19
510.95	58700.64
511.12	58609.35
511.30	58897.24
511.47	59355.99
511.64	59168.74
511.82	58812.98
511.99	58138.91
512.17	57499.94
512.34	57434.41
512.51	57677.82
512.69	57539.73
512.86	57794.85
513.04	58157.63
513.21	58185.72
513.38	57654.42
513.56	57319.72
513.73	56664.37
513.90	56996.73
514.08	57006.09
514.25	57490.58
514.43	57698.89
514.60	57586.54
514.77	57668.46
514.95	57921.24
515.12	57844.00
515.29	58085.07
515.47	58539.14
515.64	58698.30
515.81	58183.38
515.99	57614.63
516.16	56247.75
516.33	54085.10
516.51	52486.51
516.68	51524.55
516.85	51178.15
517.03	51889.68
517.20	54815.35
517.37	57095.03
517.54	58101.46
517.72	57212.06
517.89	54789.60
518.06	52523.96
518.24	52980.37
518.41	55269.41
518.58	56573.09
518.75	56507.55
518.93	56928.85
519.10	56809.48
519.27	57284.61
519.45	57488.24
519.62	58213.80
519.79	58408.07
519.96	58089.76
520.14	57811.23
520.31	57038.86
520.48	56938.21
520.65	57712.93
520.83	58379.98
521.00	58642.12
521.17	58309.77
521.34	58042.95
521.52	58326.15
521.69	58850.43
521.86	59054.06
522.03	58937.03
522.20	57659.10
522.38	56633.94
522.55	56896.08
522.72	57394.62
522.89	57432.07
523.07	57764.42
523.24	57897.83
523.41	58873.84
523.58	59028.31
523.75	59554.93
523.92	59295.13
524.10	59217.89
524.27	59267.05
524.44	59119.59
524.61	58855.11
524.78	58951.07
524.96	58660.85
525.13	58894.90
525.30	59100.87
525.47	59416.84
525.64	59292.79
525.81	58679.57
525.98	57034.17
526.16	55847.52
526.33	55121.96
526.50	54756.83
526.67	54562.57
526.84	55458.99
527.01	56189.24
527.18	56903.10
527.36	57844.00
527.53	58688.93
527.70	58820.00
527.87	58445.52
528.04	57951.66
528.21	58489.99
528.38	59014.27
528.55	59606.42
528.72	59793.67
528.89	59987.93
529.07	59805.37
529.24	59114.91
529.41	58309.77
529.58	57773.78
529.75	57944.64
529.92	58405.73
530.09	58995.54
530.26	59299.81
530.43	59496.42
530.60	59590.04
530.77	59821.75
530.94	59915.37
531.11	59297.47
531.28	59093.85
531.46	58890.22
531.63	59138.32
531.80	58983.84
531.97	58387.00
532.14	57769.10
532.31	56617.56
532.48	55969.23
532.65	56243.07
532.82	57134.82
532.99	58288.70
533.16	58342.53
533.33	59086.82
533.50	58901.92
533.67	58309.77
533.84	57989.11
534.01	58136.57
534.18	58232.53
534.35	58431.47
534.52	58274.66
534.69	58520.41
534.86	58850.43
535.03	59187.47
535.20	59529.19
535.37	59845.16
535.54	59791.33
535.71	59676.64
535.88	59295.13
536.05	58443.18
536.22	58321.47
536.38	57961.03
536.55	57408.66
536.72	57181.63
536.89	57036.51
537.06	57687.18
537.23	58536.80
537.40	59014.27
537.57	59000.22
537.74	58829.37
537.91	58677.23
538.08	58735.74
538.25	58379.98
538.42	58621.06
538.59	58637.44
538.75	57900.17
538.92	57792.51
539.09	57689.52
539.26	57331.42
539.43	57389.94
539.60	57315.04
539.77	57453.13
539.94	57570.16
540.11	56435.00
540.28	56175.20
540.44	56374.14
540.61	56540.32
540.78	56615.22
540.95	57167.58
541.12	57551.43
541.29	57792.51
541.46	58085.07
541.62	58035.92
541.79	57909.53
541.96	57443.77
542.13	57441.43
542.30	57846.34
542.47	57719.95
542.63	57350.15
542.80	57532.71
542.97	57605.26
543.14	57380.57
543.31	57663.78
543.48	57970.39
543.64	58756.81
543.81	59117.25
543.98	58763.83
544.15	57902.51
544.32	57631.01
544.48	57668.46
544.65	58284.02
544.82	58426.79
544.99	58035.92
545.16	57813.57
545.32	57467.17
545.49	58253.59
545.66	58621.06
545.83	58262.96
546.00	57956.35
546.16	57403.98
546.33	57766.76
546.50	57708.25
546.67	58356.58
546.83	57656.76
547.00	57666.12
547.17	57151.20
547.34	56320.31
547.50	56481.81
547.67	57169.93
547.84	56982.68
548.00	57418.02
548.17	57820.59
548.34	57869.75
548.51	57705.91
548.67	57705.91
548.84	57645.05
549.01	57705.91
549.18	57705.91
549.34	57738.68
549.51	57769.10
549.68	57785.49
549.84	57375.89
550.01	56954.60
550.18	57144.18
550.34	57366.53
550.51	57366.53
550.68	57190.99
550.84	56849.27
551.01	57146.52
551.18	56856.29
551.34	57162.90
551.51	57331.42
551.68	57645.05
551.84	57731.65
552.01	57607.61
552.18	57312.70
552.34	56809.48
552.51	56423.29
552.68	56158.81
552.84	56886.72
553.01	56935.87
553.18	56673.73
553.34	56917.15
553.51	57190.99
553.67	57560.79
553.84	57516.32
554.01	57305.68
554.17	57212.06
554.34	57139.50
554.51	57324.40
554.67	57895.49
554.84	57567.82
555.00	57249.50
555.17	56910.13
555.33	56821.19
555.50	57080.98
555.67	57235.46
555.83	56706.50
556.00	56308.61
556.16	56800.12
556.33	56090.94
556.50	55962.21
556.66	56222.01
556.83	55639.22
556.99	56081.58
557.16	56179.88
557.32	56420.95
557.49	56619.90
557.65	56442.02
557.82	56435.00
557.98	56219.67
558.15	55627.51
558.32	54878.54
558.48	54155.32
558.65	54571.93
558.81	54974.50
558.98	55334.95
559.14	55128.98
559.31	55470.70
559.47	55388.78
559.64	55196.85
559.80	54574.27
559.97	54920.67
560.13	55454.31
560.30	56081.58
560.46	56545.00
560.63	56856.29
560.79	56886.72
560.96	56540.32
561.12	55313.88
561.29	54717.04
561.45	54436.18
561.61	55089.19
561.78	55639.22
561.94	55323.24
562.11	55318.56
562.27	55337.29
562.44	55833.48
562.60	55870.93
562.77	56095.62
562.93	55859.23
563.10	55714.11
563.26	55365.37
563.42	55400.48
563.59	55192.17
563.75	55154.72
563.92	55267.07
564.08	55147.70
564.24	55341.97
564.41	55461.33
564.57	55285.79
564.74	55435.59
564.90	54904.29
565.07	54618.74
565.23	54382.35
565.39	53970.41
565.56	53939.99
565.72	53872.11
565.88	54131.91
566.05	54190.42
566.21	54234.89
566.38	54527.46
566.54	54553.21
566.70	55014.29
566.87	54932.37
567.03	55103.23
567.19	55423.89
567.36	54979.18
567.52	55002.59
567.68	54728.75
567.85	54028.93
568.01	53741.04
568.17	53453.15
568.34	53244.85
568.50	53174.63
568.66	53359.53
568.83	53846.36
568.99	53727.00
569.15	54026.59
569.32	53963.39
569.48	53544.44
569.64	53521.03
569.81	53076.33
569.97	53476.56
570.13	53158.25
570.30	52692.48
570.46	52093.30
570.62	51592.43
570.78	51501.15
570.95	52126.07
571.11	52772.06
571.27	52631.63
571.43	53022.50
571.60	53436.77
571.76	53785.51
571.92	53778.49
572.09	53872.11
572.25	53811.26
572.41	54035.95
572.57	53502.31
572.74	53727.00
572.90	53322.08
573.06	53420.39
573.22	53530.39
573.38	53462.52
573.55	53411.02
573.71	53539.75
573.87	53153.57
574.03	53345.49
574.20	53179.31
574.36	52933.56
574.52	52666.73
574.68	52353.10
574.84	52236.08
575.01	51686.05
575.17	51751.59
575.33	51952.87
575.49	52090.96
575.65	52456.09
575.82	52481.83
575.98	52034.79
576.14	51922.44
576.30	52617.58
576.46	52456.09
576.62	52374.17
576.79	52612.90
576.95	52341.40
577.11	51973.94
577.27	52484.17
577.43	52425.66
577.59	51393.48
577.75	51283.48
577.92	50733.45
578.08	50475.99
578.24	50424.50
578.40	51112.62
578.56	51222.62
578.72	51164.11
578.88	51435.61
579.04	51798.40
579.21	51365.40
579.37	51814.78
579.53	51852.23
579.69	51875.63
579.85	51707.12
580.01	51845.21
580.17	51255.39
580.33	51140.71
580.49	51093.89
580.65	51770.31
580.82	51732.86
580.98	51814.78
581.14	51784.35
581.30	51667.33
581.46	51554.98
581.62	51791.37
581.78	51772.65
581.94	51887.34
582.10	51929.47
582.26	52313.31
582.42	51866.27
582.58	52163.52
582.74	51751.59
582.90	52289.91
583.06	52025.43
583.22	51704.77
583.38	51531.57
583.54	51356.03
583.70	51611.15
583.86	51517.53
584.02	51194.54
584.18	51409.87
584.34	51363.06
584.50	51379.44
584.66	51199.22
584.82	50747.50
584.98	51138.36
585.14	50429.18
585.30	49518.71
