SpectraSuite Data File
++++++++++++++++++++++++++++++++++++
Date: Mon Oct 07 14:53:39 GMT-05:00 2013
User: price-jones
Dark Spectrum Present: No
Reference Spectrum Present: No
Number of Sampled Component Spectra: 1
Spectrometers: USB2+H05261
Integration Time (usec): 100000 (USB2+H05261)
Spectra Averaged: 1 (USB2+H05261)
Boxcar Smoothing: 0 (USB2+H05261)
Correct for Electrical Dark: No (USB2+H05261)
Strobe/Lamp Enabled: No (USB2+H05261)
Correct for Detector Non-linearity: No (USB2+H05261)
Correct for Stray Light: No (USB2+H05261)
Number of Pixels in Processed Spectrum: 2048
>>>>>Begin Processed Spectral Data<<<<<
365.73	0.00
365.92	0.00
366.12	0.00
366.32	0.00
366.52	0.00
366.72	0.00
366.91	0.00
367.11	0.00
367.31	0.00
367.51	0.00
367.70	0.00
367.90	0.00
368.10	0.00
368.30	0.00
368.49	0.00
368.69	0.00
368.89	0.00
369.09	0.00
369.28	0.00
369.48	0.00
369.68	0.00
369.87	0.00
370.07	0.00
370.27	0.00
370.47	70.22
370.66	1181.97
370.86	1500.28
371.06	1610.29
371.25	1610.29
371.45	1366.87
371.65	1324.74
371.84	1249.85
372.04	1306.02
372.24	1404.32
372.44	1530.71
372.63	1591.56
372.83	1425.39
373.03	1142.18
373.22	1095.37
373.42	1221.76
373.62	1343.47
373.81	1607.95
374.01	1507.30
374.21	1371.55
374.40	1221.76
374.60	1254.53
374.79	1409.00
374.99	1830.30
375.19	1872.43
375.38	1837.32
375.58	1699.23
375.78	1701.57
375.97	1732.00
376.17	1940.30
376.37	1811.57
376.56	1799.87
376.76	1954.35
376.95	2062.01
377.15	2260.96
377.35	2298.41
377.54	2399.05
377.74	2443.52
377.93	2445.86
378.13	2347.56
378.33	2265.64
378.52	2165.00
378.72	2230.53
378.91	2038.61
379.11	1994.14
379.31	1865.41
379.50	1926.26
379.70	2015.20
379.89	2331.17
380.09	2396.71
380.28	2518.42
380.48	2497.35
380.68	2368.62
380.87	2291.38
381.07	2113.50
381.26	1940.30
381.46	1834.98
381.65	1947.33
381.85	1769.44
382.04	1652.42
382.24	1521.35
382.43	1430.07
382.63	1423.05
382.83	1418.36
383.02	1448.79
383.22	1390.28
383.41	1425.39
383.61	1636.03
383.80	1736.68
384.00	2118.18
384.19	2375.64
384.39	2544.16
384.58	2434.16
384.78	2331.17
384.97	2267.98
385.17	2314.79
385.36	2183.72
385.56	2031.58
385.75	1984.77
385.95	2270.32
386.14	2483.31
386.34	2504.37
386.53	2523.10
386.72	2188.40
386.92	2300.75
387.11	2331.17
387.31	2466.92
387.50	2331.17
387.70	2352.24
387.89	2221.17
388.09	2293.72
388.28	2466.92
388.48	2382.67
388.67	2693.96
388.86	2827.37
389.06	3014.61
389.25	3311.86
389.45	3243.98
389.64	3176.11
389.84	3279.09
390.03	3262.71
390.22	3262.71
390.42	3229.94
390.61	3531.87
390.81	3880.61
391.00	3941.46
391.19	3747.20
391.39	3763.58
391.58	3442.93
391.78	3173.77
391.97	3133.98
392.16	2857.79
392.36	2595.65
392.55	2054.99
392.75	1619.65
392.94	1317.72
393.13	1359.85
393.33	1561.14
393.52	2026.90
393.71	2588.63
393.91	2818.00
394.10	3162.06
394.29	3435.91
394.49	3597.40
394.68	4100.62
394.88	3901.67
395.07	4049.13
395.26	4004.66
395.46	3995.29
395.65	3801.03
395.84	3246.32
396.04	2939.71
396.23	2342.88
396.42	1902.86
396.62	1844.34
396.81	2005.84
397.00	2644.81
397.19	3478.04
397.39	3964.87
397.58	4709.16
397.77	4699.80
397.97	4971.30
398.16	5224.08
398.35	5458.13
398.55	5479.19
398.74	5605.58
398.93	5820.91
399.12	5612.60
399.32	5579.84
399.51	5645.37
399.70	6193.06
399.90	5874.74
400.09	6008.16
400.28	5961.34
400.47	5956.66
400.67	6223.48
400.86	6366.26
401.05	6258.59
401.24	6368.60
401.44	6621.38
401.63	6471.58
401.82	6497.33
402.01	6574.56
402.21	6684.57
402.40	6726.70
402.59	6480.94
402.78	6136.88
402.97	6038.58
403.17	6258.59
403.36	6602.65
403.55	6764.15
403.74	6972.46
403.93	6637.76
404.13	6296.04
404.32	6148.59
404.51	6408.39
404.70	6822.66
404.89	6822.66
405.09	6883.52
405.28	6504.35
405.47	6553.50
405.66	6420.09
405.85	6333.49
406.05	6169.65
406.24	6291.36
406.43	6478.60
406.62	6946.71
406.81	6862.45
407.00	6600.31
407.20	6347.53
407.39	6333.49
407.58	6829.68
407.77	6974.80
407.96	7265.02
408.15	7384.39
408.34	7279.07
408.54	7698.02
408.73	7868.88
408.92	7583.34
409.11	7508.44
409.30	7103.53
409.49	6448.18
409.68	6195.40
409.87	5982.41
410.07	6347.53
410.26	6883.52
410.45	7632.49
410.64	7573.97
410.83	7719.09
411.02	7957.82
411.21	8201.24
411.40	8177.83
411.59	8299.54
411.78	8191.88
411.98	8093.57
412.17	8238.69
412.36	7992.93
412.55	8152.09
412.74	7719.09
412.93	7796.32
413.12	7709.72
413.31	8416.57
413.50	8659.98
413.69	8624.87
413.88	8688.07
414.07	8126.34
414.26	8290.18
414.45	8545.30
414.64	8664.66
414.83	8613.17
415.02	8744.24
415.22	8409.54
415.41	8627.21
415.60	8861.27
415.79	9308.31
415.98	9401.93
416.17	9657.05
416.36	9233.41
416.55	9046.17
416.74	8772.33
416.93	8582.74
417.12	8528.91
417.31	8669.34
417.50	8898.72
417.69	9053.19
417.88	9069.58
418.07	8978.30
418.26	8924.46
418.45	8872.97
418.64	9310.65
418.83	9748.33
419.02	9589.17
419.21	9495.55
419.39	8933.82
419.58	8561.68
419.77	8571.04
419.96	9006.38
420.15	9432.36
420.34	9682.80
420.53	9949.62
420.72	10162.61
420.91	10008.13
421.10	9898.13
421.29	9722.59
421.48	9706.20
421.67	10068.98
421.86	9916.85
422.05	9071.92
422.24	8126.34
422.43	8121.66
422.61	9008.72
422.80	9762.37
422.99	9659.39
423.18	9329.38
423.37	9228.73
423.56	9312.99
423.75	9497.89
423.94	9537.68
424.13	9123.41
424.32	9170.22
424.50	9289.59
424.69	9123.41
424.88	9249.80
425.07	9245.12
425.26	9172.56
425.45	9011.06
425.64	8788.71
425.83	8767.65
426.01	9312.99
426.20	9558.75
426.39	9394.91
426.58	8807.44
426.77	8257.41
426.96	7976.55
427.15	8163.79
427.33	8823.82
427.52	8954.89
427.71	9277.88
427.90	9125.75
428.09	8910.42
428.28	8706.79
428.46	8437.63
428.65	8276.13
428.84	8561.68
429.03	8819.14
429.22	8458.70
429.40	7801.01
429.59	7066.08
429.78	6567.54
429.97	6455.20
430.16	6534.78
430.34	6539.46
430.53	6408.39
430.72	6654.14
430.91	7325.88
431.10	8659.98
431.28	10073.67
431.47	10757.10
431.66	10881.15
431.85	10033.88
432.03	9362.14
432.22	8994.68
432.41	9511.94
432.60	10401.34
432.79	10611.99
432.97	10986.47
433.16	10602.63
433.35	9647.69
433.54	8762.97
433.72	8245.71
433.91	8571.04
434.10	9516.62
434.28	10073.67
434.47	10675.18
434.66	10431.77
434.85	10134.52
435.03	10239.84
435.22	10377.94
435.41	11314.15
435.59	11419.47
435.78	11218.19
435.97	11442.88
436.16	11660.55
436.34	11438.20
436.53	11178.40
436.72	11260.32
436.90	10747.74
437.09	10501.98
437.28	10312.40
437.46	10670.50
437.65	10670.50
437.84	10010.47
438.02	9184.26
438.21	9167.88
438.40	9563.43
438.58	10750.08
438.77	10916.26
438.96	10841.36
439.14	11279.04
439.33	11683.95
439.52	11772.89
439.70	11520.12
439.89	11435.86
440.08	10878.81
440.26	10981.79
440.45	11318.83
440.63	12102.91
440.82	12716.13
441.01	12243.34
441.19	12229.30
441.38	12795.71
441.57	13048.49
441.75	13130.41
441.94	13153.81
442.12	13280.20
442.31	13528.30
442.50	13472.12
442.68	13392.55
442.87	13149.13
443.05	12931.46
443.24	13151.47
443.43	13383.18
443.61	13664.05
443.80	13867.67
443.98	13057.85
444.17	12961.89
444.35	13703.84
444.54	13937.89
444.73	13879.38
444.91	13385.52
445.10	12578.04
445.28	12269.09
445.47	12128.66
445.65	11950.78
445.84	12243.34
446.02	13074.23
446.21	13107.00
446.39	13268.50
446.58	13371.48
446.77	13390.20
446.95	13355.10
447.14	13891.08
447.32	14452.81
447.51	13750.65
447.69	13334.03
447.88	13156.15
448.06	13561.06
448.25	13540.00
448.43	13738.94
448.62	13713.20
448.80	13394.89
448.99	13420.63
449.17	13537.66
449.36	13741.29
449.54	14298.33
449.73	14501.96
449.91	14651.75
450.10	15040.28
450.28	15178.37
450.46	15325.83
450.65	14995.81
450.83	15012.20
451.02	14883.47
451.20	14658.78
451.39	14618.99
451.57	14417.70
451.76	14527.71
451.94	14366.21
452.13	13909.80
452.31	13420.63
452.49	12987.63
452.68	12732.51
452.86	13263.82
453.05	13308.29
453.23	13668.73
453.42	13879.38
453.60	14291.31
453.78	14291.31
453.97	14361.53
454.15	14054.92
454.34	13846.61
454.52	14040.87
454.70	13788.10
454.89	13813.84
455.07	13951.93
455.26	14164.92
455.44	14721.97
455.62	14860.06
455.81	14923.26
455.99	15080.07
456.17	14984.11
456.36	14913.89
456.54	15164.33
456.73	15119.86
456.91	15543.50
457.09	15704.99
457.28	16170.76
457.46	15082.41
457.64	15307.10
457.83	14869.42
458.01	14544.09
458.19	14754.74
458.38	15000.49
458.56	15447.54
458.74	15304.76
458.93	14677.50
459.11	14836.66
459.29	14984.11
459.48	14937.30
459.66	14977.09
459.84	15009.86
460.03	15147.95
460.21	15073.05
460.39	15349.23
460.57	15630.10
460.76	15772.87
460.94	15683.93
461.12	15779.89
461.31	15962.45
461.49	15800.96
461.67	15639.46
461.85	16049.05
462.04	16053.73
462.22	16699.72
462.40	16210.55
462.59	16042.03
462.77	16060.76
462.95	16093.52
463.13	15913.30
463.32	15454.56
463.50	15772.87
463.68	15365.62
463.86	15578.61
464.05	15300.08
464.23	15161.99
464.41	15119.86
464.59	14853.04
464.78	15576.27
464.96	15733.08
465.14	15234.55
465.32	15634.78
465.50	16013.95
465.69	16559.29
465.87	15683.93
466.05	15648.82
466.23	14834.32
466.41	14553.45
466.60	14965.39
466.78	14981.77
466.96	15178.37
467.14	15290.72
467.32	15765.85
467.51	15597.33
467.69	15063.69
467.87	15183.06
468.05	15470.94
468.23	15578.61
468.41	15499.03
468.60	15470.94
468.78	15815.00
468.96	15384.34
469.14	15817.34
469.32	15894.58
469.50	15150.29
469.69	15204.12
469.87	15145.61
470.05	14878.79
470.23	15089.43
470.41	15220.50
470.59	15199.44
470.77	15328.17
470.95	15520.09
471.14	15812.66
471.32	16030.33
471.50	16959.52
471.68	16896.33
471.86	16886.97
472.04	17076.55
472.22	16938.46
472.40	16149.70
472.58	15978.84
472.77	16011.60
472.95	16332.26
473.13	16877.60
473.31	16093.52
473.49	16114.59
473.67	16676.32
473.85	17008.67
474.03	17214.64
474.21	17202.94
474.39	17284.86
474.57	17329.33
474.75	17275.49
474.93	17275.49
475.12	16723.13
475.30	17160.81
475.48	17085.91
475.66	17163.15
475.84	17160.81
476.02	16669.30
476.20	16566.31
476.38	17109.32
476.56	17767.01
476.74	17706.15
476.92	17865.31
477.10	18190.64
477.28	18560.45
477.46	18703.22
477.64	19082.39
477.82	18890.46
478.00	18909.19
478.18	19066.00
478.36	18719.60
478.54	18820.25
478.72	18593.22
478.90	19473.26
479.08	19791.57
479.26	20063.07
479.44	19810.29
479.62	19805.61
479.80	19889.87
479.98	19721.35
480.16	20407.13
480.34	19974.13
480.52	20088.82
480.70	20184.78
480.88	20388.41
481.06	20622.46
481.24	20776.94
481.41	21371.43
481.59	21591.44
481.77	21359.73
481.95	21149.08
482.13	20973.54
482.31	21137.38
482.49	21404.20
482.67	21394.84
482.85	21516.54
483.03	21666.34
483.21	22314.67
483.39	22157.85
483.57	21628.89
483.74	21514.20
483.92	21582.08
484.10	21577.40
484.28	22490.21
484.46	22852.99
484.64	22852.99
484.82	22178.92
485.00	21965.93
485.18	21624.21
485.35	20608.42
485.53	19264.95
485.71	17591.47
485.89	17053.14
486.07	18314.69
486.25	19803.27
486.43	21345.69
486.61	21399.52
486.78	21357.39
486.96	21582.08
487.14	22375.52
487.32	22871.72
487.50	23700.26
487.68	24240.93
487.85	24315.83
488.03	24484.34
488.21	24266.67
488.39	23964.75
488.57	23129.17
488.75	23108.11
488.92	24407.11
489.10	25495.46
489.28	26352.09
489.46	26815.52
489.64	26869.35
489.81	27285.97
489.99	26679.77
490.17	26689.13
490.35	27110.43
490.53	26867.01
490.70	26536.99
490.88	26480.82
491.06	27040.21
491.24	27185.32
491.41	26178.89
491.59	24985.22
491.77	24608.39
491.95	25500.14
492.13	26164.85
492.30	27400.65
492.48	28135.58
492.66	28243.24
492.84	28472.62
493.01	28231.54
493.19	28004.51
493.37	26988.72
493.54	27145.53
493.72	27637.05
493.90	28542.83
494.08	29528.20
494.25	29923.75
494.43	30242.06
494.61	30293.55
494.79	30419.94
494.96	30625.91
495.14	29708.42
495.32	28849.44
495.49	28245.58
495.67	29074.13
495.85	30504.20
496.02	31161.89
496.20	31012.10
496.38	30309.94
496.55	30366.11
496.73	30642.29
496.91	31058.91
497.09	31173.60
497.26	31667.45
497.44	31096.36
497.62	30485.48
497.79	29659.27
497.97	28404.74
498.14	28521.77
498.32	30052.48
498.50	30911.46
498.67	31108.06
498.85	30904.43
499.03	31796.18
499.20	31613.62
499.38	31906.18
499.56	31508.29
499.73	30752.30
499.91	30335.68
500.08	30141.42
500.26	29249.67
500.44	30089.93
500.61	30473.78
500.79	30497.18
500.97	29776.30
501.14	29914.39
501.32	29645.23
501.49	29750.55
501.67	30099.29
501.84	30515.90
502.02	30597.82
502.20	30773.36
502.37	31318.71
502.55	31417.01
502.72	31842.99
502.90	32528.77
503.07	31803.20
503.25	31613.62
503.43	30735.92
503.60	30541.65
503.78	29228.61
503.95	29785.66
504.13	31267.22
504.30	32339.18
504.48	31999.80
504.65	32011.51
504.83	31489.57
505.01	32751.12
505.18	32503.02
505.36	33493.07
505.53	33715.42
505.71	33668.61
505.88	34181.18
506.06	32882.19
506.23	32547.49
506.41	31747.03
506.58	32624.73
506.76	32493.66
506.93	32598.98
507.11	31859.37
507.28	32250.24
507.46	31709.58
507.63	31124.44
507.81	30904.43
507.98	31421.69
508.16	32219.81
508.33	33013.26
508.50	33364.34
508.68	33757.55
508.85	34171.82
509.03	34171.82
509.20	33787.97
509.38	32706.65
509.55	31955.33
509.73	32350.88
509.90	33074.11
510.08	32905.59
510.25	33153.69
510.42	32992.19
510.60	32566.21
510.77	33378.38
510.95	33965.85
511.12	34328.64
511.30	34391.83
511.47	34944.20
511.64	34754.61
511.82	34312.25
511.99	33015.60
512.17	32659.84
512.34	32198.75
512.51	32486.64
512.69	32332.16
512.86	33242.63
513.04	33116.24
513.21	33429.87
513.38	32858.78
513.56	32390.67
513.73	31590.21
513.90	31924.91
514.08	31981.08
514.25	31658.09
514.43	32369.61
514.60	32299.39
514.77	32940.70
514.95	32936.02
515.12	32533.45
515.29	33394.76
515.47	33797.34
515.64	34424.60
515.81	33439.23
515.99	32835.38
516.16	31173.60
516.33	28339.21
516.51	27381.93
516.68	26253.79
516.85	26431.67
517.03	26176.55
517.20	28943.06
517.37	31833.63
517.54	33113.90
517.72	32259.60
517.89	29326.91
518.06	27330.44
518.24	27597.26
518.41	29930.77
518.58	31328.07
518.75	31321.05
518.93	31550.42
519.10	31442.76
519.27	31906.18
519.45	32341.52
519.62	33362.00
519.79	33390.08
519.96	33228.59
520.14	32357.91
520.31	31730.64
520.48	31737.66
520.65	32177.68
520.83	33413.49
521.00	34000.96
521.17	33593.71
521.34	33184.12
521.52	33266.03
521.69	34316.93
521.86	34485.45
522.03	34213.95
522.20	32533.45
522.38	31225.09
522.55	31517.65
522.72	32226.84
522.89	32472.59
523.07	32723.03
523.24	33369.02
523.41	34146.08
523.58	34586.10
523.75	34885.68
523.92	35124.42
524.10	34827.17
524.27	34918.45
524.44	34609.50
524.61	34391.83
524.78	33897.98
524.96	34197.57
525.13	34375.45
525.30	34300.55
525.47	35040.16
525.64	34848.24
525.81	33809.04
525.98	32201.09
526.16	30504.20
526.33	29771.61
526.50	29350.32
526.67	28828.38
526.84	29792.68
527.01	30756.98
527.18	32142.58
527.36	33017.94
527.53	33806.70
527.70	34206.93
527.87	33202.84
528.04	33085.81
528.21	33670.95
528.38	34211.61
528.55	35419.33
528.72	35852.33
528.89	36023.19
529.07	35349.11
529.24	34574.39
529.41	33802.02
529.58	32971.13
529.75	33167.73
529.92	33631.16
530.09	34330.98
530.26	34904.41
530.43	35180.59
530.60	35096.33
530.77	35545.72
530.94	35761.05
531.11	35002.71
531.28	34316.93
531.46	33780.95
531.63	34560.35
531.80	34382.47
531.97	33954.15
532.14	33167.73
532.31	31714.26
532.48	31072.95
532.65	31077.63
532.82	32238.54
532.99	33390.08
533.16	33666.27
533.33	34742.91
533.50	34197.57
533.67	33158.37
533.84	33369.02
534.01	33275.40
534.18	33305.82
534.35	33902.66
534.52	33472.00
534.69	33628.82
534.86	34249.06
535.03	34277.15
535.20	35358.47
535.37	35508.27
535.54	35529.33
535.71	35424.01
535.88	35096.33
536.05	33397.10
536.22	33558.60
536.38	32793.25
536.55	32568.55
536.72	31868.73
536.89	32133.21
537.06	32701.96
537.23	33811.38
537.40	34253.74
537.57	34227.99
537.74	34094.58
537.91	33916.70
538.08	34043.09
538.25	33816.06
538.42	34026.71
538.59	33778.61
538.75	32739.41
538.92	32634.09
539.09	32407.06
539.26	32748.78
539.43	32563.87
539.60	32140.24
539.77	32645.79
539.94	32304.07
540.11	31438.08
540.28	31204.02
540.44	30991.03
540.61	31229.77
540.78	31777.45
540.95	32400.04
541.12	32629.41
541.29	33172.41
541.46	33390.08
541.62	33046.02
541.79	33076.45
541.96	32250.24
542.13	31901.50
542.30	32966.45
542.47	33254.33
542.63	32914.95
542.80	32608.34
542.97	32622.39
543.14	32566.21
543.31	32524.08
543.48	32898.57
543.64	34462.05
543.81	34117.99
543.98	34497.16
544.15	32943.04
544.32	32753.46
544.48	32697.28
544.65	33109.22
544.82	33589.03
544.99	33350.29
545.16	32545.15
545.32	32491.32
545.49	33813.72
545.66	34033.73
545.83	33954.15
546.00	33319.87
546.16	32741.75
546.33	32409.40
546.50	32989.85
546.67	33324.55
546.83	32886.87
547.00	32400.04
547.17	31681.49
547.34	31129.12
547.50	31185.30
547.67	31707.24
547.84	31838.31
548.00	32121.51
548.17	32666.86
548.34	32503.02
548.51	32781.54
548.67	33067.09
548.84	32804.95
549.01	32961.76
549.18	32622.39
549.34	32589.62
549.51	32826.01
549.68	32463.23
549.84	32357.91
550.01	32409.40
550.18	32247.90
550.34	31810.22
550.51	32250.24
550.68	32217.47
550.84	31211.04
551.01	32041.93
551.18	31662.77
551.34	31971.72
551.51	32222.16
551.68	32940.70
551.84	32664.52
552.01	32465.57
552.18	32142.58
552.34	31585.53
552.51	31007.42
552.68	31281.26
552.84	31681.49
553.01	31459.14
553.18	31828.95
553.34	31412.33
553.51	31887.46
553.67	31889.80
553.84	32671.54
554.01	31929.59
554.17	32325.14
554.34	32142.58
554.51	32430.46
554.67	32144.92
554.84	32723.03
555.00	31758.73
555.17	31742.35
555.33	31592.55
555.50	31519.99
555.67	31648.72
555.83	31672.13
556.00	31267.22
556.16	31274.24
556.33	30836.56
556.50	30185.89
556.66	30541.65
556.83	30433.99
556.99	30658.68
557.16	30742.94
557.32	30876.35
557.49	31019.12
557.65	30820.17
557.82	31318.71
557.98	30553.35
558.15	30199.93
558.32	29420.53
558.48	28994.56
558.65	29315.21
558.81	29214.57
558.98	29460.32
559.14	30113.33
559.31	30113.33
559.47	30089.93
559.64	29312.87
559.80	29142.01
559.97	29116.26
560.13	29394.79
560.30	30766.34
560.46	31248.49
560.63	31510.63
560.79	31281.26
560.96	31129.12
561.12	30136.74
561.29	28933.70
561.45	29071.79
561.61	29685.01
561.78	30082.91
561.94	30059.50
562.11	29745.87
562.27	29551.60
562.44	30143.76
562.60	30274.83
562.77	30419.94
562.93	30387.18
563.10	30618.89
563.26	29380.74
563.42	29893.32
563.59	29802.04
563.75	29673.31
563.92	29532.88
564.08	29450.96
564.24	30022.05
564.41	29900.34
564.57	29612.46
564.74	29820.77
564.90	29326.91
565.07	29319.89
565.23	29111.58
565.39	28444.53
565.56	28121.54
565.72	27920.25
565.88	28456.23
566.05	28187.07
566.21	28732.42
566.38	28320.48
566.54	29015.62
566.70	29401.81
566.87	29621.82
567.03	29523.52
567.19	29668.63
567.36	29350.32
567.52	29284.78
567.68	29001.58
567.85	28329.84
568.01	27948.34
568.17	27655.77
568.34	27637.05
568.50	27821.95
568.66	27903.87
568.83	28402.40
568.99	28023.23
569.15	28814.34
569.32	28332.18
569.48	27847.69
569.64	28285.37
569.81	27644.07
569.97	27627.68
570.13	27669.81
570.30	27082.34
570.46	26513.59
570.62	26192.94
570.78	26005.69
570.95	26529.97
571.11	27112.77
571.27	27576.19
571.43	27358.52
571.60	27639.39
571.76	27974.08
571.92	28105.15
572.09	28617.73
572.25	28184.73
572.41	28156.64
572.57	28252.61
572.74	28053.66
572.90	27545.76
573.06	27880.46
573.22	27913.23
573.38	27466.19
573.55	27885.14
573.71	28201.11
573.87	28180.05
574.03	27229.79
574.20	27388.95
574.36	27278.94
574.52	27358.52
574.68	26806.16
574.84	26778.07
575.01	26366.13
575.17	26347.41
575.33	26480.82
575.49	26782.75
575.65	26836.58
575.82	26707.85
575.98	26780.41
576.14	26862.33
576.30	27101.06
576.46	27087.02
576.62	26960.63
576.79	26979.36
576.95	26513.59
577.11	26597.85
577.27	27096.38
577.43	26724.24
577.59	26728.92
577.75	26228.04
577.92	25432.26
578.08	25296.51
578.24	25345.66
578.40	25652.27
578.56	26202.30
578.72	25968.24
578.88	26237.41
579.04	26209.32
579.21	26448.05
579.37	26309.96
579.53	26431.67
579.69	26321.66
579.85	26780.41
580.01	26473.80
580.17	26426.99
580.33	26157.83
580.49	26141.44
580.65	26450.39
580.82	26405.92
580.98	26562.74
581.14	26515.93
581.30	26663.38
581.46	26134.42
581.62	26405.92
581.78	26206.98
581.94	26909.14
582.10	26654.02
582.26	26794.45
582.42	26443.37
582.58	26717.22
582.74	26253.79
582.90	26829.56
583.06	26775.73
583.22	26321.66
583.38	26560.40
583.54	26401.24
583.70	26120.38
583.86	26150.81
584.02	26314.64
584.18	26434.01
584.34	25820.79
584.50	25881.64
584.66	25912.07
584.82	25685.04
584.98	25343.32
585.14	25228.63
585.30	24711.38
585.46	24879.89
585.62	24484.34
585.78	24884.58
585.94	24760.53
586.10	25261.40
586.26	25207.57
586.42	25497.80
586.58	25467.37
586.74	25406.52
586.90	25556.31
587.06	25324.60
