SpectraSuite Data File
++++++++++++++++++++++++++++++++++++
Date: Mon Oct 07 14:53:27 GMT-05:00 2013
User: price-jones
Dark Spectrum Present: No
Reference Spectrum Present: No
Number of Sampled Component Spectra: 1
Spectrometers: USB2+H05261
Integration Time (usec): 100000 (USB2+H05261)
Spectra Averaged: 1 (USB2+H05261)
Boxcar Smoothing: 0 (USB2+H05261)
Correct for Electrical Dark: No (USB2+H05261)
Strobe/Lamp Enabled: No (USB2+H05261)
Correct for Detector Non-linearity: No (USB2+H05261)
Correct for Stray Light: No (USB2+H05261)
Number of Pixels in Processed Spectrum: 2048
>>>>>Begin Processed Spectral Data<<<<<
365.73	0.00
365.92	0.00
366.12	0.00
366.32	0.00
366.52	0.00
366.72	0.00
366.91	0.00
367.11	0.00
367.31	0.00
367.51	0.00
367.70	0.00
367.90	0.00
368.10	0.00
368.30	0.00
368.49	0.00
368.69	0.00
368.89	0.00
369.09	0.00
369.28	0.00
369.48	0.00
369.68	0.00
369.87	0.00
370.07	0.00
370.27	0.00
370.47	699.82
370.66	3459.31
370.86	4093.60
371.06	4461.06
371.25	4533.62
371.45	4063.17
371.65	3768.26
371.84	3391.44
372.04	3609.11
372.24	3969.55
372.44	4032.74
372.63	4095.94
372.83	3906.35
373.03	3417.18
373.22	3103.55
373.42	3349.31
373.62	3981.25
373.81	4187.22
374.01	4238.71
374.21	3740.18
374.40	3412.50
374.60	3644.21
374.79	4131.05
374.99	4837.89
375.19	5167.90
375.38	5123.43
375.58	4732.56
375.78	4858.95
375.97	4765.33
376.17	5095.35
376.37	4865.97
376.56	5036.83
376.76	5298.97
376.95	5692.18
377.15	6195.40
377.35	6317.11
377.54	6761.81
377.74	6766.49
377.93	6733.72
378.13	6710.32
378.33	6324.13
378.52	5860.70
378.72	5750.70
378.91	5570.48
379.11	5423.02
379.31	5125.77
379.50	5144.50
379.70	5675.80
379.89	6106.46
380.09	6494.99
380.28	6663.51
380.48	6677.55
380.68	6661.16
380.87	6478.60
381.07	5963.68
381.26	5423.02
381.46	5156.20
381.65	4945.55
381.85	4809.80
382.04	4603.83
382.24	4355.74
382.43	4138.07
382.63	4014.02
382.83	3920.40
383.02	4140.41
383.22	4032.74
383.41	4098.28
383.61	4376.80
383.80	5060.24
384.00	5596.22
384.19	6396.68
384.39	6766.49
384.58	6612.01
384.78	6342.85
384.97	6450.52
385.17	5998.79
385.36	5767.08
385.56	5589.20
385.75	5631.33
385.95	6153.27
386.14	6843.73
386.34	6710.32
386.53	6436.47
386.72	6036.24
386.92	6090.07
387.11	6242.21
387.31	6874.15
387.50	6710.32
387.70	6506.69
387.89	6347.53
388.09	6366.26
388.28	6502.01
388.48	6380.30
388.67	6862.45
388.86	7850.16
389.06	8376.78
389.25	8636.58
389.45	8713.81
389.64	8847.22
389.84	8580.40
390.03	8524.23
390.22	8432.95
390.42	9036.81
390.61	9434.70
390.81	10169.63
391.00	10246.87
391.19	10204.74
391.39	9717.90
391.58	9280.22
391.78	8627.21
391.97	8271.45
392.16	7786.96
392.36	7206.51
392.55	5727.29
392.75	4624.90
392.94	3616.13
393.13	3578.68
393.33	4538.30
393.52	5659.42
393.71	6930.33
393.91	7894.63
394.10	8149.75
394.29	9109.36
394.49	9970.68
394.68	10628.37
394.88	10635.39
395.07	11176.06
395.26	10874.13
395.46	10611.99
395.65	10193.03
395.84	8753.60
396.04	7356.30
396.23	6122.84
396.42	4919.81
396.62	4711.50
396.81	5678.14
397.00	7162.04
397.19	9027.45
397.39	10719.65
397.58	11929.71
397.77	12952.52
397.97	13591.49
398.16	13514.25
398.35	14090.02
398.55	14120.45
398.74	14867.08
398.93	15213.48
399.12	15028.58
399.32	14207.05
399.51	14951.34
399.70	15761.17
399.90	15494.35
400.09	15543.50
400.28	15370.30
400.47	15524.77
400.67	16690.36
400.86	16791.00
401.05	16748.87
401.24	16877.60
401.44	16971.22
401.63	17266.13
401.82	17413.59
402.01	17446.35
402.21	17209.96
402.40	17755.30
402.59	17177.19
402.78	16226.93
402.97	15906.28
403.17	16264.38
403.36	17415.93
403.55	18003.40
403.74	18349.80
403.93	17539.97
404.13	15737.76
404.32	15665.21
404.51	16489.07
404.70	17708.49
404.89	17848.93
405.09	17401.88
405.28	16971.22
405.47	16879.94
405.66	17006.33
405.85	16500.78
406.05	15929.69
406.24	16308.85
406.43	17425.29
406.62	17848.93
406.81	17830.20
407.00	16968.88
407.20	16741.85
407.39	16776.96
407.58	17689.77
407.77	18305.33
407.96	19166.65
408.15	18862.38
408.34	19487.30
408.54	20013.92
408.73	20252.66
408.92	19831.36
409.11	19168.99
409.30	18363.84
409.49	17181.87
409.68	15946.07
409.87	15449.88
410.07	16823.77
410.26	17968.29
410.45	19370.27
410.64	19625.39
410.83	20269.04
411.02	20680.97
411.21	21277.81
411.40	21104.61
411.59	21238.02
411.78	20833.11
411.98	20982.90
412.17	21170.15
412.36	20819.07
412.55	20718.42
412.74	20418.83
412.93	20191.80
413.12	20229.25
413.31	22328.71
413.50	22347.44
413.69	22684.47
413.88	21750.60
414.07	21060.14
414.26	21310.58
414.45	21958.91
414.64	21921.46
414.83	22581.49
415.02	21895.71
415.22	21951.88
415.41	22625.96
415.60	22895.12
415.79	23924.96
415.98	24683.29
416.17	24531.15
416.36	23927.30
416.55	23901.55
416.74	22684.47
416.93	22113.38
417.12	22120.40
417.31	22274.88
417.50	22551.06
417.69	23585.58
417.88	23534.09
418.07	22967.68
418.26	22689.15
418.45	23091.73
418.64	24156.67
418.83	24606.05
419.02	24496.05
419.21	23955.38
419.39	23201.73
419.58	21776.34
419.77	22164.87
419.96	23063.64
420.15	24636.48
420.34	25146.72
420.53	25940.16
420.72	26387.20
420.91	26307.62
421.10	26071.23
421.29	25450.99
421.48	24837.76
421.67	25876.96
421.86	25472.05
422.05	23758.78
422.24	21095.25
422.43	20840.13
422.61	23314.08
422.80	25127.99
422.99	25186.50
423.18	23950.70
423.37	23791.55
423.56	23618.35
423.75	24184.76
423.94	24622.44
424.13	23117.47
424.32	23529.41
424.50	23662.82
424.69	23335.14
424.88	23590.26
425.07	23307.05
425.26	23211.09
425.45	22906.82
425.64	22452.76
425.83	22651.70
426.01	24088.79
426.20	24430.51
426.39	24582.65
426.58	22539.36
426.77	21238.02
426.96	20224.57
427.15	21008.65
427.33	22897.46
427.52	23520.04
427.71	23683.88
427.90	23372.59
428.09	23105.77
428.28	22567.45
428.46	21954.22
428.65	21687.40
428.84	22050.19
429.03	22635.32
429.22	21530.59
429.40	20102.86
429.59	18422.36
429.78	16173.10
429.97	16320.56
430.16	16512.48
430.34	16437.58
430.53	16446.94
430.72	16912.71
430.91	18625.98
431.10	22099.34
431.28	25713.13
431.47	27943.66
431.66	28334.53
431.85	25673.34
432.03	23793.89
432.22	22867.03
432.41	23576.22
432.60	26466.78
432.79	27337.46
432.97	27864.08
433.16	27253.20
433.35	24601.37
433.54	22127.42
433.72	20952.48
433.91	22026.78
434.10	23852.40
434.28	25722.49
434.47	27297.67
434.66	27056.59
434.85	26246.77
435.03	26071.23
435.22	26824.88
435.41	28304.10
435.59	28130.90
435.78	28383.68
435.97	29502.45
436.16	29427.56
436.34	29432.24
436.53	28437.51
436.72	28421.13
436.90	27089.36
437.09	27290.65
437.28	26604.87
437.46	27468.53
437.65	27168.94
437.84	25771.64
438.02	23384.29
438.21	23164.28
438.40	24758.19
438.58	26857.65
438.77	27709.60
438.96	27559.81
439.14	28858.81
439.33	29502.45
439.52	30199.93
439.70	29371.38
439.89	28786.25
440.08	27934.29
440.26	28046.64
440.45	28631.77
440.63	30562.72
440.82	31857.03
441.01	31669.79
441.19	31328.07
441.38	31821.92
441.57	33244.97
441.75	33766.91
441.94	33511.79
442.12	33270.72
442.31	34305.23
442.50	33553.92
442.68	33504.77
442.87	33467.32
443.05	32472.59
443.24	33202.84
443.43	33839.47
443.61	34742.91
443.80	34644.61
443.98	33076.45
444.17	32961.76
444.35	34939.52
444.54	35257.83
444.73	34838.87
444.91	33839.47
445.10	32315.78
445.28	30979.33
445.47	30239.72
445.65	30710.17
445.84	31552.76
446.02	32526.42
446.21	33315.19
446.39	33116.24
446.58	33982.24
446.77	34061.82
446.95	34345.02
447.14	35346.77
447.32	36112.13
447.51	34960.58
447.69	33780.95
447.88	33097.52
448.06	34019.69
448.25	34541.63
448.43	34717.17
448.62	34197.57
448.80	34043.09
448.99	34293.53
449.17	34518.22
449.36	34855.26
449.54	35899.14
449.73	36458.52
449.91	37038.98
450.10	38066.47
450.28	38284.14
450.46	37909.66
450.65	38370.74
450.83	37797.31
451.02	37116.22
451.20	36940.68
451.39	36795.56
451.57	36467.89
451.76	36657.47
451.94	36481.93
452.13	35826.58
452.31	33972.88
452.49	32474.93
452.68	33090.49
452.86	33294.12
453.05	33373.70
453.23	34480.77
453.42	35274.21
453.60	36322.77
453.78	36203.41
453.97	35896.80
454.15	36339.16
454.34	35665.08
454.52	35637.00
454.70	34888.03
454.89	35199.32
455.07	35424.01
455.26	35871.05
455.44	37408.78
455.62	37921.36
455.81	37958.81
455.99	37706.03
456.17	37425.17
456.36	37392.40
456.54	38703.10
456.73	38398.83
456.91	38990.98
457.09	39077.58
457.28	39730.59
457.46	38452.66
457.64	38387.13
457.83	37305.80
458.01	36477.25
458.19	37067.06
458.38	37956.47
458.56	38330.95
458.74	38319.25
458.93	37830.08
459.11	37607.73
459.29	37069.40
459.48	37205.16
459.66	37242.60
459.84	37663.90
460.03	38562.67
460.21	38253.72
460.39	38962.90
460.57	39159.50
460.76	39470.79
460.94	39592.50
461.12	38990.98
461.31	39466.11
461.49	39232.06
461.67	38981.62
461.85	40170.61
462.04	40226.79
462.22	40793.20
462.40	40273.60
462.59	40016.14
462.77	40325.09
462.95	40231.47
463.13	39779.74
463.32	39262.49
463.50	39058.86
463.68	38876.30
463.86	39440.37
464.05	38312.23
464.23	38007.96
464.41	37832.42
464.59	37280.05
464.78	39201.63
464.96	38986.30
465.14	38134.35
465.32	39501.22
465.50	39927.20
465.69	40666.81
465.87	40091.04
466.05	38778.00
466.23	37158.34
466.41	36362.56
466.60	37455.59
466.78	37483.68
466.96	37958.81
467.14	38944.17
467.32	38990.98
467.51	39054.18
467.69	37792.63
467.87	38300.53
468.05	38759.27
468.23	38880.98
468.41	39126.74
468.60	39297.59
468.78	39428.66
468.96	38735.87
469.14	39959.97
469.32	39798.47
469.50	38377.76
469.69	38314.57
469.87	37947.11
470.05	37687.31
470.23	37977.53
470.41	38352.02
470.59	38518.20
470.77	38696.08
470.95	39171.21
471.14	39810.17
471.32	39786.77
471.50	42075.81
471.68	41895.59
471.86	42562.64
472.04	42534.56
472.22	42625.84
472.40	40573.19
472.58	40577.87
472.77	40027.84
472.95	41067.04
473.13	41865.16
473.31	40760.43
473.49	40830.65
473.67	41539.83
473.85	42171.77
474.03	42955.85
474.21	43117.35
474.39	43461.41
474.57	43540.99
474.75	43576.09
474.93	43714.19
475.12	42611.79
475.30	42583.71
475.48	43028.41
475.66	43597.16
475.84	42501.79
476.02	42244.33
476.20	41659.20
476.38	42452.64
476.56	43716.53
476.74	44392.94
476.92	44275.91
477.10	45003.82
477.28	46206.86
477.46	45837.05
477.64	46761.56
477.82	46824.76
478.00	46768.58
478.18	46270.05
478.36	45977.48
478.54	46293.46
478.72	46164.73
478.90	47437.98
479.08	48371.85
479.26	49024.86
479.44	48748.68
479.62	48245.46
479.80	48369.51
479.98	48662.08
480.16	49024.86
480.34	48662.08
480.52	49095.08
480.70	49209.76
480.88	49275.30
481.06	49837.03
481.24	50017.25
481.41	51004.95
481.59	51461.36
481.77	51452.00
481.95	50611.74
482.13	50791.97
482.31	50534.51
482.49	51437.95
482.67	51295.18
482.85	51292.84
483.03	51496.47
483.21	52088.62
483.39	52200.97
483.57	51257.73
483.74	51187.52
483.92	51484.76
484.10	51566.68
484.28	52673.76
484.46	52570.77
484.64	52938.24
484.82	52215.01
485.00	52069.90
485.18	51260.07
485.35	50241.94
485.53	47370.10
485.71	42808.40
485.89	42981.60
486.07	45076.38
486.25	48226.74
486.43	50157.68
486.61	51093.89
486.78	51297.52
486.96	51044.74
487.14	52776.74
487.32	53120.80
487.50	54031.27
487.68	54791.94
487.85	55016.63
488.03	55063.44
488.21	54600.02
488.39	54260.64
488.57	53677.85
488.75	53572.52
488.92	54127.23
489.10	56039.45
489.28	57317.38
489.46	57989.11
489.64	57689.52
489.81	57855.70
489.99	57420.36
490.17	57279.93
490.35	57813.57
490.53	57169.93
490.70	56985.02
490.88	56863.32
491.06	58035.92
491.24	57787.83
491.41	56837.57
491.59	55728.16
491.77	54995.57
491.95	55849.86
492.13	56856.29
492.30	57914.22
492.48	58504.03
492.66	59227.26
492.84	59047.04
493.01	58880.86
493.19	58445.52
493.37	58342.53
493.54	57911.88
493.72	58452.54
493.90	59264.70
494.08	60065.17
494.25	60221.98
494.43	60324.97
494.61	60654.98
494.79	60837.54
494.96	60722.86
495.14	60004.31
495.32	59100.87
495.49	58738.08
495.67	59465.99
495.85	60900.74
496.02	61085.64
496.20	60949.89
496.38	60594.13
496.55	60500.51
496.73	60802.44
496.91	60947.55
497.09	61595.88
497.26	61757.38
497.44	61223.73
497.62	60720.52
497.79	60069.85
497.97	58920.65
498.14	59135.98
498.32	60137.72
498.50	60980.32
498.67	61469.49
498.85	61193.31
499.03	61415.66
499.20	61645.03
499.38	61549.07
499.56	61567.79
499.73	61064.58
499.91	60814.14
500.08	60427.95
500.26	59678.98
500.44	60076.87
500.61	60877.33
500.79	60708.82
500.97	60079.21
501.14	60034.74
501.32	59936.44
501.49	60025.38
501.67	60170.49
501.84	60582.43
502.02	60893.72
502.20	61146.50
502.37	61181.60
502.55	61209.69
502.72	61769.08
502.90	62321.44
503.07	62063.99
503.25	61701.20
503.43	60687.75
503.60	60313.26
503.78	59606.42
503.95	59997.29
504.13	61406.30
504.30	62110.80
504.48	62019.52
504.65	61630.99
504.83	61647.37
505.01	62138.88
505.18	62431.45
505.36	62775.51
505.53	62997.86
505.71	63234.25
505.88	63281.06
506.06	62555.50
506.23	62426.77
506.41	62014.83
506.58	62251.23
506.76	62401.02
506.93	62127.18
507.11	62007.81
507.28	62239.53
507.46	61719.93
507.63	61137.13
507.81	60893.72
507.98	61303.31
508.16	61965.68
508.33	62417.41
508.50	62663.16
508.68	62915.94
508.85	63264.68
509.03	63267.02
509.20	63360.64
509.38	62536.77
509.55	62035.90
509.73	62014.83
509.90	62333.15
510.08	62597.63
510.25	62349.53
510.42	62316.76
510.60	62363.57
510.77	62543.80
510.95	62995.52
511.12	63215.53
511.30	63538.52
511.47	63707.04
511.64	63601.72
511.82	63494.05
511.99	62595.29
512.17	62419.75
512.34	62063.99
512.51	62162.29
512.69	62269.95
512.86	62269.95
513.04	62665.50
513.21	62702.95
513.38	62377.62
513.56	61932.92
513.73	61258.84
513.90	61717.59
514.08	61794.82
514.25	61996.11
514.43	62255.91
514.60	62422.09
514.77	62337.83
514.95	62382.30
515.12	62258.25
515.29	62391.66
515.47	62866.79
515.64	63032.97
515.81	62742.74
515.99	62431.45
516.16	61083.30
516.33	59145.34
516.51	57808.89
516.68	57198.01
516.85	56701.82
517.03	56942.89
517.20	59576.00
517.37	61602.90
517.54	62417.41
517.72	61946.96
517.89	59838.14
518.06	57645.05
518.24	58232.53
518.41	60023.04
518.58	61399.27
518.75	61476.51
518.93	61675.46
519.10	61488.21
519.27	62017.17
519.45	61984.41
519.62	62726.36
519.79	62951.05
519.96	62836.36
520.14	62396.34
520.31	61612.26
520.48	61492.89
520.65	61977.39
520.83	62770.83
521.00	63084.46
521.17	62810.62
521.34	62454.86
521.52	62752.10
521.69	63185.10
521.86	63554.91
522.03	63346.60
522.20	62426.77
522.38	61249.48
522.55	61347.78
522.72	61900.15
522.89	62092.07
523.07	62078.03
523.24	62597.63
523.41	63398.09
523.58	63688.32
523.75	63835.77
523.92	63814.71
524.10	63730.45
524.27	63716.40
524.44	63615.76
524.61	63236.59
524.78	63175.74
524.96	63199.15
525.13	63238.93
525.30	63419.16
525.47	63650.87
525.64	63774.92
525.81	63147.65
525.98	61642.69
526.16	60537.96
526.33	59873.24
526.50	59552.59
526.67	59437.90
526.84	59997.29
527.01	60603.49
527.18	61509.28
527.36	62209.10
527.53	63135.95
527.70	63365.32
527.87	62831.68
528.04	62379.96
528.21	62836.36
528.38	63353.62
528.55	63913.01
528.72	64287.49
528.89	64423.25
529.07	63959.82
529.24	63407.45
529.41	62827.00
529.58	62300.38
529.75	62543.80
529.92	63112.55
530.09	63334.90
530.26	63744.49
530.43	63882.58
530.60	63980.88
530.77	64273.45
530.94	64329.62
531.11	63917.69
531.28	63604.06
531.46	63243.62
531.63	63327.87
531.80	63372.34
531.97	63063.39
532.14	62279.31
532.31	61563.11
532.48	60762.65
532.65	60816.48
532.82	61469.49
532.99	62658.48
533.16	62824.66
533.33	63489.37
533.50	63260.00
533.67	62777.85
533.84	62286.34
534.01	62555.50
534.18	62595.29
534.35	62899.56
534.52	62726.36
534.69	63096.16
534.86	63241.28
535.03	63721.08
535.20	63742.15
535.37	64371.75
535.54	64324.94
535.71	63999.61
535.88	63622.78
536.05	63044.67
536.22	62791.89
536.38	62513.37
536.55	62162.29
536.72	61619.28
536.89	61455.45
537.06	62197.40
537.23	62965.09
537.40	63175.74
537.57	63426.18
537.74	63199.15
537.91	63093.82
538.08	62775.51
538.25	63157.02
538.42	63220.21
538.59	63196.80
538.75	62216.12
538.92	62239.53
539.09	62284.00
539.26	61717.59
539.43	61764.40
539.60	61743.33
539.77	61883.76
539.94	61848.66
540.11	61158.20
540.28	60849.25
540.44	60828.18
540.61	60933.51
540.78	61373.53
540.95	61719.93
541.12	62094.41
541.29	62199.74
541.46	62447.83
541.62	62677.21
541.79	62344.85
541.96	61757.38
542.13	61656.73
542.30	61946.96
542.47	62269.95
542.63	62089.73
542.80	62040.58
542.97	61949.30
543.14	61755.03
543.31	61696.52
543.48	62122.50
543.64	63030.63
543.81	63288.09
543.98	63161.70
544.15	62728.70
544.32	62024.20
544.48	62075.69
544.65	62539.11
544.82	62588.27
544.99	62429.11
545.16	62312.08
545.32	61745.67
545.49	62536.77
545.66	62946.37
545.83	62698.27
546.00	62316.76
546.16	62033.56
546.33	62342.51
546.50	62110.80
546.67	62515.71
546.83	62136.54
547.00	62092.07
547.17	61560.77
547.34	61249.48
547.50	60996.70
547.67	61464.81
547.84	61511.62
548.00	61815.89
548.17	62286.34
548.34	62143.56
548.51	62113.14
548.67	62162.29
548.84	62293.36
549.01	62279.31
549.18	62073.35
549.34	62026.54
549.51	62124.84
549.68	62003.13
549.84	61855.68
550.01	61673.12
550.18	61518.64
550.34	61567.79
550.51	61694.18
550.68	61755.03
550.84	61432.04
551.01	61478.85
551.18	61366.51
551.34	61506.94
551.51	61869.72
551.68	62255.91
551.84	62302.72
552.01	61993.77
552.18	61855.68
552.34	61307.99
552.51	60870.31
552.68	60748.60
552.84	61137.13
553.01	61478.85
553.18	61279.91
553.34	61523.32
553.51	61619.28
553.67	61881.42
553.84	61979.73
554.01	61881.42
554.17	61757.38
554.34	61757.38
554.51	61731.63
554.67	62017.17
554.84	61982.07
555.00	61638.01
555.17	61329.06
555.33	61226.07
555.50	61270.54
555.67	61476.51
555.83	61284.59
556.00	60999.04
556.16	60891.38
556.33	60664.35
556.50	60364.76
556.66	60509.87
556.83	60196.24
556.99	60423.27
557.16	60549.66
557.32	60818.82
557.49	60849.25
557.65	60977.98
557.82	61050.53
557.98	60554.34
558.15	60346.03
558.32	59524.50
558.48	58946.39
558.65	59075.12
558.81	59540.89
558.98	59920.05
559.14	59962.18
559.31	59966.87
559.47	59948.14
559.64	59875.58
559.80	59484.72
559.97	59412.16
560.13	59962.18
560.30	60587.11
560.46	61041.17
560.63	61286.93
560.79	61134.79
560.96	60802.44
561.12	59852.18
561.29	58969.80
561.45	59114.91
561.61	59625.15
561.78	60161.13
561.94	60025.38
562.11	59824.09
562.27	59784.30
562.44	60039.42
562.60	60324.97
562.77	60535.62
562.93	60264.11
563.10	60196.24
563.26	59664.94
563.42	59798.35
563.59	59611.10
563.75	59674.30
563.92	59826.43
564.08	59578.34
564.24	59749.20
564.41	59894.31
564.57	59990.27
564.74	59674.30
564.90	59756.22
565.07	59419.18
565.23	59306.83
565.39	58663.19
565.56	58656.17
565.72	58103.80
565.88	58576.59
566.05	58599.99
566.21	58834.05
566.38	59178.10
566.54	59206.19
566.70	59398.12
566.87	59433.22
567.03	59536.21
567.19	59765.58
567.36	59477.69
567.52	59402.80
567.68	58908.94
567.85	58717.02
568.01	58433.81
568.17	58089.76
568.34	58260.62
568.50	58087.42
568.66	58080.39
568.83	58527.44
568.99	58426.79
569.15	58838.73
569.32	58656.17
569.48	58487.65
569.64	58234.87
569.81	57963.37
569.97	57932.94
570.13	57944.64
570.30	57607.61
570.46	57127.80
570.62	56765.01
570.78	56449.04
570.95	56683.09
571.11	57485.90
571.27	57769.10
571.43	58056.99
571.60	58024.22
571.76	58134.23
571.92	58372.96
572.09	58724.04
572.25	58482.97
572.41	58482.97
572.57	58574.25
572.74	58527.44
572.90	58024.22
573.06	58291.04
573.22	58145.93
573.38	58185.72
573.55	58113.16
573.71	58017.20
573.87	58141.25
574.03	58012.52
574.20	57762.08
574.36	57717.61
574.52	57502.28
574.68	57361.85
574.84	56926.51
575.01	56584.79
575.17	56577.77
575.33	56886.72
575.49	57148.86
575.65	57193.33
575.82	56933.53
575.98	56823.53
576.14	57001.41
576.30	57312.70
576.46	57282.27
576.62	57319.72
576.79	57315.04
576.95	56804.80
577.11	56853.95
577.27	56959.28
577.43	57071.62
577.59	56729.90
577.75	56530.96
577.92	56048.81
578.08	55688.37
578.24	55936.46
578.40	55882.63
578.56	56385.85
578.72	56179.88
578.88	56458.40
579.04	56575.43
579.21	56547.34
579.37	56640.96
579.53	56781.40
579.69	56755.65
579.85	56924.17
580.01	56708.84
580.17	56495.85
580.33	56074.55
580.49	56151.79
580.65	56589.47
580.82	56779.06
580.98	56917.15
581.14	56591.81
581.30	56605.86
581.46	56594.15
581.62	56554.36
581.78	56968.64
581.94	56818.84
582.10	56858.63
582.26	56907.79
582.42	56842.25
582.58	57172.27
582.74	56676.07
582.90	56521.60
583.06	56949.92
583.22	56669.05
583.38	56626.92
583.54	56594.15
583.70	56629.26
583.86	56552.02
584.02	56320.31
584.18	56807.14
584.34	56629.26
584.50	56240.73
584.66	56308.61
584.82	55957.53
584.98	55765.60
585.14	55760.92
