SpectraSuite Data File
++++++++++++++++++++++++++++++++++++
Date: Mon Oct 07 14:53:42 GMT-05:00 2013
User: price-jones
Dark Spectrum Present: No
Reference Spectrum Present: No
Number of Sampled Component Spectra: 1
Spectrometers: USB2+H05261
Integration Time (usec): 100000 (USB2+H05261)
Spectra Averaged: 1 (USB2+H05261)
Boxcar Smoothing: 0 (USB2+H05261)
Correct for Electrical Dark: No (USB2+H05261)
Strobe/Lamp Enabled: No (USB2+H05261)
Correct for Detector Non-linearity: No (USB2+H05261)
Correct for Stray Light: No (USB2+H05261)
Number of Pixels in Processed Spectrum: 2048
>>>>>Begin Processed Spectral Data<<<<<
365.73	0.00
365.92	0.00
366.12	0.00
366.32	0.00
366.52	0.00
366.72	0.00
366.91	0.00
367.11	0.00
367.31	0.00
367.51	0.00
367.70	0.00
367.90	0.00
368.10	0.00
368.30	0.00
368.49	0.00
368.69	0.00
368.89	0.00
369.09	0.00
369.28	0.00
369.48	0.00
369.68	0.00
369.87	0.00
370.07	0.00
370.27	0.00
370.47	358.10
370.66	2291.38
370.86	2860.13
371.06	3204.19
371.25	3293.13
371.45	2981.84
371.65	2616.72
371.84	2452.88
372.04	2532.46
372.24	2869.50
372.44	3087.17
372.63	2883.54
372.83	2773.53
373.03	2483.31
373.22	2146.27
373.42	2333.51
373.62	2724.38
373.81	3101.21
374.01	3009.93
374.21	2635.44
374.40	2394.37
374.60	2586.29
374.79	2853.11
374.99	3346.97
375.19	3742.52
375.38	3702.73
375.58	3648.90
375.78	3400.80
375.97	3400.80
376.17	3648.90
376.37	3562.30
376.56	3719.11
376.76	3941.46
376.95	4138.07
377.15	4390.84
377.35	4531.28
377.54	4753.63
377.74	4898.74
377.93	4849.59
378.13	4875.34
378.33	4601.49
378.52	4161.47
378.72	3915.72
378.91	3964.87
379.11	3946.14
379.31	3623.15
379.50	3695.71
379.70	4004.66
379.89	4428.29
380.09	4643.62
380.28	4681.07
380.48	4891.72
380.68	4884.70
380.87	4692.77
381.07	4355.74
381.26	3946.14
381.46	3655.92
381.65	3578.68
381.85	3552.93
382.04	3260.37
382.24	3199.51
382.43	2974.82
382.63	2913.97
382.83	2895.24
383.02	2909.29
383.22	2878.86
383.41	2951.42
383.61	3148.02
383.80	3651.24
384.00	4032.74
384.19	4655.33
384.39	4711.50
384.58	4854.27
384.78	4629.58
384.97	4755.97
385.17	4524.26
385.36	4245.73
385.56	3962.53
385.75	4231.69
385.95	4638.94
386.14	4924.49
386.34	4997.04
386.53	4739.58
386.72	4472.76
386.92	4526.60
387.11	4777.03
387.31	4863.63
387.50	4812.14
387.70	4718.52
387.89	4826.18
388.09	4760.65
388.28	4671.71
388.48	4903.42
388.67	5167.90
388.86	5619.63
389.06	6057.31
389.25	6310.08
389.45	6438.81
389.64	6420.09
389.84	6406.05
390.03	6286.68
390.22	6221.14
390.42	6410.73
390.61	6773.51
390.81	7407.80
391.00	7356.30
391.19	7293.11
391.39	7211.19
391.58	6787.55
391.78	6310.08
391.97	6143.91
392.16	5600.90
392.36	5252.16
392.55	4266.80
392.75	3332.92
392.94	2705.66
393.13	2794.60
393.33	3117.59
393.52	4011.68
393.71	5011.09
393.91	5715.59
394.10	6183.70
394.29	6759.47
394.49	7304.81
394.68	7698.02
394.88	7761.22
395.07	8266.77
395.26	7941.44
395.46	7728.45
395.65	7510.78
395.84	6612.01
396.04	5502.60
396.23	4437.66
396.42	3735.50
396.62	3557.61
396.81	4105.30
397.00	5153.86
397.19	6731.38
397.39	7934.42
397.58	8968.93
397.77	9537.68
397.97	9958.98
398.16	10153.24
398.35	10408.36
398.55	10731.36
398.74	10967.75
398.93	11466.28
399.12	11129.25
399.32	10623.69
399.51	10998.18
399.70	11473.31
399.90	11592.67
400.09	11468.62
400.28	11573.95
400.47	11152.65
400.67	12212.92
400.86	12329.94
401.05	12360.37
401.24	12556.97
401.44	12889.33
401.63	12678.68
401.82	12711.45
402.01	13015.72
402.21	13198.28
402.40	12863.58
402.59	12713.79
402.78	12098.23
402.97	11616.08
403.17	12325.26
403.36	12674.00
403.55	13186.58
403.74	13631.28
403.93	13083.59
404.13	12067.80
404.32	11730.76
404.51	12147.38
404.70	13266.16
404.89	13214.66
405.09	13071.89
405.28	12425.90
405.47	12596.76
405.66	12482.08
405.85	12390.80
406.05	12329.94
406.24	12046.74
406.43	12573.36
406.62	13315.31
406.81	13165.51
407.00	12671.66
407.20	12425.90
407.39	12716.13
407.58	12828.48
407.77	13469.78
407.96	13865.33
408.15	14324.08
408.34	14324.08
408.54	14864.74
408.73	14780.48
408.92	14871.76
409.11	14640.05
409.30	13692.13
409.49	12891.67
409.68	12259.73
409.87	11730.76
410.07	12262.07
410.26	13284.88
410.45	14218.75
410.64	14539.41
410.83	15002.83
411.02	15534.14
411.21	16142.67
411.40	16060.76
411.59	16072.46
411.78	15719.04
411.98	15751.81
412.17	15953.09
412.36	15545.84
412.55	15494.35
412.74	15447.54
412.93	14717.29
413.12	15246.25
413.31	16386.09
413.50	16641.21
413.69	16966.54
413.88	16290.13
414.07	15634.78
414.26	16140.33
414.45	16386.09
414.64	16748.87
414.83	16795.68
415.02	16222.25
415.22	16285.45
415.41	16840.15
415.60	17050.80
415.79	17893.40
415.98	18356.82
416.17	18295.97
416.36	18246.82
416.55	17582.10
416.74	17029.74
416.93	16397.79
417.12	16753.55
417.31	16896.33
417.50	17064.85
417.69	17661.68
417.88	17694.45
418.07	17514.23
418.26	17053.14
418.45	17263.79
418.64	17998.72
418.83	18569.81
419.02	18281.92
419.21	18324.05
419.39	17231.02
419.58	16531.20
419.77	16634.19
419.96	17268.47
420.15	18511.30
420.34	18740.67
420.53	19576.24
420.72	20011.58
420.91	19800.93
421.10	19208.78
421.29	19063.66
421.48	18604.92
421.67	19431.13
421.86	18934.93
422.05	17511.89
422.24	15964.79
422.43	15726.06
422.61	17343.37
422.80	18860.04
422.99	18752.37
423.18	18317.03
423.37	17722.54
423.56	17755.30
423.75	18064.25
423.94	18539.38
424.13	17422.95
424.32	17776.37
424.50	17809.14
424.69	17366.78
424.88	17521.25
425.07	17469.76
425.26	17776.37
425.45	17472.10
425.64	17172.51
425.83	16870.58
426.01	17898.08
426.20	18677.48
426.39	18260.86
426.58	17006.33
426.77	15620.74
426.96	15044.96
427.15	15878.19
427.33	17064.85
427.52	17666.36
427.71	17956.59
427.90	17420.61
428.09	17322.30
428.28	17177.19
428.46	16376.73
428.65	16322.90
428.84	16545.25
429.03	16891.65
429.22	16173.10
429.40	15201.78
429.59	13806.82
429.78	12189.51
429.97	12259.73
430.16	12154.40
430.34	12491.44
430.53	12400.16
430.72	12585.06
430.91	13991.72
431.10	16655.25
431.28	19220.48
431.47	20854.17
431.66	21635.91
431.85	19555.18
432.03	17699.13
432.22	16905.69
432.41	17734.24
432.60	19777.53
432.79	20442.24
432.97	21043.76
433.16	20552.24
433.35	18876.42
433.54	16945.48
433.72	15672.23
433.91	16198.85
434.10	17898.08
434.28	19384.32
434.47	20376.70
434.66	19927.32
434.85	19915.62
435.03	19957.75
435.22	20006.90
435.41	21530.59
435.59	21291.85
435.78	21764.64
435.97	22518.29
436.16	22871.72
436.34	22209.34
436.53	21757.62
436.72	21551.65
436.90	20561.61
437.09	20393.09
437.28	20095.84
437.46	20814.38
437.65	20868.22
437.84	19819.66
438.02	17846.58
438.21	17781.05
438.40	18551.09
438.58	20372.02
438.77	20505.43
438.96	20868.22
439.14	21935.50
439.33	22260.84
439.52	22981.72
439.70	22237.43
439.89	21673.36
440.08	21280.15
440.26	20971.20
440.45	21809.11
440.63	23192.37
440.82	24542.86
441.01	24355.61
441.19	23775.16
441.38	23885.17
441.57	24919.68
441.75	25563.33
441.94	25460.35
442.12	25291.83
442.31	26029.10
442.50	25710.78
442.68	25713.13
442.87	25212.25
443.05	24395.40
443.24	25270.76
443.43	25465.03
443.61	26363.79
443.80	26686.79
443.98	25111.61
444.17	24835.42
444.35	26492.52
444.54	27065.96
444.73	26522.95
444.91	25219.27
445.10	24442.21
445.28	23534.09
445.47	23321.10
445.65	23166.62
445.84	23859.42
446.02	24905.64
446.21	25036.71
446.39	25432.26
446.58	25809.09
446.77	26031.44
446.95	26197.62
447.14	27190.00
447.32	27564.49
447.51	26590.83
447.69	25532.90
447.88	25315.23
448.06	25876.96
448.25	26263.15
448.43	26951.27
448.62	25888.67
448.80	26061.87
448.99	26244.43
449.17	26415.29
449.36	26361.45
449.54	27531.72
449.73	27789.18
449.91	28386.02
450.10	29301.17
450.28	29153.71
450.46	28844.76
450.65	29034.35
450.83	28753.48
451.02	28170.69
451.20	28093.45
451.39	28098.13
451.57	27908.55
451.76	27843.01
451.94	27950.68
452.13	27311.71
452.31	26054.84
452.49	24865.85
452.68	25348.00
452.86	24975.86
453.05	25275.45
453.23	26300.60
453.42	27091.70
453.60	27564.49
453.78	27672.15
453.97	27487.25
454.15	27346.82
454.34	26808.50
454.52	27187.66
454.70	26443.37
454.89	26766.37
455.07	26909.14
455.26	27419.38
455.44	28102.81
455.62	29102.22
455.81	28823.70
455.99	28666.88
456.17	28467.94
456.36	28725.39
456.54	29364.36
456.73	29132.65
456.91	29776.30
457.09	29832.47
457.28	30595.48
457.46	29198.18
457.64	29003.92
457.83	28341.55
458.01	27475.55
458.19	28077.07
458.38	28411.76
458.56	29319.89
458.74	29532.88
458.93	28542.83
459.11	29090.52
459.29	28374.31
459.48	28620.07
459.66	28790.93
459.84	28903.28
460.03	29308.19
460.21	29453.30
460.39	29926.09
460.57	29689.70
460.76	30171.85
460.94	30483.14
461.12	30003.33
461.31	30277.17
461.49	30267.81
461.67	30026.73
461.85	31061.25
462.04	31042.53
462.22	30984.01
462.40	30597.82
462.59	30836.56
462.77	30719.53
462.95	30565.06
463.13	30391.86
463.32	30333.34
463.50	30183.55
463.68	29921.41
463.86	29743.53
464.05	29434.58
464.23	29228.61
464.41	28924.34
464.59	28467.94
464.78	30092.27
464.96	29647.57
465.14	29401.81
465.32	30651.66
465.50	30951.24
465.69	30682.08
465.87	30735.92
466.05	29612.46
466.23	28109.83
466.41	27606.62
466.60	28606.03
466.78	28559.22
466.96	28964.13
467.14	29844.17
467.32	30134.40
467.51	29928.43
467.69	28739.44
467.87	29387.77
468.05	29516.50
468.23	29736.51
468.41	29900.34
468.60	29722.46
468.78	30118.01
468.96	29495.43
469.14	30726.55
469.32	30445.69
469.50	29081.16
469.69	29528.20
469.87	28718.37
470.05	28779.23
470.23	29125.63
470.41	28900.94
470.59	29736.51
470.77	29809.06
470.95	30071.20
471.14	30576.76
471.32	30532.29
471.50	32025.55
471.68	32236.20
471.86	32493.66
472.04	32943.04
472.22	32858.78
472.40	31147.85
472.58	31147.85
472.77	30574.42
472.95	31094.02
473.13	31824.26
473.31	31461.48
473.49	31185.30
473.67	32184.71
473.85	32009.17
474.03	33308.16
474.21	33296.46
474.39	33799.68
474.57	33584.35
474.75	33713.08
474.93	33605.41
475.12	32542.81
475.30	32734.73
475.48	32893.89
475.66	33647.54
475.84	32828.35
476.02	32549.83
476.20	31924.91
476.38	32676.22
476.56	33701.37
476.74	34335.66
476.92	33907.34
477.10	34796.74
477.28	35936.59
477.46	35826.58
477.64	36254.90
477.82	36662.15
478.00	36601.30
478.18	35599.55
478.36	35229.74
478.54	35597.21
478.72	35999.78
478.90	37076.43
479.08	37825.40
479.26	38347.34
479.44	37839.44
479.62	38333.29
479.80	37942.42
479.98	38656.29
480.16	38719.48
480.34	37883.91
480.52	38094.56
480.70	38969.92
480.88	38775.66
481.06	39786.77
481.24	40151.89
481.41	40732.34
481.59	41057.68
481.77	41141.94
481.95	40594.25
482.13	40116.78
482.31	39908.47
482.49	41179.39
482.67	40416.37
482.85	41139.60
483.03	42036.02
483.21	42211.56
483.39	41935.38
483.57	40952.35
483.74	41036.61
483.92	41429.82
484.10	41237.90
484.28	42384.76
484.46	42904.36
484.64	43072.88
484.82	42096.88
485.00	41947.08
485.18	40835.33
485.35	39908.47
485.53	36987.49
485.71	33067.09
485.89	33156.03
486.07	34803.77
486.25	37979.87
486.43	40116.78
486.61	40786.18
486.78	40744.05
486.96	40931.29
487.14	42733.50
487.32	43569.07
487.50	44495.92
487.68	45343.20
487.85	46248.99
488.03	46529.85
488.21	46115.58
488.39	45024.89
488.57	44212.72
488.75	43655.67
488.92	45177.02
489.10	47650.97
489.28	48706.55
489.46	49921.29
489.64	49448.50
489.81	49748.09
489.99	49621.70
490.17	49195.72
490.35	50110.87
490.53	49710.64
490.70	48928.90
490.88	48758.04
491.06	49860.43
491.24	49963.42
491.41	49188.70
491.59	46906.68
491.77	45736.41
491.95	47075.19
492.13	48383.55
492.30	49972.78
492.48	51227.31
492.66	51704.77
492.84	51833.50
493.01	51129.00
493.19	50775.58
493.37	50234.92
493.54	49925.97
493.72	50632.81
493.90	51906.06
494.08	52659.71
494.25	53242.51
494.43	53202.72
494.61	53434.43
494.79	53808.92
494.96	53282.30
495.14	52921.85
495.32	51835.84
495.49	50913.67
495.67	52484.17
495.85	53570.18
496.02	54412.77
496.20	53883.81
496.38	53577.20
496.55	53387.62
496.73	53654.44
496.91	53996.16
497.09	54564.91
497.26	54801.30
497.44	54349.58
497.62	53818.28
497.79	53120.80
497.97	51473.06
498.14	51779.67
498.32	52968.66
498.50	53951.69
498.67	54630.44
498.85	54244.26
499.03	54609.38
499.20	54969.82
499.38	54915.99
499.56	54754.49
499.73	54279.36
499.91	53818.28
500.08	53530.39
500.26	52275.87
500.44	52830.57
500.61	53691.89
500.79	53347.83
500.97	53155.91
501.14	52992.07
501.32	52835.25
501.49	52779.08
501.67	53191.01
501.84	53504.65
502.02	53944.67
502.20	54307.45
502.37	54473.63
502.55	54274.68
502.72	54857.48
502.90	55501.12
503.07	55051.74
503.25	54457.24
503.43	53914.24
503.60	53249.53
503.78	52381.19
503.95	53059.94
504.13	54475.97
504.30	55395.80
504.48	55180.47
504.65	54735.77
504.83	54801.30
505.01	55140.68
505.18	56037.11
505.36	56507.55
505.53	56439.68
505.71	56900.76
505.88	56617.56
506.06	56062.85
506.23	55770.28
506.41	55356.01
506.58	55519.85
506.76	55646.24
506.93	55454.31
507.11	55271.75
507.28	55543.25
507.46	54784.92
507.63	54417.46
507.81	54087.44
507.98	54426.82
508.16	55014.29
508.33	55683.69
508.50	56177.54
508.68	56303.93
508.85	56856.29
509.03	56814.16
509.20	56577.77
509.38	55814.76
509.55	55065.78
509.73	55384.10
509.90	55721.13
510.08	56245.41
510.25	56182.22
510.42	55669.64
510.60	55760.92
510.77	55899.01
510.95	56561.39
511.12	56617.56
511.30	57010.77
511.47	57137.16
511.64	57387.60
511.82	56910.13
511.99	55955.19
512.17	55508.14
512.34	55318.56
512.51	55227.28
512.69	55533.89
512.86	55756.24
513.04	56231.37
513.21	56053.49
513.38	55704.75
513.56	55002.59
513.73	54518.10
513.90	54604.70
514.08	54951.10
514.25	55473.04
514.43	55379.42
514.60	55791.35
514.77	55751.56
514.95	55765.60
515.12	55730.50
515.29	55896.67
515.47	56523.94
515.64	56795.44
515.81	56427.98
515.99	55901.36
516.16	54152.97
516.33	52055.85
516.51	49921.29
516.68	49373.60
516.85	48636.33
517.03	48846.98
517.20	52051.17
517.37	54869.18
517.54	55835.82
517.72	55536.23
517.89	52699.50
518.06	50190.45
518.24	50284.07
518.41	52657.37
518.58	54553.21
518.75	54738.11
518.93	54759.17
519.10	54501.71
519.27	55267.07
519.45	55227.28
519.62	56254.78
519.79	56488.83
519.96	56222.01
520.14	55845.18
520.31	54787.26
520.48	54862.16
520.65	55341.97
520.83	56285.20
521.00	56451.38
521.17	56168.18
521.34	55784.33
521.52	56200.94
521.69	56690.12
521.86	57270.57
522.03	57083.33
522.20	55845.18
522.38	54745.13
522.55	54628.10
522.72	55194.51
522.89	55351.33
523.07	55564.32
523.24	55746.88
523.41	56877.36
523.58	57190.99
523.75	57387.60
523.92	57357.17
524.10	57205.03
524.27	57315.04
524.44	56917.15
524.61	57001.41
524.78	56760.33
524.96	56633.94
525.13	56779.06
525.30	56924.17
525.47	57443.77
525.64	57378.23
525.81	56413.93
525.98	55000.25
526.16	53455.50
526.33	52828.23
526.50	52224.37
526.67	51906.06
526.84	52821.21
527.01	54007.86
527.18	54866.84
527.36	55657.94
527.53	56460.74
527.70	56889.06
527.87	56383.51
528.04	55826.46
528.21	56383.51
528.38	56884.38
528.55	57558.45
528.72	57968.05
528.89	58092.10
529.07	57631.01
529.24	57024.81
529.41	56521.60
529.58	55540.91
529.75	56128.39
529.92	56507.55
530.09	56851.61
530.26	57301.00
530.43	57406.32
530.60	57609.95
530.77	57792.51
530.94	57989.11
531.11	57338.44
531.28	57230.78
531.46	57078.64
531.63	57118.43
531.80	57230.78
531.97	56470.11
532.14	55861.57
532.31	54464.27
532.48	54096.80
532.65	54017.22
532.82	55138.34
532.99	56109.66
533.16	56453.72
533.33	57169.93
533.50	56910.13
533.67	56086.26
533.84	55538.57
534.01	55943.48
534.18	56097.96
534.35	56678.41
534.52	56102.64
534.69	56486.49
534.86	56851.61
535.03	57076.30
535.20	57497.60
535.37	57958.69
535.54	58007.84
535.71	57616.97
535.88	57219.08
536.05	56420.95
536.22	56182.22
536.38	55971.57
536.55	55398.14
536.72	54937.05
536.89	54995.57
537.06	55760.92
537.23	56601.18
537.40	56875.02
537.57	56907.79
537.74	56647.99
537.91	56582.45
538.08	56313.29
538.25	56594.15
538.42	56755.65
538.59	56488.83
538.75	55983.27
538.92	55669.64
539.09	55489.42
539.26	55302.18
539.43	54965.14
539.60	55175.79
539.77	55292.82
539.94	55290.48
540.11	54705.34
540.28	53939.99
540.44	54019.56
540.61	54571.93
540.78	54431.50
540.95	55227.28
541.12	55325.58
541.29	55980.93
541.46	56048.81
541.62	56147.11
541.79	55863.91
541.96	55370.05
542.13	55318.56
542.30	55295.16
542.47	55950.51
542.63	55494.10
542.80	55117.28
542.97	55304.52
543.14	55217.92
543.31	55103.23
543.48	55969.23
543.64	56617.56
543.81	56931.19
543.98	56816.50
544.15	55920.08
544.32	55107.91
544.48	55526.87
544.65	55894.33
544.82	56348.40
544.99	56238.39
545.16	55625.17
545.32	55121.96
545.49	56266.48
545.66	56676.07
545.83	56367.12
546.00	55742.20
546.16	55463.67
546.33	55552.62
546.50	55533.89
546.67	56016.04
546.83	55571.34
547.00	55671.98
547.17	54759.17
547.34	54307.45
547.50	54092.12
547.67	54906.63
547.84	54995.57
548.00	55152.38
548.17	55774.97
548.34	55318.56
548.51	55709.43
548.67	55606.45
548.84	55620.49
549.01	55908.38
549.18	55646.24
549.34	55358.35
549.51	55384.10
549.68	55274.09
549.84	55241.32
550.01	55152.38
550.18	55070.46
550.34	54934.71
550.51	54808.32
550.68	55131.32
550.84	54878.54
551.01	54848.11
551.18	55002.59
551.34	54899.61
551.51	55306.86
551.68	55613.47
551.84	55877.95
552.01	55428.57
552.18	55346.65
552.34	54466.61
552.51	53841.68
552.68	54099.14
552.84	54457.24
553.01	54733.43
553.18	54815.35
553.34	54424.48
553.51	54951.10
553.67	55103.23
553.84	55189.83
554.01	55217.92
554.17	54981.52
554.34	54920.67
554.51	55295.16
554.67	55536.23
554.84	55187.49
555.00	55056.42
555.17	54857.48
555.33	54504.06
555.50	54625.76
555.67	54475.97
555.83	54546.18
556.00	54145.95
556.16	53970.41
556.33	53717.64
556.50	53727.00
556.66	53574.86
556.83	53303.36
556.99	53640.40
557.16	53642.74
557.32	54183.40
557.49	54365.96
557.65	54150.63
557.82	54075.74
557.98	53979.78
558.15	53453.15
558.32	52697.16
558.48	51407.53
558.65	51917.76
558.81	52348.42
558.98	52605.88
559.14	52889.09
559.31	53048.24
559.47	52987.39
559.64	52212.67
559.80	52100.32
559.97	52317.99
560.13	52743.97
560.30	54042.97
560.46	54223.19
560.63	54691.30
560.79	54695.98
560.96	54108.50
561.12	53048.24
561.29	51798.40
561.45	52006.70
561.61	52678.44
561.78	52935.90
561.94	52956.96
562.11	52921.85
562.27	52844.62
562.44	52884.40
562.60	53385.28
562.77	53734.02
562.93	53614.65
563.10	53188.67
563.26	52439.70
563.42	52706.52
563.59	52704.18
563.75	52484.17
563.92	52919.51
564.08	52289.91
564.24	52921.85
564.41	53034.20
564.57	52640.99
564.74	52472.47
564.90	52687.80
565.07	52360.12
565.23	52011.38
565.39	51257.73
565.56	50944.10
565.72	50632.81
565.88	51246.03
566.05	51178.15
566.21	51578.39
566.38	51824.14
566.54	51920.10
566.70	52315.65
566.87	52552.05
567.03	52570.77
567.19	52818.87
567.36	52580.13
567.52	52640.99
567.68	52107.35
567.85	51653.28
568.01	51117.30
568.17	50167.04
568.34	50593.02
568.50	50478.33
568.66	50340.24
568.83	50684.30
568.99	51107.94
569.15	51372.42
569.32	51299.86
569.48	50894.95
569.64	50820.05
569.81	50677.28
569.97	50330.88
570.13	50443.23
570.30	49675.53
570.46	49331.47
570.62	48748.68
570.78	48360.15
570.95	48615.27
571.11	49724.68
571.27	49886.18
571.43	50227.90
571.60	50536.85
571.76	50712.39
571.92	50944.10
572.09	51121.98
572.25	51686.05
572.41	51208.58
572.57	50911.33
572.74	50901.97
572.90	50609.40
573.06	50742.81
573.22	50728.77
573.38	51000.27
573.55	50890.27
573.71	50686.64
573.87	50644.51
574.03	50485.36
574.20	50419.82
574.36	49677.87
574.52	49982.14
574.68	49682.55
574.84	48823.58
575.01	48559.09
575.17	48523.99
575.33	48947.62
575.49	48921.88
575.65	48912.52
575.82	48985.07
575.98	48683.14
576.14	49291.68
576.30	49422.75
576.46	49441.48
576.62	49619.36
576.79	49256.57
576.95	49113.80
577.11	48802.51
577.27	49361.90
577.43	49179.34
577.59	48837.62
577.75	48224.40
577.92	47346.70
578.08	47124.35
578.24	47105.62
578.40	47793.74
578.56	47725.86
578.72	48383.55
578.88	48151.84
579.04	48318.02
579.21	48858.68
579.37	48727.61
579.53	48896.13
579.69	48603.56
579.85	48849.32
580.01	48687.82
580.17	48116.73
580.33	48294.61
580.49	48135.46
580.65	48339.08
580.82	48397.60
580.98	48641.01
581.14	48561.44
581.30	48772.08
581.46	48484.20
581.62	48680.80
581.78	49029.54
581.94	49350.20
582.10	49064.65
582.26	48704.21
582.42	48652.72
582.58	49202.74
582.74	48896.13
582.90	48832.94
583.06	48659.74
583.22	48512.28
583.38	48299.30
583.54	48215.04
583.70	48285.25
583.86	48233.76
584.02	48161.20
584.18	48198.65
584.34	48282.91
584.50	47922.47
584.66	47959.92
584.82	47332.65
584.98	47405.21
585.14	47119.66
585.30	46120.26
