SpectraSuite Data File
++++++++++++++++++++++++++++++++++++
Date: Mon Oct 07 14:53:45 GMT-05:00 2013
User: price-jones
Dark Spectrum Present: No
Reference Spectrum Present: No
Number of Sampled Component Spectra: 1
Spectrometers: USB2+H05261
Integration Time (usec): 100000 (USB2+H05261)
Spectra Averaged: 1 (USB2+H05261)
Boxcar Smoothing: 0 (USB2+H05261)
Correct for Electrical Dark: No (USB2+H05261)
Strobe/Lamp Enabled: No (USB2+H05261)
Correct for Detector Non-linearity: No (USB2+H05261)
Correct for Stray Light: No (USB2+H05261)
Number of Pixels in Processed Spectrum: 2048
>>>>>Begin Processed Spectral Data<<<<<
365.73	0.00
365.92	0.00
366.12	0.00
366.32	0.00
366.52	0.00
366.72	0.00
366.91	0.00
367.11	0.00
367.31	0.00
367.51	0.00
367.70	0.00
367.90	0.00
368.10	0.00
368.30	0.00
368.49	0.00
368.69	0.00
368.89	0.00
369.09	0.00
369.28	0.00
369.48	0.00
369.68	0.00
369.87	0.00
370.07	0.00
370.27	0.00
370.47	655.35
370.66	3199.51
370.86	3868.91
371.06	4278.50
371.25	4264.46
371.45	3770.60
371.65	3440.59
371.84	3169.09
372.04	3323.56
372.24	3770.60
372.44	3969.55
372.63	3812.73
372.83	3616.13
373.03	3180.79
373.22	2902.26
373.42	3023.97
373.62	3578.68
373.81	3934.44
374.01	3960.19
374.21	3506.12
374.40	3129.30
374.60	3454.63
374.79	3791.67
374.99	4526.60
375.19	4767.67
375.38	4856.61
375.58	4521.92
375.78	4440.00
375.97	4451.70
376.17	4833.21
376.37	4571.07
376.56	4807.46
376.76	4985.34
376.95	5411.32
377.15	5795.17
377.35	5870.06
377.54	6314.77
377.74	6291.36
377.93	6466.90
378.13	6167.31
378.33	5795.17
378.52	5446.43
378.72	5123.43
378.91	5160.88
379.11	5172.58
379.31	4758.31
379.50	4772.35
379.70	5252.16
379.89	5781.12
380.09	6040.92
380.28	6132.20
380.48	6342.85
380.68	6310.08
380.87	5926.24
381.07	5511.96
381.26	5226.42
381.46	4985.34
381.65	4706.82
381.85	4681.07
382.04	4297.22
382.24	4070.19
382.43	3925.08
382.63	3815.07
382.83	3712.09
383.02	3927.42
383.22	3838.48
383.41	3896.99
383.61	4025.72
383.80	4873.00
384.00	5289.61
384.19	6087.73
384.39	6183.70
384.58	6228.17
384.78	6054.97
384.97	6160.29
385.17	5748.36
385.36	5668.78
385.56	5114.07
385.75	5371.53
385.95	6012.84
386.14	6445.84
386.34	6469.24
386.53	6085.39
386.72	5703.89
386.92	5750.70
387.11	6085.39
387.31	6387.32
387.50	6408.39
387.70	6148.59
387.89	6008.16
388.09	6164.97
388.28	6024.54
388.48	6157.95
388.67	6633.08
388.86	7426.52
389.06	7873.56
389.25	8145.06
389.45	8465.72
389.64	8187.19
389.84	8266.77
390.03	8046.76
390.22	8109.96
390.42	8351.03
390.61	8933.82
390.81	9406.61
391.00	9596.20
391.19	9561.09
391.39	9533.00
391.58	8615.51
391.78	8397.84
391.97	8105.28
392.16	7552.91
392.36	6920.96
392.55	5488.56
392.75	4416.59
392.94	3611.45
393.13	3487.40
393.33	4229.35
393.52	5411.32
393.71	6483.28
393.91	7241.62
394.10	7943.78
394.29	8819.14
394.49	9687.48
394.68	10434.11
394.88	10239.84
395.07	10693.91
395.26	10408.36
395.46	10178.99
395.65	9870.04
395.84	8416.57
396.04	7070.76
396.23	5696.86
396.42	4816.82
396.62	4531.28
396.81	5334.08
397.00	6775.85
397.19	8692.75
397.39	10340.49
397.58	11580.97
397.77	12145.04
397.97	12655.28
398.16	13027.42
398.35	13247.43
398.55	13811.50
398.74	13998.74
398.93	14434.08
399.12	14197.69
399.32	13872.36
399.51	14310.04
399.70	15096.46
399.90	14918.57
400.09	14909.21
400.28	14822.61
400.47	14932.62
400.67	15700.31
400.86	16032.67
401.05	15845.43
401.24	15915.64
401.44	16451.63
401.63	16334.60
401.82	16601.42
402.01	16407.16
402.21	16325.24
402.40	16554.61
402.59	16645.89
402.78	15616.05
402.97	15040.28
403.17	15695.63
403.36	16697.38
403.55	17397.20
403.74	17474.44
403.93	16442.26
404.13	15295.40
404.32	15089.43
404.51	15800.96
404.70	16868.24
404.89	17064.85
405.09	16622.48
405.28	16161.40
405.47	16304.17
405.66	16365.03
405.85	15819.68
406.05	15367.96
406.24	15625.42
406.43	16217.57
406.62	17226.34
406.81	16851.86
407.00	16463.33
407.20	16128.63
407.39	16243.32
407.58	16968.88
407.77	17387.84
407.96	18230.43
408.15	18321.71
408.34	18534.70
408.54	19234.52
408.73	19269.63
408.92	18895.14
409.11	18420.02
409.30	17862.97
409.49	16769.94
409.68	15442.85
409.87	15068.37
410.07	15962.45
410.26	17097.61
410.45	18178.94
410.64	19016.85
410.83	19459.21
411.02	19885.19
411.21	20666.93
411.40	20577.99
411.59	20208.19
411.78	20170.74
411.98	19885.19
412.17	20365.00
412.36	19845.40
412.55	20013.92
412.74	19370.27
412.93	19431.13
413.12	19410.06
413.31	21020.35
413.50	21502.50
413.69	21884.01
413.88	21006.31
414.07	20133.29
414.26	20601.40
414.45	21214.62
414.64	21710.81
414.83	21647.61
415.02	21090.57
415.22	21055.46
415.41	21322.28
415.60	22279.56
415.79	22923.21
415.98	23309.40
416.17	23651.11
416.36	22663.41
416.55	22817.88
416.74	21940.18
416.93	21593.78
417.12	20889.28
417.31	21832.52
417.50	21851.24
417.69	22651.70
417.88	22604.89
418.07	22075.93
418.26	22139.13
418.45	22073.59
418.64	23068.32
418.83	24025.60
419.02	23740.05
419.21	23335.14
419.39	22274.88
419.58	21315.26
419.77	21308.24
419.96	22153.17
420.15	23557.49
420.34	24173.05
420.53	24879.89
420.72	25111.61
420.91	25329.28
421.10	24800.32
421.29	24559.24
421.48	23765.80
421.67	24989.90
421.86	24261.99
422.05	22537.02
422.24	20311.17
422.43	19953.07
422.61	22134.45
422.80	24318.17
422.99	24334.55
423.18	23508.34
423.37	22686.81
423.56	22838.95
423.75	23000.44
423.94	23747.08
424.13	22455.10
424.32	22604.89
424.50	22787.46
424.69	22518.29
424.88	22476.16
425.07	22427.01
425.26	22469.14
425.45	22139.13
425.64	21909.75
425.83	22136.79
426.01	23110.45
426.20	23480.25
426.39	23484.94
426.58	21900.39
426.77	20489.05
426.96	19510.71
427.15	20252.66
427.33	21827.84
427.52	22590.85
427.71	22750.01
427.90	22780.43
428.09	22431.69
428.28	22017.42
428.46	20959.50
428.65	20793.32
428.84	21057.80
429.03	21596.12
429.22	20521.82
429.40	19634.75
429.59	17703.81
429.78	15470.94
429.97	15927.35
430.16	15964.79
430.34	16084.16
430.53	15737.76
430.72	16365.03
430.91	17802.11
431.10	21465.05
431.28	24552.22
431.47	26778.07
431.66	27424.06
431.85	24903.30
432.03	22806.18
432.22	21582.08
432.41	22448.08
432.60	25113.95
432.79	26169.53
432.97	26733.60
433.16	25965.90
433.35	24229.23
433.54	21209.93
433.72	20224.57
433.91	20896.30
434.10	23559.83
434.28	25170.12
434.47	26092.29
434.66	25764.62
434.85	25455.67
435.03	24875.21
435.22	25741.21
435.41	27157.24
435.59	27236.81
435.78	27882.80
435.97	28208.14
436.16	28704.33
436.34	28037.28
436.53	27513.00
436.72	27442.78
436.90	26265.49
437.09	26221.02
437.28	25699.08
437.46	26656.36
437.65	26286.56
437.84	24727.76
438.02	22899.80
438.21	22492.55
438.40	23599.62
438.58	25795.04
438.77	26455.08
438.96	26965.31
439.14	28023.23
439.33	28301.76
439.52	28940.72
439.70	28477.30
439.89	27487.25
440.08	26630.62
440.26	26410.60
440.45	27283.62
440.63	29237.97
440.82	31473.18
441.01	31101.04
441.19	30157.80
441.38	30892.73
441.57	32084.06
441.75	32451.53
441.94	32407.06
442.12	31826.60
442.31	32685.58
442.50	32809.63
442.68	32563.87
442.87	32350.88
443.05	31426.37
443.24	32140.24
443.43	32526.42
443.61	33380.72
443.80	34022.03
443.98	32135.56
444.17	31922.57
444.35	33717.76
444.54	34174.16
444.73	33947.13
444.91	32701.96
445.10	31056.57
445.28	30040.78
445.47	29294.14
445.65	29806.72
445.84	30600.16
446.02	31915.54
446.21	32163.64
446.39	32128.53
446.58	32615.37
446.77	33111.56
446.95	33418.17
447.14	34436.30
447.32	34916.11
447.51	33928.41
447.69	32753.46
447.88	32144.92
448.06	32830.69
448.25	33773.93
448.43	34080.54
448.62	33156.03
448.80	33193.48
448.99	33216.88
449.17	33542.22
449.36	33085.81
449.54	34831.85
449.73	35119.74
449.91	35620.61
450.10	36334.48
450.28	37207.50
450.46	36528.74
450.65	36964.08
450.83	37022.59
451.02	35943.61
451.20	35812.54
451.39	35695.51
451.57	35229.74
451.76	35393.58
451.94	35433.37
452.13	34696.10
452.31	33078.79
452.49	31302.32
452.68	31945.97
452.86	32355.57
453.05	32601.32
453.23	33469.66
453.42	33986.92
453.60	34831.85
453.78	35299.96
453.97	35019.10
454.15	34960.58
454.34	33802.02
454.52	34637.59
454.70	33820.74
454.89	33984.58
455.07	34305.23
455.26	34789.72
455.44	35868.71
455.62	36573.21
455.81	36505.34
455.99	36659.81
456.17	36133.19
456.36	36339.16
456.54	37235.58
456.73	37141.96
456.91	37577.30
457.09	38080.52
457.28	38443.30
457.46	37319.84
457.64	37043.66
457.83	36264.26
458.01	35075.27
458.19	35981.06
458.38	35938.93
458.56	36978.12
458.74	37247.29
458.93	36472.57
459.11	36395.33
459.29	35964.67
459.48	36388.31
459.66	36385.97
459.84	36456.18
460.03	36985.15
460.21	36790.88
460.39	37855.82
460.57	37858.17
460.76	38113.28
460.94	38651.61
461.12	37722.41
461.31	37977.53
461.49	38185.84
461.67	37656.88
461.85	39674.42
462.04	38782.68
462.22	39131.42
462.40	39538.67
462.59	38604.80
462.77	38766.29
462.95	39040.14
463.13	38480.75
463.32	38340.32
463.50	37703.69
463.68	37404.10
463.86	37954.13
464.05	37731.78
464.23	36723.01
464.41	36449.16
464.59	36077.02
464.78	37766.88
464.96	37509.43
465.14	37029.62
465.32	38433.94
465.50	38934.81
465.69	39627.61
465.87	38822.47
466.05	37888.59
466.23	36222.13
466.41	35239.11
466.60	36006.80
466.78	36290.01
466.96	37357.29
467.14	37406.44
467.32	37897.95
467.51	37645.18
467.69	36327.45
467.87	37127.92
468.05	37764.54
468.23	37986.89
468.41	37750.50
468.60	37895.61
468.78	38213.93
468.96	37600.71
469.14	38569.69
469.32	38525.22
469.50	37123.24
469.69	37205.16
469.87	36414.05
470.05	36596.62
470.23	36631.72
470.41	36800.24
470.59	37481.34
470.77	37418.14
470.95	37991.58
471.14	38513.52
471.32	38251.38
471.50	40816.60
471.68	40877.46
471.86	41155.98
472.04	41399.40
472.22	41392.37
472.40	39552.71
472.58	39037.80
472.77	38616.50
472.95	39487.18
473.13	40477.22
473.31	39068.22
473.49	39866.34
473.67	40025.50
473.85	40542.76
474.03	41890.91
474.21	41668.56
474.39	41982.19
474.57	42267.73
474.75	42190.50
474.93	41858.14
475.12	41116.19
475.30	40856.39
475.48	41174.70
475.66	41869.84
475.84	40950.01
476.02	41057.68
476.20	40472.54
476.38	41048.32
476.56	42775.63
476.74	42885.64
476.92	43564.39
477.10	43885.04
477.28	45364.26
477.46	44729.98
477.64	44898.50
477.82	45415.76
478.00	45689.60
478.18	44949.99
478.36	44994.46
478.54	44966.37
478.72	45029.57
478.90	45989.19
479.08	47271.80
479.26	47945.87
479.44	47194.56
479.62	47327.97
479.80	47229.67
479.98	47824.17
480.16	48137.80
480.34	47342.02
480.52	47840.55
480.70	47580.75
480.88	47908.43
481.06	48793.15
481.24	49158.27
481.41	49670.85
481.59	50373.01
481.77	50174.06
481.95	49556.16
482.13	49441.48
482.31	49195.72
482.49	50370.67
482.67	49907.24
482.85	50255.98
483.03	50789.62
483.21	50939.42
483.39	51089.21
483.57	50234.92
483.74	50270.03
483.92	50340.24
484.10	50508.76
484.28	51503.49
484.46	51777.33
484.64	51831.16
484.82	51136.02
485.00	50927.72
485.18	50459.61
485.35	48718.25
485.53	46220.90
485.71	42625.84
485.89	42136.66
486.07	43447.36
486.25	47262.44
486.43	49385.30
486.61	50223.22
486.78	50309.82
486.96	49574.89
487.14	51285.82
487.32	51952.87
487.50	53162.93
487.68	53820.62
487.85	54068.72
488.03	54380.01
488.21	53844.02
488.39	53160.59
488.57	52807.17
488.75	52645.67
488.92	53347.83
489.10	55302.18
489.28	56502.87
489.46	57263.55
489.64	56505.21
489.81	56959.28
489.99	56453.72
490.17	56699.48
490.35	56994.39
490.53	56573.09
490.70	56097.96
490.88	56273.50
491.06	56926.51
491.24	56919.49
491.41	56128.39
491.59	54822.37
491.77	54087.44
491.95	54958.12
492.13	56076.90
492.30	57038.86
492.48	57780.81
492.66	58363.60
492.84	58274.66
493.01	58056.99
493.19	57631.01
493.37	57509.30
493.54	57085.67
493.72	57532.71
493.90	58321.47
494.08	59063.42
494.25	59405.14
494.43	59636.85
494.61	59894.31
494.79	59859.20
494.96	59765.58
495.14	59367.69
495.32	58599.99
495.49	57542.07
495.67	58726.38
495.85	59859.20
496.02	60360.08
496.20	60088.57
496.38	59805.37
496.55	59711.75
496.73	60261.77
496.91	60259.43
497.09	60757.97
497.26	60931.17
497.44	60561.36
497.62	59934.10
497.79	59346.62
497.97	58181.04
498.14	58286.36
498.32	59285.77
498.50	60074.53
498.67	60734.56
498.85	60336.67
499.03	60676.05
499.20	60772.01
499.38	60905.42
499.56	60776.69
499.73	60289.86
499.91	60126.02
500.08	59583.02
500.26	58983.84
500.44	59288.11
500.61	60093.25
500.79	59877.93
500.97	59501.10
501.14	59344.28
501.32	59140.66
501.49	58920.65
501.67	59363.01
501.84	59798.35
502.02	59863.88
502.20	60303.90
502.37	60346.03
502.55	60533.28
502.72	61097.34
502.90	61420.34
503.07	61190.97
503.25	60954.57
503.43	60039.42
503.60	59501.10
503.78	58972.14
503.95	59278.75
504.13	60488.80
504.30	61205.01
504.48	61160.54
504.65	60842.23
504.83	60837.54
505.01	61520.98
505.18	61497.58
505.36	62148.24
505.53	62298.04
505.71	62482.94
505.88	62454.86
506.06	61951.64
506.23	61785.46
506.41	61448.42
506.58	61516.30
506.76	61640.35
506.93	61544.39
507.11	61139.47
507.28	61249.48
507.46	60914.78
507.63	60423.27
507.81	60205.60
507.98	60463.06
508.16	61193.31
508.33	61542.05
508.50	62007.81
508.68	62225.48
508.85	62529.75
509.03	62457.20
509.20	62457.20
509.38	62061.64
509.55	61277.57
509.73	61410.98
509.90	61731.63
510.08	61862.70
510.25	61769.08
510.42	61584.18
510.60	61577.15
510.77	61932.92
510.95	62457.20
511.12	62532.09
511.30	62812.96
511.47	63044.67
511.64	62962.75
511.82	62845.72
511.99	61921.21
512.17	61511.62
512.34	61305.65
512.51	61406.30
512.69	61558.43
512.86	61607.58
513.04	61902.49
513.21	61923.55
513.38	61780.78
513.56	61123.09
513.73	60858.61
513.90	60999.04
514.08	60697.11
514.25	61272.88
514.43	61490.55
514.60	61406.30
514.77	61394.59
514.95	61829.93
515.12	61661.41
515.29	61890.79
515.47	62239.53
515.64	62679.55
515.81	62223.14
515.99	61420.34
516.16	60516.89
516.33	58237.21
516.51	56900.76
516.68	56165.84
516.85	56121.37
517.03	56238.39
517.20	58501.69
517.37	60743.92
517.54	61635.67
517.72	61226.07
517.89	59068.10
518.06	56980.34
518.24	57179.29
518.41	59234.28
518.58	60303.90
518.75	60633.92
518.93	60830.52
519.10	60755.63
519.27	61123.09
519.45	61162.88
519.62	61975.05
519.79	62358.89
519.96	62089.73
520.14	61773.76
520.31	60762.65
520.48	60601.15
520.65	61062.24
520.83	62171.65
521.00	62445.49
521.17	62181.01
521.34	61822.91
521.52	62110.80
521.69	62438.47
521.86	63035.31
522.03	62564.86
522.20	61553.75
522.38	60418.59
522.55	60512.21
522.72	60985.00
522.89	61420.34
523.07	61476.51
523.24	61815.89
523.41	62557.84
523.58	62747.42
523.75	63248.30
523.92	62976.79
524.10	63091.48
524.27	62995.52
524.44	62756.78
524.61	62473.58
524.78	62445.49
524.96	62424.43
525.13	62417.41
525.30	62646.78
525.47	63014.24
525.64	63044.67
525.81	62195.06
525.98	61214.37
526.16	59957.50
526.33	59178.10
526.50	58728.72
526.67	58674.89
526.84	59070.44
527.01	60037.08
527.18	60769.67
527.36	61628.65
527.53	62302.72
527.70	62532.09
527.87	62071.01
528.04	61539.71
528.21	61855.68
528.38	62625.71
528.55	63098.50
528.72	63320.85
528.89	63510.44
529.07	63362.98
529.24	62735.72
529.41	62246.55
529.58	61766.74
529.75	61722.27
529.92	62059.30
530.09	62457.20
530.26	62974.45
530.43	63271.70
530.60	63238.93
530.77	63433.20
530.94	63519.80
531.11	62965.09
531.28	62798.91
531.46	62557.84
531.63	62651.46
531.80	62663.16
531.97	62110.80
532.14	61518.64
532.31	60662.00
532.48	59955.16
532.65	60046.44
532.82	60814.14
532.99	61932.92
533.16	62176.33
533.33	62539.11
533.50	62508.69
533.67	61766.74
533.84	61595.88
534.01	61780.78
534.18	61839.29
534.35	62143.56
534.52	61762.06
534.69	62164.63
534.86	62571.88
535.03	62670.18
535.20	63178.08
535.37	63346.60
535.54	63444.90
535.71	63154.68
535.88	62752.10
536.05	62349.53
536.22	61851.00
536.38	61858.02
536.55	61282.25
536.72	60664.35
536.89	60664.35
537.06	61488.21
537.23	62171.65
537.40	62438.47
537.57	62309.74
537.74	62349.53
537.91	62326.13
538.08	62145.90
538.25	62241.87
538.42	62347.19
538.59	62202.08
538.75	61563.11
538.92	61432.04
539.09	61427.36
539.26	61160.54
539.43	60783.71
539.60	60970.96
539.77	61286.93
539.94	61277.57
540.11	60458.38
540.28	59817.07
540.44	59969.21
540.61	60324.97
540.78	60561.36
540.95	61076.28
541.12	61127.77
541.29	61532.68
541.46	61687.16
541.62	61750.35
541.79	61694.18
541.96	61207.35
542.13	60973.30
542.30	61305.65
542.47	61689.50
542.63	61518.64
542.80	60982.66
542.97	61188.63
543.14	61041.17
543.31	61118.41
543.48	61453.11
543.64	62244.21
543.81	62597.63
543.98	62368.26
544.15	61869.72
544.32	61212.03
544.48	61151.18
544.65	61598.22
544.82	62082.71
544.99	61932.92
545.16	61467.15
545.32	60966.27
545.49	61876.74
545.66	62314.42
545.83	61911.85
546.00	61399.27
546.16	61268.20
546.33	61389.91
546.50	61345.44
546.67	61680.14
546.83	61382.89
547.00	61265.86
547.17	60870.31
547.34	60383.48
547.50	60214.96
547.67	60722.86
547.84	60736.90
548.00	61048.19
548.17	61352.46
548.34	61410.98
548.51	61333.74
548.67	61382.89
548.84	61410.98
549.01	61432.04
549.18	61368.85
549.34	61322.04
549.51	61235.44
549.68	61226.07
549.84	61078.62
550.01	60811.80
550.18	60659.66
550.34	60968.61
550.51	60954.57
550.68	60992.02
550.84	60678.39
551.01	60533.28
551.18	60495.83
551.34	60818.82
551.51	61055.21
551.68	61296.29
551.84	61600.56
552.01	61315.01
552.18	61254.16
552.34	60362.42
552.51	60121.34
552.68	59840.48
552.84	60465.40
553.01	60701.79
553.18	60617.53
553.34	60612.85
553.51	60662.00
553.67	60921.80
553.84	61113.73
554.01	60987.34
554.17	60858.61
554.34	60898.40
554.51	60832.86
554.67	61357.14
554.84	61118.41
555.00	60842.23
555.17	60683.07
555.33	60552.00
555.50	60547.32
555.67	60734.56
555.83	60444.33
556.00	60205.60
556.16	60336.67
556.33	59859.20
556.50	59716.43
556.66	59845.16
556.83	59381.73
556.99	59690.68
557.16	59964.52
557.32	59936.44
557.49	60009.00
557.65	60266.45
557.82	60069.85
557.98	60144.75
558.15	59669.62
558.32	58803.62
558.48	58300.40
558.65	58129.54
558.81	58621.06
558.98	59018.95
559.14	59213.21
559.31	59011.93
559.47	59164.06
559.64	58894.90
559.80	58576.59
559.97	58506.37
560.13	58836.39
560.30	59847.50
560.46	60130.70
560.63	60355.39
560.79	60481.78
560.96	60100.28
561.12	59061.08
561.29	58258.27
561.45	58330.83
561.61	58831.71
561.78	59185.13
561.94	59182.79
562.11	59079.80
562.27	58878.52
562.44	59416.84
562.60	59545.57
562.77	59793.67
562.93	59662.60
563.10	59355.99
563.26	58803.62
563.42	59037.67
563.59	58768.51
563.75	58756.81
563.92	58906.60
564.08	58665.53
564.24	59014.27
564.41	59150.02
564.57	59145.34
564.74	58831.71
564.90	59002.56
565.07	58541.48
565.23	58375.30
565.39	57808.89
565.56	57544.41
565.72	57408.66
565.88	57972.73
566.05	57801.87
566.21	57949.32
566.38	58410.41
566.54	58071.03
566.70	58686.59
566.87	58855.11
567.03	58796.60
567.19	58981.50
567.36	58702.98
567.52	58649.14
567.68	58464.24
567.85	57932.94
568.01	57244.82
568.17	57286.95
568.34	57333.76
568.50	57345.47
568.66	57368.87
568.83	57586.54
568.99	57790.17
569.15	57874.43
569.32	57687.18
569.48	57633.35
569.64	57345.47
569.81	57272.91
569.97	57132.48
570.13	56956.94
570.30	56580.11
570.46	56339.04
570.62	55800.71
570.78	55671.98
570.95	56032.42
571.11	56388.19
571.27	56825.87
571.43	56982.68
571.60	57303.34
571.76	57485.90
571.92	57579.52
572.09	57654.42
572.25	57813.57
572.41	57764.42
572.57	57556.11
572.74	57869.75
572.90	57139.50
573.06	57233.12
573.22	57214.40
573.38	57303.34
573.55	57172.27
573.71	57322.06
573.87	57174.61
574.03	57048.22
574.20	56949.92
574.36	56900.76
574.52	56659.69
574.68	56636.28
574.84	56088.60
575.01	55826.46
575.17	55730.50
575.33	56069.87
575.49	56140.09
575.65	56355.42
575.82	55990.30
575.98	55618.15
576.14	56133.07
576.30	56432.66
576.46	56374.14
576.62	56629.26
576.79	56296.91
576.95	56170.52
577.11	56006.68
577.27	56285.20
577.43	56130.73
577.59	55922.42
577.75	55393.46
577.92	55267.07
578.08	54749.81
578.24	55054.08
578.40	54981.52
578.56	55451.97
578.72	55430.91
578.88	55585.38
579.04	55639.22
579.21	55819.44
579.37	55781.99
579.53	55707.09
579.69	55927.10
579.85	56062.85
580.01	55852.20
580.17	55529.21
580.33	55367.71
580.49	55241.32
580.65	55789.01
580.82	55693.05
580.98	55735.18
581.14	55597.09
581.30	55753.90
581.46	55561.98
581.62	55994.98
581.78	55732.84
581.94	55873.27
582.10	56030.08
582.26	55828.80
582.42	56060.51
582.58	55826.46
582.74	56140.09
582.90	55849.86
583.06	55749.22
583.22	55758.58
583.38	55810.07
583.54	55561.98
583.70	55559.64
583.86	55671.98
584.02	55491.76
584.18	55777.31
584.34	55386.44
584.50	55512.83
584.66	55543.25
584.82	54911.31
584.98	54635.13
585.14	54731.09
