SpectraSuite Data File
++++++++++++++++++++++++++++++++++++
Date: Mon Oct 07 14:54:58 GMT-05:00 2013
User: price-jones
Dark Spectrum Present: No
Reference Spectrum Present: No
Number of Sampled Component Spectra: 1
Spectrometers: USB2+H05261
Integration Time (usec): 10000 (USB2+H05261)
Spectra Averaged: 1 (USB2+H05261)
Boxcar Smoothing: 0 (USB2+H05261)
Correct for Electrical Dark: No (USB2+H05261)
Strobe/Lamp Enabled: No (USB2+H05261)
Correct for Detector Non-linearity: No (USB2+H05261)
Correct for Stray Light: No (USB2+H05261)
Number of Pixels in Processed Spectrum: 2048
>>>>>Begin Processed Spectral Data<<<<<
365.73	0.00
365.92	0.00
366.12	0.00
366.32	0.00
366.52	0.00
366.72	0.00
366.91	0.00
367.11	0.00
367.31	0.00
367.51	0.00
367.70	0.00
367.90	0.00
368.10	0.00
368.30	0.00
368.49	0.00
368.69	0.00
368.89	0.00
369.09	0.00
369.28	0.00
369.48	0.00
369.68	0.00
369.87	0.00
370.07	0.00
370.27	0.00
370.47	25.75
370.66	1151.54
370.86	1455.81
371.06	1364.53
371.25	1394.96
371.45	1207.72
371.65	1116.44
371.84	1144.52
372.04	1219.42
372.24	1397.30
372.44	1299.00
372.63	1334.11
372.83	1287.29
373.03	1071.97
373.22	1053.24
373.42	1170.27
373.62	1221.76
373.81	1380.92
374.01	1376.24
374.21	1074.31
374.40	1132.82
374.60	1167.93
374.79	1465.18
374.99	1570.50
375.19	1713.27
375.38	1699.23
375.58	1544.75
375.78	1589.22
375.97	1645.40
376.17	1629.01
376.37	1717.95
376.56	1722.63
376.76	1823.28
376.95	2029.24
377.15	2094.78
377.35	2139.25
377.54	2258.62
377.74	2394.37
377.93	2265.64
378.13	2221.17
378.33	2129.89
378.52	1970.73
378.72	1837.32
378.91	1877.11
379.11	1804.55
379.31	1743.70
379.50	1659.44
379.70	1823.28
379.89	2136.91
380.09	2265.64
380.28	2340.54
380.48	2143.93
380.68	2129.89
380.87	2136.91
381.07	1797.53
381.26	1895.83
381.46	1626.67
381.65	1687.53
381.85	1591.56
382.04	1409.00
382.24	1373.89
382.43	1268.57
382.63	1329.42
382.83	1299.00
383.02	1338.79
383.22	1284.95
383.41	1306.02
383.61	1352.83
383.80	1729.66
384.00	1895.83
384.19	2101.80
384.39	2333.51
384.58	2305.43
384.78	2230.53
384.97	2169.68
385.17	1991.80
385.36	1954.35
385.56	1797.53
385.75	1905.20
385.95	2106.48
386.14	2188.40
386.34	2244.57
386.53	2129.89
386.72	2062.01
386.92	2181.38
387.11	2153.29
387.31	2223.51
387.50	2101.80
387.70	2296.07
387.89	2045.63
388.09	2083.08
388.28	2282.02
388.48	2303.09
388.67	2506.71
388.86	2759.49
389.06	2820.35
389.25	3152.70
389.45	2883.54
389.64	2944.39
389.84	2974.82
390.03	2920.99
390.22	2862.48
390.42	3112.91
390.61	3234.62
390.81	3517.83
391.00	3489.74
391.19	3581.02
391.39	3192.49
391.58	3080.14
391.78	2970.14
391.97	2855.45
392.16	2569.91
392.36	2225.85
392.55	1664.12
392.75	1355.17
392.94	1132.82
393.13	1179.63
393.33	1544.75
393.52	2069.03
393.71	2289.04
393.91	2581.61
394.10	2988.86
394.29	3094.19
394.49	3424.20
394.68	3555.27
394.88	3744.86
395.07	3763.58
395.26	3616.13
395.46	3604.42
395.65	3145.68
395.84	2775.88
396.04	2237.55
396.23	1856.04
396.42	1540.07
396.62	1572.84
396.81	1935.62
397.00	2677.57
397.19	3255.69
397.39	3679.32
397.58	4243.39
397.77	4311.27
397.97	4594.47
398.16	4524.26
398.35	4788.74
398.55	4952.57
398.74	5076.62
398.93	5172.58
399.12	5151.52
399.32	5029.81
399.51	5254.50
399.70	5509.62
399.90	5301.31
400.09	5305.99
400.28	5359.83
400.47	5401.96
400.67	5439.40
400.86	5619.63
401.05	5797.51
401.24	5521.32
401.44	5788.14
401.63	5987.09
401.82	6069.01
402.01	6015.18
402.21	6005.81
402.40	6097.10
402.59	5860.70
402.78	5352.81
402.97	5460.47
403.17	5643.03
403.36	5942.62
403.55	6127.52
403.74	6026.88
403.93	5703.89
404.13	5404.30
404.32	5418.34
404.51	5748.36
404.70	5959.00
404.89	6019.86
405.09	5895.81
405.28	5769.42
405.47	5834.96
405.66	5722.61
405.85	5598.56
406.05	5423.02
406.24	5713.25
406.43	5849.00
406.62	6066.67
406.81	5987.09
407.00	5809.21
407.20	5731.97
407.39	5657.07
407.58	6284.34
407.77	6253.91
407.96	6413.07
408.15	6396.68
408.34	6420.09
408.54	6895.22
408.73	6761.81
408.92	6743.08
409.11	6317.11
409.30	6216.46
409.49	5809.21
409.68	5523.66
409.87	5488.56
410.07	5905.17
410.26	6076.03
410.45	6382.64
410.64	6619.04
410.83	6981.82
411.02	7119.91
411.21	7391.41
411.40	7222.89
411.59	7274.38
411.78	7176.08
411.98	7255.66
412.17	7243.96
412.36	7007.56
412.55	6862.45
412.74	6820.32
412.93	6773.51
413.12	6918.62
413.31	7428.86
413.50	7482.69
413.69	7559.93
413.88	7119.91
414.07	7356.30
414.26	7550.57
414.45	7403.11
414.64	7606.74
414.83	7358.64
415.02	7318.86
415.22	7330.56
415.41	7527.16
415.60	7789.30
415.79	8037.40
415.98	8374.44
416.17	8241.03
416.36	8070.17
416.55	7772.92
416.74	7442.90
416.93	7321.20
417.12	7398.43
417.31	7571.63
417.50	7747.17
417.69	7929.74
417.88	7789.30
418.07	7721.43
418.26	7604.40
418.45	7868.88
418.64	8182.51
418.83	8545.30
419.02	8238.69
419.21	8056.12
419.39	7775.26
419.58	7358.64
419.77	7438.22
419.96	7957.82
420.15	8524.23
420.34	8557.00
420.53	8910.42
420.72	8936.17
420.91	8758.28
421.10	8418.91
421.29	8786.37
421.48	8557.00
421.67	8711.47
421.86	8224.64
422.05	7506.10
422.24	6883.52
422.43	7293.11
422.61	8112.30
422.80	8285.50
422.99	8002.29
423.18	8028.04
423.37	7880.58
423.56	7957.82
423.75	8147.40
423.94	8344.01
424.13	7812.71
424.32	7714.41
424.50	7880.58
424.69	7939.10
424.88	7929.74
425.07	7845.48
425.26	7665.25
425.45	7784.62
425.64	7595.04
425.83	7801.01
426.01	8210.60
426.20	8147.40
426.39	8161.45
426.58	7548.23
426.77	7009.90
426.96	6911.60
427.15	7279.07
427.33	7494.40
427.52	7730.79
427.71	7779.94
427.90	7620.78
428.09	7602.06
428.28	7417.16
428.46	7323.54
428.65	7262.68
428.84	7463.97
429.03	7398.43
429.22	6871.81
429.40	6480.94
429.59	6090.07
429.78	5444.09
429.97	5284.93
430.16	5378.55
430.34	5355.15
430.53	5650.05
430.72	5879.43
430.91	6539.46
431.10	7672.28
431.28	8596.79
431.47	9270.86
431.66	9029.79
431.85	8215.28
432.03	7375.03
432.22	7548.23
432.41	8107.62
432.60	8734.88
432.79	8982.98
432.97	9177.24
433.16	8634.24
433.35	7838.45
433.54	7283.75
433.72	6885.86
433.91	7197.15
434.10	8119.32
434.28	8524.23
434.47	9069.58
434.66	8533.59
434.85	8524.23
435.03	8964.25
435.22	8821.48
435.41	9064.89
435.59	9235.75
435.78	9551.73
435.97	9476.83
436.16	9652.37
436.34	9523.64
436.53	9303.63
436.72	9469.81
436.90	8699.77
437.09	8884.67
437.28	8791.05
437.46	9053.19
437.65	8709.13
437.84	8351.03
438.02	7740.15
438.21	7903.99
438.40	8116.98
438.58	8791.05
438.77	8908.08
438.96	9158.52
439.14	9523.64
439.33	9769.40
439.52	9549.39
439.70	9570.45
439.89	9092.98
440.08	9181.92
440.26	9212.35
440.45	9462.79
440.63	10148.56
440.82	10588.58
441.01	10057.28
441.19	10368.57
441.38	10541.77
441.57	10869.45
441.75	10902.22
441.94	11040.31
442.12	10710.29
442.31	11014.56
442.50	11061.37
442.68	11080.10
442.87	11016.90
443.05	10761.78
443.24	11122.23
443.43	11040.31
443.61	11311.81
443.80	11365.64
443.98	10682.20
444.17	11105.84
444.35	11606.72
444.54	11705.02
444.73	11669.91
444.91	10703.27
445.10	10228.14
445.28	10080.69
445.47	10038.56
445.65	9781.10
445.84	10286.65
446.02	10586.24
446.21	11056.69
446.39	10780.51
446.58	10803.91
446.77	11358.62
446.95	11463.94
447.14	11248.61
447.32	11454.58
447.51	11218.19
447.69	10803.91
447.88	10785.19
448.06	10808.59
448.25	11084.78
448.43	11201.80
448.62	11145.63
448.80	10956.05
448.99	11138.61
449.17	10796.89
449.36	10923.28
449.54	11707.36
449.73	12100.57
449.91	11864.18
450.10	12393.14
450.28	12327.60
450.46	11878.22
450.65	12011.63
450.83	12168.45
451.02	11763.53
451.20	11971.84
451.39	11644.17
451.57	11623.10
451.76	11417.13
451.94	11618.42
452.13	11288.40
452.31	11028.60
452.49	10366.23
452.68	10609.65
452.86	10558.16
453.05	10654.12
453.23	11438.20
453.42	11644.17
453.60	11557.57
453.78	11655.87
453.97	11391.39
454.15	11433.52
454.34	11023.92
454.52	11276.70
454.70	10923.28
454.89	11276.70
455.07	11220.53
455.26	11400.75
455.44	11800.98
455.62	11971.84
455.81	12081.85
455.99	11892.26
456.17	11775.24
456.36	11957.80
456.54	12217.60
456.73	12109.93
456.91	12360.37
457.09	12461.01
457.28	12451.65
457.46	12081.85
457.64	11960.14
457.83	11332.87
458.01	11372.66
458.19	11674.59
458.38	11831.41
458.56	12025.67
458.74	12088.87
458.93	11915.67
459.11	11868.86
459.29	11988.22
459.48	11824.39
459.66	11646.51
459.84	11800.98
460.03	11929.71
460.21	11981.20
460.39	12702.09
460.57	12147.38
460.76	12514.84
460.94	12430.59
461.12	12098.23
461.31	12273.77
461.49	12320.58
461.67	12648.26
461.85	12594.42
462.04	12767.62
462.22	12613.15
462.40	12645.91
462.59	12325.26
462.77	12341.64
462.95	12456.33
463.13	12542.93
463.32	12147.38
463.50	12060.78
463.68	12098.23
463.86	12395.48
464.05	12039.72
464.23	11508.41
464.41	11810.34
464.59	11501.39
464.78	12056.10
464.96	12042.06
465.14	12016.31
465.32	12458.67
465.50	12725.49
465.69	12341.64
465.87	11955.46
466.05	11653.53
466.23	11241.59
466.41	11309.47
466.60	11770.55
466.78	11943.75
466.96	11892.26
467.14	11882.90
467.32	12112.27
467.51	12154.40
467.69	11400.75
467.87	11335.21
468.05	11854.81
468.23	11918.01
468.41	12063.12
468.60	11843.11
468.78	11789.28
468.96	11878.22
469.14	12184.83
469.32	12428.24
469.50	11576.29
469.69	11639.48
469.87	11360.96
470.05	11438.20
470.23	11377.34
470.41	11665.23
470.59	12004.61
470.77	11782.26
470.95	12159.08
471.14	11990.56
471.32	12198.87
471.50	12830.82
471.68	12964.23
471.86	12901.03
472.04	12842.52
472.22	13085.94
472.40	12243.34
472.58	12461.01
472.77	12105.25
472.95	12381.43
473.13	12542.93
473.31	12566.34
473.49	12266.75
473.67	12650.60
473.85	12318.24
474.03	12854.22
474.21	13153.81
474.39	13083.59
474.57	13151.47
474.75	13102.32
474.93	13268.50
475.12	12844.86
475.30	13025.08
475.48	13090.62
475.66	13011.04
475.84	12814.43
476.02	12730.17
476.20	12517.18
476.38	12737.20
476.56	13198.28
476.74	13434.68
476.92	13481.49
477.10	13752.99
477.28	14169.60
477.46	13994.06
477.64	14335.78
477.82	14562.81
478.00	14541.75
478.18	14291.31
478.36	13724.90
478.54	13902.78
478.72	14209.39
478.90	14546.43
479.08	14616.65
479.26	14836.66
479.44	14237.48
479.62	14761.76
479.80	14497.28
479.98	15023.90
480.16	14909.21
480.34	14963.04
480.52	14867.08
480.70	14785.16
480.88	15176.03
481.06	15688.61
481.24	15660.52
481.41	15932.03
481.59	16348.64
481.77	15681.59
481.95	15639.46
482.13	15896.92
482.31	15648.82
482.49	15908.62
482.67	15859.47
482.85	16109.91
483.03	16348.64
483.21	16257.36
483.39	16266.72
483.57	16194.17
483.74	15604.35
483.92	15829.04
484.10	16156.72
484.28	16470.35
484.46	16407.16
484.64	16245.66
484.82	16311.19
485.00	16407.16
485.18	15915.64
485.35	14885.81
485.53	13317.65
485.71	12482.08
485.89	12886.99
486.07	13514.25
486.25	14490.26
486.43	15335.19
486.61	15140.93
486.78	15517.75
486.96	15859.47
487.14	16676.32
487.32	17069.53
487.50	17305.92
487.68	16842.50
487.85	17397.20
488.03	17128.04
488.21	17046.12
488.39	16629.51
488.57	16814.41
488.75	16994.63
488.92	17809.14
489.10	18876.42
489.28	18698.54
489.46	19267.29
489.64	19501.34
489.81	19522.41
489.99	19311.76
490.17	19077.71
490.35	20156.69
490.53	19342.19
490.70	19073.03
490.88	19178.35
491.06	19852.42
491.24	19173.67
491.41	18553.43
491.59	17647.64
491.77	17275.49
491.95	18366.18
492.13	18621.30
492.30	19274.31
492.48	20383.73
492.66	20666.93
492.84	20290.10
493.01	19789.23
493.19	19494.32
493.37	18904.51
493.54	19012.17
493.72	20004.56
493.90	20292.44
494.08	21216.96
494.25	21294.19
494.43	21387.82
494.61	21741.24
494.79	21591.44
494.96	21214.62
495.14	20727.78
495.32	20175.42
495.49	19901.58
495.67	20903.32
495.85	21816.13
496.02	21951.88
496.20	21713.15
496.38	21259.09
496.55	20716.08
496.73	21348.03
496.91	21612.51
497.09	21970.61
497.26	21893.37
497.44	21680.38
497.62	21039.08
497.79	20552.24
497.97	19641.78
498.14	20262.02
498.32	20947.79
498.50	21263.77
498.67	22047.85
498.85	22031.46
499.03	21350.37
499.20	22120.40
499.38	21771.66
499.56	21018.01
499.73	21308.24
499.91	20648.21
500.08	20393.09
500.26	20315.85
500.44	20865.88
500.61	21701.45
500.79	20978.22
500.97	20676.29
501.14	20325.21
501.32	19976.47
501.49	20594.37
501.67	20678.63
501.84	21179.51
502.02	21235.68
502.20	21303.56
502.37	21516.54
502.55	21495.48
502.72	22338.07
502.90	22513.61
503.07	21867.63
503.25	21727.19
503.43	20386.07
503.60	19915.62
503.78	19875.83
503.95	20589.69
504.13	20798.00
504.30	22148.49
504.48	22118.06
504.65	21977.63
504.83	21509.52
505.01	22017.42
505.18	22260.84
505.36	22955.97
505.53	22689.15
505.71	23178.33
505.88	22679.79
506.06	22953.63
506.23	22307.65
506.41	22377.86
506.58	22047.85
506.76	21530.59
506.93	21940.18
507.11	21245.04
507.28	21465.05
507.46	21151.42
507.63	20912.69
507.81	20594.37
507.98	20723.10
508.16	21502.50
508.33	22026.78
508.50	21837.20
508.68	21837.20
508.85	22878.74
509.03	22719.58
509.20	22040.82
509.38	21638.25
509.55	21109.29
509.73	21687.40
509.90	22253.81
510.08	21593.78
510.25	21446.33
510.42	21322.28
510.60	21525.91
510.77	22164.87
510.95	22576.81
511.12	22373.18
511.30	22611.92
511.47	23009.81
511.64	22927.89
511.82	22478.50
511.99	21406.54
512.17	21701.45
512.34	21362.07
512.51	21362.07
512.69	21310.58
512.86	21645.27
513.04	21879.33
513.21	21776.34
513.38	21284.83
513.56	21113.97
513.73	20465.64
513.90	20428.20
514.08	20535.86
514.25	20898.64
514.43	21635.91
514.60	21841.88
514.77	21525.91
514.95	21586.76
515.12	21783.37
515.29	21914.44
515.47	21774.00
515.64	21734.21
515.81	21745.92
515.99	21642.93
516.16	20081.80
516.33	18480.87
516.51	17460.40
516.68	17043.78
516.85	16592.06
517.03	17373.80
517.20	18721.95
517.37	20730.12
517.54	20774.60
517.72	19564.54
517.89	18277.24
518.06	17671.04
518.24	18190.64
518.41	19180.69
518.58	19990.52
518.75	20400.11
518.93	20259.68
519.10	20224.57
519.27	20451.60
519.45	20926.73
519.62	21247.38
519.79	21280.15
519.96	21738.90
520.14	20854.17
520.31	20212.87
520.48	20212.87
520.65	20386.07
520.83	21509.52
521.00	21221.64
521.17	20900.98
521.34	20739.49
521.52	20762.89
521.69	21399.52
521.86	21586.76
522.03	21018.01
522.20	20177.76
522.38	19449.85
522.55	19557.52
522.72	20697.36
522.89	20088.82
523.07	20631.82
523.24	21289.51
523.41	21418.24
523.58	21415.90
523.75	21095.25
523.92	21617.19
524.10	21614.85
524.27	21654.64
524.44	21668.68
524.61	21792.73
524.78	21350.37
524.96	21025.03
525.13	20989.92
525.30	21865.28
525.47	22171.89
525.64	21759.96
525.81	20627.14
525.98	19594.96
526.16	18408.31
526.33	18494.91
526.50	18267.88
526.67	18382.57
526.84	18497.25
527.01	19185.37
527.18	20137.97
527.36	20690.34
527.53	21263.77
527.70	21298.88
527.87	20198.82
528.04	20135.63
528.21	20905.66
528.38	21486.12
528.55	22064.23
528.72	21315.26
528.89	21734.21
529.07	21811.45
529.24	20730.12
529.41	21027.37
529.58	20318.19
529.75	20273.72
529.92	20657.57
530.09	20456.28
530.26	20554.58
530.43	20535.86
530.60	21301.22
530.77	21741.24
530.94	21717.83
531.11	21111.63
531.28	21032.05
531.46	20575.65
531.63	20898.64
531.80	21144.40
531.97	20662.25
532.14	19594.96
532.31	18911.53
532.48	18415.34
532.65	18883.44
532.82	19047.28
532.99	20037.33
533.16	20458.62
533.33	21268.45
533.50	20636.50
533.67	20056.05
533.84	19990.52
534.01	19740.08
534.18	19948.39
534.35	19880.51
534.52	20056.05
534.69	20428.20
534.86	20662.25
535.03	20566.29
535.20	20933.75
535.37	20919.71
535.54	20760.55
535.71	20526.50
535.88	20496.07
536.05	19920.30
536.22	19829.02
536.38	19147.92
536.55	19566.88
536.72	19637.09
536.89	19653.48
537.06	19557.52
537.23	19597.31
537.40	19871.15
537.57	19892.21
537.74	19309.42
537.91	19569.22
538.08	20273.72
538.25	20201.16
538.42	20023.28
538.59	20016.26
538.75	19580.92
538.92	19307.08
539.09	18853.02
539.26	18574.49
539.43	18450.44
539.60	18586.19
539.77	18143.83
539.94	18239.79
540.11	17724.88
540.28	17322.30
540.44	17940.21
540.61	18080.64
540.78	18188.30
540.95	19328.14
541.12	18635.35
541.29	19124.52
541.46	18822.59
541.62	19218.14
541.79	18574.49
541.96	18361.50
542.13	18904.51
542.30	19040.26
542.47	19080.05
542.63	18780.46
542.80	18265.54
542.97	18335.76
543.14	18689.18
543.31	18508.96
543.48	19168.99
543.64	19393.68
543.81	19800.93
543.98	19323.46
544.15	18979.40
544.32	18319.37
544.48	19496.66
544.65	18897.49
544.82	18918.55
544.99	18480.87
545.16	18459.81
545.32	19012.17
545.49	19187.71
545.66	19620.71
545.83	19377.30
546.00	18764.07
546.16	18651.73
546.33	18480.87
546.50	18869.40
546.67	19082.39
546.83	18448.10
547.00	18391.93
547.17	17980.00
547.34	18153.20
547.50	18111.07
547.67	18141.49
547.84	18111.07
548.00	18422.36
548.17	18132.13
548.34	17965.95
548.51	18239.79
548.67	19339.85
548.84	19063.66
549.01	19005.15
549.18	18714.92
549.34	18654.07
549.51	18679.82
549.68	18555.77
549.84	18195.32
550.01	18593.22
550.18	17832.54
550.34	17827.86
550.51	17991.70
550.68	17771.69
550.84	17228.68
551.01	17172.51
551.18	17277.83
551.34	17275.49
551.51	17792.75
551.68	18382.57
551.84	17837.22
552.01	17963.61
552.18	18012.76
552.34	17612.53
552.51	17628.92
552.68	17713.17
552.84	17221.66
553.01	17785.73
553.18	18097.02
553.34	17905.10
553.51	17802.11
553.67	17518.91
553.84	18305.33
554.01	18492.57
554.17	17579.76
554.34	18104.04
554.51	18305.33
554.67	17942.55
554.84	17549.34
555.00	17495.50
555.17	17823.18
555.33	17853.61
555.50	18403.63
555.67	18043.19
555.83	17649.98
556.00	17528.27
556.16	17322.30
556.33	16924.41
556.50	17404.22
556.66	16552.27
556.83	16393.11
556.99	16847.18
557.16	16617.80
557.32	17050.80
557.49	17188.89
557.65	16847.18
557.82	16238.64
557.98	16936.12
558.15	17043.78
558.32	16334.60
558.48	15728.40
558.65	15955.43
558.81	16140.33
558.98	16137.99
559.14	16065.44
559.31	16435.24
559.47	16006.92
559.64	15903.94
559.80	16299.49
559.97	16145.02
560.13	16837.81
560.30	16533.54
560.46	17334.01
560.63	17247.41
560.79	17310.60
560.96	16753.55
561.12	16711.42
561.29	15892.24
561.45	15777.55
561.61	15953.09
561.78	15672.23
561.94	15892.24
562.11	16147.36
562.27	16503.12
562.44	16578.01
562.60	16608.44
562.77	17013.35
562.93	16304.17
563.10	16201.19
563.26	16339.28
563.42	15880.53
563.59	15775.21
563.75	16245.66
563.92	16320.56
564.08	16208.21
564.24	15974.16
564.41	15257.95
564.57	15873.51
564.74	15667.55
564.90	15377.32
565.07	15496.69
565.23	14813.25
565.39	14930.28
565.56	15358.60
565.72	15386.68
565.88	15534.14
566.05	15161.99
566.21	15232.21
566.38	14768.78
566.54	15066.03
566.70	15185.40
566.87	15597.33
567.03	16018.63
567.19	16393.11
567.36	15222.84
567.52	15880.53
567.68	14888.15
567.85	14714.95
568.01	14874.10
568.17	14195.35
568.34	14506.64
568.50	14607.28
568.66	14679.84
568.83	14677.50
568.99	15012.20
569.15	14719.63
569.32	15073.05
569.48	15077.73
569.64	14672.82
569.81	14366.21
569.97	14457.49
570.13	14572.18
570.30	14464.51
570.46	14307.69
570.62	13682.77
570.78	13280.20
570.95	13270.84
571.11	13989.38
571.27	14251.52
571.43	13879.38
571.60	14466.85
571.76	14490.26
571.92	14642.39
572.09	14511.32
572.25	14595.58
572.41	15154.97
572.57	14745.38
572.74	14494.94
572.90	14553.45
573.06	14686.86
573.22	14300.67
573.38	14569.83
573.55	13965.98
573.71	14293.65
573.87	14473.87
574.03	14752.40
574.20	14298.33
574.36	13977.68
574.52	13914.48
574.68	13898.10
574.84	13666.39
575.01	13589.15
575.17	14183.65
575.33	13666.39
575.49	13687.45
575.65	13633.62
575.82	13364.46
575.98	13460.42
576.14	13795.12
576.30	13764.69
576.46	13434.68
576.62	13586.81
576.79	13752.99
576.95	13160.83
577.11	13551.70
577.27	13474.46
577.43	13432.33
577.59	13474.46
577.75	13556.38
577.92	12987.63
578.08	13041.46
578.24	13273.18
578.40	13071.89
578.56	12826.14
578.72	13057.85
578.88	13289.56
579.04	13317.65
579.21	13408.93
579.37	13092.96
579.53	13053.17
579.69	12844.86
579.85	12748.90
580.01	12791.03
580.17	12898.69
580.33	12894.01
580.49	13116.36
580.65	13057.85
580.82	13163.17
580.98	13081.25
581.14	12882.31
581.30	13617.24
581.46	13172.54
581.62	13291.90
581.78	13720.22
581.94	13722.56
582.10	13205.30
582.26	13476.80
582.42	13062.53
582.58	13504.89
582.74	13415.95
582.90	13268.50
583.06	13600.85
583.22	13586.81
583.38	13469.78
583.54	13137.43
583.70	13582.13
583.86	13296.58
584.02	13411.27
584.18	13474.46
584.34	13476.80
584.50	13703.84
584.66	13235.73
584.82	13336.37
584.98	12929.12
585.14	12432.93
585.30	12395.48
585.46	12208.23
585.62	11974.18
585.78	12559.31
585.94	12510.16
586.10	12479.74
586.26	12559.31
586.42	12720.81
586.58	12657.62
586.74	12470.37
586.90	12315.90
587.06	12444.63
587.22	11964.82
587.38	12100.57
587.54	12311.22
