SpectraSuite Data File
++++++++++++++++++++++++++++++++++++
Date: Mon Oct 07 14:53:25 GMT-05:00 2013
User: price-jones
Dark Spectrum Present: No
Reference Spectrum Present: No
Number of Sampled Component Spectra: 1
Spectrometers: USB2+H05261
Integration Time (usec): 100000 (USB2+H05261)
Spectra Averaged: 1 (USB2+H05261)
Boxcar Smoothing: 0 (USB2+H05261)
Correct for Electrical Dark: No (USB2+H05261)
Strobe/Lamp Enabled: No (USB2+H05261)
Correct for Detector Non-linearity: No (USB2+H05261)
Correct for Stray Light: No (USB2+H05261)
Number of Pixels in Processed Spectrum: 2048
>>>>>Begin Processed Spectral Data<<<<<
365.73	0.00
365.92	0.00
366.12	0.00
366.32	0.00
366.52	0.00
366.72	0.00
366.91	0.00
367.11	0.00
367.31	0.00
367.51	0.00
367.70	0.00
367.90	0.00
368.10	0.00
368.30	0.00
368.49	0.00
368.69	0.00
368.89	0.00
369.09	0.00
369.28	0.00
369.48	0.00
369.68	0.00
369.87	0.00
370.07	0.00
370.27	0.00
370.47	517.26
370.66	2775.88
370.86	3342.28
371.06	3676.98
371.25	3569.32
371.45	3234.62
371.65	2995.89
371.84	2841.41
372.04	2843.75
372.24	3475.70
372.44	3426.54
372.63	3419.52
372.83	3356.33
373.03	2813.32
373.22	2443.52
373.42	2715.02
373.62	3208.87
373.81	3410.16
374.01	3485.06
374.21	3019.29
374.40	2705.66
374.60	3005.25
374.79	3309.52
374.99	3866.56
375.19	4245.73
375.38	4219.99
375.58	3927.42
375.78	3822.09
375.97	3981.25
376.17	4093.60
376.37	4109.98
376.56	4201.26
376.76	4507.87
376.95	4919.81
377.15	5247.48
377.35	5284.93
377.54	5633.67
377.74	5717.93
377.93	5675.80
378.13	5500.26
378.33	5219.39
378.52	4894.06
378.72	4638.94
378.91	4655.33
379.11	4430.63
379.31	4423.61
379.50	4454.04
379.70	4603.83
379.89	5149.18
380.09	5378.55
380.28	5575.16
380.48	5427.70
380.68	5256.84
380.87	5434.72
381.07	5022.79
381.26	4578.09
381.46	4318.29
381.65	4154.45
381.85	4032.74
382.04	3801.03
382.24	3515.48
382.43	3555.27
382.63	3260.37
382.83	3407.82
383.02	3290.79
383.22	3482.72
383.41	3424.20
383.61	3684.00
383.80	4049.13
384.00	4552.34
384.19	5308.34
384.39	5724.95
384.58	5556.43
384.78	5401.96
384.97	5352.81
385.17	5081.30
385.36	4758.31
385.56	4739.58
385.75	4828.53
385.95	5366.85
386.14	5664.10
386.34	5619.63
386.53	5401.96
386.72	5071.94
386.92	5097.69
387.11	5451.11
387.31	5727.29
387.50	5535.37
387.70	5472.17
387.89	5357.49
388.09	5439.40
388.28	5493.24
388.48	5558.77
388.67	5905.17
388.86	6509.03
389.06	6825.00
389.25	7375.03
389.45	7382.05
389.64	7370.35
389.84	7328.22
390.03	7136.29
390.22	7180.76
390.42	7396.09
390.61	7824.41
390.81	8126.34
391.00	8510.19
391.19	8278.47
391.39	8147.40
391.58	7808.03
391.78	7328.22
391.97	7073.10
392.16	6492.65
392.36	6108.80
392.55	4858.95
392.75	3911.04
392.94	3145.68
393.13	3077.80
393.33	3435.91
393.52	4578.09
393.71	5488.56
393.91	6445.84
394.10	7035.65
394.29	7683.98
394.49	8348.69
394.68	8872.97
394.88	8926.80
395.07	9069.58
395.26	9277.88
395.46	8968.93
395.65	8376.78
395.84	7243.96
396.04	6251.57
396.23	5200.67
396.42	4280.84
396.62	4051.47
396.81	4741.93
397.00	6097.10
397.19	7433.54
397.39	9048.51
397.58	10235.16
397.77	10757.10
397.97	11267.34
398.16	11248.61
398.35	11552.88
398.55	12016.31
398.74	12720.81
398.93	12816.77
399.12	12484.42
399.32	12072.48
399.51	12402.50
399.70	13036.78
399.90	13151.47
400.09	13050.83
400.28	12889.33
400.47	13022.74
400.67	13724.90
400.86	14214.07
401.05	13804.48
401.24	14040.87
401.44	14237.48
401.63	14391.95
401.82	14525.36
402.01	14537.07
402.21	14778.14
402.40	14672.82
402.59	14171.94
402.78	13652.34
402.97	13252.11
403.17	13575.11
403.36	14462.17
403.55	15152.63
403.74	15318.81
403.93	14869.42
404.13	13699.16
404.32	13198.28
404.51	13994.06
404.70	15105.82
404.89	15023.90
405.09	14719.63
405.28	14150.88
405.47	14321.74
405.66	14401.32
405.85	13748.31
406.05	13605.53
406.24	13628.94
406.43	14284.29
406.62	14707.93
406.81	14949.00
407.00	14413.02
407.20	14197.69
407.39	14155.56
407.58	14686.86
407.77	15426.47
407.96	15964.79
408.15	16152.04
408.34	16180.12
408.54	16673.98
408.73	16957.18
408.92	16800.37
409.11	16081.82
409.30	15557.54
409.49	14398.98
409.68	13605.53
409.87	13139.77
410.07	13879.38
410.26	15026.24
410.45	15990.54
410.64	16311.19
410.83	16844.84
411.02	17240.39
411.21	18019.78
411.40	17841.90
411.59	18104.04
411.78	17703.81
411.98	17617.21
412.17	17935.53
412.36	17689.77
412.55	17357.41
412.74	17092.93
412.93	16734.83
413.12	16933.78
413.31	18649.39
413.50	18785.14
413.69	19187.71
413.88	18363.84
414.07	17603.17
414.26	17951.91
414.45	18558.11
414.64	18586.19
414.83	18710.24
415.02	18572.15
415.22	18352.14
415.41	18614.28
415.60	19417.08
415.79	20201.16
415.98	20535.86
416.17	20617.78
416.36	20402.45
416.55	19988.18
416.74	19056.64
416.93	18576.83
417.12	18637.69
417.31	19007.49
417.50	19290.70
417.69	19852.42
417.88	19903.92
418.07	19674.54
418.26	19309.42
418.45	19447.51
418.64	20191.80
418.83	20891.62
419.02	20563.95
419.21	20231.59
419.39	19513.05
419.58	18572.15
419.77	18700.88
419.96	19314.10
420.15	20507.77
420.34	21099.93
420.53	21928.48
420.72	22328.71
420.91	21830.18
421.10	21668.68
421.29	21612.51
421.48	20805.02
421.67	21701.45
421.86	21324.62
422.05	19962.43
422.24	17853.61
422.43	17495.50
422.61	19538.79
422.80	21102.27
422.99	21195.89
423.18	20566.29
423.37	19917.96
423.56	19789.23
423.75	20322.87
423.94	20830.77
424.13	19686.25
424.32	19847.74
424.50	20013.92
424.69	19445.17
424.88	19335.17
425.07	19683.91
425.26	19421.77
425.45	19276.65
425.64	18838.97
425.83	19098.77
426.01	20671.61
426.20	20685.65
426.39	20383.73
426.58	18815.57
426.77	17778.71
426.96	16896.33
427.15	17582.10
427.33	19220.48
427.52	20102.86
427.71	20067.75
427.90	19513.05
428.09	19936.68
428.28	19159.63
428.46	18560.45
428.65	18174.26
428.84	18462.15
429.03	18939.62
429.22	17984.68
429.40	16842.50
429.59	15602.01
429.78	13659.37
429.97	13554.04
430.16	13872.36
430.34	13827.88
430.53	13633.62
430.72	14054.92
430.91	15665.21
431.10	18043.19
431.28	21596.12
431.47	23714.31
431.66	23819.63
431.85	21752.94
432.03	20018.60
432.22	19138.56
432.41	19922.64
432.60	21851.24
432.79	22600.21
432.97	23585.58
433.16	22913.84
433.35	21039.08
433.54	18728.97
433.72	17315.28
433.91	18391.93
434.10	20287.76
434.28	21867.63
434.47	22927.89
434.66	22459.78
434.85	21710.81
435.03	21631.23
435.22	22504.25
435.41	23857.08
435.59	23810.27
435.78	24416.47
435.97	24805.00
436.16	24968.84
436.34	24306.46
436.53	23782.18
436.72	24196.46
436.90	22773.41
437.09	22794.48
437.28	22525.32
437.46	22904.48
437.65	23187.69
437.84	21343.35
438.02	19651.14
438.21	19321.12
438.40	20767.57
438.58	22654.05
438.77	23185.35
438.96	23192.37
439.14	24292.42
439.33	25123.31
439.52	25106.93
439.70	24891.60
439.89	24407.11
440.08	23555.15
440.26	23042.57
440.45	24161.35
440.63	25813.77
440.82	27091.70
441.01	26562.74
441.19	26600.19
441.38	26991.06
441.57	28070.04
441.75	28446.87
441.94	28311.12
442.12	27763.43
442.31	28872.85
442.50	28533.47
442.68	28301.76
442.87	28091.11
443.05	27344.48
443.24	27946.00
443.43	28421.13
443.61	29572.67
443.80	29443.94
443.98	27985.79
444.17	27489.59
444.35	29280.10
444.54	29883.96
444.73	29596.07
444.91	28374.31
445.10	27243.84
445.28	26080.59
445.47	25710.78
445.65	25865.26
445.84	26661.04
446.02	27115.11
446.21	27555.13
446.39	28023.23
446.58	28025.57
446.77	28865.83
446.95	28978.17
447.14	29809.06
447.32	30251.42
447.51	29895.66
447.69	28687.95
447.88	28472.62
448.06	28669.22
448.25	29537.56
448.43	29652.25
448.62	28776.89
448.80	28589.64
448.99	28996.90
449.17	28917.32
449.36	29378.40
449.54	29909.71
449.73	30478.46
449.91	31243.81
450.10	31922.57
450.28	32315.78
450.46	32357.91
450.65	32002.14
450.83	32063.00
451.02	31253.17
451.20	31307.01
451.39	30822.51
451.57	30724.21
451.76	31026.14
451.94	30827.20
452.13	30160.14
452.31	28835.40
452.49	27243.84
452.68	27962.38
452.86	27711.94
453.05	28119.20
453.23	29088.18
453.42	29591.39
453.60	30443.35
453.78	30703.15
453.97	30188.23
454.15	30658.68
454.34	29722.46
454.52	29755.23
454.70	29305.85
454.89	29514.16
455.07	29635.86
455.26	30267.81
455.44	31541.06
455.62	31814.90
455.81	32095.77
455.99	31854.69
456.17	31438.08
456.36	31402.97
456.54	32652.81
456.73	32451.53
456.91	32856.44
457.09	32844.74
457.28	33628.82
457.46	32177.68
457.64	32243.22
457.83	31157.21
458.01	30546.33
458.19	31412.33
458.38	31782.13
458.56	32507.70
458.74	32549.83
458.93	31915.54
459.11	31952.99
459.29	31658.09
459.48	32018.53
459.66	31747.03
459.84	31887.46
460.03	32835.38
460.21	32063.00
460.39	33057.73
460.57	32950.06
460.76	33724.78
460.94	33371.36
461.12	33057.73
461.31	33261.35
461.49	33240.29
461.67	32975.81
461.85	34122.67
462.04	33984.58
462.22	34504.18
462.40	33582.01
462.59	34003.30
462.77	33804.36
462.95	34057.14
463.13	33205.18
463.32	33230.93
463.50	32655.15
463.68	33198.16
463.86	32943.04
464.05	32601.32
464.23	32311.10
464.41	31704.90
464.59	31321.05
464.78	32968.79
464.96	32521.74
465.14	32128.53
465.32	33001.55
465.50	33930.75
465.69	34110.97
465.87	34061.82
466.05	32659.84
466.23	31342.11
466.41	30799.11
466.60	31545.74
466.78	31768.09
466.96	31835.97
467.14	33057.73
467.32	33071.77
467.51	33043.68
467.69	31763.41
467.87	32006.83
468.05	32900.91
468.23	32744.09
468.41	32526.42
468.60	32872.82
468.78	33284.76
468.96	32652.81
469.14	33448.60
469.32	33530.51
469.50	32275.99
469.69	31798.52
469.87	31711.92
470.05	32060.66
470.23	31709.58
470.41	32385.99
470.59	32875.16
470.77	32776.86
470.95	33109.22
471.14	33205.18
471.32	33727.12
471.50	35395.92
471.68	35468.48
471.86	35852.33
472.04	35873.39
472.22	36027.87
472.40	34195.23
472.58	33706.05
472.77	33778.61
472.95	34162.46
473.13	35442.73
473.31	34185.86
473.49	34679.72
473.67	35082.29
473.85	35342.09
474.03	36334.48
474.21	36154.26
474.39	36968.76
474.57	36928.97
474.75	36837.69
474.93	36648.11
475.12	36027.87
475.30	35922.54
475.48	36306.39
475.66	36540.44
475.84	36224.47
476.02	35784.45
476.20	35407.62
476.38	35718.92
476.56	36999.19
476.74	37352.61
476.92	38171.80
477.10	38185.84
477.28	38848.21
477.46	39126.74
477.64	39409.94
477.82	39702.51
478.00	40062.95
478.18	39442.71
478.36	39594.84
478.54	39122.05
478.72	39356.11
478.90	40275.94
479.08	41380.67
479.26	42075.81
479.44	41483.66
479.62	41378.33
479.80	41703.67
479.98	41628.77
480.16	41867.50
480.34	41862.82
480.52	42265.39
480.70	42583.71
480.88	42185.82
481.06	43075.22
481.24	43400.55
481.41	44039.52
481.59	44856.37
481.77	44737.00
481.95	44016.11
482.13	43742.27
482.31	44109.74
482.49	44257.19
482.67	44516.99
482.85	44729.98
483.03	45188.72
483.21	45352.56
483.39	45612.36
483.57	44837.64
483.74	44694.87
483.92	44999.14
484.10	45003.82
484.28	46457.29
484.46	46340.27
484.64	46618.79
484.82	46115.58
485.00	45228.51
485.18	44619.97
485.35	43311.61
485.53	40086.36
485.71	36818.97
485.89	36533.42
486.07	37937.74
486.25	41493.02
486.43	43885.04
486.61	44594.23
486.78	43976.33
486.96	44561.46
487.14	46211.54
487.32	47255.42
487.50	48254.82
487.68	49003.80
487.85	49907.24
488.03	49539.78
488.21	49167.63
488.39	48168.22
488.57	47840.55
488.75	47119.66
488.92	48397.60
489.10	50438.54
489.28	51938.83
489.46	52781.42
489.64	52451.41
489.81	53069.31
489.99	52711.20
490.17	52289.91
490.35	52973.34
490.53	52477.15
490.70	52067.56
490.88	51791.37
491.06	52837.59
491.24	52837.59
491.41	51732.86
491.59	50005.55
491.77	49331.47
491.95	50492.38
492.13	51725.84
492.30	52748.65
492.48	53942.33
492.66	54494.69
492.84	54288.73
493.01	54110.85
493.19	53366.55
493.37	53059.94
493.54	52828.23
493.72	53769.13
493.90	54660.87
494.08	55147.70
494.25	55667.30
494.43	55779.65
494.61	55959.87
494.79	56175.20
494.96	55805.39
495.14	55498.78
495.32	54569.59
495.49	53925.94
495.67	54934.71
495.85	56374.14
496.02	56692.46
496.20	56240.73
496.38	56053.49
496.55	56004.34
496.73	56451.38
496.91	56573.09
497.09	56907.79
497.26	57251.84
497.44	56680.75
497.62	56243.07
497.79	55688.37
497.97	54293.41
498.14	54365.96
498.32	55721.13
498.50	56317.97
498.67	57003.75
498.85	56750.97
499.03	57106.73
499.20	57209.71
499.38	57146.52
499.56	56985.02
499.73	56303.93
499.91	56226.69
500.08	55814.76
500.26	54876.20
500.44	55458.99
500.61	56203.28
500.79	56037.11
500.97	55671.98
501.14	55613.47
501.32	55414.52
501.49	55309.20
501.67	55498.78
501.84	55976.25
502.02	56226.69
502.20	56610.54
502.37	56734.59
502.55	56664.37
502.72	57495.26
502.90	57815.91
503.07	57499.94
503.25	57141.84
503.43	56474.79
503.60	55796.03
503.78	55276.43
503.95	55606.45
504.13	56882.04
504.30	57670.80
504.48	57432.07
504.65	57460.15
504.83	57095.03
505.01	57528.03
505.18	58197.42
505.36	58513.39
505.53	58653.82
505.71	58941.71
505.88	58920.65
506.06	58417.43
506.23	58082.73
506.41	57738.68
506.58	58017.20
506.76	58087.42
506.93	57780.81
507.11	57385.25
507.28	57921.24
507.46	57106.73
507.63	56746.29
507.81	56690.12
507.98	56617.56
508.16	57296.31
508.33	57921.24
508.50	58277.00
508.68	58539.14
508.85	58958.09
509.03	59128.95
509.20	58880.86
509.38	58225.51
509.55	57441.43
509.73	57455.47
509.90	58155.29
510.08	58480.63
510.25	58255.93
510.42	58075.71
510.60	58028.90
510.77	58358.92
510.95	58721.70
511.12	58852.77
511.30	59236.62
511.47	59372.37
511.64	59313.86
511.82	59084.48
511.99	58244.23
512.17	57972.73
512.34	57481.22
512.51	57743.36
512.69	57930.60
512.86	58003.16
513.04	58426.79
513.21	58426.79
513.38	57874.43
513.56	57626.33
513.73	56975.66
513.90	57319.72
514.08	57357.17
514.25	57757.40
514.43	57792.51
514.60	57928.26
514.77	57996.13
514.95	57965.71
515.12	58103.80
515.29	58394.03
515.47	58567.23
515.64	58981.50
515.81	58599.99
515.99	57949.32
516.16	56573.09
516.33	54330.86
516.51	52949.94
516.68	51807.76
516.85	51655.62
517.03	52360.12
517.20	54672.57
517.37	57322.06
517.54	58052.31
517.72	57502.28
517.89	55192.17
518.06	52935.90
518.24	53106.76
518.41	55283.45
518.58	56690.12
518.75	56842.25
518.93	57097.37
519.10	57090.35
519.27	57333.76
519.45	57712.93
519.62	58426.79
519.79	58501.69
519.96	58576.59
520.14	58080.39
520.31	57221.42
520.48	57265.89
520.65	57483.56
520.83	58609.35
521.00	58721.70
521.17	58433.81
521.34	58124.86
521.52	58410.41
521.69	58904.26
521.86	59264.70
522.03	58967.46
522.20	57989.11
522.38	56825.87
522.55	56914.81
522.72	57551.43
522.89	57518.67
523.07	57729.31
523.24	58405.73
523.41	58763.83
523.58	58913.62
523.75	59725.79
523.92	59667.28
524.10	59498.76
524.27	59402.80
524.44	59398.12
524.61	59138.32
524.78	58866.81
524.96	58782.55
525.13	58820.00
525.30	58890.22
525.47	59686.00
525.64	59412.16
525.81	58665.53
525.98	57425.04
526.16	55894.33
526.33	55274.09
526.50	54908.97
526.67	54604.70
526.84	55246.00
527.01	56163.50
527.18	56804.80
527.36	57961.03
527.53	58724.04
527.70	58967.46
527.87	58499.35
528.04	58183.38
528.21	58356.58
528.38	59110.23
528.55	59480.03
528.72	59990.27
528.89	60135.38
529.07	59576.00
529.24	59358.33
529.41	58539.14
529.58	58052.31
529.75	58127.20
529.92	58698.30
530.09	58927.67
530.26	59402.80
530.43	59718.77
530.60	59774.94
530.77	59870.90
530.94	60177.51
531.11	59599.40
531.28	59290.45
531.46	59103.21
531.63	59047.04
531.80	59044.69
531.97	58609.35
532.14	57778.46
532.31	56973.32
532.48	56186.90
532.65	56245.41
532.82	56910.13
532.99	58176.36
533.16	58581.27
533.33	59189.81
533.50	58930.01
533.67	58335.51
533.84	57989.11
534.01	58199.76
534.18	58157.63
534.35	58398.71
534.52	58295.72
534.69	58630.42
534.86	59023.63
535.03	58967.46
535.20	59634.51
535.37	59861.54
535.54	60102.62
535.71	59763.24
535.88	59363.01
536.05	58756.81
536.22	58356.58
536.38	58094.44
536.55	57652.08
536.72	56825.87
536.89	56837.57
537.06	57799.53
537.23	58660.85
537.40	58946.39
537.57	58892.56
537.74	58560.20
537.91	58625.74
538.08	58602.33
538.25	58747.45
538.42	58731.06
538.59	58770.85
538.75	57965.71
538.92	57755.06
539.09	57539.73
539.26	57350.15
539.43	57123.11
539.60	57312.70
539.77	57364.19
539.94	57394.62
540.11	56891.40
540.28	56294.56
540.44	56196.26
540.61	56395.21
540.78	56516.92
540.95	57069.28
541.12	57364.19
541.29	57818.25
541.46	58082.73
541.62	58078.05
541.79	58087.42
541.96	57350.15
542.13	57352.49
542.30	57544.41
542.47	57748.04
542.63	57621.65
542.80	57495.26
542.97	57387.60
543.14	57359.51
543.31	57296.31
543.48	57916.56
543.64	58644.46
543.81	58773.19
543.98	58735.74
544.15	58024.22
544.32	57371.21
544.48	57453.13
544.65	57958.69
544.82	58492.33
544.99	58017.20
545.16	57495.26
545.32	57396.96
545.49	58351.90
545.66	58745.11
545.83	58216.14
546.00	57776.12
546.16	57521.01
546.33	57687.18
546.50	57623.99
546.67	58101.46
546.83	57483.56
547.00	57607.61
547.17	57059.92
547.34	56320.31
547.50	56423.29
547.67	56900.76
547.84	57003.75
548.00	57380.57
548.17	57890.81
548.34	57729.31
548.51	57336.10
548.67	57537.39
548.84	57708.25
549.01	57677.82
549.18	57518.67
549.34	57640.37
549.51	57532.71
549.68	57399.30
549.84	57237.80
550.01	57270.57
550.18	56807.14
550.34	57340.78
550.51	57139.50
550.68	57301.00
550.84	56676.07
551.01	56907.79
551.18	56928.85
551.34	57043.54
551.51	57387.60
551.68	57736.34
551.84	57675.48
552.01	57544.41
552.18	57408.66
552.34	56587.13
552.51	56055.83
552.68	55990.30
552.84	56662.03
553.01	56949.92
553.18	56842.25
553.34	56821.19
553.51	57034.17
553.67	57261.21
553.84	57640.37
554.01	57249.50
554.17	56886.72
554.34	57057.58
554.51	57352.49
554.67	57602.92
554.84	57471.85
555.00	56912.47
555.17	56828.21
555.33	56603.52
555.50	56769.69
555.67	56797.78
555.83	56458.40
556.00	56418.61
556.16	56303.93
556.33	55983.27
556.50	55847.52
556.66	55812.41
556.83	55707.09
556.99	55695.39
557.16	55880.29
557.32	56137.75
557.49	56329.67
557.65	56104.98
557.82	56519.26
557.98	55861.57
558.15	55824.12
558.32	54869.18
558.48	53907.22
558.65	53829.98
558.81	54464.27
558.98	54546.18
559.14	55112.59
559.31	54941.74
559.47	55435.59
559.64	54913.65
559.80	54356.60
559.97	54529.80
560.13	54908.97
560.30	55980.93
560.46	56587.13
560.63	56816.50
560.79	56664.37
560.96	56388.19
561.12	54852.80
561.29	54358.94
561.45	54323.83
561.61	54864.50
561.78	55283.45
561.94	55180.47
562.11	55388.78
562.27	54653.85
562.44	55213.24
562.60	55505.80
562.77	55814.76
562.93	55711.77
563.10	55763.26
563.26	54735.77
563.42	54990.89
563.59	54686.62
563.75	54850.45
563.92	54925.35
564.08	54915.99
564.24	54972.16
564.41	55068.12
564.57	54958.12
564.74	54625.76
564.90	54712.36
565.07	54487.67
565.23	53977.43
565.39	53689.55
565.56	53256.55
565.72	53195.70
565.88	53521.03
566.05	53631.04
566.21	54078.08
566.38	54099.14
566.54	54157.66
566.70	54649.17
566.87	54862.16
567.03	54794.28
567.19	55028.34
567.36	54588.31
567.52	54801.30
567.68	54412.77
567.85	53490.60
568.01	53153.57
568.17	52650.35
568.34	52999.09
568.50	52776.74
568.66	52896.11
568.83	53240.17
568.99	53464.86
569.15	53621.67
569.32	53577.20
569.48	53078.67
569.64	53052.92
569.81	52994.41
569.97	52872.70
570.13	52722.91
570.30	52193.95
570.46	51618.17
570.62	51140.71
570.78	51077.51
570.95	51313.90
571.11	51999.68
571.27	52137.77
571.43	52404.59
571.60	52889.09
571.76	52949.94
571.92	53385.28
572.09	53502.31
572.25	53343.15
572.41	53340.81
572.57	53371.24
572.74	53443.79
572.90	52781.42
573.06	52734.61
573.22	53085.69
573.38	52830.57
573.55	52463.11
573.71	52971.00
573.87	53008.45
574.03	52554.39
574.20	52521.62
574.36	52498.22
574.52	52130.75
574.68	51959.89
574.84	51695.41
575.01	51428.59
575.17	51026.02
575.33	51274.12
575.49	51543.28
575.65	51971.60
575.82	51496.47
575.98	51346.67
576.14	51772.65
576.30	51831.16
576.46	51903.72
576.62	51995.00
576.79	51791.37
576.95	51456.68
577.11	51634.56
577.27	51702.43
577.43	51866.27
577.59	51140.71
577.75	50829.41
577.92	50380.03
578.08	49844.05
578.24	49904.90
578.40	50031.29
578.56	50529.83
578.72	50906.65
578.88	50894.95
579.04	51051.76
579.21	51213.26
579.37	51058.79
579.53	51100.92
579.69	51227.31
579.85	51449.66
580.01	51143.05
580.17	50588.34
580.33	50555.57
580.49	50520.46
580.65	50962.82
580.82	51487.10
580.98	51299.86
581.14	50857.50
581.30	50944.10
581.46	50829.41
581.62	51154.75
581.78	51026.02
581.94	51454.34
582.10	51442.63
582.26	51540.94
582.42	51089.21
582.58	51402.85
582.74	51236.67
582.90	51447.32
583.06	51391.14
583.22	51075.17
583.38	51070.49
583.54	50946.44
583.70	51150.07
583.86	50932.40
584.02	50686.64
584.18	50801.33
584.34	50784.94
584.50	50798.99
584.66	50625.79
584.82	50141.30
584.98	50040.65
585.14	49780.85
585.30	48725.27
