SpectraSuite Data File
++++++++++++++++++++++++++++++++++++
Date: Mon Oct 07 14:55:54 GMT-05:00 2013
User: price-jones
Dark Spectrum Present: No
Reference Spectrum Present: No
Number of Sampled Component Spectra: 1
Spectrometers: USB2+H05261
Integration Time (usec): 1000000 (USB2+H05261)
Spectra Averaged: 1 (USB2+H05261)
Boxcar Smoothing: 0 (USB2+H05261)
Correct for Electrical Dark: No (USB2+H05261)
Strobe/Lamp Enabled: No (USB2+H05261)
Correct for Detector Non-linearity: No (USB2+H05261)
Correct for Stray Light: No (USB2+H05261)
Number of Pixels in Processed Spectrum: 2048
>>>>>Begin Processed Spectral Data<<<<<
365.73	0.00
365.92	0.00
366.12	0.00
366.32	0.00
366.52	0.00
366.72	231.71
366.91	0.00
367.11	93.62
367.31	105.32
367.51	184.90
367.70	273.84
367.90	447.04
368.10	208.31
368.30	234.05
368.49	0.00
368.69	388.53
368.89	184.90
369.09	0.00
369.28	159.16
369.48	0.00
369.68	107.66
369.87	243.42
370.07	88.94
370.27	573.43
370.47	2176.70
370.66	7300.13
370.86	8685.73
371.06	9542.36
371.25	9788.12
371.45	8603.81
371.65	7948.46
371.84	7023.95
372.04	7419.50
372.24	8311.24
372.44	8762.97
372.63	8571.04
372.83	8470.40
373.03	7323.54
373.22	6670.53
373.42	6792.23
373.62	7822.07
373.81	8477.42
374.01	8835.52
374.21	8088.89
374.40	7412.48
374.60	7548.23
374.79	8344.01
374.99	9507.26
375.19	10342.83
375.38	10490.28
375.58	10087.71
375.78	9898.13
375.97	9776.42
376.17	10808.59
376.37	10277.29
376.56	10675.18
376.76	10801.57
376.95	11337.56
377.15	12559.31
377.35	12793.37
377.54	13186.58
377.74	13582.13
377.93	13565.74
378.13	13334.03
378.33	12987.63
378.52	11850.13
378.72	11679.27
378.91	11412.45
379.11	10967.75
379.31	10382.62
379.50	10010.47
379.70	11253.30
379.89	12297.17
380.09	12931.46
380.28	13205.30
380.48	13394.89
380.68	13062.53
380.87	12723.15
381.07	12173.13
381.26	11421.81
381.46	10239.84
381.65	10211.76
381.85	9673.43
382.04	9589.17
382.24	9004.04
382.43	8423.59
382.63	8116.98
382.83	8388.48
383.02	8732.54
383.22	8587.43
383.41	8128.68
383.61	9013.40
383.80	10387.30
384.00	11110.52
384.19	12383.77
384.39	13139.77
384.58	13287.22
384.78	13181.90
384.97	13060.19
385.17	12224.62
385.36	11726.08
385.56	11372.66
385.75	11154.99
385.95	12517.18
386.14	13823.20
386.34	13647.66
386.53	13149.13
386.72	12159.08
386.92	12849.54
387.11	12856.56
387.31	13502.55
387.50	13329.35
387.70	12601.44
387.89	12812.09
388.09	12978.27
388.28	12872.95
388.48	12999.34
388.67	14160.24
388.86	15356.25
389.06	16238.64
389.25	17689.77
389.45	17308.26
389.64	17259.11
389.84	17411.25
390.03	17170.17
390.22	16936.12
390.42	17013.35
390.61	18033.83
390.81	19487.30
391.00	20130.95
391.19	19906.26
391.39	19215.80
391.58	18066.60
391.78	17205.28
391.97	16535.88
392.16	15426.47
392.36	14902.19
392.55	12154.40
392.75	9626.62
392.94	7772.92
393.13	7632.49
393.33	8603.81
393.52	10850.72
393.71	13973.00
393.91	15133.90
394.10	16299.49
394.29	17640.62
394.49	19000.47
394.68	20484.37
394.88	20952.48
395.07	21825.50
395.26	21212.28
395.46	21179.51
395.65	20011.58
395.84	17469.76
396.04	15470.94
396.23	12266.75
396.42	10429.43
396.62	9682.80
396.81	11304.79
397.00	13902.78
397.19	17738.92
397.39	20690.34
397.58	23396.00
397.77	24826.06
397.97	25883.98
398.16	25741.21
398.35	27213.41
398.55	27236.81
398.74	28346.23
398.93	29586.71
399.12	28545.17
399.32	27819.61
399.51	28369.63
399.70	30572.08
399.90	29874.60
400.09	30071.20
400.28	29933.11
400.47	29788.00
400.67	31440.42
400.86	32170.66
401.05	32240.88
401.24	32563.87
401.44	32699.62
401.63	32858.78
401.82	33039.00
402.01	32439.82
402.21	32907.93
402.40	33411.15
402.59	32446.85
402.78	31339.77
402.97	30260.79
403.17	31248.49
403.36	33376.04
403.55	34073.52
403.74	34855.26
403.93	33223.90
404.13	32154.28
404.32	30527.61
404.51	32147.26
404.70	34384.81
404.89	33687.33
405.09	33897.98
405.28	32512.38
405.47	32203.43
405.66	32458.55
405.85	31936.61
406.05	30766.34
406.24	30604.84
406.43	32180.03
406.62	34141.39
406.81	34677.38
407.00	32858.78
407.20	32158.96
407.39	32577.92
407.58	32886.87
407.77	34375.45
407.96	36400.01
408.15	36074.68
408.34	36360.22
408.54	37675.60
408.73	37961.15
408.92	37184.09
409.11	36905.57
409.30	34799.08
409.49	32767.50
409.68	31040.18
409.87	29448.62
410.07	31033.16
410.26	33832.44
410.45	36055.95
410.64	36910.25
410.83	37525.81
411.02	38766.29
411.21	40039.54
411.40	40027.84
411.59	39634.63
411.78	39529.31
411.98	39435.69
412.17	39798.47
412.36	39143.12
412.55	39208.65
412.74	38256.06
412.93	37841.78
413.12	37687.31
413.31	40662.13
413.50	41633.45
413.69	41794.95
413.88	40982.78
414.07	39234.40
414.26	39634.63
414.45	41532.81
414.64	41375.99
414.83	41652.17
415.02	40325.09
415.22	40582.55
415.41	41883.89
415.60	42309.86
415.79	43636.95
415.98	45368.94
416.17	44847.00
416.36	44285.28
416.55	43335.02
416.74	42462.00
416.93	41155.98
417.12	40697.24
417.31	41235.56
417.50	41977.51
417.69	43271.82
417.88	42714.78
418.07	42808.40
418.26	42225.60
418.45	42433.91
418.64	43604.18
418.83	45024.89
419.02	44509.97
419.21	44381.24
419.39	42071.13
419.58	40240.83
419.77	40840.01
419.96	42494.77
420.15	44091.01
420.34	45106.80
420.53	46665.60
420.72	46969.87
420.91	46838.80
421.10	46845.82
421.29	45642.79
421.48	44722.96
421.67	46623.47
421.86	45436.82
422.05	43517.58
422.24	39124.40
422.43	37909.66
422.61	41556.21
422.80	45429.80
422.99	45488.31
423.18	43524.60
423.37	42829.46
423.56	42902.02
423.75	43924.83
423.94	44378.90
424.13	41977.51
424.32	42532.22
424.50	42813.08
424.69	40987.46
424.88	42377.74
425.07	42822.44
425.26	42595.41
425.45	42029.00
425.64	41364.29
425.83	41305.77
426.01	43517.58
426.20	44102.71
426.39	44336.77
426.58	41397.06
426.77	38019.66
426.96	37184.09
427.15	38024.34
427.33	41322.16
427.52	42997.98
427.71	42590.73
427.90	42450.30
428.09	41970.49
428.28	40905.54
428.46	40175.30
428.65	39229.72
428.84	39636.97
429.03	41663.88
429.22	38955.88
429.40	37074.09
429.59	33855.85
429.78	30096.95
429.97	30263.13
430.16	30504.20
430.34	30663.36
430.53	30211.64
430.72	31084.65
430.91	34026.71
431.10	39449.73
431.28	45741.09
431.47	48559.09
431.66	48821.23
431.85	45801.94
432.03	42983.94
432.22	41289.39
432.41	41612.38
432.60	46564.96
432.79	47484.79
432.97	48320.36
433.16	47990.34
433.35	44367.20
433.54	40399.99
433.72	37912.00
433.91	39105.67
434.10	42925.42
434.28	45492.99
434.47	47435.64
434.66	47543.30
434.85	46539.21
435.03	46342.61
435.22	48722.93
435.41	52025.43
435.59	51868.61
435.78	51000.27
435.97	50855.16
436.16	50277.05
436.34	50150.66
436.53	49553.82
436.72	49876.82
436.90	47353.72
437.09	47835.87
437.28	46419.84
437.46	47697.78
437.65	47990.34
437.84	45752.79
438.02	42068.79
438.21	41308.11
438.40	43377.15
438.58	46983.91
438.77	47430.96
438.96	48032.47
439.14	49464.88
439.33	50054.70
439.52	51119.64
439.70	50096.83
439.89	49523.40
440.08	48318.02
440.26	48161.20
440.45	49141.89
440.63	50993.25
440.82	52149.48
441.01	52938.24
441.19	51711.80
441.38	52718.23
441.57	53476.56
441.75	54382.35
441.94	54199.79
442.12	53883.81
442.31	54763.85
442.50	54106.16
442.68	53745.72
442.87	54026.59
443.05	53476.56
443.24	53511.67
443.43	54569.59
443.61	55140.68
443.80	55035.36
443.98	53488.26
444.17	53586.57
444.35	55292.82
444.54	55414.52
444.73	55241.32
444.91	54323.83
445.10	53118.46
445.28	51634.56
445.47	51178.15
445.65	51386.46
445.84	52175.22
446.02	53195.70
446.21	53422.73
446.39	53645.08
446.58	53310.38
446.77	54827.05
446.95	54466.61
447.14	55173.45
447.32	56432.66
447.51	55044.72
447.69	54492.35
447.88	53563.16
448.06	54295.75
448.25	54965.14
448.43	55007.27
448.62	54841.09
448.80	54157.66
448.99	54162.34
449.17	54588.31
449.36	54695.98
449.54	56002.00
449.73	55522.19
449.91	56409.25
450.10	57073.96
450.28	57640.37
450.46	57558.45
450.65	57237.80
450.83	57059.92
451.02	56779.06
451.20	55997.32
451.39	56493.51
451.57	56140.09
451.76	56404.57
451.94	55576.02
452.13	54328.52
452.31	54534.48
452.49	52851.64
452.68	52907.81
452.86	53298.68
453.05	53389.96
453.23	54309.79
453.42	54234.89
453.60	56004.34
453.78	56226.69
453.97	55466.02
454.15	55583.04
454.34	54845.77
454.52	55316.22
454.70	54351.92
454.89	54815.35
455.07	55316.22
455.26	54953.44
455.44	56229.03
455.62	56767.35
455.81	56898.42
455.99	56877.36
456.17	56465.42
456.36	56203.28
456.54	57689.52
456.73	57340.78
456.91	57694.21
457.09	57996.13
457.28	58361.26
457.46	57078.64
457.64	57048.22
457.83	55887.31
458.01	55470.70
458.19	55599.43
458.38	56069.87
458.56	57158.22
458.74	56748.63
458.93	56678.41
459.11	56844.59
459.29	56264.14
459.48	56713.52
459.66	56360.10
459.84	56898.42
460.03	57787.83
460.21	56245.41
460.39	57663.78
460.57	57326.74
460.76	57984.43
460.94	58092.10
461.12	57207.37
461.31	57715.27
461.49	57698.89
461.67	57600.58
461.85	57963.37
462.04	58281.68
462.22	60397.52
462.40	57865.06
462.59	58087.42
462.77	58101.46
462.95	58258.27
463.13	57621.65
463.32	57914.22
463.50	57455.47
463.68	57387.60
463.86	57682.50
464.05	57256.53
464.23	56446.70
464.41	56669.05
464.59	55863.91
464.78	57174.61
464.96	57062.26
465.14	57062.26
465.32	57598.24
465.50	58127.20
465.69	57773.78
465.87	58068.69
466.05	57640.37
466.23	55997.32
466.41	55473.04
466.60	56203.28
466.78	56243.07
466.96	56570.75
467.14	56610.54
467.32	57513.98
467.51	57324.40
467.69	55686.03
467.87	57216.74
468.05	57041.20
468.23	57499.94
468.41	57181.63
468.60	56912.47
468.78	57490.58
468.96	57153.54
469.14	57626.33
469.32	57682.50
469.50	56317.97
469.69	56811.82
469.87	56451.38
470.05	55847.52
470.23	56207.97
470.41	56196.26
470.59	56666.71
470.77	56353.08
470.95	57235.46
471.14	57806.55
471.32	57436.75
471.50	59138.32
471.68	59487.06
471.86	58078.05
472.04	59159.38
472.22	58756.81
472.40	57827.62
472.58	57769.10
472.77	57319.72
472.95	58237.21
473.13	58995.54
473.31	58028.90
473.49	57918.90
473.67	58363.60
473.85	59047.04
474.03	59657.91
474.21	58983.84
474.39	59824.09
474.57	59714.09
474.75	59887.29
474.93	59306.83
475.12	58590.63
475.30	58365.94
475.48	59032.99
475.66	59557.27
475.84	58761.49
476.02	58815.32
476.20	58422.11
476.38	59077.46
476.56	58953.41
476.74	59540.89
476.92	60523.91
477.10	60467.74
477.28	61104.37
477.46	61193.31
477.64	60257.09
477.82	61300.97
478.00	61675.46
478.18	60837.54
478.36	61366.51
478.54	61071.60
478.72	61331.40
478.90	61366.51
479.08	62564.86
479.26	62152.93
479.44	62394.00
479.62	61989.09
479.80	62557.84
479.98	62056.96
480.16	62738.06
480.34	62780.19
480.52	62340.17
480.70	63004.88
480.88	63011.90
481.06	62913.60
481.24	63374.69
481.41	63618.10
481.59	64322.60
481.77	64484.10
481.95	63800.66
482.13	63894.28
482.31	63285.75
482.49	64090.89
482.67	63915.35
482.85	64095.57
483.03	64196.21
483.21	64968.59
483.39	64926.46
483.57	63990.25
483.74	63292.77
483.92	64144.72
484.10	62981.48
484.28	64184.51
484.46	64807.09
484.64	65317.33
484.82	64746.24
485.00	64088.55
485.18	63999.61
485.35	63379.37
485.53	61106.71
485.71	60020.70
485.89	58773.19
486.07	60566.04
486.25	62173.99
486.43	63852.15
486.61	63515.12
486.78	63674.27
486.96	63299.79
487.14	64774.33
487.32	65064.55
487.50	65535.00
487.68	65535.00
487.85	65535.00
488.03	65535.00
488.21	65535.00
488.39	65535.00
488.57	65420.31
488.75	65352.44
488.92	65535.00
489.10	65535.00
489.28	65535.00
489.46	65535.00
489.64	65535.00
489.81	65535.00
489.99	65535.00
490.17	65535.00
490.35	65535.00
490.53	65535.00
490.70	65535.00
490.88	65535.00
491.06	65535.00
491.24	65535.00
491.41	65535.00
491.59	65535.00
491.77	65535.00
491.95	65535.00
492.13	65535.00
492.30	65535.00
492.48	65535.00
492.66	65535.00
492.84	65535.00
493.01	65535.00
493.19	65535.00
493.37	65535.00
493.54	65535.00
493.72	65535.00
493.90	65535.00
494.08	65535.00
494.25	65535.00
494.43	65535.00
494.61	65535.00
494.79	65535.00
494.96	65535.00
495.14	65535.00
495.32	65535.00
495.49	65535.00
495.67	65535.00
495.85	65535.00
496.02	65535.00
496.20	65535.00
496.38	65535.00
496.55	65535.00
496.73	65535.00
496.91	65535.00
497.09	65535.00
497.26	65535.00
497.44	65535.00
497.62	65535.00
497.79	65535.00
497.97	65535.00
498.14	65535.00
498.32	65535.00
498.50	65535.00
498.67	65535.00
498.85	65535.00
499.03	65535.00
499.20	65535.00
499.38	65535.00
499.56	65535.00
499.73	65535.00
499.91	65535.00
500.08	65535.00
500.26	65535.00
500.44	65535.00
500.61	65535.00
500.79	65535.00
500.97	65535.00
501.14	65535.00
501.32	65535.00
501.49	65535.00
501.67	65535.00
501.84	65535.00
502.02	65535.00
502.20	65535.00
502.37	65535.00
502.55	65535.00
502.72	65535.00
502.90	65535.00
503.07	65535.00
503.25	65535.00
503.43	65535.00
503.60	65535.00
503.78	65535.00
503.95	65535.00
504.13	65535.00
504.30	65535.00
504.48	65535.00
504.65	65535.00
504.83	65535.00
505.01	65535.00
505.18	65535.00
505.36	65535.00
505.53	65535.00
505.71	65535.00
505.88	65535.00
506.06	65535.00
506.23	65535.00
506.41	65535.00
506.58	65535.00
506.76	65535.00
506.93	65535.00
507.11	65535.00
507.28	65535.00
507.46	65535.00
507.63	65535.00
507.81	65535.00
507.98	65535.00
508.16	65535.00
508.33	65535.00
508.50	65535.00
508.68	65535.00
508.85	65535.00
509.03	65535.00
509.20	65535.00
509.38	65535.00
509.55	65535.00
509.73	65535.00
509.90	65535.00
510.08	65535.00
510.25	65535.00
510.42	65535.00
510.60	65535.00
510.77	65535.00
510.95	65535.00
511.12	65535.00
511.30	65535.00
511.47	65535.00
511.64	65535.00
511.82	65535.00
511.99	65535.00
512.17	65535.00
512.34	65535.00
512.51	65535.00
512.69	65535.00
512.86	65535.00
513.04	65535.00
513.21	65535.00
513.38	65535.00
513.56	65535.00
513.73	65535.00
513.90	65535.00
514.08	65535.00
514.25	65535.00
514.43	65535.00
514.60	65535.00
514.77	65535.00
514.95	65535.00
515.12	65535.00
515.29	65535.00
515.47	65535.00
515.64	65535.00
515.81	65535.00
515.99	65535.00
516.16	65535.00
516.33	65535.00
516.51	65535.00
516.68	65535.00
516.85	65535.00
517.03	65535.00
517.20	65535.00
517.37	65535.00
517.54	65535.00
517.72	65535.00
517.89	65535.00
518.06	65535.00
518.24	65535.00
518.41	65535.00
518.58	65535.00
518.75	65535.00
518.93	65535.00
519.10	65535.00
519.27	65535.00
519.45	65535.00
519.62	65535.00
519.79	65535.00
519.96	65535.00
520.14	65535.00
520.31	65535.00
520.48	65535.00
520.65	65535.00
520.83	65535.00
521.00	65535.00
521.17	65535.00
521.34	65535.00
521.52	65535.00
521.69	65535.00
521.86	65535.00
522.03	65535.00
522.20	65535.00
522.38	65535.00
522.55	65535.00
522.72	65535.00
522.89	65535.00
523.07	65535.00
523.24	65535.00
523.41	65535.00
523.58	65535.00
523.75	65535.00
523.92	65535.00
524.10	65535.00
524.27	65535.00
524.44	65535.00
524.61	65535.00
524.78	65535.00
524.96	65535.00
525.13	65535.00
525.30	65535.00
525.47	65535.00
525.64	65535.00
525.81	65535.00
525.98	65535.00
526.16	65535.00
526.33	65535.00
526.50	65535.00
526.67	65535.00
526.84	65535.00
527.01	65535.00
527.18	65535.00
527.36	65535.00
527.53	65535.00
527.70	65535.00
527.87	65535.00
528.04	65535.00
528.21	65535.00
528.38	65535.00
528.55	65535.00
528.72	65535.00
528.89	65535.00
529.07	65535.00
529.24	65535.00
529.41	65535.00
529.58	65535.00
529.75	65535.00
529.92	65535.00
530.09	65535.00
530.26	65535.00
530.43	65535.00
530.60	65535.00
530.77	65535.00
530.94	65535.00
531.11	65535.00
531.28	65535.00
531.46	65535.00
531.63	65535.00
531.80	65535.00
531.97	65535.00
532.14	65535.00
532.31	65535.00
532.48	65535.00
532.65	65535.00
532.82	65535.00
532.99	65535.00
533.16	65535.00
533.33	65535.00
533.50	65535.00
533.67	65535.00
533.84	65535.00
534.01	65535.00
534.18	65535.00
534.35	65535.00
534.52	65535.00
534.69	65535.00
534.86	65535.00
535.03	65535.00
535.20	65535.00
535.37	65535.00
535.54	65535.00
535.71	65535.00
535.88	65535.00
536.05	65535.00
536.22	65535.00
536.38	65535.00
536.55	65535.00
536.72	65535.00
536.89	65535.00
537.06	65535.00
537.23	65535.00
537.40	65535.00
537.57	65535.00
537.74	65535.00
537.91	65535.00
538.08	65535.00
538.25	65535.00
538.42	65535.00
538.59	65535.00
538.75	65535.00
538.92	65535.00
539.09	65535.00
539.26	65535.00
539.43	65535.00
539.60	65535.00
539.77	65535.00
539.94	65535.00
540.11	65535.00
540.28	65535.00
540.44	65535.00
540.61	65535.00
540.78	65535.00
540.95	65535.00
541.12	65535.00
541.29	65535.00
541.46	65535.00
541.62	65535.00
541.79	65535.00
541.96	65535.00
542.13	65535.00
542.30	65535.00
542.47	65535.00
542.63	65535.00
542.80	65535.00
542.97	65535.00
543.14	65535.00
543.31	65535.00
543.48	65535.00
543.64	65535.00
543.81	65535.00
543.98	65535.00
544.15	65535.00
544.32	65535.00
544.48	65535.00
544.65	65535.00
544.82	65535.00
544.99	65535.00
545.16	65535.00
545.32	65535.00
545.49	65535.00
545.66	65535.00
545.83	65535.00
546.00	65535.00
546.16	65535.00
546.33	65535.00
546.50	65535.00
546.67	65535.00
546.83	65535.00
547.00	65535.00
547.17	65535.00
547.34	65535.00
547.50	65535.00
547.67	65535.00
547.84	65535.00
548.00	65535.00
548.17	65535.00
548.34	65535.00
548.51	65535.00
548.67	65535.00
548.84	65535.00
549.01	65535.00
549.18	65535.00
549.34	65535.00
549.51	65535.00
549.68	65535.00
549.84	65535.00
550.01	65535.00
550.18	65535.00
550.34	65535.00
550.51	65535.00
550.68	65535.00
550.84	65535.00
551.01	65535.00
551.18	65535.00
551.34	65535.00
551.51	65535.00
551.68	65535.00
551.84	65535.00
552.01	65535.00
552.18	65535.00
552.34	65535.00
552.51	65535.00
552.68	65535.00
552.84	65535.00
553.01	65535.00
553.18	65535.00
553.34	65535.00
553.51	65535.00
553.67	65535.00
553.84	65535.00
554.01	65535.00
554.17	65535.00
554.34	65535.00
554.51	65535.00
554.67	65535.00
554.84	65535.00
555.00	65535.00
555.17	65535.00
555.33	65535.00
555.50	65535.00
555.67	65535.00
555.83	65535.00
556.00	65535.00
556.16	65535.00
556.33	65535.00
556.50	65535.00
556.66	65535.00
556.83	65535.00
556.99	65535.00
557.16	65535.00
557.32	65535.00
557.49	65535.00
557.65	65535.00
557.82	65535.00
557.98	65535.00
558.15	65535.00
558.32	65535.00
558.48	65535.00
558.65	65535.00
558.81	65535.00
558.98	65535.00
559.14	65535.00
559.31	65535.00
559.47	65535.00
559.64	65535.00
559.80	65535.00
559.97	65535.00
560.13	65535.00
560.30	65535.00
560.46	65535.00
560.63	65535.00
560.79	65535.00
560.96	65535.00
561.12	65535.00
561.29	65535.00
561.45	65535.00
561.61	65535.00
561.78	65535.00
561.94	65535.00
562.11	65535.00
562.27	65535.00
562.44	65535.00
562.60	65535.00
562.77	65535.00
562.93	65535.00
563.10	65535.00
563.26	65535.00
563.42	65535.00
563.59	65535.00
563.75	65535.00
563.92	65535.00
564.08	65535.00
564.24	65535.00
564.41	65535.00
564.57	65535.00
564.74	65535.00
564.90	65535.00
565.07	65535.00
565.23	65535.00
565.39	65535.00
565.56	65535.00
565.72	65535.00
565.88	65535.00
566.05	65535.00
566.21	65535.00
566.38	65535.00
566.54	65535.00
566.70	65535.00
566.87	65535.00
567.03	65535.00
567.19	65535.00
567.36	65535.00
567.52	65535.00
567.68	65535.00
567.85	65535.00
568.01	65535.00
568.17	65535.00
568.34	65535.00
568.50	65535.00
568.66	65535.00
568.83	65535.00
568.99	65535.00
569.15	65535.00
569.32	65535.00
569.48	65535.00
569.64	65535.00
569.81	65535.00
569.97	65535.00
570.13	65535.00
570.30	65535.00
570.46	65535.00
570.62	65535.00
570.78	65535.00
570.95	65535.00
571.11	65535.00
571.27	65535.00
571.43	65535.00
571.60	65535.00
571.76	65535.00
571.92	65535.00
572.09	65535.00
572.25	65535.00
572.41	65535.00
572.57	65535.00
572.74	65535.00
572.90	65535.00
573.06	65535.00
573.22	65535.00
573.38	65535.00
573.55	65535.00
573.71	65535.00
573.87	65535.00
574.03	65535.00
574.20	65535.00
574.36	65535.00
574.52	65535.00
574.68	65535.00
574.84	65535.00
575.01	65535.00
575.17	65535.00
575.33	65535.00
575.49	65535.00
575.65	65535.00
575.82	65535.00
575.98	65535.00
576.14	65535.00
576.30	65535.00
576.46	65535.00
576.62	65535.00
576.79	65535.00
576.95	65535.00
577.11	65535.00
577.27	65535.00
577.43	65535.00
577.59	65535.00
577.75	65535.00
577.92	65535.00
578.08	65535.00
578.24	65535.00
578.40	65535.00
578.56	65535.00
578.72	65535.00
578.88	65535.00
579.04	65535.00
579.21	65535.00
579.37	65535.00
579.53	65535.00
579.69	65535.00
579.85	65535.00
580.01	65535.00
580.17	65535.00
580.33	65535.00
580.49	65535.00
580.65	65535.00
580.82	65535.00
580.98	65535.00
581.14	65535.00
581.30	65535.00
581.46	65535.00
581.62	65535.00
581.78	65535.00
581.94	65535.00
582.10	65535.00
582.26	65535.00
582.42	65535.00
582.58	65535.00
582.74	65535.00
582.90	65535.00
583.06	65535.00
583.22	65535.00
583.38	65535.00
583.54	65535.00
583.70	65535.00
583.86	65535.00
584.02	65535.00
