SpectraSuite Data File
++++++++++++++++++++++++++++++++++++
Date: Mon Oct 07 14:55:02 GMT-05:00 2013
User: price-jones
Dark Spectrum Present: No
Reference Spectrum Present: No
Number of Sampled Component Spectra: 1
Spectrometers: USB2+H05261
Integration Time (usec): 10000 (USB2+H05261)
Spectra Averaged: 1 (USB2+H05261)
Boxcar Smoothing: 0 (USB2+H05261)
Correct for Electrical Dark: No (USB2+H05261)
Strobe/Lamp Enabled: No (USB2+H05261)
Correct for Detector Non-linearity: No (USB2+H05261)
Correct for Stray Light: No (USB2+H05261)
Number of Pixels in Processed Spectrum: 2048
>>>>>Begin Processed Spectral Data<<<<<
365.73	0.00
365.92	0.00
366.12	0.00
366.32	0.00
366.52	0.00
366.72	0.00
366.91	0.00
367.11	0.00
367.31	0.00
367.51	0.00
367.70	0.00
367.90	0.00
368.10	0.00
368.30	0.00
368.49	0.00
368.69	0.00
368.89	0.00
369.09	0.00
369.28	0.00
369.48	0.00
369.68	0.00
369.87	0.00
370.07	0.00
370.27	0.00
370.47	369.80
370.66	2541.82
370.86	3066.10
371.06	3110.57
371.25	3201.85
371.45	2923.33
371.65	2602.68
371.84	2544.16
372.04	2932.69
372.24	3059.08
372.44	3014.61
372.63	2991.20
372.83	2747.79
373.03	2424.80
373.22	2256.28
373.42	2595.65
373.62	2963.12
373.81	3091.85
374.01	2883.54
374.21	2633.10
374.40	2434.16
374.60	2787.58
374.79	3176.11
374.99	3667.62
375.19	3749.54
375.38	3723.79
375.58	3602.08
375.78	3557.61
375.97	3503.78
376.17	3660.60
376.37	3630.17
376.56	3801.03
376.76	3948.48
376.95	4229.35
377.15	4503.19
377.35	4854.27
377.54	4905.76
377.74	5048.54
377.93	5020.45
378.13	4884.70
378.33	4514.89
378.52	4266.80
378.72	4128.70
378.91	4018.70
379.11	3939.12
379.31	3770.60
379.50	3742.52
379.70	4147.43
379.89	4741.93
380.09	4877.68
380.28	4891.72
380.48	5074.28
380.68	4936.19
380.87	4690.43
381.07	4308.93
381.26	3995.29
381.46	3744.86
381.65	3499.10
381.85	3595.06
382.04	3330.58
382.24	3007.59
382.43	3005.25
382.63	2951.42
382.83	2892.90
383.02	2981.84
383.22	2951.42
383.41	3040.36
383.61	3152.70
383.80	3784.65
384.00	4423.61
384.19	4891.72
384.39	4840.23
384.58	4858.95
384.78	4842.57
384.97	4683.41
385.17	4510.21
385.36	4243.39
385.56	4154.45
385.75	4325.31
385.95	4821.50
386.14	5245.14
386.34	5111.73
386.53	4737.24
386.72	4582.77
386.92	4681.07
387.11	5132.79
387.31	5151.52
387.50	5020.45
387.70	4795.76
387.89	4844.91
388.09	4940.87
388.28	4994.70
388.48	5085.98
388.67	5411.32
388.86	6139.23
389.06	6174.33
389.25	6733.72
389.45	6731.38
389.64	6600.31
389.84	6597.97
390.03	6377.96
390.22	6452.86
390.42	7035.65
390.61	7197.15
390.81	7765.90
391.00	7749.51
391.19	7768.24
391.39	7459.29
391.58	7070.76
391.78	6707.98
391.97	6469.24
392.16	5980.07
392.36	4994.70
392.55	4145.09
392.75	3309.52
392.94	2684.59
393.13	3122.27
393.33	3578.68
393.52	4620.22
393.71	5390.25
393.91	6286.68
394.10	6675.21
394.29	7288.43
394.49	8011.65
394.68	8344.01
394.88	8514.87
395.07	8732.54
395.26	8444.65
395.46	8128.68
395.65	7417.16
395.84	6375.62
396.04	5359.83
396.23	4393.19
396.42	3651.24
396.62	3929.76
396.81	4734.90
397.00	6106.46
397.19	7463.97
397.39	8774.67
397.58	9664.07
397.77	10209.42
397.97	10293.68
398.16	10483.26
398.35	11030.94
398.55	11124.57
398.74	11936.73
398.93	12018.65
399.12	11552.88
399.32	11103.50
399.51	11707.36
399.70	12411.86
399.90	12238.66
400.09	12236.32
400.28	12121.63
400.47	12191.85
400.67	12950.18
400.86	13118.70
401.05	13123.38
401.24	13048.49
401.44	13544.68
401.63	13900.44
401.82	13319.99
402.01	13348.08
402.21	13867.67
402.40	13673.41
402.59	13327.01
402.78	12498.46
402.97	12397.82
403.17	13219.35
403.36	14073.64
403.55	14288.97
403.74	14303.01
403.93	13472.12
404.13	12318.24
404.32	12699.75
404.51	13612.56
404.70	14193.01
404.89	14169.60
405.09	13757.67
405.28	13687.45
405.47	13706.18
405.66	13537.66
405.85	12933.80
406.05	12812.09
406.24	13249.77
406.43	13729.58
406.62	14045.55
406.81	13935.55
407.00	13741.29
407.20	13245.09
407.39	13516.59
407.58	14307.69
407.77	15047.30
407.96	15030.92
408.15	15435.83
408.34	15529.45
408.54	15957.77
408.73	15651.16
408.92	15693.29
409.11	15276.68
409.30	14459.83
409.49	13729.58
409.68	12596.76
409.87	12762.94
410.07	13565.74
410.26	14516.00
410.45	15346.89
410.64	15606.69
410.83	16042.03
411.02	16514.82
411.21	17055.48
411.40	16861.22
411.59	17422.95
411.78	17071.87
411.98	17249.75
412.17	17111.66
412.36	16872.92
412.55	16833.13
412.74	16311.19
412.93	16304.17
413.12	16648.23
413.31	18422.36
413.50	17951.91
413.69	18485.55
413.88	17516.57
414.07	17188.89
414.26	17933.18
414.45	18118.09
414.64	18202.35
414.83	17923.82
415.02	17661.68
415.22	17727.22
415.41	18169.58
415.60	18785.14
415.79	19559.86
415.98	19988.18
416.17	19733.06
416.36	19012.17
416.55	19274.31
416.74	18164.90
416.93	17965.95
417.12	18251.50
417.31	18359.16
417.50	18743.01
417.69	19370.27
417.88	19300.06
418.07	18455.12
418.26	18724.29
418.45	19075.37
418.64	19704.97
418.83	20718.42
419.02	19981.15
419.21	19098.77
419.39	18728.97
419.58	18221.07
419.77	18204.69
419.96	19557.52
420.15	20379.04
420.34	21008.65
420.53	21490.80
420.72	21851.24
420.91	21387.82
421.10	21008.65
421.29	21003.97
421.48	20528.84
421.67	21172.49
421.86	20390.75
422.05	18707.90
422.24	17191.23
422.43	17816.16
422.61	20009.24
422.80	20680.97
422.99	20025.62
423.18	19328.14
423.37	19597.31
423.56	19871.15
423.75	20491.39
423.94	20620.12
424.13	19267.29
424.32	19578.58
424.50	19295.38
424.69	19714.33
424.88	19885.19
425.07	19719.01
425.26	19475.60
425.45	18881.10
425.64	18792.16
425.83	19023.87
426.01	19852.42
426.20	20119.24
426.39	19826.68
426.58	18457.46
426.77	17369.12
426.96	17039.10
427.15	17982.34
427.33	19351.55
427.52	19805.61
427.71	19824.34
427.90	19470.92
428.09	19325.80
428.28	19021.53
428.46	17867.65
428.65	18129.79
428.84	18888.12
429.03	18457.46
429.22	17465.08
429.40	16081.82
429.59	14934.96
429.78	13373.82
429.97	13921.51
430.16	13429.99
430.34	13692.13
430.53	14473.87
430.72	15119.86
430.91	16578.01
431.10	19421.77
431.28	22192.96
431.47	23908.57
431.66	22904.48
431.85	20706.72
432.03	19143.24
432.22	18890.46
432.41	20704.38
432.60	22342.75
432.79	23290.67
432.97	23651.11
433.16	22494.89
433.35	19915.62
433.54	18216.39
433.72	17898.08
433.91	18792.16
434.10	21312.92
434.28	22480.85
434.47	23190.03
434.66	22141.47
434.85	22106.36
435.03	22389.56
435.22	22572.13
435.41	23718.99
435.59	24226.89
435.78	24133.26
435.97	24833.08
436.16	24882.24
436.34	24489.03
436.53	24156.67
436.72	24318.17
436.90	22764.05
437.09	23030.87
437.28	22656.39
437.46	23459.19
437.65	22822.56
437.84	20692.68
438.02	20233.93
438.21	20161.37
438.40	20992.26
438.58	22441.06
438.77	23489.62
438.96	23552.81
439.14	24837.76
439.33	25179.48
439.52	25773.98
439.70	24704.35
439.89	23304.71
440.08	23496.64
440.26	23534.09
440.45	24716.06
440.63	26747.64
440.82	27367.88
441.01	26794.45
441.19	26752.32
441.38	27835.99
441.57	28381.34
441.75	28416.44
441.94	28910.30
442.12	28617.73
442.31	29177.12
442.50	28760.50
442.68	28002.17
442.87	28290.06
443.05	28105.15
443.24	28842.42
443.43	28725.39
443.61	29523.52
443.80	29813.74
443.98	28837.74
444.17	27920.25
444.35	29928.43
444.54	30366.11
444.73	29855.87
444.91	28243.24
445.10	27084.68
445.28	26419.97
445.47	25968.24
445.65	26436.35
445.84	27325.75
446.02	27786.84
446.21	28594.32
446.39	28566.24
446.58	28947.75
446.77	29706.08
446.95	30043.12
447.14	30616.55
447.32	31185.30
447.51	30347.39
447.69	28793.27
447.88	29078.82
448.06	29294.14
448.25	29689.70
448.43	29418.19
448.62	29474.37
448.80	29322.23
448.99	29142.01
449.17	29984.60
449.36	30368.45
449.54	30902.09
449.73	31311.69
449.91	32238.54
450.10	32891.55
450.28	32725.37
450.46	32952.40
450.65	33149.01
450.83	32381.31
451.02	31857.03
451.20	32051.30
451.39	31880.44
451.57	31976.40
451.76	31920.23
451.94	30787.41
452.13	30040.78
452.31	28863.49
452.49	27398.31
452.68	28510.07
452.86	28833.06
453.05	29240.31
453.23	30380.15
453.42	30813.15
453.60	31683.83
453.78	31529.36
453.97	31157.21
454.15	31021.46
454.34	29551.60
454.52	29663.95
454.70	29954.18
454.89	30398.88
455.07	30771.02
455.26	30981.67
455.44	32191.73
455.62	32879.85
455.81	32091.09
455.99	32222.16
456.17	32875.16
456.36	33549.24
456.54	33787.97
456.73	33254.33
456.91	33802.02
457.09	33495.41
457.28	34801.43
457.46	33095.18
457.64	32685.58
457.83	32311.10
458.01	31711.92
458.19	32889.21
458.38	33191.14
458.56	33429.87
458.74	33181.77
458.93	32727.71
459.11	32322.80
459.29	32336.84
459.48	32711.33
459.66	32233.86
459.84	32500.68
460.03	32882.19
460.21	33432.21
460.39	34515.88
460.57	33834.78
460.76	33977.56
460.94	34338.00
461.12	34490.13
461.31	34356.72
461.49	34363.75
461.67	34389.49
461.85	34962.92
462.04	34768.66
462.22	35054.20
462.40	34911.43
462.59	34436.30
462.77	34712.49
462.95	34649.29
463.13	34785.04
463.32	33720.10
463.50	34007.98
463.68	34106.29
463.86	34150.76
464.05	33305.82
464.23	32872.82
464.41	33221.56
464.59	32697.28
464.78	34206.93
464.96	33921.38
465.14	32989.85
465.32	34560.35
465.50	35508.27
465.69	35857.01
465.87	34646.95
466.05	33570.30
466.23	32339.18
466.41	31683.83
466.60	32528.77
466.78	32645.79
466.96	33132.62
467.14	33944.79
467.32	34232.68
467.51	33972.88
467.69	32547.49
467.87	33397.10
468.05	34211.61
468.23	33654.56
468.41	33844.15
468.60	34003.30
468.78	34927.81
468.96	33874.57
469.14	34586.10
469.32	34679.72
469.50	32713.67
469.69	33291.78
469.87	33078.79
470.05	32943.04
470.23	32987.51
470.41	33677.97
470.59	33523.49
470.77	33830.10
470.95	35061.22
471.14	35257.83
471.32	35302.30
471.50	36989.83
471.68	37221.54
471.86	37214.52
472.04	36830.67
472.22	37345.59
472.40	35967.01
472.58	35608.91
472.77	35281.24
472.95	35604.23
473.13	36999.19
473.31	35086.97
473.49	35454.44
473.67	36362.56
473.85	36837.69
474.03	38422.23
474.21	38726.50
474.39	38927.79
474.57	38628.20
474.75	39208.65
474.93	38085.20
475.12	37640.50
475.30	37340.91
475.48	37289.42
475.66	37256.65
475.84	37141.96
476.02	36797.90
476.20	36711.30
476.38	37589.00
476.56	38457.34
476.74	39868.69
476.92	39522.29
477.10	39772.72
477.28	40907.88
477.46	40942.99
477.64	41404.08
477.82	41694.30
478.00	41572.60
478.18	40449.14
478.36	40135.51
478.54	41031.93
478.72	41413.44
478.90	43292.89
479.08	45010.84
479.26	44182.29
479.44	44587.21
479.62	43484.81
479.80	44306.34
479.98	44250.17
480.16	44875.09
480.34	44194.00
480.52	44814.24
480.70	45179.36
480.88	44404.64
481.06	45139.57
481.24	45928.33
481.41	46567.30
481.59	47248.39
481.77	46085.15
481.95	45748.11
482.13	45666.19
482.31	46270.05
482.49	46632.83
482.67	46195.15
482.85	46064.08
483.03	46822.42
483.21	47969.28
483.39	47676.71
483.57	46775.61
483.74	47056.47
483.92	47552.66
484.10	47199.24
484.28	47632.24
484.46	47206.26
484.64	49474.24
484.82	48069.92
485.00	47449.68
485.18	46775.61
485.35	44437.41
485.53	38859.91
485.71	37521.13
485.89	37867.53
486.07	40603.61
486.25	43510.56
486.43	45780.88
486.61	45991.53
486.78	45799.60
486.96	47037.75
487.14	48467.81
487.32	48917.20
487.50	49925.97
487.68	51206.24
487.85	51903.72
488.03	50986.23
488.21	50485.36
488.39	50389.39
488.57	49001.46
488.75	49092.74
488.92	50829.41
489.10	52570.77
489.28	53301.02
489.46	54670.23
489.64	54340.22
489.81	54335.54
489.99	53308.04
490.17	53605.29
490.35	54141.27
490.53	53649.76
490.70	53162.93
490.88	53102.07
491.06	54078.08
491.24	54660.87
491.41	53633.38
491.59	51899.04
491.77	51901.38
491.95	53130.16
492.13	54555.55
492.30	54892.58
492.48	55679.00
492.66	55826.46
492.84	55608.79
493.01	55374.73
493.19	55538.57
493.37	54665.55
493.54	55260.05
493.72	55931.78
493.90	56423.29
494.08	56760.33
494.25	56584.79
494.43	57041.20
494.61	57813.57
494.79	57717.61
494.96	58110.82
495.14	57593.56
495.32	56072.21
495.49	56523.94
495.67	57153.54
495.85	58190.40
496.02	58674.89
496.20	58298.06
496.38	57822.93
496.55	57881.45
496.73	58583.61
496.91	58440.84
497.09	58625.74
497.26	58747.45
497.44	58244.23
497.62	57750.38
497.79	57017.79
497.97	55999.66
498.14	56680.75
498.32	57951.66
498.50	57916.56
498.67	57946.98
498.85	58466.58
499.03	58990.86
499.20	59124.27
499.38	58574.25
499.56	58000.82
499.73	57897.83
499.91	57532.71
500.08	56802.46
500.26	56362.44
500.44	57352.49
500.61	57844.00
500.79	57605.26
500.97	57497.60
501.14	56631.60
501.32	56598.83
501.49	56905.44
501.67	57240.14
501.84	57282.27
502.02	57886.13
502.20	58721.70
502.37	58635.10
502.55	58812.98
502.72	59023.63
502.90	59568.97
503.07	59306.83
503.25	58169.33
503.43	57289.29
503.60	57022.47
503.78	56910.13
503.95	57226.10
504.13	58501.69
504.30	58831.71
504.48	58494.67
504.65	58525.10
504.83	58883.20
505.01	59381.73
505.18	59833.46
505.36	59861.54
505.53	60339.01
505.71	60088.57
505.88	60331.99
506.06	59866.22
506.23	59531.53
506.41	59395.77
506.58	59559.61
506.76	59559.61
506.93	58906.60
507.11	58742.77
507.28	59199.17
507.46	58583.61
507.63	58628.08
507.81	57951.66
507.98	58585.95
508.16	59676.64
508.33	59646.21
508.50	59753.88
508.68	60392.84
508.85	60456.04
509.03	60748.60
509.20	59999.63
509.38	59114.91
509.55	59227.26
509.73	59278.75
509.90	59578.34
510.08	59788.98
510.25	59358.33
510.42	59363.01
510.60	59796.01
510.77	60217.30
510.95	59966.87
511.12	60186.88
511.30	60732.22
511.47	61167.56
511.64	60952.23
511.82	60926.49
511.99	60011.34
512.17	60060.49
512.34	59241.30
512.51	59597.06
512.69	60034.74
512.86	59810.05
513.04	60161.13
513.21	59435.56
513.38	58784.90
513.56	58295.72
513.73	57851.02
513.90	58862.13
514.08	58852.77
514.25	58670.21
514.43	59070.44
514.60	59477.69
514.77	59739.83
514.95	59758.56
515.12	59576.00
515.29	60032.40
515.47	60568.38
515.64	60481.78
515.81	60179.85
515.99	58796.60
516.16	57305.68
516.33	55136.00
516.51	55168.77
516.68	53841.68
516.85	53240.17
517.03	55035.36
517.20	57153.54
517.37	58958.09
517.54	59929.42
517.72	58398.71
517.89	55657.94
518.06	54255.96
518.24	55655.60
518.41	57729.31
518.58	58536.80
518.75	58398.71
518.93	58424.45
519.10	58230.19
519.27	59152.36
519.45	59297.47
519.62	60177.51
519.79	59980.91
519.96	59487.06
520.14	59395.77
520.31	58061.67
520.48	58609.35
520.65	59311.52
520.83	60207.94
521.00	60030.06
521.17	59641.53
521.34	59648.55
521.52	60123.68
521.69	60245.39
521.86	60762.65
522.03	60640.94
522.20	58981.50
522.38	58330.83
522.55	59063.42
522.72	59594.72
522.89	58869.15
523.07	59641.53
523.24	60182.19
523.41	60977.98
523.58	61139.47
523.75	61352.46
523.92	61223.73
524.10	60811.80
524.27	60685.41
524.44	60530.93
524.61	59898.99
524.78	60491.15
524.96	60360.08
525.13	60594.13
525.30	61095.00
525.47	61116.07
525.64	61055.21
525.81	60348.37
525.98	58431.47
526.16	57373.55
526.33	57406.32
526.50	56905.44
526.67	56896.08
526.84	57422.70
527.01	58382.32
527.18	58930.01
527.36	59796.01
527.53	60788.39
527.70	60053.47
527.87	58717.02
528.04	59856.86
528.21	60533.28
528.38	60851.59
528.55	61703.54
528.72	61319.70
528.89	60860.95
529.07	60933.51
529.24	59753.88
529.41	59526.84
529.58	59400.46
529.75	60460.72
529.92	60521.57
530.09	60456.04
530.26	61165.22
530.43	61792.48
530.60	60804.78
530.77	61160.54
530.94	61630.99
531.11	60479.44
531.28	60985.00
531.46	61190.97
531.63	60844.57
531.80	60416.25
531.97	59875.58
532.14	59512.80
532.31	58387.00
532.48	57818.25
532.65	58288.70
532.82	58740.42
532.99	60582.43
533.16	60491.15
533.33	60481.78
533.50	60596.47
533.67	60748.60
533.84	59763.24
534.01	60212.62
534.18	60383.48
534.35	60093.25
534.52	59245.98
534.69	60191.56
534.86	60739.24
535.03	60713.50
535.20	60699.45
535.37	61439.06
535.54	61474.17
535.71	61415.66
535.88	61726.95
536.05	60280.50
536.22	59578.34
536.38	59604.08
536.55	58651.48
536.72	58408.07
536.89	59274.07
537.06	59484.72
537.23	59777.28
537.40	60006.65
537.57	59625.15
537.74	60156.45
537.91	60060.49
538.08	59824.09
538.25	59845.16
538.42	60772.01
538.59	60004.31
538.75	59236.62
538.92	58618.72
539.09	59171.08
539.26	59159.38
539.43	59021.29
539.60	59131.29
539.77	59522.16
539.94	59236.62
540.11	58487.65
540.28	58162.31
540.44	57822.93
540.61	57963.37
540.78	58602.33
540.95	59309.18
541.12	59171.08
541.29	59728.13
541.46	59920.05
541.62	59959.84
541.79	59231.94
541.96	58768.51
542.13	58731.06
542.30	58801.28
542.47	59423.86
542.63	59231.94
542.80	59175.76
542.97	58644.46
543.14	58628.08
543.31	58471.26
543.48	59711.75
543.64	59863.88
543.81	60947.55
543.98	60704.13
544.15	59150.02
544.32	59669.62
544.48	59487.06
544.65	59306.83
544.82	59924.74
544.99	58473.60
545.16	57970.39
545.32	58429.13
545.49	59121.93
545.66	59171.08
545.83	59025.97
546.00	59620.47
546.16	59564.29
546.33	59231.94
546.50	59358.33
546.67	59753.88
546.83	58965.12
547.00	59498.76
547.17	58326.15
547.34	57668.46
547.50	57773.78
547.67	58756.81
547.84	59370.03
548.00	59405.14
548.17	59096.19
548.34	59536.21
548.51	59791.33
548.67	59723.45
548.84	59437.90
549.01	59739.83
549.18	59086.82
549.34	59054.06
549.51	59395.77
549.68	59576.00
549.84	58808.30
550.01	58522.76
550.18	58344.87
550.34	58260.62
550.51	58960.44
550.68	59304.49
550.84	59004.91
551.01	58138.91
551.18	58382.32
551.34	57645.05
551.51	58932.35
551.68	58801.28
551.84	59100.87
552.01	58864.47
552.18	58475.94
552.34	57794.85
552.51	57513.98
552.68	57616.97
552.84	57691.86
553.01	57991.45
553.18	58532.12
553.34	58904.26
553.51	58869.15
553.67	58539.14
553.84	58464.24
554.01	58700.64
554.17	58040.60
554.34	58377.64
554.51	58389.34
554.67	57808.89
554.84	57916.56
555.00	57886.13
555.17	58056.99
555.33	57684.84
555.50	57179.29
555.67	58014.86
555.83	58003.16
556.00	57698.89
556.16	57733.99
556.33	57116.09
556.50	57675.48
556.66	57588.88
556.83	57104.39
556.99	56917.15
557.16	57202.69
557.32	57256.53
557.49	57403.98
557.65	57099.71
557.82	57932.94
557.98	57942.30
558.15	56816.50
558.32	56172.86
558.48	55627.51
558.65	55789.01
558.81	56243.07
558.98	57006.09
559.14	57099.71
559.31	56697.14
559.47	56493.51
559.64	56310.95
559.80	55744.54
559.97	56624.58
560.13	57429.72
560.30	58405.73
560.46	58529.78
560.63	58901.92
560.79	58550.84
560.96	57862.72
561.12	56580.11
561.29	56196.26
561.45	56278.18
561.61	57539.73
561.78	56755.65
561.94	57308.02
562.11	57120.77
562.27	56502.87
562.44	57275.25
562.60	57579.52
562.77	57619.31
562.93	56561.39
563.10	56748.63
563.26	56903.10
563.42	57228.44
563.59	56612.88
563.75	56535.64
563.92	56444.36
564.08	55681.34
564.24	56963.96
564.41	56299.25
564.57	57003.75
564.74	56662.03
564.90	55803.05
565.07	56271.16
565.23	55241.32
565.39	54752.15
565.56	55384.10
565.72	55611.13
565.88	54014.88
566.05	56367.12
566.21	56762.67
566.38	56343.72
566.54	56168.18
566.70	56739.27
566.87	56655.01
567.03	56025.40
567.19	57155.88
567.36	57387.60
567.52	56107.32
567.68	55543.25
567.85	54892.58
568.01	54934.71
568.17	55428.57
568.34	55877.95
568.50	55442.61
568.66	55681.34
568.83	54660.87
568.99	55018.97
569.15	55056.42
569.32	55351.33
569.48	54955.78
569.64	54841.09
569.81	54611.72
569.97	54621.08
570.13	53916.58
570.30	53467.20
570.46	53043.56
570.62	51922.44
570.78	52486.51
570.95	53464.86
571.11	53595.93
571.27	53132.50
571.43	53396.98
571.60	53324.43
571.76	54485.33
571.92	54663.21
572.09	55299.84
572.25	54937.05
572.41	55772.63
572.57	55341.97
572.74	55536.23
572.90	56292.22
573.06	55489.42
573.22	55807.73
573.38	55271.75
573.55	56486.49
573.71	55166.43
573.87	55250.69
574.03	55199.19
574.20	54791.94
574.36	55009.61
574.52	54035.95
574.68	53668.48
574.84	53329.11
575.01	53167.61
575.17	53792.53
575.33	53757.42
575.49	54082.76
575.65	53076.33
575.82	53563.16
575.98	53109.10
576.14	54389.37
576.30	54658.53
576.46	53591.25
576.62	53673.16
576.79	53666.14
576.95	53572.52
577.11	53900.20
577.27	53792.53
577.43	54295.75
577.59	53368.90
577.75	52114.37
577.92	52229.05
578.08	52629.29
578.24	53242.51
578.40	53134.84
578.56	52542.69
578.72	52509.92
578.88	52343.74
579.04	52924.19
579.21	52502.90
579.37	52615.24
579.53	53237.83
579.69	52425.66
579.85	52575.45
580.01	52467.79
580.17	52264.16
580.33	53059.94
580.49	53303.36
580.65	51496.47
580.82	52423.32
580.98	53422.73
581.14	53193.36
581.30	53251.87
581.46	52528.64
581.62	52900.79
581.78	53680.19
581.94	53673.16
582.10	53961.05
582.26	53598.27
582.42	53567.84
582.58	52486.51
582.74	52191.61
582.90	52488.85
583.06	52493.54
583.22	53202.72
583.38	52664.39
583.54	53642.74
583.70	53542.10
583.86	53233.14
584.02	52528.64
584.18	52479.49
584.34	51915.42
584.50	51639.24
584.66	51428.59
584.82	52060.54
584.98	52280.55
585.14	51444.98
585.30	51812.44
