SpectraSuite Data File
++++++++++++++++++++++++++++++++++++
Date: Mon Oct 07 14:54:56 GMT-05:00 2013
User: price-jones
Dark Spectrum Present: No
Reference Spectrum Present: No
Number of Sampled Component Spectra: 1
Spectrometers: USB2+H05261
Integration Time (usec): 10000 (USB2+H05261)
Spectra Averaged: 1 (USB2+H05261)
Boxcar Smoothing: 0 (USB2+H05261)
Correct for Electrical Dark: No (USB2+H05261)
Strobe/Lamp Enabled: No (USB2+H05261)
Correct for Detector Non-linearity: No (USB2+H05261)
Correct for Stray Light: No (USB2+H05261)
Number of Pixels in Processed Spectrum: 2048
>>>>>Begin Processed Spectral Data<<<<<
365.73	0.00
365.92	0.00
366.12	0.00
366.32	0.00
366.52	0.00
366.72	0.00
366.91	0.00
367.11	0.00
367.31	0.00
367.51	0.00
367.70	0.00
367.90	0.00
368.10	0.00
368.30	0.00
368.49	0.00
368.69	0.00
368.89	0.00
369.09	0.00
369.28	0.00
369.48	0.00
369.68	0.00
369.87	0.00
370.07	0.00
370.27	0.00
370.47	0.00
370.66	0.00
370.86	0.00
371.06	86.60
371.25	112.35
371.45	11.70
371.65	0.00
371.84	72.56
372.04	0.00
372.24	142.77
372.44	145.11
372.63	142.77
372.83	177.88
373.03	49.15
373.22	0.00
373.42	74.90
373.62	145.11
373.81	107.66
374.01	154.48
374.21	35.11
374.40	37.45
374.60	21.06
374.79	112.35
374.99	271.50
375.19	222.35
375.38	227.03
375.58	191.92
375.78	166.18
375.97	212.99
376.17	248.10
376.37	201.29
376.56	152.13
376.76	341.72
376.95	330.02
377.15	367.46
377.35	330.02
377.54	266.82
377.74	344.06
377.93	325.33
378.13	407.25
378.33	262.14
378.52	229.37
378.72	175.54
378.91	227.03
379.11	330.02
379.31	201.29
379.50	285.55
379.70	262.14
379.89	304.27
380.09	313.63
380.28	322.99
380.48	311.29
380.68	346.40
380.87	346.40
381.07	271.50
381.26	196.60
381.46	170.86
381.65	215.33
381.85	156.82
382.04	124.05
382.24	112.35
382.43	77.24
382.63	65.54
382.83	100.64
383.02	98.30
383.22	0.00
383.41	72.56
383.61	135.75
383.80	217.67
384.00	222.35
384.19	306.61
384.39	322.99
384.58	383.85
384.78	346.40
384.97	299.59
385.17	245.76
385.36	294.91
385.56	280.86
385.75	266.82
385.95	257.46
386.14	472.79
386.34	383.85
386.53	308.95
386.72	229.37
386.92	304.27
387.11	367.46
387.31	362.78
387.50	344.06
387.70	259.80
387.89	250.44
388.09	292.57
388.28	306.61
388.48	292.57
388.67	358.10
388.86	395.55
389.06	468.11
389.25	531.30
389.45	545.34
389.64	514.92
389.84	484.49
390.03	561.73
390.22	545.34
390.42	564.07
390.61	557.05
390.81	622.58
391.00	557.05
391.19	641.31
391.39	575.77
391.58	582.79
391.78	535.98
391.97	425.98
392.16	461.09
392.36	346.40
392.55	205.97
392.75	133.41
392.94	79.58
393.13	203.63
393.33	128.73
393.52	229.37
393.71	367.46
393.91	461.09
394.10	479.81
394.29	617.90
394.49	578.11
394.68	685.78
394.88	629.60
395.07	676.41
395.26	664.71
395.46	641.31
395.65	627.26
395.84	547.69
396.04	388.53
396.23	320.65
396.42	208.31
396.62	255.12
396.81	255.12
397.00	322.99
397.19	585.13
397.39	704.50
397.58	873.02
397.77	844.93
397.97	905.79
398.16	823.87
398.35	978.34
398.55	961.96
398.74	1043.88
398.93	1046.22
399.12	938.55
399.32	1004.09
399.51	971.32
399.70	1160.91
399.90	1093.03
400.09	1090.69
400.28	1121.12
400.47	1083.67
400.67	1095.37
400.86	1086.01
401.05	1036.86
401.24	1188.99
401.44	1090.69
401.63	1313.04
401.82	1142.18
402.01	1165.59
402.21	1235.80
402.40	1277.93
402.59	1217.08
402.78	1167.93
402.97	1039.20
403.17	1046.22
403.36	1083.67
403.55	1249.85
403.74	1371.55
403.93	1203.04
404.13	1048.56
404.32	994.73
404.51	1156.22
404.70	1228.78
404.89	1188.99
405.09	1273.25
405.28	1135.16
405.47	1160.91
405.66	1212.40
405.85	1165.59
406.05	1069.62
406.24	1114.10
406.43	1203.04
406.62	1212.40
406.81	1167.93
407.00	1203.04
407.20	1121.12
407.39	1125.80
407.58	1329.42
407.77	1313.04
407.96	1217.08
408.15	1310.70
408.34	1387.94
408.54	1441.77
408.73	1455.81
408.92	1343.47
409.11	1327.08
409.30	1238.14
409.49	1156.22
409.68	1132.82
409.87	1018.13
410.07	1188.99
410.26	1200.69
410.45	1371.55
410.64	1348.15
410.83	1460.49
411.02	1469.86
411.21	1528.37
411.40	1516.67
411.59	1458.15
411.78	1523.69
411.98	1593.90
412.17	1483.90
412.36	1432.41
412.55	1373.89
412.74	1313.04
412.93	1378.58
413.12	1446.45
413.31	1577.52
413.50	1490.92
413.69	1519.01
413.88	1479.22
414.07	1568.16
414.26	1542.41
414.45	1533.05
414.64	1535.39
414.83	1572.84
415.02	1568.16
415.22	1486.24
415.41	1558.80
415.60	1668.80
415.79	1689.87
415.98	1757.74
416.17	1764.76
416.36	1741.36
416.55	1579.86
416.74	1570.50
416.93	1465.18
417.12	1425.39
417.31	1603.27
417.50	1519.01
417.69	1617.31
417.88	1689.87
418.07	1671.14
418.26	1603.27
418.45	1706.25
418.64	1748.38
418.83	1715.61
419.02	1689.87
419.21	1647.74
419.39	1626.67
419.58	1495.60
419.77	1507.30
419.96	1596.25
420.15	1720.29
420.34	1802.21
420.53	1790.51
420.72	1839.66
420.91	1858.39
421.10	1991.80
421.29	1757.74
421.48	1729.66
421.67	1797.53
421.86	1886.47
422.05	1652.42
422.24	1362.19
422.43	1308.36
422.61	1706.25
422.80	1795.19
422.99	1678.16
423.18	1708.59
423.37	1612.63
423.56	1713.27
423.75	1746.04
423.94	1720.29
424.13	1671.14
424.32	1584.54
424.50	1617.31
424.69	1652.42
424.88	1593.90
425.07	1687.53
425.26	1612.63
425.45	1600.93
425.64	1551.78
425.83	1486.24
426.01	1722.63
426.20	1729.66
426.39	1624.33
426.58	1561.14
426.77	1439.43
426.96	1371.55
427.15	1476.88
427.33	1460.49
427.52	1605.61
427.71	1570.50
427.90	1577.52
428.09	1584.54
428.28	1507.30
428.46	1469.86
428.65	1430.07
428.84	1469.86
429.03	1561.14
429.22	1387.94
429.40	1254.53
429.59	1252.19
429.78	1029.84
429.97	994.73
430.16	1067.28
430.34	994.73
430.53	1146.86
430.72	1114.10
430.91	1203.04
431.10	1514.33
431.28	1795.19
431.47	1966.05
431.66	1998.82
431.85	1762.42
432.03	1614.97
432.22	1511.99
432.41	1542.41
432.60	1853.70
432.79	1879.45
432.97	1949.67
433.16	1872.43
433.35	1739.02
433.54	1481.56
433.72	1409.00
433.91	1355.17
434.10	1600.93
434.28	1750.72
434.47	1935.62
434.66	1919.24
434.85	1830.30
435.03	1865.41
435.22	1799.87
435.41	1914.56
435.59	2033.93
435.78	2066.69
435.97	2087.76
436.16	1989.46
436.34	2022.22
436.53	1956.69
436.72	1991.80
436.90	1928.60
437.09	1923.92
437.28	1764.76
437.46	1823.28
437.65	1912.22
437.84	1788.17
438.02	1544.75
438.21	1607.95
438.40	1701.57
438.58	1923.92
438.77	1832.64
438.96	1914.56
439.14	1902.86
439.33	2092.44
439.52	1975.41
439.70	1998.82
439.89	1970.73
440.08	1928.60
440.26	2017.54
440.45	1919.24
440.63	2076.06
440.82	2127.55
441.01	2141.59
441.19	2153.29
441.38	2209.47
441.57	2293.72
441.75	2319.47
441.94	2237.55
442.12	2328.83
442.31	2459.90
442.50	2345.22
442.68	2300.75
442.87	2239.89
443.05	2216.49
443.24	2347.56
443.43	2445.86
443.61	2392.03
443.80	2356.92
443.98	2347.56
444.17	2324.15
444.35	2445.86
444.54	2429.48
444.73	2399.05
444.91	2270.32
445.10	2139.25
445.28	2059.67
445.47	2024.56
445.65	2108.82
445.84	2167.34
446.02	2303.09
446.21	2232.87
446.39	2267.98
446.58	2312.45
446.77	2363.94
446.95	2277.34
447.14	2490.33
447.32	2441.18
447.51	2392.03
447.69	2413.09
447.88	2181.38
448.06	2253.94
448.25	2448.20
448.43	2335.85
448.62	2399.05
448.80	2296.07
448.99	2392.03
449.17	2583.95
449.36	2338.20
449.54	2527.78
449.73	2551.18
449.91	2518.42
450.10	2759.49
450.28	2668.21
450.46	2623.74
450.65	2637.78
450.83	2569.91
451.02	2516.08
451.20	2480.97
451.39	2370.96
451.57	2455.22
451.76	2565.23
451.94	2513.74
452.13	2471.61
452.31	2289.04
452.49	2202.44
452.68	2279.68
452.86	2232.87
453.05	2193.08
453.23	2183.72
453.42	2385.01
453.60	2373.30
453.78	2462.24
453.97	2574.59
454.15	2490.33
454.34	2476.29
454.52	2420.11
454.70	2480.97
454.89	2335.85
455.07	2319.47
455.26	2457.56
455.44	2642.46
455.62	2495.01
455.81	2476.29
455.99	2633.10
456.17	2602.68
456.36	2672.89
456.54	2710.34
456.73	2612.04
456.91	2719.70
457.09	2686.94
457.28	2672.89
457.46	2562.89
457.64	2523.10
457.83	2520.76
458.01	2483.31
458.19	2476.29
458.38	2495.01
458.56	2665.87
458.74	2640.12
458.93	2487.99
459.11	2450.54
459.29	2457.56
459.48	2495.01
459.66	2471.61
459.84	2595.65
460.03	2565.23
460.21	2513.74
460.39	2691.62
460.57	2726.72
460.76	2750.13
460.94	2696.30
461.12	2600.34
461.31	2649.49
461.49	2628.42
461.67	2726.72
461.85	2705.66
462.04	2747.79
462.22	2787.58
462.40	2736.09
462.59	2605.02
462.77	2778.22
462.95	2612.04
463.13	2761.83
463.32	2548.84
463.50	2745.45
463.68	2738.43
463.86	2583.95
464.05	2527.78
464.23	2499.69
464.41	2530.12
464.59	2480.97
464.78	2628.42
464.96	2602.68
465.14	2597.99
465.32	2647.15
465.50	2661.19
465.69	2668.21
465.87	2583.95
466.05	2642.46
466.23	2473.95
466.41	2338.20
466.60	2464.58
466.78	2487.99
466.96	2595.65
467.14	2609.70
467.32	2569.91
467.51	2565.23
467.69	2490.33
467.87	2602.68
468.05	2551.18
468.23	2600.34
468.41	2670.55
468.60	2619.06
468.78	2609.70
468.96	2567.57
469.14	2569.91
469.32	2754.81
469.50	2590.97
469.69	2492.67
469.87	2597.99
470.05	2523.10
470.23	2497.35
470.41	2406.07
470.59	2595.65
470.77	2558.21
470.95	2612.04
471.14	2700.98
471.32	2696.30
471.50	2761.83
471.68	2818.00
471.86	2846.09
472.04	2827.37
472.22	2813.32
472.40	2764.17
472.58	2619.06
472.77	2698.64
472.95	2663.53
473.13	2722.04
473.31	2684.59
473.49	2661.19
473.67	2733.75
473.85	2818.00
474.03	2876.52
474.21	2916.31
474.39	2818.00
474.57	2984.18
474.75	2906.95
474.93	3023.97
475.12	2820.35
475.30	2892.90
475.48	2881.20
475.66	2801.62
475.84	2754.81
476.02	2836.73
476.20	2724.38
476.38	2850.77
476.56	2949.08
476.74	2920.99
476.92	3080.14
477.10	2991.20
477.28	3169.09
477.46	3082.49
477.64	3148.02
477.82	3136.32
478.00	3201.85
478.18	3138.66
478.36	3169.09
478.54	3091.85
478.72	3213.56
478.90	3199.51
479.08	3330.58
479.26	3368.03
479.44	3365.69
479.62	3316.54
479.80	3251.00
479.98	3316.54
480.16	3288.45
480.34	3330.58
480.52	3288.45
480.70	3302.50
480.88	3262.71
481.06	3295.47
481.24	3435.91
481.41	3550.59
481.59	3705.07
481.77	3466.33
481.95	3473.36
482.13	3468.67
482.31	3599.74
482.49	3646.55
482.67	3510.80
482.85	3578.68
483.03	3684.00
483.21	3742.52
483.39	3630.17
483.57	3588.04
483.74	3384.41
483.92	3765.92
484.10	3669.96
484.28	3740.18
484.46	3798.69
484.64	3864.22
484.82	3700.39
485.00	3688.68
485.18	3585.70
485.35	3590.38
485.53	3129.30
485.71	2956.10
485.89	2825.03
486.07	2895.24
486.25	3400.80
486.43	3456.97
486.61	3438.25
486.78	3487.40
486.96	3637.19
487.14	3758.90
487.32	3723.79
487.50	3866.56
487.68	3953.16
487.85	4032.74
488.03	4023.38
488.21	4070.19
488.39	3889.97
488.57	3845.50
488.75	3756.56
488.92	3997.64
489.10	4217.65
489.28	4393.19
489.46	4566.39
489.64	4421.27
489.81	4526.60
489.99	4329.99
490.17	4432.97
490.35	4472.76
490.53	4325.31
490.70	4379.14
490.88	4234.03
491.06	4505.53
491.24	4372.12
491.41	4241.05
491.59	4100.62
491.77	3960.19
491.95	4023.38
492.13	4212.96
492.30	4535.96
492.48	4681.07
492.66	4725.54
492.84	4802.78
493.01	4566.39
493.19	4496.17
493.37	4517.23
493.54	4456.38
493.72	4547.66
493.90	4610.86
494.08	4718.52
494.25	4833.21
494.43	4950.23
494.61	5109.39
494.79	4994.70
494.96	5036.83
495.14	4807.46
495.32	4615.54
495.49	4557.02
495.67	4802.78
495.85	4875.34
496.02	5060.24
496.20	5085.98
496.38	4971.30
496.55	4947.89
496.73	4994.70
496.91	4894.06
497.09	5228.76
497.26	5322.38
497.44	5064.92
497.62	5034.49
497.79	4847.25
497.97	4552.34
498.14	4601.49
498.32	4692.77
498.50	4978.32
498.67	5123.43
498.85	5107.05
499.03	5163.22
499.20	5228.76
499.38	5121.09
499.56	4983.00
499.73	4938.53
499.91	5100.03
500.08	4847.25
500.26	4741.93
500.44	4894.06
500.61	4954.91
500.79	4940.87
500.97	4751.29
501.14	4952.57
501.32	4828.53
501.49	4882.36
501.67	4807.46
501.84	4894.06
502.02	4992.36
502.20	5062.58
502.37	4875.34
502.55	4983.00
502.72	5191.31
502.90	5170.24
503.07	5107.05
503.25	5039.17
503.43	5085.98
503.60	4856.61
503.78	4627.24
503.95	4664.69
504.13	5090.67
504.30	5252.16
504.48	5090.67
504.65	4992.36
504.83	5191.31
505.01	5167.90
505.18	5224.08
505.36	5507.28
505.53	5460.47
505.71	5378.55
505.88	5303.65
506.06	5277.91
506.23	5308.34
506.41	5287.27
506.58	5111.73
506.76	5088.32
506.93	5289.61
507.11	5118.75
507.28	5263.86
507.46	5055.56
507.63	5027.47
507.81	4887.04
507.98	4891.72
508.16	5139.82
508.33	5261.52
508.50	5406.64
508.68	5479.19
508.85	5497.92
509.03	5558.77
509.20	5460.47
509.38	5128.11
509.55	5057.90
509.73	5097.69
509.90	5121.09
510.08	5493.24
510.25	5200.67
510.42	5249.82
510.60	5366.85
510.77	5336.42
510.95	5404.30
511.12	5486.22
511.30	5551.75
511.47	5425.36
511.64	5530.69
511.82	5441.75
511.99	5200.67
512.17	5195.99
512.34	5067.26
512.51	5116.41
512.69	5095.35
512.86	5139.82
513.04	5296.63
513.21	5413.66
513.38	5200.67
513.56	5139.82
513.73	5025.13
513.90	4994.70
514.08	4985.34
514.25	5200.67
514.43	5203.01
514.60	5144.50
514.77	5111.73
514.95	5259.18
515.12	5191.31
515.29	5231.10
515.47	5298.97
515.64	5313.02
515.81	5301.31
515.99	5221.74
516.16	4891.72
516.33	4402.55
516.51	4266.80
516.68	4173.18
516.85	4063.17
517.03	4175.52
517.20	4638.94
517.37	5085.98
517.54	5327.06
517.72	5004.07
517.89	4514.89
518.06	4198.92
518.24	4344.03
518.41	4667.03
518.58	4770.01
518.75	4873.00
518.93	5074.28
519.10	4929.17
519.27	5135.14
519.45	4983.00
519.62	5226.42
519.79	5434.72
519.96	5315.36
520.14	5074.28
520.31	5060.24
520.48	5121.09
520.65	4978.32
520.83	5376.21
521.00	5324.72
521.17	5174.92
521.34	5193.65
521.52	5172.58
521.69	5352.81
521.86	5490.90
522.03	5343.44
522.20	5280.25
522.38	4774.69
522.55	4908.10
522.72	4952.57
522.89	5078.96
523.07	5093.01
523.24	5076.62
523.41	5280.25
523.58	5425.36
523.75	5430.04
523.92	5537.71
524.10	5605.58
524.27	5465.15
524.44	5507.28
524.61	5320.04
524.78	5352.81
524.96	5233.44
525.13	5362.17
525.30	5149.18
525.47	5334.08
525.64	5476.85
525.81	5221.74
525.98	4917.47
526.16	4772.35
526.33	4568.73
526.50	4638.94
526.67	4514.89
526.84	4669.37
527.01	4809.80
527.18	4959.60
527.36	4954.91
527.53	5263.86
527.70	5376.21
527.87	5095.35
528.04	5114.07
528.21	5174.92
528.38	5394.93
528.55	5591.54
528.72	5502.60
528.89	5490.90
529.07	5584.52
529.24	5184.29
529.41	5090.67
529.58	5146.84
529.75	5067.26
529.92	5280.25
530.09	5331.74
530.26	5355.15
530.43	5481.53
530.60	5284.93
530.77	5556.43
530.94	5493.24
531.11	5397.28
531.28	5242.80
531.46	5181.95
531.63	5324.72
531.80	5334.08
531.97	5212.37
532.14	5102.37
532.31	4805.12
532.48	4690.43
532.65	4746.61
532.82	4971.30
532.99	5224.08
533.16	5158.54
533.33	5261.52
533.50	5224.08
533.67	5102.37
533.84	5013.43
534.01	5139.82
534.18	4980.66
534.35	5067.26
534.52	4978.32
534.69	5102.37
534.86	5383.23
535.03	5275.57
535.20	5472.17
535.37	5521.32
535.54	5565.79
535.71	5441.75
535.88	5399.62
536.05	5102.37
536.22	5057.90
536.38	4975.98
536.55	4931.51
536.72	4917.47
536.89	4856.61
537.06	4966.62
537.23	5268.55
537.40	5163.22
537.57	5118.75
537.74	5188.97
537.91	5116.41
538.08	5170.24
538.25	5135.14
538.42	5268.55
538.59	5327.06
538.75	4821.50
538.92	4987.68
539.09	4959.60
539.26	4971.30
539.43	4762.99
539.60	4985.34
539.77	4854.27
539.94	4954.91
540.11	4814.48
540.28	4510.21
540.44	4545.32
540.61	4657.67
540.78	4774.69
540.95	4688.09
541.12	4828.53
541.29	4943.21
541.46	5055.56
541.62	5013.43
541.79	5004.07
541.96	4943.21
542.13	4978.32
542.30	5032.15
542.47	5053.22
542.63	4917.47
542.80	4933.85
542.97	4901.08
543.14	4854.27
543.31	4840.23
543.48	4983.00
543.64	5275.57
543.81	5373.87
543.98	5121.09
544.15	5118.75
544.32	4919.81
544.48	4961.94
544.65	4961.94
544.82	5158.54
544.99	5011.09
545.16	5043.85
545.32	4772.35
545.49	5043.85
545.66	5090.67
545.83	5111.73
546.00	5034.49
546.16	4840.23
546.33	4954.91
546.50	4931.51
546.67	5135.14
546.83	5004.07
547.00	4999.38
547.17	4718.52
547.34	4896.40
547.50	4753.63
547.67	4840.23
547.84	4606.17
548.00	4889.38
548.17	5011.09
548.34	4835.55
548.51	4957.25
548.67	4854.27
548.84	4887.04
549.01	4940.87
549.18	4865.97
549.34	4877.68
549.51	4833.21
549.68	4912.78
549.84	4802.78
550.01	4807.46
550.18	4936.19
550.34	4720.86
550.51	4781.71
550.68	4770.01
550.84	4844.91
551.01	4683.41
551.18	4819.16
551.34	4781.71
551.51	4828.53
551.68	4926.83
551.84	4992.36
552.01	4795.76
552.18	4697.46
552.34	4791.08
552.51	4788.74
552.68	4622.56
552.84	4608.51
553.01	4671.71
553.18	4690.43
553.34	4788.74
553.51	4835.55
553.67	4816.82
553.84	4746.61
554.01	4802.78
554.17	4671.71
554.34	4814.48
554.51	4791.08
554.67	4774.69
554.84	4772.35
555.00	4713.84
555.17	4723.20
555.33	4812.14
555.50	4774.69
555.67	4596.81
555.83	4669.37
556.00	4636.60
556.16	4538.30
556.33	4578.09
556.50	4603.83
556.66	4521.92
556.83	4575.75
556.99	4589.79
557.16	4606.17
557.32	4589.79
557.49	4578.09
557.65	4580.43
557.82	4688.09
557.98	4718.52
558.15	4463.40
558.32	4297.22
558.48	4257.43
558.65	4273.82
558.81	4269.14
558.98	4212.96
559.14	4418.93
559.31	4498.51
559.47	4322.97
559.64	4397.87
559.80	4386.16
559.97	4320.63
560.13	4329.99
560.30	4538.30
560.46	4779.37
560.63	4582.77
560.79	4610.86
560.96	4629.58
561.12	4381.48
561.29	4372.12
561.45	4276.16
561.61	4191.90
561.78	4311.27
561.94	4435.32
562.11	4414.25
562.27	4313.61
562.44	4404.89
562.60	4383.82
562.77	4484.47
562.93	4440.00
563.10	4526.60
563.26	4362.76
563.42	4292.54
563.59	4348.72
563.75	4245.73
563.92	4519.57
564.08	4390.84
564.24	4432.97
564.41	4404.89
564.57	4360.42
564.74	4407.23
564.90	4353.40
565.07	4318.29
565.23	4308.93
565.39	4088.92
565.56	4161.47
565.72	4252.75
565.88	4140.41
566.05	4159.13
566.21	4138.07
566.38	4095.94
566.54	4306.59
566.70	4262.12
566.87	4341.69
567.03	4278.50
567.19	4175.52
567.36	4465.74
567.52	4238.71
567.68	4217.65
567.85	4077.21
568.01	4039.76
568.17	4007.00
568.34	3922.74
568.50	3894.65
568.66	4100.62
568.83	4098.28
568.99	4222.33
569.15	4114.66
569.32	4140.41
569.48	4149.77
569.64	4098.28
569.81	4077.21
569.97	4084.23
570.13	4084.23
570.30	4002.32
570.46	3875.93
570.62	3789.33
570.78	3700.39
570.95	3826.78
571.11	3875.93
571.27	3962.53
571.43	3913.38
571.60	3964.87
571.76	4070.19
571.92	4161.47
572.09	4079.55
572.25	4004.66
572.41	4035.08
572.57	4112.32
572.74	4168.49
572.90	3967.21
573.06	3957.85
573.22	4065.51
573.38	4058.49
573.55	4219.99
573.71	4028.06
573.87	4060.83
574.03	3974.23
574.20	3927.42
574.36	3882.95
574.52	3934.44
574.68	3815.07
574.84	3901.67
575.01	3768.26
575.17	3899.33
575.33	3789.33
575.49	3943.80
575.65	3875.93
575.82	3763.58
575.98	3786.99
576.14	3854.86
576.30	3798.69
576.46	3777.62
576.62	3929.76
576.79	3880.61
576.95	3854.86
577.11	3794.01
577.27	3810.39
577.43	3749.54
577.59	3943.80
577.75	3651.24
577.92	3733.15
578.08	3742.52
578.24	3527.19
578.40	3538.89
578.56	3761.24
578.72	3803.37
578.88	3742.52
579.04	3824.44
579.21	3721.45
579.37	3808.05
579.53	3805.71
579.69	3712.09
579.85	3995.29
580.01	3768.26
580.17	3688.68
580.33	3684.00
580.49	3864.22
580.65	3688.68
580.82	3805.71
580.98	3852.52
581.14	3758.90
581.30	3728.47
581.46	3681.66
581.62	3770.60
581.78	3758.90
581.94	3758.90
582.10	3782.31
582.26	3833.80
582.42	3761.24
582.58	3735.50
582.74	3716.77
582.90	3913.38
583.06	3735.50
583.22	3742.52
583.38	3784.65
583.54	3740.18
583.70	3698.05
583.86	3791.67
584.02	3822.09
584.18	3693.37
584.34	3784.65
584.50	3751.88
584.66	3583.36
584.82	3688.68
584.98	3618.47
585.14	3407.82
585.30	3548.25
585.46	3576.34
585.62	3452.29
585.78	3482.72
585.94	3456.97
586.10	3545.91
586.26	3552.93
586.42	3672.30
586.58	3515.48
586.74	3627.83
586.90	3447.61
587.06	3651.24
587.22	3552.93
587.38	3492.08
587.54	3543.57
587.70	3538.89
587.86	3559.95
588.02	3384.41
588.18	3375.05
588.34	3318.88
588.49	3030.99
588.65	2939.71
588.81	2923.33
588.97	2860.13
589.13	2857.79
589.29	2848.43
589.45	2906.95
589.61	3070.78
589.77	3124.62
589.93	3225.26
590.08	3332.92
590.24	3417.18
590.40	3398.46
590.56	3300.16
590.72	3279.09
590.88	3225.26
591.04	3262.71
591.20	3267.39
591.35	3276.75
591.51	3405.48
591.67	3325.90
591.83	3272.07
591.99	3133.98
592.15	3389.10
592.31	3407.82
592.46	3332.92
592.62	3272.07
592.78	3164.40
592.94	3386.76
593.10	3281.43
593.26	3328.24
593.41	3281.43
593.57	3286.11
593.73	3356.33
593.89	3342.28
594.05	3159.72
594.20	3241.64
594.36	3038.02
594.52	3016.95
594.68	3304.84
594.84	3145.68
594.99	3164.40
595.15	3288.45
595.31	3328.24
595.47	3190.15
595.62	3152.70
595.78	3358.67
595.94	3241.64
596.10	3236.96
596.25	3293.13
596.41	3119.93
596.57	3304.84
596.73	3253.34
596.88	3117.59
597.04	3075.46
597.20	3148.02
597.36	3110.57
597.51	3225.26
597.67	3241.64
597.83	3133.98
597.99	3108.23
598.14	3082.49
598.30	3087.17
