SpectraSuite Data File
++++++++++++++++++++++++++++++++++++
Date: Mon Oct 07 14:53:48 GMT-05:00 2013
User: price-jones
Dark Spectrum Present: No
Reference Spectrum Present: No
Number of Sampled Component Spectra: 1
Spectrometers: USB2+H05261
Integration Time (usec): 100000 (USB2+H05261)
Spectra Averaged: 1 (USB2+H05261)
Boxcar Smoothing: 0 (USB2+H05261)
Correct for Electrical Dark: No (USB2+H05261)
Strobe/Lamp Enabled: No (USB2+H05261)
Correct for Detector Non-linearity: No (USB2+H05261)
Correct for Stray Light: No (USB2+H05261)
Number of Pixels in Processed Spectrum: 2048
>>>>>Begin Processed Spectral Data<<<<<
365.73	0.00
365.92	0.00
366.12	0.00
366.32	0.00
366.52	0.00
366.72	0.00
366.91	0.00
367.11	0.00
367.31	0.00
367.51	0.00
367.70	0.00
367.90	0.00
368.10	0.00
368.30	0.00
368.49	0.00
368.69	0.00
368.89	0.00
369.09	0.00
369.28	0.00
369.48	0.00
369.68	0.00
369.87	0.00
370.07	0.00
370.27	0.00
370.47	507.90
370.66	2855.45
370.86	3466.33
371.06	3688.68
371.25	3618.47
371.45	3405.48
371.65	3042.70
371.84	2836.73
372.04	2986.52
372.24	3335.26
372.44	3492.08
372.63	3431.23
372.83	3407.82
373.03	2775.88
373.22	2647.15
373.42	2766.51
373.62	3206.53
373.81	3440.59
374.01	3531.87
374.21	3124.62
374.40	2956.10
374.60	3077.80
374.79	3463.99
374.99	4124.02
375.19	4372.12
375.38	4372.12
375.58	4072.53
375.78	4030.40
375.97	4049.13
376.17	4168.49
376.37	4124.02
376.56	4252.75
376.76	4564.04
376.95	4765.33
377.15	5004.07
377.35	5203.01
377.54	5521.32
377.74	5696.86
377.93	5748.36
378.13	5640.69
378.33	5254.50
378.52	4861.29
378.72	4688.09
378.91	4505.53
379.11	4505.53
379.31	4252.75
379.50	4299.56
379.70	4484.47
379.89	5128.11
380.09	5270.89
380.28	5547.07
380.48	5701.54
380.68	5507.28
380.87	5460.47
381.07	4983.00
381.26	4557.02
381.46	4156.79
381.65	4205.94
381.85	4327.65
382.04	3901.67
382.24	3595.06
382.43	3517.83
382.63	3375.05
382.83	3337.60
383.02	3435.91
383.22	3438.25
383.41	3433.57
383.61	3669.96
383.80	4147.43
384.00	4645.96
384.19	5256.84
384.39	5479.19
384.58	5605.58
384.78	5490.90
384.97	5418.34
385.17	5100.03
385.36	4971.30
385.56	4589.79
385.75	4887.04
385.95	5298.97
386.14	5879.43
386.34	5837.30
386.53	5434.72
386.72	5210.03
386.92	5310.68
387.11	5427.70
387.31	5703.89
387.50	5659.42
387.70	5479.19
387.89	5327.06
388.09	5516.64
388.28	5504.94
388.48	5542.39
388.67	5888.79
388.86	6511.37
389.06	7012.24
389.25	7576.31
389.45	7588.02
389.64	7396.09
389.84	7307.15
390.03	7283.75
390.22	7314.17
390.42	7449.93
390.61	8091.23
390.81	8334.65
391.00	8659.98
391.19	8430.61
391.39	8355.71
391.58	7859.52
391.78	7372.69
391.97	7066.08
392.16	6595.63
392.36	6122.84
392.55	4957.25
392.75	4053.81
392.94	3138.66
393.13	3150.36
393.33	3662.94
393.52	4732.56
393.71	5912.19
393.91	6593.29
394.10	7052.03
394.29	7793.98
394.49	8477.42
394.68	9076.60
394.88	9174.90
395.07	9280.22
395.26	9198.31
395.46	9130.43
395.65	8418.91
395.84	7592.70
396.04	6291.36
396.23	5076.62
396.42	4262.12
396.62	4053.81
396.81	4774.69
397.00	6087.73
397.19	7550.57
397.39	9104.68
397.58	10352.19
397.77	10775.83
397.97	11571.61
398.16	11470.97
398.35	11789.28
398.55	12060.78
398.74	12461.01
398.93	12681.02
399.12	12922.10
399.32	12116.95
399.51	12652.94
399.70	13530.64
399.90	13469.78
400.09	13418.29
400.28	13172.54
400.47	13219.35
400.67	14092.37
400.86	14373.23
401.05	14160.24
401.24	14438.76
401.44	14265.57
401.63	14497.28
401.82	14705.59
402.01	14925.60
402.21	14939.64
402.40	15124.54
402.59	14523.02
402.78	13731.92
402.97	13549.36
403.17	13841.93
403.36	14546.43
403.55	14960.70
403.74	15697.97
403.93	14981.77
404.13	13741.29
404.32	13451.06
404.51	13708.52
404.70	15122.20
404.89	15302.42
405.09	14691.54
405.28	14228.12
405.47	14450.47
405.66	14349.82
405.85	14078.32
406.05	13804.48
406.24	13806.82
406.43	14459.83
406.62	15056.67
406.81	15269.66
407.00	14560.47
407.20	14237.48
407.39	14616.65
407.58	15049.64
407.77	15782.23
407.96	16016.29
408.15	16358.00
408.34	16374.39
408.54	16872.92
408.73	16943.14
408.92	16830.79
409.11	16472.69
409.30	15721.38
409.49	14621.33
409.68	13919.17
409.87	13425.31
410.07	14120.45
410.26	15124.54
410.45	16269.06
410.64	16781.64
410.83	16966.54
411.02	17380.82
411.21	18164.90
411.40	18274.90
411.59	18075.96
411.78	17926.16
411.98	18176.60
412.17	18256.18
412.36	17474.44
412.55	17877.01
412.74	17507.21
412.93	17048.46
413.12	17191.23
413.31	18710.24
413.50	18621.30
413.69	19374.95
413.88	18476.19
414.07	18052.55
414.26	18560.45
414.45	18726.63
414.64	18860.04
414.83	19183.03
415.02	18768.76
415.22	18609.60
415.41	19075.37
415.60	20060.73
415.79	20498.41
415.98	20936.09
416.17	21067.16
416.36	20439.90
416.55	20023.28
416.74	19658.16
416.93	18817.91
417.12	18750.03
417.31	18991.11
417.50	19431.13
417.69	20400.11
417.88	19756.46
418.07	19616.03
418.26	19386.66
418.45	19817.32
418.64	20247.97
418.83	20952.48
419.02	20790.98
419.21	20751.19
419.39	19463.90
419.58	18768.76
419.77	19084.73
419.96	19571.56
420.15	20893.96
420.34	21570.38
420.53	22551.06
420.72	22698.52
420.91	22324.03
421.10	22214.02
421.29	21561.02
421.48	21177.17
421.67	22214.02
421.86	22108.70
422.05	20016.26
422.24	17877.01
422.43	17846.58
422.61	19686.25
422.80	21008.65
422.99	21469.73
423.18	20479.69
423.37	19976.47
423.56	20247.97
423.75	20435.22
423.94	20730.12
424.13	19784.55
424.32	20301.81
424.50	20280.74
424.69	19840.72
424.88	19817.32
425.07	19901.58
425.26	19903.92
425.45	19742.42
425.64	19417.08
425.83	19269.63
426.01	20472.67
426.20	20957.16
426.39	20849.49
426.58	19222.82
426.77	17680.41
426.96	17205.28
427.15	17919.14
427.33	19229.84
427.52	20105.20
427.71	20020.94
427.90	19864.13
428.09	19709.65
428.28	19293.04
428.46	18539.38
428.65	18410.65
428.84	19000.47
429.03	19124.52
429.22	18211.71
429.40	17338.69
429.59	15700.31
429.78	13877.04
429.97	13954.27
430.16	13947.25
430.34	14024.49
430.53	14319.40
430.72	14092.37
430.91	15726.06
431.10	18689.18
431.28	22139.13
431.47	23798.57
431.66	24077.09
431.85	22043.17
432.03	20159.03
432.22	19126.86
432.41	19791.57
432.60	22515.95
432.79	22911.50
432.97	23838.36
433.16	23246.20
433.35	21207.59
433.54	19199.41
433.72	17717.86
433.91	18349.80
434.10	20381.38
434.28	22230.41
434.47	23311.74
434.66	22899.80
434.85	22253.81
435.03	22436.38
435.22	22656.39
435.41	24130.92
435.59	23922.62
435.78	24486.68
435.97	25170.12
436.16	25476.73
436.34	24812.02
436.53	24128.58
436.72	24348.59
436.90	23073.00
437.09	22867.03
437.28	23016.83
437.46	23707.29
437.65	23447.49
437.84	21806.77
438.02	20004.56
438.21	19676.88
438.40	21102.27
438.58	22466.80
438.77	23613.66
438.96	23653.45
439.14	24797.98
439.33	24819.04
439.52	25731.85
439.70	24907.98
439.89	24467.96
440.08	23756.44
440.26	23529.41
440.45	24552.22
440.63	25928.45
440.82	27594.92
441.01	27302.35
441.19	26822.54
441.38	26621.25
441.57	28177.71
441.75	28547.51
441.94	28938.38
442.12	28503.04
442.31	29369.04
442.50	29008.60
442.68	28680.92
442.87	28367.29
443.05	27934.29
443.24	28191.75
443.43	29053.07
443.61	29385.43
443.80	30005.67
443.98	28538.15
444.17	28046.64
444.35	29827.79
444.54	30309.94
444.73	29736.51
444.91	28943.06
445.10	27585.55
445.28	26487.84
445.47	25827.81
445.65	25996.33
445.84	26974.67
446.02	27821.95
446.21	27878.12
446.39	28711.35
446.58	28940.72
446.77	29446.28
446.95	29394.79
447.14	30045.46
447.32	31077.63
447.51	30015.03
447.69	28847.10
447.88	28418.78
448.06	28620.07
448.25	29614.80
448.43	30012.69
448.62	29347.98
448.80	28952.43
448.99	29432.24
449.17	29556.28
449.36	29502.45
449.54	30714.85
449.73	31009.76
449.91	31887.46
450.10	32493.66
450.28	33029.64
450.46	31885.12
450.65	32725.37
450.83	32397.70
451.02	31468.50
451.20	31349.14
451.39	31665.11
451.57	31070.61
451.76	31325.73
451.94	31094.02
452.13	30319.30
452.31	28690.29
452.49	27505.98
452.68	28339.21
452.86	28329.84
453.05	28322.82
453.23	29553.94
453.42	30094.61
453.60	30462.07
453.78	31082.31
453.97	30656.34
454.15	30991.03
454.34	30218.66
454.52	30307.60
454.70	29509.47
454.89	29914.39
455.07	30480.80
455.26	30253.76
455.44	31632.34
455.62	32531.11
455.81	32470.25
455.99	31817.24
456.17	31868.73
456.36	32100.45
456.54	32737.07
456.73	32966.45
456.91	33415.83
457.09	33310.50
457.28	34213.95
457.46	32758.14
457.64	32699.62
457.83	31564.46
458.01	30923.16
458.19	31634.68
458.38	31791.50
458.56	33165.39
458.74	32994.53
458.93	32290.03
459.11	31997.46
459.29	31999.80
459.48	32002.14
459.66	31950.65
459.84	32374.29
460.03	32760.48
460.21	32694.94
460.39	33500.09
460.57	33305.82
460.76	34110.97
460.94	34045.43
461.12	33493.07
461.31	33298.80
461.49	33502.43
461.67	33350.29
461.85	34508.86
462.04	34429.28
462.22	33991.60
462.40	34761.64
462.59	34455.03
462.77	34370.77
462.95	33942.45
463.13	33914.36
463.32	33783.29
463.50	33207.52
463.68	33230.93
463.86	33631.16
464.05	32685.58
464.23	32119.17
464.41	32341.52
464.59	31761.07
464.78	33535.20
464.96	33106.88
465.14	32924.32
465.32	33645.20
465.50	34487.79
465.69	35028.46
465.87	34003.30
466.05	33205.18
466.23	32105.13
466.41	30866.98
466.60	31821.92
466.78	31922.57
466.96	32538.13
467.14	32884.53
467.32	33322.21
467.51	33624.14
467.69	31896.82
467.87	32727.71
468.05	33254.33
468.23	32645.79
468.41	33357.32
468.60	33214.54
468.78	33401.79
468.96	33347.95
469.14	34162.46
469.32	34005.64
469.50	32559.19
469.69	33088.15
469.87	32343.86
470.05	32275.99
470.23	32084.06
470.41	32163.64
470.59	32774.52
470.77	33156.03
470.95	33287.10
471.14	34103.95
471.32	33673.29
471.50	35573.80
471.68	35955.31
471.86	36268.94
472.04	36383.63
472.22	36776.84
472.40	34532.26
472.58	34658.65
472.77	34249.06
472.95	34728.87
473.13	35796.15
473.31	34504.18
473.49	35016.75
473.67	35744.66
473.85	35812.54
474.03	36580.23
474.21	37050.68
474.39	36823.65
474.57	36924.29
474.75	37266.01
474.93	36893.86
475.12	36070.00
475.30	36142.55
475.48	36112.13
475.66	36870.46
475.84	36725.35
476.02	36212.77
476.20	35505.93
476.38	36575.55
476.56	37624.11
476.74	38120.31
476.92	38328.61
477.10	39033.11
477.28	40121.46
477.46	39831.24
477.64	40437.44
477.82	40421.05
478.00	40524.04
478.18	39922.52
478.36	39749.32
478.54	39730.59
478.72	40051.25
478.90	40500.63
479.08	41926.02
479.26	42602.43
479.44	42199.86
479.62	42012.62
479.80	41890.91
479.98	42218.58
480.16	42361.36
480.34	42024.32
480.52	42429.23
480.70	43056.50
480.88	42735.84
481.06	43725.89
481.24	43833.55
481.41	44732.32
481.59	45160.64
481.77	45134.89
481.95	44299.32
482.13	44392.94
482.31	44126.12
482.49	44818.92
482.67	44652.74
482.85	45471.93
483.03	45703.64
483.21	46508.79
483.39	45874.50
483.57	45425.12
483.74	44828.28
483.92	45329.16
484.10	45373.63
484.28	46625.81
484.46	46761.56
484.64	47250.74
484.82	46490.06
485.00	45923.65
485.18	44935.95
485.35	43742.27
485.53	40779.15
485.71	36823.65
485.89	36725.35
486.07	38120.31
486.25	42024.32
486.43	44041.86
486.61	44776.79
486.78	44650.40
486.96	44638.70
487.14	46705.39
487.32	47356.06
487.50	48432.71
487.68	49485.95
487.85	50129.59
488.03	50061.72
488.21	49572.55
488.39	48938.26
488.57	47686.07
488.75	47634.58
488.92	48905.49
489.10	50974.53
489.28	52549.71
489.46	53116.12
489.64	52971.00
489.81	53120.80
489.99	53013.13
490.17	52612.90
490.35	53104.41
490.53	52779.08
490.70	52133.09
490.88	52011.38
491.06	53050.58
491.24	53375.92
491.41	52294.59
491.59	50457.27
491.77	49612.34
491.95	50897.29
492.13	52046.49
492.30	53085.69
492.48	54038.29
492.66	54501.71
492.84	54658.53
493.01	54251.28
493.19	53907.22
493.37	53471.88
493.54	53200.38
493.72	53907.22
493.90	54777.90
494.08	55683.69
494.25	55845.18
494.43	56182.22
494.61	56427.98
494.79	56521.60
494.96	55966.89
495.14	55569.00
495.32	54663.21
495.49	54171.70
495.67	55306.86
495.85	56500.53
496.02	56823.53
496.20	56676.07
496.38	56341.38
496.55	56418.61
496.73	56926.51
496.91	56636.28
497.09	57530.37
497.26	57455.47
497.44	57247.16
497.62	56697.14
497.79	55707.09
497.97	54585.97
498.14	54574.27
498.32	55697.73
498.50	56762.67
498.67	57483.56
498.85	57106.73
499.03	57272.91
499.20	57574.84
499.38	57673.14
499.56	57415.68
499.73	56856.29
499.91	56374.14
500.08	55856.88
500.26	55285.79
500.44	55812.41
500.61	56509.89
500.79	56528.62
500.97	55777.31
501.14	55730.50
501.32	55559.64
501.49	55573.68
501.67	55707.09
501.84	56306.27
502.02	56645.65
502.20	57041.20
502.37	57127.80
502.55	57120.77
502.72	57633.35
502.90	58131.89
503.07	57977.41
503.25	57509.30
503.43	56680.75
503.60	56037.11
503.78	55306.86
503.95	55697.73
504.13	57233.12
504.30	57848.68
504.48	57591.22
504.65	57125.46
504.83	57153.54
505.01	57729.31
505.18	58541.48
505.36	58869.15
505.53	58766.17
505.71	59145.34
505.88	59199.17
506.06	58527.44
506.23	58394.03
506.41	57764.42
506.58	58085.07
506.76	58110.82
506.93	58049.97
507.11	57982.09
507.28	57855.70
507.46	57595.90
507.63	56992.04
507.81	56704.16
507.98	56898.42
508.16	57649.74
508.33	58024.22
508.50	58611.70
508.68	58808.30
508.85	59206.19
509.03	59355.99
509.20	59283.43
509.38	58305.09
509.55	57895.49
509.73	57965.71
509.90	58265.30
510.08	58625.74
510.25	58403.39
510.42	58375.30
510.60	58171.67
510.77	58656.17
510.95	58922.99
511.12	59210.87
511.30	59395.77
511.47	59835.80
511.64	59643.87
511.82	59292.79
511.99	58497.01
512.17	58007.84
512.34	57808.89
512.51	58155.29
512.69	57928.26
512.86	58274.66
513.04	58562.54
513.21	58604.67
513.38	58560.20
513.56	57584.20
513.73	57240.14
513.90	57350.15
514.08	57446.11
514.25	57670.80
514.43	58035.92
514.60	57886.13
514.77	58344.87
514.95	58457.22
515.12	57979.75
515.29	58518.07
515.47	58960.44
515.64	59040.01
515.81	58749.79
515.99	58262.96
516.16	56933.53
516.33	54520.44
516.51	52938.24
516.68	52252.46
516.85	51620.52
517.03	52491.19
517.20	54990.89
517.37	57600.58
517.54	58319.13
517.72	57790.17
517.89	55306.86
518.06	53137.18
518.24	53134.84
518.41	55533.89
518.58	56933.53
518.75	57146.52
518.93	57368.87
519.10	57139.50
519.27	57542.07
519.45	57769.10
519.62	58628.08
519.79	58855.11
519.96	58698.30
520.14	58183.38
520.31	57467.17
520.48	57570.16
520.65	57733.99
520.83	58665.53
521.00	58974.48
521.17	58574.25
521.34	58305.09
521.52	58628.08
521.69	59210.87
521.86	59405.14
522.03	59327.90
522.20	58099.12
522.38	57031.83
522.55	57118.43
522.72	57532.71
522.89	58003.16
523.07	58080.39
523.24	58527.44
523.41	58920.65
523.58	59313.86
523.75	59994.95
523.92	59597.06
524.10	59611.10
524.27	59531.53
524.44	59599.40
524.61	59215.55
524.78	59114.91
524.96	59105.55
525.13	59040.01
525.30	59402.80
525.47	59763.24
525.64	59671.96
525.81	59023.63
525.98	57567.82
526.16	56083.92
526.33	55505.80
526.50	55281.11
526.67	54550.87
526.84	55458.99
527.01	56420.95
527.18	57333.76
527.36	57977.41
527.53	58962.78
527.70	59051.72
527.87	58541.48
528.04	58260.62
528.21	58602.33
528.38	59367.69
528.55	59770.26
528.72	60186.88
528.89	60069.85
529.07	60006.65
529.24	59435.56
529.41	58609.35
529.58	58227.85
529.75	58319.13
529.92	58534.46
530.09	59131.29
530.26	59599.40
530.43	59842.82
530.60	59908.35
530.77	59990.27
530.94	60172.83
531.11	59674.30
531.28	59489.40
531.46	59370.03
531.63	59444.93
531.80	58981.50
531.97	58759.15
532.14	58061.67
532.31	57113.75
532.48	56507.55
532.65	56512.23
532.82	57425.04
532.99	58497.01
533.16	58955.75
533.33	59374.71
533.50	59145.34
533.67	58609.35
533.84	58150.61
534.01	58323.81
534.18	58438.50
534.35	58798.94
534.52	58529.78
534.69	58820.00
534.86	59068.10
535.03	59269.39
535.20	59847.50
535.37	60044.10
535.54	60126.02
535.71	59671.96
535.88	59505.78
536.05	58848.09
536.22	58464.24
536.38	58328.49
536.55	57743.36
536.72	57249.50
536.89	57120.77
537.06	57986.77
537.23	58805.96
537.40	58960.44
537.57	59089.16
537.74	58934.69
537.91	58885.54
538.08	58871.49
538.25	58780.21
538.42	58995.54
538.59	58609.35
538.75	58166.99
538.92	57993.79
539.09	58101.46
539.26	57647.39
539.43	57504.62
539.60	57396.96
539.77	57790.17
539.94	57661.44
540.11	56697.14
540.28	56303.93
540.44	56395.21
540.61	56594.15
540.78	56914.81
540.95	57289.29
541.12	57598.24
541.29	58073.37
541.46	58349.56
541.62	58218.49
541.79	58162.31
541.96	57673.14
542.13	57605.26
542.30	57619.31
542.47	57996.13
542.63	57689.52
542.80	57567.82
542.97	57680.16
543.14	57530.37
543.31	57588.88
543.48	58162.31
543.64	58815.32
543.81	59161.72
543.98	58866.81
544.15	58220.83
544.32	57787.83
544.48	57785.49
544.65	58232.53
544.82	58541.48
544.99	58295.72
545.16	58096.78
545.32	57240.14
545.49	58424.45
545.66	58763.83
545.83	58424.45
546.00	57965.71
546.16	57453.13
546.33	57860.38
546.50	57834.64
546.67	58066.35
546.83	57712.93
547.00	58000.82
547.17	57322.06
547.34	56636.28
547.50	56652.67
547.67	56975.66
547.84	57188.65
548.00	57418.02
548.17	58071.03
548.34	57893.15
548.51	57724.63
548.67	57790.17
548.84	57921.24
549.01	57860.38
549.18	57715.27
549.34	57432.07
549.51	57813.57
549.68	57567.82
549.84	57485.90
550.01	57368.87
550.18	57003.75
550.34	56970.98
550.51	57392.28
550.68	57251.84
550.84	56938.21
551.01	56999.07
551.18	56907.79
551.34	57219.08
551.51	57506.96
551.68	57755.06
551.84	57822.93
552.01	57726.97
552.18	57497.60
552.34	56914.81
552.51	56423.29
552.68	56289.88
552.84	56692.46
553.01	56928.85
553.18	56870.34
553.34	57116.09
553.51	57102.05
553.67	57324.40
553.84	57553.77
554.01	57158.22
554.17	57155.88
554.34	57429.72
554.51	57441.43
554.67	57577.18
554.84	57509.30
555.00	57209.71
555.17	56757.99
555.33	56994.39
555.50	56713.52
555.67	57088.01
555.83	56891.40
556.00	56547.34
556.16	56381.16
556.33	56086.26
556.50	55826.46
556.66	55777.31
556.83	55484.74
556.99	55896.67
557.16	56207.97
557.32	56306.27
557.49	56638.62
557.65	56362.44
557.82	56240.73
557.98	56191.58
558.15	56023.06
558.32	54915.99
558.48	53869.77
558.65	54431.50
558.81	54777.90
558.98	54789.60
559.14	55271.75
559.31	55201.53
559.47	55386.44
559.64	55054.08
559.80	54628.10
559.97	54878.54
560.13	55243.66
560.30	56027.74
560.46	56549.68
560.63	56741.61
560.79	56706.50
560.96	56437.34
561.12	55405.16
561.29	54342.56
561.45	54401.07
561.61	55044.72
561.78	55501.12
561.94	55344.31
562.11	55243.66
562.27	55091.53
562.44	55449.63
562.60	55681.34
562.77	55969.23
562.93	55667.30
563.10	55662.62
563.26	55121.96
563.42	55143.02
563.59	55065.78
563.75	54974.50
563.92	55065.78
564.08	55098.55
564.24	55110.25
564.41	55313.88
564.57	55201.53
564.74	54960.46
564.90	55035.36
565.07	54698.32
565.23	54351.92
565.39	53755.08
565.56	53703.59
565.72	53558.48
565.88	53860.41
566.05	53872.11
566.21	54068.72
566.38	54380.01
566.54	54300.43
566.70	54396.39
566.87	55147.70
567.03	54923.01
567.19	55351.33
567.36	54714.70
567.52	54754.49
567.68	54354.26
567.85	53619.33
568.01	53495.28
568.17	53006.11
568.34	53118.46
568.50	52804.83
568.66	53183.99
568.83	53614.65
568.99	53612.31
569.15	53900.20
569.32	53893.18
569.48	53329.11
569.64	53263.57
569.81	53095.05
569.97	52882.06
570.13	52711.20
570.30	52376.51
570.46	52189.27
570.62	51306.88
570.78	51278.80
570.95	51337.31
571.11	52446.72
571.27	52388.21
571.43	52596.52
571.60	52692.48
571.76	53118.46
571.92	53408.68
572.09	53495.28
572.25	53577.20
572.41	53642.74
572.57	53406.34
572.74	53518.69
572.90	52938.24
573.06	53270.59
573.22	53029.52
573.38	52769.72
573.55	52844.62
573.71	53073.99
573.87	53102.07
574.03	52971.00
574.20	52900.79
574.36	52655.03
574.52	52299.27
574.68	52250.12
574.84	51941.17
575.01	51114.96
575.17	51215.60
575.33	51505.83
575.49	51667.33
575.65	52121.39
575.82	51686.05
575.98	51756.27
576.14	52048.83
576.30	52095.64
576.46	52177.56
576.62	52285.23
576.79	51910.74
576.95	51803.08
577.11	51522.21
577.27	51672.01
577.43	51826.48
577.59	51669.67
577.75	51014.32
577.92	50649.19
578.08	49986.82
578.24	49743.41
578.40	50490.04
578.56	50948.78
578.72	50761.54
578.88	51023.68
579.04	51035.38
579.21	51393.48
579.37	51327.95
579.53	51227.31
579.69	50988.57
579.85	51426.25
580.01	51538.60
580.17	50831.75
580.33	50883.25
580.49	50941.76
580.65	51129.00
580.82	51100.92
580.98	51316.25
581.14	51203.90
581.30	51178.15
581.46	50859.84
581.62	51496.47
581.78	51222.62
581.94	51498.81
582.10	51501.15
582.26	51466.04
582.42	51620.52
582.58	51789.03
582.74	51454.34
582.90	51419.23
583.06	51547.96
583.22	51576.04
583.38	51110.28
583.54	51040.06
583.70	51047.08
583.86	51236.67
584.02	50904.31
584.18	50962.82
584.34	50976.87
584.50	50698.34
584.66	50639.83
584.82	49949.37
584.98	50113.21
585.14	49633.40
585.30	49092.74
