SpectraSuite Data File
++++++++++++++++++++++++++++++++++++
Date: Mon Oct 07 14:53:05 GMT-05:00 2013
User: price-jones
Dark Spectrum Present: No
Reference Spectrum Present: No
Number of Sampled Component Spectra: 1
Spectrometers: USB2+H05261
Integration Time (usec): 100000 (USB2+H05261)
Spectra Averaged: 1 (USB2+H05261)
Boxcar Smoothing: 0 (USB2+H05261)
Correct for Electrical Dark: No (USB2+H05261)
Strobe/Lamp Enabled: No (USB2+H05261)
Correct for Detector Non-linearity: No (USB2+H05261)
Correct for Stray Light: No (USB2+H05261)
Number of Pixels in Processed Spectrum: 2048
>>>>>Begin Processed Spectral Data<<<<<
365.73	0.00
365.92	0.00
366.12	0.00
366.32	0.00
366.52	0.00
366.72	0.00
366.91	0.00
367.11	0.00
367.31	0.00
367.51	0.00
367.70	0.00
367.90	0.00
368.10	0.00
368.30	0.00
368.49	0.00
368.69	0.00
368.89	0.00
369.09	0.00
369.28	0.00
369.48	0.00
369.68	0.00
369.87	0.00
370.07	0.00
370.27	0.00
370.47	568.75
370.66	2939.71
370.86	3386.76
371.06	3646.55
371.25	3716.77
371.45	3316.54
371.65	3066.10
371.84	2810.98
372.04	2909.29
372.24	3344.63
372.44	3487.40
372.63	3361.01
372.83	3178.45
373.03	2679.91
373.22	2616.72
373.42	2672.89
373.62	3138.66
373.81	3417.18
374.01	3471.01
374.21	3042.70
374.40	2897.58
374.60	2984.18
374.79	3368.03
374.99	3985.93
375.19	4177.86
375.38	4173.18
375.58	3967.21
375.78	3777.62
375.97	3840.82
376.17	4107.64
376.37	4093.60
376.56	4198.92
376.76	4624.90
376.95	4702.14
377.15	5184.29
377.35	5184.29
377.54	5458.13
377.74	5633.67
377.93	5687.50
378.13	5432.38
378.33	5383.23
378.52	4765.33
378.72	4655.33
378.91	4655.33
379.11	4423.61
379.31	4306.59
379.50	4231.69
379.70	4580.43
379.89	5203.01
380.09	5226.42
380.28	5504.94
380.48	5533.03
380.68	5453.45
380.87	5334.08
381.07	4870.65
381.26	4587.45
381.46	4198.92
381.65	4114.66
381.85	4112.32
382.04	3742.52
382.24	3548.25
382.43	3361.01
382.63	3382.07
382.83	3353.99
383.02	3421.86
383.22	3265.05
383.41	3295.47
383.61	3632.51
383.80	4182.54
384.00	4585.11
384.19	5280.25
384.39	5504.94
384.58	5455.79
384.78	5373.87
384.97	5338.76
385.17	4924.49
385.36	4760.65
385.56	4655.33
385.75	4924.49
385.95	5125.77
386.14	5671.12
386.34	5607.92
386.53	5308.34
386.72	5095.35
386.92	5078.96
387.11	5238.12
387.31	5584.52
387.50	5563.45
387.70	5291.95
387.89	5296.63
388.09	5298.97
388.28	5362.17
388.48	5554.09
388.67	5956.66
388.86	6541.80
389.06	6897.56
389.25	7311.83
389.45	7424.18
389.64	7314.17
389.84	7314.17
390.03	7180.76
390.22	7126.93
390.42	7496.74
390.61	7772.92
390.81	8468.06
391.00	8528.91
391.19	8198.90
391.39	7997.61
391.58	7597.38
391.78	7335.24
391.97	7026.29
392.16	6516.05
392.36	5823.25
392.55	4800.44
392.75	3840.82
392.94	3183.13
393.13	2932.69
393.33	3662.94
393.52	4727.88
393.71	5776.44
393.91	6469.24
394.10	7115.23
394.29	7712.07
394.49	8339.33
394.68	8992.34
394.88	8947.87
395.07	9287.25
395.26	9128.09
395.46	8774.67
395.65	8381.46
395.84	7396.09
396.04	6076.03
396.23	5057.90
396.42	4276.16
396.62	4046.79
396.81	4933.85
397.00	6366.26
397.19	7782.28
397.39	9219.37
397.58	10228.14
397.77	10710.29
397.97	11239.25
398.16	11211.17
398.35	11667.57
398.55	11822.05
398.74	12400.16
398.93	12791.03
399.12	12423.56
399.32	12135.68
399.51	12493.78
399.70	13275.52
399.90	13067.21
400.09	13102.32
400.28	13039.12
400.47	13135.09
400.67	13914.48
400.86	14111.09
401.05	14092.37
401.24	14164.92
401.44	14178.97
401.63	14586.22
401.82	14780.48
402.01	14637.71
402.21	14780.48
402.40	14747.72
402.59	14134.50
402.78	13598.51
402.97	13144.45
403.17	13961.30
403.36	14618.99
403.55	14965.39
403.74	15611.37
403.93	14696.22
404.13	13633.62
404.32	13516.59
404.51	13642.98
404.70	14918.57
404.89	15009.86
405.09	14771.12
405.28	14356.85
405.47	14384.93
405.66	14146.20
405.85	14106.41
406.05	13490.85
406.24	13701.50
406.43	14546.43
406.62	14981.77
406.81	14941.98
407.00	14347.48
407.20	13982.36
407.39	14181.31
407.58	14951.34
407.77	15496.69
407.96	15955.43
408.15	16058.42
408.34	16238.64
408.54	16889.31
408.73	17256.77
408.92	16798.02
409.11	16414.18
409.30	15257.95
409.49	14298.33
409.68	13720.22
409.87	13291.90
410.07	14099.39
410.26	15117.52
410.45	16236.30
410.64	16521.84
410.83	17399.54
411.02	17507.21
411.21	18188.30
411.40	17898.08
411.59	18185.96
411.78	17837.22
411.98	17539.97
412.17	18214.05
412.36	17420.61
412.55	17448.69
412.74	17277.83
412.93	16982.93
413.12	16987.61
413.31	18750.03
413.50	18700.88
413.69	19222.82
413.88	18366.18
414.07	18054.89
414.26	18324.05
414.45	18824.93
414.64	18979.40
414.83	19073.03
415.02	18412.99
415.22	18546.40
415.41	18895.14
415.60	19662.84
415.79	20404.79
415.98	21001.63
416.17	20798.00
416.36	20325.21
416.55	20046.69
416.74	19414.74
416.93	18808.54
417.12	18796.84
417.31	19236.86
417.50	19314.10
417.69	20004.56
417.88	19967.11
418.07	19499.00
418.26	19386.66
418.45	19424.11
418.64	20463.30
418.83	20992.26
419.02	20362.66
419.21	20645.87
419.39	19599.65
419.58	18986.43
419.77	19002.81
419.96	19733.06
420.15	20915.03
420.34	21469.73
420.53	21989.33
420.72	22368.50
420.91	22260.84
421.10	22064.23
421.29	21940.18
421.48	21130.36
421.67	21975.29
421.86	21563.36
422.05	20016.26
422.24	17767.01
422.43	17626.57
422.61	19728.38
422.80	21090.57
422.99	21223.98
423.18	20343.94
423.37	20034.99
423.56	20332.23
423.75	20538.20
423.94	20919.71
424.13	19625.39
424.32	19723.69
424.50	20212.87
424.69	20042.01
424.88	20013.92
425.07	20121.59
425.26	19836.04
425.45	19597.31
425.64	19192.39
425.83	19676.88
426.01	20414.15
426.20	20765.23
426.39	20821.41
426.58	18960.68
426.77	17713.17
426.96	17343.37
427.15	17703.81
427.33	19475.60
427.52	20130.95
427.71	19992.86
427.90	20009.24
428.09	19861.79
428.28	19246.23
428.46	18607.26
428.65	18382.57
428.84	18712.58
429.03	19243.88
429.22	18005.74
429.40	17060.16
429.59	15660.52
429.78	13481.49
429.97	13916.83
430.16	14211.73
430.34	14073.64
430.53	14036.19
430.72	14403.66
430.91	16177.78
431.10	18843.65
431.28	22146.15
431.47	23569.19
431.66	24177.73
431.85	21860.60
432.03	20152.01
432.22	19194.73
432.41	20357.98
432.60	22324.03
432.79	23220.45
432.97	24020.92
433.16	23342.16
433.35	21301.22
433.54	18991.11
433.72	17958.93
433.91	18501.93
434.10	20704.38
434.28	22073.59
434.47	22944.27
434.66	22780.43
434.85	22347.44
435.03	22270.20
435.22	22656.39
435.41	24372.00
435.59	24283.06
435.78	24411.79
435.97	25085.86
436.16	25106.93
436.34	25076.50
436.53	24437.53
436.72	24374.34
436.90	23407.70
437.09	23424.08
437.28	22398.93
437.46	23747.08
437.65	23318.76
437.84	21860.60
438.02	20166.06
438.21	20002.22
438.40	21020.35
438.58	22892.78
438.77	23470.89
438.96	23768.14
439.14	24854.15
439.33	25296.51
439.52	25383.11
439.70	24854.15
439.89	24540.52
440.08	23852.40
440.26	24067.73
440.45	24554.56
440.63	26167.19
440.82	27627.68
441.01	27145.53
441.19	27021.48
441.38	27608.96
441.57	28409.42
441.75	28900.94
441.94	28896.25
442.12	28673.90
442.31	29383.09
442.50	29453.30
442.68	28701.99
442.87	28484.32
443.05	28229.20
443.24	28634.11
443.43	29179.46
443.61	29750.55
443.80	29792.68
443.98	28439.85
444.17	28500.70
444.35	30071.20
444.54	30820.17
444.73	30143.76
444.91	28575.60
445.10	27943.66
445.28	26661.04
445.47	26096.97
445.65	26396.56
445.84	27456.82
446.02	28130.90
446.21	28549.85
446.39	28819.02
446.58	28940.72
446.77	29137.33
446.95	29776.30
447.14	30459.73
447.32	31491.91
447.51	30127.38
447.69	29350.32
447.88	28849.44
448.06	29282.44
448.25	29872.26
448.43	30188.23
448.62	29689.70
448.80	29401.81
448.99	29420.53
449.17	29883.96
449.36	29783.32
449.54	30899.75
449.73	31777.45
449.91	31695.53
450.10	32692.60
450.28	33240.29
450.46	32723.03
450.65	33116.24
450.83	32561.53
451.02	31805.54
451.20	32009.17
451.39	32048.96
451.57	31384.24
451.76	31503.61
451.94	31625.32
452.13	30946.56
452.31	29736.51
452.49	28079.41
452.68	28943.06
452.86	28521.77
453.05	29116.26
453.23	30199.93
453.42	30279.51
453.60	31227.43
453.78	31309.35
453.97	31157.21
454.15	31325.73
454.34	30604.84
454.52	30452.71
454.70	30506.54
454.89	30403.56
455.07	30616.55
455.26	31189.98
455.44	32278.33
455.62	32779.20
455.81	33289.44
455.99	32538.13
456.17	32531.11
456.36	32189.39
456.54	33408.81
456.73	33582.01
456.91	33900.32
457.09	34316.93
457.28	34604.82
457.46	33095.18
457.64	32957.08
457.83	32250.24
458.01	31438.08
458.19	32268.97
458.38	32020.87
458.56	33404.13
458.74	33216.88
458.93	32929.00
459.11	32758.14
459.29	32219.81
459.48	32737.07
459.66	32474.93
459.84	32727.71
460.03	32921.98
460.21	32910.27
460.39	33865.21
460.57	33895.64
460.76	34239.70
460.94	34319.28
461.12	34190.55
461.31	34087.56
461.49	34565.03
461.67	34132.03
461.85	35386.56
462.04	34960.58
462.22	35370.18
462.40	35016.75
462.59	35299.96
462.77	34775.68
462.95	35454.44
463.13	35002.71
463.32	33930.75
463.50	33940.11
463.68	33958.83
463.86	34225.65
464.05	33476.68
464.23	32809.63
464.41	32732.39
464.59	32598.98
464.78	34129.69
464.96	33848.83
465.14	33661.58
465.32	34073.52
465.50	35332.73
465.69	35255.49
465.87	34763.98
466.05	33895.64
466.23	32388.33
466.41	31756.39
466.60	32535.79
466.78	32613.02
466.96	33186.46
467.14	33872.23
467.32	34405.88
467.51	34314.59
467.69	32744.09
467.87	33530.51
468.05	33942.45
468.23	33984.58
468.41	33956.49
468.60	34188.21
468.78	34239.70
468.96	33963.51
469.14	34504.18
469.32	34803.77
469.50	33291.78
469.69	33158.37
469.87	32975.81
470.05	32762.82
470.23	32957.08
470.41	33399.44
470.59	33446.26
470.77	33792.65
470.95	33940.11
471.14	35077.61
471.32	34726.53
471.50	36566.19
471.68	36786.20
471.86	37010.89
472.04	37120.90
472.22	37216.86
472.40	35445.07
472.58	34876.32
472.77	35288.26
472.95	35672.10
473.13	36690.24
473.31	35524.65
473.49	35529.33
473.67	36280.64
473.85	36896.20
474.03	37684.97
474.21	37460.27
474.39	38029.02
474.57	38024.34
474.75	38349.68
474.93	37956.47
475.12	37500.06
475.30	36935.99
475.48	37434.53
475.66	38066.47
475.84	37081.11
476.02	37275.37
476.20	36573.21
476.38	37326.86
476.56	38480.75
476.74	38953.54
476.92	39192.27
477.10	39030.77
477.28	40552.12
477.46	40638.72
477.64	41663.88
477.82	41102.15
478.00	41420.46
478.18	40849.37
478.36	40411.69
478.54	40369.56
478.72	41249.60
478.90	42021.98
479.08	43220.33
479.26	43622.90
479.44	43793.76
479.62	42897.34
479.80	42990.96
479.98	43632.27
480.16	43650.99
480.34	43082.24
480.52	43871.00
480.70	43615.88
480.88	43723.55
481.06	44704.23
481.24	45071.70
481.41	45745.77
481.59	46529.85
481.77	45830.03
481.95	45729.39
482.13	45223.83
482.31	45345.54
482.49	46307.50
482.67	45963.44
482.85	46429.21
483.03	47224.99
483.21	47122.01
483.39	47466.06
483.57	46232.60
483.74	46279.41
483.92	46958.17
484.10	46904.34
484.28	47971.62
484.46	47901.40
484.64	48395.26
484.82	47487.13
485.00	46974.55
485.18	46213.88
485.35	45139.57
485.53	41743.45
485.71	37549.21
485.89	38199.88
486.07	40020.82
486.25	42920.74
486.43	45191.06
486.61	46232.60
486.78	46026.63
486.96	46225.58
487.14	47978.64
487.32	48739.32
487.50	49874.48
487.68	50649.19
487.85	51091.55
488.03	51044.74
488.21	50653.87
488.39	49762.13
488.57	49137.21
488.75	48945.28
488.92	50153.00
489.10	52360.12
489.28	53544.44
489.46	54335.54
489.64	54005.52
489.81	54291.07
489.99	53731.68
490.17	53939.99
490.35	54403.41
490.53	53357.19
490.70	53242.51
490.88	53345.49
491.06	54375.33
491.24	54211.49
491.41	53057.60
491.59	51643.92
491.77	50906.65
491.95	52451.41
492.13	53261.23
492.30	54218.51
492.48	55171.11
492.66	55800.71
492.84	55461.33
493.01	55182.81
493.19	54871.52
493.37	54447.88
493.54	54377.67
493.72	54939.39
493.90	55800.71
494.08	56566.07
494.25	56849.27
494.43	56963.96
494.61	57207.37
494.79	57443.77
494.96	57034.17
495.14	56385.85
495.32	55735.18
495.49	55311.54
495.67	56390.53
495.85	57663.78
496.02	57918.90
496.20	57907.19
496.38	57366.53
496.55	57153.54
496.73	57518.67
496.91	57792.51
497.09	58349.56
497.26	58487.65
497.44	58101.46
497.62	57577.18
497.79	56727.56
497.97	55580.70
498.14	55751.56
498.32	56942.89
498.50	57883.79
498.67	58417.43
498.85	58017.20
499.03	58262.96
499.20	58450.20
499.38	58482.97
499.56	58536.80
499.73	57876.77
499.91	57429.72
500.08	57169.93
500.26	56573.09
500.44	57183.97
500.61	57392.28
500.79	57104.39
500.97	56884.38
501.14	56868.00
501.32	56545.00
501.49	56526.28
501.67	56917.15
501.84	57623.99
502.02	57729.31
502.20	57972.73
502.37	58007.84
502.55	58277.00
502.72	58681.91
502.90	59121.93
503.07	58820.00
503.25	58408.07
503.43	57722.29
503.60	57066.94
503.78	56488.83
503.95	57020.13
504.13	58295.72
504.30	58841.07
504.48	58815.32
504.65	58419.77
504.83	58527.44
505.01	59098.53
505.18	59292.79
505.36	59875.58
505.53	59994.95
505.71	60182.19
505.88	60264.11
506.06	59831.11
506.23	59250.66
506.41	58993.20
506.58	59171.08
506.76	59119.59
506.93	59100.87
507.11	58937.03
507.28	59079.80
507.46	58871.49
507.63	58255.93
507.81	58014.86
507.98	58319.13
508.16	58937.03
508.33	59187.47
508.50	59571.32
508.68	59796.01
508.85	60273.48
509.03	60537.96
509.20	60364.76
509.38	59470.67
509.55	58876.18
509.73	58878.52
509.90	59613.44
510.08	59489.40
510.25	59430.88
510.42	59533.87
510.60	59414.50
510.77	59835.80
510.95	60212.62
511.12	60353.05
511.30	60608.17
511.47	60713.50
511.64	60615.19
511.82	60278.16
511.99	59688.34
512.17	59337.26
512.34	58878.52
512.51	59025.97
512.69	59243.64
512.86	59306.83
513.04	59664.94
513.21	59828.77
513.38	59363.01
513.56	59016.61
513.73	58550.84
513.90	58576.59
514.08	58702.98
514.25	59049.38
514.43	59278.75
514.60	59297.47
514.77	59372.37
514.95	59437.90
515.12	59552.59
515.29	59587.70
515.47	60191.56
515.64	60219.64
515.81	59784.30
515.99	59250.66
516.16	57883.79
516.33	55669.64
516.51	54578.95
516.68	53626.35
516.85	53282.30
517.03	53935.30
517.20	56301.59
517.37	58597.65
517.54	59412.16
517.72	58801.28
517.89	56516.92
518.06	54679.60
518.24	55016.63
518.41	56954.60
518.58	58110.82
518.75	58473.60
518.93	58429.13
519.10	58457.22
519.27	58962.78
519.45	59117.25
519.62	59803.03
519.79	60203.26
519.96	59770.26
520.14	59571.32
520.31	58618.72
520.48	58805.96
520.65	59058.74
520.83	60168.15
521.00	60437.31
521.17	60020.70
521.34	59821.75
521.52	59880.27
521.69	60371.78
521.86	60687.75
522.03	60507.53
522.20	59168.74
522.38	58234.87
522.55	58433.81
522.72	59168.74
522.89	59056.40
523.07	59456.63
523.24	59831.11
523.41	60697.11
523.58	60671.37
523.75	61247.14
523.92	60924.14
524.10	61006.06
524.27	60793.07
524.44	60739.24
524.61	60392.84
524.78	60416.25
524.96	60331.99
525.13	60348.37
525.30	60392.84
525.47	61099.68
525.64	60931.17
525.81	60182.19
525.98	58848.09
526.16	57303.34
526.33	56970.98
526.50	56753.31
526.67	56521.60
526.84	56924.17
527.01	57841.66
527.18	58356.58
527.36	59437.90
527.53	60233.69
527.70	60498.17
527.87	59915.37
528.04	59669.62
528.21	60271.14
528.38	60460.72
528.55	61176.92
528.72	61441.40
528.89	61600.56
529.07	61432.04
529.24	60636.26
529.41	59945.80
529.58	59742.17
529.75	59693.02
529.92	60189.22
530.09	60484.12
530.26	60942.87
530.43	61254.16
530.60	61104.37
530.77	61492.89
530.94	61612.26
531.11	61076.28
531.28	60713.50
531.46	60781.37
531.63	60750.94
531.80	60589.45
531.97	60058.15
532.14	59388.75
532.31	58368.28
532.48	57881.45
532.65	58014.86
532.82	58897.24
532.99	59805.37
533.16	60177.51
533.33	60697.11
533.50	60645.62
533.67	59990.27
533.84	59407.48
534.01	59756.22
534.18	59938.78
534.35	60254.75
534.52	59749.20
534.69	60168.15
534.86	60467.74
535.03	60921.80
535.20	61181.60
535.37	61616.94
535.54	61401.61
535.71	61162.88
535.88	60914.78
536.05	60301.56
536.22	59810.05
536.38	59636.85
536.55	59171.08
536.72	58848.09
536.89	58820.00
537.06	59821.75
537.23	60423.27
537.40	60575.40
537.57	60563.70
537.74	60556.68
537.91	60315.61
538.08	60097.94
538.25	60236.03
538.42	60418.59
538.59	60177.51
538.75	59657.91
538.92	59531.53
539.09	59323.22
539.26	59332.58
539.43	59093.85
539.60	58848.09
539.77	59358.33
539.94	59189.81
540.11	58459.56
540.28	58005.50
540.44	57996.13
540.61	58295.72
540.78	58433.81
540.95	58972.14
541.12	59175.76
541.29	59590.04
541.46	59854.52
541.62	59882.61
541.79	59494.08
541.96	59112.57
542.13	59121.93
542.30	59475.35
542.47	59463.65
542.63	59178.10
542.80	58983.84
542.97	59498.76
543.14	58922.99
543.31	59128.95
543.48	59739.83
543.64	60336.67
543.81	60544.98
543.98	60243.05
544.15	59732.81
544.32	59138.32
544.48	59561.95
544.65	59898.99
544.82	60381.14
544.99	59796.01
545.16	59262.36
545.32	59341.94
545.49	60004.31
545.66	60411.57
545.83	59854.52
546.00	59370.03
546.16	59353.65
546.33	59231.94
546.50	59348.96
546.67	59812.39
546.83	59505.78
547.00	59442.59
547.17	58705.32
547.34	58436.16
547.50	58394.03
547.67	58777.87
547.84	58731.06
548.00	59276.41
548.17	59632.17
548.34	59299.81
548.51	59496.42
548.67	59309.18
548.84	59480.03
549.01	59501.10
549.18	59365.35
549.34	59341.94
549.51	59381.73
549.68	59311.52
549.84	59028.31
550.01	58967.46
550.18	58784.90
550.34	58951.07
550.51	59103.21
550.68	59037.67
550.84	58625.74
551.01	58681.91
551.18	58796.60
551.34	58965.12
551.51	59007.25
551.68	59400.46
551.84	59580.68
552.01	59093.85
552.18	59274.07
552.34	58454.88
552.51	58082.73
552.68	58040.60
552.84	58585.95
553.01	58557.86
553.18	58588.29
553.34	58710.00
553.51	58763.83
553.67	59082.14
553.84	59393.43
554.01	59107.89
554.17	59126.61
554.34	59180.45
554.51	59353.65
554.67	59484.72
554.84	59281.09
555.00	58747.45
555.17	58658.51
555.33	58630.42
555.50	58843.41
555.67	58679.57
555.83	58628.08
556.00	58466.58
556.16	58396.37
556.33	57886.13
556.50	57935.28
556.66	57797.19
556.83	57710.59
556.99	57708.25
557.16	57982.09
557.32	58127.20
557.49	58398.71
557.65	58234.87
557.82	58143.59
557.98	57883.79
558.15	57705.91
558.32	56882.04
558.48	56158.81
558.65	56381.16
558.81	56868.00
558.98	57233.12
559.14	57151.20
559.31	57181.63
559.47	57198.01
559.64	56947.57
559.80	56498.19
559.97	56676.07
560.13	57467.17
560.30	57766.76
560.46	58539.14
560.63	58735.74
560.79	58471.26
560.96	58344.87
561.12	57354.83
561.29	56465.42
561.45	56568.41
561.61	56973.32
561.78	57446.11
561.94	57235.46
562.11	57055.24
562.27	57270.57
562.44	57284.61
562.60	57780.81
562.77	57860.38
562.93	57804.21
563.10	57708.25
563.26	57289.29
563.42	57214.40
563.59	56919.49
563.75	56954.60
563.92	56982.68
564.08	56975.66
564.24	57382.91
564.41	57265.89
564.57	57123.11
564.74	56701.82
564.90	56765.01
565.07	56671.39
565.23	56395.21
565.39	55917.74
565.56	55833.48
565.72	55388.78
565.88	55917.74
566.05	55994.98
566.21	56327.33
566.38	56376.48
566.54	56378.82
566.70	56540.32
566.87	57132.48
567.03	57052.90
567.19	57286.95
567.36	56877.36
567.52	56659.69
567.68	56629.26
567.85	56058.17
568.01	55597.09
568.17	55423.89
568.34	55056.42
568.50	55206.22
568.66	55299.84
568.83	55592.40
568.99	55679.00
569.15	56051.15
569.32	55938.80
569.48	55615.81
569.64	55487.08
569.81	55325.58
569.97	55414.52
570.13	54880.88
570.30	54433.84
570.46	54314.47
570.62	53780.83
570.78	53551.46
570.95	53989.14
571.11	54670.23
571.27	54738.11
571.43	55100.89
571.60	55566.66
571.76	55276.43
571.92	55690.71
572.09	55969.23
572.25	55894.33
572.41	56002.00
572.57	55676.66
572.74	55613.47
572.90	55351.33
573.06	55011.95
573.22	55515.17
573.38	55344.31
573.55	55348.99
573.71	55606.45
573.87	55543.25
574.03	55281.11
574.20	55316.22
574.36	54738.11
574.52	54831.73
574.68	54557.89
574.84	54134.25
575.01	53565.50
575.17	53757.42
575.33	53897.86
575.49	54387.03
575.65	54438.52
575.82	54246.60
575.98	53961.05
576.14	54204.47
576.30	54635.13
576.46	54511.08
576.62	54529.80
576.79	54562.57
576.95	54012.54
577.11	53970.41
577.27	54520.44
577.43	54358.94
577.59	53895.52
577.75	53244.85
577.92	52912.49
578.08	52786.10
578.24	52753.33
578.40	53205.06
578.56	53254.21
578.72	53317.40
578.88	53787.85
579.04	53921.26
579.21	53813.60
579.37	53785.51
579.53	54152.97
579.69	53792.53
579.85	53939.99
580.01	53989.14
580.17	53602.95
580.33	53261.23
580.49	53483.58
580.65	54073.40
580.82	54141.27
580.98	54019.56
581.14	54014.88
581.30	54042.97
581.46	53462.52
581.62	54136.59
581.78	53815.94
581.94	54305.11
582.10	54042.97
582.26	54218.51
582.42	54035.95
582.58	54152.97
582.74	53872.11
582.90	54057.01
583.06	54103.82
583.22	53612.31
583.38	53825.30
583.54	53815.94
583.70	53928.28
583.86	53839.34
584.02	53631.04
584.18	53598.27
584.34	53698.91
584.50	53230.80
584.66	53289.32
584.82	52952.28
584.98	52853.98
585.14	52605.88
585.30	51969.26
