SpectraSuite Data File
++++++++++++++++++++++++++++++++++++
Date: Mon Oct 07 14:54:59 GMT-05:00 2013
User: price-jones
Dark Spectrum Present: No
Reference Spectrum Present: No
Number of Sampled Component Spectra: 1
Spectrometers: USB2+H05261
Integration Time (usec): 10000 (USB2+H05261)
Spectra Averaged: 1 (USB2+H05261)
Boxcar Smoothing: 0 (USB2+H05261)
Correct for Electrical Dark: No (USB2+H05261)
Strobe/Lamp Enabled: No (USB2+H05261)
Correct for Detector Non-linearity: No (USB2+H05261)
Correct for Stray Light: No (USB2+H05261)
Number of Pixels in Processed Spectrum: 2048
>>>>>Begin Processed Spectral Data<<<<<
365.73	0.00
365.92	0.00
366.12	0.00
366.32	0.00
366.52	0.00
366.72	0.00
366.91	0.00
367.11	0.00
367.31	0.00
367.51	0.00
367.70	0.00
367.90	0.00
368.10	0.00
368.30	0.00
368.49	0.00
368.69	0.00
368.89	0.00
369.09	0.00
369.28	0.00
369.48	0.00
369.68	0.00
369.87	0.00
370.07	0.00
370.27	0.00
370.47	0.00
370.66	777.06
370.86	936.21
371.06	1135.16
371.25	1132.82
371.45	952.60
371.65	830.89
371.84	866.00
372.04	908.13
372.24	1029.84
372.44	1149.20
372.63	1062.60
372.83	917.49
373.03	741.95
373.22	763.01
373.42	903.45
373.62	1053.24
373.81	1015.79
374.01	940.90
374.21	922.17
374.40	837.91
374.60	828.55
374.79	1191.33
374.99	1280.27
375.19	1371.55
375.38	1373.89
375.58	1196.01
375.78	1226.44
375.97	1299.00
376.17	1320.06
376.37	1203.04
376.56	1310.70
376.76	1385.60
376.95	1535.39
377.15	1675.82
377.35	1767.10
377.54	1863.07
377.74	1881.79
377.93	1879.45
378.13	1813.92
378.33	1558.80
378.52	1444.11
378.72	1497.94
378.91	1406.66
379.11	1256.87
379.31	1336.45
379.50	1451.13
379.70	1441.77
379.89	1582.20
380.09	1717.95
380.28	1937.96
380.48	1715.61
380.68	1687.53
380.87	1570.50
381.07	1504.96
381.26	1401.98
381.46	1331.76
381.65	1291.98
381.85	1221.76
382.04	1095.37
382.24	1137.50
382.43	1057.92
382.63	961.96
382.83	987.71
383.02	1011.11
383.22	947.92
383.41	1064.94
383.61	1043.88
383.80	1261.55
384.00	1423.05
384.19	1746.04
384.39	1867.75
384.58	1713.27
384.78	1720.29
384.97	1706.25
385.17	1547.09
385.36	1563.48
385.56	1514.33
385.75	1535.39
385.95	1685.19
386.14	1795.19
386.34	1729.66
386.53	1736.68
386.72	1717.95
386.92	1652.42
387.11	1806.89
387.31	1820.94
387.50	1724.97
387.70	1743.70
387.89	1556.46
388.09	1802.21
388.28	1652.42
388.48	1762.42
388.67	1947.33
388.86	2139.25
389.06	2258.62
389.25	2305.43
389.45	2480.97
389.64	2366.28
389.84	2244.57
390.03	2319.47
390.22	2263.30
390.42	2511.39
390.61	2520.76
390.81	2672.89
391.00	2757.15
391.19	2745.45
391.39	2445.86
391.58	2403.73
391.78	2328.83
391.97	2312.45
392.16	2073.71
392.36	1776.47
392.55	1270.91
392.75	1015.79
392.94	875.36
393.13	964.30
393.33	1193.67
393.52	1533.05
393.71	1860.73
393.91	2073.71
394.10	2307.77
394.29	2586.29
394.49	2801.62
394.68	3028.65
394.88	2778.22
395.07	2946.73
395.26	3019.29
395.46	2726.72
395.65	2579.27
395.84	2216.49
396.04	1830.30
396.23	1526.03
396.42	1275.59
396.62	1196.01
396.81	1516.67
397.00	2101.80
397.19	2490.33
397.39	3045.04
397.58	3300.16
397.77	3541.23
397.97	3623.15
398.16	3737.84
398.35	3740.18
398.55	3936.78
398.74	4044.45
398.93	4117.00
399.12	4191.90
399.32	3885.29
399.51	4044.45
399.70	4248.07
399.90	4271.48
400.09	4170.83
400.28	4294.88
400.47	4219.99
400.67	4341.69
400.86	4512.55
401.05	4713.84
401.24	4636.60
401.44	4784.06
401.63	4709.16
401.82	4688.09
402.01	4767.67
402.21	4681.07
402.40	4676.39
402.59	4482.13
402.78	4344.03
402.97	4444.68
403.17	4608.51
403.36	4685.75
403.55	4929.17
403.74	4877.68
403.93	4491.49
404.13	4346.37
404.32	4236.37
404.51	4496.17
404.70	4877.68
404.89	4727.88
405.09	4739.58
405.28	4568.73
405.47	4580.43
405.66	4533.62
405.85	4360.42
406.05	4325.31
406.24	4524.26
406.43	4753.63
406.62	4709.16
406.81	4798.10
407.00	4585.11
407.20	4451.70
407.39	4500.85
407.58	4896.40
407.77	4880.02
407.96	4999.38
408.15	5060.24
408.34	5083.64
408.54	5490.90
408.73	5472.17
408.92	5355.15
409.11	5067.26
409.30	4744.27
409.49	4489.15
409.68	4231.69
409.87	4257.43
410.07	4575.75
410.26	4901.08
410.45	5081.30
410.64	5263.86
410.83	5486.22
411.02	5645.37
411.21	5984.75
411.40	5692.18
411.59	5874.74
411.78	5675.80
411.98	5591.54
412.17	5738.99
412.36	5535.37
412.55	5579.84
412.74	5467.49
412.93	5416.00
413.12	5481.53
413.31	5921.56
413.50	5912.19
413.69	5881.77
413.88	5633.67
414.07	5757.72
414.26	5832.62
414.45	5994.11
414.64	5902.83
414.83	5973.05
415.02	5982.41
415.22	5750.70
415.41	5947.30
415.60	6167.31
415.79	6506.69
415.98	6686.91
416.17	6485.62
416.36	6317.11
416.55	6164.97
416.74	5973.05
416.93	5694.52
417.12	5912.19
417.31	5989.43
417.50	6270.30
417.69	6249.23
417.88	6246.89
418.07	5961.34
418.26	6099.44
418.45	6375.62
418.64	6696.27
418.83	6579.25
419.02	6644.78
419.21	6080.71
419.39	6061.99
419.58	5788.14
419.77	5884.11
419.96	6253.91
420.15	6579.25
420.34	6715.00
420.53	6808.62
420.72	6942.03
420.91	6815.64
421.10	6899.90
421.29	6834.36
421.48	6635.42
421.67	6958.41
421.86	6509.03
422.05	6047.94
422.24	5577.50
422.43	5720.27
422.61	6373.28
422.80	6499.67
422.99	6361.58
423.18	6221.14
423.37	6146.25
423.56	6338.17
423.75	6490.31
423.94	6560.52
424.13	6260.93
424.32	6141.57
424.50	6328.81
424.69	6274.98
424.88	6277.32
425.07	6422.43
425.26	6174.33
425.45	5959.00
425.64	6024.54
425.83	6328.81
426.01	6289.02
426.20	6438.81
426.39	6352.21
426.58	5914.53
426.77	5476.85
426.96	5350.46
427.15	5575.16
427.33	5996.45
427.52	6029.22
427.71	6317.11
427.90	6057.31
428.09	6012.84
428.28	5832.62
428.46	5706.23
428.65	5907.51
428.84	5879.43
429.03	5671.12
429.22	5331.74
429.40	5172.58
429.59	4730.22
429.78	4025.72
429.97	4161.47
430.16	4285.52
430.34	4266.80
430.53	4315.95
430.72	4470.42
430.91	5153.86
431.10	6111.14
431.28	7042.67
431.47	7337.58
431.66	7276.73
431.85	6459.88
432.03	5975.39
432.22	5856.02
432.41	6263.27
432.60	6869.47
432.79	7297.79
432.97	7211.19
433.16	6623.72
433.35	6179.01
433.54	5827.93
433.72	5551.75
433.91	5530.69
434.10	6384.98
434.28	6911.60
434.47	7087.14
434.66	6806.28
434.85	7005.22
435.03	6878.83
435.22	6932.67
435.41	7260.34
435.59	7318.86
435.78	7541.21
435.97	7470.99
436.16	7529.50
436.34	7487.37
436.53	7351.62
436.72	7590.36
436.90	6902.24
437.09	6942.03
437.28	6899.90
437.46	7206.51
437.65	6920.96
437.84	6314.77
438.02	6251.57
438.21	6174.33
438.40	6326.47
438.58	6892.88
438.77	7098.84
438.96	7389.07
439.14	7499.08
439.33	7503.76
439.52	7660.57
439.70	7358.64
439.89	7236.94
440.08	6970.12
440.26	7119.91
440.45	7375.03
440.63	7829.09
440.82	8344.01
441.01	8133.36
441.19	8184.85
441.38	8187.19
441.57	8557.00
441.75	8276.13
441.94	8512.53
442.12	8344.01
442.31	8580.40
442.50	8723.18
442.68	8636.58
442.87	8290.18
443.05	8407.20
443.24	8720.84
443.43	8699.77
443.61	8889.35
443.80	9067.24
443.98	8161.45
444.17	8479.76
444.35	8706.79
444.54	8884.67
444.73	8912.76
444.91	8400.18
445.10	8203.58
445.28	7815.05
445.47	7585.68
445.65	7695.68
445.84	7976.55
446.02	8325.29
446.21	8578.06
446.39	8402.52
446.58	8458.70
446.77	8500.83
446.95	8540.61
447.14	9114.05
447.32	9191.28
447.51	8690.41
447.69	8320.60
447.88	8142.72
448.06	8524.23
448.25	8613.17
448.43	8753.60
448.62	8645.94
448.80	8540.61
448.99	8716.16
449.17	8699.77
449.36	8683.39
449.54	9100.00
449.73	9027.45
449.91	9142.13
450.10	9551.73
450.28	9760.03
450.46	9518.96
450.65	9607.90
450.83	9310.65
451.02	9298.95
451.20	9369.16
451.39	9130.43
451.57	9252.14
451.76	9184.26
451.94	9029.79
452.13	8872.97
452.31	8454.02
452.49	8114.64
452.68	8222.30
452.86	8051.44
453.05	8430.61
453.23	8844.88
453.42	8936.17
453.60	9076.60
453.78	8936.17
453.97	8901.06
454.15	8788.71
454.34	8648.28
454.52	8718.50
454.70	8465.72
454.89	8657.64
455.07	8777.01
455.26	9013.40
455.44	9315.33
455.62	9394.91
455.81	9453.42
455.99	9289.59
456.17	9242.78
456.36	9415.98
456.54	9415.98
456.73	9369.16
456.91	9523.64
457.09	9507.26
457.28	9809.19
457.46	9359.80
457.64	9172.56
457.83	8891.70
458.01	8699.77
458.19	9139.79
458.38	9214.69
458.56	9502.58
458.74	9423.00
458.93	9214.69
459.11	9160.86
459.29	9301.29
459.48	9212.35
459.66	9107.02
459.84	9275.54
460.03	9355.12
460.21	9437.04
460.39	9661.73
460.57	9647.69
460.76	9696.84
460.94	9717.90
461.12	9570.45
461.31	9334.06
461.49	9495.55
461.67	9650.03
461.85	9774.08
462.04	9671.09
462.22	9572.79
462.40	9511.94
462.59	9570.45
462.77	9490.87
462.95	9804.50
463.13	9834.93
463.32	9376.19
463.50	9135.11
463.68	9448.74
463.86	9172.56
464.05	9296.61
464.23	8926.80
464.41	9036.81
464.59	9205.33
464.78	9345.76
464.96	9200.65
465.14	9219.37
465.32	9530.66
465.50	9717.90
465.69	9856.00
465.87	9401.93
466.05	8945.53
466.23	8702.11
466.41	8554.66
466.60	9144.47
466.78	8975.95
466.96	9114.05
467.14	9081.28
467.32	9294.27
467.51	9210.01
467.69	8896.38
467.87	8760.63
468.05	9320.01
468.23	9104.68
468.41	9444.06
468.60	9116.39
468.78	9095.32
468.96	9170.22
469.14	9542.36
469.32	9507.26
469.50	8884.67
469.69	8968.93
469.87	8784.03
470.05	8844.88
470.23	8947.87
470.41	8964.25
470.59	9006.38
470.77	9036.81
470.95	9226.39
471.14	9315.33
471.32	9427.68
471.50	9848.97
471.68	9823.23
471.86	9970.68
472.04	9870.04
472.22	10012.81
472.40	9748.33
472.58	9530.66
472.77	9240.44
472.95	9563.43
473.13	9682.80
473.31	9516.62
473.49	9458.10
473.67	9795.14
473.85	9888.76
474.03	10228.14
474.21	9998.77
474.39	10139.20
474.57	10146.22
474.75	10174.31
474.93	10101.75
475.12	9872.38
475.30	9886.42
475.48	10012.81
475.66	9617.26
475.84	9687.48
476.02	9837.27
476.20	9741.31
476.38	9841.95
476.56	10136.86
476.74	10457.51
476.92	10335.81
477.10	10560.50
477.28	10906.90
477.46	10668.16
477.64	10853.06
477.82	10855.40
478.00	11073.07
478.18	10607.31
478.36	10497.30
478.54	10761.78
478.72	10705.61
478.90	11066.05
479.08	11321.17
479.26	11330.53
479.44	11295.43
479.62	11070.73
479.80	11049.67
479.98	11316.49
480.16	11112.86
480.34	11166.70
480.52	11370.32
480.70	11524.80
480.88	11496.71
481.06	11815.02
481.24	11709.70
481.41	12142.70
481.59	12154.40
481.77	11543.52
481.95	11812.68
482.13	12149.72
482.31	11906.31
482.49	12126.32
482.67	12168.45
482.85	12016.31
483.03	12219.94
483.21	12533.57
483.39	12217.60
483.57	12252.70
483.74	12255.04
483.92	12231.64
484.10	12121.63
484.28	12374.41
484.46	12512.50
484.64	12430.59
484.82	12203.55
485.00	11894.60
485.18	11538.84
485.35	11602.04
485.53	10326.44
485.71	9682.80
485.89	9769.40
486.07	10422.41
486.25	11159.67
486.43	11508.41
486.61	11885.24
486.78	11765.87
486.96	11925.03
487.14	12432.93
487.32	12566.34
487.50	13107.00
487.68	13219.35
487.85	13020.40
488.03	13350.42
488.21	13177.22
488.39	13043.81
488.57	12730.17
488.75	12851.88
488.92	13156.15
489.10	14134.50
489.28	14450.47
489.46	14422.38
489.64	14396.64
489.81	14829.63
489.99	14242.16
490.17	14331.10
490.35	15161.99
490.53	14586.22
490.70	14225.78
490.88	14375.57
491.06	15255.61
491.24	14724.31
491.41	13820.86
491.59	13280.20
491.77	13200.62
491.95	13769.37
492.13	13837.25
492.30	14537.07
492.48	15208.80
492.66	15374.98
492.84	15138.58
493.01	15089.43
493.19	14483.24
493.37	14604.94
493.54	14490.26
493.72	14984.11
493.90	15456.90
494.08	15646.48
494.25	15410.09
494.43	16194.17
494.61	16678.66
494.79	16472.69
494.96	16425.88
495.14	15459.24
495.32	14965.39
495.49	15147.95
495.67	15719.04
495.85	16311.19
496.02	16505.46
496.20	16051.39
496.38	15950.75
496.55	15775.21
496.73	15971.82
496.91	16669.30
497.09	16943.14
497.26	16627.17
497.44	16198.85
497.62	15882.88
497.79	15449.88
497.97	15049.64
498.14	15407.75
498.32	15913.30
498.50	15908.62
498.67	16545.25
498.85	16655.25
499.03	16327.58
499.20	16503.12
499.38	16259.70
499.56	16542.91
499.73	16177.78
499.91	16006.92
500.08	15962.45
500.26	15342.21
500.44	15943.73
500.61	15976.50
500.79	15770.53
500.97	15463.92
501.14	15466.26
501.32	15307.10
501.49	15623.08
501.67	15712.02
501.84	15936.71
502.02	15969.48
502.20	16128.63
502.37	15929.69
502.55	16257.36
502.72	16439.92
502.90	16755.90
503.07	16503.12
503.25	16257.36
503.43	15358.60
503.60	14846.02
503.78	15009.86
503.95	14895.17
504.13	16013.95
504.30	16369.71
504.48	16439.92
504.65	16042.03
504.83	16095.86
505.01	16570.99
505.18	16938.46
505.36	17537.63
505.53	17376.14
505.71	17198.26
505.88	16938.46
506.06	16886.97
506.23	16819.09
506.41	16180.12
506.58	16542.91
506.76	16421.20
506.93	16643.55
507.11	16226.93
507.28	16285.45
507.46	16025.65
507.63	15768.19
507.81	15571.58
507.98	16042.03
508.16	16067.78
508.33	16049.05
508.50	16865.90
508.68	16807.39
508.85	16996.97
509.03	17305.92
509.20	17153.79
509.38	16409.50
509.55	15913.30
509.73	15953.09
509.90	16259.70
510.08	16400.13
510.25	15941.39
510.42	15793.94
510.60	16570.99
510.77	16430.56
510.95	16760.58
511.12	16673.98
511.30	16725.47
511.47	17263.79
511.64	17025.06
511.82	16704.40
511.99	15859.47
512.17	16009.26
512.34	16025.65
512.51	15992.88
512.69	15791.59
512.86	15929.69
513.04	16460.99
513.21	16215.23
513.38	16208.21
513.56	15597.33
513.73	15204.12
513.90	15428.81
514.08	15206.46
514.25	15468.60
514.43	16056.08
514.60	16212.89
514.77	15903.94
514.95	16236.30
515.12	15969.48
515.29	16353.32
515.47	16231.62
515.64	16435.24
515.81	16692.70
515.99	15906.28
516.16	15098.80
516.33	13593.83
516.51	13008.70
516.68	12638.89
516.85	12404.84
517.03	12695.07
517.20	13788.10
517.37	15208.80
517.54	15721.38
517.72	15105.82
517.89	13909.80
518.06	12929.12
518.24	13467.44
518.41	14349.82
518.58	14956.02
518.75	15019.22
518.93	15199.44
519.10	15220.50
519.27	15602.01
519.45	15882.88
519.62	15520.09
519.79	15920.32
519.96	15997.56
520.14	15370.30
520.31	14958.36
520.48	14820.27
520.65	15379.66
520.83	15564.56
521.00	16081.82
521.17	15800.96
521.34	15688.61
521.52	15660.52
521.69	16390.77
521.86	15850.11
522.03	15873.51
522.20	15108.16
522.38	14780.48
522.55	15063.69
522.72	15222.84
522.89	14939.64
523.07	15641.80
523.24	15826.70
523.41	16137.99
523.58	16105.23
523.75	16203.53
523.92	16327.58
524.10	16814.41
524.27	16184.80
524.44	16042.03
524.61	15815.00
524.78	15782.23
524.96	15634.78
525.13	15777.55
525.30	16233.96
525.47	16311.19
525.64	15925.00
525.81	15396.04
525.98	14354.51
526.16	13738.94
526.33	13420.63
526.50	13495.53
526.67	13495.53
526.84	13961.30
527.01	14511.32
527.18	14679.84
527.36	15318.81
527.53	15822.02
527.70	15566.90
527.87	15250.93
528.04	15220.50
528.21	15330.51
528.38	16414.18
528.55	16404.81
528.72	16023.31
528.89	16159.06
529.07	16123.95
529.24	15676.91
529.41	15115.18
529.58	15047.30
529.75	15040.28
529.92	15590.31
530.09	15279.02
530.26	15555.20
530.43	15618.39
530.60	15950.75
530.77	16498.44
530.94	15751.81
531.11	15740.10
531.28	15620.74
531.46	15023.90
531.63	15447.54
531.80	15578.61
531.97	15129.22
532.14	14616.65
532.31	13830.23
532.48	13895.76
532.65	14085.34
532.82	14768.78
532.99	15218.16
533.16	15290.72
533.33	15658.18
533.50	14981.77
533.67	14813.25
533.84	14792.19
534.01	14728.99
534.18	15012.20
534.35	14553.45
534.52	14462.17
534.69	15220.50
534.86	15222.84
535.03	15817.34
535.20	15536.48
535.37	15332.85
535.54	15499.03
535.71	15503.71
535.88	15683.93
536.05	15154.97
536.22	15293.06
536.38	14597.92
536.55	14185.99
536.72	14398.98
536.89	14523.02
537.06	14424.72
537.23	14693.88
537.40	15124.54
537.57	15164.33
537.74	14731.33
537.91	14766.44
538.08	15075.39
538.25	14686.86
538.42	14782.82
538.59	14600.26
538.75	14408.34
538.92	14188.33
539.09	13975.34
539.26	13500.21
539.43	13951.93
539.60	13598.51
539.77	13755.33
539.94	13750.65
540.11	13387.86
540.28	13270.84
540.44	13282.54
540.61	13713.20
540.78	13617.24
540.95	14064.28
541.12	14295.99
541.29	14221.10
541.46	14047.90
541.62	14223.44
541.79	13797.46
541.96	13708.52
542.13	13907.46
542.30	14242.16
542.47	14118.11
542.63	13502.55
542.80	13434.68
542.97	13437.02
543.14	13771.71
543.31	13542.34
543.48	13446.38
543.64	14169.60
543.81	14155.56
543.98	14225.78
544.15	13795.12
544.32	13713.20
544.48	13980.02
544.65	13783.41
544.82	13696.82
544.99	13556.38
545.16	13895.76
545.32	13521.27
545.49	14228.12
545.66	14527.71
545.83	14497.28
546.00	14052.58
546.16	13738.94
546.33	13970.66
546.50	13963.64
546.67	14448.13
546.83	13919.17
547.00	14033.85
547.17	13724.90
547.34	13240.41
547.50	13411.27
547.67	13411.27
547.84	13390.20
548.00	13654.69
548.17	13568.09
548.34	13502.55
548.51	13549.36
548.67	13834.91
548.84	14221.10
549.01	14003.43
549.18	13591.49
549.34	13879.38
549.51	13652.34
549.68	13668.73
549.84	13722.56
550.01	13516.59
550.18	13518.93
550.34	13369.14
550.51	13013.38
550.68	13102.32
550.84	12912.74
551.01	13270.84
551.18	13291.90
551.34	13055.51
551.51	13090.62
551.68	13352.76
551.84	13284.88
552.01	13638.30
552.18	12924.44
552.34	12835.50
552.51	12697.41
552.68	12723.15
552.84	12716.13
553.01	13102.32
553.18	13378.50
553.34	12985.29
553.51	13053.17
553.67	12730.17
553.84	13198.28
554.01	12821.45
554.17	13076.57
554.34	13254.45
554.51	13612.56
554.67	13177.22
554.84	13238.07
555.00	13235.73
555.17	13104.66
555.33	13518.93
555.50	13324.67
555.67	13238.07
555.83	12795.71
556.00	12861.24
556.16	12671.66
556.33	12624.85
556.50	12383.77
556.66	12114.61
556.83	12095.89
556.99	12175.47
557.16	12489.10
557.32	12477.40
557.49	12828.48
557.65	12709.11
557.82	12484.42
557.98	12400.16
558.15	12400.16
558.32	12011.63
558.48	11634.80
558.65	11674.59
558.81	11716.72
558.98	11845.45
559.14	12189.51
559.31	12196.53
559.47	11864.18
559.64	11705.02
559.80	11723.74
559.97	11939.07
560.13	12208.23
560.30	12737.20
560.46	13083.59
560.63	13144.45
560.79	13008.70
560.96	12423.56
561.12	12173.13
561.29	11576.29
561.45	11602.04
561.61	11761.19
561.78	11990.56
561.94	11793.96
562.11	11955.46
562.27	11971.84
562.44	12170.79
562.60	11943.75
562.77	12205.89
562.93	12060.78
563.10	12311.22
563.26	11576.29
563.42	11618.42
563.59	11744.81
563.75	11698.00
563.92	12161.42
564.08	11763.53
564.24	11698.00
564.41	11679.27
564.57	11875.88
564.74	11698.00
564.90	11606.72
565.07	11433.52
565.23	11300.11
565.39	11082.44
565.56	11042.65
565.72	11147.97
565.88	11250.96
566.05	11513.10
566.21	11028.60
566.38	11246.27
566.54	11342.24
566.70	11276.70
566.87	11578.63
567.03	11667.57
567.19	11812.68
567.36	11407.77
567.52	11613.74
567.68	11534.16
567.85	11304.79
568.01	10785.19
568.17	10651.78
568.34	10724.33
568.50	10815.62
568.66	10513.69
568.83	10771.15
568.99	11030.94
569.15	10679.86
569.32	10792.21
569.48	11124.57
569.64	10927.96
569.81	10972.43
569.97	10679.86
570.13	10789.87
570.30	10541.77
570.46	10361.55
570.62	10068.98
570.78	9987.07
570.95	9977.70
571.11	10700.93
571.27	10588.58
571.43	10707.95
571.60	10707.95
571.76	10630.71
571.92	10731.36
572.09	10780.51
572.25	10675.18
572.41	11014.56
572.57	10878.81
572.74	10597.95
572.90	10534.75
573.06	10551.14
573.22	10925.62
573.38	10986.47
573.55	10558.16
573.71	10740.72
573.87	10853.06
574.03	10885.83
574.20	10537.09
574.36	10492.62
574.52	10331.12
574.68	10373.25
574.84	9937.91
575.01	9799.82
575.17	10171.97
575.33	9980.04
575.49	10010.47
575.65	10157.92
575.82	9909.83
575.98	10071.33
576.14	10078.35
576.30	9975.36
576.46	9848.97
576.62	10150.90
576.79	10200.05
576.95	9870.04
577.11	10097.07
577.27	9994.09
577.43	9991.75
577.59	10001.11
577.75	10078.35
577.92	9755.35
578.08	9699.18
578.24	9603.22
578.40	9825.57
578.56	9621.94
578.72	9530.66
578.88	9593.86
579.04	9750.67
579.21	9802.16
579.37	9788.12
579.53	9699.18
579.69	9554.07
579.85	9394.91
580.01	9635.99
580.17	9497.89
580.33	9675.77
580.49	9853.66
580.65	9530.66
580.82	9743.65
580.98	9584.49
581.14	9633.64
581.30	9914.51
581.46	9881.74
581.62	10108.77
581.78	10178.99
581.94	10314.74
582.10	9832.59
582.26	9851.31
582.42	9682.80
582.58	10012.81
582.74	9998.77
582.90	10010.47
583.06	10361.55
583.22	9958.98
583.38	9858.34
583.54	9958.98
583.70	9928.55
583.86	9947.28
584.02	10057.28
584.18	9841.95
584.34	9785.78
584.50	10045.58
584.66	9928.55
584.82	9635.99
584.98	9460.45
585.14	9542.36
585.30	9226.39
585.46	9238.09
585.62	8994.68
585.78	9320.01
585.94	9170.22
586.10	9291.93
586.26	9631.30
586.42	9420.66
586.58	9385.55
586.74	9434.70
586.90	9191.28
587.06	9261.50
587.22	9022.77
587.38	9092.98
587.54	8795.73
587.70	8931.48
587.86	8868.29
588.02	9018.08
588.18	8559.34
588.34	8355.71
588.49	8142.72
588.65	7559.93
588.81	7456.95
588.97	7662.91
589.13	7768.24
589.29	7698.02
589.45	7756.54
589.61	8025.70
589.77	8355.71
589.93	8477.42
590.08	8589.77
590.24	8980.64
590.40	8734.88
