SpectraSuite Data File
++++++++++++++++++++++++++++++++++++
Date: Mon Oct 07 14:54:57 GMT-05:00 2013
User: price-jones
Dark Spectrum Present: No
Reference Spectrum Present: No
Number of Sampled Component Spectra: 1
Spectrometers: USB2+H05261
Integration Time (usec): 10000 (USB2+H05261)
Spectra Averaged: 1 (USB2+H05261)
Boxcar Smoothing: 0 (USB2+H05261)
Correct for Electrical Dark: No (USB2+H05261)
Strobe/Lamp Enabled: No (USB2+H05261)
Correct for Detector Non-linearity: No (USB2+H05261)
Correct for Stray Light: No (USB2+H05261)
Number of Pixels in Processed Spectrum: 2048
>>>>>Begin Processed Spectral Data<<<<<
365.73	0.00
365.92	0.00
366.12	0.00
366.32	0.00
366.52	0.00
366.72	0.00
366.91	0.00
367.11	0.00
367.31	0.00
367.51	0.00
367.70	0.00
367.90	0.00
368.10	0.00
368.30	0.00
368.49	0.00
368.69	0.00
368.89	0.00
369.09	0.00
369.28	0.00
369.48	0.00
369.68	0.00
369.87	0.00
370.07	0.00
370.27	0.00
370.47	210.65
370.66	1661.78
370.86	2106.48
371.06	2181.38
371.25	2127.55
371.45	1886.47
371.65	1753.06
371.84	1624.33
372.04	1832.64
372.24	1954.35
372.44	1994.14
372.63	1966.05
372.83	1724.97
373.03	1643.06
373.22	1481.56
373.42	1664.12
373.62	1860.73
373.81	1973.07
374.01	1825.62
374.21	1703.91
374.40	1563.48
374.60	1734.34
374.79	2040.95
374.99	2396.71
375.19	2389.69
375.38	2408.41
375.58	2347.56
375.78	2298.41
375.97	2284.36
376.17	2377.98
376.37	2377.98
376.56	2464.58
376.76	2715.02
376.95	2726.72
377.15	3063.76
377.35	3052.06
377.54	3344.63
377.74	3435.91
377.93	3386.76
378.13	3169.09
378.33	3019.29
378.52	2750.13
378.72	2583.95
378.91	2560.55
379.11	2539.48
379.31	2431.82
379.50	2530.12
379.70	2726.72
379.89	3049.72
380.09	3124.62
380.28	3269.73
380.48	3290.79
380.68	3016.95
380.87	3021.63
381.07	2675.23
381.26	2513.74
381.46	2473.95
381.65	2417.77
381.85	2251.60
382.04	2057.33
382.24	1872.43
382.43	1970.73
382.63	1881.79
382.83	1818.60
383.02	1987.11
383.22	1930.94
383.41	2024.56
383.61	2150.95
383.80	2420.11
384.00	2729.06
384.19	3012.27
384.39	3243.98
384.58	3190.15
384.78	3143.34
384.97	3007.59
385.17	2902.26
385.36	2801.62
385.56	2719.70
385.75	2848.43
385.95	2963.12
386.14	3307.18
386.34	3272.07
386.53	3016.95
386.72	2923.33
386.92	3026.31
387.11	3304.84
387.31	3218.24
387.50	3087.17
387.70	3155.04
387.89	3239.30
388.09	3122.27
388.28	3213.56
388.48	3234.62
388.67	3538.89
388.86	3936.78
389.06	4046.79
389.25	4311.27
389.45	4374.46
389.64	4257.43
389.84	4126.36
390.03	4142.75
390.22	4201.26
390.42	4423.61
390.61	4620.22
390.81	4954.91
391.00	5053.22
391.19	4905.76
391.39	4819.16
391.58	4327.65
391.78	4161.47
391.97	3817.41
392.16	3723.79
392.36	3225.26
392.55	2534.80
392.75	2040.95
392.94	1710.93
393.13	1804.55
393.33	2172.02
393.52	2794.60
393.71	3417.18
393.91	3817.41
394.10	4210.62
394.29	4498.51
394.49	4954.91
394.68	5376.21
394.88	5179.61
395.07	5504.94
395.26	5383.23
395.46	5165.56
395.65	4676.39
395.84	4105.30
396.04	3426.54
396.23	2619.06
396.42	2438.84
396.62	2480.97
396.81	3073.12
397.00	3845.50
397.19	4657.67
397.39	5540.05
397.58	6190.72
397.77	6438.81
397.97	6558.18
398.16	6726.70
398.35	6930.33
398.55	7045.01
398.74	7576.31
398.93	7681.64
399.12	7688.66
399.32	7424.18
399.51	7297.79
399.70	7995.27
399.90	7632.49
400.09	7637.17
400.28	7672.28
400.47	7831.43
400.67	8306.56
400.86	8407.20
401.05	8170.81
401.24	8320.60
401.44	8594.45
401.63	8411.89
401.82	8575.72
402.01	8643.60
402.21	8819.14
402.40	8629.56
402.59	8329.97
402.78	7733.13
402.97	7911.01
403.17	8182.51
403.36	8465.72
403.55	8706.79
403.74	8840.20
403.93	8163.79
404.13	7798.66
404.32	7906.33
404.51	8344.01
404.70	8781.69
404.89	8781.69
405.09	8561.68
405.28	8456.36
405.47	8514.87
405.66	8465.72
405.85	8067.83
406.05	8145.06
406.24	8112.30
406.43	8308.90
406.62	8573.38
406.81	8847.22
407.00	8400.18
407.20	8238.69
407.39	8376.78
407.58	8872.97
407.77	9240.44
407.96	9343.42
408.15	9242.78
408.34	9561.09
408.54	9806.84
408.73	9921.53
408.92	9792.80
409.11	9366.82
409.30	8779.35
409.49	8182.51
409.68	7929.74
409.87	8021.02
410.07	8519.55
410.26	9095.32
410.45	9242.78
410.64	9631.30
410.83	10139.20
411.02	10073.67
411.21	10574.54
411.40	10097.07
411.59	10597.95
411.78	10476.24
411.98	10359.21
412.17	10218.78
412.36	10216.44
412.55	10368.57
412.74	9982.38
412.93	9729.61
413.12	9987.07
413.31	10977.11
413.50	11033.29
413.69	10906.90
413.88	10361.55
414.07	10647.10
414.26	10892.85
414.45	11232.23
414.64	10881.15
414.83	11044.99
415.02	10984.13
415.22	10991.16
415.41	11103.50
415.60	11733.11
415.79	11927.37
415.98	12116.95
416.17	11992.90
416.36	11700.34
416.55	11442.88
416.74	11112.86
416.93	10604.97
417.12	10974.77
417.31	11442.88
417.50	11335.21
417.69	11648.85
417.88	11456.92
418.07	11293.08
418.26	11269.68
418.45	11648.85
418.64	11847.79
418.83	12311.22
419.02	11939.07
419.21	11492.03
419.39	11150.31
419.58	10600.29
419.77	11005.20
419.96	11662.89
420.15	12140.36
420.34	12664.64
420.53	12741.88
420.72	12968.91
420.91	12727.83
421.10	12559.31
421.29	12741.88
421.48	12428.24
421.67	12826.14
421.86	12016.31
422.05	11283.72
422.24	10429.43
422.43	10855.40
422.61	12056.10
422.80	12269.09
422.99	12390.80
423.18	11906.31
423.37	11709.70
423.56	11913.33
423.75	12058.44
423.94	12442.29
424.13	11417.13
424.32	11281.38
424.50	11555.22
424.69	11653.53
424.88	11786.94
425.07	11793.96
425.26	11667.57
425.45	11307.13
425.64	11260.32
425.83	11477.99
426.01	12002.27
426.20	12152.06
426.39	11435.86
426.58	10916.26
426.77	10504.32
426.96	10139.20
427.15	10729.02
427.33	11595.01
427.52	11492.03
427.71	11644.17
427.90	11367.98
428.09	11384.37
428.28	11094.14
428.46	10759.44
428.65	10759.44
428.84	11171.38
429.03	11063.71
429.22	10389.64
429.40	9846.63
429.59	8905.74
429.78	8049.10
429.97	7990.59
430.16	8067.83
430.34	8215.28
430.53	8280.82
430.72	8397.84
430.91	9738.97
431.10	11714.38
431.28	13224.03
431.47	14164.92
431.66	13565.74
431.85	12175.47
432.03	11218.19
432.22	11501.39
432.41	12156.74
432.60	13217.01
432.79	13523.62
432.97	13767.03
433.16	12933.80
433.35	11604.38
433.54	10609.65
433.72	10256.23
433.91	10979.45
434.10	12170.79
434.28	13104.66
434.47	13509.57
434.66	12807.41
434.85	12812.09
435.03	13097.64
435.22	13067.21
435.41	13830.23
435.59	14033.85
435.78	14312.38
435.97	14487.92
436.16	14560.47
436.34	14408.34
436.53	14101.73
436.72	14092.37
436.90	13081.25
437.09	13397.23
437.28	13153.81
437.46	13247.43
437.65	12943.16
437.84	12241.00
438.02	11644.17
438.21	11971.84
438.40	12315.90
438.58	13238.07
438.77	13350.42
438.96	13591.49
439.14	14335.78
439.33	14132.15
439.52	14415.36
439.70	14300.67
439.89	14050.24
440.08	13832.57
440.26	14122.79
440.45	14225.78
440.63	15037.94
440.82	15868.83
441.01	15295.40
441.19	15594.99
441.38	15932.03
441.57	16135.65
441.75	16285.45
441.94	16566.31
442.12	16531.20
442.31	16978.25
442.50	16861.22
442.68	16453.97
442.87	16142.67
443.05	16322.90
443.24	16622.48
443.43	17097.61
443.61	17193.58
443.80	17706.15
443.98	16231.62
444.17	16147.36
444.35	17238.05
444.54	17280.18
444.73	17406.56
444.91	15992.88
445.10	15843.09
445.28	15267.31
445.47	14829.63
445.65	14864.74
445.84	15377.32
446.02	15969.48
446.21	16615.46
446.39	16278.43
446.58	16695.04
446.77	16840.15
446.95	17029.74
447.14	17591.47
447.32	17879.35
447.51	16844.84
447.69	16215.23
447.88	16360.34
448.06	16676.32
448.25	17142.08
448.43	17153.79
448.62	16685.68
448.80	16498.44
448.99	16819.09
449.17	16390.77
449.36	17064.85
449.54	17600.83
449.73	17785.73
449.91	18457.46
450.10	18513.64
450.28	18848.33
450.46	18324.05
450.65	18817.91
450.83	17958.93
451.02	18122.77
451.20	18127.45
451.39	18127.45
451.57	18216.39
451.76	18122.77
451.94	17411.25
452.13	17025.06
452.31	16404.81
452.49	15761.17
452.68	16032.67
452.86	15864.15
453.05	16978.25
453.23	17511.89
453.42	17422.95
453.60	17532.95
453.78	17909.78
453.97	17502.53
454.15	17413.59
454.34	17158.47
454.52	17132.72
454.70	16842.50
454.89	16854.20
455.07	16964.20
455.26	17757.64
455.44	18113.41
455.62	18518.32
455.81	18319.37
455.99	17713.17
456.17	18366.18
456.36	18630.66
456.54	18822.59
456.73	18487.89
456.91	19159.63
457.09	19030.90
457.28	19002.81
457.46	18361.50
457.64	18242.14
457.83	17792.75
458.01	17495.50
458.19	18478.53
458.38	18403.63
458.56	18637.69
458.74	18941.96
458.93	18422.36
459.11	18073.62
459.29	17687.43
459.48	18338.10
459.66	17956.59
459.84	18029.15
460.03	18068.94
460.21	18328.74
460.39	19248.57
460.57	18937.27
460.76	19349.21
460.94	19459.21
461.12	18860.04
461.31	19007.49
461.49	19145.58
461.67	19105.79
461.85	20079.46
462.04	19405.38
462.22	19716.67
462.40	19503.68
462.59	19800.93
462.77	19552.84
462.95	19262.61
463.13	18925.57
463.32	18897.49
463.50	18562.79
463.68	18810.89
463.86	18956.00
464.05	18609.60
464.23	17984.68
464.41	18480.87
464.59	18410.65
464.78	18785.14
464.96	18752.37
465.14	18668.11
465.32	19501.34
465.50	19840.72
465.69	19445.17
465.87	18841.31
466.05	18253.84
466.23	17675.73
466.41	17287.20
466.60	18192.98
466.78	18090.00
466.96	18342.78
467.14	18401.29
467.32	18937.27
467.51	18539.38
467.69	17942.55
467.87	18080.64
468.05	18817.91
468.23	18869.40
468.41	18787.48
468.60	18647.05
468.78	18679.82
468.96	18235.11
469.14	19171.33
469.32	18941.96
469.50	17972.97
469.69	17858.29
469.87	17418.27
470.05	18118.09
470.23	18050.21
470.41	18515.98
470.59	18803.86
470.77	18724.29
470.95	18768.76
471.14	18848.33
471.32	18661.09
471.50	19934.34
471.68	20016.26
471.86	20168.40
472.04	19985.83
472.22	20327.55
472.40	19054.30
472.58	19073.03
472.77	18710.24
472.95	19405.38
473.13	20037.33
473.31	19501.34
473.49	19583.26
473.67	20245.63
473.85	19800.93
474.03	20561.61
474.21	20098.18
474.39	20205.84
474.57	21088.23
474.75	20889.28
474.93	20704.38
475.12	20645.87
475.30	20559.27
475.48	20556.93
475.66	21095.25
475.84	20222.23
476.02	19885.19
476.20	19770.51
476.38	20575.65
476.56	21158.44
476.74	21116.31
476.92	21333.98
477.10	22162.53
477.28	22368.50
477.46	22143.81
477.64	22593.19
477.82	22628.30
478.00	23103.43
478.18	22164.87
478.36	22167.21
478.54	22164.87
478.72	22588.51
478.90	23288.33
479.08	23861.76
479.26	23594.94
479.44	23323.44
479.62	22941.93
479.80	23063.64
479.98	22829.59
480.16	23363.23
480.34	23246.20
480.52	23669.84
480.70	23697.92
480.88	24411.79
481.06	25418.22
481.24	24936.07
481.41	25137.35
481.59	25652.27
481.77	24449.24
481.95	24718.40
482.13	24683.29
482.31	25195.87
482.49	25530.56
482.67	24933.73
482.85	24842.45
483.03	25397.15
483.21	25778.66
483.39	25432.26
483.57	25092.88
483.74	25319.92
483.92	25153.74
484.10	25392.47
484.28	26113.36
484.46	26169.53
484.64	26209.32
484.82	25369.07
485.00	25340.98
485.18	24730.10
485.35	23871.12
485.53	21322.28
485.71	20187.12
485.89	20783.96
486.07	22026.78
486.25	23510.68
486.43	24535.84
486.61	24135.60
486.78	24737.12
486.96	25263.74
487.14	26714.87
487.32	26813.18
487.50	27763.43
487.68	27510.66
487.85	27590.24
488.03	27604.28
488.21	27466.19
488.39	26771.05
488.57	26780.41
488.75	27241.50
488.92	28650.50
489.10	30354.41
489.28	30480.80
489.46	30817.83
489.64	30518.25
489.81	30941.88
489.99	30323.98
490.17	30426.96
490.35	31424.03
490.53	31159.55
490.70	30611.87
490.88	30859.96
491.06	32472.59
491.24	30689.10
491.41	28687.95
491.59	28095.79
491.77	27978.76
491.95	29284.78
492.13	30022.05
492.30	31208.70
492.48	32505.36
492.66	33411.15
492.84	32381.31
493.01	31061.25
493.19	31058.91
493.37	31239.13
493.54	31152.53
493.72	32723.03
493.90	33642.86
494.08	34164.80
494.25	34298.21
494.43	34431.62
494.61	35166.55
494.79	35503.59
494.96	35138.46
495.14	33432.21
495.32	32795.59
495.49	32868.14
495.67	33556.26
495.85	35215.70
496.02	35496.56
496.20	34604.82
496.38	33806.70
496.55	33088.15
496.73	34906.75
496.91	35466.14
497.09	36030.21
497.26	34778.02
497.44	35342.09
497.62	34476.09
497.79	32868.14
497.97	31583.19
498.14	32760.48
498.32	34279.49
498.50	34265.44
498.67	36114.47
498.85	35269.53
499.03	35035.48
499.20	35840.62
499.38	35178.25
499.56	35161.87
499.73	35248.47
499.91	34295.87
500.08	33867.55
500.26	33266.03
500.44	34852.92
500.61	35470.82
500.79	33647.54
500.97	32472.59
501.14	32556.85
501.32	33401.79
501.49	34094.58
501.67	34110.97
501.84	34534.60
502.02	35054.20
502.20	34979.31
502.37	34693.76
502.55	34717.17
502.72	35709.55
502.90	36699.60
503.07	36397.67
503.25	35651.04
503.43	34185.86
503.60	32547.49
503.78	32732.39
503.95	33797.34
504.13	35407.62
504.30	36458.52
504.48	36357.88
504.65	35796.15
504.83	35374.86
505.01	35754.02
505.18	37167.71
505.36	38735.87
505.53	38050.09
505.71	37965.83
505.88	37979.87
506.06	37333.89
506.23	36540.44
506.41	36627.04
506.58	36629.38
506.76	36353.20
506.93	36900.89
507.11	35739.98
507.28	36053.61
507.46	34480.77
507.63	33802.02
507.81	33752.87
507.98	35002.71
508.16	36072.34
508.33	36751.09
508.50	36893.86
508.68	36858.76
508.85	38003.28
509.03	37865.19
509.20	36336.82
509.38	35508.27
509.55	34445.66
509.73	35777.43
509.90	36154.26
510.08	36748.75
510.25	35225.06
510.42	35239.11
510.60	37069.40
510.77	36320.43
510.95	37879.23
511.12	36638.75
511.30	37048.34
511.47	38141.37
511.64	38206.90
511.82	37099.83
511.99	35461.46
512.17	35040.16
512.34	36229.15
512.51	35564.44
512.69	35255.49
512.86	35735.30
513.04	37158.34
513.21	36034.89
513.38	35508.27
513.56	34490.13
513.73	34693.76
513.90	34565.03
514.08	34721.85
514.25	35159.53
514.43	35742.32
514.60	37223.88
514.77	35749.34
514.95	35615.93
515.12	35812.54
515.29	36217.45
515.47	36275.96
515.64	37181.75
515.81	36582.57
515.99	35152.51
516.16	33399.44
516.33	31124.44
516.51	29134.99
516.68	27728.33
516.85	27676.83
517.03	28769.86
517.20	31470.84
517.37	34609.50
517.54	34408.22
517.72	32891.55
517.89	30593.14
518.06	29163.08
518.24	30944.22
518.41	32748.78
518.58	33921.38
518.75	34536.94
518.93	34202.25
519.10	34534.60
519.27	35625.29
519.45	35192.30
519.62	35524.65
519.79	35833.60
519.96	35412.31
520.14	34618.86
520.31	33680.31
520.48	33352.63
520.65	33867.55
520.83	35683.81
521.00	35885.09
521.17	35697.85
521.34	35243.79
521.52	35744.66
521.69	36856.42
521.86	35941.27
522.03	35585.50
522.20	33308.16
522.38	33420.51
522.55	34085.22
522.72	35770.41
522.89	34810.79
523.07	35248.47
523.24	36428.10
523.41	36800.24
523.58	37130.26
523.75	36481.93
523.92	37287.07
524.10	37727.10
524.27	38038.39
524.44	36753.43
524.61	36886.84
524.78	36133.19
524.96	36100.42
525.13	36381.29
525.30	36486.61
525.47	36706.62
525.64	36870.46
525.81	35159.53
525.98	33472.00
526.16	31704.90
526.33	31199.34
526.50	30932.52
526.67	30944.22
526.84	31587.87
527.01	33195.82
527.18	34237.36
527.36	35351.45
527.53	36598.96
527.70	35395.92
527.87	33883.94
528.04	34410.56
528.21	35997.44
528.38	36732.37
528.55	38085.20
528.72	36933.65
528.89	37406.44
529.07	36680.88
529.24	36126.17
529.41	35496.56
529.58	35098.67
529.75	35466.14
529.92	35959.99
530.09	35899.14
530.26	35154.85
530.43	35405.28
530.60	35632.32
530.77	36360.22
530.94	36622.36
531.11	36439.80
531.28	36011.48
531.46	34778.02
531.63	35297.62
531.80	35917.86
531.97	34951.22
532.14	33436.89
532.31	31580.85
532.48	31328.07
532.65	32919.63
532.82	33654.56
532.99	34263.10
533.16	34749.93
533.33	35800.83
533.50	34286.51
533.67	34015.01
533.84	33858.19
534.01	34347.36
534.18	34761.64
534.35	34534.60
534.52	34005.64
534.69	34668.02
534.86	35171.23
535.03	36275.96
535.20	35662.74
535.37	35786.79
535.54	35847.64
535.71	35400.60
535.88	35573.80
536.05	34160.12
536.22	34092.24
536.38	33759.89
536.55	32388.33
536.72	33209.86
536.89	33642.86
537.06	33158.37
537.23	33818.40
537.40	34103.95
537.57	34981.65
537.74	34061.82
537.91	34476.09
538.08	34326.30
538.25	34651.63
538.42	34478.43
538.59	34499.50
538.75	34265.44
538.92	34579.07
539.09	33172.41
539.26	32383.65
539.43	32060.66
539.60	32048.96
539.77	31901.50
539.94	31388.92
540.11	31388.92
540.28	31187.64
540.44	31615.96
540.61	31812.56
540.78	31562.12
540.95	33600.73
541.12	33223.90
541.29	34038.41
541.46	33160.71
541.62	33717.76
541.79	31770.43
541.96	31768.09
542.13	33174.75
542.30	33254.33
542.47	33200.50
542.63	32048.96
542.80	31161.89
542.97	31370.20
543.14	31765.75
543.31	31630.00
543.48	32708.99
543.64	33209.86
543.81	33380.72
543.98	32996.87
544.15	32701.96
544.32	31992.78
544.48	33031.98
544.65	32498.34
544.82	32203.43
544.99	32425.78
545.16	32655.15
545.32	32294.71
545.49	32912.61
545.66	34527.58
545.83	34356.72
546.00	33532.86
546.16	32652.81
546.33	32645.79
546.50	33624.14
546.67	33446.26
546.83	32561.53
547.00	31353.82
547.17	31236.79
547.34	31812.56
547.50	31222.75
547.67	31522.34
547.84	31735.32
548.00	32336.84
548.17	31920.23
548.34	31952.99
548.51	32063.00
548.67	32584.94
548.84	33495.41
549.01	34253.74
549.18	32797.93
549.34	32980.49
549.51	32486.64
549.68	32088.74
549.84	32165.98
550.01	32542.81
550.18	32601.32
550.34	31819.58
550.51	31204.02
550.68	30965.29
550.84	30820.17
551.01	31522.34
551.18	31971.72
551.34	31447.44
551.51	31110.40
551.68	31681.49
551.84	31791.50
552.01	32407.06
552.18	31047.21
552.34	30726.55
552.51	30536.97
552.68	30897.41
552.84	30242.06
553.01	31648.72
553.18	31777.45
553.34	31220.41
553.51	31538.72
553.67	30764.00
553.84	32161.30
554.01	32484.30
554.17	32690.26
554.34	31901.50
554.51	32362.59
554.67	31978.74
554.84	31384.24
555.00	31618.30
555.17	30986.35
555.33	31491.91
555.50	32470.25
555.67	31871.07
555.83	31236.79
556.00	30206.95
556.16	29923.75
556.33	30003.33
556.50	30740.60
556.66	29441.60
556.83	29425.22
556.99	29275.42
557.16	29663.95
557.32	30319.30
557.49	30377.81
557.65	30562.72
557.82	29301.17
557.98	29593.73
558.15	29102.22
558.32	28442.19
558.48	28259.63
558.65	27828.97
558.81	27754.07
558.98	28872.85
559.14	29305.85
559.31	29731.83
559.47	28685.61
559.64	27990.47
559.80	28128.56
559.97	28388.36
560.13	29415.85
560.30	30190.57
560.46	31175.94
560.63	31517.65
560.79	31082.31
560.96	29876.94
561.12	28926.68
561.29	28144.94
561.45	28622.41
561.61	28566.24
561.78	28510.07
561.94	28512.41
562.11	29642.88
562.27	29993.97
562.44	30113.33
562.60	29123.29
562.77	29312.87
562.93	28580.28
563.10	28772.21
563.26	28367.29
563.42	28575.60
563.59	28327.50
563.75	29336.27
563.92	28945.41
564.08	28907.96
564.24	27651.09
564.41	26895.10
564.57	27924.93
564.74	28158.99
564.90	27349.16
565.07	27566.83
565.23	26384.86
565.39	26588.49
565.56	26998.08
565.72	26558.06
565.88	27669.81
566.05	28039.62
566.21	27072.98
566.38	26944.25
566.54	27447.46
566.70	26742.96
566.87	27637.05
567.03	28690.29
567.19	28816.68
567.36	27136.17
567.52	28121.54
567.68	26607.21
567.85	26558.06
568.01	25518.86
568.17	24819.04
568.34	25432.26
568.50	26309.96
568.66	25909.73
568.83	26436.35
568.99	26314.64
569.15	25376.09
569.32	26010.37
569.48	26993.40
569.64	26190.59
569.81	25727.17
569.97	25921.43
570.13	26686.79
570.30	26607.21
570.46	25940.16
570.62	24444.56
570.78	23915.59
570.95	24278.38
571.11	25694.40
571.27	25558.65
571.43	25294.17
571.60	25727.17
571.76	25851.22
571.92	25806.75
572.09	26738.28
572.25	26700.83
572.41	27063.61
572.57	26412.95
572.74	25965.90
572.90	25982.29
573.06	25799.73
573.22	25720.15
573.38	26136.76
573.55	25462.69
573.71	25972.92
573.87	25862.92
574.03	26335.71
574.20	25556.31
574.36	25289.49
574.52	25652.27
574.68	25603.12
574.84	25137.35
575.01	25064.80
575.17	24533.50
575.33	24166.03
575.49	24423.49
575.65	24687.97
575.82	23749.42
575.98	24250.29
576.14	24341.57
576.30	24467.96
576.46	24226.89
576.62	24346.25
576.79	24545.20
576.95	24596.69
577.11	24266.67
577.27	24063.05
577.43	24414.13
577.59	24409.45
577.75	24072.41
577.92	23807.93
578.08	23379.61
578.24	23580.90
578.40	23695.58
578.56	23016.83
578.72	23300.03
578.88	23922.62
579.04	24470.30
579.21	24360.30
579.37	24196.46
579.53	24627.12
579.69	23690.90
579.85	23175.98
580.01	22518.29
580.17	23002.78
580.33	24049.00
580.49	23730.69
580.65	23403.02
580.82	23438.12
580.98	23653.45
581.14	23061.30
581.30	23875.80
581.46	24140.29
581.62	23864.10
581.78	24280.72
581.94	24989.90
582.10	24278.38
582.26	23845.38
582.42	23873.46
582.58	24608.39
582.74	23997.51
582.90	24240.93
583.06	24727.76
583.22	24992.24
583.38	24056.03
583.54	24393.06
583.70	24116.88
583.86	23496.64
584.02	24503.07
584.18	24364.98
584.34	24102.84
584.50	25263.74
584.66	24315.83
584.82	23763.46
584.98	23180.67
585.14	22508.93
585.30	22045.51
585.46	22099.34
585.62	22455.10
585.78	23206.41
585.94	22373.18
586.10	22696.17
