SpectraSuite Data File
++++++++++++++++++++++++++++++++++++
Date: Mon Oct 07 14:54:59 GMT-05:00 2013
User: price-jones
Dark Spectrum Present: No
Reference Spectrum Present: No
Number of Sampled Component Spectra: 1
Spectrometers: USB2+H05261
Integration Time (usec): 10000 (USB2+H05261)
Spectra Averaged: 1 (USB2+H05261)
Boxcar Smoothing: 0 (USB2+H05261)
Correct for Electrical Dark: No (USB2+H05261)
Strobe/Lamp Enabled: No (USB2+H05261)
Correct for Detector Non-linearity: No (USB2+H05261)
Correct for Stray Light: No (USB2+H05261)
Number of Pixels in Processed Spectrum: 2048
>>>>>Begin Processed Spectral Data<<<<<
365.73	0.00
365.92	0.00
366.12	0.00
366.32	0.00
366.52	0.00
366.72	0.00
366.91	0.00
367.11	0.00
367.31	0.00
367.51	0.00
367.70	0.00
367.90	0.00
368.10	0.00
368.30	0.00
368.49	0.00
368.69	0.00
368.89	0.00
369.09	0.00
369.28	0.00
369.48	0.00
369.68	0.00
369.87	0.00
370.07	0.00
370.27	0.00
370.47	0.00
370.66	615.56
370.86	734.93
371.06	816.85
371.25	868.34
371.45	791.10
371.65	711.52
371.84	664.71
372.04	734.93
372.24	812.17
372.44	901.11
372.63	732.59
372.83	793.44
373.03	629.60
373.22	596.84
373.42	669.39
373.62	702.16
373.81	814.51
374.01	767.70
374.21	739.61
374.40	653.01
374.60	842.59
374.79	983.02
374.99	994.73
375.19	1102.39
375.38	1086.01
375.58	983.02
375.78	931.53
375.97	1074.31
376.17	1076.65
376.37	1121.12
376.56	1149.20
376.76	1156.22
376.95	1275.59
377.15	1167.93
377.35	1355.17
377.54	1441.77
377.74	1392.62
377.93	1413.68
378.13	1469.86
378.33	1366.87
378.52	1151.54
378.72	1125.80
378.91	1060.26
379.11	1102.39
379.31	976.00
379.50	1181.97
379.70	1193.67
379.89	1252.19
380.09	1467.52
380.28	1504.96
380.48	1418.36
380.68	1301.34
380.87	1280.27
381.07	1095.37
381.26	1174.95
381.46	1043.88
381.65	868.34
381.85	1046.22
382.04	1015.79
382.24	858.98
382.43	774.72
382.63	741.95
382.83	819.19
383.02	849.61
383.22	812.17
383.41	826.21
383.61	931.53
383.80	987.71
384.00	1306.02
384.19	1341.13
384.39	1399.64
384.58	1406.66
384.78	1446.45
384.97	1291.98
385.17	1303.68
385.36	1210.06
385.56	1100.05
385.75	1153.88
385.95	1331.76
386.14	1268.57
386.34	1306.02
386.53	1387.94
386.72	1256.87
386.92	1369.21
387.11	1355.17
387.31	1369.21
387.50	1341.13
387.70	1282.61
387.89	1315.38
388.09	1322.40
388.28	1322.40
388.48	1425.39
388.67	1591.56
388.86	1631.35
389.06	1760.08
389.25	1849.02
389.45	1900.52
389.64	1762.42
389.84	1792.85
390.03	1734.34
390.22	1839.66
390.42	1898.17
390.61	2078.40
390.81	2172.02
391.00	2157.97
391.19	2284.36
391.39	2155.63
391.58	1907.54
391.78	1825.62
391.97	1689.87
392.16	1521.35
392.36	1390.28
392.55	964.30
392.75	737.27
392.94	669.39
393.13	627.26
393.33	863.66
393.52	1179.63
393.71	1509.65
393.91	1617.31
394.10	1823.28
394.29	1966.05
394.49	2106.48
394.68	2181.38
394.88	2204.78
395.07	2270.32
395.26	2314.79
395.46	2221.17
395.65	1977.75
395.84	1696.89
396.04	1446.45
396.23	1153.88
396.42	924.51
396.62	1083.67
396.81	1233.46
397.00	1528.37
397.19	1961.37
397.39	2455.22
397.58	2614.38
397.77	2665.87
397.97	2846.09
398.16	2935.03
398.35	3094.19
398.55	2998.23
398.74	3082.49
398.93	3234.62
399.12	3337.60
399.32	3094.19
399.51	3054.40
399.70	3316.54
399.90	3473.36
400.09	3384.41
400.28	3363.35
400.47	3393.78
400.67	3606.77
400.86	3623.15
401.05	3679.32
401.24	3527.19
401.44	3602.08
401.63	3672.30
401.82	3571.66
402.01	3644.21
402.21	3700.39
402.40	3754.22
402.59	3473.36
402.78	3370.37
402.97	3314.20
403.17	3442.93
403.36	3765.92
403.55	3770.60
403.74	3805.71
403.93	3513.14
404.13	3400.80
404.32	3478.04
404.51	3543.57
404.70	3815.07
404.89	3791.67
405.09	3604.42
405.28	3576.34
405.47	3597.40
405.66	3545.91
405.85	3433.57
406.05	3438.25
406.24	3529.53
406.43	3538.89
406.62	3625.49
406.81	3695.71
407.00	3482.72
407.20	3534.21
407.39	3529.53
407.58	3700.39
407.77	3896.99
407.96	3936.78
408.15	3969.55
408.34	4095.94
408.54	4215.30
408.73	4014.02
408.92	3990.61
409.11	3915.72
409.30	3794.01
409.49	3571.66
409.68	3183.13
409.87	3344.63
410.07	3487.40
410.26	3730.81
410.45	3925.08
410.64	3925.08
410.83	4257.43
411.02	4365.10
411.21	4444.68
411.40	4423.61
411.59	4280.84
411.78	4250.41
411.98	4276.16
412.17	4365.10
412.36	4173.18
412.55	4262.12
412.74	4065.51
412.93	4128.70
413.12	4229.35
413.31	4486.81
413.50	4477.44
413.69	4550.00
413.88	4369.78
414.07	4369.78
414.26	4395.53
414.45	4454.04
414.64	4550.00
414.83	4531.28
415.02	4463.40
415.22	4496.17
415.41	4664.69
415.60	4720.86
415.79	4961.94
415.98	5081.30
416.17	4830.87
416.36	4835.55
416.55	4669.37
416.74	4571.07
416.93	4414.25
417.12	4498.51
417.31	4411.91
417.50	4655.33
417.69	4690.43
417.88	4809.80
418.07	4711.50
418.26	4645.96
418.45	4699.80
418.64	4877.68
418.83	5046.20
419.02	4905.76
419.21	4805.12
419.39	4552.34
419.58	4337.01
419.77	4437.66
419.96	4784.06
420.15	4940.87
420.34	4983.00
420.53	5172.58
420.72	5130.45
420.91	5256.84
421.10	5221.74
421.29	5069.60
421.48	5043.85
421.67	5027.47
421.86	5020.45
422.05	4610.86
422.24	4016.36
422.43	4255.09
422.61	4744.27
422.80	4959.60
422.99	4877.68
423.18	4716.18
423.37	4704.48
423.56	4636.60
423.75	4791.08
423.94	4723.20
424.13	4552.34
424.32	4603.83
424.50	4531.28
424.69	4573.41
424.88	4578.09
425.07	4596.81
425.26	4493.83
425.45	4386.16
425.64	4308.93
425.83	4547.66
426.01	4737.24
426.20	4898.74
426.39	4655.33
426.58	4329.99
426.77	4035.08
426.96	3892.31
427.15	4032.74
427.33	4407.23
427.52	4652.98
427.71	4582.77
427.90	4442.34
428.09	4428.29
428.28	4297.22
428.46	4243.39
428.65	4023.38
428.84	4222.33
429.03	4208.28
429.22	3960.19
429.40	3730.81
429.59	3424.20
429.78	2977.16
429.97	3124.62
430.16	3122.27
430.34	3176.11
430.53	3162.06
430.72	3201.85
430.91	3667.62
431.10	4407.23
431.28	4849.59
431.47	5294.29
431.66	5242.80
431.85	4753.63
432.03	4493.83
432.22	4287.86
432.41	4533.62
432.60	5036.83
432.79	5135.14
432.97	5071.94
433.16	4875.34
433.35	4344.03
433.54	4004.66
433.72	3946.14
433.91	4023.38
434.10	4652.98
434.28	4800.44
434.47	4880.02
434.66	4950.23
434.85	4910.44
435.03	4891.72
435.22	4975.98
435.41	5233.44
435.59	5343.44
435.78	5364.51
435.97	5603.24
436.16	5437.06
436.34	5483.88
436.53	5142.16
436.72	5350.46
436.90	4994.70
437.09	5029.81
437.28	4898.74
437.46	5111.73
437.65	5165.56
437.84	4608.51
438.02	4341.69
438.21	4299.56
438.40	4578.09
438.58	4784.06
438.77	5041.51
438.96	5015.77
439.14	5453.45
439.33	5331.74
439.52	5322.38
439.70	5184.29
439.89	5076.62
440.08	5046.20
440.26	5067.26
440.45	5327.06
440.63	5680.48
440.82	5856.02
441.01	5750.70
441.19	5708.57
441.38	5907.51
441.57	5893.47
441.75	5954.32
441.94	5970.71
442.12	6076.03
442.31	5989.43
442.50	6078.37
442.68	5942.62
442.87	5933.26
443.05	5757.72
443.24	5977.73
443.43	6036.24
443.61	5980.07
443.80	6305.40
443.98	5942.62
444.17	5909.85
444.35	6169.65
444.54	6265.61
444.73	6073.69
444.91	5797.51
445.10	5678.14
445.28	5334.08
445.47	5231.10
445.65	5408.98
445.84	5823.25
446.02	5640.69
446.21	5849.00
446.39	5933.26
446.58	5865.38
446.77	5746.02
446.95	6085.39
447.14	6347.53
447.32	6162.63
447.51	5923.90
447.69	5893.47
447.88	5841.98
448.06	5905.17
448.25	5923.90
448.43	5954.32
448.62	6047.94
448.80	5909.85
448.99	6073.69
449.17	6094.76
449.36	6024.54
449.54	6300.72
449.73	6258.59
449.91	6368.60
450.10	6544.14
450.28	6509.03
450.46	6689.25
450.65	6752.45
450.83	6256.25
451.02	6179.01
451.20	6335.83
451.39	6293.70
451.57	6258.59
451.76	6242.21
451.94	6242.21
452.13	6033.90
452.31	5757.72
452.49	5671.12
452.68	5535.37
452.86	5488.56
453.05	5645.37
453.23	5914.53
453.42	6066.67
453.60	6143.91
453.78	6118.16
453.97	6174.33
454.15	6038.58
454.34	5806.87
454.52	5820.91
454.70	5689.84
454.89	5671.12
455.07	6010.50
455.26	5987.09
455.44	6136.88
455.62	6298.38
455.81	6345.19
455.99	6228.17
456.17	6230.51
456.36	6186.04
456.54	6352.21
456.73	6352.21
456.91	6310.08
457.09	6450.52
457.28	6576.91
457.46	6293.70
457.64	6230.51
457.83	6052.63
458.01	6010.50
458.19	6155.61
458.38	6279.66
458.56	6115.82
458.74	6153.27
458.93	6284.34
459.11	6113.48
459.29	6244.55
459.48	6155.61
459.66	6087.73
459.84	6139.23
460.03	6019.86
460.21	6174.33
460.39	6380.30
460.57	6375.62
460.76	6408.39
460.94	6567.54
461.12	6284.34
461.31	6354.55
461.49	6307.74
461.67	6239.87
461.85	6567.54
462.04	6431.79
462.22	6263.27
462.40	6277.32
462.59	6267.95
462.77	6375.62
462.95	6452.86
463.13	6211.78
463.32	6267.95
463.50	5942.62
463.68	6242.21
463.86	6211.78
464.05	6057.31
464.23	5886.45
464.41	6022.20
464.59	5956.66
464.78	6146.25
464.96	6218.80
465.14	6120.50
465.32	6083.05
465.50	6097.10
465.69	6209.44
465.87	6129.86
466.05	6026.88
466.23	5841.98
466.41	5664.10
466.60	5640.69
466.78	5959.00
466.96	5937.94
467.14	5928.58
467.32	6162.63
467.51	6047.94
467.69	5893.47
467.87	5668.78
468.05	5879.43
468.23	6092.41
468.41	6045.60
468.60	5923.90
468.78	6038.58
468.96	5996.45
469.14	6207.10
469.32	6115.82
469.50	5947.30
469.69	5720.27
469.87	5500.26
470.05	5692.18
470.23	5671.12
470.41	5715.59
470.59	5891.13
470.77	5685.16
470.95	5935.60
471.14	5879.43
471.32	5989.43
471.50	6314.77
471.68	6291.36
471.86	6406.05
472.04	6354.55
472.22	6513.71
472.40	6118.16
472.58	5982.41
472.77	6008.16
472.95	6171.99
473.13	6216.46
473.31	6167.31
473.49	6183.70
473.67	6347.53
473.85	6183.70
474.03	6406.05
474.21	6384.98
474.39	6497.33
474.57	6431.79
474.75	6471.58
474.93	6457.54
475.12	6162.63
475.30	6186.04
475.48	6431.79
475.66	6300.72
475.84	6186.04
476.02	6450.52
476.20	6272.64
476.38	6326.47
476.56	6490.31
476.74	6384.98
476.92	6637.76
477.10	6733.72
477.28	6953.73
477.46	6722.02
477.64	6988.84
477.82	6970.12
478.00	6766.49
478.18	6752.45
478.36	6722.02
478.54	6888.20
478.72	6796.92
478.90	6958.41
479.08	7119.91
479.26	7391.41
479.44	7201.83
479.62	6942.03
479.80	7131.61
479.98	7311.83
480.16	7166.72
480.34	6993.52
480.52	7176.08
480.70	7180.76
480.88	7255.66
481.06	7419.50
481.24	7356.30
481.41	7679.30
481.59	7744.83
481.77	7606.74
481.95	7620.78
482.13	7623.12
482.31	7410.14
482.49	7737.81
482.67	7510.78
482.85	7705.04
483.03	7613.76
483.21	7887.61
483.39	7791.64
483.57	7702.70
483.74	7632.49
483.92	7737.81
484.10	7623.12
484.28	7712.07
484.46	7719.09
484.64	8081.87
484.82	7679.30
485.00	7620.78
485.18	7534.18
485.35	6984.16
485.53	6480.94
485.71	6050.28
485.89	6188.38
486.07	6413.07
486.25	6913.94
486.43	7236.94
486.61	7485.03
486.78	7213.53
486.96	7267.36
487.14	7688.66
487.32	7850.16
487.50	7922.71
487.68	8205.92
487.85	8425.93
488.03	8229.32
488.21	8145.06
488.39	8074.85
488.57	8032.72
488.75	7815.05
488.92	8215.28
489.10	8676.37
489.28	9025.11
489.46	9078.94
489.64	8933.82
489.81	9434.70
489.99	8884.67
490.17	8870.63
490.35	9238.09
490.53	9001.70
490.70	9053.19
490.88	8821.48
491.06	9177.24
491.24	8980.64
491.41	8685.73
491.59	8241.03
491.77	8044.42
491.95	8514.87
492.13	8737.22
492.30	9095.32
492.48	9427.68
492.66	9380.87
492.84	9343.42
493.01	9242.78
493.19	9184.26
493.37	9118.73
493.54	9034.47
493.72	9261.50
493.90	9589.17
494.08	9631.30
494.25	9738.97
494.43	9933.23
494.61	10113.45
494.79	9963.66
494.96	9942.60
495.14	9617.26
495.32	9334.06
495.49	9231.07
495.67	9645.35
495.85	9996.43
496.02	9961.32
496.20	10029.20
496.38	9923.87
496.55	9853.66
496.73	9797.48
496.91	10155.58
497.09	10384.96
497.26	10499.64
497.44	10345.17
497.62	9738.97
497.79	9425.34
497.97	9214.69
498.14	9516.62
498.32	9738.97
498.50	9891.10
498.67	10118.14
498.85	9991.75
499.03	10150.90
499.20	10408.36
499.38	10167.29
499.56	10059.62
499.73	9865.36
499.91	9877.06
500.08	9502.58
500.26	9322.35
500.44	9507.26
500.61	9614.92
500.79	9706.20
500.97	9528.32
501.14	9521.30
501.32	9589.17
501.49	9715.56
501.67	9568.11
501.84	9802.16
502.02	9958.98
502.20	9736.63
502.37	9942.60
502.55	9916.85
502.72	10157.92
502.90	10164.95
503.07	9944.94
503.25	9830.25
503.43	9689.82
503.60	9383.21
503.78	9275.54
503.95	9165.54
504.13	9657.05
504.30	9947.28
504.48	10001.11
504.65	9795.14
504.83	9947.28
505.01	9928.55
505.18	10246.87
505.36	10422.41
505.53	10544.11
505.71	10534.75
505.88	10583.90
506.06	10169.63
506.23	10101.75
506.41	10090.05
506.58	10298.36
506.76	9853.66
506.93	10097.07
507.11	9898.13
507.28	10001.11
507.46	9860.68
507.63	9816.21
507.81	9476.83
507.98	9884.08
508.16	9956.64
508.33	9748.33
508.50	9947.28
508.68	10469.22
508.85	10443.47
509.03	10483.26
509.20	10349.85
509.38	10076.01
509.55	9785.78
509.73	9795.14
509.90	9872.38
510.08	10097.07
510.25	9905.15
510.42	10024.51
510.60	9736.63
510.77	10115.80
510.95	10239.84
511.12	10403.68
511.30	10478.58
511.47	10328.78
511.64	10480.92
511.82	10235.16
511.99	9954.30
512.17	9664.07
512.34	9694.50
512.51	9666.41
512.69	9771.74
512.86	9898.13
513.04	10136.86
513.21	9867.70
513.38	9769.40
513.56	9507.26
513.73	9458.10
513.90	9453.42
514.08	9439.38
514.25	9493.21
514.43	9706.20
514.60	9884.08
514.77	9823.23
514.95	10026.86
515.12	9888.76
515.29	9736.63
515.47	9867.70
515.64	10059.62
515.81	9832.59
515.99	9664.07
516.16	9118.73
516.33	8322.94
516.51	8021.02
516.68	7679.30
516.85	7791.64
517.03	7899.31
517.20	8652.96
517.37	9298.95
517.54	9488.53
517.72	9263.84
517.89	8358.05
518.06	7922.71
518.24	8037.40
518.41	8739.56
518.58	9170.22
518.75	9158.52
518.93	9254.48
519.10	9432.36
519.27	9528.32
519.45	9420.66
519.62	9413.63
519.79	9830.25
519.96	9598.54
520.14	9657.05
520.31	9221.71
520.48	9081.28
520.65	9092.98
520.83	9720.24
521.00	9848.97
521.17	9668.75
521.34	9540.02
521.52	9607.90
521.69	9872.38
521.86	9872.38
522.03	9905.15
522.20	9338.74
522.38	9071.92
522.55	9170.22
522.72	9088.30
522.89	9008.72
523.07	9193.62
523.24	9474.49
523.41	9975.36
523.58	9923.87
523.75	9912.17
523.92	9750.67
524.10	9942.60
524.27	9830.25
524.44	9713.22
524.61	9589.17
524.78	9523.64
524.96	9523.64
525.13	9542.36
525.30	9741.31
525.47	10043.24
525.64	9675.77
525.81	9605.56
525.98	8751.26
526.16	8503.17
526.33	8191.88
526.50	8271.45
526.67	8058.46
526.84	8348.69
527.01	8833.18
527.18	9034.47
527.36	9462.79
527.53	9460.45
527.70	9418.32
527.87	9441.72
528.04	9046.17
528.21	9455.76
528.38	9570.45
528.55	10047.92
528.72	9919.19
528.89	9982.38
529.07	9790.46
529.24	9820.89
529.41	9163.20
529.58	9181.92
529.75	9151.49
529.92	9270.86
530.09	9432.36
530.26	9731.95
530.43	9703.86
530.60	9610.24
530.77	9944.94
530.94	9816.21
531.11	9518.96
531.28	9308.31
531.46	9394.91
531.63	9219.37
531.80	9256.82
531.97	9308.31
532.14	8961.91
532.31	8784.03
532.48	8730.20
532.65	8505.51
532.82	8910.42
532.99	9348.10
533.16	9418.32
533.33	9385.55
533.50	9240.44
533.67	9320.01
533.84	8968.93
534.01	9064.89
534.18	9090.64
534.35	9158.52
534.52	9179.58
534.69	9315.33
534.86	9397.25
535.03	9507.26
535.20	9554.07
535.37	9249.80
535.54	9525.98
535.71	9696.84
535.88	9476.83
536.05	9107.02
536.22	9163.20
536.38	8741.90
536.55	8769.99
536.72	8676.37
536.89	8875.31
537.06	8582.74
537.23	8936.17
537.40	9247.46
537.57	9160.86
537.74	8872.97
537.91	9039.15
538.08	9022.77
538.25	9090.64
538.42	8994.68
538.59	9015.74
538.75	8800.41
538.92	8709.13
539.09	8552.32
539.26	8381.46
539.43	8428.27
539.60	8383.80
539.77	8397.84
539.94	8521.89
540.11	8301.88
540.28	8159.11
540.44	8189.53
540.61	8241.03
540.78	8463.38
540.95	8751.26
541.12	8683.39
541.29	8781.69
541.46	8659.98
541.62	8730.20
541.79	8645.94
541.96	8718.50
542.13	8329.97
542.30	8629.56
542.47	8692.75
542.63	8325.29
542.80	8264.43
542.97	8315.92
543.14	8259.75
543.31	8236.35
543.48	8308.90
543.64	8744.24
543.81	8919.78
543.98	8805.10
544.15	8769.99
544.32	8250.39
544.48	8535.93
544.65	8479.76
544.82	8585.08
544.99	8395.50
545.16	8528.91
545.32	8454.02
545.49	8540.61
545.66	8760.63
545.83	8678.71
546.00	8507.85
546.16	8711.47
546.33	8489.12
546.50	8379.12
546.67	8676.37
546.83	8557.00
547.00	8416.57
547.17	8341.67
547.34	8205.92
547.50	8264.43
547.67	8187.19
547.84	8191.88
548.00	8142.72
548.17	8285.50
548.34	8568.70
548.51	8477.42
548.67	8636.58
548.84	8542.96
549.01	8482.10
549.18	8351.03
549.34	8585.08
549.51	8484.44
549.68	8393.16
549.84	8404.86
550.01	8425.93
550.18	8049.10
550.34	8252.73
550.51	7985.91
550.68	8187.19
550.84	7960.16
551.01	7990.59
551.18	8079.53
551.34	7967.18
551.51	8205.92
551.68	8524.23
551.84	8184.85
552.01	8201.24
552.18	8109.96
552.34	8116.98
552.51	7688.66
552.68	7805.69
552.84	7873.56
553.01	8182.51
553.18	8238.69
553.34	8135.70
553.51	8231.66
553.67	8196.56
553.84	8121.66
554.01	8067.83
554.17	7988.25
554.34	8100.59
554.51	8159.11
554.67	8432.95
554.84	8156.77
555.00	8116.98
555.17	8187.19
555.33	7953.14
555.50	8128.68
555.67	7934.42
555.83	7932.08
556.00	7667.60
556.16	7770.58
556.33	7517.80
556.50	7606.74
556.66	7468.65
556.83	7538.87
556.99	7466.31
557.16	7606.74
557.32	7602.06
557.49	7847.82
557.65	7557.59
557.82	7665.25
557.98	7712.07
558.15	7550.57
558.32	7332.90
558.48	7396.09
558.65	7117.57
558.81	7447.58
558.98	7260.34
559.14	7393.75
559.31	7499.08
559.47	7452.27
559.64	7379.71
559.80	7475.67
559.97	7370.35
560.13	7431.20
560.30	7595.04
560.46	8016.33
560.63	8035.06
560.79	7822.07
560.96	7873.56
561.12	7417.16
561.29	7143.32
561.45	7269.70
561.61	7529.50
561.78	7300.13
561.94	7213.53
562.11	7309.49
562.27	7180.76
562.44	7602.06
562.60	7538.87
562.77	7707.38
562.93	7623.12
563.10	7637.17
563.26	7248.64
563.42	7377.37
563.59	7166.72
563.75	7342.26
563.92	7468.65
564.08	7281.41
564.24	7398.43
564.41	7318.86
564.57	7091.82
564.74	7363.33
564.90	7218.21
565.07	7208.85
565.23	7094.16
565.39	6867.13
565.56	6967.77
565.72	6820.32
565.88	6897.56
566.05	6991.18
566.21	7035.65
566.38	6778.19
566.54	7037.99
566.70	7014.59
566.87	7220.55
567.03	7103.53
567.19	7274.38
567.36	7021.61
567.52	7208.85
567.68	7049.69
567.85	6864.79
568.01	6778.19
568.17	6604.99
568.34	6651.80
568.50	6693.93
568.66	6633.08
568.83	6848.41
568.99	6876.49
569.15	6747.76
569.32	6853.09
569.48	6883.52
569.64	6806.28
569.81	6581.59
569.97	6616.69
570.13	6707.98
570.30	6431.79
570.46	6562.86
570.62	6399.02
570.78	6424.77
570.95	6452.86
571.11	6586.27
571.27	6558.18
571.43	6682.23
571.60	6593.29
571.76	6712.66
571.92	6738.40
572.09	6663.51
572.25	6864.79
572.41	6630.74
572.57	6609.67
572.74	6731.38
572.90	6670.53
573.06	6654.14
573.22	6656.48
573.38	6857.77
573.55	6588.61
573.71	6628.40
573.87	6710.32
574.03	6633.08
574.20	6722.02
574.36	6586.27
574.52	6612.01
574.68	6368.60
574.84	6324.13
575.01	6125.18
575.17	6155.61
575.33	6083.05
575.49	6373.28
575.65	6221.14
575.82	6291.36
575.98	6127.52
576.14	6150.93
576.30	6345.19
576.46	6296.04
576.62	6263.27
576.79	6164.97
576.95	6167.31
577.11	6434.13
577.27	6284.34
577.43	6286.68
577.59	6230.51
577.75	6298.38
577.92	5942.62
578.08	6047.94
578.24	6008.16
578.40	6092.41
578.56	5879.43
578.72	6001.13
578.88	6064.33
579.04	6113.48
579.21	6113.48
579.37	6253.91
579.53	6232.85
579.69	6169.65
579.85	5895.81
580.01	6026.88
580.17	6148.59
580.33	5968.37
580.49	6129.86
580.65	6038.58
580.82	6125.18
580.98	6162.63
581.14	6127.52
581.30	6221.14
581.46	6274.98
581.62	6363.92
581.78	6232.85
581.94	6167.31
582.10	6188.38
582.26	6092.41
582.42	6202.42
582.58	6239.87
582.74	6340.51
582.90	6263.27
583.06	6122.84
583.22	6249.23
583.38	6176.67
583.54	6118.16
583.70	6125.18
583.86	6113.48
584.02	5959.00
584.18	6157.95
584.34	6101.78
584.50	6207.10
584.66	6047.94
584.82	5947.30
584.98	6052.63
585.14	5827.93
585.30	5806.87
585.46	5579.84
585.62	5568.13
585.78	5834.96
585.94	5792.83
586.10	5820.91
586.26	5816.23
586.42	5949.64
586.58	5872.40
586.74	5799.85
586.90	5675.80
587.06	5797.51
587.22	5624.31
587.38	5856.02
587.54	5834.96
587.70	5692.18
587.86	5530.69
588.02	5628.99
588.18	5507.28
588.34	5240.46
588.49	5043.85
588.65	4807.46
588.81	4638.94
588.97	4699.80
589.13	4683.41
589.29	4861.29
589.45	5114.07
589.61	5015.77
589.77	5219.39
589.93	5252.16
590.08	5394.93
590.24	5547.07
590.40	5591.54
590.56	5554.09
590.72	5453.45
590.88	5214.71
591.04	5289.61
591.20	5408.98
591.35	5291.95
591.51	5406.64
591.67	5343.44
591.83	5399.62
591.99	5343.44
592.15	5486.22
592.31	5434.72
592.46	5437.06
592.62	5174.92
592.78	5315.36
592.94	5298.97
593.10	5238.12
593.26	5263.86
593.41	5305.99
593.57	5158.54
593.73	5139.82
593.89	5160.88
594.05	5102.37
594.20	5064.92
594.36	5020.45
594.52	5078.96
594.68	5085.98
594.84	5093.01
594.99	5160.88
595.15	5167.90
595.31	5172.58
595.47	5093.01
595.62	5109.39
595.78	5245.14
595.94	5153.86
596.10	5121.09
596.25	5198.33
596.41	5188.97
