SpectraSuite Data File
++++++++++++++++++++++++++++++++++++
Date: Mon Oct 07 14:55:02 GMT-05:00 2013
User: price-jones
Dark Spectrum Present: No
Reference Spectrum Present: No
Number of Sampled Component Spectra: 1
Spectrometers: USB2+H05261
Integration Time (usec): 10000 (USB2+H05261)
Spectra Averaged: 1 (USB2+H05261)
Boxcar Smoothing: 0 (USB2+H05261)
Correct for Electrical Dark: No (USB2+H05261)
Strobe/Lamp Enabled: No (USB2+H05261)
Correct for Detector Non-linearity: No (USB2+H05261)
Correct for Stray Light: No (USB2+H05261)
Number of Pixels in Processed Spectrum: 2048
>>>>>Begin Processed Spectral Data<<<<<
365.73	0.00
365.92	0.00
366.12	0.00
366.32	0.00
366.52	0.00
366.72	0.00
366.91	0.00
367.11	0.00
367.31	0.00
367.51	0.00
367.70	0.00
367.90	0.00
368.10	0.00
368.30	0.00
368.49	0.00
368.69	0.00
368.89	0.00
369.09	0.00
369.28	0.00
369.48	0.00
369.68	0.00
369.87	0.00
370.07	0.00
370.27	0.00
370.47	409.59
370.66	2541.82
370.86	2956.10
371.06	3215.90
371.25	3084.83
371.45	2881.20
371.65	2485.65
371.84	2537.14
372.04	2672.89
372.24	2904.60
372.44	2993.55
372.63	2841.41
372.83	2530.12
373.03	2354.58
373.22	2284.36
373.42	2375.64
373.62	2792.26
373.81	2977.16
374.01	2881.20
374.21	2649.49
374.40	2441.18
374.60	2462.24
374.79	2998.23
374.99	3442.93
375.19	3559.95
375.38	3492.08
375.58	3489.74
375.78	3304.84
375.97	3433.57
376.17	3407.82
376.37	3571.66
376.56	3644.21
376.76	3868.91
376.95	4021.04
377.15	4440.00
377.35	4430.63
377.54	4676.39
377.74	4835.55
377.93	5015.77
378.13	4720.86
378.33	4407.23
378.52	4070.19
378.72	3913.38
378.91	3873.59
379.11	3655.92
379.31	3700.39
379.50	3810.39
379.70	3988.27
379.89	4489.15
380.09	4704.48
380.28	4725.54
380.48	4793.42
380.68	4667.03
380.87	4432.97
381.07	4063.17
381.26	3852.52
381.46	3557.61
381.65	3424.20
381.85	3478.04
382.04	3150.36
382.24	3162.06
382.43	2932.69
382.63	2794.60
382.83	2796.94
383.02	2761.83
383.22	2733.75
383.41	2932.69
383.61	3166.74
383.80	3754.22
384.00	4091.26
384.19	4575.75
384.39	4814.48
384.58	4730.22
384.78	4559.36
384.97	4575.75
385.17	4397.87
385.36	4028.06
385.56	3992.95
385.75	4236.37
385.95	4575.75
386.14	4957.25
386.34	4894.06
386.53	4528.94
386.72	4273.82
386.92	4397.87
387.11	4751.29
387.31	4919.81
387.50	4823.84
387.70	4844.91
387.89	4561.70
388.09	4774.69
388.28	4884.70
388.48	4903.42
388.67	5350.46
388.86	5760.06
389.06	6267.95
389.25	6483.28
389.45	6516.05
389.64	6270.30
389.84	6204.76
390.03	6047.94
390.22	6373.28
390.42	6682.23
390.61	7009.90
390.81	7262.68
391.00	7672.28
391.19	7466.31
391.39	7176.08
391.58	6633.08
391.78	6279.66
391.97	6094.76
392.16	5689.84
392.36	4964.28
392.55	3927.42
392.75	3201.85
392.94	2710.34
393.13	2801.62
393.33	3517.83
393.52	4379.14
393.71	5167.90
393.91	5816.23
394.10	6384.98
394.29	7054.37
394.49	7335.24
394.68	7941.44
394.88	8018.68
395.07	8149.75
395.26	8266.77
395.46	7882.92
395.65	7075.44
395.84	6235.19
396.04	5067.26
396.23	4070.19
396.42	3489.74
396.62	3714.43
396.81	4606.17
397.00	5923.90
397.19	7157.36
397.39	8552.32
397.58	9366.82
397.77	9598.54
397.97	10033.88
398.16	10274.95
398.35	10544.11
398.55	10682.20
398.74	11147.97
398.93	11248.61
399.12	11328.19
399.32	10745.40
399.51	11307.13
399.70	11967.16
399.90	11501.39
400.09	11538.84
400.28	11630.12
400.47	11822.05
400.67	12456.33
400.86	12657.62
401.05	12671.66
401.24	12428.24
401.44	12996.99
401.63	13060.19
401.82	13118.70
402.01	12985.29
402.21	13167.85
402.40	13107.00
402.59	12615.49
402.78	11960.14
402.97	12198.87
403.17	12685.70
403.36	13350.42
403.55	13778.73
403.74	13987.04
403.93	13011.04
404.13	11899.28
404.32	12166.10
404.51	13027.42
404.70	13429.99
404.89	13383.18
405.09	13254.45
405.28	12973.59
405.47	12835.50
405.66	12982.95
405.85	12446.97
406.05	12255.04
406.24	12339.30
406.43	13128.06
406.62	13390.20
406.81	13345.73
407.00	13142.11
407.20	12950.18
407.39	13099.98
407.58	13736.60
407.77	14324.08
407.96	14448.13
408.15	14871.76
408.34	15042.62
408.54	15449.88
408.73	14991.13
408.92	15260.29
409.11	14618.99
409.30	13776.39
409.49	12849.54
409.68	12152.06
409.87	12142.70
410.07	13146.79
410.26	14195.35
410.45	14618.99
410.64	15150.29
410.83	15508.39
411.02	15836.06
411.21	16500.78
411.40	16130.97
411.59	16336.94
411.78	16095.86
411.98	16212.89
412.17	16655.25
412.36	16425.88
412.55	16313.53
412.74	15709.68
412.93	15360.94
413.12	15864.15
413.31	17661.68
413.50	17331.67
413.69	17593.81
413.88	16659.93
414.07	16655.25
414.26	17078.89
414.45	17525.93
414.64	17151.45
414.83	17334.01
415.02	17146.76
415.22	17060.16
415.41	17654.66
415.60	18061.91
415.79	18848.33
415.98	19176.01
416.17	18820.25
416.36	18562.79
416.55	18604.92
416.74	17521.25
416.93	17172.51
417.12	17401.88
417.31	17453.37
417.50	17811.48
417.69	18249.16
417.88	18153.20
418.07	17788.07
418.26	17846.58
418.45	18185.96
418.64	18836.63
418.83	19613.69
419.02	18906.85
419.21	18317.03
419.39	17813.82
419.58	17247.41
419.77	17703.81
419.96	18263.20
420.15	19349.21
420.34	19983.49
420.53	20397.77
420.72	20809.70
420.91	20594.37
421.10	20362.66
421.29	20044.35
421.48	19194.73
421.67	20634.16
421.86	19569.22
422.05	17804.46
422.24	16500.78
422.43	17287.20
422.61	19056.64
422.80	19932.00
422.99	19356.23
423.18	18391.93
423.37	18532.36
423.56	19117.50
423.75	19552.84
423.94	19648.80
424.13	18595.56
424.32	18602.58
424.50	18782.80
424.69	19119.84
424.88	18824.93
425.07	18794.50
425.26	18869.40
425.45	18010.42
425.64	17685.09
425.83	18312.35
426.01	19281.33
426.20	19297.72
426.39	19103.45
426.58	17652.32
426.77	16652.91
426.96	16425.88
427.15	17181.87
427.33	18279.58
427.52	18864.72
427.71	18932.59
427.90	18558.11
428.09	18270.22
428.28	17987.02
428.46	17268.47
428.65	17359.75
428.84	17975.31
429.03	17671.04
429.22	16844.84
429.40	15637.12
429.59	14298.33
429.78	12636.55
429.97	12987.63
430.16	13104.66
430.34	13135.09
430.53	13589.15
430.72	14368.55
430.91	15932.03
431.10	18558.11
431.28	21338.66
431.47	22405.95
431.66	22134.45
431.85	19798.59
432.03	18293.63
432.22	18387.25
432.41	19639.44
432.60	21249.72
432.79	21832.52
432.97	22408.29
433.16	21549.31
433.35	19257.93
433.54	17324.65
433.72	17064.85
433.91	18003.40
434.10	20032.65
434.28	21385.47
434.47	22122.74
434.66	21338.66
434.85	20966.52
435.03	21385.47
435.22	21277.81
435.41	22920.87
435.59	23197.05
435.78	23225.14
435.97	23545.79
436.16	23475.57
436.34	23185.35
436.53	22822.56
436.72	22946.61
436.90	22174.24
437.09	22017.42
437.28	21528.25
437.46	22572.13
437.65	21523.57
437.84	19939.02
438.02	18869.40
438.21	19403.04
438.40	20149.67
438.58	21509.52
438.77	22052.53
438.96	22546.38
439.14	23861.76
439.33	24261.99
439.52	24177.73
439.70	23197.05
439.89	22581.49
440.08	21937.84
440.26	22836.61
440.45	23625.37
440.63	25095.22
440.82	26022.08
441.01	25680.36
441.19	25305.87
441.38	26342.73
441.57	27157.24
441.75	27101.06
441.94	27402.99
442.12	27194.68
442.31	27714.28
442.50	27482.57
442.68	27442.78
442.87	26953.61
443.05	26939.57
443.24	27246.18
443.43	27346.82
443.61	27707.26
443.80	28175.37
443.98	27456.82
444.17	26663.38
444.35	28238.56
444.54	29092.86
444.73	28709.01
444.91	26792.11
445.10	25813.77
445.28	25273.10
445.47	24947.77
445.65	25120.97
445.84	26029.10
446.02	26558.06
446.21	27063.61
446.39	26916.16
446.58	27531.72
446.77	28470.28
446.95	28189.41
447.14	29179.46
447.32	29167.76
447.51	28807.31
447.69	27817.27
447.88	27938.97
448.06	28119.20
448.25	28409.42
448.43	27967.06
448.62	28144.94
448.80	27997.49
448.99	27758.75
449.17	28240.90
449.36	28966.47
449.54	29362.02
449.73	29757.57
449.91	30213.98
450.10	31248.49
450.28	31061.25
450.46	31117.42
450.65	31587.87
450.83	31178.28
451.02	30384.83
451.20	30230.36
451.39	30972.31
451.57	30558.03
451.76	30466.75
451.94	29846.51
452.13	29116.26
452.31	27201.71
452.49	26361.45
452.68	27262.56
452.86	27349.16
453.05	27915.57
453.23	29083.50
453.42	29584.37
453.60	29710.76
453.78	29699.06
453.97	30047.80
454.15	29237.97
454.34	28137.92
454.52	28442.19
454.70	28320.48
454.89	29104.56
455.07	28994.56
455.26	29495.43
455.44	30590.80
455.62	31173.60
455.81	30747.62
455.99	31098.70
456.17	31398.29
456.36	32034.91
456.54	32009.17
456.73	31091.68
456.91	31821.92
457.09	32327.48
457.28	33209.86
457.46	31241.47
457.64	30815.49
457.83	30338.02
458.01	30192.91
458.19	31119.76
458.38	31686.17
458.56	32180.03
458.74	31857.03
458.93	31363.18
459.11	30663.36
459.29	30300.58
459.48	31321.05
459.66	30836.56
459.84	31667.45
460.03	31964.70
460.21	32098.11
460.39	32290.03
460.57	32238.54
460.76	32378.97
460.94	32833.04
461.12	32498.34
461.31	32659.84
461.49	32905.59
461.67	32823.67
461.85	33659.24
462.04	33134.96
462.22	33237.95
462.40	33020.28
462.59	32624.73
462.77	32994.53
462.95	32957.08
463.13	32400.04
463.32	32180.03
463.50	32084.06
463.68	32613.02
463.86	32444.51
464.05	31779.79
464.23	31028.48
464.41	31459.14
464.59	31260.20
464.78	32563.87
464.96	32978.15
465.14	31700.22
465.32	33064.75
465.50	33771.59
465.69	33902.66
465.87	32900.91
466.05	32170.66
466.23	30705.49
466.41	30146.10
466.60	31527.02
466.78	31187.64
466.96	32079.38
467.14	32393.01
467.32	32524.08
467.51	32615.37
467.69	31023.80
467.87	31927.25
468.05	32975.81
468.23	32540.47
468.41	31814.90
468.60	32435.14
468.78	32837.72
468.96	32734.73
469.14	33139.65
469.32	33317.53
469.50	31335.09
469.69	31859.37
469.87	31604.25
470.05	31374.88
470.23	31323.39
470.41	32191.73
470.59	32533.45
470.77	31873.42
470.95	33310.50
471.14	33734.14
471.32	33654.56
471.50	35021.44
471.68	35519.97
471.86	35950.63
472.04	34991.01
472.22	35564.44
472.40	33958.83
472.58	33755.21
472.77	33816.06
472.95	34183.52
473.13	35030.80
473.31	33610.09
473.49	33596.05
473.67	34550.99
473.85	35452.09
474.03	36713.64
474.21	37226.22
474.39	37343.25
474.57	36278.30
474.75	36952.38
474.93	36498.31
475.12	35786.79
475.30	35948.29
475.48	35168.89
475.66	35445.07
475.84	35014.41
476.02	35461.46
476.20	34991.01
476.38	35786.79
476.56	36924.29
476.74	37368.99
476.92	37839.44
477.10	38057.11
477.28	38820.13
477.46	39005.03
477.64	39501.22
477.82	39267.17
478.00	39786.77
478.18	38803.74
478.36	38403.51
478.54	38815.44
478.72	39714.21
478.90	40865.75
479.08	42567.32
479.26	42162.41
479.44	42288.80
479.62	41151.30
479.80	42302.84
479.98	42071.13
480.16	42616.47
480.34	41691.96
480.52	42862.23
480.70	43297.57
480.88	42696.05
481.06	43150.12
481.24	43562.05
481.41	44367.20
481.59	45860.46
481.77	44325.07
481.95	43978.67
482.13	43147.78
482.31	44385.92
482.49	44788.49
482.67	44156.55
482.85	44421.03
483.03	44947.65
483.21	45794.92
483.39	44706.57
483.57	44594.23
483.74	44828.28
483.92	45738.75
484.10	45130.21
484.28	45605.34
484.46	45617.04
484.64	47295.21
484.82	45729.39
485.00	45329.16
485.18	44666.78
485.35	42632.86
485.53	37701.35
485.71	35608.91
485.89	36315.75
486.07	38862.26
486.25	41935.38
486.43	43945.90
486.61	43861.64
486.78	43791.42
486.96	44818.92
487.14	46808.37
487.32	47061.15
487.50	48509.94
487.68	49560.84
487.85	50138.96
488.03	49111.46
488.21	49078.69
488.39	48416.32
488.57	47316.27
488.75	47636.92
488.92	49221.47
489.10	50901.97
489.28	51676.69
489.46	53352.51
489.64	52708.86
489.81	53113.78
489.99	52037.13
490.17	52280.55
490.35	52200.97
490.53	52025.43
490.70	51627.54
490.88	51704.77
491.06	52917.17
491.24	53069.31
491.41	51470.72
491.59	49907.24
491.77	49947.03
491.95	51873.29
492.13	53081.01
492.30	53434.43
492.48	54218.51
492.66	54447.88
492.84	54197.44
493.01	53911.90
493.19	53762.11
493.37	53020.16
493.54	53698.91
493.72	54567.25
493.90	55000.25
494.08	55253.03
494.25	55381.76
494.43	56067.53
494.61	56420.95
494.79	56442.02
494.96	56694.80
495.14	56123.71
495.32	54752.15
495.49	55124.30
495.67	55718.79
495.85	56769.69
496.02	57446.11
496.20	56928.85
496.38	56605.86
496.55	56626.92
496.73	57504.62
496.91	57427.38
497.09	57291.63
497.26	57478.88
497.44	57083.33
497.62	55976.25
497.79	55458.99
497.97	54564.91
498.14	55304.52
498.32	56697.14
498.50	56320.31
498.67	56591.81
498.85	56921.83
499.03	57485.90
499.20	57937.62
499.38	57160.56
499.56	56772.03
499.73	56453.72
499.91	56186.90
500.08	55627.51
500.26	55402.82
500.44	56165.84
500.61	56392.87
500.79	56095.62
500.97	56353.08
501.14	55283.45
501.32	55346.65
501.49	55515.17
501.67	55662.62
501.84	56184.56
502.02	56743.95
502.20	57310.36
502.37	57762.08
502.55	57485.90
502.72	57888.47
502.90	58419.77
503.07	58096.78
503.25	56821.19
503.43	55730.50
503.60	55753.90
503.78	55496.44
503.95	55669.64
504.13	57324.40
504.30	57701.23
504.48	56989.70
504.65	57176.95
504.83	57544.41
505.01	58159.97
505.18	58375.30
505.36	58628.08
505.53	58761.49
505.71	59128.95
505.88	58894.90
506.06	58438.50
506.23	58066.35
506.41	58124.86
506.58	58417.43
506.76	58307.43
506.93	57733.99
507.11	57528.03
507.28	57897.83
507.46	57474.20
507.63	57146.52
507.81	56395.21
507.98	57240.14
508.16	58239.55
508.33	58279.34
508.50	58590.63
508.68	59093.85
508.85	59353.65
509.03	59517.48
509.20	58777.87
509.38	57790.17
509.55	57860.38
509.73	57916.56
509.90	58347.21
510.08	58422.11
510.25	57771.44
510.42	57829.96
510.60	58454.88
510.77	58724.04
510.95	58555.52
511.12	59044.69
511.30	59650.89
511.47	59835.80
511.64	59681.32
511.82	59613.44
511.99	58649.14
512.17	58665.53
512.34	58106.14
512.51	58033.58
512.69	58857.45
512.86	58487.65
513.04	58653.82
513.21	58007.84
513.38	57303.34
513.56	57013.11
513.73	56811.82
513.90	57340.78
514.08	57668.46
514.25	57162.90
514.43	57780.81
514.60	58169.33
514.77	58506.37
514.95	58417.43
515.12	58028.90
515.29	58880.86
515.47	59281.09
515.64	59096.19
515.81	58550.84
515.99	57841.66
516.16	55569.00
516.33	53649.76
516.51	53345.49
516.68	51807.76
516.85	51246.03
517.03	53291.66
517.20	55814.76
517.37	57509.30
517.54	58642.12
517.72	57064.60
517.89	54321.49
518.06	52811.85
518.24	54424.48
518.41	56353.08
518.58	57066.94
518.75	56886.72
518.93	57240.14
519.10	56484.15
519.27	57539.73
519.45	57923.58
519.62	58658.51
519.79	58681.91
519.96	58124.86
520.14	57907.19
520.31	56636.28
520.48	57261.21
520.65	58213.80
520.83	58941.71
521.00	58777.87
521.17	58293.38
521.34	58342.53
521.52	58930.01
521.69	59014.27
521.86	59381.73
522.03	59398.12
522.20	57635.69
522.38	57176.95
522.55	57687.18
522.72	58326.15
522.89	57874.43
523.07	58136.57
523.24	58728.72
523.41	59751.54
523.58	59980.91
523.75	60214.96
523.92	59800.69
524.10	59236.62
524.27	59208.53
524.44	59098.53
524.61	59021.29
524.78	59494.08
524.96	59243.64
525.13	59269.39
525.30	59606.42
525.47	59810.05
525.64	59664.94
525.81	59000.22
525.98	56980.34
526.16	55856.88
526.33	56088.60
526.50	55545.59
526.67	55569.00
526.84	55929.44
527.01	57176.95
527.18	57336.10
527.36	58656.17
527.53	59393.43
527.70	58651.48
527.87	57411.00
528.04	58653.82
528.21	59126.61
528.38	59604.08
528.55	60460.72
528.72	60217.30
528.89	59592.38
529.07	59461.31
529.24	58372.96
529.41	58071.03
529.58	58094.44
529.75	59154.70
529.92	59248.32
530.09	59089.16
530.26	59723.45
530.43	60638.60
530.60	59557.27
530.77	59770.26
530.94	60177.51
531.11	59384.07
531.28	59779.62
531.46	59845.16
531.63	59395.77
531.80	58822.34
531.97	58216.14
532.14	58728.72
532.31	57212.06
532.48	56488.83
532.65	56481.81
532.82	57256.53
532.99	58827.02
533.16	59082.14
533.33	58869.15
533.50	59557.27
533.67	59234.28
533.84	58337.85
534.01	58791.92
534.18	58993.20
534.35	58791.92
534.52	58246.57
534.69	58742.77
534.86	59601.74
535.03	59491.74
535.20	58976.82
535.37	60170.49
535.54	60327.31
535.71	60179.85
535.88	60456.04
536.05	58927.67
536.22	58344.87
536.38	58206.78
536.55	57151.20
536.72	57013.11
536.89	57776.12
537.06	58066.35
537.23	58855.11
537.40	58791.92
537.57	58560.20
537.74	58930.01
537.91	58913.62
538.08	58569.57
538.25	58616.38
538.42	59341.94
538.59	58590.63
538.75	57633.35
538.92	57345.47
539.09	57551.43
539.26	57427.38
539.43	57787.83
539.60	57989.11
539.77	58246.57
539.94	57851.02
540.11	57066.94
540.28	56786.08
540.44	56591.81
540.61	56556.70
540.78	57064.60
540.95	57827.62
541.12	58150.61
541.29	58426.79
541.46	58822.34
541.62	58623.40
541.79	57785.49
541.96	56945.23
542.13	57123.11
542.30	57291.63
542.47	58014.86
542.63	57745.70
542.80	57705.91
542.97	57242.48
543.14	57125.46
543.31	56961.62
543.48	58326.15
543.64	58569.57
543.81	59629.83
543.98	59210.87
544.15	57719.95
544.32	58344.87
544.48	57932.94
544.65	57918.90
544.82	58447.86
544.99	57169.93
545.16	56659.69
545.32	57134.82
545.49	57881.45
545.66	58134.23
545.83	57645.05
546.00	58089.76
546.16	58078.05
546.33	57942.30
546.50	58059.33
546.67	58574.25
546.83	57628.67
547.00	58298.06
547.17	57104.39
547.34	56320.31
547.50	56502.87
547.67	57497.60
547.84	58033.58
548.00	57975.07
548.17	57710.59
548.34	57902.51
548.51	58274.66
548.67	58621.06
548.84	58363.60
549.01	58403.39
549.18	57888.47
549.34	57659.10
549.51	57879.11
549.68	57736.34
549.84	57476.54
550.01	57202.69
550.18	56680.75
550.34	57193.33
550.51	57425.04
550.68	57743.36
550.84	57490.58
551.01	57155.88
551.18	56589.47
551.34	56317.97
551.51	57565.48
551.68	57607.61
551.84	57509.30
552.01	57595.90
552.18	56928.85
552.34	56334.35
552.51	56229.03
552.68	56198.60
552.84	56383.51
553.01	56184.56
553.18	57616.97
553.34	57698.89
553.51	57469.51
553.67	57038.86
553.84	56898.42
554.01	57322.06
554.17	56968.64
554.34	57052.90
554.51	56989.70
554.67	56500.53
554.84	56519.26
555.00	56203.28
555.17	56502.87
555.33	56212.65
555.50	55760.92
555.67	56528.62
555.83	56631.60
556.00	56505.21
556.16	55973.91
556.33	55515.17
556.50	56348.40
556.66	56184.56
556.83	55906.04
556.99	55444.95
557.16	55756.24
557.32	55735.18
557.49	55819.44
557.65	55639.22
557.82	56329.67
557.98	56430.32
558.15	55451.97
558.32	54663.21
558.48	54040.63
558.65	54129.57
558.81	54721.72
558.98	55426.23
559.14	55618.15
559.31	55154.72
559.47	54857.48
559.64	54419.80
559.80	54054.67
559.97	54794.28
560.13	56088.60
560.30	56910.13
560.46	57153.54
560.63	57661.44
560.79	57165.24
560.96	56463.08
561.12	55114.94
561.29	54712.36
561.45	54726.41
561.61	56149.45
561.78	55327.92
561.94	56034.77
562.11	55997.32
562.27	55093.87
562.44	55863.91
562.60	56100.30
562.77	56224.35
562.93	54855.14
563.10	54855.14
563.26	55138.34
563.42	55707.09
563.59	54707.68
563.75	54951.10
563.92	54958.12
564.08	54213.83
564.24	55199.19
564.41	54873.86
564.57	55847.52
564.74	55222.60
564.90	54375.33
565.07	54852.80
565.23	53436.77
565.39	53329.11
565.56	53752.74
565.72	53776.15
565.88	52196.29
566.05	54457.24
566.21	55447.29
566.38	54571.93
566.54	54438.52
566.70	55047.06
566.87	54836.41
567.03	54171.70
567.19	55173.45
567.36	55686.03
567.52	54422.14
567.68	54234.89
567.85	53375.92
568.01	53387.62
568.17	53757.42
568.34	54335.54
568.50	54382.35
568.66	54096.80
568.83	53181.65
568.99	53104.41
569.15	53404.00
569.32	53745.72
569.48	53399.32
569.64	52858.66
569.81	53073.99
569.97	52538.01
570.13	51927.13
570.30	51798.40
570.46	51180.49
570.62	50075.76
570.78	50667.92
570.95	51562.00
571.11	51346.67
571.27	51105.60
571.43	51819.46
571.60	51175.81
571.76	52940.58
571.92	52842.27
572.09	53516.35
572.25	53670.82
572.41	54185.74
572.57	53937.65
572.74	53670.82
572.90	54684.28
573.06	53525.71
573.22	53886.15
573.38	53612.31
573.55	54890.24
573.71	53443.79
573.87	53680.19
574.03	53656.78
574.20	52935.90
574.36	53120.80
574.52	52580.13
574.68	52172.88
574.84	51620.52
575.01	51641.58
575.17	52198.63
575.33	52296.93
575.49	52584.82
575.65	51262.41
575.82	52039.47
575.98	51147.73
576.14	52491.19
576.30	52985.05
576.46	51639.24
576.62	51810.10
576.79	51737.54
576.95	51856.91
577.11	52128.41
577.27	52114.37
577.43	52360.12
577.59	51255.39
577.75	50281.73
577.92	50047.68
578.08	50834.10
578.24	51313.90
578.40	51021.34
578.56	50433.86
578.72	50759.20
578.88	50494.72
579.04	51110.28
579.21	50270.03
579.37	50691.32
579.53	51358.38
579.69	50707.71
579.85	50958.14
580.01	50586.00
580.17	50438.54
580.33	51351.35
580.49	51601.79
580.65	49570.21
580.82	50562.59
580.98	51395.82
581.14	51887.34
581.30	51267.09
581.46	50787.28
581.62	51409.87
581.78	52107.35
581.94	51749.24
582.10	52287.57
582.26	52507.58
582.42	52222.03
582.58	50459.61
582.74	50260.66
582.90	50806.01
583.06	50829.41
583.22	51250.71
583.38	51168.79
583.54	51622.86
583.70	51915.42
583.86	50843.46
584.02	51129.00
584.18	50899.63
584.34	50101.51
584.50	49839.37
584.66	49710.64
584.82	50298.11
584.98	50319.18
585.14	49640.42
585.30	50038.31
