SpectraSuite Data File
++++++++++++++++++++++++++++++++++++
Date: Mon Oct 07 14:54:58 GMT-05:00 2013
User: price-jones
Dark Spectrum Present: No
Reference Spectrum Present: No
Number of Sampled Component Spectra: 1
Spectrometers: USB2+H05261
Integration Time (usec): 10000 (USB2+H05261)
Spectra Averaged: 1 (USB2+H05261)
Boxcar Smoothing: 0 (USB2+H05261)
Correct for Electrical Dark: No (USB2+H05261)
Strobe/Lamp Enabled: No (USB2+H05261)
Correct for Detector Non-linearity: No (USB2+H05261)
Correct for Stray Light: No (USB2+H05261)
Number of Pixels in Processed Spectrum: 2048
>>>>>Begin Processed Spectral Data<<<<<
365.73	0.00
365.92	0.00
366.12	0.00
366.32	0.00
366.52	0.00
366.72	0.00
366.91	0.00
367.11	0.00
367.31	0.00
367.51	0.00
367.70	0.00
367.90	0.00
368.10	0.00
368.30	0.00
368.49	0.00
368.69	0.00
368.89	0.00
369.09	0.00
369.28	0.00
369.48	0.00
369.68	0.00
369.87	0.00
370.07	0.00
370.27	0.00
370.47	0.00
370.66	0.00
370.86	215.33
371.06	227.03
371.25	191.92
371.45	196.60
371.65	173.20
371.84	117.03
372.04	152.13
372.24	201.29
372.44	187.24
372.63	283.20
372.83	217.67
373.03	128.73
373.22	102.98
373.42	107.66
373.62	196.60
373.81	170.86
374.01	262.14
374.21	191.92
374.40	191.92
374.60	152.13
374.79	229.37
374.99	294.91
375.19	318.31
375.38	325.33
375.58	294.91
375.78	290.23
375.97	337.04
376.17	320.65
376.37	297.25
376.56	334.70
376.76	322.99
376.95	339.38
377.15	407.25
377.35	344.06
377.54	449.38
377.74	479.81
377.93	475.13
378.13	517.26
378.33	435.34
378.52	470.45
378.72	369.80
378.91	348.74
379.11	322.99
379.31	355.76
379.50	262.14
379.70	358.10
379.89	365.12
380.09	433.00
380.28	428.32
380.48	465.77
380.68	449.38
380.87	447.04
381.07	430.66
381.26	383.85
381.46	299.59
381.65	273.84
381.85	217.67
382.04	182.56
382.24	222.35
382.43	187.24
382.63	149.79
382.83	177.88
383.02	201.29
383.22	110.01
383.41	138.09
383.61	215.33
383.80	250.44
384.00	292.57
384.19	404.91
384.39	437.68
384.58	500.87
384.78	332.36
384.97	465.77
385.17	411.93
385.36	337.04
385.56	337.04
385.75	365.12
385.95	447.04
386.14	456.40
386.34	430.66
386.53	411.93
386.72	379.17
386.92	400.23
387.11	360.44
387.31	449.38
387.50	477.47
387.70	479.81
387.89	447.04
388.09	442.36
388.28	454.06
388.48	440.02
388.67	425.98
388.86	559.39
389.06	528.96
389.25	676.41
389.45	627.26
389.64	662.37
389.84	615.56
390.03	578.11
390.22	610.88
390.42	681.10
390.61	786.42
390.81	763.01
391.00	814.51
391.19	821.53
391.39	758.33
391.58	767.70
391.78	603.86
391.97	688.12
392.16	599.18
392.36	512.58
392.55	369.80
392.75	189.58
392.94	72.56
393.13	95.96
393.33	220.01
393.52	283.20
393.71	416.62
393.91	545.34
394.10	634.29
394.29	697.48
394.49	751.31
394.68	819.19
394.88	837.91
395.07	851.96
395.26	875.36
395.46	812.17
395.65	805.14
395.84	650.67
396.04	512.58
396.23	435.34
396.42	215.33
396.62	241.08
396.81	311.29
397.00	411.93
397.19	685.78
397.39	894.08
397.58	1025.15
397.77	997.07
397.97	1081.33
398.16	1228.78
398.35	1224.10
398.55	1228.78
398.74	1317.72
398.93	1268.57
399.12	1163.25
399.32	1207.72
399.51	1128.14
399.70	1327.08
399.90	1373.89
400.09	1226.44
400.28	1163.25
400.47	1263.89
400.67	1371.55
400.86	1320.06
401.05	1404.32
401.24	1310.70
401.44	1455.81
401.63	1385.60
401.82	1474.54
402.01	1387.94
402.21	1390.28
402.40	1526.03
402.59	1313.04
402.78	1259.21
402.97	1352.83
403.17	1376.24
403.36	1418.36
403.55	1497.94
403.74	1502.62
403.93	1329.42
404.13	1364.53
404.32	1280.27
404.51	1376.24
404.70	1575.18
404.89	1458.15
405.09	1416.02
405.28	1446.45
405.47	1432.41
405.66	1458.15
405.85	1273.25
406.05	1254.53
406.24	1352.83
406.43	1401.98
406.62	1430.07
406.81	1420.71
407.00	1448.79
407.20	1434.75
407.39	1448.79
407.58	1399.64
407.77	1497.94
407.96	1612.63
408.15	1514.33
408.34	1565.82
408.54	1652.42
408.73	1591.56
408.92	1636.03
409.11	1689.87
409.30	1617.31
409.49	1299.00
409.68	1291.98
409.87	1186.65
410.07	1369.21
410.26	1397.30
410.45	1540.07
410.64	1629.01
410.83	1692.21
411.02	1710.93
411.21	1762.42
411.40	1685.19
411.59	1834.98
411.78	1682.85
411.98	1666.46
412.17	1696.89
412.36	1652.42
412.55	1659.44
412.74	1596.25
412.93	1671.14
413.12	1729.66
413.31	1827.96
413.50	1867.75
413.69	1877.11
413.88	1746.04
414.07	1682.85
414.26	1839.66
414.45	1867.75
414.64	1856.04
414.83	1830.30
415.02	1722.63
415.22	1860.73
415.41	1856.04
415.60	1863.07
415.79	2008.18
415.98	2012.86
416.17	1977.75
416.36	1940.30
416.55	2057.33
416.74	1947.33
416.93	1860.73
417.12	1832.64
417.31	1820.94
417.50	1905.20
417.69	1973.07
417.88	1895.83
418.07	1966.05
418.26	1893.49
418.45	1806.89
418.64	1895.83
418.83	2057.33
419.02	2017.54
419.21	2024.56
419.39	1853.70
419.58	1811.57
419.77	1741.36
419.96	1879.45
420.15	1940.30
420.34	2090.10
420.53	2099.46
420.72	2289.04
420.91	2267.98
421.10	2165.00
421.29	2221.17
421.48	2012.86
421.67	2062.01
421.86	2062.01
422.05	1947.33
422.24	1785.83
422.43	1654.76
422.61	1902.86
422.80	2108.82
422.99	2019.88
423.18	1912.22
423.37	1870.09
423.56	1898.17
423.75	1994.14
423.94	1926.26
424.13	1755.40
424.32	1858.39
424.50	1860.73
424.69	1872.43
424.88	1947.33
425.07	1879.45
425.26	1837.32
425.45	1930.94
425.64	1820.94
425.83	1727.32
426.01	1891.15
426.20	1867.75
426.39	2059.67
426.58	1846.68
426.77	1699.23
426.96	1636.03
427.15	1638.38
427.33	1783.49
427.52	1799.87
427.71	1905.20
427.90	1809.23
428.09	1853.70
428.28	1811.57
428.46	1755.40
428.65	1631.35
428.84	1872.43
429.03	1860.73
429.22	1703.91
429.40	1640.72
429.59	1329.42
429.78	1219.42
429.97	1259.21
430.16	1273.25
430.34	1331.76
430.53	1270.91
430.72	1289.64
430.91	1437.09
431.10	1771.79
431.28	2064.35
431.47	2314.79
431.66	2150.95
431.85	2026.90
432.03	1839.66
432.22	1732.00
432.41	1933.28
432.60	1942.64
432.79	2085.42
432.97	2120.53
433.16	2216.49
433.35	1956.69
433.54	1867.75
433.72	1650.08
433.91	1673.48
434.10	1827.96
434.28	1952.01
434.47	2108.82
434.66	2083.08
434.85	2022.22
435.03	1982.43
435.22	2022.22
435.41	2385.01
435.59	2305.43
435.78	2251.60
435.97	2242.23
436.16	2326.49
436.34	2174.36
436.53	2385.01
436.72	2263.30
436.90	2186.06
437.09	1982.43
437.28	2054.99
437.46	2153.29
437.65	2218.83
437.84	2097.12
438.02	1802.21
438.21	1795.19
438.40	1802.21
438.58	2139.25
438.77	2083.08
438.96	2242.23
439.14	2246.91
439.33	2340.54
439.52	2303.09
439.70	2305.43
439.89	2230.53
440.08	2223.51
440.26	2195.42
440.45	2298.41
440.63	2459.90
440.82	2539.48
441.01	2574.59
441.19	2473.95
441.38	2593.31
441.57	2588.63
441.75	2583.95
441.94	2675.23
442.12	2677.57
442.31	2754.81
442.50	2658.85
442.68	2672.89
442.87	2569.91
443.05	2544.16
443.24	2705.66
443.43	2705.66
443.61	2775.88
443.80	2759.49
443.98	2586.29
444.17	2691.62
444.35	2754.81
444.54	2792.26
444.73	2775.88
444.91	2555.86
445.10	2518.42
445.28	2401.39
445.47	2289.04
445.65	2331.17
445.84	2420.11
446.02	2483.31
446.21	2612.04
446.39	2684.59
446.58	2703.32
446.77	2642.46
446.95	2644.81
447.14	2829.71
447.32	2787.58
447.51	2689.28
447.69	2525.44
447.88	2677.57
448.06	2689.28
448.25	2736.09
448.43	2766.51
448.62	2614.38
448.80	2700.98
448.99	2661.19
449.17	2782.90
449.36	2668.21
449.54	2729.06
449.73	2918.65
449.91	2923.33
450.10	2956.10
450.28	3103.55
450.46	2974.82
450.65	3087.17
450.83	2935.03
451.02	2857.79
451.20	2782.90
451.39	2794.60
451.57	2773.53
451.76	2857.79
451.94	2787.58
452.13	2841.41
452.31	2665.87
452.49	2438.84
452.68	2490.33
452.86	2630.76
453.05	2583.95
453.23	2616.72
453.42	2715.02
453.60	2871.84
453.78	2825.03
453.97	2846.09
454.15	2736.09
454.34	2768.85
454.52	2663.53
454.70	2679.91
454.89	2626.08
455.07	2705.66
455.26	2808.64
455.44	2911.63
455.62	2909.29
455.81	2935.03
455.99	2834.39
456.17	2733.75
456.36	2832.05
456.54	2869.50
456.73	3023.97
456.91	2928.01
457.09	3077.80
457.28	3084.83
457.46	2942.05
457.64	3054.40
457.83	3023.97
458.01	2794.60
458.19	2815.66
458.38	2916.31
458.56	2949.08
458.74	2871.84
458.93	2740.77
459.11	2836.73
459.29	2853.11
459.48	2967.80
459.66	2846.09
459.84	2832.05
460.03	2965.46
460.21	2944.39
460.39	2977.16
460.57	3000.57
460.76	3056.74
460.94	3007.59
461.12	2963.12
461.31	3005.25
461.49	2888.22
461.67	2923.33
461.85	3115.25
462.04	3042.70
462.22	3068.44
462.40	3178.45
462.59	3035.67
462.77	3049.72
462.95	3075.46
463.13	2995.89
463.32	2956.10
463.50	2888.22
463.68	3026.31
463.86	2904.60
464.05	2881.20
464.23	2939.71
464.41	2850.77
464.59	2724.38
464.78	2956.10
464.96	2871.84
465.14	2974.82
465.32	2909.29
465.50	3126.96
465.69	3164.40
465.87	2937.37
466.05	3005.25
466.23	2801.62
466.41	2691.62
466.60	2848.43
466.78	2888.22
466.96	2857.79
467.14	2906.95
467.32	2911.63
467.51	2916.31
467.69	2808.64
467.87	2895.24
468.05	2960.78
468.23	2895.24
468.41	2930.35
468.60	2904.60
468.78	3052.06
468.96	2892.90
469.14	3023.97
469.32	3052.06
469.50	2951.42
469.69	2827.37
469.87	2892.90
470.05	2757.15
470.23	2895.24
470.41	2850.77
470.59	2920.99
470.77	2829.71
470.95	3026.31
471.14	2972.48
471.32	3059.08
471.50	3005.25
471.68	3218.24
471.86	3155.04
472.04	3227.60
472.22	3276.75
472.40	3066.10
472.58	3038.02
472.77	3026.31
472.95	2925.67
473.13	3173.77
473.31	3133.98
473.49	2972.48
473.67	3077.80
473.85	3049.72
474.03	3119.93
474.21	3286.11
474.39	3199.51
474.57	3162.06
474.75	3288.45
474.93	3199.51
475.12	3070.78
475.30	3213.56
475.48	3215.90
475.66	3258.03
475.84	3227.60
476.02	3105.89
476.20	3103.55
476.38	3185.47
476.56	3293.13
476.74	3309.52
476.92	3286.11
477.10	3304.84
477.28	3412.50
477.46	3424.20
477.64	3531.87
477.82	3447.61
478.00	3538.89
478.18	3492.08
478.36	3368.03
478.54	3447.61
478.72	3492.08
478.90	3665.28
479.08	3737.84
479.26	3595.06
479.44	3637.19
479.62	3676.98
479.80	3613.79
479.98	3728.47
480.16	3786.99
480.34	3639.53
480.52	3653.58
480.70	3754.22
480.88	3709.75
481.06	3927.42
481.24	3801.03
481.41	3955.51
481.59	4070.19
481.77	3974.23
481.95	3822.09
482.13	3861.88
482.31	3990.61
482.49	4112.32
482.67	3936.78
482.85	3859.54
483.03	4025.72
483.21	3969.55
483.39	3992.95
483.57	4023.38
483.74	4009.34
483.92	4060.83
484.10	3887.63
484.28	4093.60
484.46	4236.37
484.64	4187.22
484.82	3995.29
485.00	3939.12
485.18	3922.74
485.35	3801.03
485.53	3442.93
485.71	3234.62
485.89	3119.93
486.07	3211.22
486.25	3611.45
486.43	3868.91
486.61	3925.08
486.78	3880.61
486.96	3918.06
487.14	4021.04
487.32	4194.24
487.50	4475.10
487.68	4479.79
487.85	4461.06
488.03	4500.85
488.21	4507.87
488.39	4402.55
488.57	4231.69
488.75	4189.56
488.92	4278.50
489.10	4645.96
489.28	4849.59
489.46	4926.83
489.64	4983.00
489.81	5034.49
489.99	4980.66
490.17	4903.42
490.35	4875.34
490.53	4985.34
490.70	4861.29
490.88	4753.63
491.06	5029.81
491.24	4964.28
491.41	4727.88
491.59	4507.87
491.77	4454.04
491.95	4554.68
492.13	4882.36
492.30	4922.15
492.48	5027.47
492.66	5249.82
492.84	5088.32
493.01	5177.26
493.19	5076.62
493.37	5060.24
493.54	4924.49
493.72	5132.79
493.90	5219.39
494.08	5418.34
494.25	5394.93
494.43	5373.87
494.61	5549.41
494.79	5724.95
494.96	5387.91
495.14	5303.65
495.32	5282.59
495.49	5114.07
495.67	5320.04
495.85	5638.35
496.02	5551.75
496.20	5600.90
496.38	5453.45
496.55	5362.17
496.73	5441.75
496.91	5446.43
497.09	5776.44
497.26	5771.76
497.44	5582.18
497.62	5453.45
497.79	5289.61
497.97	5048.54
498.14	5174.92
498.32	5387.91
498.50	5554.09
498.67	5696.86
498.85	5668.78
499.03	5668.78
499.20	5755.38
499.38	5811.55
499.56	5748.36
499.73	5526.00
499.91	5598.56
500.08	5390.25
500.26	5266.21
500.44	5205.35
500.61	5413.66
500.79	5614.95
500.97	5301.31
501.14	5327.06
501.32	5294.29
501.49	5315.36
501.67	5355.15
501.84	5373.87
502.02	5380.89
502.20	5472.17
502.37	5577.50
502.55	5432.38
502.72	5614.95
502.90	5738.99
503.07	5689.84
503.25	5666.44
503.43	5741.33
503.60	5542.39
503.78	5284.93
503.95	5245.14
504.13	5561.11
504.30	5792.83
504.48	5893.47
504.65	5657.07
504.83	5731.97
505.01	5804.53
505.18	6008.16
505.36	5806.87
505.53	6015.18
505.71	6209.44
505.88	6066.67
506.06	6031.56
506.23	5781.12
506.41	5785.80
506.58	5769.42
506.76	5804.53
506.93	5685.16
507.11	5741.33
507.28	5671.12
507.46	5673.46
507.63	5504.94
507.81	5408.98
507.98	5488.56
508.16	5504.94
508.33	5659.42
508.50	5982.41
508.68	5996.45
508.85	6087.73
509.03	6071.35
509.20	6019.86
509.38	5727.29
509.55	5628.99
509.73	5647.71
509.90	5933.26
510.08	5771.76
510.25	5736.65
510.42	5645.37
510.60	5760.06
510.77	5865.38
510.95	6017.52
511.12	6031.56
511.30	6078.37
511.47	6150.93
511.64	6125.18
511.82	5905.17
511.99	5877.09
512.17	5872.40
512.34	5561.11
512.51	5600.90
512.69	5715.59
512.86	5675.80
513.04	5912.19
513.21	5853.68
513.38	5827.93
513.56	5727.29
513.73	5509.62
513.90	5474.51
514.08	5533.03
514.25	5678.14
514.43	5664.10
514.60	5598.56
514.77	5743.67
514.95	5621.97
515.12	5753.04
515.29	5778.78
515.47	5879.43
515.64	5954.32
515.81	5816.23
515.99	5746.02
516.16	5289.61
516.33	4887.04
516.51	4793.42
516.68	4669.37
516.85	4554.68
517.03	4744.27
517.20	5186.63
517.37	5708.57
517.54	5722.61
517.72	5495.58
517.89	5214.71
518.06	4788.74
518.24	4706.82
518.41	5160.88
518.58	5427.70
518.75	5315.36
518.93	5355.15
519.10	5418.34
519.27	5607.92
519.45	5589.20
519.62	5706.23
519.79	5668.78
519.96	5551.75
520.14	5575.16
520.31	5451.11
520.48	5605.58
520.65	5734.31
520.83	5816.23
521.00	5844.32
521.17	5755.38
521.34	5652.39
521.52	5818.57
521.69	5881.77
521.86	5905.17
522.03	5708.57
522.20	5643.03
522.38	5366.85
522.55	5462.81
522.72	5497.92
522.89	5535.37
523.07	5518.98
523.24	5729.63
523.41	5846.66
523.58	5879.43
523.75	5879.43
523.92	5980.07
524.10	6069.01
524.27	6104.12
524.44	5954.32
524.61	5839.64
524.78	5994.11
524.96	5748.36
525.13	5685.16
525.30	5956.66
525.47	6029.22
525.64	6071.35
525.81	5657.07
525.98	5535.37
526.16	5226.42
526.33	4975.98
526.50	5020.45
526.67	4816.82
526.84	5109.39
527.01	5233.44
527.18	5313.02
527.36	5675.80
527.53	5755.38
527.70	5858.36
527.87	5748.36
528.04	5619.63
528.21	5717.93
528.38	6047.94
528.55	6059.65
528.72	6141.57
528.89	6115.82
529.07	6083.05
529.24	5923.90
529.41	5722.61
529.58	5636.01
529.75	5661.76
529.92	5937.94
530.09	5834.96
530.26	5783.46
530.43	6113.48
530.60	6069.01
530.77	6122.84
530.94	6101.78
531.11	5949.64
531.28	5764.74
531.46	5659.42
531.63	5731.97
531.80	5804.53
531.97	5841.98
532.14	5825.59
532.31	5362.17
532.48	4985.34
532.65	5135.14
532.82	5298.97
532.99	5724.95
533.16	5692.18
533.33	5888.79
533.50	5696.86
533.67	5774.10
533.84	5579.84
534.01	5547.07
534.18	5806.87
534.35	5982.41
534.52	5680.48
534.69	5577.50
534.86	5694.52
535.03	5832.62
535.20	5963.68
535.37	5867.72
535.54	5895.81
535.71	5865.38
535.88	6019.86
536.05	5734.31
536.22	5577.50
536.38	5675.80
536.55	5364.51
536.72	5401.96
536.89	5345.78
537.06	5502.60
537.23	5661.76
537.40	5713.25
537.57	5699.20
537.74	5879.43
537.91	5724.95
538.08	5776.44
538.25	5774.10
538.42	5724.95
538.59	5617.29
538.75	5619.63
538.92	5568.13
539.09	5359.83
539.26	5373.87
539.43	5401.96
539.60	5455.79
539.77	5310.68
539.94	5460.47
540.11	5156.20
540.28	5109.39
540.44	5022.79
540.61	5174.92
540.78	5219.39
540.95	5224.08
541.12	5385.57
541.29	5441.75
541.46	5628.99
541.62	5460.47
541.79	5528.35
541.96	5399.62
542.13	5203.01
542.30	5439.40
542.47	5390.25
542.63	5305.99
542.80	5497.92
542.97	5320.04
543.14	5416.00
543.31	5500.26
543.48	5488.56
543.64	5516.64
543.81	5570.48
543.98	5610.26
544.15	5493.24
544.32	5378.55
544.48	5434.72
544.65	5479.19
544.82	5411.32
544.99	5359.83
545.16	5387.91
545.32	5310.68
545.49	5327.06
545.66	5621.97
545.83	5521.32
546.00	5511.96
546.16	5345.78
546.33	5327.06
546.50	5448.77
546.67	5329.40
546.83	5399.62
547.00	5476.85
547.17	5469.83
547.34	5294.29
547.50	5167.90
547.67	5210.03
547.84	5284.93
548.00	5427.70
548.17	5298.97
548.34	5423.02
548.51	5305.99
548.67	5502.60
548.84	5390.25
549.01	5474.51
549.18	5366.85
549.34	5387.91
549.51	5432.38
549.68	5469.83
549.84	5371.53
550.01	5289.61
550.18	5277.91
550.34	5247.48
550.51	5238.12
550.68	5371.53
550.84	5240.46
551.01	5233.44
551.18	5128.11
551.34	5224.08
551.51	5252.16
551.68	5355.15
551.84	5378.55
552.01	5284.93
552.18	5408.98
552.34	5093.01
552.51	5025.13
552.68	5041.51
552.84	5139.82
553.01	5200.67
553.18	5203.01
553.34	5200.67
553.51	5270.89
553.67	5324.72
553.84	5373.87
554.01	5310.68
554.17	5298.97
554.34	5282.59
554.51	5284.93
554.67	5266.21
554.84	5275.57
555.00	5231.10
555.17	5282.59
555.33	5118.75
555.50	5247.48
555.67	5151.52
555.83	4959.60
556.00	5195.99
556.16	5050.88
556.33	4882.36
556.50	4952.57
556.66	4875.34
556.83	4821.50
556.99	4884.70
557.16	4851.93
557.32	4964.28
557.49	5163.22
557.65	5043.85
557.82	4961.94
557.98	4968.96
558.15	4910.44
558.32	4716.18
558.48	4648.30
558.65	4774.69
558.81	4676.39
558.98	4718.52
559.14	4765.33
559.31	4842.57
559.47	4821.50
559.64	4983.00
559.80	4613.20
559.97	4762.99
560.13	4919.81
560.30	4943.21
560.46	4975.98
560.63	5114.07
560.79	5036.83
560.96	5011.09
561.12	4837.89
561.29	4704.48
561.45	4823.84
561.61	4706.82
561.78	4833.21
561.94	4751.29
562.11	4903.42
562.27	4765.33
562.44	4767.67
562.60	4961.94
562.77	5004.07
562.93	4779.37
563.10	4809.80
563.26	4891.72
563.42	4791.08
563.59	4634.26
563.75	4713.84
563.92	4873.00
564.08	4760.65
564.24	4830.87
564.41	4887.04
564.57	4784.06
564.74	4746.61
564.90	4634.26
565.07	4538.30
565.23	4538.30
565.39	4688.09
565.56	4423.61
565.72	4386.16
565.88	4447.02
566.05	4606.17
566.21	4468.08
566.38	4479.79
566.54	4699.80
566.70	4648.30
566.87	4767.67
567.03	4727.88
567.19	4706.82
567.36	4807.46
567.52	4674.05
567.68	4627.24
567.85	4486.81
568.01	4566.39
568.17	4402.55
568.34	4386.16
568.50	4400.21
568.66	4442.34
568.83	4519.57
568.99	4475.10
569.15	4423.61
569.32	4542.98
569.48	4517.23
569.64	4367.44
569.81	4463.40
569.97	4454.04
570.13	4365.10
570.30	4227.01
570.46	4184.88
570.62	4245.73
570.78	4154.45
570.95	4166.15
571.11	4276.16
571.27	4390.84
571.43	4360.42
571.60	4365.10
571.76	4535.96
571.92	4444.68
572.09	4428.29
572.25	4505.53
572.41	4367.44
572.57	4486.81
572.74	4440.00
572.90	4444.68
573.06	4381.48
573.22	4472.76
573.38	4381.48
573.55	4416.59
573.71	4306.59
573.87	4468.08
574.03	4337.01
574.20	4262.12
574.36	4456.38
574.52	4269.14
574.68	4348.72
574.84	4264.46
575.01	4177.86
575.17	4060.83
575.33	4166.15
575.49	4294.88
575.65	4224.67
575.82	4180.20
575.98	4227.01
576.14	4131.05
576.30	4271.48
576.46	4365.10
576.62	4201.26
576.79	4170.83
576.95	4180.20
577.11	4105.30
577.27	4065.51
577.43	4126.36
577.59	4264.46
577.75	4028.06
577.92	4009.34
578.08	3875.93
578.24	3887.63
578.40	4058.49
578.56	4105.30
578.72	4046.79
578.88	4133.39
579.04	4299.56
579.21	4271.48
579.37	4044.45
579.53	4044.45
579.69	4079.55
579.85	4124.02
580.01	4238.71
580.17	4084.23
580.33	3995.29
580.49	3946.14
580.65	4135.73
580.82	4058.49
580.98	4318.29
581.14	4128.70
581.30	4102.96
581.46	4266.80
581.62	4007.00
581.78	4121.68
581.94	4299.56
582.10	4245.73
582.26	4182.54
582.42	4140.41
582.58	4180.20
582.74	4070.19
582.90	4224.67
583.06	4095.94
583.22	4032.74
583.38	4175.52
583.54	4102.96
583.70	4142.75
583.86	4177.86
584.02	4156.79
584.18	4086.58
584.34	4049.13
584.50	4227.01
584.66	3999.98
584.82	3962.53
584.98	4063.17
585.14	3918.06
585.30	3948.48
585.46	3857.20
585.62	3707.41
585.78	3749.54
585.94	3913.38
586.10	3742.52
586.26	3880.61
586.42	3815.07
586.58	3960.19
586.74	3920.40
586.90	3995.29
587.06	3889.97
587.22	3976.57
587.38	3786.99
587.54	3901.67
587.70	3845.50
587.86	3794.01
588.02	3845.50
588.18	3691.02
588.34	3637.19
588.49	3400.80
588.65	3246.32
588.81	3180.79
588.97	3251.00
589.13	3229.94
589.29	3187.81
589.45	3316.54
589.61	3417.18
589.77	3604.42
589.93	3503.78
590.08	3679.32
590.24	3613.79
590.40	3674.64
590.56	3686.34
590.72	3632.51
590.88	3592.72
591.04	3538.89
591.20	3461.65
591.35	3564.64
591.51	3548.25
591.67	3714.43
591.83	3576.34
591.99	3569.32
592.15	3463.99
592.31	3627.83
592.46	3700.39
592.62	3569.32
592.78	3562.30
592.94	3548.25
593.10	3454.63
593.26	3639.53
593.41	3740.18
593.57	3712.09
593.73	3602.08
593.89	3559.95
594.05	3454.63
594.20	3569.32
594.36	3449.95
594.52	3522.51
594.68	3461.65
594.84	3524.85
594.99	3524.85
595.15	3407.82
595.31	3487.40
595.47	3550.59
595.62	3543.57
595.78	3637.19
595.94	3581.02
596.10	3421.86
596.25	3552.93
596.41	3592.72
596.57	3475.70
596.73	3428.88
596.88	3403.14
597.04	3555.27
597.20	3475.70
597.36	3297.81
597.51	3447.61
597.67	3489.74
597.83	3349.31
597.99	3515.48
