SpectraSuite Data File
++++++++++++++++++++++++++++++++++++
Date: Mon Oct 07 14:53:35 GMT-05:00 2013
User: price-jones
Dark Spectrum Present: No
Reference Spectrum Present: No
Number of Sampled Component Spectra: 1
Spectrometers: USB2+H05261
Integration Time (usec): 100000 (USB2+H05261)
Spectra Averaged: 1 (USB2+H05261)
Boxcar Smoothing: 0 (USB2+H05261)
Correct for Electrical Dark: No (USB2+H05261)
Strobe/Lamp Enabled: No (USB2+H05261)
Correct for Detector Non-linearity: No (USB2+H05261)
Correct for Stray Light: No (USB2+H05261)
Number of Pixels in Processed Spectrum: 2048
>>>>>Begin Processed Spectral Data<<<<<
365.73	0.00
365.92	0.00
366.12	0.00
366.32	0.00
366.52	0.00
366.72	0.00
366.91	0.00
367.11	0.00
367.31	0.00
367.51	0.00
367.70	0.00
367.90	0.00
368.10	0.00
368.30	0.00
368.49	0.00
368.69	0.00
368.89	0.00
369.09	0.00
369.28	0.00
369.48	0.00
369.68	0.00
369.87	0.00
370.07	0.00
370.27	0.00
370.47	840.25
370.66	3403.14
370.86	4058.49
371.06	4667.03
371.25	4610.86
371.45	4023.38
371.65	3754.22
371.84	3506.12
372.04	3515.48
372.24	4046.79
372.44	4388.50
372.63	4180.20
372.83	3772.94
373.03	3426.54
373.22	3152.70
373.42	3178.45
373.62	3875.93
373.81	4257.43
374.01	4102.96
374.21	3878.27
374.40	3463.99
374.60	3522.51
374.79	4257.43
374.99	4830.87
375.19	5027.47
375.38	5114.07
375.58	4854.27
375.78	4830.87
375.97	4781.71
376.17	5076.62
376.37	5025.13
376.56	5174.92
376.76	5378.55
376.95	5825.59
377.15	6239.87
377.35	6274.98
377.54	6614.35
377.74	6789.89
377.93	7014.59
378.13	6672.87
378.33	6417.75
378.52	5902.83
378.72	5593.88
378.91	5722.61
379.11	5376.21
379.31	5071.94
379.50	4926.83
379.70	5521.32
379.89	6146.25
380.09	6431.79
380.28	6850.75
380.48	6654.14
380.68	6745.42
380.87	6581.59
381.07	6005.81
381.26	5577.50
381.46	5235.78
381.65	4922.15
381.85	4844.91
382.04	4664.69
382.24	4456.38
382.43	4028.06
382.63	4067.85
382.83	3953.16
383.02	4329.99
383.22	4107.64
383.41	4095.94
383.61	4301.90
383.80	5121.09
384.00	5565.79
384.19	6427.11
384.39	6654.14
384.58	6815.64
384.78	6551.16
384.97	6516.05
385.17	6225.82
385.36	5959.00
385.56	5617.29
385.75	5769.42
385.95	6253.91
386.14	6750.10
386.34	6855.43
386.53	6682.23
386.72	6204.76
386.92	6218.80
387.11	6509.03
387.31	6806.28
387.50	6832.02
387.70	6478.60
387.89	6417.75
388.09	6464.56
388.28	6520.73
388.48	6600.31
388.67	7201.83
388.86	8002.29
389.06	8397.84
389.25	8884.67
389.45	8973.61
389.64	8894.04
389.84	8791.05
390.03	8641.26
390.22	8755.94
390.42	9156.18
390.61	9376.19
390.81	10272.61
391.00	10347.51
391.19	10501.98
391.39	10139.20
391.58	9401.93
391.78	8936.17
391.97	8402.52
392.16	7990.59
392.36	7344.60
392.55	5839.64
392.75	4713.84
392.94	3786.99
393.13	3588.04
393.33	4341.69
393.52	5746.02
393.71	7026.29
393.91	7927.39
394.10	8439.97
394.29	9427.68
394.49	10026.86
394.68	10726.68
394.88	11002.86
395.07	11236.91
395.26	11213.51
395.46	10885.83
395.65	10211.76
395.84	8924.46
396.04	7655.89
396.23	6176.67
396.42	5212.37
396.62	5055.56
396.81	5778.78
397.00	7487.37
397.19	9172.56
397.39	10939.66
397.58	12388.46
397.77	13135.09
397.97	13668.73
398.16	13792.78
398.35	14417.70
398.55	14630.69
398.74	15129.22
398.93	15704.99
399.12	15580.95
399.32	14750.06
399.51	15229.87
399.70	16210.55
399.90	15721.38
400.09	16009.26
400.28	15719.04
400.47	15709.68
400.67	16910.37
400.86	17184.21
401.05	17130.38
401.24	17174.85
401.44	17514.23
401.63	17355.07
401.82	17532.95
402.01	17657.00
402.21	17759.98
402.40	18216.39
402.59	17577.42
402.78	16872.92
402.97	16334.60
403.17	16580.36
403.36	17446.35
403.55	18176.60
403.74	18874.08
403.93	17799.77
404.13	16709.08
404.32	16074.80
404.51	16896.33
404.70	18384.91
404.89	18487.89
405.09	18071.28
405.28	17364.43
405.47	17645.30
405.66	17394.86
405.85	17078.89
406.05	16383.75
406.24	16657.59
406.43	17322.30
406.62	18038.51
406.81	18192.98
407.00	17441.67
407.20	17177.19
407.39	17523.59
407.58	17987.02
407.77	18600.24
407.96	19255.59
408.15	19543.47
408.34	19601.99
408.54	20514.80
408.73	20542.88
408.92	20353.30
409.11	19955.41
409.30	18731.31
409.49	17827.86
409.68	16737.17
409.87	16229.27
410.07	17158.47
410.26	18281.92
410.45	19536.45
410.64	20044.35
410.83	20821.41
411.02	21341.00
411.21	22471.48
411.40	21532.93
411.59	21865.28
411.78	21848.90
411.98	21380.79
412.17	21851.24
412.36	21387.82
412.55	21352.71
412.74	20975.88
412.93	20465.64
413.12	21055.46
413.31	22719.58
413.50	22995.76
413.69	22948.95
413.88	22394.25
414.07	21488.46
414.26	22256.15
414.45	22930.23
414.64	22876.40
414.83	22876.40
415.02	22422.33
415.22	22827.24
415.41	22998.10
415.60	23403.02
415.79	24910.32
415.98	25486.09
416.17	25532.90
416.36	24519.45
416.55	24531.15
416.74	23183.01
416.93	22525.32
417.12	22862.35
417.31	23115.13
417.50	23367.91
417.69	24350.93
417.88	24238.59
418.07	23836.02
418.26	23377.27
418.45	23510.68
418.64	24594.35
418.83	25563.33
419.02	25078.84
419.21	24940.75
419.39	23878.15
419.58	22597.87
419.77	22604.89
419.96	23878.15
420.15	25235.66
420.34	26003.35
420.53	26665.72
420.72	27267.24
420.91	26941.91
421.10	26766.37
421.29	26331.03
421.48	25675.68
421.67	27138.51
421.86	26033.78
422.05	24393.06
422.24	21926.14
422.43	21596.12
422.61	24009.22
422.80	25949.52
422.99	26078.25
423.18	25355.02
423.37	24360.30
423.56	24486.68
423.75	24802.66
423.94	24982.88
424.13	23871.12
424.32	24470.30
424.50	24430.51
424.69	24044.32
424.88	24580.31
425.07	24034.96
425.26	24439.87
425.45	23707.29
425.64	23707.29
425.83	23136.20
426.01	24961.81
426.20	25331.62
426.39	25263.74
426.58	23513.02
426.77	21479.10
426.96	20697.36
427.15	21544.63
427.33	23599.62
427.52	24491.37
427.71	24739.46
427.90	24095.82
428.09	23913.25
428.28	23360.89
428.46	22647.02
428.65	22342.75
428.84	22555.74
429.03	23435.78
429.22	22108.70
429.40	21371.43
429.59	18948.98
429.78	16835.47
429.97	16821.43
430.16	16793.34
430.34	17076.55
430.53	16968.88
430.72	17378.48
430.91	19304.74
431.10	22284.24
431.28	26637.64
431.47	29088.18
431.66	29043.71
431.85	26871.69
432.03	24561.58
432.22	23384.29
432.41	24154.33
432.60	26721.90
432.79	27833.65
432.97	28437.51
433.16	28217.50
433.35	25673.34
433.54	22909.16
433.72	21542.29
433.91	22274.88
434.10	25165.44
434.28	26511.25
434.47	27899.19
434.66	27653.43
434.85	26691.47
435.03	26705.51
435.22	27494.27
435.41	29156.05
435.59	29029.66
435.78	29544.58
435.97	30293.55
436.16	30916.14
436.34	29935.45
436.53	29680.33
436.72	29869.92
436.90	27964.72
437.09	27871.10
437.28	27220.43
437.46	28547.51
437.65	28210.48
437.84	26520.61
438.02	24350.93
438.21	23988.15
438.40	25287.15
438.58	27608.96
438.77	28151.96
438.96	28549.85
439.14	29790.34
439.33	30529.95
439.52	30890.39
439.70	30476.12
439.89	29680.33
440.08	28652.84
440.26	28737.10
440.45	29418.19
440.63	31660.43
440.82	33102.20
441.01	32811.97
441.19	32535.79
441.38	32954.74
441.57	34190.55
441.75	34628.23
441.94	35068.25
442.12	34274.80
442.31	35314.00
442.50	35040.16
442.68	34831.85
442.87	34227.99
443.05	33935.43
443.24	34338.00
443.43	35194.64
443.61	35742.32
443.80	36081.70
443.98	34129.69
444.17	33961.17
444.35	36472.57
444.54	36533.42
444.73	36119.15
444.91	35110.38
445.10	33237.95
445.28	32238.54
445.47	31339.77
445.65	31508.29
445.84	32940.70
446.02	33769.25
446.21	34286.51
446.39	34146.08
446.58	34871.64
446.77	35461.46
446.95	35697.85
447.14	36889.18
447.32	37198.13
447.51	36662.15
447.69	34965.26
447.88	34843.56
448.06	34876.32
448.25	36198.73
448.43	36282.98
448.62	35281.24
448.80	35555.08
448.99	35742.32
449.17	36107.44
449.36	35817.22
449.54	37123.24
449.73	37839.44
449.91	38047.75
450.10	39124.40
450.28	39564.42
450.46	39145.46
450.65	39119.71
450.83	39033.11
451.02	38660.97
451.20	38272.44
451.39	38263.08
451.57	37811.35
451.76	37858.17
451.94	37839.44
452.13	37050.68
452.31	35747.00
452.49	34136.71
452.68	34419.92
452.86	34628.23
453.05	35072.93
453.23	35672.10
453.42	36624.70
453.60	37968.17
453.78	38014.98
453.97	37170.05
454.15	37907.32
454.34	36577.89
454.52	36720.66
454.70	35878.07
454.89	36414.05
455.07	36566.19
455.26	37179.41
455.44	38085.20
455.62	39129.08
455.81	39269.51
455.99	38740.55
456.17	38773.31
456.36	38649.27
456.54	39690.80
456.73	39990.39
456.91	40521.69
457.09	40219.77
457.28	41263.64
457.46	39871.03
457.64	39388.88
457.83	37958.81
458.01	37612.41
458.19	38029.02
458.38	39005.03
458.56	40416.37
458.74	39920.18
458.93	39098.65
459.11	39112.69
459.29	38672.67
459.48	39068.22
459.66	38689.06
459.84	39199.29
460.03	39831.24
460.21	39473.13
460.39	40498.29
460.57	40451.48
460.76	41076.40
460.94	41219.17
461.12	40765.11
461.31	40463.18
461.49	40336.79
461.67	40662.13
461.85	41750.48
462.04	41792.61
462.22	42447.96
462.40	41869.84
462.59	41621.75
462.77	41982.19
462.95	41656.85
463.13	40861.07
463.32	40807.24
463.50	40687.87
463.68	40725.32
463.86	40718.30
464.05	40126.14
464.23	39538.67
464.41	39309.30
464.59	38452.66
464.78	40587.23
464.96	40507.65
465.14	39814.85
465.32	41092.79
465.50	41715.37
465.69	41720.05
465.87	41523.44
466.05	40257.21
466.23	38827.15
466.41	37631.13
466.60	38983.96
466.78	38562.67
466.96	39576.12
467.14	39962.31
467.32	40708.94
467.51	40685.53
467.69	38848.21
467.87	39901.45
468.05	40074.65
468.23	40362.54
468.41	40458.50
468.60	40369.56
468.78	40587.23
468.96	40130.83
469.14	41244.92
469.32	41134.92
469.50	39896.77
469.69	40381.26
469.87	39711.87
470.05	39026.09
470.23	39180.57
470.41	39445.05
470.59	39974.01
470.77	39999.76
470.95	41034.27
471.14	41326.84
471.32	41649.83
471.50	43440.34
471.68	44046.54
471.86	44184.63
472.04	44390.60
472.22	43807.81
472.40	42120.28
472.58	41825.37
472.77	40975.76
472.95	42445.62
473.13	43545.67
473.31	42216.24
473.49	42401.14
473.67	43009.68
473.85	43110.33
474.03	44437.41
474.21	44451.45
474.39	44734.66
474.57	45130.21
474.75	45059.99
474.93	44671.46
475.12	43943.56
475.30	44055.90
475.48	44231.44
475.66	44540.39
475.84	44596.57
476.02	44002.07
476.20	43222.67
476.38	44470.18
476.56	45067.02
476.74	45640.45
476.92	45830.03
477.10	46454.95
477.28	47665.01
477.46	47501.17
477.64	47889.70
477.82	48271.21
478.00	48245.46
478.18	47707.14
478.36	47395.85
478.54	47592.45
478.72	47969.28
478.90	48839.96
479.08	49778.51
479.26	50316.84
479.44	50103.85
479.62	49839.37
479.80	49574.89
479.98	50312.16
480.16	50618.77
480.34	50153.00
480.52	50459.61
480.70	50440.89
480.88	50513.44
481.06	51164.11
481.24	51341.99
481.41	51952.87
481.59	52935.90
481.77	52301.61
481.95	52215.01
482.13	51892.02
482.31	52123.73
482.49	52753.33
482.67	52196.29
482.85	52556.73
483.03	52727.59
483.21	53422.73
483.39	53380.60
483.57	52685.46
483.74	52460.77
483.92	52671.42
484.10	52837.59
484.28	53684.87
484.46	54176.38
484.64	54152.97
484.82	53764.45
485.00	53015.47
485.18	52325.02
485.35	51236.67
485.53	48832.94
485.71	45071.70
485.89	44804.88
486.07	46384.74
486.25	49441.48
486.43	51976.28
486.61	52561.41
486.78	52367.15
486.96	52442.04
487.14	53874.45
487.32	54344.90
487.50	55047.06
487.68	56030.08
487.85	56313.29
488.03	56444.36
488.21	55950.51
488.39	55316.22
488.57	54871.52
488.75	54637.47
488.92	55538.57
489.10	57183.97
489.28	58265.30
489.46	58803.62
489.64	58777.87
489.81	58979.16
489.99	58515.73
490.17	58691.27
490.35	58775.53
490.53	58459.56
490.70	58218.49
490.88	58066.35
491.06	59028.31
491.24	58927.67
491.41	58162.31
491.59	56856.29
491.77	56360.10
491.95	56858.63
492.13	57968.05
492.30	58890.22
492.48	59718.77
492.66	60001.97
492.84	60280.50
493.01	59966.87
493.19	59557.27
493.37	59227.26
493.54	58883.20
493.72	59465.99
493.90	60224.32
494.08	60938.19
494.25	61223.73
494.43	61455.45
494.61	61701.20
494.79	61696.52
494.96	61378.21
495.14	60900.74
495.32	60350.71
495.49	59597.06
495.67	60488.80
495.85	61797.16
496.02	62213.78
496.20	61975.05
496.38	61469.49
496.55	61528.00
496.73	61909.51
496.91	61984.41
497.09	62457.20
497.26	62482.94
497.44	62054.62
497.62	61799.50
497.79	61062.24
497.97	60140.07
498.14	59889.63
498.32	61099.68
498.50	61860.36
498.67	62501.67
498.85	62337.83
499.03	62412.73
499.20	62700.61
499.38	62796.57
499.56	62450.17
499.73	62010.15
499.91	61858.02
500.08	61399.27
500.26	60835.20
500.44	61113.73
500.61	61733.97
500.79	61591.20
500.97	61279.91
501.14	61151.18
501.32	60985.00
501.49	61055.21
501.67	61146.50
501.84	61656.73
502.02	61860.36
502.20	62045.26
502.37	62408.04
502.55	62237.19
502.72	62836.36
502.90	63260.00
503.07	62958.07
503.25	62686.57
503.43	61712.91
503.60	61347.78
503.78	60687.75
503.95	61116.07
504.13	62262.93
504.30	63093.82
504.48	62733.38
504.65	62628.05
504.83	62585.92
505.01	62988.50
505.18	63391.07
505.36	64015.99
505.53	63917.69
505.71	64144.72
505.88	64259.41
506.06	63693.00
506.23	63402.77
506.41	63082.12
506.58	63203.83
506.76	63248.30
506.93	63276.38
507.11	63140.63
507.28	63316.17
507.46	62623.37
507.63	62103.77
507.81	61916.53
507.98	62295.70
508.16	62948.71
508.33	63351.28
508.50	63693.00
508.68	63763.21
508.85	64348.35
509.03	64343.67
509.20	64168.13
509.38	63753.85
509.55	62899.56
509.73	62918.28
509.90	63458.94
510.08	63660.23
510.25	63641.51
510.42	63370.00
510.60	63484.69
510.77	63578.31
510.95	64238.34
511.12	64076.85
511.30	64514.53
511.47	64793.05
511.64	64711.13
511.82	64441.97
511.99	63613.42
512.17	63203.83
512.34	63021.26
512.51	63063.39
512.69	63341.92
512.86	63295.11
513.04	63625.12
513.21	63737.47
513.38	63587.67
513.56	62972.11
513.73	62454.86
513.90	62721.68
514.08	62567.20
514.25	63091.48
514.43	63210.85
514.60	63096.16
514.77	63325.53
514.95	63435.54
515.12	63271.70
515.29	63590.01
515.47	64093.23
515.64	64203.24
515.81	63810.03
515.99	63374.69
516.16	62213.78
516.33	59973.89
516.51	58908.94
516.68	58145.93
516.85	57916.56
517.03	58080.39
517.20	60474.76
517.37	62630.40
517.54	63531.50
517.72	63224.89
517.89	61059.90
518.06	58925.33
518.24	59311.52
518.41	61022.45
518.58	62255.91
518.75	62295.70
518.93	62604.65
519.10	62342.51
519.27	62784.87
519.45	63021.26
519.62	63648.53
519.79	64123.66
519.96	63835.77
520.14	63454.26
520.31	62611.67
520.48	62667.84
520.65	62827.00
520.83	63838.11
521.00	64001.95
521.17	63917.69
521.34	63348.94
521.52	63688.32
521.69	64292.18
521.86	64725.17
522.03	64360.05
522.20	63372.34
522.38	62405.70
522.55	62251.23
522.72	62993.18
522.89	63166.38
523.07	63133.61
523.24	63482.35
523.41	64212.60
523.58	64481.76
523.75	64853.90
523.92	64767.30
524.10	64736.88
524.27	64804.75
524.44	64425.59
524.61	64425.59
524.78	64306.22
524.96	64186.85
525.13	64200.89
525.30	64320.26
525.47	64821.14
525.64	64647.94
525.81	64158.76
525.98	62850.41
526.16	61703.54
526.33	61064.58
526.50	60708.82
526.67	60364.76
526.84	60959.25
527.01	61764.40
527.18	62443.15
527.36	63135.95
527.53	64121.32
527.70	64315.58
527.87	63894.28
528.04	63332.56
528.21	63812.37
528.38	64371.75
528.55	64874.97
528.72	65183.92
528.89	65326.69
529.07	65186.26
529.24	64727.52
529.41	64048.76
529.58	63260.00
529.75	63367.66
529.92	64111.95
530.09	64320.26
530.26	64629.21
530.43	64987.31
530.60	64788.37
530.77	64940.50
530.94	65380.52
531.11	64793.05
531.28	64535.59
531.46	64371.75
531.63	64498.14
531.80	64376.43
531.97	63884.92
532.14	63330.22
532.31	62382.30
532.48	62012.49
532.65	61872.06
532.82	62808.28
532.99	63622.78
533.16	64069.82
533.33	64505.16
533.50	64289.84
533.67	63594.70
533.84	63391.07
534.01	63482.35
534.18	63791.30
534.35	63863.86
534.52	63819.39
534.69	63915.35
534.86	64331.96
535.03	64451.33
535.20	64987.31
535.37	65216.69
535.54	65410.95
535.71	64945.18
535.88	64680.70
536.05	64062.80
536.22	63648.53
536.38	63765.56
536.55	63077.44
536.72	62614.01
536.89	62307.40
537.06	63110.20
537.23	64121.32
537.40	64137.70
537.57	64299.20
537.74	64041.74
537.91	63952.80
538.08	63915.35
538.25	63959.82
538.42	64264.09
538.59	63973.86
538.75	63440.22
538.92	63138.29
539.09	63107.86
539.26	62908.92
539.43	62951.05
539.60	62780.19
539.77	62934.66
539.94	62918.28
540.11	62131.86
540.28	61829.93
540.44	62028.88
540.61	61996.11
540.78	62316.76
540.95	62754.44
541.12	63192.12
541.29	63215.53
541.46	63615.76
541.62	63636.83
541.79	63421.50
541.96	62845.72
542.13	62770.83
542.30	63032.97
542.47	63358.30
542.63	63037.65
542.80	62871.47
542.97	63025.95
543.14	62880.83
543.31	62714.65
543.48	63290.43
543.64	64011.31
543.81	64252.39
543.98	63990.25
544.15	63564.27
544.32	63199.15
544.48	63086.80
544.65	63505.76
544.82	63854.50
544.99	63400.43
545.16	63168.72
545.32	63042.33
545.49	63688.32
545.66	63819.39
545.83	63728.11
546.00	63407.45
546.16	63089.14
546.33	62962.75
546.50	63032.97
546.67	63554.91
546.83	63159.36
547.00	63274.04
547.17	62468.90
547.34	62117.82
547.50	62031.22
547.67	62679.55
547.84	62539.11
548.00	62766.15
548.17	63222.55
548.34	63072.76
548.51	63112.55
548.67	63192.12
548.84	63011.90
549.01	63231.91
549.18	63000.20
549.34	62997.86
549.51	63063.39
549.68	62969.77
549.84	62843.38
550.01	62789.55
550.18	62576.56
550.34	62784.87
550.51	62763.81
550.68	62798.91
550.84	62550.82
551.01	62574.22
551.18	62340.17
551.34	62452.51
551.51	62887.85
551.68	63147.65
551.84	63281.06
552.01	63096.16
552.18	62857.43
552.34	62218.46
552.51	61949.30
552.68	61806.53
552.84	62190.37
553.01	62438.47
553.18	62412.73
553.34	62447.83
553.51	62583.58
553.67	62808.28
553.84	63133.61
554.01	62951.05
554.17	62494.64
554.34	62700.61
554.51	62740.40
554.67	63098.50
554.84	63004.88
555.00	62798.91
555.17	62527.41
555.33	62342.51
555.50	62262.93
555.67	62454.86
555.83	62298.04
556.00	62099.09
556.16	61946.96
556.33	61740.99
556.50	61560.77
556.66	61633.33
556.83	61354.80
556.99	61380.55
557.16	61565.45
557.32	61928.23
557.49	62197.40
557.65	61893.13
557.82	62099.09
557.98	61970.36
558.15	61464.81
558.32	60411.57
558.48	59894.31
558.65	60137.72
558.81	60580.09
558.98	60746.26
559.14	60968.61
559.31	60961.59
559.47	60959.25
559.64	60727.54
559.80	60339.01
559.97	60322.63
560.13	60853.93
560.30	61715.25
560.46	62028.88
560.63	62370.60
560.79	62473.58
560.96	61982.07
561.12	60985.00
561.29	60348.37
561.45	60491.15
561.61	60921.80
561.78	61172.24
561.94	60942.87
562.11	60846.91
562.27	60797.76
562.44	60987.34
562.60	61385.23
562.77	61630.99
562.93	61359.48
563.10	61453.11
563.26	60786.05
563.42	60994.36
563.59	60776.69
563.75	60540.30
563.92	60931.17
564.08	60711.16
564.24	60924.14
564.41	61069.26
564.57	60926.49
564.74	60811.80
564.90	60610.51
565.07	60577.75
565.23	60233.69
565.39	59908.35
565.56	59597.06
565.72	59428.54
565.88	59739.83
566.05	59777.28
566.21	59948.14
566.38	60074.53
566.54	60308.58
566.70	60474.76
566.87	60631.58
567.03	60755.63
567.19	61020.11
567.36	60605.83
567.52	60654.98
567.68	60198.58
567.85	59873.24
568.01	59405.14
568.17	59288.11
568.34	59243.64
568.50	59243.64
568.66	59454.29
568.83	59571.32
568.99	59536.21
569.15	59880.27
569.32	59784.30
569.48	59405.14
569.64	59398.12
569.81	59257.68
569.97	59164.06
570.13	59243.64
570.30	58798.94
570.46	58379.98
570.62	57822.93
570.78	57743.36
570.95	57876.77
571.11	58688.93
571.27	58651.48
571.43	58901.92
571.60	59288.11
571.76	59351.30
571.92	59725.79
572.09	59781.96
572.25	59524.50
572.41	59379.39
572.57	59405.14
572.74	59398.12
572.90	59138.32
573.06	59189.81
573.22	59166.40
573.38	59194.49
573.55	59201.51
573.71	59222.58
573.87	59166.40
574.03	58885.54
574.20	59166.40
574.36	58599.99
574.52	58740.42
574.68	58457.22
574.84	58298.06
575.01	57825.28
575.17	57860.38
575.33	58103.80
575.49	58145.93
575.65	58489.99
575.82	58162.31
575.98	57965.71
576.14	58110.82
576.30	58457.22
576.46	58475.94
576.62	58604.67
576.79	58356.58
576.95	58080.39
577.11	58028.90
577.27	58127.20
577.43	58394.03
577.59	57881.45
577.75	57614.63
577.92	57146.52
578.08	56860.97
578.24	56980.34
578.40	57432.07
578.56	57429.72
578.72	57371.21
578.88	57722.29
579.04	57715.27
579.21	57773.78
579.37	57902.51
579.53	58003.16
579.69	57876.77
579.85	58262.96
580.01	57813.57
580.17	57600.58
580.33	57441.43
580.49	57394.62
580.65	57832.30
580.82	57991.45
580.98	57909.53
581.14	57504.62
581.30	57883.79
581.46	57670.80
581.62	57893.15
581.78	57916.56
581.94	57998.48
582.10	58040.60
582.26	58000.82
582.42	57902.51
582.58	58066.35
582.74	58064.01
582.90	57998.48
583.06	58094.44
583.22	57717.61
583.38	57595.90
583.54	57902.51
583.70	57586.54
583.86	57595.90
584.02	57556.11
584.18	57766.76
584.34	57762.08
584.50	57450.79
584.66	57268.23
584.82	57160.56
584.98	57097.37
585.14	56748.63
