SpectraSuite Data File
++++++++++++++++++++++++++++++++++++
Date: Mon Oct 07 14:53:01 GMT-05:00 2013
User: price-jones
Dark Spectrum Present: No
Reference Spectrum Present: No
Number of Sampled Component Spectra: 1
Spectrometers: USB2+H05261
Integration Time (usec): 100000 (USB2+H05261)
Spectra Averaged: 1 (USB2+H05261)
Boxcar Smoothing: 0 (USB2+H05261)
Correct for Electrical Dark: No (USB2+H05261)
Strobe/Lamp Enabled: No (USB2+H05261)
Correct for Detector Non-linearity: No (USB2+H05261)
Correct for Stray Light: No (USB2+H05261)
Number of Pixels in Processed Spectrum: 2048
>>>>>Begin Processed Spectral Data<<<<<
365.73	0.00
365.92	0.00
366.12	0.00
366.32	0.00
366.52	0.00
366.72	0.00
366.91	0.00
367.11	0.00
367.31	0.00
367.51	0.00
367.70	0.00
367.90	0.00
368.10	0.00
368.30	0.00
368.49	0.00
368.69	0.00
368.89	0.00
369.09	0.00
369.28	0.00
369.48	0.00
369.68	0.00
369.87	0.00
370.07	0.00
370.27	0.00
370.47	477.47
370.66	2654.17
370.86	3103.55
371.06	3578.68
371.25	3630.17
371.45	3056.74
371.65	2881.20
371.84	2708.00
372.04	2747.79
372.24	3105.89
372.44	3258.03
372.63	3363.35
372.83	3073.12
373.03	2829.71
373.22	2464.58
373.42	2539.48
373.62	3007.59
373.81	3176.11
374.01	3150.36
374.21	2883.54
374.40	2703.32
374.60	2874.18
374.79	3293.13
374.99	3735.50
375.19	4030.40
375.38	3978.91
375.58	3831.46
375.78	3693.37
375.97	3831.46
376.17	3747.20
376.37	3894.65
376.56	4056.15
376.76	4159.13
376.95	4447.02
377.15	4746.61
377.35	4961.94
377.54	5268.55
377.74	5406.64
377.93	5242.80
378.13	5233.44
378.33	4933.85
378.52	4617.88
378.72	4292.54
378.91	4512.55
379.11	4273.82
379.31	4065.51
379.50	4021.04
379.70	4360.42
379.89	4741.93
380.09	5146.84
380.28	5324.72
380.48	5153.86
380.68	5184.29
380.87	5013.43
381.07	4582.77
381.26	4322.97
381.46	3995.29
381.65	3932.10
381.85	3742.52
382.04	3538.89
382.24	3353.99
382.43	3148.02
382.63	3082.49
382.83	3133.98
383.02	3225.26
383.22	3190.15
383.41	3119.93
383.61	3368.03
383.80	3908.69
384.00	4440.00
384.19	4880.02
384.39	5195.99
384.58	5111.73
384.78	5071.94
384.97	5006.41
385.17	4870.65
385.36	4557.02
385.56	4306.59
385.75	4512.55
385.95	4828.53
386.14	5324.72
386.34	5291.95
386.53	5011.09
386.72	4858.95
386.92	4877.68
387.11	5036.83
387.31	5509.62
387.50	5329.40
387.70	5093.01
387.89	5100.03
388.09	5186.63
388.28	4990.02
388.48	5291.95
388.67	5565.79
388.86	6312.42
389.06	6541.80
389.25	6979.48
389.45	7148.00
389.64	6862.45
389.84	6988.84
390.03	6761.81
390.22	6970.12
390.42	6993.52
390.61	7370.35
390.81	8006.97
391.00	8114.64
391.19	7981.23
391.39	7674.62
391.58	7173.74
391.78	6778.19
391.97	6754.79
392.16	6349.87
392.36	5544.73
392.55	4489.15
392.75	3328.24
392.94	2918.65
393.13	2906.95
393.33	3534.21
393.52	4580.43
393.71	5378.55
393.91	6099.44
394.10	6679.89
394.29	7330.56
394.49	7887.61
394.68	8341.67
394.88	8475.08
395.07	8575.72
395.26	8587.43
395.46	8346.35
395.65	7693.34
395.84	6939.69
396.04	5982.41
396.23	4786.40
396.42	4095.94
396.62	3782.31
396.81	4514.89
397.00	5785.80
397.19	7192.47
397.39	8589.77
397.58	9437.04
397.77	10349.85
397.97	10609.65
398.16	10934.98
398.35	11023.92
398.55	11454.58
398.74	11922.69
398.93	11845.45
399.12	12063.12
399.32	11489.69
399.51	11829.07
399.70	12507.82
399.90	12372.07
400.09	12472.71
400.28	12599.10
400.47	12439.95
400.67	13240.41
400.86	13163.17
401.05	13053.17
401.24	13432.33
401.44	13825.54
401.63	13865.33
401.82	13858.31
402.01	13633.62
402.21	13937.89
402.40	13804.48
402.59	13366.80
402.78	12961.89
402.97	12725.49
403.17	12961.89
403.36	13895.76
403.55	14429.40
403.74	14740.69
403.93	13947.25
404.13	12987.63
404.32	12697.41
404.51	13219.35
404.70	14338.12
404.89	14125.13
405.09	13973.00
405.28	13247.43
405.47	13715.54
405.66	13540.00
405.85	13249.77
406.05	12816.77
406.24	13121.04
406.43	13687.45
406.62	14003.43
406.81	14169.60
407.00	13549.36
407.20	13392.55
407.39	13256.79
407.58	14078.32
407.77	14700.90
407.96	15232.21
408.15	15311.78
408.34	15499.03
408.54	16081.82
408.73	16189.49
408.92	15836.06
409.11	15499.03
409.30	14537.07
409.49	13647.66
409.68	12844.86
409.87	12552.29
410.07	13294.24
410.26	14651.75
410.45	15400.72
410.64	15695.63
410.83	16175.44
411.02	16376.73
411.21	17160.81
411.40	16975.91
411.59	17118.68
411.78	17071.87
411.98	16833.13
412.17	17013.35
412.36	16549.93
412.55	16702.06
412.74	16463.33
412.93	15917.98
413.12	16304.17
413.31	17486.14
413.50	17825.52
413.69	18242.14
413.88	17252.09
414.07	16643.55
414.26	17427.63
414.45	17851.27
414.64	18087.66
414.83	17848.93
415.02	17537.63
415.22	17481.46
415.41	18057.23
415.60	18520.66
415.79	19206.44
415.98	19651.14
416.17	19658.16
416.36	19026.21
416.55	19108.13
416.74	18361.50
416.93	17916.80
417.12	17647.64
417.31	18047.87
417.50	18424.70
417.69	18733.65
417.88	19007.49
418.07	18593.22
418.26	18214.05
418.45	18607.26
418.64	19295.38
418.83	20009.24
419.02	19527.09
419.21	19527.09
419.39	18530.02
419.58	17816.16
419.77	17591.47
419.96	18508.96
420.15	19627.73
420.34	20507.77
420.53	20936.09
420.72	21490.80
420.91	20996.95
421.10	20779.28
421.29	20690.34
421.48	19859.45
421.67	21013.33
421.86	20350.96
422.05	18654.07
422.24	16788.66
422.43	16758.24
422.61	18700.88
422.80	20006.90
422.99	20135.63
423.18	19487.30
423.37	19206.44
423.56	18927.91
423.75	19398.36
423.94	19836.04
424.13	18895.14
424.32	19131.54
424.50	18951.32
424.69	18663.43
424.88	19009.83
425.07	18829.61
425.26	18803.86
425.45	18518.32
425.64	18576.83
425.83	18342.78
426.01	19496.66
426.20	19737.74
426.39	19613.69
426.58	18188.30
426.77	16788.66
426.96	16311.19
427.15	17027.40
427.33	18462.15
427.52	19096.43
427.71	18925.57
427.90	19002.81
428.09	18902.17
428.28	18700.88
428.46	17355.07
428.65	17448.69
428.84	17804.46
429.03	18097.02
429.22	17284.86
429.40	16187.14
429.59	14736.01
429.78	12830.82
429.97	12950.18
430.16	13226.37
430.34	13427.65
430.53	13350.42
430.72	13685.11
430.91	15353.91
431.10	17724.88
431.28	21467.39
431.47	22518.29
431.66	22941.93
431.85	20400.11
432.03	19124.52
432.22	18139.15
432.41	19087.07
432.60	21142.06
432.79	21991.67
432.97	22530.00
433.16	22071.25
433.35	19831.36
433.54	17869.99
433.72	16872.92
433.91	17465.08
434.10	19623.05
434.28	21013.33
434.47	22136.79
434.66	21549.31
434.85	20968.86
435.03	20945.45
435.22	21748.26
435.41	22801.50
435.59	23131.51
435.78	23126.83
435.97	23896.87
436.16	24121.56
436.34	23850.06
436.53	23068.32
436.72	23051.94
436.90	21799.75
437.09	21914.44
437.28	21792.73
437.46	22558.08
437.65	22160.19
437.84	20517.14
438.02	19080.05
438.21	18721.95
438.40	20273.72
438.58	21884.01
438.77	22108.70
438.96	22768.73
439.14	23545.79
439.33	23922.62
439.52	24430.51
439.70	23814.95
439.89	22984.06
440.08	22436.38
440.26	22663.41
440.45	23410.04
440.63	24959.47
440.82	26281.88
441.01	25523.54
441.19	25741.21
441.38	26043.14
441.57	27028.51
441.75	27346.82
441.94	27562.15
442.12	27208.73
442.31	28016.21
442.50	27791.52
442.68	27187.66
442.87	26934.88
443.05	26859.99
443.24	27510.66
443.43	27901.53
443.61	27756.41
443.80	28603.69
443.98	26967.65
444.17	26651.68
444.35	28507.72
444.54	28975.83
444.73	28325.16
444.91	27122.13
445.10	26518.27
445.28	25280.13
445.47	24805.00
445.65	24746.48
445.84	25949.52
446.02	26494.86
446.21	27417.04
446.39	27166.60
446.58	27580.87
446.77	28046.64
446.95	28166.01
447.14	28994.56
447.32	29610.12
447.51	28741.78
447.69	27531.72
447.88	27491.93
448.06	27377.25
448.25	28456.23
448.43	28716.03
448.62	28002.17
448.80	27754.07
448.99	27920.25
449.17	28643.48
449.36	28135.58
449.54	29610.12
449.73	29752.89
449.91	30167.16
450.10	30916.14
450.28	31461.48
450.46	31646.38
450.65	31564.46
450.83	31302.32
451.02	30349.73
451.20	30043.12
451.39	30363.77
451.57	30052.48
451.76	30080.56
451.94	29607.78
452.13	29476.71
452.31	27953.02
452.49	26466.78
452.68	27164.26
452.86	27218.09
453.05	27541.08
453.23	28313.46
453.42	28819.02
453.60	29500.11
453.78	30204.61
453.97	29106.90
454.15	29663.95
454.34	28790.93
454.52	29252.02
454.70	28561.56
454.89	28856.46
455.07	28975.83
455.26	29593.73
455.44	30506.54
455.62	31253.17
455.81	31295.30
455.99	30925.50
456.17	30576.76
456.36	30869.33
456.54	31744.69
456.73	31857.03
456.91	32079.38
457.09	32219.81
457.28	33186.46
457.46	31503.61
457.64	31211.04
457.83	30471.43
458.01	29708.42
458.19	30656.34
458.38	30588.46
458.56	32065.34
458.74	31424.03
458.93	30874.01
459.11	31084.65
459.29	30829.54
459.48	31187.64
459.66	30969.97
459.84	31168.91
460.03	31192.32
460.21	31534.04
460.39	32016.19
460.57	32374.29
460.76	32767.50
460.94	32580.26
461.12	32505.36
461.31	32491.32
461.49	32442.17
461.67	32833.04
461.85	33324.55
462.04	33254.33
462.22	33757.55
462.40	33612.43
462.59	33170.07
462.77	33057.73
462.95	33010.92
463.13	32713.67
463.32	32620.05
463.50	31969.38
463.68	32737.07
463.86	32355.57
464.05	31798.52
464.23	31108.06
464.41	31164.23
464.59	30471.43
464.78	32292.37
464.96	32189.39
465.14	31658.09
465.32	32704.31
465.50	33455.62
465.69	33528.17
465.87	32781.54
466.05	31887.46
466.23	30410.58
466.41	29853.53
466.60	31030.82
466.78	30925.50
466.96	31660.43
467.14	31878.10
467.32	32268.97
467.51	32357.91
467.69	31023.80
467.87	31784.48
468.05	32610.68
468.23	31786.82
468.41	31885.12
468.60	32694.94
468.78	32669.20
468.96	31983.42
469.14	32687.92
469.32	33099.86
469.50	31456.80
469.69	31758.73
469.87	31274.24
470.05	31267.22
470.23	31393.61
470.41	31447.44
470.59	31653.40
470.77	31880.44
470.95	32374.29
471.14	32854.10
471.32	32978.15
471.50	34675.04
471.68	34766.32
471.86	34944.20
472.04	35480.18
472.22	35463.80
472.40	33495.41
472.58	33308.16
472.77	33006.23
472.95	34036.07
473.13	34370.77
473.31	33872.23
473.49	33954.15
473.67	34649.29
473.85	34923.13
474.03	35754.02
474.21	35758.70
474.39	35964.67
474.57	36294.69
474.75	36631.72
474.93	35952.97
475.12	34986.33
475.30	35573.80
475.48	35674.45
475.66	35868.71
475.84	35321.02
476.02	35524.65
476.20	34789.72
476.38	35503.59
476.56	36091.06
476.74	36891.52
476.92	36999.19
477.10	37708.37
477.28	38618.84
477.46	38583.73
477.64	38972.26
477.82	39194.61
478.00	39599.52
478.18	39002.69
478.36	38607.14
478.54	38735.87
478.72	38934.81
478.90	39746.98
479.08	41104.49
479.26	41301.09
479.44	41558.55
479.62	41083.42
479.80	41235.56
479.98	41450.89
480.16	41273.01
480.34	40575.53
480.52	41408.76
480.70	41933.04
480.88	42106.24
481.06	42176.45
481.24	42581.37
481.41	43660.35
481.59	44280.60
481.77	44484.22
481.95	43182.88
482.13	43264.80
482.31	43037.77
482.49	43777.38
482.67	43906.11
482.85	44175.27
483.03	44650.40
483.21	44818.92
483.39	45481.29
483.57	44306.34
483.74	44304.00
483.92	44296.98
484.10	44519.33
484.28	45787.90
484.46	45874.50
484.64	46368.35
484.82	45514.06
485.00	45247.24
485.18	43732.91
485.35	42932.45
485.53	39641.65
485.71	36444.48
485.89	35826.58
486.07	37961.15
486.25	40783.83
486.43	43342.04
486.61	44069.95
486.78	44100.37
486.96	44154.21
487.14	45462.57
487.32	46457.29
487.50	47952.90
487.68	48718.25
487.85	49303.38
488.03	49141.89
488.21	48729.95
488.39	47629.90
488.57	47164.14
488.75	46667.94
488.92	48409.30
489.10	50660.90
489.28	51889.68
489.46	52528.64
489.64	52549.71
489.81	52566.09
489.99	52076.92
490.17	51941.17
490.35	52437.36
490.53	52184.58
490.70	51786.69
490.88	51281.14
491.06	52444.38
491.24	52325.02
491.41	51096.24
491.59	49549.14
491.77	48996.77
491.95	50050.02
492.13	51885.00
492.30	52575.45
492.48	53654.44
492.66	54108.50
492.84	53846.36
493.01	53834.66
493.19	53371.24
493.37	53073.99
493.54	52418.64
493.72	53425.07
493.90	54277.02
494.08	54915.99
494.25	55344.31
494.43	55744.54
494.61	55924.76
494.79	56051.15
494.96	55606.45
495.14	55107.91
495.32	54101.48
495.49	53635.72
495.67	54777.90
495.85	56027.74
496.02	56566.07
496.20	56332.01
496.38	55789.01
496.55	55547.93
496.73	56261.80
496.91	56149.45
497.09	56968.64
497.26	57104.39
497.44	56519.26
497.62	56100.30
497.79	55079.83
497.97	53914.24
498.14	54115.53
498.32	55320.90
498.50	56346.06
498.67	56706.50
498.85	56657.35
499.03	56626.92
499.20	57148.86
499.38	57319.72
499.56	56978.00
499.73	56465.42
499.91	55978.59
500.08	55547.93
500.26	54862.16
500.44	55257.71
500.61	56109.66
500.79	55828.80
500.97	55386.44
501.14	55365.37
501.32	55203.88
501.49	55306.86
501.67	55718.79
501.84	55943.48
502.02	56198.60
502.20	56509.89
502.37	56680.75
502.55	56575.43
502.72	57364.19
502.90	57771.44
503.07	57483.56
503.25	56914.81
503.43	55983.27
503.60	55517.51
503.78	54967.48
503.95	55433.25
504.13	56790.76
504.30	57598.24
504.48	57432.07
504.65	57205.03
504.83	57064.60
505.01	57759.74
505.18	57876.77
505.36	58637.44
505.53	58553.18
505.71	58775.53
505.88	59007.25
506.06	58234.87
506.23	58042.95
506.41	57600.58
506.58	57869.75
506.76	57907.19
506.93	57722.29
507.11	57490.58
507.28	57834.64
507.46	57336.10
507.63	56568.41
507.81	56530.96
507.98	56846.93
508.16	57373.55
508.33	57853.36
508.50	58218.49
508.68	58553.18
508.85	59213.21
509.03	58972.14
509.20	58841.07
509.38	58049.97
509.55	57443.77
509.73	57588.88
509.90	57928.26
510.08	58326.15
510.25	58265.30
510.42	58005.50
510.60	58017.20
510.77	58178.70
510.95	58693.61
511.12	58829.37
511.30	59168.74
511.47	59590.04
511.64	59213.21
511.82	58960.44
511.99	58288.70
512.17	57827.62
512.34	57687.18
512.51	57776.12
512.69	57991.45
512.86	58003.16
513.04	58459.56
513.21	58262.96
513.38	57961.03
513.56	57455.47
513.73	56875.02
513.90	57038.86
514.08	57237.80
514.25	57675.48
514.43	57883.79
514.60	57916.56
514.77	58052.31
514.95	57923.58
515.12	57944.64
515.29	58291.04
515.47	58862.13
515.64	58883.20
515.81	58567.23
515.99	57951.66
516.16	56395.21
516.33	53979.78
516.51	52889.09
516.68	52151.82
516.85	51489.45
517.03	52095.64
517.20	54890.24
517.37	57254.18
517.54	58225.51
517.72	57513.98
517.89	54986.21
518.06	52928.87
518.24	53457.84
518.41	55758.58
518.58	56713.52
518.75	56835.23
518.93	57200.35
519.10	56832.89
519.27	57474.20
519.45	57818.25
519.62	58504.03
519.79	58798.94
519.96	58415.09
520.14	58000.82
520.31	57064.60
520.48	56973.32
520.65	57743.36
520.83	58632.76
521.00	58796.60
521.17	58372.96
521.34	58480.63
521.52	58426.79
521.69	59007.25
521.86	59440.24
522.03	58979.16
522.20	57792.51
522.38	56938.21
522.55	57104.39
522.72	57631.01
522.89	57687.18
523.07	57846.34
523.24	58405.73
523.41	58864.47
523.58	59274.07
523.75	59695.36
523.92	59529.19
524.10	59440.24
524.27	59538.55
524.44	59426.20
524.61	59262.36
524.78	58951.07
524.96	58712.34
525.13	58951.07
525.30	59257.68
525.47	59543.23
525.64	59550.25
525.81	58691.27
525.98	57462.49
526.16	55847.52
526.33	55587.72
526.50	55255.37
526.67	54997.91
526.84	55482.40
527.01	56444.36
527.18	57106.73
527.36	57897.83
527.53	58958.09
527.70	58915.96
527.87	58609.35
528.04	58134.23
528.21	58595.31
528.38	59236.62
528.55	59889.63
528.72	60048.78
528.89	60156.45
529.07	59716.43
529.24	59119.59
529.41	58756.81
529.58	58248.91
529.75	58251.25
529.92	58726.38
530.09	59290.45
530.26	59402.80
530.43	59931.76
530.60	59728.13
530.77	60048.78
530.94	60252.41
531.11	59592.38
531.28	59248.32
531.46	59341.94
531.63	59461.31
531.80	59189.81
531.97	58646.80
532.14	58059.33
532.31	57006.09
532.48	56294.56
532.65	56392.87
532.82	57322.06
532.99	58401.05
533.16	58733.40
533.33	59086.82
533.50	59100.87
533.67	58447.86
533.84	57986.77
534.01	58541.48
534.18	58475.94
534.35	58691.27
534.52	58508.71
534.69	58873.84
534.86	59220.23
535.03	59482.37
535.20	59779.62
535.37	60142.41
535.54	60142.41
535.71	59730.47
535.88	59449.61
536.05	58707.66
536.22	58438.50
536.38	58148.27
536.55	57710.59
536.72	57242.48
536.89	57387.60
537.06	58127.20
537.23	58796.60
537.40	59166.40
537.57	58951.07
537.74	58908.94
537.91	58663.19
538.08	58794.26
538.25	58880.86
538.42	59044.69
538.59	58859.79
538.75	58225.51
538.92	57975.07
539.09	57907.19
539.26	57626.33
539.43	57591.22
539.60	57609.95
539.77	57822.93
539.94	57588.88
540.11	56626.92
540.28	56430.32
540.44	56329.67
540.61	56788.42
540.78	57013.11
540.95	57509.30
541.12	57916.56
541.29	57954.00
541.46	58307.43
541.62	58368.28
541.79	58014.86
541.96	57598.24
542.13	57694.21
542.30	57984.43
542.47	58094.44
542.63	57876.77
542.80	57574.84
542.97	57752.72
543.14	57649.74
543.31	57638.03
543.48	58216.14
543.64	58759.15
543.81	59323.22
543.98	58922.99
544.15	58487.65
544.32	57741.02
544.48	57888.47
544.65	58295.72
544.82	58688.93
544.99	58265.30
545.16	57907.19
545.32	57914.22
545.49	58473.60
545.66	58688.93
545.83	58560.20
546.00	58120.18
546.16	57797.19
546.33	57858.04
546.50	57869.75
546.67	58550.84
546.83	57787.83
547.00	57986.77
547.17	57258.87
547.34	56767.35
547.50	56416.27
547.67	57263.55
547.84	57415.68
548.00	57647.39
548.17	58066.35
548.34	57923.58
548.51	57963.37
548.67	58120.18
548.84	58085.07
549.01	57963.37
549.18	57785.49
549.34	57623.99
549.51	57886.13
549.68	57925.92
549.84	57593.56
550.01	57549.09
550.18	57565.48
550.34	57418.02
550.51	57401.64
550.68	57509.30
550.84	56931.19
551.01	57179.29
551.18	57242.48
551.34	57429.72
551.51	57633.35
551.68	58005.50
551.84	57797.19
552.01	57724.63
552.18	57474.20
552.34	56844.59
552.51	56802.46
552.68	56502.87
552.84	56896.08
553.01	57020.13
553.18	57006.09
553.34	57359.51
553.51	57179.29
553.67	57757.40
553.84	57801.87
554.01	57469.51
554.17	57401.64
554.34	57492.92
554.51	57574.84
554.67	58113.16
554.84	57668.46
555.00	57347.81
555.17	57357.17
555.33	57258.87
555.50	57242.48
555.67	57284.61
555.83	57088.01
556.00	56680.75
556.16	56559.05
556.33	56402.23
556.50	56350.74
556.66	56109.66
556.83	55931.78
556.99	56205.62
557.16	56322.65
557.32	56587.13
557.49	56811.82
557.65	56729.90
557.82	56942.89
557.98	56493.51
558.15	55959.87
558.32	55161.75
558.48	54555.55
558.65	54651.51
558.81	55215.58
558.98	55320.90
559.14	55377.08
559.31	55753.90
559.47	55599.43
559.64	55269.41
559.80	54967.48
559.97	55288.13
560.13	55473.04
560.30	56385.85
560.46	56671.39
560.63	57055.24
560.79	57127.80
560.96	56425.64
561.12	55585.38
561.29	54883.22
561.45	54904.29
561.61	55622.83
561.78	55807.73
561.94	55543.25
562.11	55440.27
562.27	55386.44
562.44	55845.18
562.60	55913.06
562.77	56299.25
562.93	56107.32
563.10	55941.14
563.26	55613.47
563.42	55409.84
563.59	55524.53
563.75	55587.72
563.92	55470.70
564.08	55423.89
564.24	55517.51
564.41	55842.84
564.57	55508.14
564.74	55580.70
564.90	55243.66
565.07	55306.86
565.23	54908.97
565.39	54169.36
565.56	54068.72
565.72	53886.15
565.88	54068.72
566.05	54220.85
566.21	54677.25
566.38	54784.92
566.54	54955.78
566.70	55178.13
566.87	55451.97
567.03	55372.39
567.19	55700.07
567.36	55159.41
567.52	55257.71
567.68	54965.14
567.85	54024.25
568.01	53689.55
568.17	53263.57
568.34	53738.70
568.50	53436.77
568.66	53900.20
568.83	54171.70
568.99	54047.65
569.15	54501.71
569.32	54239.57
569.48	53984.46
569.64	53769.13
569.81	53469.54
569.97	53701.25
570.13	53546.78
570.30	52783.76
570.46	52542.69
570.62	51817.12
570.78	51985.64
570.95	52315.65
571.11	53186.33
571.27	53460.18
571.43	53574.86
571.60	53844.02
571.76	54117.87
571.92	54103.82
572.09	54351.92
572.25	54089.78
572.41	54152.97
572.57	53862.75
572.74	53862.75
572.90	53705.93
573.06	53563.16
573.22	53820.62
573.38	53586.57
573.55	53432.09
573.71	53656.78
573.87	53605.29
574.03	53441.45
574.20	53542.10
574.36	53099.73
574.52	53024.84
574.68	52804.83
574.84	52399.91
575.01	52212.67
575.17	51943.51
575.33	52451.41
575.49	52310.97
575.65	52956.96
575.82	52315.65
575.98	51969.26
576.14	52142.45
576.30	52502.90
576.46	53167.61
576.62	52821.21
576.79	52772.06
576.95	52250.12
577.11	52313.31
577.27	52332.04
577.43	52435.02
577.59	52081.60
577.75	51416.89
577.92	50894.95
578.08	50798.99
578.24	50576.64
578.40	51276.46
578.56	51412.21
578.72	51400.50
578.88	51695.41
579.04	51987.98
579.21	51941.17
579.37	52161.18
579.53	52259.48
579.69	51978.62
579.85	52144.80
580.01	52135.43
580.17	51693.07
580.33	51538.60
580.49	51681.37
580.65	51620.52
580.82	51959.89
580.98	51824.14
581.14	51894.36
581.30	51997.34
581.46	51622.86
581.62	52215.01
581.78	51976.28
581.94	52196.29
582.10	52296.93
582.26	52435.02
582.42	52271.18
582.58	52666.73
582.74	52016.07
582.90	52413.96
583.06	52264.16
583.22	52126.07
583.38	51803.08
583.54	51789.03
583.70	51784.35
583.86	51751.59
584.02	51826.48
584.18	51456.68
584.34	51657.96
584.50	51580.73
584.66	51203.90
584.82	51042.40
584.98	50993.25
585.14	50700.68
585.30	49846.39
