SpectraSuite Data File
++++++++++++++++++++++++++++++++++++
Date: Mon Oct 07 14:54:54 GMT-05:00 2013
User: price-jones
Dark Spectrum Present: No
Reference Spectrum Present: No
Number of Sampled Component Spectra: 1
Spectrometers: USB2+H05261
Integration Time (usec): 10000 (USB2+H05261)
Spectra Averaged: 1 (USB2+H05261)
Boxcar Smoothing: 0 (USB2+H05261)
Correct for Electrical Dark: No (USB2+H05261)
Strobe/Lamp Enabled: No (USB2+H05261)
Correct for Detector Non-linearity: No (USB2+H05261)
Correct for Stray Light: No (USB2+H05261)
Number of Pixels in Processed Spectrum: 2048
>>>>>Begin Processed Spectral Data<<<<<
365.73	0.00
365.92	0.00
366.12	0.00
366.32	0.00
366.52	0.00
366.72	0.00
366.91	0.00
367.11	0.00
367.31	0.00
367.51	0.00
367.70	0.00
367.90	0.00
368.10	0.00
368.30	0.00
368.49	0.00
368.69	0.00
368.89	0.00
369.09	0.00
369.28	0.00
369.48	0.00
369.68	0.00
369.87	0.00
370.07	0.00
370.27	0.00
370.47	0.00
370.66	0.00
370.86	0.00
371.06	14.04
371.25	0.00
371.45	0.00
371.65	0.00
371.84	0.00
372.04	0.00
372.24	60.85
372.44	0.00
372.63	42.13
372.83	51.49
373.03	65.54
373.22	0.00
373.42	4.68
373.62	46.81
373.81	60.85
374.01	21.06
374.21	0.00
374.40	42.13
374.60	23.41
374.79	39.79
374.99	63.19
375.19	44.47
375.38	112.35
375.58	51.49
375.78	138.09
375.97	138.09
376.17	142.77
376.37	67.88
376.56	133.41
376.76	156.82
376.95	154.48
377.15	187.24
377.35	191.92
377.54	168.52
377.74	222.35
377.93	252.78
378.13	224.69
378.33	156.82
378.52	145.11
378.72	180.22
378.91	133.41
379.11	98.30
379.31	147.45
379.50	173.20
379.70	133.41
379.89	173.20
380.09	196.60
380.28	227.03
380.48	276.18
380.68	170.86
380.87	147.45
381.07	88.94
381.26	42.13
381.46	81.92
381.65	44.47
381.85	91.28
382.04	107.66
382.24	14.04
382.43	9.36
382.63	4.68
382.83	2.34
383.02	42.13
383.22	0.00
383.41	16.38
383.61	7.02
383.80	30.43
384.00	198.95
384.19	170.86
384.39	220.01
384.58	177.88
384.78	173.20
384.97	173.20
385.17	191.92
385.36	88.94
385.56	152.13
385.75	189.58
385.95	114.69
386.14	198.95
386.34	201.29
386.53	107.66
386.72	128.73
386.92	168.52
387.11	180.22
387.31	215.33
387.50	152.13
387.70	175.54
387.89	210.65
388.09	196.60
388.28	234.05
388.48	203.63
388.67	259.80
388.86	337.04
389.06	367.46
389.25	315.97
389.45	308.95
389.64	360.44
389.84	325.33
390.03	271.50
390.22	318.31
390.42	236.39
390.61	381.51
390.81	360.44
391.00	414.27
391.19	365.12
391.39	425.98
391.58	386.19
391.78	339.38
391.97	311.29
392.16	292.57
392.36	229.37
392.55	79.58
392.75	49.15
392.94	18.72
393.13	84.26
393.33	81.92
393.52	14.04
393.71	184.90
393.91	259.80
394.10	269.16
394.29	374.49
394.49	390.87
394.68	521.94
394.88	491.51
395.07	557.05
395.26	479.81
395.46	379.17
395.65	461.09
395.84	348.74
396.04	224.69
396.23	84.26
396.42	114.69
396.62	86.60
396.81	128.73
397.00	187.24
397.19	332.36
397.39	465.77
397.58	557.05
397.77	638.97
397.97	641.31
398.16	627.26
398.35	615.56
398.55	704.50
398.74	767.70
398.93	791.10
399.12	737.27
399.32	725.57
399.51	688.12
399.70	734.93
399.90	798.12
400.09	753.65
400.28	765.36
400.47	744.29
400.67	793.44
400.86	793.44
401.05	968.98
401.24	784.08
401.44	915.15
401.63	828.55
401.82	741.95
402.01	821.53
402.21	887.06
402.40	805.14
402.59	868.34
402.78	758.33
402.97	851.96
403.17	816.85
403.36	795.78
403.55	887.06
403.74	945.58
403.93	851.96
404.13	830.89
404.32	760.67
404.51	849.61
404.70	924.51
404.89	954.94
405.09	863.66
405.28	903.45
405.47	903.45
405.66	833.23
405.85	805.14
406.05	833.23
406.24	826.21
406.43	807.48
406.62	903.45
406.81	933.87
407.00	816.85
407.20	706.84
407.39	849.61
407.58	837.91
407.77	976.00
407.96	910.47
408.15	983.02
408.34	992.39
408.54	971.32
408.73	1081.33
408.92	1114.10
409.11	1004.09
409.30	903.45
409.49	889.40
409.68	760.67
409.87	802.80
410.07	830.89
410.26	898.77
410.45	968.98
410.64	889.40
410.83	1069.62
411.02	1062.60
411.21	1137.50
411.40	1123.46
411.59	1034.52
411.78	973.66
411.98	1118.78
412.17	1027.50
412.36	1121.12
412.55	1128.14
412.74	1053.24
412.93	994.73
413.12	992.39
413.31	1104.73
413.50	1149.20
413.69	1188.99
413.88	1078.99
414.07	1100.05
414.26	990.05
414.45	1151.54
414.64	1191.33
414.83	1149.20
415.02	1193.67
415.22	1086.01
415.41	1170.27
415.60	1212.40
415.79	1287.29
415.98	1238.14
416.17	1221.76
416.36	1331.76
416.55	1163.25
416.74	1071.97
416.93	1086.01
417.12	1142.18
417.31	1064.94
417.50	1121.12
417.69	1181.97
417.88	1249.85
418.07	1231.12
418.26	1268.57
418.45	1240.48
418.64	1252.19
418.83	1188.99
419.02	1299.00
419.21	1165.59
419.39	1151.54
419.58	1095.37
419.77	1055.58
419.96	1142.18
420.15	1221.76
420.34	1369.21
420.53	1331.76
420.72	1359.85
420.91	1273.25
421.10	1306.02
421.29	1299.00
421.48	1203.04
421.67	1345.81
421.86	1303.68
422.05	1146.86
422.24	1153.88
422.43	1032.18
422.61	1121.12
422.80	1179.63
422.99	1273.25
423.18	1306.02
423.37	1284.95
423.56	1217.08
423.75	1160.91
423.94	1177.29
424.13	1221.76
424.32	1118.78
424.50	1249.85
424.69	1158.57
424.88	1273.25
425.07	1210.06
425.26	1135.16
425.45	1116.44
425.64	1160.91
425.83	1097.71
426.01	1181.97
426.20	1327.08
426.39	1240.48
426.58	1151.54
426.77	1041.54
426.96	976.00
427.15	1046.22
427.33	1142.18
427.52	1219.42
427.71	1191.33
427.90	1149.20
428.09	1165.59
428.28	1132.82
428.46	1081.33
428.65	1083.67
428.84	1107.07
429.03	1158.57
429.22	1029.84
429.40	945.58
429.59	990.05
429.78	709.18
429.97	650.67
430.16	730.25
430.34	770.04
430.53	784.08
430.72	737.27
430.91	870.68
431.10	1053.24
431.28	1327.08
431.47	1409.00
431.66	1451.13
431.85	1256.87
432.03	1170.27
432.22	1156.22
432.41	1137.50
432.60	1289.64
432.79	1315.38
432.97	1416.02
433.16	1434.75
433.35	1205.38
433.54	1076.65
433.72	1020.47
433.91	1078.99
434.10	1146.86
434.28	1245.16
434.47	1322.40
434.66	1299.00
434.85	1357.51
435.03	1254.53
435.22	1331.76
435.41	1390.28
435.59	1504.96
435.78	1490.92
435.97	1568.16
436.16	1523.69
436.34	1526.03
436.53	1500.28
436.72	1458.15
436.90	1315.38
437.09	1472.20
437.28	1224.10
437.46	1373.89
437.65	1320.06
437.84	1373.89
438.02	980.68
438.21	1078.99
438.40	1217.08
438.58	1254.53
438.77	1341.13
438.96	1467.52
439.14	1378.58
439.33	1472.20
439.52	1507.30
439.70	1460.49
439.89	1479.22
440.08	1299.00
440.26	1277.93
440.45	1373.89
440.63	1507.30
440.82	1696.89
441.01	1607.95
441.19	1483.90
441.38	1586.88
441.57	1692.21
441.75	1563.48
441.94	1671.14
442.12	1678.16
442.31	1804.55
442.50	1706.25
442.68	1781.15
442.87	1736.68
443.05	1652.42
443.24	1629.01
443.43	1699.23
443.61	1694.55
443.80	1764.76
443.98	1671.14
444.17	1589.22
444.35	1820.94
444.54	1834.98
444.73	1778.81
444.91	1792.85
445.10	1612.63
445.28	1572.84
445.47	1521.35
445.65	1486.24
445.84	1551.78
446.02	1643.06
446.21	1650.08
446.39	1629.01
446.58	1659.44
446.77	1727.32
446.95	1762.42
447.14	1757.74
447.32	1781.15
447.51	1785.83
447.69	1776.47
447.88	1664.12
448.06	1657.10
448.25	1741.36
448.43	1860.73
448.62	1757.74
448.80	1785.83
448.99	1736.68
449.17	1827.96
449.36	1816.26
449.54	1736.68
449.73	1888.81
449.91	1860.73
450.10	1926.26
450.28	2010.52
450.46	1872.43
450.65	1947.33
450.83	2019.88
451.02	1870.09
451.20	1839.66
451.39	1926.26
451.57	1968.39
451.76	1823.28
451.94	1963.71
452.13	1762.42
452.31	1762.42
452.49	1757.74
452.68	1713.27
452.86	1675.82
453.05	1781.15
453.23	1762.42
453.42	1825.62
453.60	1722.63
453.78	1839.66
453.97	1884.13
454.15	1867.75
454.34	1809.23
454.52	1783.49
454.70	1689.87
454.89	1825.62
455.07	1671.14
455.26	1757.74
455.44	1839.66
455.62	1863.07
455.81	1820.94
455.99	1994.14
456.17	1863.07
456.36	1937.96
456.54	1900.52
456.73	2087.76
456.91	2001.16
457.09	2019.88
457.28	1956.69
457.46	1813.92
457.64	1905.20
457.83	1914.56
458.01	1916.90
458.19	1839.66
458.38	1856.04
458.56	1947.33
458.74	1804.55
458.93	1870.09
459.11	1937.96
459.29	1961.37
459.48	1867.75
459.66	1827.96
459.84	1893.49
460.03	1952.01
460.21	1963.71
460.39	1909.88
460.57	2010.52
460.76	1942.64
460.94	2010.52
461.12	1968.39
461.31	1884.13
461.49	1937.96
461.67	1900.52
461.85	2040.95
462.04	2047.97
462.22	2160.31
462.40	1987.11
462.59	2064.35
462.77	1977.75
462.95	1888.81
463.13	1888.81
463.32	2047.97
463.50	1973.07
463.68	1881.79
463.86	1975.41
464.05	1947.33
464.23	1832.64
464.41	1863.07
464.59	1856.04
464.78	1947.33
464.96	1886.47
465.14	1905.20
465.32	1926.26
465.50	2045.63
465.69	2113.50
465.87	2012.86
466.05	1933.28
466.23	1893.49
466.41	1675.82
466.60	1790.51
466.78	1799.87
466.96	1940.30
467.14	1790.51
467.32	1961.37
467.51	1926.26
467.69	1741.36
467.87	1788.17
468.05	1916.90
468.23	1977.75
468.41	2001.16
468.60	1811.57
468.78	1923.92
468.96	1998.82
469.14	1966.05
469.32	1928.60
469.50	1851.36
469.69	1977.75
469.87	1987.11
470.05	1930.94
470.23	1783.49
470.41	1825.62
470.59	1905.20
470.77	1884.13
470.95	1895.83
471.14	1858.39
471.32	1874.77
471.50	2038.61
471.68	2097.12
471.86	2083.08
472.04	2118.18
472.22	2069.03
472.40	1966.05
472.58	1933.28
472.77	1874.77
472.95	1994.14
473.13	1954.35
473.31	1895.83
473.49	2012.86
473.67	1996.48
473.85	2111.16
474.03	2015.20
474.21	2165.00
474.39	2108.82
474.57	2202.44
474.75	2136.91
474.93	2054.99
475.12	2029.24
475.30	2165.00
475.48	2069.03
475.66	2200.10
475.84	2148.61
476.02	2022.22
476.20	2005.84
476.38	2085.42
476.56	2188.40
476.74	2232.87
476.92	2165.00
477.10	2225.85
477.28	2267.98
477.46	2275.00
477.64	2349.90
477.82	2293.72
478.00	2162.66
478.18	2354.58
478.36	2197.76
478.54	2249.25
478.72	2296.07
478.90	2368.62
479.08	2455.22
479.26	2403.73
479.44	2586.29
479.62	2359.26
479.80	2375.64
479.98	2455.22
480.16	2473.95
480.34	2410.75
480.52	2345.22
480.70	2450.54
480.88	2466.92
481.06	2462.24
481.24	2537.14
481.41	2516.08
481.59	2595.65
481.77	2558.21
481.95	2715.02
482.13	2574.59
482.31	2516.08
482.49	2612.04
482.67	2644.81
482.85	2593.31
483.03	2614.38
483.21	2726.72
483.39	2717.36
483.57	2590.97
483.74	2682.25
483.92	2555.86
484.10	2686.94
484.28	2621.40
484.46	2806.30
484.64	2729.06
484.82	2731.41
485.00	2700.98
485.18	2656.51
485.35	2516.08
485.53	2349.90
485.71	2139.25
485.89	1987.11
486.07	2195.42
486.25	2326.49
486.43	2492.67
486.61	2649.49
486.78	2640.12
486.96	2574.59
487.14	2736.09
487.32	2726.72
487.50	2878.86
487.68	2897.58
487.85	2979.50
488.03	3054.40
488.21	2991.20
488.39	2871.84
488.57	2782.90
488.75	2825.03
488.92	2796.94
489.10	3192.49
489.28	3201.85
489.46	3283.77
489.64	3201.85
489.81	3227.60
489.99	3335.26
490.17	3314.20
490.35	3213.56
490.53	3309.52
490.70	3199.51
490.88	3047.38
491.06	3344.63
491.24	3260.37
491.41	3138.66
491.59	2953.76
491.77	2923.33
491.95	3012.27
492.13	3365.69
492.30	3318.88
492.48	3379.73
492.66	3456.97
492.84	3393.78
493.01	3571.66
493.19	3353.99
493.37	3407.82
493.54	3236.96
493.72	3353.99
493.90	3651.24
494.08	3583.36
494.25	3611.45
494.43	3653.58
494.61	3700.39
494.79	3808.05
494.96	3559.95
495.14	3480.38
495.32	3379.73
495.49	3452.29
495.67	3503.78
495.85	3644.21
496.02	3843.16
496.20	3723.79
496.38	3637.19
496.55	3499.10
496.73	3707.41
496.91	3604.42
497.09	3927.42
497.26	3843.16
497.44	3779.97
497.62	3730.81
497.79	3522.51
497.97	3574.00
498.14	3375.05
498.32	3478.04
498.50	3791.67
498.67	3768.26
498.85	3878.27
499.03	3794.01
499.20	3798.69
499.38	3674.64
499.56	3819.75
499.73	3698.05
499.91	3555.27
500.08	3625.49
500.26	3459.31
500.44	3489.74
500.61	3679.32
500.79	3618.47
500.97	3494.42
501.14	3555.27
501.32	3485.06
501.49	3428.88
501.67	3487.40
501.84	3637.19
502.02	3592.72
502.20	3702.73
502.37	3742.52
502.55	3691.02
502.72	3819.75
502.90	3824.44
503.07	3885.29
503.25	3730.81
503.43	3592.72
503.60	3660.60
503.78	3466.33
503.95	3503.78
504.13	3845.50
504.30	3868.91
504.48	3852.52
504.65	3866.56
504.83	3705.07
505.01	3983.59
505.18	3843.16
505.36	4004.66
505.53	3950.82
505.71	4025.72
505.88	4063.17
506.06	3868.91
506.23	3791.67
506.41	3845.50
506.58	3798.69
506.76	3922.74
506.93	3786.99
507.11	3920.40
507.28	3852.52
507.46	3742.52
507.63	3681.66
507.81	3728.47
507.98	3634.85
508.16	3805.71
508.33	4004.66
508.50	3957.85
508.68	4028.06
508.85	4105.30
509.03	4070.19
509.20	3978.91
509.38	3911.04
509.55	3744.86
509.73	3950.82
509.90	3751.88
510.08	3810.39
510.25	3983.59
510.42	3932.10
510.60	3758.90
510.77	3716.77
510.95	4147.43
511.12	4138.07
511.30	4208.28
511.47	4135.73
511.64	3974.23
511.82	4023.38
511.99	3946.14
512.17	3913.38
512.34	3850.18
512.51	3747.20
512.69	3779.97
512.86	3852.52
513.04	3871.25
513.21	3964.87
513.38	3779.97
513.56	3882.95
513.73	3770.60
513.90	3620.81
514.08	3639.53
514.25	3777.62
514.43	3747.20
514.60	3948.48
514.77	3946.14
514.95	3915.72
515.12	3819.75
515.29	3887.63
515.47	3885.29
515.64	3885.29
515.81	3882.95
515.99	3749.54
516.16	3463.99
516.33	3424.20
516.51	3173.77
516.68	3045.04
516.85	3115.25
517.03	3169.09
517.20	3323.56
517.37	3714.43
517.54	3768.26
517.72	3794.01
517.89	3349.31
518.06	3152.70
518.24	3157.38
518.41	3515.48
518.58	3660.60
518.75	3756.56
518.93	3653.58
519.10	3632.51
519.27	3705.07
519.45	3714.43
519.62	3915.72
519.79	3768.26
519.96	3946.14
520.14	3861.88
520.31	3742.52
520.48	3782.31
520.65	3660.60
520.83	3866.56
521.00	3754.22
521.17	3798.69
521.34	3866.56
521.52	3892.31
521.69	4028.06
521.86	4046.79
522.03	4060.83
522.20	3672.30
522.38	3473.36
522.55	3702.73
522.72	3742.52
522.89	3763.58
523.07	3861.88
523.24	3789.33
523.41	3911.04
523.58	4028.06
523.75	4149.77
523.92	3936.78
524.10	3957.85
524.27	3988.27
524.44	4039.76
524.61	3707.41
524.78	3976.57
524.96	4016.36
525.13	3918.06
525.30	3878.27
525.47	4023.38
525.64	4037.42
525.81	3756.56
525.98	3623.15
526.16	3421.86
526.33	3246.32
526.50	3428.88
526.67	3428.88
526.84	3398.46
527.01	3550.59
527.18	3564.64
527.36	3742.52
527.53	3784.65
527.70	3831.46
527.87	3707.41
528.04	3749.54
528.21	3857.20
528.38	3873.59
528.55	3960.19
528.72	4037.42
528.89	3997.64
529.07	4016.36
529.24	4004.66
529.41	3854.86
529.58	3702.73
529.75	3723.79
529.92	3789.33
530.09	3953.16
530.26	4053.81
530.43	3985.93
530.60	4004.66
530.77	4035.08
530.94	4196.58
531.11	4032.74
531.28	3880.61
531.46	3934.44
531.63	3927.42
531.80	4032.74
531.97	3943.80
532.14	3747.20
532.31	3489.74
532.48	3569.32
532.65	3424.20
532.82	3588.04
532.99	3843.16
533.16	3873.59
533.33	3824.44
533.50	3896.99
533.67	3747.20
533.84	3569.32
534.01	3744.86
534.18	3791.67
534.35	3901.67
534.52	3707.41
534.69	3906.35
534.86	3868.91
535.03	3861.88
535.20	3974.23
535.37	4264.46
535.54	4032.74
535.71	4009.34
535.88	4023.38
536.05	3859.54
536.22	3716.77
536.38	3833.80
536.55	3424.20
536.72	3538.89
536.89	3543.57
537.06	3754.22
537.23	3908.69
537.40	3871.25
537.57	3707.41
537.74	3730.81
537.91	3805.71
538.08	3866.56
538.25	3789.33
538.42	3719.11
538.59	3779.97
538.75	3815.07
538.92	3700.39
539.09	3641.87
539.26	3543.57
539.43	3358.67
539.60	3445.27
539.77	3707.41
539.94	3676.98
540.11	3447.61
540.28	3471.01
540.44	3400.80
540.61	3452.29
540.78	3463.99
540.95	3559.95
541.12	3590.38
541.29	3655.92
541.46	3644.21
541.62	3712.09
541.79	3688.68
541.96	3515.48
542.13	3637.19
542.30	3826.78
542.47	3646.55
542.63	3574.00
542.80	3574.00
542.97	3592.72
543.14	3583.36
543.31	3522.51
543.48	3655.92
543.64	3684.00
543.81	3831.46
543.98	3735.50
544.15	3632.51
544.32	3574.00
544.48	3459.31
544.65	3606.77
544.82	3686.34
544.99	3684.00
545.16	3606.77
545.32	3527.19
545.49	3662.94
545.66	3859.54
545.83	3782.31
546.00	3674.64
546.16	3576.34
546.33	3541.23
546.50	3613.79
546.67	3686.34
546.83	3648.90
547.00	3613.79
547.17	3646.55
547.34	3501.44
547.50	3272.07
547.67	3400.80
547.84	3520.17
548.00	3564.64
548.17	3590.38
548.34	3613.79
548.51	3653.58
548.67	3433.57
548.84	3728.47
549.01	3588.04
549.18	3557.61
549.34	3510.80
549.51	3595.06
549.68	3602.08
549.84	3555.27
550.01	3564.64
550.18	3581.02
550.34	3543.57
550.51	3461.65
550.68	3520.17
550.84	3459.31
551.01	3417.18
551.18	3471.01
551.34	3536.55
551.51	3655.92
551.68	3588.04
551.84	3522.51
552.01	3424.20
552.18	3618.47
552.34	3349.31
552.51	3358.67
552.68	3365.69
552.84	3328.24
553.01	3471.01
553.18	3616.13
553.34	3552.93
553.51	3438.25
553.67	3487.40
553.84	3431.23
554.01	3386.76
554.17	3438.25
554.34	3454.63
554.51	3583.36
554.67	3592.72
554.84	3707.41
555.00	3676.98
555.17	3442.93
555.33	3471.01
555.50	3452.29
555.67	3339.94
555.83	3405.48
556.00	3447.61
556.16	3382.07
556.33	3412.50
556.50	3251.00
556.66	3342.28
556.83	3204.19
556.99	3243.98
557.16	3349.31
557.32	3370.37
557.49	3363.35
557.65	3356.33
557.82	3370.37
557.98	3290.79
558.15	3208.87
558.32	3178.45
558.48	2928.01
558.65	2995.89
558.81	3194.83
558.98	3164.40
559.14	3126.96
559.31	3145.68
559.47	3145.68
559.64	3176.11
559.80	3164.40
559.97	3119.93
560.13	3145.68
560.30	3328.24
560.46	3468.67
560.63	3297.81
560.79	3466.33
560.96	3426.54
561.12	3269.73
561.29	3213.56
561.45	3089.51
561.61	3155.04
561.78	3131.64
561.94	3201.85
562.11	3049.72
562.27	3265.05
562.44	3229.94
562.60	3124.62
562.77	3211.22
562.93	3225.26
563.10	3283.77
563.26	3150.36
563.42	3283.77
563.59	3138.66
563.75	3101.21
563.92	3197.17
564.08	3218.24
564.24	3112.91
564.41	3183.13
564.57	3180.79
564.74	3185.47
564.90	3119.93
565.07	3068.44
565.23	3016.95
565.39	2881.20
565.56	2991.20
565.72	3023.97
565.88	2995.89
566.05	3023.97
566.21	2888.22
566.38	3087.17
566.54	3091.85
566.70	3080.14
566.87	2970.14
567.03	3110.57
567.19	3204.19
567.36	3098.87
567.52	3141.00
567.68	3082.49
567.85	2942.05
568.01	2972.48
568.17	2981.84
568.34	2822.69
568.50	2864.82
568.66	2946.73
568.83	2965.46
568.99	3009.93
569.15	2960.78
569.32	2958.44
569.48	2885.88
569.64	3035.67
569.81	2913.97
569.97	2932.69
570.13	2883.54
570.30	2785.24
570.46	2834.39
570.62	2799.28
570.78	2843.75
570.95	2752.47
571.11	2796.94
571.27	2815.66
571.43	2818.00
571.60	2841.41
571.76	2869.50
571.92	3021.63
572.09	2979.50
572.25	2888.22
572.41	3000.57
572.57	2918.65
572.74	2920.99
572.90	2958.44
573.06	3026.31
573.22	2937.37
573.38	2904.60
573.55	2963.12
573.71	2911.63
573.87	2932.69
574.03	2796.94
574.20	2930.35
574.36	2862.48
574.52	2799.28
574.68	2892.90
574.84	2829.71
575.01	2703.32
575.17	2675.23
575.33	2780.56
575.49	2696.30
575.65	2717.36
575.82	2679.91
575.98	2712.68
576.14	2820.35
576.30	2820.35
576.46	2876.52
576.62	2848.43
576.79	2839.07
576.95	2963.12
577.11	2801.62
577.27	2827.37
577.43	2771.19
577.59	2710.34
577.75	2740.77
577.92	2614.38
578.08	2691.62
578.24	2682.25
578.40	2738.43
578.56	2553.52
578.72	2708.00
578.88	2612.04
579.04	2661.19
579.21	2684.59
579.37	2850.77
579.53	2693.96
579.69	2928.01
579.85	2700.98
580.01	2766.51
580.17	2752.47
580.33	2689.28
580.49	2633.10
580.65	2757.15
580.82	2881.20
580.98	2808.64
581.14	2729.06
581.30	2743.11
581.46	2656.51
581.62	2726.72
581.78	2700.98
581.94	2815.66
582.10	2722.04
582.26	2775.88
582.42	2708.00
582.58	2733.75
582.74	2698.64
582.90	2848.43
583.06	2796.94
583.22	2722.04
583.38	2752.47
583.54	2743.11
583.70	2703.32
583.86	2656.51
584.02	2745.45
584.18	2612.04
584.34	2710.34
584.50	2619.06
584.66	2586.29
584.82	2635.44
584.98	2649.49
585.14	2616.72
585.30	2546.50
585.46	2523.10
585.62	2509.05
585.78	2443.52
585.94	2511.39
586.10	2600.34
586.26	2415.43
586.42	2605.02
586.58	2567.57
586.74	2644.81
586.90	2551.18
587.06	2600.34
587.22	2579.27
587.38	2696.30
587.54	2597.99
587.70	2525.44
587.86	2574.59
588.02	2490.33
588.18	2422.45
588.34	2342.88
588.49	2286.70
588.65	2148.61
588.81	1991.80
588.97	2010.52
589.13	2047.97
589.29	2108.82
589.45	2122.87
589.61	2216.49
589.77	2190.74
589.93	2335.85
590.08	2558.21
590.24	2588.63
590.40	2459.90
590.56	2420.11
590.72	2476.29
590.88	2342.88
591.04	2321.81
591.20	2328.83
591.35	2420.11
591.51	2310.11
591.67	2455.22
591.83	2326.49
591.99	2359.26
592.15	2368.62
592.31	2363.94
592.46	2408.41
592.62	2328.83
592.78	2293.72
592.94	2377.98
593.10	2452.88
593.26	2434.16
593.41	2368.62
593.57	2347.56
593.73	2485.65
593.89	2368.62
594.05	2235.21
594.20	2190.74
594.36	2235.21
594.52	2211.81
594.68	2314.79
594.84	2293.72
594.99	2380.32
595.15	2242.23
595.31	2284.36
595.47	2291.38
595.62	2347.56
595.78	2366.28
595.94	2331.17
596.10	2401.39
596.25	2345.22
596.41	2286.70
596.57	2141.59
596.73	2377.98
596.88	2286.70
597.04	2272.66
597.20	2293.72
597.36	2195.42
597.51	2183.72
597.67	2305.43
597.83	2251.60
597.99	2200.10
598.14	2349.90
598.30	2263.30
598.46	2256.28
598.61	2300.75
598.77	2328.83
598.93	2373.30
599.09	2260.96
599.24	2270.32
599.40	2349.90
599.56	2377.98
