SpectraSuite Data File
++++++++++++++++++++++++++++++++++++
Date: Mon Oct 07 14:53:42 GMT-05:00 2013
User: price-jones
Dark Spectrum Present: No
Reference Spectrum Present: No
Number of Sampled Component Spectra: 1
Spectrometers: USB2+H05261
Integration Time (usec): 100000 (USB2+H05261)
Spectra Averaged: 1 (USB2+H05261)
Boxcar Smoothing: 0 (USB2+H05261)
Correct for Electrical Dark: No (USB2+H05261)
Strobe/Lamp Enabled: No (USB2+H05261)
Correct for Detector Non-linearity: No (USB2+H05261)
Correct for Stray Light: No (USB2+H05261)
Number of Pixels in Processed Spectrum: 2048
>>>>>Begin Processed Spectral Data<<<<<
365.73	0.00
365.92	0.00
366.12	0.00
366.32	0.00
366.52	0.00
366.72	0.00
366.91	0.00
367.11	0.00
367.31	0.00
367.51	0.00
367.70	0.00
367.90	0.00
368.10	0.00
368.30	0.00
368.49	0.00
368.69	0.00
368.89	0.00
369.09	0.00
369.28	0.00
369.48	0.00
369.68	0.00
369.87	0.00
370.07	0.00
370.27	0.00
370.47	664.71
370.66	3276.75
370.86	3794.01
371.06	4304.25
371.25	4215.30
371.45	3894.65
371.65	3609.11
371.84	3180.79
372.04	3421.86
372.24	3859.54
372.44	3981.25
372.63	3985.93
372.83	3679.32
373.03	3236.96
373.22	2946.73
373.42	3021.63
373.62	3548.25
373.81	3953.16
374.01	3836.14
374.21	3616.13
374.40	3293.13
374.60	3267.39
374.79	3885.29
374.99	4353.40
375.19	4880.02
375.38	4840.23
375.58	4599.15
375.78	4454.04
375.97	4482.13
376.17	4772.35
376.37	4816.82
376.56	4959.60
376.76	5060.24
376.95	5413.66
377.15	5830.27
377.35	6066.67
377.54	6459.88
377.74	6506.69
377.93	6574.56
378.13	6338.17
378.33	6022.20
378.52	5462.81
378.72	5254.50
378.91	5165.56
379.11	5020.45
379.31	4847.25
379.50	4940.87
379.70	5254.50
379.89	5998.79
380.09	6373.28
380.28	6342.85
380.48	6375.62
380.68	6317.11
380.87	6094.76
381.07	5764.74
381.26	5231.10
381.46	4894.06
381.65	4697.46
381.85	4634.26
382.04	4386.16
382.24	4037.42
382.43	3915.72
382.63	3733.15
382.83	3859.54
383.02	3836.14
383.22	3829.12
383.41	3904.01
383.61	4208.28
383.80	4823.84
384.00	5357.49
384.19	6071.35
384.39	6420.09
384.58	6356.90
384.78	6436.47
384.97	6202.42
385.17	5919.21
385.36	5706.23
385.56	5296.63
385.75	5549.41
385.95	6111.14
386.14	6382.64
386.34	6457.54
386.53	6176.67
386.72	5923.90
386.92	5937.94
387.11	6193.06
387.31	6583.93
387.50	6502.01
387.70	6338.17
387.89	6150.93
388.09	6160.29
388.28	6338.17
388.48	6436.47
388.67	6839.05
388.86	7487.37
389.06	7847.82
389.25	8245.71
389.45	8482.10
389.64	8367.42
389.84	8304.22
390.03	8292.52
390.22	7925.05
390.42	8411.89
390.61	9233.41
390.81	9596.20
391.00	9987.07
391.19	9614.92
391.39	9500.23
391.58	8891.70
391.78	8402.52
391.97	8126.34
392.16	7520.14
392.36	7035.65
392.55	5528.35
392.75	4526.60
392.94	3679.32
393.13	3487.40
393.33	4259.78
393.52	5425.36
393.71	6649.46
393.91	7478.01
394.10	8084.21
394.29	8964.25
394.49	9460.45
394.68	10317.08
394.88	10420.06
395.07	10611.99
395.26	10572.20
395.46	10513.69
395.65	9626.62
395.84	8554.66
396.04	7377.37
396.23	5956.66
396.42	4966.62
396.62	4599.15
396.81	5418.34
397.00	6949.05
397.19	8650.62
397.39	10267.93
397.58	11730.76
397.77	12451.65
397.97	12821.45
398.16	13125.72
398.35	13619.58
398.55	13804.48
398.74	14232.80
398.93	15110.50
399.12	14726.65
399.32	13851.29
399.51	14420.04
399.70	15066.03
399.90	15173.69
400.09	15211.14
400.28	14815.59
400.47	15377.32
400.67	15971.82
400.86	16500.78
401.05	16212.89
401.24	16470.35
401.44	16566.31
401.63	16594.40
401.82	16938.46
402.01	16772.28
402.21	16664.61
402.40	16898.67
402.59	16456.31
402.78	15878.19
402.97	15300.08
403.17	15679.25
403.36	16830.79
403.55	17741.26
403.74	17984.68
403.93	17104.64
404.13	15747.12
404.32	15157.31
404.51	15894.58
404.70	17296.56
404.89	17345.71
405.09	17088.25
405.28	16727.81
405.47	16781.64
405.66	16505.46
405.85	16231.62
406.05	15733.08
406.24	15831.38
406.43	16755.90
406.62	17216.98
406.81	17128.04
407.00	16388.43
407.20	16161.40
407.39	16374.39
407.58	17221.66
407.77	18026.81
407.96	18558.11
408.15	18792.16
408.34	18775.78
408.54	19538.79
408.73	19885.19
408.92	19459.21
409.11	18743.01
409.30	17862.97
409.49	16695.04
409.68	15721.38
409.87	15026.24
410.07	16322.90
410.26	17745.94
410.45	18539.38
410.64	19147.92
410.83	19658.16
411.02	20250.32
411.21	21067.16
411.40	20746.51
411.59	21029.71
411.78	20524.16
411.98	20308.83
412.17	20868.22
412.36	20334.57
412.55	20238.61
412.74	19847.74
412.93	19606.67
413.12	19627.73
413.31	21528.25
413.50	22050.19
413.69	22305.31
413.88	21345.69
414.07	20720.76
414.26	21523.57
414.45	21446.33
414.64	21678.04
414.83	22029.12
415.02	21462.71
415.22	21266.11
415.41	21881.67
415.60	22377.86
415.79	23445.15
415.98	23826.65
416.17	24049.00
416.36	23304.71
416.55	22801.50
416.74	22300.62
416.93	21598.46
417.12	21483.78
417.31	21986.99
417.50	22260.84
417.69	23058.96
417.88	23421.74
418.07	22728.94
418.26	22295.94
418.45	22682.13
418.64	23166.62
418.83	24018.58
419.02	23943.68
419.21	23903.89
419.39	22417.65
419.58	21511.86
419.77	21411.22
419.96	22724.26
420.15	23669.84
420.34	24573.28
420.53	25443.96
420.72	26218.68
420.91	25450.99
421.10	25193.53
421.29	25266.08
421.48	24458.60
421.67	25479.07
421.86	24856.49
422.05	23391.31
422.24	20872.90
422.43	20465.64
422.61	22600.21
422.80	24856.49
422.99	24772.23
423.18	23807.93
423.37	23316.42
423.56	23428.76
423.75	23843.04
423.94	23964.75
424.13	22890.44
424.32	23239.18
424.50	23103.43
424.69	23082.36
424.88	22857.67
425.07	22834.27
425.26	22883.42
425.45	22703.20
425.64	22038.48
425.83	22129.77
426.01	23637.07
426.20	24306.46
426.39	24135.60
426.58	22424.67
426.77	20563.95
426.96	19653.48
427.15	20503.09
427.33	22087.64
427.52	22946.61
427.71	23253.22
427.90	22796.82
428.09	22878.74
428.28	22237.43
428.46	21518.89
428.65	21238.02
428.84	21610.17
429.03	22658.73
429.22	20720.76
429.40	20107.54
429.59	18169.58
429.78	15939.05
429.97	16011.60
430.16	16123.95
430.34	16489.07
430.53	16283.11
430.72	16566.31
430.91	18026.81
431.10	21717.83
431.28	25144.38
431.47	27337.46
431.66	27611.30
431.85	25366.73
432.03	23541.11
432.22	21879.33
432.41	23215.77
432.60	25769.30
432.79	26794.45
432.97	27393.63
433.16	26726.58
433.35	24453.92
433.54	21986.99
433.72	20725.44
433.91	21020.35
434.10	23768.14
434.28	25242.68
434.47	26738.28
434.66	26614.23
434.85	25596.10
435.03	25645.25
435.22	25874.62
435.41	27515.34
435.59	27868.76
435.78	27683.86
435.97	29188.82
436.16	29036.69
436.34	29046.05
436.53	28091.11
436.72	28063.02
436.90	26639.98
437.09	26721.90
437.28	25734.19
437.46	27211.07
437.65	27332.78
437.84	25521.20
438.02	23524.72
438.21	22850.65
438.40	24112.20
438.58	26260.81
438.77	26574.44
438.96	27035.53
439.14	28369.63
439.33	28985.19
439.52	29743.53
439.70	29048.39
439.89	27955.36
440.08	27323.41
440.26	27255.54
440.45	28074.73
440.63	30066.52
440.82	31473.18
441.01	31356.16
441.19	31211.04
441.38	31555.10
441.57	32514.72
441.75	33455.62
441.94	33572.64
442.12	32779.20
442.31	33378.38
442.50	33537.54
442.68	32734.73
442.87	32732.39
443.05	32154.28
443.24	32713.67
443.43	33638.18
443.61	34103.95
443.80	34628.23
443.98	32783.88
444.17	32547.49
444.35	34700.78
444.54	34644.61
444.73	34429.28
444.91	33219.22
445.10	31868.73
445.28	30298.23
445.47	29797.36
445.65	30148.44
445.84	31318.71
446.02	31934.27
446.21	32659.84
446.39	32795.59
446.58	33296.46
446.77	33347.95
446.95	34089.90
447.14	34927.81
447.32	35246.13
447.51	34841.21
447.69	33453.28
447.88	32975.81
448.06	33284.76
448.25	34167.14
448.43	34855.26
448.62	33617.11
448.80	33713.08
448.99	33729.46
449.17	33979.90
449.36	34487.79
449.54	35353.79
449.73	35943.61
449.91	36481.93
450.10	37153.66
450.28	37640.50
450.46	37680.28
450.65	37530.49
450.83	37455.59
451.02	36451.50
451.20	36435.12
451.39	36488.95
451.57	36224.47
451.76	36072.34
451.94	35828.92
452.13	35096.33
452.31	33535.20
452.49	32065.34
452.68	32367.27
452.86	32531.11
453.05	33198.16
453.23	33914.36
453.42	35215.70
453.60	35325.71
453.78	35885.09
453.97	35620.61
454.15	35763.39
454.34	35021.44
454.52	35063.57
454.70	34476.09
454.89	34913.77
455.07	35058.88
455.26	35096.33
455.44	36687.90
455.62	37366.65
455.81	37794.97
455.99	37420.48
456.17	36280.64
456.36	36807.26
456.54	37717.73
456.73	38124.99
456.91	38778.00
457.09	38742.89
457.28	39854.64
457.46	37933.06
457.64	37502.40
457.83	36676.19
458.01	35667.42
458.19	36760.45
458.38	36828.33
458.56	38246.69
458.74	38300.53
458.93	36994.51
459.11	37134.94
459.29	36870.46
459.48	37207.50
459.66	37123.24
459.84	37303.46
460.03	37752.84
460.21	37834.76
460.39	38576.71
460.57	38373.08
460.76	39182.91
460.94	39222.70
461.12	38618.84
461.31	38955.88
461.49	39161.84
461.67	38691.40
461.85	40149.55
462.04	39676.76
462.22	39981.03
462.40	39746.98
462.59	39810.17
462.77	39938.90
462.95	39913.16
463.13	39040.14
463.32	38979.28
463.50	38880.98
463.68	38396.49
463.86	38958.22
464.05	38330.95
464.23	37418.14
464.41	37287.07
464.59	36624.70
464.78	38782.68
464.96	38309.89
465.14	37883.91
465.32	39552.71
465.50	39814.85
465.69	40381.26
465.87	39164.18
466.05	38663.31
466.23	36638.75
466.41	35835.94
466.60	36788.54
466.78	36751.09
466.96	37773.91
467.14	38026.68
467.32	39044.82
467.51	39189.93
467.69	37305.80
467.87	37713.05
468.05	38307.55
468.23	38817.78
468.41	38841.19
468.60	38597.77
468.78	39058.86
468.96	38075.84
469.14	39117.37
469.32	39536.33
469.50	37818.38
469.69	38094.56
469.87	37167.71
470.05	37228.56
470.23	37715.39
470.41	37858.17
470.59	38501.81
470.77	37888.59
470.95	39225.04
471.14	39297.59
471.32	39484.84
471.50	41488.34
471.68	41268.33
471.86	41998.57
472.04	42246.67
472.22	42106.24
472.40	40390.62
472.58	40151.89
472.77	39189.93
472.95	40275.94
473.13	40978.10
473.31	40446.80
473.49	40208.06
473.67	41326.84
473.85	41439.18
474.03	42539.24
474.21	42377.74
474.39	43026.07
474.57	43484.81
474.75	43512.90
474.93	42806.06
475.12	41738.77
475.30	42082.83
475.48	42225.60
475.66	42522.85
475.84	42216.24
476.02	42061.77
476.20	41329.18
476.38	42373.06
476.56	43168.84
476.74	43634.61
476.92	44184.63
477.10	44701.89
477.28	46440.91
477.46	45933.01
477.64	46649.22
477.82	46251.33
478.00	46373.03
478.18	45984.51
478.36	45420.44
478.54	46110.89
478.72	46263.03
478.90	46944.12
479.08	48119.07
479.26	48222.06
479.44	48212.70
479.62	48140.14
479.80	48072.26
479.98	48210.35
480.16	48802.51
480.34	48474.84
480.52	48566.12
480.70	48776.76
480.88	48802.51
481.06	49806.60
481.24	49745.75
481.41	50398.76
481.59	50841.12
481.77	50562.59
481.95	50354.29
482.13	50258.32
482.31	50429.18
482.49	50820.05
482.67	50632.81
482.85	50653.87
483.03	51477.74
483.21	51407.53
483.39	51774.99
483.57	50983.89
483.74	50946.44
483.92	50897.29
484.10	51435.61
484.28	52177.56
484.46	52444.38
484.64	52978.03
484.82	51805.42
485.00	51690.73
485.18	50855.16
485.35	49961.08
485.53	46986.25
485.71	43119.69
485.89	42670.31
486.07	44313.36
486.25	47686.07
486.43	49846.39
486.61	50948.78
486.78	50899.63
486.96	50827.07
487.14	52285.23
487.32	52956.96
487.50	53851.05
487.68	54747.47
487.85	54988.55
488.03	54880.88
488.21	54368.30
488.39	54064.03
488.57	53495.28
488.75	53186.33
488.92	54049.99
489.10	55817.10
489.28	56889.06
489.46	57429.72
489.64	57439.09
489.81	57623.99
489.99	57174.61
490.17	57193.33
490.35	57797.19
490.53	57144.18
490.70	56931.19
490.88	56769.69
491.06	57460.15
491.24	57614.63
491.41	56669.05
491.59	55512.83
491.77	54820.03
491.95	55763.26
492.13	56537.98
492.30	57797.19
492.48	58511.05
492.66	58883.20
492.84	58731.06
493.01	58461.90
493.19	58064.01
493.37	57733.99
493.54	57626.33
493.72	58195.08
493.90	59070.44
494.08	59477.69
494.25	60034.74
494.43	60116.66
494.61	60678.39
494.79	60584.77
494.96	60172.83
495.14	59868.56
495.32	59178.10
495.49	58356.58
495.67	59419.18
495.85	60507.53
496.02	60994.36
496.20	60874.99
496.38	60296.88
496.55	60060.49
496.73	60753.29
496.91	60638.60
497.09	61483.53
497.26	61460.13
497.44	60940.53
497.62	60563.70
497.79	59943.46
497.97	58602.33
498.14	58922.99
498.32	59807.71
498.50	60610.51
498.67	61291.61
498.85	61176.92
499.03	61139.47
499.20	61258.84
499.38	61293.95
499.56	61228.41
499.73	60809.46
499.91	60617.53
500.08	60168.15
500.26	59487.06
500.44	59770.26
500.61	60460.72
500.79	60233.69
500.97	59966.87
501.14	59924.74
501.32	59643.87
501.49	59536.21
501.67	59791.33
501.84	60383.48
502.02	60715.84
502.20	60931.17
502.37	61092.66
502.55	61083.30
502.72	61586.52
502.90	62052.28
503.07	61731.63
503.25	61415.66
503.43	60680.73
503.60	60023.04
503.78	59365.35
503.95	59807.71
504.13	60968.61
504.30	61790.14
504.48	61698.86
504.65	61380.55
504.83	61265.86
505.01	61918.87
505.18	62312.08
505.36	62759.12
505.53	62878.49
505.71	63007.22
505.88	63025.95
506.06	62492.30
506.23	62298.04
506.41	61935.26
506.58	61982.07
506.76	62045.26
506.93	62005.47
507.11	61932.92
507.28	61914.19
507.46	61593.54
507.63	60987.34
507.81	60732.22
507.98	61073.94
508.16	61619.28
508.33	62038.24
508.50	62525.07
508.68	62632.74
508.85	63142.97
509.03	63171.06
509.20	63180.42
509.38	62513.37
509.55	61600.56
509.73	61827.59
509.90	62492.30
510.08	62288.68
510.25	62351.87
510.42	62260.59
510.60	62265.27
510.77	62316.76
510.95	62873.81
511.12	63065.73
511.30	63072.76
511.47	63395.75
511.64	63463.63
511.82	63243.62
511.99	62379.96
512.17	62183.35
512.34	61797.16
512.51	61928.23
512.69	62012.49
512.86	62159.95
513.04	62543.80
513.21	62513.37
513.38	62265.27
513.56	61797.16
513.73	61205.01
513.90	61427.36
514.08	61542.05
514.25	61780.78
514.43	62005.47
514.60	62026.54
514.77	62045.26
514.95	62459.54
515.12	62129.52
515.29	62330.81
515.47	62981.48
515.64	62965.09
515.81	62592.95
515.99	62218.46
516.16	60891.38
516.33	58997.88
516.51	57506.96
516.68	56818.84
516.85	56575.43
517.03	57041.20
517.20	59044.69
517.37	61286.93
517.54	62410.38
517.72	61963.34
517.89	59901.33
518.06	57703.57
518.24	57872.09
518.41	59906.01
518.58	61022.45
518.75	61249.48
518.93	61434.38
519.10	61113.73
519.27	61572.47
519.45	61902.49
519.62	62553.16
519.79	62590.61
519.96	62616.35
520.14	62166.97
520.31	61602.90
520.48	61654.39
520.65	61801.85
520.83	62794.23
521.00	62993.18
521.17	62698.27
521.34	62288.68
521.52	62602.31
521.69	63089.14
521.86	63484.69
522.03	63365.32
522.20	62103.77
522.38	61256.50
522.55	61111.39
522.72	61726.95
522.89	61860.36
523.07	62071.01
523.24	62284.00
523.41	62859.77
523.58	63278.72
523.75	63896.62
523.92	63695.34
524.10	63646.19
524.27	63618.10
524.44	63346.60
524.61	63367.66
524.78	63037.65
524.96	63051.69
525.13	62937.01
525.30	63173.40
525.47	63629.80
525.64	63501.07
525.81	62780.19
525.98	61638.01
526.16	60390.50
526.33	59678.98
526.50	59402.80
526.67	59370.03
526.84	59559.61
527.01	60683.07
527.18	61361.82
527.36	62012.49
527.53	63061.05
527.70	63271.70
527.87	62756.78
528.04	62281.66
528.21	62464.22
528.38	63461.29
528.55	63814.71
528.72	64069.82
528.89	64165.79
529.07	63898.97
529.24	63288.09
529.41	62794.23
529.58	62358.89
529.75	62300.38
529.92	62763.81
530.09	63135.95
530.26	63470.65
530.43	63744.49
530.60	63763.21
530.77	64055.78
530.94	64095.57
531.11	63817.05
531.28	63192.12
531.46	63201.49
531.63	63278.72
531.80	63229.57
531.97	62873.81
532.14	62234.84
532.31	61207.35
532.48	60797.76
532.65	60631.58
532.82	61427.36
532.99	62454.86
533.16	62775.51
533.33	63377.03
533.50	63009.56
533.67	62466.56
533.84	62103.77
534.01	62424.43
534.18	62745.08
534.35	62855.09
534.52	62714.65
534.69	62934.66
534.86	63112.55
535.03	63238.93
535.20	63803.00
535.37	63997.27
535.54	64095.57
535.71	63873.22
535.88	63423.84
536.05	62939.35
536.22	62606.99
536.38	62522.73
536.55	61858.02
536.72	61504.60
536.89	61249.48
537.06	62042.92
537.23	62869.13
537.40	62922.96
537.57	63016.58
537.74	62728.70
537.91	62822.32
538.08	62782.53
538.25	62733.38
538.42	63159.36
538.59	62798.91
538.75	62110.80
538.92	62241.87
539.09	61946.96
539.26	61710.56
539.43	61591.20
539.60	61579.49
539.77	61806.53
539.94	61640.35
540.11	61258.84
540.28	60584.77
540.44	60729.88
540.61	60956.91
540.78	61183.94
540.95	61413.32
541.12	61820.57
541.29	62173.99
541.46	62253.57
541.62	62461.88
541.79	62255.91
541.96	61656.73
542.13	61745.67
542.30	61813.55
542.47	62262.93
542.63	62012.49
542.80	61633.33
542.97	61895.47
543.14	61595.88
543.31	61874.40
543.48	62197.40
543.64	62794.23
543.81	63295.11
543.98	62967.43
544.15	62543.80
544.32	61731.63
544.48	61897.81
544.65	62274.63
544.82	62637.42
544.99	62415.07
545.16	61998.45
545.32	61560.77
545.49	62485.28
545.66	62836.36
545.83	62438.47
546.00	62183.35
546.16	61881.42
546.33	61778.44
546.50	61977.39
546.67	62555.50
546.83	62232.50
547.00	61968.02
547.17	61532.68
547.34	61006.06
547.50	60907.76
547.67	61254.16
547.84	61277.57
548.00	61764.40
548.17	62085.05
548.34	61968.02
548.51	61881.42
548.67	61911.85
548.84	62059.30
549.01	61982.07
549.18	61921.21
549.34	61939.94
549.51	61914.19
549.68	61705.88
549.84	61719.93
550.01	61581.84
550.18	61242.46
550.34	61359.48
550.51	61483.53
550.68	61619.28
550.84	61261.18
551.01	61221.39
551.18	61207.35
551.34	61359.48
551.51	61736.31
551.68	61745.67
551.84	62213.78
552.01	61797.16
552.18	61703.54
552.34	61144.16
552.51	60757.97
552.68	60676.05
552.84	61034.15
553.01	61329.06
553.18	61123.09
553.34	61048.19
553.51	61352.46
553.67	61516.30
553.84	61834.61
554.01	61605.24
554.17	61492.89
554.34	61630.99
554.51	61570.13
554.67	62005.47
554.84	61677.80
555.00	61460.13
555.17	61078.62
555.33	61277.57
555.50	61497.58
555.67	61200.33
555.83	61001.38
556.00	60779.03
556.16	60807.12
556.33	60664.35
556.50	60509.87
556.66	60395.18
556.83	60170.49
556.99	60285.18
557.16	60362.42
557.32	60540.30
557.49	60844.57
557.65	60683.07
557.82	60821.16
557.98	60589.45
558.15	60247.73
558.32	59334.92
558.48	58824.68
558.65	58876.18
558.81	59234.28
558.98	59426.20
559.14	59751.54
559.31	59898.99
559.47	59739.83
559.64	59564.29
559.80	59173.42
559.97	59217.89
560.13	59678.98
560.30	60371.78
560.46	61036.49
560.63	61076.28
560.79	61130.11
560.96	60947.55
561.12	59655.57
561.29	58864.47
561.45	58878.52
561.61	59561.95
561.78	59875.58
561.94	59721.11
562.11	59627.49
562.27	59601.74
562.44	59906.01
562.60	60175.17
562.77	60540.30
562.93	60364.76
563.10	60165.81
563.26	59458.97
563.42	59709.41
563.59	59552.59
563.75	59522.16
563.92	59664.94
564.08	59405.14
564.24	59920.05
564.41	59849.84
564.57	59817.07
564.74	59543.23
564.90	59557.27
565.07	59278.75
565.23	59084.48
565.39	58539.14
565.56	58354.24
565.72	58136.57
565.88	58365.94
566.05	58445.52
566.21	58995.54
566.38	58852.77
566.54	58897.24
566.70	59297.47
566.87	59465.99
567.03	59456.63
567.19	59742.17
567.36	59377.05
567.52	59367.69
567.68	59002.56
567.85	58529.78
568.01	58080.39
568.17	57883.79
568.34	58099.12
568.50	57921.24
568.66	57897.83
568.83	58159.97
568.99	58454.88
569.15	58597.65
569.32	58440.84
569.48	58344.87
569.64	58206.78
569.81	57841.66
569.97	57773.78
570.13	57738.68
570.30	57368.87
570.46	57130.14
570.62	56678.41
570.78	56449.04
570.95	56685.43
571.11	57303.34
571.27	57607.61
571.43	57717.61
571.60	57776.12
571.76	57993.79
571.92	58316.79
572.09	58471.26
572.25	58375.30
572.41	58436.16
572.57	58152.95
572.74	58164.65
572.90	57750.38
573.06	57846.34
573.22	58012.52
573.38	57968.05
573.55	57804.21
573.71	57785.49
573.87	57991.45
574.03	57659.10
574.20	57724.63
574.36	57567.82
574.52	57396.96
574.68	57375.89
574.84	57010.77
575.01	56575.43
575.17	56193.92
575.33	56811.82
575.49	56992.04
575.65	57113.75
575.82	57003.75
575.98	56748.63
576.14	56898.42
576.30	57230.78
576.46	57195.67
576.62	57111.41
576.79	56875.02
576.95	56725.22
577.11	56629.26
577.27	57078.64
577.43	56828.21
577.59	56767.35
577.75	56385.85
577.92	55770.28
578.08	55704.75
578.24	55739.86
578.40	55863.91
578.56	56257.12
578.72	56224.35
578.88	56381.16
579.04	56460.74
579.21	56287.54
579.37	56404.57
579.53	56563.73
579.69	56739.27
579.85	56924.17
580.01	56566.07
580.17	56273.50
580.33	56184.56
580.49	56193.92
580.65	56322.65
580.82	56498.19
580.98	56633.94
581.14	56615.22
581.30	56282.86
581.46	56353.08
581.62	56500.53
581.78	56488.83
581.94	56788.42
582.10	56591.81
582.26	56837.57
582.42	56704.16
582.58	56769.69
582.74	56633.94
582.90	56647.99
583.06	56659.69
583.22	56484.15
583.38	56346.06
583.54	56140.09
583.70	56404.57
583.86	56460.74
584.02	56259.46
584.18	56282.86
584.34	56327.33
584.50	56179.88
584.66	56217.33
584.82	55681.34
584.98	55807.73
585.14	55182.81
