SpectraSuite Data File
++++++++++++++++++++++++++++++++++++
Date: Mon Oct 07 14:54:55 GMT-05:00 2013
User: price-jones
Dark Spectrum Present: No
Reference Spectrum Present: No
Number of Sampled Component Spectra: 1
Spectrometers: USB2+H05261
Integration Time (usec): 10000 (USB2+H05261)
Spectra Averaged: 1 (USB2+H05261)
Boxcar Smoothing: 0 (USB2+H05261)
Correct for Electrical Dark: No (USB2+H05261)
Strobe/Lamp Enabled: No (USB2+H05261)
Correct for Detector Non-linearity: No (USB2+H05261)
Correct for Stray Light: No (USB2+H05261)
Number of Pixels in Processed Spectrum: 2048
>>>>>Begin Processed Spectral Data<<<<<
365.73	0.00
365.92	0.00
366.12	0.00
366.32	0.00
366.52	0.00
366.72	0.00
366.91	0.00
367.11	0.00
367.31	0.00
367.51	0.00
367.70	0.00
367.90	0.00
368.10	0.00
368.30	0.00
368.49	0.00
368.69	0.00
368.89	0.00
369.09	0.00
369.28	0.00
369.48	0.00
369.68	0.00
369.87	0.00
370.07	0.00
370.27	0.00
370.47	0.00
370.66	0.00
370.86	9.36
371.06	23.41
371.25	35.11
371.45	0.00
371.65	0.00
371.84	0.00
372.04	0.00
372.24	0.00
372.44	2.34
372.63	44.47
372.83	0.00
373.03	0.00
373.22	56.17
373.42	0.00
373.62	14.04
373.81	56.17
374.01	4.68
374.21	0.00
374.40	46.81
374.60	9.36
374.79	44.47
374.99	70.22
375.19	156.82
375.38	152.13
375.58	140.43
375.78	170.86
375.97	74.90
376.17	14.04
376.37	23.41
376.56	121.71
376.76	170.86
376.95	177.88
377.15	184.90
377.35	262.14
377.54	147.45
377.74	245.76
377.93	234.05
378.13	184.90
378.33	231.71
378.52	201.29
378.72	147.45
378.91	161.50
379.11	105.32
379.31	112.35
379.50	91.28
379.70	107.66
379.89	142.77
380.09	234.05
380.28	217.67
380.48	212.99
380.68	248.10
380.87	95.96
381.07	191.92
381.26	9.36
381.46	88.94
381.65	81.92
381.85	112.35
382.04	65.54
382.24	56.17
382.43	67.88
382.63	81.92
382.83	0.00
383.02	0.00
383.22	56.17
383.41	88.94
383.61	37.45
383.80	81.92
384.00	100.64
384.19	238.73
384.39	203.63
384.58	210.65
384.78	149.79
384.97	194.26
385.17	124.05
385.36	147.45
385.56	168.52
385.75	229.37
385.95	252.78
386.14	259.80
386.34	184.90
386.53	138.09
386.72	163.84
386.92	266.82
387.11	241.08
387.31	163.84
387.50	135.75
387.70	229.37
387.89	117.03
388.09	243.42
388.28	189.58
388.48	149.79
388.67	208.31
388.86	243.42
389.06	367.46
389.25	264.48
389.45	308.95
389.64	290.23
389.84	369.80
390.03	365.12
390.22	360.44
390.42	395.55
390.61	454.06
390.81	404.91
391.00	458.74
391.19	461.09
391.39	414.27
391.58	369.80
391.78	421.30
391.97	299.59
392.16	308.95
392.36	285.55
392.55	91.28
392.75	107.66
392.94	0.00
393.13	9.36
393.33	0.00
393.52	135.75
393.71	299.59
393.91	367.46
394.10	315.97
394.29	346.40
394.49	472.79
394.68	430.66
394.88	496.19
395.07	517.26
395.26	409.59
395.46	517.26
395.65	528.96
395.84	386.19
396.04	269.16
396.23	131.07
396.42	105.32
396.62	53.83
396.81	140.43
397.00	255.12
397.19	339.38
397.39	444.70
397.58	554.71
397.77	526.62
397.97	655.35
398.16	741.95
398.35	704.50
398.55	760.67
398.74	763.01
398.93	795.78
399.12	716.20
399.32	730.25
399.51	725.57
399.70	781.74
399.90	814.51
400.09	755.99
400.28	772.38
400.47	877.70
400.67	854.30
400.86	828.55
401.05	1004.09
401.24	903.45
401.44	884.72
401.63	884.72
401.82	954.94
402.01	828.55
402.21	868.34
402.40	912.81
402.59	947.92
402.78	828.55
402.97	833.23
403.17	847.27
403.36	945.58
403.55	999.41
403.74	931.53
403.93	936.21
404.13	816.85
404.32	772.38
404.51	861.32
404.70	952.60
404.89	950.26
405.09	964.30
405.28	908.13
405.47	870.68
405.66	868.34
405.85	840.25
406.05	880.04
406.24	940.90
406.43	814.51
406.62	870.68
406.81	1020.47
407.00	884.72
407.20	866.00
407.39	835.57
407.58	926.85
407.77	973.66
407.96	947.92
408.15	1020.47
408.34	952.60
408.54	1039.20
408.73	1029.84
408.92	1137.50
409.11	994.73
409.30	1034.52
409.49	849.61
409.68	908.13
409.87	753.65
410.07	816.85
410.26	919.83
410.45	985.37
410.64	1088.35
410.83	1078.99
411.02	1097.71
411.21	1109.41
411.40	1226.44
411.59	1097.71
411.78	1083.67
411.98	1083.67
412.17	1186.65
412.36	1121.12
412.55	1125.80
412.74	1221.76
412.93	1050.90
413.12	1006.43
413.31	1090.69
413.50	1196.01
413.69	1336.45
413.88	1181.97
414.07	1205.38
414.26	1074.31
414.45	1198.35
414.64	1270.91
414.83	1235.80
415.02	1224.10
415.22	1228.78
415.41	1228.78
415.60	1179.63
415.79	1371.55
415.98	1348.15
416.17	1390.28
416.36	1256.87
416.55	1306.02
416.74	1266.23
416.93	1233.46
417.12	1107.07
417.31	1111.75
417.50	1224.10
417.69	1210.06
417.88	1315.38
418.07	1231.12
418.26	1247.51
418.45	1287.29
418.64	1291.98
418.83	1369.21
419.02	1364.53
419.21	1289.64
419.39	1256.87
419.58	1179.63
419.77	1107.07
419.96	1308.36
420.15	1338.79
420.34	1425.39
420.53	1401.98
420.72	1490.92
420.91	1460.49
421.10	1348.15
421.29	1357.51
421.48	1416.02
421.67	1369.21
421.86	1238.14
422.05	1263.89
422.24	1046.22
422.43	1074.31
422.61	1174.95
422.80	1341.13
422.99	1303.68
423.18	1196.01
423.37	1214.74
423.56	1291.98
423.75	1186.65
423.94	1224.10
424.13	1200.69
424.32	1327.08
424.50	1249.85
424.69	1188.99
424.88	1303.68
425.07	1284.95
425.26	1151.54
425.45	1238.14
425.64	1151.54
425.83	1191.33
426.01	1308.36
426.20	1411.34
426.39	1383.26
426.58	1226.44
426.77	1109.41
426.96	999.41
427.15	1074.31
427.33	1181.97
427.52	1324.74
427.71	1205.38
427.90	1252.19
428.09	1282.61
428.28	1217.08
428.46	1282.61
428.65	1153.88
428.84	1107.07
429.03	1130.48
429.22	1118.78
429.40	1097.71
429.59	940.90
429.78	744.29
429.97	847.27
430.16	781.74
430.34	882.38
430.53	767.70
430.72	828.55
430.91	1027.50
431.10	1081.33
431.28	1313.04
431.47	1605.61
431.66	1605.61
431.85	1299.00
432.03	1228.78
432.22	1137.50
432.41	1294.32
432.60	1362.19
432.79	1380.92
432.97	1542.41
433.16	1444.11
433.35	1371.55
433.54	1170.27
433.72	1107.07
433.91	1093.03
434.10	1210.06
434.28	1483.90
434.47	1460.49
434.66	1413.68
434.85	1324.74
435.03	1397.30
435.22	1406.66
435.41	1530.71
435.59	1540.07
435.78	1584.54
435.97	1638.38
436.16	1565.82
436.34	1579.86
436.53	1519.01
436.72	1603.27
436.90	1486.24
437.09	1465.18
437.28	1392.62
437.46	1458.15
437.65	1469.86
437.84	1284.95
438.02	1200.69
438.21	1282.61
438.40	1411.34
438.58	1437.09
438.77	1390.28
438.96	1338.79
439.14	1507.30
439.33	1703.91
439.52	1565.82
439.70	1579.86
439.89	1495.60
440.08	1519.01
440.26	1554.12
440.45	1439.43
440.63	1699.23
440.82	1734.34
441.01	1661.78
441.19	1708.59
441.38	1675.82
441.57	1949.67
441.75	1834.98
441.94	1795.19
442.12	1717.95
442.31	1942.64
442.50	1893.49
442.68	1842.00
442.87	1891.15
443.05	1820.94
443.24	1811.57
443.43	1816.26
443.61	1909.88
443.80	1839.66
443.98	1769.44
444.17	1783.49
444.35	1902.86
444.54	1832.64
444.73	1923.92
444.91	1757.74
445.10	1820.94
445.28	1629.01
445.47	1579.86
445.65	1701.57
445.84	1694.55
446.02	1762.42
446.21	1741.36
446.39	1755.40
446.58	1839.66
446.77	1834.98
446.95	1837.32
447.14	1825.62
447.32	1935.62
447.51	1961.37
447.69	1858.39
447.88	1813.92
448.06	1799.87
448.25	1949.67
448.43	1816.26
448.62	1710.93
448.80	1753.06
448.99	1774.13
449.17	1893.49
449.36	1863.07
449.54	1963.71
449.73	1949.67
449.91	2080.74
450.10	2092.44
450.28	2129.89
450.46	2113.50
450.65	2008.18
450.83	2073.71
451.02	1909.88
451.20	2019.88
451.39	1966.05
451.57	2073.71
451.76	1973.07
451.94	1940.30
452.13	1991.80
452.31	1886.47
452.49	1799.87
452.68	1727.32
452.86	1788.17
453.05	1851.36
453.23	1809.23
453.42	1909.88
453.60	1886.47
453.78	2019.88
453.97	2033.93
454.15	2015.20
454.34	1860.73
454.52	1809.23
454.70	1905.20
454.89	1902.86
455.07	1886.47
455.26	1907.54
455.44	2024.56
455.62	2022.22
455.81	1994.14
455.99	1893.49
456.17	1895.83
456.36	2015.20
456.54	1959.03
456.73	2024.56
456.91	2193.08
457.09	2005.84
457.28	2176.70
457.46	2090.10
457.64	1949.67
457.83	2059.67
458.01	1867.75
458.19	2031.58
458.38	1980.09
458.56	1970.73
458.74	2106.48
458.93	1989.46
459.11	2003.50
459.29	1984.77
459.48	1916.90
459.66	1989.46
459.84	1977.75
460.03	2106.48
460.21	2043.29
460.39	2052.65
460.57	2113.50
460.76	1996.48
460.94	2083.08
461.12	2143.93
461.31	2085.42
461.49	2031.58
461.67	2129.89
461.85	2125.21
462.04	2169.68
462.22	2183.72
462.40	2228.19
462.59	2155.63
462.77	2155.63
462.95	2118.18
463.13	2118.18
463.32	2099.46
463.50	2024.56
463.68	2132.23
463.86	2029.24
464.05	2169.68
464.23	1994.14
464.41	2003.50
464.59	1912.22
464.78	2017.54
464.96	2019.88
465.14	2052.65
465.32	2078.40
465.50	2165.00
465.69	2125.21
465.87	2113.50
466.05	1984.77
466.23	2040.95
466.41	1764.76
466.60	1872.43
466.78	1874.77
466.96	2005.84
467.14	2078.40
467.32	2038.61
467.51	2022.22
467.69	1977.75
467.87	2001.16
468.05	2092.44
468.23	1996.48
468.41	2045.63
468.60	2026.90
468.78	2113.50
468.96	2094.78
469.14	2111.16
469.32	2008.18
469.50	2038.61
469.69	2076.06
469.87	2012.86
470.05	2022.22
470.23	2040.95
470.41	1949.67
470.59	2043.29
470.77	2040.95
470.95	2050.31
471.14	2129.89
471.32	2153.29
471.50	2214.15
471.68	2160.31
471.86	2272.66
472.04	2324.15
472.22	2310.11
472.40	2160.31
472.58	2115.84
472.77	2214.15
472.95	2143.93
473.13	2251.60
473.31	2141.59
473.49	2125.21
473.67	2305.43
473.85	2221.17
474.03	2202.44
474.21	2282.02
474.39	2160.31
474.57	2256.28
474.75	2272.66
474.93	2331.17
475.12	2202.44
475.30	2162.66
475.48	2303.09
475.66	2211.81
475.84	2195.42
476.02	2272.66
476.20	2216.49
476.38	2263.30
476.56	2345.22
476.74	2296.07
476.92	2277.34
477.10	2434.16
477.28	2380.32
477.46	2457.56
477.64	2434.16
477.82	2567.57
478.00	2455.22
478.18	2441.18
478.36	2476.29
478.54	2389.69
478.72	2525.44
478.90	2572.25
479.08	2553.52
479.26	2703.32
479.44	2633.10
479.62	2654.17
479.80	2546.50
479.98	2567.57
480.16	2705.66
480.34	2581.61
480.52	2661.19
480.70	2644.81
480.88	2700.98
481.06	2780.56
481.24	2675.23
481.41	2808.64
481.59	2785.24
481.77	2754.81
481.95	2850.77
482.13	2818.00
482.31	2780.56
482.49	2789.92
482.67	2747.79
482.85	2864.82
483.03	2895.24
483.21	2902.26
483.39	2953.76
483.57	2958.44
483.74	2796.94
483.92	2815.66
484.10	2874.18
484.28	2979.50
484.46	2932.69
484.64	3094.19
484.82	2850.77
485.00	2991.20
485.18	2935.03
485.35	2810.98
485.53	2483.31
485.71	2256.28
485.89	2209.47
486.07	2338.20
486.25	2558.21
486.43	2740.77
486.61	2698.64
486.78	2670.55
486.96	2752.47
487.14	2892.90
487.32	3056.74
487.50	3045.04
487.68	3267.39
487.85	3314.20
488.03	3124.62
488.21	3173.77
488.39	3122.27
488.57	2965.46
488.75	2972.48
488.92	3075.46
489.10	3211.22
489.28	3438.25
489.46	3552.93
489.64	3611.45
489.81	3581.02
489.99	3590.38
490.17	3536.55
490.35	3377.39
490.53	3478.04
490.70	3405.48
490.88	3344.63
491.06	3447.61
491.24	3508.46
491.41	3517.83
491.59	3229.94
491.77	3115.25
491.95	3323.56
492.13	3461.65
492.30	3435.91
492.48	3550.59
492.66	3721.45
492.84	3611.45
493.01	3639.53
493.19	3655.92
493.37	3588.04
493.54	3513.14
493.72	3492.08
493.90	3686.34
494.08	3768.26
494.25	3667.62
494.43	3964.87
494.61	4016.36
494.79	3899.33
494.96	3885.29
495.14	3761.24
495.32	3672.30
495.49	3751.88
495.67	3691.02
495.85	4037.42
496.02	3894.65
496.20	3915.72
496.38	3880.61
496.55	3866.56
496.73	3847.84
496.91	4042.11
497.09	3960.19
497.26	4018.70
497.44	4105.30
497.62	3976.57
497.79	3815.07
497.97	3602.08
498.14	3709.75
498.32	3744.86
498.50	3967.21
498.67	3995.29
498.85	4074.87
499.03	4016.36
499.20	3978.91
499.38	4056.15
499.56	4212.96
499.73	4049.13
499.91	3882.95
500.08	3934.44
500.26	3824.44
500.44	3789.33
500.61	3936.78
500.79	3880.61
500.97	3812.73
501.14	3794.01
501.32	3747.20
501.49	3765.92
501.67	3665.28
501.84	4021.04
502.02	3915.72
502.20	4011.68
502.37	4023.38
502.55	4102.96
502.72	4114.66
502.90	4175.52
503.07	4227.01
503.25	4011.68
503.43	3864.22
503.60	3786.99
503.78	3756.56
503.95	3749.54
504.13	3969.55
504.30	4056.15
504.48	4140.41
504.65	4114.66
504.83	4098.28
505.01	4222.33
505.18	4219.99
505.36	4224.67
505.53	4255.09
505.71	4269.14
505.88	4344.03
506.06	4250.41
506.23	4067.85
506.41	4032.74
506.58	4114.66
506.76	4217.65
506.93	4138.07
507.11	4196.58
507.28	4241.05
507.46	4030.40
507.63	3915.72
507.81	3852.52
507.98	3932.10
508.16	4058.49
508.33	4145.09
508.50	4053.81
508.68	4271.48
508.85	4248.07
509.03	4468.08
509.20	4198.92
509.38	4290.20
509.55	4060.83
509.73	4114.66
509.90	4229.35
510.08	4126.36
510.25	4173.18
510.42	4191.90
510.60	4021.04
510.77	4159.13
510.95	4219.99
511.12	4311.27
511.30	4346.37
511.47	4447.02
511.64	4402.55
511.82	4334.67
511.99	4248.07
512.17	4156.79
512.34	4196.58
512.51	4074.87
512.69	3936.78
512.86	4079.55
513.04	4173.18
513.21	4154.45
513.38	4133.39
513.56	4074.87
513.73	4037.42
513.90	3843.16
514.08	4081.89
514.25	4189.56
514.43	4072.53
514.60	4102.96
514.77	4133.39
514.95	4161.47
515.12	4121.68
515.29	4187.22
515.47	4121.68
515.64	4266.80
515.81	4236.37
515.99	4007.00
516.16	3885.29
516.33	3466.33
516.51	3248.66
516.68	3342.28
516.85	3258.03
517.03	3279.09
517.20	3646.55
517.37	4058.49
517.54	4145.09
517.72	3875.93
517.89	3681.66
518.06	3412.50
518.24	3515.48
518.41	3691.02
518.58	3908.69
518.75	4126.36
518.93	3906.35
519.10	3857.20
519.27	4074.87
519.45	4067.85
519.62	4229.35
519.79	4262.12
519.96	4037.42
520.14	4037.42
520.31	3964.87
520.48	3953.16
520.65	3946.14
520.83	4121.68
521.00	4189.56
521.17	4070.19
521.34	4077.21
521.52	4156.79
521.69	4152.11
521.86	4327.65
522.03	4304.25
522.20	4140.41
522.38	3946.14
522.55	3803.37
522.72	4037.42
522.89	4035.08
523.07	4152.11
523.24	4070.19
523.41	4255.09
523.58	4262.12
523.75	4341.69
523.92	4308.93
524.10	4259.78
524.27	4348.72
524.44	4273.82
524.61	4283.18
524.78	4060.83
524.96	4109.98
525.13	4198.92
525.30	4425.95
525.47	4292.54
525.64	4290.20
525.81	4109.98
525.98	3779.97
526.16	3747.20
526.33	3688.68
526.50	3641.87
526.67	3456.97
526.84	3679.32
527.01	3674.64
527.18	3971.89
527.36	4007.00
527.53	4194.24
527.70	4180.20
527.87	4184.88
528.04	4074.87
528.21	4049.13
528.38	4201.26
528.55	4320.63
528.72	4463.40
528.89	4423.61
529.07	4407.23
529.24	4285.52
529.41	4117.00
529.58	4065.51
529.75	4025.72
529.92	4124.02
530.09	4109.98
530.26	4280.84
530.43	4311.27
530.60	4311.27
530.77	4367.44
530.94	4470.42
531.11	4285.52
531.28	4224.67
531.46	4217.65
531.63	4325.31
531.80	4360.42
531.97	4138.07
532.14	4011.68
532.31	3943.80
532.48	3672.30
532.65	3716.77
532.82	3779.97
532.99	4215.30
533.16	4135.73
533.33	4280.84
533.50	4147.43
533.67	4194.24
533.84	3981.25
534.01	4093.60
534.18	4109.98
534.35	4079.55
534.52	3946.14
534.69	4142.75
534.86	4222.33
535.03	4201.26
535.20	4278.50
535.37	4301.90
535.54	4397.87
535.71	4297.22
535.88	4234.03
536.05	4142.75
536.22	4131.05
536.38	4009.34
536.55	3946.14
536.72	3859.54
536.89	3838.48
537.06	3957.85
537.23	4035.08
537.40	4077.21
537.57	4142.75
537.74	4203.60
537.91	4145.09
538.08	4084.23
538.25	4098.28
538.42	4154.45
538.59	4077.21
538.75	4023.38
538.92	4067.85
539.09	3866.56
539.26	3969.55
539.43	3845.50
539.60	3770.60
539.77	4023.38
539.94	3904.01
540.11	3789.33
540.28	3843.16
540.44	3772.94
540.61	3868.91
540.78	3758.90
540.95	4009.34
541.12	3861.88
541.29	4009.34
541.46	4009.34
541.62	3899.33
541.79	3925.08
541.96	3901.67
542.13	3843.16
542.30	3978.91
542.47	4046.79
542.63	4011.68
542.80	3925.08
542.97	3908.69
543.14	3831.46
543.31	3838.48
543.48	3868.91
543.64	4112.32
543.81	4196.58
543.98	4168.49
544.15	4107.64
544.32	3918.06
544.48	3887.63
544.65	3913.38
544.82	4177.86
544.99	3925.08
545.16	3836.14
545.32	3726.13
545.49	3908.69
545.66	4149.77
545.83	4025.72
546.00	3913.38
546.16	3885.29
546.33	3964.87
546.50	3948.48
546.67	3999.98
546.83	3857.20
547.00	4131.05
547.17	3852.52
547.34	3779.97
547.50	3712.09
547.67	3777.62
547.84	3822.09
548.00	3758.90
548.17	4009.34
548.34	3911.04
548.51	4002.32
548.67	4124.02
548.84	3719.11
549.01	3749.54
549.18	3756.56
549.34	3836.14
549.51	3936.78
549.68	3712.09
549.84	3805.71
550.01	3733.15
550.18	3796.35
550.34	3791.67
550.51	3906.35
550.68	3826.78
550.84	3939.12
551.01	3691.02
551.18	3882.95
551.34	3779.97
551.51	3824.44
551.68	3803.37
551.84	3892.31
552.01	3936.78
552.18	3730.81
552.34	3737.84
552.51	3681.66
552.68	3613.79
552.84	3681.66
553.01	3794.01
553.18	3548.25
553.34	3761.24
553.51	3761.24
553.67	3609.11
553.84	3887.63
554.01	3941.46
554.17	3904.01
554.34	3901.67
554.51	3801.03
554.67	3768.26
554.84	3786.99
555.00	3756.56
555.17	3758.90
555.33	3838.48
555.50	3808.05
555.67	3772.94
555.83	3880.61
556.00	3728.47
556.16	3721.45
556.33	3695.71
556.50	3630.17
556.66	3597.40
556.83	3613.79
556.99	3559.95
557.16	3648.90
557.32	3662.94
557.49	3707.41
557.65	3571.66
557.82	3590.38
557.98	3712.09
558.15	3585.70
558.32	3571.66
558.48	3262.71
558.65	3431.23
558.81	3440.59
558.98	3576.34
559.14	3433.57
559.31	3433.57
559.47	3459.31
559.64	3468.67
559.80	3243.98
559.97	3487.40
560.13	3288.45
560.30	3669.96
560.46	3777.62
560.63	3765.92
560.79	3728.47
560.96	3611.45
561.12	3578.68
561.29	3353.99
561.45	3480.38
561.61	3459.31
561.78	3520.17
561.94	3529.53
562.11	3503.78
562.27	3482.72
562.44	3438.25
562.60	3506.12
562.77	3695.71
562.93	3562.30
563.10	3662.94
563.26	3494.42
563.42	3426.54
563.59	3581.02
563.75	3552.93
563.92	3566.98
564.08	3407.82
564.24	3304.84
564.41	3428.88
564.57	3543.57
564.74	3508.46
564.90	3389.10
565.07	3398.46
565.23	3293.13
565.39	3307.18
565.56	3365.69
565.72	3229.94
565.88	3243.98
566.05	3391.44
566.21	3377.39
566.38	3442.93
566.54	3262.71
566.70	3370.37
566.87	3325.90
567.03	3438.25
567.19	3461.65
567.36	3353.99
567.52	3419.52
567.68	3302.50
567.85	3218.24
568.01	3169.09
568.17	3192.49
568.34	3159.72
568.50	3166.74
568.66	3243.98
568.83	3180.79
568.99	3260.37
569.15	3342.28
569.32	3197.17
569.48	3323.56
569.64	3239.30
569.81	3119.93
569.97	3225.26
570.13	3164.40
570.30	3108.23
570.46	2977.16
570.62	3059.08
570.78	3087.17
570.95	2930.35
571.11	3225.26
571.27	3112.91
571.43	3185.47
571.60	3297.81
571.76	3122.27
571.92	3213.56
572.09	3234.62
572.25	3375.05
572.41	3239.30
572.57	3272.07
572.74	3171.43
572.90	3124.62
573.06	3166.74
573.22	3251.00
573.38	3211.22
573.55	3187.81
573.71	3199.51
573.87	3251.00
574.03	3201.85
574.20	3258.03
574.36	3129.30
574.52	3117.59
574.68	3068.44
574.84	2988.86
575.01	3026.31
575.17	2991.20
575.33	3016.95
575.49	3070.78
575.65	3197.17
575.82	3075.46
575.98	2871.84
576.14	2967.80
576.30	3014.61
576.46	2995.89
576.62	3103.55
576.79	2939.71
576.95	2970.14
577.11	3080.14
577.27	3007.59
577.43	2937.37
577.59	3059.08
577.75	3012.27
577.92	2925.67
578.08	2822.69
578.24	2946.73
578.40	2892.90
578.56	3005.25
578.72	2958.44
578.88	3009.93
579.04	3033.33
579.21	2979.50
579.37	2953.76
579.53	3070.78
579.69	2913.97
579.85	2946.73
580.01	3056.74
580.17	2792.26
580.33	3012.27
580.49	2984.18
580.65	2986.52
580.82	3019.29
580.98	3049.72
581.14	3028.65
581.30	2920.99
581.46	3047.38
581.62	3026.31
581.78	3038.02
581.94	3061.42
582.10	2925.67
582.26	2977.16
582.42	2928.01
582.58	3045.04
582.74	2951.42
582.90	2998.23
583.06	3063.76
583.22	2881.20
583.38	2944.39
583.54	3000.57
583.70	2960.78
583.86	2920.99
584.02	3000.57
584.18	2871.84
584.34	2991.20
584.50	2923.33
584.66	2867.16
584.82	2956.10
584.98	2949.08
585.14	2726.72
585.30	2684.59
585.46	2705.66
585.62	2822.69
585.78	2764.17
585.94	2810.98
586.10	2825.03
586.26	2785.24
586.42	2862.48
586.58	2787.58
586.74	2862.48
586.90	2773.53
587.06	2745.45
587.22	2822.69
587.38	2810.98
587.54	2871.84
587.70	2768.85
587.86	2750.13
588.02	2771.19
588.18	2799.28
588.34	2747.79
588.49	2487.99
588.65	2303.09
588.81	2172.02
588.97	2338.20
589.13	2200.10
589.29	2190.74
589.45	2272.66
589.61	2380.32
589.77	2504.37
589.93	2665.87
590.08	2614.38
590.24	2633.10
590.40	2670.55
590.56	2654.17
590.72	2511.39
590.88	2686.94
591.04	2548.84
591.20	2497.35
591.35	2518.42
591.51	2616.72
591.67	2590.97
591.83	2553.52
591.99	2640.12
592.15	2665.87
592.31	2644.81
592.46	2682.25
592.62	2729.06
592.78	2581.61
592.94	2581.61
593.10	2583.95
593.26	2513.74
593.41	2658.85
593.57	2686.94
593.73	2623.74
593.89	2520.76
594.05	2525.44
594.20	2487.99
594.36	2490.33
594.52	2399.05
594.68	2417.77
594.84	2417.77
594.99	2530.12
595.15	2558.21
595.31	2537.14
595.47	2499.69
595.62	2616.72
595.78	2558.21
595.94	2562.89
596.10	2651.83
596.25	2530.12
596.41	2478.63
596.57	2502.03
596.73	2483.31
596.88	2558.21
597.04	2532.46
597.20	2490.33
597.36	2420.11
597.51	2548.84
597.67	2502.03
597.83	2574.59
597.99	2483.31
598.14	2532.46
598.30	2478.63
598.46	2623.74
598.61	2511.39
598.77	2511.39
598.93	2539.48
599.09	2558.21
599.24	2466.92
599.40	2490.33
