SpectraSuite Data File
++++++++++++++++++++++++++++++++++++
Date: Mon Oct 07 14:53:10 GMT-05:00 2013
User: price-jones
Dark Spectrum Present: No
Reference Spectrum Present: No
Number of Sampled Component Spectra: 1
Spectrometers: USB2+H05261
Integration Time (usec): 100000 (USB2+H05261)
Spectra Averaged: 1 (USB2+H05261)
Boxcar Smoothing: 0 (USB2+H05261)
Correct for Electrical Dark: No (USB2+H05261)
Strobe/Lamp Enabled: No (USB2+H05261)
Correct for Detector Non-linearity: No (USB2+H05261)
Correct for Stray Light: No (USB2+H05261)
Number of Pixels in Processed Spectrum: 2048
>>>>>Begin Processed Spectral Data<<<<<
365.73	0.00
365.92	0.00
366.12	0.00
366.32	0.00
366.52	0.00
366.72	0.00
366.91	0.00
367.11	0.00
367.31	0.00
367.51	0.00
367.70	0.00
367.90	0.00
368.10	0.00
368.30	0.00
368.49	0.00
368.69	0.00
368.89	0.00
369.09	0.00
369.28	0.00
369.48	0.00
369.68	0.00
369.87	0.00
370.07	0.00
370.27	0.00
370.47	727.91
370.66	3349.31
370.86	4011.68
371.06	4311.27
371.25	4372.12
371.45	4009.34
371.65	3529.53
371.84	3412.50
372.04	3433.57
372.24	4002.32
372.44	4070.19
372.63	4287.86
372.83	3684.00
373.03	3265.05
373.22	3119.93
373.42	3314.20
373.62	3698.05
373.81	4063.17
374.01	3943.80
374.21	3641.87
374.40	3410.16
374.60	3669.96
374.79	4042.11
374.99	4610.86
375.19	5041.51
375.38	4990.02
375.58	4627.24
375.78	4500.85
375.97	4805.12
376.17	4971.30
376.37	4851.93
376.56	5071.94
376.76	5289.61
376.95	5589.20
377.15	6258.59
377.35	6059.65
377.54	6516.05
377.74	6771.17
377.93	6626.06
378.13	6422.43
378.33	6181.35
378.52	5858.36
378.72	5399.62
378.91	5465.15
379.11	5305.99
379.31	5083.64
379.50	4950.23
379.70	5432.38
379.89	6024.54
380.09	6420.09
380.28	6478.60
380.48	6600.31
380.68	6403.71
380.87	6338.17
381.07	5797.51
381.26	5228.76
381.46	5018.11
381.65	4873.00
381.85	4833.21
382.04	4407.23
382.24	4229.35
382.43	4018.70
382.63	3929.76
382.83	4124.02
383.02	3852.52
383.22	3913.38
383.41	3978.91
383.61	4301.90
383.80	4865.97
384.00	5479.19
384.19	6115.82
384.39	6459.88
384.58	6389.66
384.78	6417.75
384.97	6267.95
385.17	5891.13
385.36	5643.03
385.56	5458.13
385.75	5561.11
385.95	6069.01
386.14	6644.78
386.34	6640.10
386.53	6375.62
386.72	5989.43
386.92	6012.84
387.11	6258.59
387.31	6553.50
387.50	6771.17
387.70	6263.27
387.89	6258.59
388.09	6359.24
388.28	6282.00
388.48	6356.90
388.67	6951.39
388.86	7590.36
389.06	8086.55
389.25	8533.59
389.45	8732.54
389.64	8589.77
389.84	8554.66
390.03	8332.31
390.22	8404.86
390.42	8655.30
390.61	9259.16
390.81	9825.57
391.00	10022.17
391.19	9928.55
391.39	9481.51
391.58	8912.76
391.78	8526.57
391.97	8095.91
392.16	7658.23
392.36	6944.37
392.55	5439.40
392.75	4554.68
392.94	3641.87
393.13	3651.24
393.33	4325.31
393.52	5460.47
393.71	6509.03
393.91	7581.00
394.10	8112.30
394.29	9020.42
394.49	9708.54
394.68	10342.83
394.88	10480.92
395.07	10820.30
395.26	10822.64
395.46	10298.36
395.65	9809.19
395.84	8449.33
396.04	7250.98
396.23	5940.28
396.42	4971.30
396.62	4606.17
396.81	5605.58
397.00	7030.97
397.19	8840.20
397.39	10534.75
397.58	11845.45
397.77	12423.56
397.97	12723.15
398.16	13170.19
398.35	13664.05
398.55	14150.88
398.74	14635.37
398.93	14789.85
399.12	14743.03
399.32	14209.39
399.51	14431.74
399.70	15548.18
399.90	15272.00
400.09	15358.60
400.28	15194.76
400.47	14986.45
400.67	15716.70
400.86	16519.50
401.05	16622.48
401.24	16358.00
401.44	16699.72
401.63	16814.41
401.82	16886.97
402.01	17083.57
402.21	17200.60
402.40	17067.19
402.59	16673.98
402.78	15786.91
402.97	15499.03
403.17	15719.04
403.36	16783.98
403.55	17603.17
403.74	18120.43
403.93	17034.42
404.13	15810.32
404.32	15370.30
404.51	16152.04
404.70	17745.94
404.89	17474.44
405.09	17371.46
405.28	16805.05
405.47	16498.44
405.66	16711.42
405.85	16187.14
406.05	15847.77
406.24	16013.95
406.43	16435.24
406.62	17387.84
406.81	17383.16
407.00	16460.99
407.20	16456.31
407.39	16404.81
407.58	17156.13
407.77	17980.00
407.96	18384.91
408.15	18618.96
408.34	18691.52
408.54	19850.08
408.73	19887.53
408.92	19131.54
409.11	18628.32
409.30	17940.21
409.49	17006.33
409.68	15838.41
409.87	15382.00
410.07	16507.80
410.26	17549.34
410.45	18981.74
410.64	19344.53
410.83	19676.88
411.02	20016.26
411.21	21013.33
411.40	20355.64
411.59	20657.57
411.78	20641.18
411.98	20353.30
412.17	20711.40
412.36	20430.54
412.55	20343.94
412.74	19824.34
412.93	19101.11
413.12	20006.90
413.31	21762.30
413.50	21755.28
413.69	22237.43
413.88	21013.33
414.07	20910.35
414.26	21109.29
414.45	21902.73
414.64	22012.74
414.83	21769.32
415.02	21401.86
415.22	21397.18
415.41	21752.94
415.60	22836.61
415.79	23852.40
415.98	23946.02
416.17	24507.75
416.36	23484.94
416.55	23133.86
416.74	22118.06
416.93	21736.56
417.12	21530.59
417.31	21909.75
417.50	22309.99
417.69	23126.83
417.88	22927.89
418.07	22892.78
418.26	22487.87
418.45	22632.98
418.64	23407.70
418.83	24226.89
419.02	23630.05
419.21	23728.35
419.39	22590.85
419.58	21479.10
419.77	21748.26
419.96	22611.92
420.15	23864.10
420.34	24320.51
420.53	25556.31
420.72	25933.14
420.91	25575.03
421.10	25362.04
421.29	25153.74
421.48	23889.85
421.67	25586.74
421.86	24556.90
422.05	23302.37
422.24	20575.65
422.43	20636.50
422.61	22745.33
422.80	24474.98
422.99	24465.62
423.18	23660.48
423.37	23229.82
423.56	23403.02
423.75	23442.81
423.94	24311.14
424.13	22918.53
424.32	23161.94
424.50	23410.04
424.69	23042.57
424.88	23101.09
425.07	22981.72
425.26	22852.99
425.45	23089.38
425.64	22153.17
425.83	22185.94
426.01	23864.10
426.20	24226.89
426.39	23641.75
426.58	22038.48
426.77	20573.31
426.96	19669.86
427.15	20702.04
427.33	22335.73
427.52	23082.36
427.71	23084.70
427.90	23194.71
428.09	22955.97
428.28	22661.07
428.46	21568.04
428.65	20957.16
428.84	21617.19
429.03	22199.98
429.22	20837.79
429.40	19442.83
429.59	17905.10
429.78	15840.75
429.97	16217.57
430.16	16159.06
430.34	16615.46
430.53	16355.66
430.72	17055.48
430.91	18726.63
431.10	21832.52
431.28	25614.82
431.47	27714.28
431.66	27770.46
431.85	25170.12
432.03	23293.01
432.22	22277.22
432.41	23449.83
432.60	25827.81
432.79	27065.96
432.97	27173.62
433.16	26726.58
433.35	24507.75
433.54	21804.43
433.72	20816.72
433.91	21713.15
434.10	23800.91
434.28	25745.89
434.47	27297.67
434.66	26714.87
434.85	25752.91
435.03	25469.71
435.22	26319.32
435.41	28400.06
435.59	28243.24
435.78	28226.86
435.97	29188.82
436.16	29170.10
436.34	28535.81
436.53	27899.19
436.72	28315.80
436.90	26836.58
437.09	26726.58
437.28	26401.24
437.46	27171.28
437.65	26888.07
437.84	25041.39
438.02	23103.43
438.21	23073.00
438.40	24599.03
438.58	26609.55
438.77	27136.17
438.96	27143.19
439.14	28655.18
439.33	28975.83
439.52	29465.00
439.70	29392.45
439.89	28198.77
440.08	27524.70
440.26	27679.18
440.45	28570.92
440.63	30347.39
440.82	32140.24
441.01	31601.91
441.19	31012.10
441.38	31653.40
441.57	32945.38
441.75	32706.65
441.94	33303.48
442.12	33181.77
442.31	33699.03
442.50	33684.99
442.68	33287.10
442.87	32811.97
443.05	31840.65
443.24	32559.19
443.43	33600.73
443.61	33947.13
443.80	34576.73
443.98	32694.94
444.17	32346.20
444.35	34309.91
444.54	34831.85
444.73	34923.13
444.91	33067.09
445.10	31803.20
445.28	30604.84
445.47	30017.37
445.65	30396.54
445.84	31108.06
446.02	32313.44
446.21	32818.99
446.39	32938.36
446.58	33352.63
446.77	33998.62
446.95	34249.06
447.14	34981.65
447.32	35487.20
447.51	34703.12
447.69	33649.88
447.88	33404.13
448.06	33797.34
448.25	34522.90
448.43	34665.67
448.62	33778.61
448.80	33757.55
448.99	33879.25
449.17	34588.44
449.36	34206.93
449.54	35725.94
449.73	35999.78
449.91	36453.84
450.10	37869.87
450.28	38073.49
450.46	37766.88
450.65	38188.18
450.83	37347.93
451.02	36793.22
451.20	36715.98
451.39	36552.15
451.57	36343.84
451.76	36697.26
451.94	35772.75
452.13	35613.59
452.31	33954.15
452.49	32690.26
452.68	32828.35
452.86	32877.51
453.05	33563.28
453.23	34677.38
453.42	35519.97
453.60	35587.85
453.78	36355.54
453.97	35377.20
454.15	35957.65
454.34	34944.20
454.52	35517.63
454.70	34618.86
454.89	34946.54
455.07	35349.11
455.26	35653.38
455.44	36989.83
455.62	37619.43
455.81	38209.25
455.99	37392.40
456.17	37153.66
456.36	37481.34
456.54	38061.79
456.73	38211.59
456.91	39086.95
457.09	38590.75
457.28	39665.06
457.46	38279.46
457.64	38040.73
457.83	36510.02
458.01	36325.11
458.19	36950.04
458.38	37390.06
458.56	38337.98
458.74	37930.72
458.93	37605.39
459.11	37628.79
459.29	37050.68
459.48	37563.26
459.66	37139.62
459.84	37354.95
460.03	37916.68
460.21	38188.18
460.39	39021.41
460.57	39138.44
460.76	39576.12
460.94	39529.31
461.12	38969.92
461.31	38841.19
461.49	38761.61
461.67	38976.94
461.85	40416.37
462.04	40065.29
462.22	40488.93
462.40	40577.87
462.59	39744.64
462.77	39882.73
462.95	40182.32
463.13	39590.16
463.32	39002.69
463.50	38974.60
463.68	39246.10
463.86	39484.84
464.05	38754.59
464.23	37766.88
464.41	37720.07
464.59	37256.65
464.78	38838.85
464.96	39103.33
465.14	38377.76
465.32	39278.87
465.50	40561.48
465.69	40793.20
465.87	40058.27
466.05	38799.06
466.23	36627.04
466.41	36285.33
466.60	37677.94
466.78	37511.77
466.96	38012.64
467.14	38415.21
467.32	39061.20
467.51	39510.58
467.69	37844.12
467.87	37928.38
468.05	38696.08
468.23	39262.49
468.41	38941.83
468.60	38944.17
468.78	39543.35
468.96	39168.87
469.14	39908.47
469.32	39775.06
469.50	38120.31
469.69	38139.03
469.87	37912.00
470.05	37661.56
470.23	37722.41
470.41	38052.43
470.59	38483.09
470.77	38450.32
470.95	39658.04
471.14	40388.28
471.32	39688.46
471.50	41511.74
471.68	42256.03
471.86	42412.85
472.04	42740.52
472.22	42567.32
472.40	40554.46
472.58	40498.29
472.77	39929.54
472.95	40903.20
473.13	41909.63
473.31	40725.32
473.49	40978.10
473.67	42024.32
473.85	42366.04
474.03	42946.49
474.21	42857.55
474.39	43494.18
474.57	44133.14
474.75	43454.39
474.93	43203.95
475.12	42068.79
475.30	42658.60
475.48	42469.02
475.66	43384.17
475.84	42384.76
476.02	41909.63
476.20	41406.42
476.38	42890.32
476.56	43819.51
476.74	44364.85
476.92	44339.11
477.10	44891.48
477.28	46241.96
477.46	46387.08
477.64	46962.85
477.82	46700.71
478.00	46951.15
478.18	46326.22
478.36	46464.32
478.54	45989.19
478.72	46466.66
478.90	47533.94
479.08	48772.08
479.26	49141.89
479.44	48767.40
479.62	48528.67
479.80	48362.49
479.98	48910.17
480.16	49579.57
480.34	48666.76
480.52	48886.77
480.70	49441.48
480.88	49188.70
481.06	49951.71
481.24	50298.11
481.41	51009.64
481.59	51358.38
481.77	51276.46
481.95	50871.54
482.13	50681.96
482.31	50754.52
482.49	51096.24
482.67	51285.82
482.85	51330.29
483.03	51800.74
483.21	52238.42
483.39	52151.82
483.57	51557.32
483.74	51110.28
483.92	51559.66
484.10	51629.88
484.28	52598.86
484.46	52825.89
484.64	53408.68
484.82	52140.11
485.00	52278.21
485.18	51428.59
485.35	50450.25
485.53	47290.52
485.71	43438.00
485.89	43416.94
486.07	45652.15
486.25	48835.28
486.43	50958.14
486.61	51370.08
486.78	51264.75
486.96	51618.17
487.14	52877.38
487.32	53560.82
487.50	54181.06
487.68	55037.70
487.85	55671.98
488.03	55374.73
488.21	55182.81
488.39	54361.28
488.57	53764.45
488.75	53567.84
488.92	54597.68
489.10	56465.42
489.28	57528.03
489.46	57970.39
489.64	57799.53
489.81	57822.93
489.99	57701.23
490.17	57832.30
490.35	57937.62
490.53	57703.57
490.70	57343.12
490.88	57230.78
491.06	58197.42
491.24	58108.48
491.41	57169.93
491.59	55875.61
491.77	55224.94
491.95	56399.89
492.13	57275.25
492.30	58216.14
492.48	59021.29
492.66	59533.87
492.84	59290.45
493.01	59016.61
493.19	58492.33
493.37	58328.49
493.54	58064.01
493.72	58911.28
493.90	59702.38
494.08	60203.26
494.25	60470.08
494.43	60507.53
494.61	60928.83
494.79	60825.84
494.96	60879.67
495.14	60182.19
495.32	59400.46
495.49	58979.16
495.67	60083.89
495.85	61279.91
496.02	61345.44
496.20	61085.64
496.38	60898.40
496.55	60790.73
496.73	61190.97
496.91	61219.05
497.09	61902.49
497.26	61979.73
497.44	61539.71
497.62	60989.68
497.79	60301.56
497.97	59040.01
498.14	59449.61
498.32	60346.03
498.50	61050.53
498.67	61663.75
498.85	61483.53
499.03	61647.37
499.20	61918.87
499.38	61911.85
499.56	61792.48
499.73	61221.39
499.91	60977.98
500.08	60603.49
500.26	60116.66
500.44	60481.78
500.61	61095.00
500.79	60575.40
500.97	60413.91
501.14	60423.27
501.32	60095.60
501.49	60320.29
501.67	60505.19
501.84	60783.71
502.02	61207.35
502.20	61549.07
502.37	61722.27
502.55	61689.50
502.72	62017.17
502.90	62410.38
503.07	62234.84
503.25	61778.44
503.43	61251.82
503.60	60395.18
503.78	59814.73
503.95	60617.53
504.13	61815.89
504.30	62532.09
504.48	62152.93
504.65	61925.89
504.83	62089.73
505.01	62506.35
505.18	62637.42
505.36	63440.22
505.53	63386.39
505.71	63641.51
505.88	63423.84
506.06	62927.64
506.23	62752.10
506.41	62489.96
506.58	62614.01
506.76	62508.69
506.93	62763.81
507.11	62347.19
507.28	62571.88
507.46	61982.07
507.63	61572.47
507.81	61565.45
507.98	61609.92
508.16	62199.74
508.33	62644.44
508.50	63039.99
508.68	63264.68
508.85	63707.04
509.03	63704.70
509.20	63510.44
509.38	62852.75
509.55	62127.18
509.73	62398.68
509.90	62976.79
510.08	63068.08
510.25	63023.61
510.42	62878.49
510.60	62709.97
510.77	63025.95
510.95	63505.76
511.12	63700.02
511.30	63880.24
511.47	64214.94
511.64	63777.26
511.82	63573.63
511.99	63093.82
512.17	62721.68
512.34	62316.76
512.51	62508.69
512.69	62684.23
512.86	62717.00
513.04	63241.28
513.21	63065.73
513.38	62789.55
513.56	62422.09
513.73	61846.32
513.90	62068.67
514.08	62101.43
514.25	62429.11
514.43	62475.92
514.60	62693.59
514.77	62630.40
514.95	62918.28
515.12	62871.47
515.29	63039.99
515.47	63468.31
515.64	63746.83
515.81	63292.77
515.99	62759.12
516.16	61354.80
516.33	59318.54
516.51	58124.86
516.68	57726.97
516.85	57020.13
517.03	57743.36
517.20	59997.29
517.37	62085.05
517.54	62937.01
517.72	62288.68
517.89	60240.71
518.06	58244.23
518.24	58681.91
518.41	60507.53
518.58	61626.31
518.75	61640.35
518.93	61897.81
519.10	61731.63
519.27	62232.50
519.45	62382.30
519.62	63182.76
519.79	63437.88
519.96	63227.23
520.14	62812.96
520.31	62085.05
520.48	62047.60
520.65	62489.96
520.83	63260.00
521.00	63613.42
521.17	63164.04
521.34	62911.26
521.52	63374.69
521.69	63868.54
521.86	64186.85
522.03	63849.81
522.20	62515.71
522.38	61689.50
522.55	61841.63
522.72	62377.62
522.89	62457.20
523.07	62864.45
523.24	62986.16
523.41	63908.33
523.58	64058.12
523.75	64439.63
523.92	64353.03
524.10	64266.43
524.27	64193.87
524.44	64044.08
524.61	63826.41
524.78	63704.70
524.96	63515.12
525.13	63774.92
525.30	64023.01
525.47	64205.58
525.64	64184.51
525.81	63522.14
525.98	62288.68
526.16	61118.41
526.33	60322.63
526.50	60168.15
526.67	59831.11
526.84	60577.75
527.01	61333.74
527.18	62176.33
527.36	62812.96
527.53	63660.23
527.70	63695.34
527.87	63182.76
528.04	62958.07
528.21	63365.32
528.38	63922.37
528.55	64589.42
528.72	64795.39
528.89	64898.37
529.07	64570.70
529.24	63852.15
529.41	63384.05
529.58	62878.49
529.75	63054.03
529.92	63515.12
530.09	63948.12
530.26	64142.38
530.43	64507.50
530.60	64598.79
530.77	64678.36
530.94	64771.99
531.11	64217.28
531.28	64048.76
531.46	63999.61
531.63	64165.79
531.80	63826.41
531.97	63379.37
532.14	62876.15
532.31	61909.51
532.48	61467.15
532.65	61605.24
532.82	62433.79
532.99	63472.99
533.16	63608.74
533.33	64065.14
533.50	63873.22
533.67	63372.34
533.84	62974.45
534.01	63145.31
534.18	63112.55
534.35	63309.15
534.52	63231.91
534.69	63643.85
534.86	63877.90
535.03	64044.08
535.20	64584.74
535.37	64790.71
535.54	64837.52
535.71	64575.38
535.88	64252.39
536.05	63735.13
536.22	63381.71
536.38	63086.80
536.55	62534.43
536.72	62124.84
536.89	62080.37
537.06	62955.73
537.23	63845.13
537.40	63840.45
537.57	63819.39
537.74	63571.29
537.91	63440.22
538.08	63360.64
538.25	63503.42
538.42	63791.30
538.59	63510.44
538.75	62913.60
538.92	62958.07
539.09	62724.02
539.26	62775.51
539.43	62557.84
539.60	62539.11
539.77	62724.02
539.94	62576.56
540.11	61895.47
540.28	61455.45
540.44	61544.39
540.61	61698.86
540.78	62014.83
540.95	62424.43
541.12	62735.72
541.29	62824.66
541.46	63140.63
541.62	63316.17
541.79	62972.11
541.96	62557.84
542.13	62560.18
542.30	62974.45
542.47	62873.81
542.63	62672.52
542.80	62480.60
542.97	62747.42
543.14	62515.71
543.31	62443.15
543.48	63004.88
543.64	63819.39
543.81	64088.55
543.98	63737.47
544.15	63145.31
544.32	62742.74
544.48	62986.16
544.65	63196.80
544.82	63456.60
544.99	63044.67
545.16	62754.44
545.32	62677.21
545.49	63557.25
545.66	63739.81
545.83	63285.75
546.00	62997.86
546.16	62929.98
546.33	62773.17
546.50	62801.25
546.67	63180.42
546.83	62915.94
547.00	63061.05
547.17	62302.72
547.34	61939.94
547.50	61909.51
547.67	62185.69
547.84	62305.06
548.00	62571.88
548.17	63063.39
548.34	62852.75
548.51	62845.72
548.67	62932.32
548.84	63070.42
549.01	62990.84
549.18	62822.32
549.34	62637.42
549.51	62759.12
549.68	62597.63
549.84	62319.10
550.01	62506.35
550.18	62316.76
550.34	62412.73
550.51	62431.45
550.68	62557.84
550.84	62049.94
551.01	62279.31
551.18	62033.56
551.34	62398.68
551.51	62494.64
551.68	63007.22
551.84	62838.70
552.01	62850.41
552.18	62396.34
552.34	61771.42
552.51	61705.88
552.68	61710.56
552.84	62080.37
553.01	62157.61
553.18	62115.48
553.34	62211.44
553.51	62206.76
553.67	62464.22
553.84	62555.50
554.01	62473.58
554.17	62424.43
554.34	62377.62
554.51	62660.82
554.67	62761.47
554.84	62691.25
555.00	62520.39
555.17	62265.27
555.33	62007.81
555.50	62321.44
555.67	62096.75
555.83	62220.80
556.00	61806.53
556.16	61656.73
556.33	61495.24
556.50	61399.27
556.66	61375.87
556.83	61097.34
556.99	61270.54
557.16	61275.22
557.32	61776.10
557.49	61801.85
557.65	61619.28
557.82	61591.20
557.98	61701.20
558.15	61137.13
558.32	60669.03
558.48	59693.02
558.65	60041.76
558.81	60458.38
558.98	60561.36
559.14	60823.50
559.31	60828.18
559.47	60720.52
559.64	60694.77
559.80	60233.69
559.97	60402.21
560.13	60669.03
560.30	61504.60
560.46	61808.87
560.63	62225.48
560.79	62075.69
560.96	61698.86
561.12	60804.78
561.29	59948.14
561.45	59917.71
561.61	60509.87
561.78	61066.92
561.94	60893.72
562.11	60739.24
562.27	60622.22
562.44	60882.02
562.60	61151.18
562.77	61656.73
562.93	61286.93
563.10	61123.09
563.26	60760.31
563.42	60734.56
563.59	60722.86
563.75	60650.30
563.92	60743.92
564.08	60514.55
564.24	60767.33
564.41	60685.41
564.57	60767.33
564.74	60537.96
564.90	60544.98
565.07	60385.82
565.23	60037.08
565.39	59627.49
565.56	59348.96
565.72	59131.29
565.88	59433.22
566.05	59533.87
566.21	59819.41
566.38	59863.88
566.54	60147.09
566.70	60371.78
566.87	60615.19
567.03	60657.32
567.19	60797.76
567.36	60500.51
567.52	60104.96
567.68	60329.65
567.85	59477.69
568.01	59358.33
568.17	59150.02
568.34	59124.27
568.50	58894.90
568.66	59260.02
568.83	59285.77
568.99	59313.86
569.15	59824.09
569.32	59571.32
569.48	59243.64
569.64	59278.75
569.81	59042.35
569.97	58913.62
570.13	58878.52
570.30	58438.50
570.46	58174.02
570.62	57872.09
570.78	57448.45
570.95	57968.05
571.11	58609.35
571.27	58550.84
571.43	58784.90
571.60	59138.32
571.76	59260.02
571.92	59430.88
572.09	59683.66
572.25	59440.24
572.41	59473.01
572.57	59348.96
572.74	59264.70
572.90	59082.14
573.06	58948.73
573.22	59082.14
573.38	59194.49
573.55	58848.09
573.71	59295.13
573.87	59178.10
574.03	59138.32
574.20	58946.39
574.36	58908.94
574.52	58651.48
574.68	58248.91
574.84	57897.83
575.01	57654.42
575.17	57612.29
575.33	57918.90
575.49	58122.52
575.65	58468.92
575.82	57883.79
575.98	58122.52
576.14	58164.65
576.30	58195.08
576.46	58588.29
576.62	58330.83
576.79	58417.43
576.95	58108.48
577.11	58152.95
577.27	58038.26
577.43	58225.51
577.59	57834.64
577.75	57357.17
577.92	56762.67
578.08	56966.30
578.24	56818.84
578.40	57256.53
578.56	57319.72
578.72	57251.84
578.88	57722.29
579.04	57799.53
579.21	57631.01
579.37	57776.12
579.53	57783.15
579.69	57705.91
579.85	57829.96
580.01	57623.99
580.17	57509.30
580.33	57202.69
580.49	57251.84
580.65	57738.68
580.82	57757.40
580.98	57715.27
581.14	57420.36
581.30	57855.70
581.46	57741.02
581.62	57991.45
581.78	57818.25
581.94	58260.62
582.10	57968.05
582.26	57993.79
582.42	57979.75
582.58	58014.86
582.74	58017.20
582.90	58042.95
583.06	57883.79
583.22	57743.36
583.38	57783.15
583.54	57846.34
583.70	57684.84
583.86	57776.12
584.02	57537.39
584.18	57705.91
584.34	57492.92
584.50	57368.87
584.66	57441.43
584.82	56966.30
584.98	57031.83
585.14	56809.48
