SpectraSuite Data File
++++++++++++++++++++++++++++++++++++
Date: Mon Oct 07 14:54:58 GMT-05:00 2013
User: price-jones
Dark Spectrum Present: No
Reference Spectrum Present: No
Number of Sampled Component Spectra: 1
Spectrometers: USB2+H05261
Integration Time (usec): 10000 (USB2+H05261)
Spectra Averaged: 1 (USB2+H05261)
Boxcar Smoothing: 0 (USB2+H05261)
Correct for Electrical Dark: No (USB2+H05261)
Strobe/Lamp Enabled: No (USB2+H05261)
Correct for Detector Non-linearity: No (USB2+H05261)
Correct for Stray Light: No (USB2+H05261)
Number of Pixels in Processed Spectrum: 2048
>>>>>Begin Processed Spectral Data<<<<<
365.73	0.00
365.92	0.00
366.12	0.00
366.32	0.00
366.52	0.00
366.72	0.00
366.91	0.00
367.11	0.00
367.31	0.00
367.51	0.00
367.70	0.00
367.90	0.00
368.10	0.00
368.30	0.00
368.49	0.00
368.69	0.00
368.89	0.00
369.09	0.00
369.28	0.00
369.48	0.00
369.68	0.00
369.87	0.00
370.07	0.00
370.27	0.00
370.47	0.00
370.66	102.98
370.86	220.01
371.06	245.76
371.25	287.89
371.45	241.08
371.65	189.58
371.84	175.54
372.04	161.50
372.24	224.69
372.44	264.48
372.63	222.35
372.83	168.52
373.03	126.39
373.22	196.60
373.42	217.67
373.62	201.29
373.81	234.05
374.01	220.01
374.21	196.60
374.40	208.31
374.60	234.05
374.79	294.91
374.99	271.50
375.19	379.17
375.38	379.17
375.58	339.38
375.78	257.46
375.97	346.40
376.17	327.68
376.37	376.83
376.56	283.20
376.76	315.97
376.95	489.17
377.15	465.77
377.35	470.45
377.54	500.87
377.74	554.71
377.93	500.87
378.13	573.43
378.33	543.00
378.52	411.93
378.72	322.99
378.91	433.00
379.11	374.49
379.31	320.65
379.50	390.87
379.70	369.80
379.89	498.53
380.09	482.15
380.28	608.54
380.48	489.17
380.68	400.23
380.87	397.89
381.07	477.47
381.26	388.53
381.46	299.59
381.65	297.25
381.85	299.59
382.04	262.14
382.24	259.80
382.43	234.05
382.63	170.86
382.83	243.42
383.02	203.63
383.22	182.56
383.41	215.33
383.61	212.99
383.80	308.95
384.00	369.80
384.19	489.17
384.39	498.53
384.58	421.30
384.78	383.85
384.97	489.17
385.17	407.25
385.36	341.72
385.56	374.49
385.75	489.17
385.95	512.58
386.14	578.11
386.34	524.28
386.53	461.09
386.72	433.00
386.92	447.04
387.11	449.38
387.31	582.79
387.50	397.89
387.70	407.25
387.89	470.45
388.09	428.32
388.28	491.51
388.48	468.11
388.67	468.11
388.86	526.62
389.06	638.97
389.25	681.10
389.45	650.67
389.64	737.27
389.84	706.84
390.03	662.37
390.22	622.58
390.42	779.40
390.61	709.18
390.81	814.51
391.00	833.23
391.19	741.95
391.39	819.19
391.58	760.67
391.78	730.25
391.97	662.37
392.16	493.85
392.36	575.77
392.55	372.15
392.75	236.39
392.94	114.69
393.13	241.08
393.33	191.92
393.52	365.12
393.71	468.11
393.91	498.53
394.10	690.46
394.29	744.29
394.49	755.99
394.68	919.83
394.88	922.17
395.07	924.51
395.26	880.04
395.46	891.74
395.65	788.76
395.84	653.01
396.04	528.96
396.23	477.47
396.42	311.29
396.62	304.27
396.81	318.31
397.00	545.34
397.19	772.38
397.39	833.23
397.58	1043.88
397.77	990.05
397.97	1245.16
398.16	1139.84
398.35	1121.12
398.55	1235.80
398.74	1261.55
398.93	1383.26
399.12	1270.91
399.32	1254.53
399.51	1303.68
399.70	1284.95
399.90	1338.79
400.09	1413.68
400.28	1327.08
400.47	1299.00
400.67	1444.11
400.86	1469.86
401.05	1411.34
401.24	1437.09
401.44	1490.92
401.63	1488.58
401.82	1404.32
402.01	1476.88
402.21	1476.88
402.40	1465.18
402.59	1448.79
402.78	1455.81
402.97	1289.64
403.17	1420.71
403.36	1472.20
403.55	1533.05
403.74	1661.78
403.93	1502.62
404.13	1371.55
404.32	1348.15
404.51	1376.24
404.70	1476.88
404.89	1488.58
405.09	1474.54
405.28	1479.22
405.47	1446.45
405.66	1519.01
405.85	1369.21
406.05	1329.42
406.24	1352.83
406.43	1366.87
406.62	1519.01
406.81	1629.01
407.00	1481.56
407.20	1341.13
407.39	1472.20
407.58	1540.07
407.77	1657.10
407.96	1638.38
408.15	1500.28
408.34	1675.82
408.54	1720.29
408.73	1727.32
408.92	1816.26
409.11	1626.67
409.30	1542.41
409.49	1430.07
409.68	1282.61
409.87	1294.32
410.07	1357.51
410.26	1511.99
410.45	1638.38
410.64	1614.97
410.83	1680.50
411.02	1788.17
411.21	1827.96
411.40	1914.56
411.59	1867.75
411.78	1797.53
411.98	1783.49
412.17	1856.04
412.36	1781.15
412.55	1799.87
412.74	1750.72
412.93	1727.32
413.12	1607.95
413.31	1785.83
413.50	1984.77
413.69	1923.92
413.88	1856.04
414.07	1696.89
414.26	1842.00
414.45	1797.53
414.64	1909.88
414.83	1877.11
415.02	1851.36
415.22	1767.10
415.41	1813.92
415.60	2050.31
415.79	2071.37
415.98	2099.46
416.17	2066.69
416.36	2003.50
416.55	1928.60
416.74	1905.20
416.93	1727.32
417.12	1846.68
417.31	1914.56
417.50	1825.62
417.69	2036.27
417.88	1900.52
418.07	1923.92
418.26	1914.56
418.45	1891.15
418.64	2031.58
418.83	2080.74
419.02	2101.80
419.21	2024.56
419.39	1975.41
419.58	1877.11
419.77	1834.98
419.96	1898.17
420.15	2062.01
420.34	2062.01
420.53	2207.13
420.72	2153.29
420.91	2193.08
421.10	2188.40
421.29	2101.80
421.48	1973.07
421.67	2193.08
421.86	2026.90
422.05	1973.07
422.24	1682.85
422.43	1769.44
422.61	1926.26
422.80	2073.71
422.99	2115.84
423.18	2015.20
423.37	2054.99
423.56	1991.80
423.75	1954.35
423.94	2008.18
424.13	1935.62
424.32	1877.11
424.50	2008.18
424.69	1886.47
424.88	1846.68
425.07	1844.34
425.26	1942.64
425.45	1865.41
425.64	1865.41
425.83	1813.92
426.01	1891.15
426.20	2012.86
426.39	1989.46
426.58	1771.79
426.77	1631.35
426.96	1741.36
427.15	1701.57
427.33	1776.47
427.52	1937.96
427.71	1956.69
427.90	1930.94
428.09	1825.62
428.28	1872.43
428.46	1816.26
428.65	1739.02
428.84	1771.79
429.03	1764.76
429.22	1724.97
429.40	1547.09
429.59	1490.92
429.78	1259.21
429.97	1306.02
430.16	1324.74
430.34	1266.23
430.53	1308.36
430.72	1301.34
430.91	1432.41
431.10	1746.04
431.28	2015.20
431.47	2275.00
431.66	2300.75
431.85	1952.01
432.03	1865.41
432.22	1795.19
432.41	1891.15
432.60	2064.35
432.79	2282.02
432.97	2253.94
433.16	2115.84
433.35	1844.34
433.54	1757.74
433.72	1568.16
433.91	1736.68
434.10	1954.35
434.28	2094.78
434.47	2122.87
434.66	2104.14
434.85	2043.29
435.03	2099.46
435.22	2097.12
435.41	2246.91
435.59	2396.71
435.78	2319.47
435.97	2366.28
436.16	2307.77
436.34	2473.95
436.53	2354.58
436.72	2282.02
436.90	2190.74
437.09	2258.62
437.28	2059.67
437.46	2338.20
437.65	2207.13
437.84	2003.50
438.02	1905.20
438.21	1767.10
438.40	1909.88
438.58	2132.23
438.77	2108.82
438.96	2272.66
439.14	2366.28
439.33	2359.26
439.52	2394.37
439.70	2352.24
439.89	2296.07
440.08	2218.83
440.26	2146.27
440.45	2275.00
440.63	2546.50
440.82	2670.55
441.01	2546.50
441.19	2399.05
441.38	2459.90
441.57	2658.85
441.75	2700.98
441.94	2682.25
442.12	2642.46
442.31	2700.98
442.50	2712.68
442.68	2710.34
442.87	2525.44
443.05	2581.61
443.24	2628.42
443.43	2696.30
443.61	2787.58
443.80	2782.90
443.98	2708.00
444.17	2576.93
444.35	2815.66
444.54	2881.20
444.73	2869.50
444.91	2649.49
445.10	2509.05
445.28	2462.24
445.47	2340.54
445.65	2450.54
445.84	2513.74
446.02	2572.25
446.21	2595.65
446.39	2621.40
446.58	2612.04
446.77	2745.45
446.95	2712.68
447.14	2813.32
447.32	2766.51
447.51	2717.36
447.69	2700.98
447.88	2614.38
448.06	2675.23
448.25	2705.66
448.43	2712.68
448.62	2675.23
448.80	2782.90
448.99	2729.06
449.17	2686.94
449.36	2612.04
449.54	2855.45
449.73	2864.82
449.91	2906.95
450.10	3077.80
450.28	3023.97
450.46	3012.27
450.65	3016.95
450.83	2909.29
451.02	3000.57
451.20	2857.79
451.39	2876.52
451.57	2930.35
451.76	2930.35
451.94	2752.47
452.13	2719.70
452.31	2665.87
452.49	2530.12
452.68	2546.50
452.86	2696.30
453.05	2567.57
453.23	2726.72
453.42	2925.67
453.60	2913.97
453.78	2963.12
453.97	2878.86
454.15	2810.98
454.34	2628.42
454.52	2785.24
454.70	2729.06
454.89	2677.57
455.07	2853.11
455.26	2857.79
455.44	2960.78
455.62	2928.01
455.81	2916.31
455.99	2775.88
456.17	2829.71
456.36	2874.18
456.54	2834.39
456.73	2984.18
456.91	3173.77
457.09	3040.36
457.28	3094.19
457.46	2911.63
457.64	2970.14
457.83	2778.22
458.01	2773.53
458.19	2871.84
458.38	2850.77
458.56	2984.18
458.74	2792.26
458.93	2899.92
459.11	2850.77
459.29	2808.64
459.48	2895.24
459.66	2768.85
459.84	2991.20
460.03	2892.90
460.21	2876.52
460.39	3009.93
460.57	3021.63
460.76	3122.27
460.94	3077.80
461.12	2972.48
461.31	3061.42
461.49	3141.00
461.67	3094.19
461.85	3108.23
462.04	2970.14
462.22	3159.72
462.40	3066.10
462.59	3038.02
462.77	3129.30
462.95	3030.99
463.13	3096.53
463.32	3007.59
463.50	3000.57
463.68	3014.61
463.86	2986.52
464.05	3009.93
464.23	2897.58
464.41	3014.61
464.59	2890.56
464.78	2909.29
464.96	2939.71
465.14	2881.20
465.32	3042.70
465.50	3082.49
465.69	3070.78
465.87	2993.55
466.05	2937.37
466.23	2937.37
466.41	2696.30
466.60	2874.18
466.78	2843.75
466.96	2937.37
467.14	2890.56
467.32	3021.63
467.51	3021.63
467.69	2789.92
467.87	2993.55
468.05	2897.58
468.23	2899.92
468.41	2935.03
468.60	2946.73
468.78	3012.27
468.96	2993.55
469.14	3030.99
469.32	3019.29
469.50	2946.73
469.69	2846.09
469.87	2810.98
470.05	2752.47
470.23	2853.11
470.41	2855.45
470.59	2808.64
470.77	2834.39
470.95	2979.50
471.14	3033.33
471.32	2988.86
471.50	3279.09
471.68	3229.94
471.86	3253.34
472.04	3232.28
472.22	3129.30
472.40	3042.70
472.58	3075.46
472.77	3040.36
472.95	2946.73
473.13	3166.74
473.31	3126.96
473.49	3215.90
473.67	3164.40
473.85	3173.77
474.03	3283.77
474.21	3300.16
474.39	3372.71
474.57	3389.10
474.75	3349.31
474.93	3265.05
475.12	3246.32
475.30	3300.16
475.48	3155.04
475.66	3267.39
475.84	3178.45
476.02	3155.04
476.20	3068.44
476.38	3192.49
476.56	3309.52
476.74	3279.09
476.92	3332.92
477.10	3536.55
477.28	3398.46
477.46	3576.34
477.64	3639.53
477.82	3700.39
478.00	3590.38
478.18	3520.17
478.36	3508.46
478.54	3370.37
478.72	3529.53
478.90	3534.21
479.08	3709.75
479.26	3749.54
479.44	3721.45
479.62	3733.15
479.80	3763.58
479.98	3740.18
480.16	3618.47
480.34	3719.11
480.52	3854.86
480.70	3770.60
480.88	3843.16
481.06	3889.97
481.24	3889.97
481.41	3981.25
481.59	4124.02
481.77	3997.64
481.95	3953.16
482.13	3904.01
482.31	3810.39
482.49	4119.34
482.67	4042.11
482.85	3953.16
483.03	4046.79
483.21	4210.62
483.39	3997.64
483.57	3978.91
483.74	3918.06
483.92	4023.38
484.10	3983.59
484.28	4128.70
484.46	4283.18
484.64	4231.69
484.82	4056.15
485.00	4163.81
485.18	3978.91
485.35	3756.56
485.53	3468.67
485.71	3215.90
485.89	3136.32
486.07	3442.93
486.25	3707.41
486.43	4028.06
486.61	3964.87
486.78	3922.74
486.96	3992.95
487.14	4074.87
487.32	4198.92
487.50	4358.08
487.68	4423.61
487.85	4620.22
488.03	4601.49
488.21	4514.89
488.39	4440.00
488.57	4292.54
488.75	4210.62
488.92	4510.21
489.10	4868.31
489.28	4784.06
489.46	4983.00
489.64	5104.71
489.81	5121.09
489.99	4983.00
490.17	5006.41
490.35	5001.72
490.53	4840.23
490.70	4788.74
490.88	5039.17
491.06	5111.73
491.24	5022.79
491.41	4919.81
491.59	4751.29
491.77	4447.02
491.95	4552.34
492.13	4891.72
492.30	4980.66
492.48	5090.67
492.66	5231.10
492.84	5247.48
493.01	5097.69
493.19	5226.42
493.37	5095.35
493.54	5025.13
493.72	5027.47
493.90	5174.92
494.08	5329.40
494.25	5476.85
494.43	5561.11
494.61	5547.07
494.79	5586.86
494.96	5495.58
495.14	5476.85
495.32	5282.59
495.49	5191.31
495.67	5268.55
495.85	5350.46
496.02	5628.99
496.20	5544.73
496.38	5593.88
496.55	5526.00
496.73	5572.82
496.91	5710.91
497.09	5849.00
497.26	5764.74
497.44	5612.60
497.62	5678.14
497.79	5458.13
497.97	5394.93
498.14	5303.65
498.32	5535.37
498.50	5533.03
498.67	5858.36
498.85	5738.99
499.03	5853.68
499.20	5645.37
499.38	5757.72
499.56	5650.05
499.73	5584.52
499.91	5741.33
500.08	5483.88
500.26	5277.91
500.44	5287.27
500.61	5558.77
500.79	5575.16
500.97	5556.43
501.14	5406.64
501.32	5387.91
501.49	5341.10
501.67	5497.92
501.84	5537.71
502.02	5607.92
502.20	5612.60
502.37	5579.84
502.55	5444.09
502.72	5785.80
502.90	5790.49
503.07	5746.02
503.25	5753.04
503.43	5500.26
503.60	5465.15
503.78	5298.97
503.95	5343.44
504.13	5582.18
504.30	5825.59
504.48	5809.21
504.65	5694.52
504.83	5458.13
505.01	5659.42
505.18	5870.06
505.36	6069.01
505.53	5968.37
505.71	6146.25
505.88	6031.56
506.06	5923.90
506.23	5994.11
506.41	5804.53
506.58	5832.62
506.76	5853.68
506.93	5877.09
507.11	5820.91
507.28	5973.05
507.46	5774.10
507.63	5636.01
507.81	5526.00
507.98	5617.29
508.16	5619.63
508.33	5947.30
508.50	5809.21
508.68	5975.39
508.85	6190.72
509.03	6284.34
509.20	6029.22
509.38	5769.42
509.55	5715.59
509.73	5680.48
509.90	5928.58
510.08	5930.92
510.25	5968.37
510.42	6054.97
510.60	5930.92
510.77	5935.60
510.95	5987.09
511.12	6019.86
511.30	6031.56
511.47	6080.71
511.64	6120.50
511.82	6120.50
511.99	5832.62
512.17	5774.10
512.34	5753.04
512.51	5710.91
512.69	5916.87
512.86	5825.59
513.04	5853.68
513.21	5694.52
513.38	5785.80
513.56	5694.52
513.73	5474.51
513.90	5654.73
514.08	5568.13
514.25	5720.27
514.43	5727.29
514.60	5863.04
514.77	5781.12
514.95	5682.82
515.12	5923.90
515.29	5834.96
515.47	5799.85
515.64	5802.19
515.81	5907.51
515.99	5713.25
516.16	5392.59
516.33	4978.32
516.51	4751.29
516.68	4575.75
516.85	4589.79
517.03	4608.51
517.20	4903.42
517.37	5673.46
517.54	5736.65
517.72	5647.71
517.89	5160.88
518.06	4770.01
518.24	4748.95
518.41	5093.01
518.58	5423.02
518.75	5537.71
518.93	5598.56
519.10	5533.03
519.27	5610.26
519.45	5809.21
519.62	5781.12
519.79	5954.32
519.96	5802.19
520.14	5687.50
520.31	5528.35
520.48	5605.58
520.65	5568.13
520.83	5825.59
521.00	5933.26
521.17	5706.23
521.34	5633.67
521.52	5561.11
521.69	5942.62
521.86	6090.07
522.03	6059.65
522.20	5783.46
522.38	5392.59
522.55	5392.59
522.72	5495.58
522.89	5542.39
523.07	5586.86
523.24	5710.91
523.41	5909.85
523.58	5818.57
523.75	6038.58
523.92	6099.44
524.10	5909.85
524.27	6127.52
524.44	6005.81
524.61	6005.81
524.78	5919.21
524.96	5905.17
525.13	5767.08
525.30	5881.77
525.47	6094.76
525.64	6033.90
525.81	5865.38
525.98	5493.24
526.16	5331.74
526.33	4994.70
526.50	5043.85
526.67	4938.53
526.84	5109.39
527.01	5280.25
527.18	5479.19
527.36	5673.46
527.53	5884.11
527.70	5750.70
527.87	5617.29
528.04	5816.23
528.21	5874.74
528.38	5966.03
528.55	6043.26
528.72	6246.89
528.89	6174.33
529.07	6134.54
529.24	5980.07
529.41	5954.32
529.58	5650.05
529.75	5755.38
529.92	5792.83
530.09	5949.64
530.26	5921.56
530.43	5837.30
530.60	6083.05
530.77	6293.70
530.94	6094.76
531.11	6019.86
531.28	5923.90
531.46	5717.93
531.63	5888.79
531.80	5898.15
531.97	5673.46
532.14	5572.82
532.31	5336.42
532.48	5355.15
532.65	5280.25
532.82	5509.62
532.99	5767.08
533.16	5774.10
533.33	5778.78
533.50	5736.65
533.67	5680.48
533.84	5638.35
534.01	5610.26
534.18	5706.23
534.35	5792.83
534.52	5755.38
534.69	5650.05
534.86	5767.08
535.03	5839.64
535.20	5980.07
535.37	6026.88
535.54	6204.76
535.71	6076.03
535.88	5877.09
536.05	5720.27
536.22	5621.97
536.38	5645.37
536.55	5612.60
536.72	5458.13
536.89	5397.28
537.06	5430.04
537.23	5767.08
537.40	5678.14
537.57	5809.21
537.74	5619.63
537.91	5813.89
538.08	5734.31
538.25	5668.78
538.42	5909.85
538.59	5694.52
538.75	5584.52
538.92	5408.98
539.09	5345.78
539.26	5231.10
539.43	5380.89
539.60	5394.93
539.77	5593.88
539.94	5533.03
540.11	5322.38
540.28	5020.45
540.44	5057.90
540.61	5207.69
540.78	5275.57
540.95	5221.74
541.12	5586.86
541.29	5556.43
541.46	5518.98
541.62	5603.24
541.79	5434.72
541.96	5462.81
542.13	5275.57
542.30	5462.81
542.47	5544.73
542.63	5348.12
542.80	5394.93
542.97	5472.17
543.14	5074.28
543.31	5467.49
543.48	5411.32
543.64	5593.88
543.81	5755.38
543.98	5687.50
544.15	5479.19
544.32	5331.74
544.48	5401.96
544.65	5633.67
544.82	5605.58
544.99	5600.90
545.16	5373.87
545.32	5315.36
545.49	5647.71
545.66	5774.10
545.83	5488.56
546.00	5551.75
546.16	5533.03
546.33	5472.17
546.50	5528.35
546.67	5565.79
546.83	5467.49
547.00	5427.70
547.17	5231.10
547.34	5085.98
547.50	5111.73
547.67	5181.95
547.84	5394.93
548.00	5371.53
548.17	5556.43
548.34	5399.62
548.51	5341.10
548.67	5341.10
548.84	5500.26
549.01	5516.64
549.18	5371.53
549.34	5259.18
549.51	5277.91
549.68	5364.51
549.84	5345.78
550.01	5411.32
550.18	5329.40
550.34	5305.99
550.51	5336.42
550.68	5263.86
550.84	5289.61
551.01	5242.80
551.18	5217.05
551.34	5263.86
551.51	5268.55
551.68	5432.38
551.84	5380.89
552.01	5427.70
552.18	5458.13
552.34	5195.99
552.51	5102.37
552.68	5069.60
552.84	5107.05
553.01	5231.10
553.18	5217.05
553.34	5291.95
553.51	5266.21
553.67	5324.72
553.84	5369.19
554.01	5444.09
554.17	5303.65
554.34	5289.61
554.51	5233.44
554.67	5394.93
554.84	5366.85
555.00	5228.76
555.17	5149.18
555.33	5212.37
555.50	5210.03
555.67	5172.58
555.83	5160.88
556.00	5125.77
556.16	5160.88
556.33	5013.43
556.50	5107.05
556.66	4985.34
556.83	4922.15
556.99	4945.55
557.16	5081.30
557.32	5095.35
557.49	5064.92
557.65	5062.58
557.82	4971.30
557.98	5022.79
558.15	4877.68
558.32	4786.40
558.48	4737.24
558.65	4718.52
558.81	4711.50
558.98	4908.10
559.14	4786.40
559.31	4875.34
559.47	4835.55
559.64	4821.50
559.80	4840.23
559.97	4699.80
560.13	4812.14
560.30	5006.41
560.46	5097.69
560.63	5205.35
560.79	5093.01
560.96	4978.32
561.12	4760.65
561.29	4587.45
561.45	4615.54
561.61	4702.14
561.78	4802.78
561.94	4807.46
562.11	4863.63
562.27	4919.81
562.44	5067.26
562.60	4910.44
562.77	5020.45
562.93	4858.95
563.10	4865.97
563.26	4709.16
563.42	4891.72
563.59	4741.93
563.75	4795.76
563.92	4674.05
564.08	4798.10
564.24	4884.70
564.41	4938.53
564.57	4905.76
564.74	4669.37
564.90	4842.57
565.07	4706.82
565.23	4648.30
565.39	4545.32
565.56	4418.93
565.72	4390.84
565.88	4521.92
566.05	4571.07
566.21	4652.98
566.38	4760.65
566.54	4655.33
566.70	4603.83
566.87	4688.09
567.03	4704.48
567.19	4678.73
567.36	4697.46
567.52	4842.57
567.68	4617.88
567.85	4641.28
568.01	4557.02
568.17	4470.42
568.34	4339.35
568.50	4418.93
568.66	4517.23
568.83	4533.62
568.99	4554.68
569.15	4503.19
569.32	4601.49
569.48	4582.77
569.64	4528.94
569.81	4531.28
569.97	4449.36
570.13	4360.42
570.30	4372.12
570.46	4327.65
570.62	4168.49
570.78	3997.64
570.95	4353.40
571.11	4404.89
571.27	4425.95
571.43	4313.61
571.60	4341.69
571.76	4360.42
571.92	4596.81
572.09	4486.81
572.25	4510.21
572.41	4610.86
572.57	4566.39
572.74	4430.63
572.90	4512.55
573.06	4255.09
573.22	4411.91
573.38	4306.59
573.55	4514.89
573.71	4372.12
573.87	4325.31
574.03	4390.84
574.20	4486.81
574.36	4395.53
574.52	4264.46
574.68	4264.46
574.84	4290.20
575.01	4292.54
575.17	4154.45
575.33	4159.13
575.49	4231.69
575.65	4196.58
575.82	4327.65
575.98	4271.48
576.14	4229.35
576.30	4227.01
576.46	4173.18
576.62	4325.31
576.79	4397.87
576.95	4294.88
577.11	4262.12
577.27	4248.07
577.43	4245.73
577.59	4173.18
577.75	3960.19
577.92	4046.79
578.08	4018.70
578.24	4021.04
578.40	3974.23
578.56	4173.18
578.72	4072.53
578.88	4028.06
579.04	4124.02
579.21	4124.02
579.37	4021.04
579.53	4142.75
579.69	4259.78
579.85	4124.02
580.01	4301.90
580.17	4177.86
580.33	4222.33
580.49	4280.84
580.65	4025.72
580.82	4163.81
580.98	4255.09
581.14	4126.36
581.30	4051.47
581.46	4210.62
581.62	4163.81
581.78	4236.37
581.94	4203.60
582.10	4198.92
582.26	4283.18
582.42	4189.56
582.58	4215.30
582.74	4051.47
582.90	4021.04
583.06	4088.92
583.22	4210.62
583.38	4124.02
583.54	4168.49
583.70	4079.55
583.86	4035.08
584.02	4084.23
584.18	4079.55
584.34	4114.66
584.50	4159.13
584.66	4007.00
584.82	3974.23
584.98	4100.62
585.14	3955.51
585.30	3953.16
585.46	3824.44
585.62	3866.56
585.78	3817.41
585.94	3840.82
586.10	3840.82
586.26	3946.14
586.42	3995.29
586.58	4065.51
586.74	3992.95
586.90	3957.85
587.06	3936.78
587.22	3997.64
587.38	3990.61
587.54	3843.16
587.70	3789.33
587.86	3768.26
588.02	3831.46
588.18	3662.94
588.34	3691.02
588.49	3433.57
588.65	3141.00
588.81	3108.23
588.97	3272.07
589.13	3229.94
589.29	3218.24
589.45	3229.94
589.61	3513.14
589.77	3503.78
589.93	3667.62
590.08	3700.39
590.24	3728.47
590.40	3784.65
590.56	3779.97
590.72	3716.77
590.88	3660.60
591.04	3651.24
591.20	3611.45
591.35	3618.47
591.51	3559.95
591.67	3716.77
591.83	3681.66
591.99	3728.47
592.15	3424.20
592.31	3597.40
592.46	3620.81
592.62	3695.71
592.78	3527.19
592.94	3648.90
593.10	3602.08
593.26	3571.66
593.41	3698.05
593.57	3611.45
593.73	3660.60
593.89	3543.57
594.05	3433.57
594.20	3499.10
594.36	3478.04
594.52	3403.14
594.68	3471.01
594.84	3452.29
594.99	3445.27
595.15	3438.25
595.31	3566.98
595.47	3618.47
595.62	3545.91
595.78	3538.89
595.94	3517.83
596.10	3613.79
596.25	3562.30
596.41	3398.46
596.57	3466.33
596.73	3424.20
596.88	3503.78
597.04	3550.59
597.20	3330.58
597.36	3496.76
597.51	3403.14
597.67	3506.12
597.83	3557.61
597.99	3405.48
