SpectraSuite Data File
++++++++++++++++++++++++++++++++++++
Date: Mon Oct 07 14:53:52 GMT-05:00 2013
User: price-jones
Dark Spectrum Present: No
Reference Spectrum Present: No
Number of Sampled Component Spectra: 1
Spectrometers: USB2+H05261
Integration Time (usec): 100000 (USB2+H05261)
Spectra Averaged: 1 (USB2+H05261)
Boxcar Smoothing: 0 (USB2+H05261)
Correct for Electrical Dark: No (USB2+H05261)
Strobe/Lamp Enabled: No (USB2+H05261)
Correct for Detector Non-linearity: No (USB2+H05261)
Correct for Stray Light: No (USB2+H05261)
Number of Pixels in Processed Spectrum: 2048
>>>>>Begin Processed Spectral Data<<<<<
365.73	0.00
365.92	0.00
366.12	0.00
366.32	0.00
366.52	0.00
366.72	0.00
366.91	0.00
367.11	0.00
367.31	0.00
367.51	0.00
367.70	0.00
367.90	0.00
368.10	0.00
368.30	0.00
368.49	0.00
368.69	0.00
368.89	0.00
369.09	0.00
369.28	0.00
369.48	0.00
369.68	0.00
369.87	0.00
370.07	0.00
370.27	0.00
370.47	578.11
370.66	2892.90
370.86	3330.58
371.06	3742.52
371.25	3735.50
371.45	3421.86
371.65	3070.78
371.84	2963.12
372.04	2967.80
372.24	3412.50
372.44	3524.85
372.63	3595.06
372.83	3206.53
373.03	2780.56
373.22	2605.02
373.42	2860.13
373.62	3325.90
373.81	3445.27
374.01	3543.57
374.21	3049.72
374.40	2942.05
374.60	3103.55
374.79	3304.84
374.99	4173.18
375.19	4322.97
375.38	4311.27
375.58	4030.40
375.78	4046.79
375.97	3929.76
376.17	4135.73
376.37	4194.24
376.56	4292.54
376.76	4388.50
376.95	4798.10
377.15	5263.86
377.35	5432.38
377.54	5551.75
377.74	5764.74
377.93	5640.69
378.13	5621.97
378.33	5317.70
378.52	4873.00
378.72	4772.35
378.91	4550.00
379.11	4376.80
379.31	4285.52
379.50	4292.54
379.70	4610.86
379.89	5102.37
380.09	5310.68
380.28	5540.05
380.48	5493.24
380.68	5617.29
380.87	5401.96
381.07	5011.09
381.26	4655.33
381.46	4325.31
381.65	4280.84
381.85	4039.76
382.04	3779.97
382.24	3555.27
382.43	3459.31
382.63	3468.67
382.83	3419.52
383.02	3405.48
383.22	3328.24
383.41	3375.05
383.61	3702.73
383.80	4252.75
384.00	4772.35
384.19	5249.82
384.39	5472.17
384.58	5561.11
384.78	5458.13
384.97	5373.87
385.17	5057.90
385.36	4997.04
385.56	4664.69
385.75	4863.63
385.95	5156.20
386.14	5699.20
386.34	5570.48
386.53	5423.02
386.72	5067.26
386.92	5100.03
387.11	5369.19
387.31	5771.76
387.50	5575.16
387.70	5256.84
387.89	5259.18
388.09	5423.02
388.28	5359.83
388.48	5446.43
388.67	5802.19
388.86	6434.13
389.06	6977.14
389.25	7332.90
389.45	7487.37
389.64	7349.28
389.84	7281.41
390.03	7152.68
390.22	7419.50
390.42	7346.94
390.61	7836.11
390.81	8486.78
391.00	8655.30
391.19	8615.51
391.39	8250.39
391.58	7784.62
391.78	7307.15
391.97	6993.52
392.16	6675.21
392.36	5888.79
392.55	4786.40
392.75	3866.56
392.94	3246.32
393.13	3096.53
393.33	3681.66
393.52	4526.60
393.71	5675.80
393.91	6499.67
394.10	7243.96
394.29	7864.20
394.49	8210.60
394.68	8933.82
394.88	9032.13
395.07	9296.61
395.26	9338.74
395.46	9025.11
395.65	8540.61
395.84	7616.10
396.04	6256.25
396.23	5097.69
396.42	4463.40
396.62	4133.39
396.81	4692.77
397.00	5947.30
397.19	7503.76
397.39	8901.06
397.58	10214.10
397.77	10834.34
397.97	11260.32
398.16	11454.58
398.35	11789.28
398.55	11974.18
398.74	12596.76
398.93	12886.99
399.12	12629.53
399.32	11990.56
399.51	12226.96
399.70	13245.09
399.90	13046.15
400.09	13118.70
400.28	13004.02
400.47	12835.50
400.67	13727.24
400.86	14345.14
401.05	14038.53
401.24	14246.84
401.44	14656.43
401.63	14321.74
401.82	14665.80
402.01	14607.28
402.21	14946.66
402.40	14855.38
402.59	14312.38
402.78	13584.47
402.97	13256.79
403.17	13502.55
403.36	14462.17
403.55	15000.49
403.74	15606.69
403.93	14775.80
404.13	13598.51
404.32	13226.37
404.51	13949.59
404.70	15187.74
404.89	14841.34
405.09	14890.49
405.28	14391.95
405.47	14185.99
405.66	14310.04
405.85	13975.34
406.05	13502.55
406.24	13551.70
406.43	14417.70
406.62	14726.65
406.81	14991.13
407.00	14338.12
407.20	14057.26
407.39	14207.05
407.58	14696.22
407.77	15499.03
407.96	15899.26
408.15	16205.87
408.34	16030.33
408.54	16868.24
408.73	17069.53
408.92	16580.36
409.11	16294.81
409.30	15484.98
409.49	14258.54
409.68	13364.46
409.87	13102.32
410.07	13830.23
410.26	15204.12
410.45	15910.96
410.64	16217.57
410.83	16959.52
411.02	17205.28
411.21	18272.56
411.40	17914.46
411.59	17933.18
411.78	17530.61
411.98	17696.79
412.17	17869.99
412.36	17338.69
412.55	17685.09
412.74	16968.88
412.93	16615.46
413.12	16765.26
413.31	18649.39
413.50	18654.07
413.69	18995.79
413.88	18218.73
414.07	17762.33
414.26	18195.32
414.45	18499.59
414.64	18525.34
414.83	18771.10
415.02	18459.81
415.22	18544.06
415.41	18876.42
415.60	19330.48
415.79	20439.90
415.98	20856.51
416.17	20840.13
416.36	20095.84
416.55	19793.91
416.74	18998.13
416.93	18642.37
417.12	18864.72
417.31	18948.98
417.50	19208.78
417.69	19623.05
417.88	19639.44
418.07	19286.01
418.26	19035.58
418.45	19473.26
418.64	20063.07
418.83	20627.14
419.02	20762.89
419.21	20486.71
419.39	19190.05
419.58	18405.97
419.77	18637.69
419.96	19307.08
420.15	20748.85
420.34	21095.25
420.53	22129.77
420.72	22195.30
420.91	21886.35
421.10	21654.64
421.29	21544.63
421.48	20863.54
421.67	21656.98
421.86	21158.44
422.05	19791.57
422.24	17830.20
422.43	17303.58
422.61	19393.68
422.80	20961.84
422.99	21289.51
423.18	20191.80
423.37	19915.62
423.56	20011.58
423.75	20161.37
423.94	20769.91
424.13	19506.02
424.32	19747.10
424.50	19946.05
424.69	19475.60
424.88	19456.87
425.07	19424.11
425.26	19854.76
425.45	19126.86
425.64	18864.72
425.83	18920.89
426.01	20304.15
426.20	20465.64
426.39	20505.43
426.58	19136.22
426.77	17401.88
426.96	16863.56
427.15	17315.28
427.33	18981.74
427.52	19618.37
427.71	20058.39
427.90	19475.60
428.09	19405.38
428.28	18735.99
428.46	18328.74
428.65	18272.56
428.84	18424.70
429.03	18813.23
429.22	17614.87
429.40	16655.25
429.59	15412.43
429.78	13476.80
429.97	13532.98
430.16	13926.19
430.34	14022.15
430.53	13738.94
430.72	14185.99
430.91	15681.59
431.10	18361.50
431.28	21806.77
431.47	23269.61
431.66	23573.88
431.85	21507.18
432.03	19756.46
432.22	19054.30
432.41	19466.24
432.60	21799.75
432.79	22796.82
432.97	22991.08
433.16	22754.69
433.35	20954.82
433.54	18604.92
433.72	17422.95
433.91	18331.08
434.10	20196.48
434.28	21933.16
434.47	22508.93
434.66	22396.59
434.85	21425.26
435.03	21722.51
435.22	22242.11
435.41	23522.38
435.59	23421.74
435.78	23723.67
435.97	24313.48
436.16	24797.98
436.34	24657.54
436.53	23674.52
436.72	23716.65
436.90	22803.84
437.09	22230.41
437.28	22190.62
437.46	22904.48
437.65	22981.72
437.84	21418.24
438.02	19293.04
438.21	19300.06
438.40	20203.50
438.58	22361.48
438.77	22628.30
438.96	22913.84
439.14	24032.62
439.33	24477.32
439.52	25022.67
439.70	24339.23
439.89	23854.74
440.08	23110.45
440.26	23278.97
440.45	23637.07
440.63	25319.92
440.82	26719.56
441.01	26204.64
441.19	26113.36
441.38	26242.09
441.57	27868.76
441.75	27412.35
441.94	27637.05
442.12	28320.48
442.31	28524.11
442.50	28498.36
442.68	27812.59
442.87	28025.57
443.05	26977.01
443.24	27793.86
443.43	28154.30
443.61	29242.65
443.80	28985.19
443.98	27541.08
444.17	27318.73
444.35	28884.55
444.54	29617.14
444.73	28608.37
444.91	27962.38
445.10	27089.36
445.28	25809.09
445.47	25392.47
445.65	25558.65
445.84	26284.22
446.02	27344.48
446.21	27463.85
446.39	27765.78
446.58	27812.59
446.77	28514.75
446.95	28809.65
447.14	29528.20
447.32	30293.55
447.51	29450.96
447.69	28222.18
447.88	27826.63
448.06	28088.77
448.25	28954.77
448.43	29106.90
448.62	28189.41
448.80	28280.69
448.99	28643.48
449.17	28659.86
449.36	28570.92
449.54	29729.48
449.73	30511.22
449.91	30710.17
450.10	31878.10
450.28	31950.65
450.46	31573.83
450.65	31842.99
450.83	31786.82
451.02	30874.01
451.20	30609.53
451.39	30602.50
451.57	30394.20
451.76	30471.43
451.94	30024.39
452.13	29446.28
452.31	28484.32
452.49	26885.73
452.68	27337.46
452.86	27276.60
453.05	27960.04
453.23	28676.24
453.42	29156.05
453.60	29991.62
453.78	30403.56
453.97	29666.29
454.15	30015.03
454.34	29273.08
454.52	29326.91
454.70	28776.89
454.89	29153.71
455.07	29113.92
455.26	29947.15
455.44	30410.58
455.62	31274.24
455.81	31194.66
455.99	31175.94
456.17	31019.12
456.36	30857.62
456.54	31445.10
456.73	31894.48
456.91	32098.11
457.09	32491.32
457.28	33237.95
457.46	32018.53
457.64	31463.82
457.83	30553.35
458.01	30036.09
458.19	30665.70
458.38	30916.14
458.56	32233.86
458.74	31920.23
458.93	31501.27
459.11	31328.07
459.29	31131.47
459.48	30808.47
459.66	31133.81
459.84	31182.96
460.03	31840.65
460.21	31702.56
460.39	32694.94
460.57	32353.23
460.76	32989.85
460.94	32760.48
461.12	32416.42
461.31	32643.45
461.49	32594.30
461.67	32458.55
461.85	33593.71
462.04	33619.46
462.22	33991.60
462.40	33364.34
462.59	33532.86
462.77	33251.99
462.95	33364.34
463.13	32870.48
463.32	33048.36
463.50	32641.11
463.68	32245.56
463.86	32442.17
464.05	31737.66
464.23	31456.80
464.41	31908.52
464.59	30710.17
464.78	32201.09
464.96	32271.31
465.14	31665.11
465.32	32713.67
465.50	33642.86
465.69	33287.10
465.87	32657.49
466.05	32329.82
466.23	30944.22
466.41	29727.14
466.60	31026.14
466.78	30771.02
466.96	31274.24
467.14	31957.67
467.32	32692.60
467.51	32524.08
467.69	30960.61
467.87	31323.39
468.05	31791.50
468.23	32442.17
468.41	32341.52
468.60	32498.34
468.78	32233.86
468.96	31988.10
469.14	32638.77
469.32	32868.14
469.50	31718.94
469.69	31625.32
469.87	31197.00
470.05	31515.31
470.23	31145.51
470.41	31276.58
470.59	31775.11
470.77	32261.94
470.95	32315.78
471.14	32987.51
471.32	32870.48
471.50	34761.64
471.68	34651.63
471.86	34918.45
472.04	35187.61
472.22	35644.02
472.40	33326.89
472.58	33481.36
472.77	33048.36
472.95	33539.88
473.13	34455.03
473.31	33340.93
473.49	33862.87
473.67	34541.63
473.85	34684.40
474.03	35454.44
474.21	35522.31
474.39	35742.32
474.57	35880.41
474.75	35952.97
474.93	35821.90
475.12	34890.37
475.30	35037.82
475.48	35349.11
475.66	35641.68
475.84	35229.74
476.02	34895.05
476.20	34583.76
476.38	34827.17
476.56	36348.52
476.74	36566.19
476.92	37134.94
477.10	37212.18
477.28	37750.50
477.46	38267.76
477.64	39103.33
477.82	38892.68
478.00	38857.57
478.18	38642.24
478.36	38459.68
478.54	38382.45
478.72	38335.63
478.90	39571.44
479.08	40556.80
479.26	40905.54
479.44	40524.04
479.62	41034.27
479.80	40837.67
479.98	41001.50
480.16	41308.11
480.34	40825.96
480.52	41509.40
480.70	41446.21
480.88	41619.41
481.06	42567.32
481.24	42356.67
481.41	42897.34
481.59	44067.61
481.77	43772.70
481.95	43072.88
482.13	42787.33
482.31	42925.42
482.49	43435.66
482.67	43606.52
482.85	43667.37
483.03	44280.60
483.21	44910.20
483.39	44570.82
483.57	44224.42
483.74	43552.69
483.92	43861.64
484.10	43981.01
484.28	45092.76
484.46	45900.25
484.64	45846.41
484.82	44722.96
485.00	44573.16
485.18	43861.64
485.35	42309.86
485.53	39489.52
485.71	36123.83
485.89	34890.37
486.07	37057.70
486.25	40247.85
486.43	42471.36
486.61	43456.73
486.78	43365.45
486.96	43508.22
487.14	45422.78
487.32	46155.36
487.50	47381.80
487.68	47927.15
487.85	48884.43
488.03	48626.97
488.21	47955.24
488.39	47028.38
488.57	46745.18
488.75	46394.10
488.92	47760.97
489.10	49684.89
489.28	51365.40
489.46	51833.50
489.64	51622.86
489.81	51978.62
489.99	51545.62
490.17	51721.16
490.35	52172.88
490.53	51763.29
490.70	51124.32
490.88	50770.90
491.06	52196.29
491.24	51730.52
491.41	50834.10
491.59	49195.72
491.77	48025.45
491.95	49366.58
492.13	50759.20
492.30	51983.30
492.48	53200.38
492.66	53528.05
492.84	53535.07
493.01	53296.34
493.19	52769.72
493.37	52215.01
493.54	52027.77
493.72	52650.35
493.90	53771.47
494.08	54461.93
494.25	54993.23
494.43	54824.71
494.61	55231.96
494.79	55655.60
494.96	55337.29
495.14	54539.16
495.32	53724.66
495.49	52683.12
495.67	53993.82
495.85	55278.77
496.02	55959.87
496.20	55557.30
496.38	55346.65
496.55	55421.55
496.73	55531.55
496.91	55592.40
497.09	56376.48
497.26	56392.87
497.44	56060.51
497.62	55426.23
497.79	54422.14
497.97	53347.83
498.14	53514.01
498.32	54738.11
498.50	55501.12
498.67	56219.67
498.85	55732.84
499.03	56090.94
499.20	56371.80
499.38	56250.09
499.56	56170.52
499.73	55742.20
499.91	55320.90
500.08	54827.05
500.26	54188.08
500.44	54576.61
500.61	55229.62
500.79	55131.32
500.97	54459.58
501.14	54564.91
501.32	54553.21
501.49	54499.37
501.67	54609.38
501.84	55370.05
502.02	55650.92
502.20	55889.65
502.37	56011.36
502.55	55955.19
502.72	56545.00
502.90	57183.97
503.07	56755.65
503.25	56224.35
503.43	55653.26
503.60	54630.44
503.78	54035.95
503.95	54679.60
504.13	56144.77
504.30	56755.65
504.48	56526.28
504.65	56310.95
504.83	56203.28
505.01	56989.70
505.18	57228.44
505.36	57841.66
505.53	57937.62
505.71	58166.99
505.88	58038.26
506.06	57446.11
506.23	57052.90
506.41	56863.32
506.58	57064.60
506.76	57045.88
506.93	57134.82
507.11	56882.04
507.28	56849.27
507.46	56430.32
507.63	56062.85
507.81	55531.55
507.98	55608.79
508.16	56589.47
508.33	57113.75
508.50	57539.73
508.68	57834.64
508.85	58122.52
509.03	58078.05
509.20	57972.73
509.38	57268.23
509.55	56664.37
509.73	56863.32
509.90	57345.47
510.08	57289.29
510.25	57301.00
510.42	57144.18
510.60	57064.60
510.77	57301.00
510.95	57963.37
511.12	58120.18
511.30	58471.26
511.47	58695.95
511.64	58541.48
511.82	58281.68
511.99	57378.23
512.17	56959.28
512.34	56715.86
512.51	56708.84
512.69	56877.36
512.86	57073.96
513.04	57528.03
513.21	57656.76
513.38	57326.74
513.56	56678.41
513.73	55927.10
513.90	56275.84
514.08	56250.09
514.25	56797.78
514.43	56662.03
514.60	57031.83
514.77	57240.14
514.95	57165.24
515.12	57137.16
515.29	57399.30
515.47	57719.95
515.64	57797.19
515.81	57635.69
515.99	56963.96
516.16	55618.15
516.33	53420.39
516.51	51657.96
516.68	50780.26
516.85	50031.29
517.03	50848.14
517.20	53558.48
517.37	56203.28
517.54	57097.37
517.72	56828.21
517.89	54300.43
518.06	51639.24
518.24	52011.38
518.41	54468.95
518.58	55765.60
518.75	55859.23
518.93	55927.10
519.10	55910.72
519.27	56442.02
519.45	56769.69
519.62	57235.46
519.79	57647.39
519.96	57574.84
520.14	57076.30
520.31	56245.41
520.48	56170.52
520.65	56495.85
520.83	57719.95
521.00	57766.76
521.17	57731.65
521.34	57043.54
521.52	57249.50
521.69	58080.39
521.86	58464.24
522.03	58183.38
522.20	57155.88
522.38	55793.69
522.55	55920.08
522.72	56376.48
522.89	56676.07
523.07	56900.76
523.24	56879.70
523.41	57841.66
523.58	58316.79
523.75	58852.77
523.92	58555.52
524.10	58312.11
524.27	58410.41
524.44	58056.99
524.61	58293.38
524.78	58028.90
524.96	57876.77
525.13	57893.15
525.30	58129.54
525.47	58529.78
525.64	58398.71
525.81	57593.56
525.98	56217.33
526.16	54834.07
526.33	54307.45
526.50	53900.20
526.67	53427.41
526.84	54033.61
527.01	55334.95
527.18	55901.36
527.36	56755.65
527.53	57722.29
527.70	57832.30
527.87	57378.23
528.04	56875.02
528.21	57396.96
528.38	58143.59
528.55	58663.19
528.72	58937.03
528.89	58955.75
529.07	58777.87
529.24	58021.88
529.41	57668.46
529.58	56760.33
529.75	56924.17
529.92	57530.37
530.09	57965.71
530.26	58525.10
530.43	58646.80
530.60	58719.36
530.77	58859.79
530.94	58932.35
531.11	58560.20
531.28	58295.72
531.46	57954.00
531.63	58056.99
531.80	57893.15
531.97	57539.73
532.14	56942.89
532.31	55803.05
532.48	55339.63
532.65	55175.79
532.82	55985.61
532.99	57111.41
533.16	57483.56
533.33	58129.54
533.50	57916.56
533.67	57385.25
533.84	56779.06
534.01	56903.10
534.18	57118.43
534.35	57490.58
534.52	57284.61
534.69	57558.45
534.86	57951.66
535.03	58136.57
535.20	58628.08
535.37	58735.74
535.54	58934.69
535.71	58489.99
535.88	58466.58
536.05	57619.31
536.22	57317.38
536.38	56917.15
536.55	56435.00
536.72	55646.24
536.89	55924.76
537.06	56652.67
537.23	57661.44
537.40	57731.65
537.57	57907.19
537.74	57736.34
537.91	57628.67
538.08	57659.10
538.25	57378.23
538.42	57539.73
538.59	57523.35
538.75	56900.76
538.92	56603.52
539.09	56442.02
539.26	56446.70
539.43	56041.79
539.60	56458.40
539.77	56275.84
539.94	56488.83
540.11	55238.98
540.28	55028.34
540.44	55189.83
540.61	55201.53
540.78	55664.96
540.95	55955.19
541.12	56498.19
541.29	56451.38
541.46	56886.72
541.62	57104.39
541.79	56987.36
541.96	56182.22
542.13	56072.21
542.30	56453.72
542.47	56732.25
542.63	56315.63
542.80	56128.39
542.97	56299.25
543.14	56435.00
543.31	56151.79
543.48	56587.13
543.64	57673.14
543.81	57820.59
543.98	57715.27
544.15	57073.96
544.32	56399.89
544.48	56362.44
544.65	56790.76
544.82	57221.42
544.99	56870.34
545.16	56488.83
545.32	56266.48
545.49	57190.99
545.66	57319.72
545.83	56961.62
546.00	56715.86
546.16	56301.59
546.33	56341.38
546.50	56465.42
546.67	56945.23
546.83	56418.61
547.00	56348.40
547.17	55847.52
547.34	55274.09
547.50	55260.05
547.67	55515.17
547.84	55817.10
548.00	56261.80
548.17	56598.83
548.34	56402.23
548.51	56339.04
548.67	56545.00
548.84	56395.21
549.01	56493.51
549.18	56348.40
549.34	56425.64
549.51	56360.10
549.68	56128.39
549.84	56011.36
550.01	55845.18
550.18	55552.62
550.34	55903.70
550.51	55899.01
550.68	56128.39
550.84	55372.39
551.01	55545.59
551.18	55360.69
551.34	55800.71
551.51	56137.75
551.68	56395.21
551.84	56460.74
552.01	56278.18
552.18	56020.72
552.34	55311.54
552.51	54939.39
552.68	54759.17
552.84	55400.48
553.01	55547.93
553.18	55515.17
553.34	55519.85
553.51	55655.60
553.67	56212.65
553.84	55934.12
554.01	56207.97
554.17	55964.55
554.34	55915.40
554.51	55781.99
554.67	56280.52
554.84	56198.60
555.00	55664.96
555.17	55517.51
555.33	55327.92
555.50	55466.02
555.67	55583.04
555.83	55187.49
556.00	55154.72
556.16	55203.88
556.33	54377.67
556.50	54581.29
556.66	54602.36
556.83	54176.38
556.99	54340.22
557.16	54415.11
557.32	54756.83
557.49	54838.75
557.65	55079.83
557.82	54951.10
557.98	54623.42
558.15	54454.90
558.32	53200.38
558.48	52442.04
558.65	52814.19
558.81	52994.41
558.98	53296.34
559.14	53588.91
559.31	53670.82
559.47	53748.06
559.64	53097.39
559.80	53237.83
559.97	52949.94
560.13	53518.69
560.30	54560.23
560.46	54855.14
560.63	55147.70
560.79	55171.11
560.96	54894.92
561.12	53645.08
561.29	52924.19
561.45	52903.13
561.61	53464.86
561.78	53624.01
561.94	53811.26
562.11	53813.60
562.27	53268.25
562.44	53453.15
562.60	54494.69
562.77	54302.77
562.93	54209.15
563.10	54007.86
563.26	53464.86
563.42	53574.86
563.59	53188.67
563.75	53436.77
563.92	53364.21
564.08	53277.61
564.24	53694.23
564.41	53532.73
564.57	53621.67
564.74	53298.68
564.90	53277.61
565.07	53041.22
565.23	52554.39
565.39	52266.50
565.56	51758.61
565.72	51395.82
565.88	52041.81
566.05	52196.29
566.21	52629.29
566.38	52329.70
566.54	52512.26
566.70	52858.66
566.87	52966.32
567.03	53256.55
567.19	53462.52
567.36	53226.12
567.52	53017.82
567.68	52931.22
567.85	52095.64
568.01	51585.41
568.17	51311.56
568.34	51531.57
568.50	50981.55
568.66	51253.05
568.83	51777.33
568.99	51585.41
569.15	52090.96
569.32	52114.37
569.48	51826.48
569.64	51487.10
569.81	51079.85
569.97	50960.48
570.13	50997.93
570.30	50642.17
570.46	50012.57
570.62	49521.05
570.78	48956.99
570.95	49492.97
571.11	50183.43
571.27	50848.14
571.43	50946.44
571.60	51585.41
571.76	51547.96
571.92	51592.43
572.09	51889.68
572.25	51889.68
572.41	51711.80
572.57	51782.01
572.74	51433.27
572.90	51114.96
573.06	51330.29
573.22	51250.71
573.38	51166.45
573.55	51201.56
573.71	51325.61
573.87	51288.16
574.03	50925.38
574.20	50960.48
574.36	50567.27
574.52	50719.41
574.68	50312.16
574.84	50131.93
575.01	49169.97
575.17	49059.97
575.33	49144.23
575.49	49996.18
575.65	50017.25
575.82	49600.63
575.98	49354.88
576.14	49525.74
576.30	50227.90
576.46	50466.63
576.62	50117.89
576.79	50295.77
576.95	49387.64
577.11	49345.51
577.27	49712.98
577.43	49968.10
577.59	49324.45
577.75	48982.73
577.92	48233.76
578.08	48147.16
578.24	47978.64
578.40	48435.05
578.56	48671.44
578.72	48669.10
578.88	48935.92
579.04	49153.59
579.21	49429.77
579.37	49031.88
579.53	49085.72
579.69	49422.75
579.85	49734.04
580.01	49074.01
580.17	48720.59
580.33	48713.57
580.49	48825.92
580.65	49130.19
580.82	49392.33
580.98	49478.92
581.14	48882.09
581.30	49345.51
581.46	49059.97
581.62	49530.42
581.78	49368.92
581.94	49310.41
582.10	49221.47
582.26	49794.90
582.42	49200.40
582.58	49813.62
582.74	49265.94
582.90	49310.41
583.06	49254.23
583.22	48994.43
583.38	48783.79
583.54	48882.09
583.70	48786.13
583.86	48720.59
584.02	48596.54
584.18	49261.26
584.34	48669.10
584.50	48633.99
584.66	48360.15
584.82	47959.92
584.98	47931.83
585.14	47913.11
585.30	46869.23
