SpectraSuite Data File
++++++++++++++++++++++++++++++++++++
Date: Mon Oct 07 14:52:58 GMT-05:00 2013
User: price-jones
Dark Spectrum Present: No
Reference Spectrum Present: No
Number of Sampled Component Spectra: 1
Spectrometers: USB2+H05261
Integration Time (usec): 100000 (USB2+H05261)
Spectra Averaged: 1 (USB2+H05261)
Boxcar Smoothing: 0 (USB2+H05261)
Correct for Electrical Dark: No (USB2+H05261)
Strobe/Lamp Enabled: No (USB2+H05261)
Correct for Detector Non-linearity: No (USB2+H05261)
Correct for Stray Light: No (USB2+H05261)
Number of Pixels in Processed Spectrum: 2048
>>>>>Begin Processed Spectral Data<<<<<
365.73	0.00
365.92	0.00
366.12	0.00
366.32	0.00
366.52	0.00
366.72	0.00
366.91	0.00
367.11	0.00
367.31	0.00
367.51	0.00
367.70	0.00
367.90	0.00
368.10	0.00
368.30	0.00
368.49	0.00
368.69	0.00
368.89	0.00
369.09	0.00
369.28	0.00
369.48	0.00
369.68	0.00
369.87	0.00
370.07	0.00
370.27	0.00
370.47	573.43
370.66	2740.77
370.86	3187.81
371.06	3454.63
371.25	3487.40
371.45	3166.74
371.65	2792.26
371.84	2614.38
372.04	2761.83
372.24	3005.25
372.44	3332.92
372.63	3262.71
372.83	3026.31
373.03	2698.64
373.22	2401.39
373.42	2588.63
373.62	2878.86
373.81	3190.15
374.01	3204.19
374.21	2846.09
374.40	2724.38
374.60	2810.98
374.79	3178.45
374.99	3786.99
375.19	3955.51
375.38	4032.74
375.58	3684.00
375.78	3777.62
375.97	3850.18
376.17	3885.29
376.37	4002.32
376.56	3995.29
376.76	4250.41
376.95	4414.25
377.15	4854.27
377.35	5149.18
377.54	5310.68
377.74	5420.68
377.93	5345.78
378.13	5273.23
378.33	5053.22
378.52	4631.92
378.72	4451.70
378.91	4334.67
379.11	4259.78
379.31	4070.19
379.50	4114.66
379.70	4496.17
379.89	4664.69
380.09	5151.52
380.28	5254.50
380.48	5385.57
380.68	5167.90
380.87	4964.28
381.07	4559.36
381.26	4283.18
381.46	3995.29
381.65	3833.80
381.85	3751.88
382.04	3468.67
382.24	3297.81
382.43	3194.83
382.63	3258.03
382.83	3166.74
383.02	3108.23
383.22	3218.24
383.41	3082.49
383.61	3410.16
383.80	3981.25
384.00	4397.87
384.19	5043.85
384.39	5270.89
384.58	5074.28
384.78	5048.54
384.97	5186.63
385.17	4730.22
385.36	4648.30
385.56	4318.29
385.75	4477.44
385.95	4898.74
386.14	5305.99
386.34	5261.52
386.53	5163.22
386.72	4912.78
386.92	4952.57
387.11	5238.12
387.31	5247.48
387.50	5231.10
387.70	5085.98
387.89	5071.94
388.09	5078.96
388.28	5172.58
388.48	5149.18
388.67	5568.13
388.86	6153.27
389.06	6511.37
389.25	6993.52
389.45	6944.37
389.64	6895.22
389.84	6988.84
390.03	6881.18
390.22	6703.29
390.42	6951.39
390.61	7386.73
390.81	7946.12
391.00	8203.58
391.19	8180.17
391.39	7693.34
391.58	7204.17
391.78	6839.05
391.97	6551.16
392.16	6017.52
392.36	5647.71
392.55	4465.74
392.75	3545.91
392.94	2984.18
393.13	2986.52
393.33	3513.14
393.52	4425.95
393.71	5624.31
393.91	6237.53
394.10	6775.85
394.29	7342.26
394.49	7824.41
394.68	8528.91
394.88	8482.10
395.07	8915.10
395.26	8732.54
395.46	8414.23
395.65	7927.39
395.84	6771.17
396.04	5935.60
396.23	4772.35
396.42	4126.36
396.62	3943.80
396.81	4468.08
397.00	5736.65
397.19	7185.44
397.39	8491.46
397.58	9647.69
397.77	10155.58
397.97	10717.31
398.16	10487.94
398.35	11190.10
398.55	11213.51
398.74	11925.03
398.93	12154.40
399.12	11793.96
399.32	11578.63
399.51	11939.07
399.70	12475.06
399.90	12498.46
400.09	12458.67
400.28	12320.58
400.47	12482.08
400.67	13277.86
400.86	13418.29
401.05	13301.26
401.24	13041.46
401.44	13612.56
401.63	13687.45
401.82	13490.85
402.01	14015.13
402.21	13888.74
402.40	13851.29
402.59	13437.02
402.78	12868.27
402.97	12720.81
403.17	13008.70
403.36	13687.45
403.55	14195.35
403.74	14731.33
403.93	14059.60
404.13	12865.92
404.32	12463.35
404.51	13352.76
404.70	13937.89
404.89	14359.19
405.09	14087.68
405.28	13659.37
405.47	13362.12
405.66	13455.74
405.85	13135.09
406.05	12826.14
406.24	13172.54
406.43	13666.39
406.62	13961.30
406.81	14422.38
407.00	13425.31
407.20	13135.09
407.39	13617.24
407.58	14258.54
407.77	14696.22
407.96	15117.52
408.15	15342.21
408.34	15353.91
408.54	16042.03
408.73	16032.67
408.92	16130.97
409.11	15492.01
409.30	14731.33
409.49	13769.37
409.68	12858.90
409.87	12428.24
410.07	13341.05
410.26	14434.08
410.45	15269.66
410.64	15798.62
410.83	16133.31
411.02	16517.16
411.21	17282.52
411.40	16732.49
411.59	17032.08
411.78	17088.25
411.98	16819.09
412.17	17034.42
412.36	16594.40
412.55	16592.06
412.74	16491.41
412.93	16088.84
413.12	16240.98
413.31	17425.29
413.50	17781.05
413.69	18125.11
413.88	17525.93
414.07	16755.90
414.26	17429.97
414.45	17965.95
414.64	17865.31
414.83	17909.78
415.02	17439.33
415.22	17476.78
415.41	18120.43
415.60	18476.19
415.79	19630.07
415.98	19693.27
416.17	19618.37
416.36	19000.47
416.55	19009.83
416.74	18459.81
416.93	17827.86
417.12	17823.18
417.31	17975.31
417.50	18448.10
417.69	19026.21
417.88	18824.93
418.07	18745.35
418.26	18787.48
418.45	18567.47
418.64	19330.48
418.83	19510.71
419.02	19754.12
419.21	19428.79
419.39	18562.79
419.58	17373.80
419.77	18059.57
419.96	18824.93
420.15	19543.47
420.34	20180.10
420.53	20989.92
420.72	21312.92
420.91	20971.20
421.10	21067.16
421.29	20617.78
421.48	19932.00
421.67	21010.99
421.86	20093.50
422.05	19215.80
422.24	17034.42
422.43	16975.91
422.61	18932.59
422.80	20430.54
422.99	20341.60
423.18	19349.21
423.37	19070.68
423.56	19318.78
423.75	19480.28
423.94	19864.13
424.13	18693.86
424.32	18925.57
424.50	19019.19
424.69	18731.31
424.88	19063.66
425.07	18876.42
425.26	19026.21
425.45	18523.00
425.64	18078.30
425.83	18155.54
426.01	19669.86
426.20	20166.06
426.39	19606.67
426.58	18113.41
426.77	16978.25
426.96	16451.63
427.15	17188.89
427.33	18405.97
427.52	19016.85
427.71	18897.49
427.90	19117.50
428.09	18431.72
428.28	18513.64
428.46	17659.34
428.65	17453.37
428.84	17729.56
429.03	18317.03
429.22	17235.70
429.40	16243.32
429.59	14848.36
429.78	13207.64
429.97	13469.78
430.16	13404.25
430.34	13217.01
430.53	13437.02
430.72	13727.24
430.91	15178.37
431.10	17949.57
431.28	20662.25
431.47	22721.92
431.66	22476.16
431.85	20744.17
432.03	19344.53
432.22	18459.81
432.41	19314.10
432.60	21060.14
432.79	22075.93
432.97	22281.90
433.16	21837.20
433.35	20056.05
433.54	18085.32
433.72	16929.09
433.91	17458.06
434.10	19978.81
434.28	20917.37
434.47	22022.10
434.66	21797.41
434.85	21270.79
435.03	21331.64
435.22	21603.14
435.41	23157.26
435.59	23290.67
435.78	23374.93
435.97	23924.96
436.16	24175.39
436.34	23637.07
436.53	23087.04
436.72	23426.42
436.90	22024.44
437.09	21947.20
437.28	21806.77
437.46	22427.01
437.65	22043.17
437.84	20741.83
438.02	18925.57
438.21	18974.72
438.40	20114.56
438.58	21956.57
438.77	22457.44
438.96	22265.52
439.14	23381.95
439.33	24025.60
439.52	24072.41
439.70	23929.64
439.89	23288.33
440.08	22422.33
440.26	22752.35
440.45	23262.58
440.63	25046.07
440.82	26483.16
441.01	25797.38
441.19	25455.67
441.38	26230.38
441.57	27070.64
441.75	27417.04
441.94	27871.10
442.12	27049.57
442.31	27761.09
442.50	27812.59
442.68	27175.96
442.87	27145.53
443.05	26958.29
443.24	27246.18
443.43	27875.78
443.61	28002.17
443.80	28224.52
443.98	27129.15
444.17	26958.29
444.35	28327.50
444.54	28748.80
444.73	28465.60
444.91	27407.67
445.10	26235.06
445.28	25614.82
445.47	25034.37
445.65	25120.97
445.84	25993.99
446.02	26698.49
446.21	27295.33
446.39	27363.20
446.58	27669.81
446.77	27807.90
446.95	28276.01
447.14	29064.77
447.32	29563.31
447.51	28779.23
447.69	27388.95
447.88	27407.67
448.06	27913.23
448.25	28533.47
448.43	28680.92
448.62	28151.96
448.80	27700.24
448.99	27786.84
449.17	28538.15
449.36	28259.63
449.54	29404.15
449.73	30108.65
449.91	30569.74
450.10	30686.76
450.28	31456.80
450.46	31318.71
450.65	31337.43
450.83	30888.05
451.02	30110.99
451.20	30307.60
451.39	30593.14
451.57	29682.67
451.76	30314.62
451.94	29743.53
452.13	29434.58
452.31	27882.80
452.49	26520.61
452.68	27077.66
452.86	26972.33
453.05	27297.67
453.23	28442.19
453.42	29085.84
453.60	29783.32
453.78	30213.98
453.97	29469.69
454.15	29593.73
454.34	29010.94
454.52	29413.51
454.70	28821.36
454.89	29329.25
455.07	29392.45
455.26	29378.40
455.44	30682.08
455.62	31002.74
455.81	31332.75
455.99	30993.37
456.17	30803.79
456.36	31103.38
456.54	31798.52
456.73	31487.23
456.91	32233.86
457.09	32559.19
457.28	32823.67
457.46	31585.53
457.64	31398.29
457.83	30632.93
458.01	29670.97
458.19	30836.56
458.38	30756.98
458.56	31784.48
458.74	31725.96
458.93	31285.94
459.11	31091.68
459.29	30637.61
459.48	31138.49
459.66	30958.27
459.84	31356.16
460.03	31744.69
460.21	31527.02
460.39	32673.88
460.57	32414.08
460.76	32484.30
460.94	33212.20
461.12	32275.99
461.31	32058.32
461.49	32025.55
461.67	32496.00
461.85	33408.81
462.04	33041.34
462.22	33935.43
462.40	33118.58
462.59	33317.53
462.77	33497.75
462.95	33413.49
463.13	32842.40
463.32	32114.49
463.50	32577.92
463.68	32114.49
463.86	32835.38
464.05	31882.78
464.23	31585.53
464.41	31400.63
464.59	31035.50
464.78	32526.42
464.96	31983.42
465.14	31964.70
465.32	32690.26
465.50	33415.83
465.69	33727.12
465.87	32842.40
466.05	32376.63
466.23	30749.96
466.41	29818.42
466.60	31084.65
466.78	31065.93
466.96	31885.12
467.14	32163.64
467.32	32713.67
467.51	32589.62
467.69	31180.62
467.87	31594.89
468.05	32343.86
468.23	32311.10
468.41	32374.29
468.60	32463.23
468.78	32364.93
468.96	32142.58
469.14	32896.23
469.32	33233.27
469.50	31527.02
469.69	31873.42
469.87	31339.77
470.05	31077.63
470.23	31557.44
470.41	31459.14
470.59	32121.51
470.77	32161.30
470.95	32308.76
471.14	32875.16
471.32	33109.22
471.50	35068.25
471.68	35253.15
471.86	35398.26
472.04	35613.59
472.22	35718.92
472.40	33743.50
472.58	33380.72
472.77	32818.99
472.95	34120.33
473.13	34820.15
473.31	33752.87
473.49	34087.56
473.67	34672.70
473.85	34707.80
474.03	35892.12
474.21	35861.69
474.39	36423.42
474.57	36254.90
474.75	36507.68
474.93	36219.79
475.12	35522.31
475.30	35250.81
475.48	35929.56
475.66	35735.30
475.84	35714.23
476.02	35498.91
476.20	34522.90
476.38	35622.95
476.56	36378.95
476.74	37106.85
476.92	37167.71
477.10	37394.74
477.28	38707.78
477.46	39250.78
477.64	39159.50
477.82	39274.19
478.00	39253.12
478.18	39084.61
478.36	38623.52
478.54	38909.07
478.72	38822.47
478.90	40095.72
479.08	40830.65
479.26	41516.42
479.44	41453.23
479.62	41399.40
479.80	41088.10
479.98	41703.67
480.16	42052.41
480.34	41017.89
480.52	41832.39
480.70	41977.51
480.88	41720.05
481.06	42813.08
481.24	42909.04
481.41	43990.37
481.59	44657.42
481.77	43786.74
481.95	43819.51
482.13	43482.47
482.31	43543.33
482.49	44037.18
482.67	43892.07
482.85	44531.03
483.03	45202.77
483.21	45144.25
483.39	45621.72
483.57	44313.36
483.74	44526.35
483.92	44456.14
484.10	44648.06
484.28	45813.65
484.46	46064.08
484.64	46415.16
484.82	45212.13
485.00	44945.31
485.18	44299.32
485.35	42946.49
485.53	39363.13
485.71	36189.36
485.89	36100.42
486.07	38188.18
486.25	41144.28
486.43	43452.05
486.61	44282.94
486.78	44032.50
486.96	44240.81
487.14	46082.81
487.32	46974.55
487.50	47622.88
487.68	48907.83
487.85	49537.44
488.03	49043.59
488.21	48832.94
488.39	48079.28
488.57	47185.20
488.75	46988.60
488.92	48521.65
489.10	50756.86
489.28	51875.63
489.46	52652.69
489.64	52198.63
489.81	52643.33
489.99	52254.80
490.17	52451.41
490.35	52729.93
490.53	51863.93
490.70	51475.40
490.88	51866.27
491.06	52615.24
491.24	52797.80
491.41	51072.83
491.59	49174.66
491.77	49296.36
491.95	50466.63
492.13	51650.94
492.30	52945.26
492.48	53703.59
492.66	54422.14
492.84	54089.78
493.01	53649.76
493.19	53331.45
493.37	52816.53
493.54	52828.23
493.72	53490.60
493.90	54562.57
494.08	55107.91
494.25	55496.44
494.43	55693.05
494.61	56114.34
494.79	55994.98
494.96	55978.59
495.14	55189.83
495.32	54323.83
495.49	54047.65
495.67	54827.05
495.85	55978.59
496.02	56481.81
496.20	56378.82
496.38	56114.34
496.55	55676.66
496.73	56346.06
496.91	56322.65
497.09	56956.94
497.26	57265.89
497.44	56704.16
497.62	56179.88
497.79	55388.78
497.97	53944.67
498.14	54255.96
498.32	55510.49
498.50	56222.01
498.67	56959.28
498.85	56818.84
499.03	56736.93
499.20	57106.73
499.38	57078.64
499.56	57073.96
499.73	56509.89
499.91	56114.34
500.08	55620.49
500.26	55091.53
500.44	55505.80
500.61	56074.55
500.79	56013.70
500.97	55756.24
501.14	55496.44
501.32	55337.29
501.49	55344.31
501.67	55725.81
501.84	56114.34
502.02	56381.16
502.20	56762.67
502.37	56884.38
502.55	56963.96
502.72	57544.41
502.90	57661.44
503.07	57411.00
503.25	57375.89
503.43	56271.16
503.60	55643.90
503.78	55196.85
503.95	55341.97
504.13	57071.62
504.30	57567.82
504.48	57509.30
504.65	57102.05
504.83	57116.09
505.01	57883.79
505.18	58117.84
505.36	58855.11
505.53	58541.48
505.71	58887.88
505.88	59100.87
506.06	58188.06
506.23	57930.60
506.41	57776.12
506.58	58073.37
506.76	57719.95
506.93	57911.88
507.11	57628.67
507.28	57729.31
507.46	57385.25
507.63	56767.35
507.81	56385.85
507.98	56837.57
508.16	57530.37
508.33	57991.45
508.50	58363.60
508.68	58534.46
508.85	59072.78
509.03	58993.20
509.20	58789.58
509.38	58152.95
509.55	57492.92
509.73	57743.36
509.90	58230.19
510.08	58426.79
510.25	58361.26
510.42	58045.29
510.60	57965.71
510.77	58330.83
510.95	59054.06
511.12	58976.82
511.30	59117.25
511.47	59440.24
511.64	59531.53
511.82	58941.71
511.99	58377.64
512.17	58092.10
512.34	57820.59
512.51	57982.09
512.69	58017.20
512.86	58031.24
513.04	58461.90
513.21	58419.77
513.38	58134.23
513.56	57780.81
513.73	57144.18
513.90	57432.07
514.08	57518.67
514.25	57558.45
514.43	57612.29
514.60	57989.11
514.77	58265.30
514.95	58394.03
515.12	58305.09
515.29	58204.44
515.47	58588.29
515.64	58969.80
515.81	58529.78
515.99	58092.10
516.16	56603.52
516.33	54141.27
516.51	52921.85
516.68	52308.63
516.85	51805.42
517.03	52296.93
517.20	55044.72
517.37	57588.88
517.54	58265.30
517.72	57537.39
517.89	54817.69
518.06	53113.78
518.24	53820.62
518.41	55531.55
518.58	56685.43
518.75	57045.88
518.93	57202.69
519.10	57116.09
519.27	57593.56
519.45	57846.34
519.62	58562.54
519.79	58948.73
519.96	58316.79
520.14	58183.38
520.31	57284.61
520.48	57137.16
520.65	57801.87
520.83	58653.82
521.00	59000.22
521.17	58504.03
521.34	58211.46
521.52	58740.42
521.69	58932.35
521.86	59480.03
522.03	59217.89
522.20	57984.43
522.38	56781.40
522.55	57190.99
522.72	57731.65
522.89	57722.29
523.07	57968.05
523.24	58426.79
523.41	59138.32
523.58	59217.89
523.75	59711.75
523.92	59561.95
524.10	59648.55
524.27	59608.76
524.44	59419.18
524.61	59278.75
524.78	59021.29
524.96	58939.37
525.13	59014.27
525.30	59229.60
525.47	59898.99
525.64	59646.21
525.81	58838.73
525.98	57443.77
526.16	56147.11
526.33	55288.13
526.50	55082.17
526.67	54951.10
526.84	55636.87
527.01	56608.20
527.18	57495.26
527.36	58199.76
527.53	59028.31
527.70	59187.47
527.87	58798.94
528.04	58157.63
528.21	58777.87
528.38	59182.79
528.55	59894.31
528.72	60142.41
528.89	60486.46
529.07	60076.87
529.24	59491.74
529.41	58848.09
529.58	58164.65
529.75	58471.26
529.92	58588.29
530.09	59131.29
530.26	59683.66
530.43	59821.75
530.60	60053.47
530.77	59891.97
530.94	60343.69
531.11	59910.69
531.28	59374.71
531.46	59372.37
531.63	59372.37
531.80	59241.30
531.97	58782.55
532.14	58082.73
532.31	57095.03
532.48	56549.68
532.65	56685.43
532.82	57471.85
532.99	58525.10
533.16	58827.02
533.33	59330.24
533.50	59161.72
533.67	58632.76
533.84	58190.40
534.01	58534.46
534.18	58592.97
534.35	58721.70
534.52	58480.63
534.69	58897.24
534.86	59145.34
535.03	59477.69
535.20	60032.40
535.37	60303.90
535.54	60268.79
535.71	60065.17
535.88	59456.63
536.05	59004.91
536.22	58541.48
536.38	58136.57
536.55	57705.91
536.72	57331.42
536.89	57272.91
537.06	58255.93
537.23	59157.04
537.40	59215.55
537.57	59370.03
537.74	58850.43
537.91	58731.06
538.08	58915.96
538.25	59093.85
538.42	59107.89
538.59	58815.32
538.75	58347.21
538.92	58038.26
539.09	57986.77
539.26	57726.97
539.43	57759.74
539.60	57724.63
539.77	57848.68
539.94	57853.36
540.11	56980.34
540.28	56430.32
540.44	56435.00
540.61	56961.62
540.78	57216.74
540.95	57705.91
541.12	57907.19
541.29	58010.18
541.46	58440.84
541.62	58436.16
541.79	58045.29
541.96	57542.07
542.13	57909.53
542.30	58127.20
542.47	58152.95
542.63	58042.95
542.80	57769.10
542.97	57986.77
543.14	57708.25
543.31	57867.40
543.48	58314.45
543.64	59068.10
543.81	59332.58
543.98	59304.49
544.15	58625.74
544.32	58094.44
544.48	58138.91
544.65	58731.06
544.82	58848.09
544.99	58401.05
545.16	57942.30
545.32	57954.00
545.49	58733.40
545.66	59047.04
545.83	58529.78
546.00	58199.76
546.16	57876.77
546.33	58026.56
546.50	58131.89
546.67	58522.76
546.83	57984.43
547.00	58000.82
547.17	57406.32
547.34	56893.74
547.50	56870.34
547.67	57364.19
547.84	57282.27
548.00	58040.60
548.17	58295.72
548.34	58017.20
548.51	57961.03
548.67	58047.63
548.84	58265.30
549.01	58251.25
549.18	57939.96
549.34	58099.12
549.51	58014.86
549.68	57797.19
549.84	57588.88
550.01	57579.52
550.18	57616.97
550.34	57595.90
550.51	57745.70
550.68	57677.82
550.84	57230.78
551.01	57130.14
551.18	57148.86
551.34	57359.51
551.51	57876.77
551.68	58010.18
551.84	58120.18
552.01	57977.41
552.18	57570.16
552.34	56919.49
552.51	56757.99
552.68	56631.60
552.84	57193.33
553.01	57338.44
553.18	57043.54
553.34	57329.08
553.51	57528.03
553.67	57654.42
553.84	58010.18
554.01	57787.83
554.17	57511.64
554.34	57600.58
554.51	57677.82
554.67	58049.97
554.84	57886.13
555.00	57595.90
555.17	57612.29
555.33	57495.26
555.50	57275.25
555.67	57214.40
555.83	57064.60
556.00	56725.22
556.16	56844.59
556.33	56547.34
556.50	56502.87
556.66	56444.36
556.83	55959.87
556.99	56296.91
557.16	56299.25
557.32	56626.92
557.49	56994.39
557.65	57183.97
557.82	56687.78
557.98	56624.58
558.15	56072.21
558.32	55398.14
558.48	54445.54
558.65	54796.62
558.81	55302.18
558.98	55629.85
559.14	55641.56
559.31	55854.54
559.47	55655.60
559.64	55377.08
559.80	54953.44
559.97	55391.12
560.13	55646.24
560.30	56519.26
560.46	56884.38
560.63	57237.80
560.79	57340.78
560.96	56825.87
561.12	55627.51
561.29	54770.88
561.45	55128.98
561.61	55519.85
561.78	55990.30
561.94	55515.17
562.11	55950.51
562.27	55660.28
562.44	55828.80
562.60	56154.13
562.77	56273.50
562.93	56430.32
563.10	56226.69
563.26	55442.61
563.42	55569.00
563.59	55374.73
563.75	55613.47
563.92	55494.10
564.08	55758.58
564.24	55828.80
564.41	55655.60
564.57	55723.47
564.74	55702.41
564.90	55571.34
565.07	55166.43
565.23	54834.07
565.39	54494.69
565.56	54227.87
565.72	54181.06
565.88	54335.54
566.05	54429.16
566.21	54838.75
566.38	54625.76
566.54	54728.75
566.70	55306.86
566.87	55421.55
567.03	55339.63
567.19	55786.67
567.36	55327.92
567.52	55257.71
567.68	54990.89
567.85	54258.30
568.01	54255.96
568.17	53769.13
568.34	53717.64
568.50	53860.41
568.66	53996.16
568.83	53972.75
568.99	54190.42
569.15	54480.65
569.32	54475.97
569.48	54176.38
569.64	53998.50
569.81	53631.04
569.97	53579.54
570.13	53595.93
570.30	52882.06
570.46	52839.93
570.62	52023.09
570.78	51913.08
570.95	52561.41
571.11	53146.54
571.27	53183.99
571.43	53499.97
571.60	53783.17
571.76	53998.50
571.92	54405.75
572.09	54333.20
572.25	54302.77
572.41	54485.33
572.57	54078.08
572.74	54286.39
572.90	53879.13
573.06	53888.49
573.22	53869.77
573.38	53474.22
573.55	53418.05
573.71	53956.37
573.87	53682.53
574.03	53233.14
574.20	53879.13
574.36	53265.91
574.52	53139.52
574.68	53017.82
574.84	52477.15
575.01	52383.53
575.17	52294.59
575.33	52547.37
575.49	52743.97
575.65	52804.83
575.82	52671.42
575.98	52376.51
576.14	52706.52
576.30	52889.09
576.46	52910.15
576.62	52528.64
576.79	52896.11
576.95	52694.82
577.11	52648.01
577.27	52535.66
577.43	52673.76
577.59	51941.17
577.75	51817.12
577.92	50997.93
578.08	50983.89
578.24	51004.95
578.40	51557.32
578.56	51405.19
578.72	51583.07
578.88	51866.27
579.04	52116.71
579.21	52177.56
579.37	52172.88
579.53	52467.79
579.69	52491.19
579.85	52149.48
580.01	52116.71
580.17	51381.78
580.33	51662.64
580.49	51559.66
580.65	52034.79
580.82	52112.03
580.98	52268.84
581.14	51936.49
581.30	52126.07
581.46	52135.43
581.62	52179.90
581.78	52116.71
581.94	52224.37
582.10	52671.42
582.26	52669.08
582.42	52495.88
582.58	52495.88
582.74	52273.52
582.90	52589.50
583.06	52273.52
583.22	51756.27
583.38	51985.64
583.54	52191.61
583.70	52116.71
583.86	52200.97
584.02	51774.99
584.18	52102.67
584.34	52006.70
584.50	51625.20
584.66	51704.77
584.82	51241.35
584.98	51093.89
585.14	50663.24
585.30	50417.48
