SpectraSuite Data File
++++++++++++++++++++++++++++++++++++
Date: Mon Oct 07 14:53:53 GMT-05:00 2013
User: price-jones
Dark Spectrum Present: No
Reference Spectrum Present: No
Number of Sampled Component Spectra: 1
Spectrometers: USB2+H05261
Integration Time (usec): 100000 (USB2+H05261)
Spectra Averaged: 1 (USB2+H05261)
Boxcar Smoothing: 0 (USB2+H05261)
Correct for Electrical Dark: No (USB2+H05261)
Strobe/Lamp Enabled: No (USB2+H05261)
Correct for Detector Non-linearity: No (USB2+H05261)
Correct for Stray Light: No (USB2+H05261)
Number of Pixels in Processed Spectrum: 2048
>>>>>Begin Processed Spectral Data<<<<<
365.73	0.00
365.92	0.00
366.12	0.00
366.32	0.00
366.52	0.00
366.72	0.00
366.91	0.00
367.11	0.00
367.31	0.00
367.51	0.00
367.70	0.00
367.90	0.00
368.10	0.00
368.30	0.00
368.49	0.00
368.69	0.00
368.89	0.00
369.09	0.00
369.28	0.00
369.48	0.00
369.68	0.00
369.87	0.00
370.07	0.00
370.27	0.00
370.47	524.28
370.66	2656.51
370.86	3136.32
371.06	3499.10
371.25	3606.77
371.45	3243.98
371.65	2867.16
371.84	2703.32
372.04	2871.84
372.24	3206.53
372.44	3307.18
372.63	3314.20
372.83	3047.38
373.03	2668.21
373.22	2586.29
373.42	2567.57
373.62	2906.95
373.81	3267.39
374.01	3342.28
374.21	2956.10
374.40	2642.46
374.60	2750.13
374.79	3150.36
374.99	3691.02
375.19	3885.29
375.38	4058.49
375.58	3847.84
375.78	3742.52
375.97	3847.84
376.17	3908.69
376.37	3918.06
376.56	4278.50
376.76	4339.35
376.95	4519.57
377.15	4873.00
377.35	4973.64
377.54	5305.99
377.74	5380.89
377.93	5425.36
378.13	5163.22
378.33	5090.67
378.52	4713.84
378.72	4587.45
378.91	4386.16
379.11	4222.33
379.31	4159.13
379.50	4021.04
379.70	4442.34
379.89	4880.02
380.09	5067.26
380.28	5547.07
380.48	5317.70
380.68	5261.52
380.87	5001.72
381.07	4781.71
381.26	4229.35
381.46	4072.53
381.65	3889.97
381.85	3796.35
382.04	3634.85
382.24	3222.92
382.43	3304.84
382.63	3267.39
382.83	3222.92
383.02	3241.64
383.22	3265.05
383.41	3164.40
383.61	3480.38
383.80	3887.63
384.00	4283.18
384.19	5025.13
384.39	5224.08
384.58	5057.90
384.78	5121.09
384.97	5004.07
385.17	4767.67
385.36	4716.18
385.56	4521.92
385.75	4550.00
385.95	4954.91
386.14	5373.87
386.34	5458.13
386.53	5188.97
386.72	4947.89
386.92	4912.78
387.11	5226.42
387.31	5320.04
387.50	5343.44
387.70	4947.89
387.89	5200.67
388.09	5055.56
388.28	5025.13
388.48	5308.34
388.67	5593.88
388.86	6239.87
389.06	6417.75
389.25	6923.30
389.45	6963.09
389.64	6820.32
389.84	6923.30
390.03	6726.70
390.22	6792.23
390.42	6843.73
390.61	7403.11
390.81	7864.20
391.00	8051.44
391.19	8116.98
391.39	7777.60
391.58	7398.43
391.78	7148.00
391.97	6801.60
392.16	6310.08
392.36	5692.18
392.55	4624.90
392.75	3531.87
392.94	2925.67
393.13	2829.71
393.33	3524.85
393.52	4519.57
393.71	5528.35
393.91	6186.04
394.10	6471.58
394.29	7382.05
394.49	7749.51
394.68	8470.40
394.88	8404.86
395.07	8674.03
395.26	8854.25
395.46	8454.02
395.65	7941.44
395.84	7070.76
396.04	5968.37
396.23	4610.86
396.42	4070.19
396.62	3791.67
396.81	4440.00
397.00	5710.91
397.19	7328.22
397.39	8650.62
397.58	9666.41
397.77	10211.76
397.97	10516.03
398.16	10525.39
398.35	11122.23
398.55	11480.33
398.74	11667.57
398.93	12030.35
399.12	11737.79
399.32	11419.47
399.51	11676.93
399.70	12603.78
399.90	12128.66
400.09	12538.25
400.28	12329.94
400.47	12428.24
400.67	13006.36
400.86	13406.59
401.05	13193.60
401.24	13537.66
401.44	13877.04
401.63	13893.42
401.82	13692.13
402.01	13507.23
402.21	14047.90
402.40	13802.14
402.59	13226.37
402.78	12929.12
402.97	12589.74
403.17	12849.54
403.36	13820.86
403.55	14185.99
403.74	14679.84
403.93	13809.16
404.13	12727.83
404.32	12379.09
404.51	13128.06
404.70	14466.85
404.89	14338.12
405.09	14022.15
405.28	13614.90
405.47	13399.57
405.66	13591.49
405.85	13060.19
406.05	12692.73
406.24	12760.60
406.43	13549.36
406.62	13877.04
406.81	14277.27
407.00	13551.70
407.20	13504.89
407.39	13422.97
407.58	14031.51
407.77	14530.05
407.96	15035.60
408.15	15267.31
408.34	15222.84
408.54	16194.17
408.73	16128.63
408.92	15723.72
409.11	15351.57
409.30	14661.12
409.49	13905.12
409.68	12805.07
409.87	12657.62
410.07	13043.81
410.26	14253.86
410.45	15321.15
410.64	15477.96
410.83	16105.23
411.02	16404.81
411.21	17102.29
411.40	16840.15
411.59	17025.06
411.78	16788.66
411.98	16435.24
412.17	16924.41
412.36	16360.34
412.55	16545.25
412.74	16175.44
412.93	15665.21
413.12	15981.18
413.31	17404.22
413.50	17703.81
413.69	17919.14
413.88	17467.42
414.07	16718.45
414.26	17200.60
414.45	17593.81
414.64	17783.39
414.83	17846.58
415.02	17390.18
415.22	17174.85
415.41	17930.84
415.60	18228.09
415.79	19082.39
415.98	19482.62
416.17	19477.94
416.36	19016.85
416.55	18932.59
416.74	18045.53
416.93	17612.53
417.12	17451.03
417.31	17682.75
417.50	17692.11
417.69	18707.90
417.88	18625.98
418.07	18471.51
418.26	18284.26
418.45	18314.69
418.64	18696.20
418.83	19515.39
419.02	19154.94
419.21	19295.38
419.39	18209.37
419.58	17427.63
419.77	17811.48
419.96	18370.86
420.15	19239.20
420.34	19716.67
420.53	20409.47
420.72	20886.94
420.91	20816.72
421.10	20311.17
421.29	19906.26
421.48	19573.90
421.67	20755.87
421.86	20119.24
422.05	18757.05
422.24	16692.70
422.43	16552.27
422.61	18113.41
422.80	19789.23
422.99	19995.20
423.18	19030.90
423.37	18925.57
423.56	18813.23
423.75	19110.47
423.94	19424.11
424.13	18171.92
424.32	18717.26
424.50	18513.64
424.69	18457.46
424.88	18520.66
425.07	18415.34
425.26	18476.19
425.45	18265.54
425.64	17895.74
425.83	18068.94
426.01	18801.52
426.20	19421.77
426.39	19281.33
426.58	17551.68
426.77	16589.72
426.96	15625.42
427.15	16383.75
427.33	17769.35
427.52	18527.68
427.71	18855.36
427.90	17980.00
428.09	18541.72
428.28	17916.80
428.46	17209.96
428.65	17083.57
428.84	17338.69
429.03	17785.73
429.22	16624.83
429.40	16046.71
429.59	14303.01
429.78	12531.23
429.97	12617.83
430.16	13221.69
430.34	13057.85
430.53	12800.39
430.72	13177.22
430.91	14771.12
431.10	17334.01
431.28	20212.87
431.47	22008.06
431.66	22190.62
431.85	20102.86
432.03	18586.19
432.22	17858.29
432.41	18607.26
432.60	20634.16
432.79	21296.53
432.97	21696.77
433.16	21322.28
433.35	19620.71
433.54	17872.33
433.72	16264.38
433.91	17055.48
434.10	18611.94
434.28	20313.51
434.47	21214.62
434.66	21303.56
434.85	20566.29
435.03	20470.33
435.22	21036.74
435.41	22270.20
435.59	22506.59
435.78	22632.98
435.97	23417.06
436.16	23466.21
436.34	23161.94
436.53	22284.24
436.72	22600.21
436.90	21329.30
437.09	21537.61
437.28	20891.62
437.46	21659.32
437.65	21439.31
437.84	20365.00
438.02	18527.68
438.21	18302.99
438.40	19264.95
438.58	20994.61
438.77	21301.22
438.96	22064.23
439.14	22824.90
439.33	23384.29
439.52	23522.38
439.70	23288.33
439.89	22267.86
440.08	22111.04
440.26	21783.37
440.45	22647.02
440.63	23929.64
440.82	25188.85
441.01	25123.31
441.19	24631.80
441.38	25174.80
441.57	25893.35
441.75	26522.95
441.94	26319.32
442.12	26288.90
442.31	26838.92
442.50	26895.10
442.68	26288.90
442.87	26047.82
443.05	25731.85
443.24	26256.13
443.43	26560.40
443.61	27644.07
443.80	27562.15
443.98	25736.53
444.17	25921.43
444.35	27318.73
444.54	27971.74
444.73	27566.83
444.91	26551.04
445.10	25523.54
445.28	24369.66
445.47	24065.39
445.65	24084.11
445.84	24898.62
446.02	25415.88
446.21	26026.76
446.39	26331.03
446.58	26670.40
446.77	26852.97
446.95	27173.62
447.14	27681.52
447.32	28114.52
447.51	27562.15
447.69	26850.63
447.88	26426.99
448.06	26457.42
448.25	27283.62
448.43	27623.00
448.62	26967.65
448.80	26899.78
448.99	26761.69
449.17	27381.93
449.36	27288.31
449.54	28325.16
449.73	28428.15
449.91	28683.27
450.10	29790.34
450.28	29900.34
450.46	29750.55
450.65	30295.89
450.83	30050.14
451.02	28940.72
451.20	28706.67
451.39	28840.08
451.57	28645.82
451.76	28648.16
451.94	28687.95
452.13	28084.09
452.31	26843.60
452.49	25343.32
452.68	25951.86
452.86	26157.83
453.05	26225.70
453.23	26981.70
453.42	27634.71
453.60	28465.60
453.78	28362.61
453.97	28070.04
454.15	28353.25
454.34	27569.17
454.52	27817.27
454.70	27105.74
454.89	27498.95
455.07	27702.58
455.26	28231.54
455.44	29233.29
455.62	29720.12
455.81	29944.81
455.99	29738.85
456.17	29036.69
456.36	29247.33
456.54	29996.31
456.73	30017.37
456.91	30469.09
457.09	30752.30
457.28	31173.60
457.46	30045.46
457.64	29649.91
457.83	28903.28
458.01	28147.28
458.19	28786.25
458.38	29092.86
458.56	30476.12
458.74	30253.76
458.93	29666.29
459.11	29689.70
459.29	29228.61
459.48	29525.86
459.66	29450.96
459.84	29745.87
460.03	29963.54
460.21	29514.16
460.39	30623.57
460.57	30721.87
460.76	30969.97
460.94	31072.95
461.12	30817.83
461.31	30726.55
461.49	30642.29
461.67	30710.17
461.85	31971.72
462.04	31566.81
462.22	31590.21
462.40	31594.89
462.59	31346.79
462.77	31440.42
462.95	31793.84
463.13	31356.16
463.32	30710.17
463.50	30497.18
463.68	30632.93
463.86	30845.92
464.05	30057.16
464.23	29900.34
464.41	29331.59
464.59	28893.91
464.78	30878.69
464.96	30691.44
465.14	30122.69
465.32	30754.64
465.50	31559.78
465.69	31761.07
465.87	31255.51
466.05	30075.88
466.23	29027.32
466.41	28353.25
466.60	28968.81
466.78	29413.51
466.96	29586.71
467.14	30183.55
467.32	30635.27
467.51	30698.47
467.69	29322.23
467.87	30096.95
468.05	30342.70
468.23	29825.45
468.41	30136.74
468.60	30831.88
468.78	30398.88
468.96	30195.25
469.14	30808.47
469.32	31248.49
469.50	29692.04
469.69	30129.72
469.87	29663.95
470.05	29556.28
470.23	29324.57
470.41	29605.44
470.59	30188.23
470.77	30265.47
470.95	30618.89
471.14	31140.83
471.32	31061.25
471.50	32989.85
471.68	32875.16
471.86	32730.05
472.04	33500.09
472.22	33214.54
472.40	31627.66
472.58	31220.41
472.77	31168.91
472.95	31562.12
473.13	32170.66
473.31	31587.87
473.49	31594.89
473.67	32168.32
473.85	32687.92
474.03	33701.37
474.21	33638.18
474.39	33830.10
474.57	34038.41
474.75	34270.12
474.93	33612.43
475.12	33263.69
475.30	32809.63
475.48	33043.68
475.66	33720.10
475.84	33701.37
476.02	32802.61
476.20	32790.91
476.38	33207.52
476.56	34293.53
476.74	34527.58
476.92	35246.13
477.10	35129.10
477.28	36154.26
477.46	35936.59
477.64	36741.73
477.82	36818.97
478.00	36935.99
478.18	36603.64
478.36	36046.59
478.54	36177.66
478.72	36449.16
478.90	37048.34
479.08	38366.06
479.26	38759.27
479.44	38820.13
479.62	38707.78
479.80	38415.21
479.98	38913.75
480.16	38747.57
480.34	38394.15
480.52	38651.61
480.70	39311.64
480.88	39140.78
481.06	39807.83
481.24	40102.74
481.41	41130.23
481.59	41794.95
481.77	41518.76
481.95	40823.62
482.13	40535.74
482.31	40378.92
482.49	41249.60
482.67	40870.43
482.85	41682.60
483.03	41720.05
483.21	42279.44
483.39	41979.85
483.57	41764.52
483.74	40903.20
483.92	41666.22
484.10	41867.50
484.28	42651.58
484.46	43021.39
484.64	43707.16
484.82	42300.50
485.00	42052.41
485.18	41284.71
485.35	40254.87
485.53	37371.33
485.71	33846.49
485.89	33205.18
486.07	35023.78
486.25	38471.39
486.43	40718.30
486.61	41083.42
486.78	41130.23
486.96	41570.25
487.14	42698.39
487.32	44083.99
487.50	44669.12
487.68	45794.92
487.85	46791.99
488.03	46340.27
488.21	45766.84
488.39	44854.03
488.57	44474.86
488.75	44280.60
488.92	45137.23
489.10	47590.11
489.28	49226.15
489.46	49935.33
489.64	49804.26
489.81	49907.24
489.99	49481.27
490.17	49230.83
490.35	49954.05
490.53	49504.67
490.70	49165.29
490.88	49022.52
491.06	50213.85
491.24	50302.79
491.41	49172.31
491.59	47129.03
491.77	45834.71
491.95	47405.21
492.13	48952.30
492.30	50003.20
492.48	50667.92
492.66	51828.82
492.84	51526.89
493.01	51468.38
493.19	50721.75
493.37	50471.31
493.54	50199.81
493.72	50866.86
493.90	51943.51
494.08	52755.68
494.25	52968.66
494.43	53329.11
494.61	53757.42
494.79	53427.41
494.96	53488.26
495.14	52776.74
495.32	51737.54
495.49	50892.61
495.67	52149.48
495.85	53715.29
496.02	54361.28
496.20	54068.72
496.38	53303.36
496.55	53284.64
496.73	53815.94
496.91	54003.18
497.09	54752.15
497.26	55283.45
497.44	54253.62
497.62	53682.53
497.79	53062.29
497.97	51318.59
498.14	51580.73
498.32	53144.20
498.50	53881.47
498.67	54412.77
498.85	54267.66
499.03	54480.65
499.20	54611.72
499.38	54780.24
499.56	54501.71
499.73	53996.16
499.91	53537.41
500.08	53242.51
500.26	52451.41
500.44	52917.17
500.61	53595.93
500.79	53357.19
500.97	52933.56
501.14	52741.63
501.32	52800.15
501.49	52746.31
501.67	52903.13
501.84	53581.88
502.02	53741.04
502.20	54078.08
502.37	54171.70
502.55	54354.26
502.72	54857.48
502.90	55421.55
503.07	54960.46
503.25	54843.43
503.43	53834.66
503.60	52933.56
503.78	51987.98
503.95	52802.49
504.13	54511.08
504.30	55154.72
504.48	55011.95
504.65	54653.85
504.83	54663.21
505.01	55281.11
505.18	55604.11
505.36	56367.12
505.53	56350.74
505.71	56442.02
505.88	56605.86
506.06	55931.78
506.23	55566.66
506.41	55138.34
506.58	55269.41
506.76	55405.16
506.93	55271.75
507.11	55098.55
507.28	54976.84
507.46	54857.48
507.63	54335.54
507.81	53837.00
507.98	54344.90
508.16	54920.67
508.33	55632.19
508.50	55880.29
508.68	56226.69
508.85	56790.76
509.03	56683.09
509.20	56334.35
509.38	55763.26
509.55	55023.65
509.73	55028.34
509.90	55711.77
510.08	55978.59
510.25	55889.65
510.42	55657.94
510.60	55246.00
510.77	55927.10
510.95	56292.22
511.12	56313.29
511.30	56718.20
511.47	56978.00
511.64	57052.90
511.82	56774.37
511.99	55765.60
512.17	55498.78
512.34	54841.09
512.51	55381.76
512.69	55325.58
512.86	55667.30
513.04	55992.64
513.21	56032.42
513.38	55519.85
513.56	54873.86
513.73	54377.67
513.90	54642.15
514.08	54717.04
514.25	54934.71
514.43	55309.20
514.60	55384.10
514.77	55557.30
514.95	55547.93
515.12	55248.35
515.29	55599.43
515.47	56264.14
515.64	56449.04
515.81	56172.86
515.99	55566.66
516.16	53986.80
516.33	51131.34
516.51	49525.74
516.68	48549.73
516.85	48502.92
517.03	48509.94
517.20	51798.40
517.37	54703.00
517.54	55498.78
517.72	55021.31
517.89	52250.12
518.06	49572.55
518.24	49752.77
518.41	52383.53
518.58	54131.91
518.75	54291.07
518.93	54466.61
519.10	54272.34
519.27	54749.81
519.45	54953.44
519.62	55566.66
519.79	56011.36
519.96	55999.66
520.14	55449.63
520.31	54536.82
520.48	54520.44
520.65	54923.01
520.83	55718.79
521.00	56233.71
521.17	56027.74
521.34	55358.35
521.52	55866.25
521.69	56310.95
521.86	56905.44
522.03	56364.78
522.20	55201.53
522.38	54120.21
522.55	54160.00
522.72	54798.96
522.89	54951.10
523.07	55180.47
523.24	55566.66
523.41	56566.07
523.58	56739.27
523.75	57172.27
523.92	56896.08
524.10	56940.55
524.27	57008.43
524.44	56704.16
524.61	56535.64
524.78	56392.87
524.96	56301.59
525.13	56402.23
525.30	56432.66
525.47	57146.52
525.64	56959.28
525.81	56376.48
525.98	54609.38
526.16	52926.53
526.33	52245.44
526.50	51934.15
526.67	51463.70
526.84	52266.50
527.01	53329.11
527.18	54454.90
527.36	55138.34
527.53	56184.56
527.70	56355.42
527.87	55852.20
528.04	55412.18
528.21	55875.61
528.38	56601.18
528.55	57244.82
528.72	57357.17
528.89	57542.07
529.07	57317.38
529.24	56697.14
529.41	55945.83
529.58	55210.90
529.75	55480.06
529.92	55725.81
530.09	56355.42
530.26	56884.38
530.43	56980.34
530.60	56973.32
530.77	57326.74
530.94	57406.32
531.11	56985.02
531.28	56800.12
531.46	56528.62
531.63	56423.29
531.80	56397.55
531.97	55847.52
532.14	55241.32
532.31	54094.46
532.48	53279.96
532.65	53254.21
532.82	54375.33
532.99	55660.28
533.16	55896.67
533.33	56390.53
533.50	55922.42
533.67	55536.23
533.84	55194.51
534.01	55426.23
534.18	55824.12
534.35	55735.18
534.52	55606.45
534.69	55901.36
534.86	56385.85
535.03	56505.21
535.20	56816.50
535.37	57359.51
535.54	57146.52
535.71	57120.77
535.88	56643.30
536.05	56079.24
536.22	55650.92
536.38	55049.40
536.55	54740.45
536.72	54394.05
536.89	53848.71
537.06	54784.92
537.23	55957.53
537.40	56044.13
537.57	56271.16
537.74	55845.18
537.91	55952.85
538.08	55597.09
538.25	55906.04
538.42	56128.39
538.59	55882.63
538.75	55206.22
538.92	55007.27
539.09	54777.90
539.26	54597.68
539.43	54504.06
539.60	54588.31
539.77	54700.66
539.94	54644.49
540.11	53614.65
540.28	52961.64
540.44	53165.27
540.61	53518.69
540.78	54035.95
540.95	54351.92
541.12	54932.37
541.29	55208.56
541.46	55348.99
541.62	55224.94
541.79	55295.16
541.96	54623.42
542.13	54557.89
542.30	54747.47
542.47	54948.76
542.63	54646.83
542.80	54429.16
542.97	54681.94
543.14	54312.13
543.31	54607.04
543.48	54901.95
543.64	55887.31
543.81	56074.55
543.98	55994.98
544.15	55330.26
544.32	54557.89
544.48	54710.02
544.65	55199.19
544.82	55695.39
544.99	54927.69
545.16	54946.42
545.32	54710.02
545.49	55508.14
545.66	55859.23
545.83	55639.22
546.00	55241.32
546.16	54590.66
546.33	54703.00
546.50	54508.74
546.67	55278.77
546.83	54569.59
547.00	54871.52
547.17	54150.63
547.34	53361.87
547.50	53268.25
547.67	53829.98
547.84	53808.92
548.00	54258.30
548.17	54934.71
548.34	54820.03
548.51	54733.43
548.67	54597.68
548.84	54927.69
549.01	54471.29
549.18	54635.13
549.34	54588.31
549.51	54803.64
549.68	54532.14
549.84	54272.34
550.01	53996.16
550.18	54049.99
550.34	54284.04
550.51	54197.44
550.68	54347.24
550.84	53549.12
551.01	53631.04
551.18	53794.87
551.34	54185.74
551.51	54436.18
551.68	54728.75
551.84	54686.62
552.01	54585.97
552.18	54555.55
552.34	53727.00
552.51	53111.44
552.68	52870.36
552.84	53712.95
553.01	53773.81
553.18	53715.29
553.34	53705.93
553.51	54176.38
553.67	54255.96
553.84	54160.00
554.01	54279.36
554.17	53745.72
554.34	54248.94
554.51	54349.58
554.67	54457.24
554.84	54110.85
555.00	54010.20
555.17	53609.97
555.33	53890.83
555.50	53712.95
555.67	53579.54
555.83	53329.11
556.00	53153.57
556.16	53158.25
556.33	52828.23
556.50	52360.12
556.66	52449.06
556.83	52236.08
556.99	52582.48
557.16	52474.81
557.32	53116.12
557.49	53251.87
557.65	53029.52
557.82	53088.03
557.98	52685.46
558.15	52369.49
558.32	51360.72
558.48	50602.38
558.65	50450.25
558.81	51402.85
558.98	51494.13
559.14	51716.48
559.31	51899.04
559.47	51480.08
559.64	51491.79
559.80	50848.14
559.97	50993.25
560.13	51482.42
560.30	52851.64
560.46	53153.57
560.63	53675.51
560.79	53556.14
560.96	53029.52
561.12	51819.46
561.29	50717.07
561.45	50749.84
561.61	51529.23
561.78	52186.92
561.94	51847.55
562.11	51311.56
562.27	51327.95
562.44	51601.79
562.60	52076.92
562.77	52538.01
562.93	52182.24
563.10	52215.01
563.26	51498.81
563.42	51672.01
563.59	51208.58
563.75	51171.13
563.92	51241.35
564.08	51217.94
564.24	51683.71
564.41	51899.04
564.57	51501.15
564.74	51405.19
564.90	51426.25
565.07	51208.58
565.23	50625.79
565.39	50047.68
565.56	49455.52
565.72	49237.85
565.88	49874.48
566.05	50206.83
566.21	50270.03
566.38	50609.40
566.54	50752.18
566.70	51140.71
566.87	51133.68
567.03	51503.49
567.19	51323.27
567.36	50960.48
567.52	50763.88
567.68	50611.74
567.85	50171.72
568.01	49701.28
568.17	49212.10
568.34	49193.38
568.50	49237.85
568.66	49097.42
568.83	49469.56
568.99	49638.08
569.15	49893.20
569.32	49727.02
569.48	49272.96
569.64	49198.06
569.81	48956.99
569.97	48846.98
570.13	48699.53
570.30	48109.71
570.46	47526.92
570.62	47477.77
570.78	46621.13
570.95	47409.89
571.11	48196.31
571.27	48053.54
571.43	48741.66
571.60	49006.14
571.76	49177.00
571.92	49251.89
572.09	49511.69
572.25	49825.32
572.41	49418.07
572.57	49034.22
572.74	49560.84
572.90	48851.66
573.06	48797.83
573.22	48879.75
573.38	49235.51
573.55	49315.09
573.71	48842.30
573.87	49177.00
574.03	48528.67
574.20	48994.43
574.36	48519.31
574.52	48388.24
574.68	48030.13
574.84	47482.45
575.01	46789.65
575.17	47061.15
575.33	47203.92
575.49	47377.12
575.65	47416.91
575.82	47306.91
575.98	47452.02
576.14	47725.86
576.30	47763.31
576.46	48053.54
576.62	48009.07
576.79	47828.85
576.95	47622.88
577.11	47136.05
577.27	47608.84
577.43	47573.73
577.59	47210.95
577.75	46581.34
577.92	45769.18
578.08	45177.02
578.24	45610.02
578.40	45968.12
578.56	46679.64
578.72	46028.98
578.88	46761.56
579.04	46925.40
579.21	46660.92
579.37	47054.13
579.53	46930.08
579.69	47255.42
579.85	47288.18
580.01	46639.86
580.17	46377.72
580.33	46330.90
580.49	46251.33
580.65	46852.84
580.82	46958.17
580.98	46820.08
581.14	46389.42
581.30	46918.38
581.46	46433.89
581.62	47206.26
581.78	46925.40
581.94	47119.66
582.10	47367.76
582.26	46810.71
582.42	47199.24
582.58	47372.44
582.74	47035.41
582.90	47009.66
583.06	47164.14
583.22	46878.59
583.38	46595.38
583.54	46614.11
583.70	46756.88
583.86	46892.63
584.02	46918.38
584.18	46391.76
584.34	46211.54
584.50	46146.00
584.66	45900.25
584.82	45783.22
584.98	45815.99
585.14	45184.04
585.30	44091.01
