SpectraSuite Data File
++++++++++++++++++++++++++++++++++++
Date: Mon Oct 07 14:53:54 GMT-05:00 2013
User: price-jones
Dark Spectrum Present: No
Reference Spectrum Present: No
Number of Sampled Component Spectra: 1
Spectrometers: USB2+H05261
Integration Time (usec): 100000 (USB2+H05261)
Spectra Averaged: 1 (USB2+H05261)
Boxcar Smoothing: 0 (USB2+H05261)
Correct for Electrical Dark: No (USB2+H05261)
Strobe/Lamp Enabled: No (USB2+H05261)
Correct for Detector Non-linearity: No (USB2+H05261)
Correct for Stray Light: No (USB2+H05261)
Number of Pixels in Processed Spectrum: 2048
>>>>>Begin Processed Spectral Data<<<<<
365.73	0.00
365.92	0.00
366.12	0.00
366.32	0.00
366.52	0.00
366.72	0.00
366.91	0.00
367.11	0.00
367.31	0.00
367.51	0.00
367.70	0.00
367.90	0.00
368.10	0.00
368.30	0.00
368.49	0.00
368.69	0.00
368.89	0.00
369.09	0.00
369.28	0.00
369.48	0.00
369.68	0.00
369.87	0.00
370.07	0.00
370.27	0.00
370.47	568.75
370.66	3150.36
370.86	3648.90
371.06	3913.38
371.25	4091.26
371.45	3679.32
371.65	3108.23
371.84	3007.59
372.04	3248.66
372.24	3499.10
372.44	3747.20
372.63	3676.98
372.83	3377.39
373.03	3038.02
373.22	2733.75
373.42	2857.79
373.62	3342.28
373.81	3562.30
374.01	3733.15
374.21	3204.19
374.40	3087.17
374.60	3290.79
374.79	3630.17
374.99	4114.66
375.19	4475.10
375.38	4564.04
375.58	4283.18
375.78	4276.16
375.97	4124.02
376.17	4348.72
376.37	4308.93
376.56	4692.77
376.76	4657.67
376.95	5062.58
377.15	5387.91
377.35	5675.80
377.54	5746.02
377.74	5970.71
377.93	5853.68
378.13	5865.38
378.33	5516.64
378.52	5191.31
378.72	4856.61
378.91	4821.50
379.11	4809.80
379.31	4664.69
379.50	4566.39
379.70	4947.89
379.89	5455.79
380.09	5664.10
380.28	5879.43
380.48	6087.73
380.68	5734.31
380.87	5624.31
381.07	5380.89
381.26	4875.34
381.46	4624.90
381.65	4404.89
381.85	4297.22
382.04	4032.74
382.24	3826.78
382.43	3742.52
382.63	3590.38
382.83	3569.32
383.02	3426.54
383.22	3536.55
383.41	3559.95
383.61	3836.14
383.80	4311.27
384.00	4959.60
384.19	5575.16
384.39	5846.66
384.58	5727.29
384.78	5827.93
384.97	5778.78
385.17	5383.23
385.36	5062.58
385.56	4943.21
385.75	5165.56
385.95	5460.47
386.14	6036.24
386.34	6171.99
386.53	5837.30
386.72	5348.12
386.92	5507.28
387.11	5650.05
387.31	5982.41
387.50	5863.04
387.70	5755.38
387.89	5612.60
388.09	5738.99
388.28	5797.51
388.48	5830.27
388.67	6195.40
388.86	6993.52
389.06	7318.86
389.25	7744.83
389.45	7892.29
389.64	7686.32
389.84	7599.72
390.03	7573.97
390.22	7520.14
390.42	7918.03
390.61	8362.73
390.81	8599.13
391.00	9046.17
391.19	8908.08
391.39	8587.43
391.58	8028.04
391.78	7660.57
391.97	7653.55
392.16	6958.41
392.36	6216.46
392.55	4992.36
392.75	4070.19
392.94	3332.92
393.13	3337.60
393.33	3740.18
393.52	4933.85
393.71	6036.24
393.91	6902.24
394.10	7283.75
394.29	8058.46
394.49	8833.18
394.68	9469.81
394.88	9427.68
395.07	9884.08
395.26	9863.02
395.46	9338.74
395.65	8730.20
395.84	7735.47
396.04	6649.46
396.23	5165.56
396.42	4355.74
396.62	4266.80
396.81	4919.81
397.00	6333.49
397.19	8023.36
397.39	9355.12
397.58	10588.58
397.77	11419.47
397.97	11529.48
398.16	12079.50
398.35	12313.56
398.55	12713.79
398.74	13043.81
398.93	13462.76
399.12	13245.09
399.32	12919.76
399.51	13153.81
399.70	14038.53
399.90	14019.81
400.09	13841.93
400.28	13659.37
400.47	14010.45
400.67	14487.92
400.86	14927.94
401.05	14635.37
401.24	14941.98
401.44	15145.61
401.63	15510.73
401.82	15255.61
402.01	15349.23
402.21	15328.17
402.40	15503.71
402.59	15033.26
402.78	14675.16
402.97	14005.77
403.17	14457.49
403.36	15379.66
403.55	15789.25
403.74	16077.14
403.93	15433.49
404.13	14312.38
404.32	13748.31
404.51	14464.51
404.70	15805.64
404.89	15637.12
405.09	15386.68
405.28	14944.32
405.47	14949.00
405.66	14937.30
405.85	14541.75
406.05	14059.60
406.24	14396.64
406.43	15066.03
406.62	15587.97
406.81	15557.54
407.00	14874.10
407.20	14731.33
407.39	14867.08
407.58	15569.24
407.77	16180.12
407.96	16631.85
408.15	16877.60
408.34	16863.56
408.54	17575.08
408.73	17902.76
408.92	17479.12
409.11	16879.94
409.30	16049.05
409.49	14993.47
409.68	14211.73
409.87	13853.63
410.07	14736.01
410.26	15672.23
410.45	16929.09
410.64	16980.59
410.83	17605.51
411.02	18539.38
411.21	18726.63
411.40	18616.62
411.59	18579.17
411.78	18555.77
411.98	18541.72
412.17	18544.06
412.36	18380.23
412.55	18473.85
412.74	17984.68
412.93	17266.13
413.12	17666.36
413.31	19396.02
413.50	19206.44
413.69	19924.98
413.88	19204.10
414.07	18565.13
414.26	18787.48
414.45	19386.66
414.64	19513.05
414.83	19655.82
415.02	19227.50
415.22	19101.11
415.41	19903.92
415.60	20367.34
415.79	21504.84
415.98	21551.65
416.17	21418.24
416.36	21048.44
416.55	20554.58
416.74	20086.48
416.93	19311.76
417.12	19426.45
417.31	19580.92
417.50	19985.83
417.69	20718.42
417.88	20692.68
418.07	20311.17
418.26	20140.31
418.45	20393.09
418.64	20872.90
418.83	21546.97
419.02	21256.75
419.21	21331.64
419.39	20140.31
419.58	19098.77
419.77	19316.44
419.96	20271.38
420.15	21039.08
420.34	22040.82
420.53	22719.58
420.72	23044.91
420.91	22803.84
421.10	22761.71
421.29	22071.25
421.48	21399.52
421.67	22375.52
421.86	22202.32
422.05	20805.02
422.24	18675.13
422.43	18314.69
422.61	20074.77
422.80	22148.49
422.99	22038.48
423.18	21193.55
423.37	20938.43
423.56	20872.90
423.75	21277.81
423.94	21532.93
424.13	20587.35
424.32	20786.30
424.50	20545.22
424.69	20278.40
424.88	20446.92
425.07	20367.34
425.26	20161.37
425.45	20255.00
425.64	19601.99
425.83	19627.73
426.01	20936.09
426.20	21385.47
426.39	21252.06
426.58	19817.32
426.77	18424.70
426.96	17586.79
427.15	17996.38
427.33	19506.02
427.52	20849.49
427.71	20805.02
427.90	20554.58
428.09	20549.90
428.28	19711.99
428.46	19281.33
428.65	18813.23
428.84	19239.20
429.03	19545.81
429.22	18448.10
429.40	17572.74
429.59	16112.25
429.78	14040.87
429.97	14185.99
430.16	14427.06
430.34	14562.81
430.53	14576.86
430.72	14508.98
430.91	16084.16
431.10	19129.20
431.28	22427.01
431.47	24617.75
431.66	24943.09
431.85	22979.38
432.03	20566.29
432.22	19468.58
432.41	20507.77
432.60	22712.56
432.79	23948.36
432.97	24395.40
433.16	23761.12
433.35	21561.02
433.54	19620.71
433.72	18326.39
433.91	18899.83
434.10	20823.75
434.28	22363.82
434.47	23676.86
434.66	23349.18
434.85	22682.13
435.03	22359.14
435.22	23414.72
435.41	24704.35
435.59	24526.47
435.78	24664.57
435.97	25668.66
436.16	25460.35
436.34	25214.59
436.53	24978.20
436.72	24903.30
436.90	23489.62
437.09	23747.08
437.28	22899.80
437.46	23974.11
437.65	23522.38
437.84	22106.36
438.02	20720.76
438.21	20271.38
438.40	21226.32
438.58	23166.62
438.77	24109.86
438.96	23803.25
439.14	25008.62
439.33	25315.23
439.52	26199.96
439.70	25362.04
439.89	24758.19
440.08	23899.21
440.26	23831.33
440.45	24919.68
440.63	26443.37
440.82	27868.76
441.01	27349.16
441.19	27402.99
441.38	27620.66
441.57	28671.56
441.75	29249.67
441.94	29490.75
442.12	28943.06
442.31	29575.01
442.50	29324.57
442.68	29160.73
442.87	28877.53
443.05	28725.39
443.24	28804.97
443.43	29570.33
443.61	29944.81
443.80	30204.61
443.98	28631.77
444.17	28238.56
444.35	30092.27
444.54	30841.24
444.73	30377.81
444.91	29095.20
445.10	27955.36
445.28	26773.39
445.47	26029.10
445.65	26946.59
445.84	27138.51
446.02	28261.97
446.21	28835.40
446.39	28854.12
446.58	29235.63
446.77	29542.24
446.95	29855.87
447.14	30815.49
447.32	31344.45
447.51	30555.69
447.69	29427.56
447.88	28968.81
448.06	29357.34
448.25	29972.90
448.43	30499.52
448.62	29916.73
448.80	29282.44
448.99	29769.27
449.17	30167.16
449.36	29811.40
449.54	31168.91
449.73	31580.85
449.91	32144.92
450.10	32959.42
450.28	33350.29
450.46	33284.76
450.65	33284.76
450.83	32573.24
451.02	32189.39
451.20	32086.40
451.39	31943.63
451.57	31292.96
451.76	31655.75
451.94	31323.39
452.13	31246.15
452.31	29682.67
452.49	28123.88
452.68	28514.75
452.86	28601.35
453.05	28922.00
453.23	30258.45
453.42	30448.03
453.60	30991.03
453.78	31515.31
453.97	30881.03
454.15	31512.97
454.34	30473.78
454.52	30541.65
454.70	30422.28
454.89	30457.39
455.07	30265.47
455.26	31133.81
455.44	32273.65
455.62	32760.48
455.81	33151.35
455.99	32765.16
456.17	32151.94
456.36	31896.82
456.54	33219.22
456.73	33677.97
456.91	33846.49
457.09	33710.74
457.28	34574.39
457.46	33132.62
457.64	32954.74
457.83	32503.02
458.01	31391.26
458.19	31847.67
458.38	32009.17
458.56	33294.12
458.74	33092.83
458.93	32451.53
459.11	32573.24
459.29	32397.70
459.48	32484.30
459.66	32149.60
459.84	32624.73
460.03	33240.29
460.21	33266.03
460.39	33495.41
460.57	33631.16
460.76	34415.24
460.94	34026.71
461.12	33626.48
461.31	33989.26
461.49	33694.35
461.67	33631.16
461.85	34829.51
462.04	34333.32
462.22	34822.49
462.40	34703.12
462.59	34295.87
462.77	34560.35
462.95	34562.69
463.13	34345.02
463.32	33600.73
463.50	33722.44
463.68	33855.85
463.86	34092.24
464.05	33298.80
464.23	32741.75
464.41	32404.72
464.59	31555.10
464.78	33296.46
464.96	33663.93
465.14	33109.22
465.32	34061.82
465.50	34349.70
465.69	34761.64
465.87	34103.95
466.05	33251.99
466.23	31835.97
466.41	31117.42
466.60	31990.44
466.78	32135.56
466.96	32718.35
467.14	33043.68
467.32	33811.38
467.51	33567.96
467.69	32280.67
467.87	32659.84
468.05	33153.69
468.23	33673.29
468.41	33324.55
468.60	33366.68
468.78	33385.40
468.96	33230.93
469.14	34377.79
469.32	34328.64
469.50	32685.58
469.69	33200.50
469.87	32706.65
470.05	32275.99
470.23	32116.83
470.41	32697.28
470.59	33209.86
470.77	33111.56
470.95	33659.24
471.14	34363.75
471.32	34064.16
471.50	35990.42
471.68	35768.07
471.86	36531.08
472.04	36608.32
472.22	36795.56
472.40	35297.62
472.58	34181.18
472.77	34349.70
472.95	34787.38
473.13	35363.15
473.31	34595.46
473.49	34946.54
473.67	35569.12
473.85	36151.91
474.03	36781.52
474.21	36847.05
474.39	37638.15
474.57	37549.21
474.75	37783.27
474.93	37291.76
475.12	36226.81
475.30	36498.31
475.48	36662.15
475.66	37228.56
475.84	36332.14
476.02	36336.82
476.20	35590.19
476.38	36570.87
476.56	37727.10
476.74	38043.07
476.92	37860.51
477.10	38834.17
477.28	40170.61
477.46	39311.64
477.64	40102.74
477.82	40313.39
478.00	40315.73
478.18	39730.59
478.36	39882.73
478.54	39768.04
478.72	39938.90
478.90	40961.72
479.08	42014.96
479.26	42651.58
479.44	42759.25
479.62	42064.11
479.80	42113.26
479.98	42363.70
480.16	42494.77
480.34	42134.32
480.52	42422.21
480.70	42728.82
480.88	42637.54
481.06	43452.05
481.24	43845.26
481.41	44734.66
481.59	45272.98
481.77	45429.80
481.95	44451.45
482.13	44411.67
482.31	44844.66
482.49	44900.84
482.67	44924.24
482.85	45272.98
483.03	45921.31
483.21	46417.50
483.39	46302.82
483.57	45570.23
483.74	44809.56
483.92	45067.02
484.10	45584.27
484.28	46972.21
484.46	46773.27
484.64	47103.28
484.82	46270.05
485.00	45961.10
485.18	45303.41
485.35	44163.57
485.53	40978.10
485.71	37589.00
485.89	36795.56
486.07	38618.84
486.25	41935.38
486.43	43791.42
486.61	44914.88
486.78	44886.79
486.96	44807.22
487.14	46714.75
487.32	47508.19
487.50	48910.17
487.68	49471.90
487.85	49792.56
488.03	50054.70
488.21	49565.52
488.39	48739.32
488.57	48177.59
488.75	47840.55
488.92	48919.54
489.10	51215.60
489.28	52540.35
489.46	53382.94
489.64	52821.21
489.81	53291.66
489.99	52617.58
490.17	52755.68
490.35	53125.48
490.53	52741.63
490.70	52470.13
490.88	51903.72
491.06	53380.60
491.24	53450.81
491.41	52009.04
491.59	50642.17
491.77	49584.25
491.95	50686.64
492.13	51810.10
492.30	52994.41
492.48	54185.74
492.66	54506.40
492.84	54326.17
493.01	54333.20
493.19	53687.21
493.37	53434.43
493.54	53015.47
493.72	53895.52
493.90	54974.50
494.08	55510.49
494.25	55796.03
494.43	56219.67
494.61	56458.40
494.79	56343.72
494.96	56184.56
495.14	55777.31
495.32	54714.70
495.49	54031.27
495.67	55121.96
495.85	56427.98
496.02	56699.48
496.20	56868.00
496.38	56395.21
496.55	56149.45
496.73	56577.77
496.91	56765.01
497.09	57378.23
497.26	57415.68
497.44	56996.73
497.62	56699.48
497.79	55643.90
497.97	54265.32
498.14	54527.46
498.32	55519.85
498.50	56547.34
498.67	57132.48
498.85	57106.73
499.03	57158.22
499.20	57308.02
499.38	57361.85
499.56	57031.83
499.73	56734.59
499.91	56334.35
500.08	55948.17
500.26	55281.11
500.44	55473.04
500.61	56336.69
500.79	56280.52
500.97	55618.15
501.14	55779.65
501.32	55201.53
501.49	55477.72
501.67	55852.20
501.84	56212.65
502.02	56339.04
502.20	56891.40
502.37	56870.34
502.55	56863.32
502.72	57359.51
502.90	57762.08
503.07	57677.82
503.25	57216.74
503.43	56369.46
503.60	55835.82
503.78	55004.93
503.95	55547.93
504.13	56933.53
504.30	57750.38
504.48	57698.89
504.65	57106.73
504.83	57165.24
505.01	57703.57
505.18	58024.22
505.36	58759.15
505.53	58855.11
505.71	58848.09
505.88	59133.63
506.06	58525.10
506.23	58188.06
506.41	57675.48
506.58	57724.63
506.76	57977.41
506.93	57874.43
507.11	57640.37
507.28	57701.23
507.46	57312.70
507.63	56708.84
507.81	56713.52
507.98	56788.42
508.16	57495.26
508.33	57996.13
508.50	58571.91
508.68	58532.12
508.85	59178.10
509.03	59128.95
509.20	58887.88
509.38	58087.42
509.55	57549.09
509.73	57712.93
509.90	58241.89
510.08	58178.70
510.25	58145.93
510.42	57975.07
510.60	58054.65
510.77	58213.80
510.95	58770.85
511.12	58894.90
511.30	59208.53
511.47	59529.19
511.64	59419.18
511.82	58920.65
511.99	58237.21
512.17	57815.91
512.34	57591.22
512.51	57663.78
512.69	57773.78
512.86	57961.03
513.04	58410.41
513.21	58410.41
513.38	58003.16
513.56	57719.95
513.73	56907.79
513.90	57073.96
514.08	57347.81
514.25	57352.49
514.43	57703.57
514.60	57818.25
514.77	57865.06
514.95	58092.10
515.12	57839.32
515.29	58056.99
515.47	58525.10
515.64	58859.79
515.81	58426.79
515.99	57783.15
516.16	56367.12
516.33	54227.87
516.51	52865.68
516.68	51938.83
516.85	51426.25
517.03	51868.61
517.20	54408.09
517.37	57336.10
517.54	58017.20
517.72	57521.01
517.89	55051.74
518.06	52989.73
518.24	52954.62
518.41	55323.24
518.58	56617.56
518.75	56898.42
518.93	56818.84
519.10	56877.36
519.27	57457.81
519.45	57446.11
519.62	58150.61
519.79	58761.49
519.96	58326.15
520.14	57818.25
520.31	57174.61
520.48	57076.30
520.65	57483.56
520.83	58340.19
521.00	58686.59
521.17	58494.67
521.34	57886.13
521.52	58101.46
521.69	58791.92
521.86	59049.38
522.03	58976.82
522.20	57897.83
522.38	56594.15
522.55	56783.74
522.72	57373.55
522.89	57474.20
523.07	57638.03
523.24	57961.03
523.41	58749.79
523.58	59166.40
523.75	59632.17
523.92	59330.24
524.10	59428.54
524.27	59433.22
524.44	59128.95
524.61	58930.01
524.78	58604.67
524.96	58618.72
525.13	58731.06
525.30	58717.02
525.47	59367.69
525.64	59274.07
525.81	58527.44
525.98	57195.67
526.16	55679.00
526.33	55112.59
526.50	54848.11
526.67	54286.39
526.84	54962.80
527.01	55945.83
527.18	56999.07
527.36	57570.16
527.53	58569.57
527.70	58733.40
527.87	58431.47
528.04	57638.03
528.21	58211.46
528.38	58962.78
528.55	59475.35
528.72	59643.87
528.89	59587.70
529.07	59510.46
529.24	59058.74
529.41	58424.45
529.58	57752.72
529.75	57759.74
529.92	58293.38
530.09	58679.57
530.26	59306.83
530.43	59416.84
530.60	59423.86
530.77	59667.28
530.94	59756.22
531.11	59391.09
531.28	59187.47
531.46	58714.68
531.63	59126.61
531.80	58906.60
531.97	58298.06
532.14	57614.63
532.31	56729.90
532.48	55941.14
532.65	56119.02
532.82	56914.81
532.99	57954.00
533.16	58258.27
533.33	58958.09
533.50	58518.07
533.67	58071.03
533.84	57631.01
534.01	57914.22
534.18	58042.95
534.35	58288.70
534.52	58202.10
534.69	58333.17
534.86	58464.24
535.03	58976.82
535.20	59435.56
535.37	59711.75
535.54	59735.15
535.71	59620.47
535.88	59189.81
536.05	58590.63
536.22	57954.00
536.38	57481.22
536.55	57403.98
536.72	56666.71
536.89	56596.49
537.06	57633.35
537.23	58389.34
537.40	58672.55
537.57	58489.99
537.74	58377.64
537.91	58209.12
538.08	58162.31
538.25	58298.06
538.42	58302.74
538.59	58365.94
538.75	57689.52
538.92	57394.62
539.09	57216.74
539.26	57036.51
539.43	57139.50
539.60	57045.88
539.77	57118.43
539.94	57106.73
540.11	56378.82
540.28	55906.04
540.44	56044.13
540.61	56133.07
540.78	56198.60
540.95	56966.30
541.12	57261.21
541.29	57354.83
541.46	57815.91
541.62	57717.61
541.79	57633.35
541.96	57242.48
542.13	57127.80
542.30	57354.83
542.47	57436.75
542.63	57228.44
542.80	57134.82
542.97	57050.56
543.14	57092.69
543.31	57015.45
543.48	57684.84
543.64	58307.43
543.81	58738.08
543.98	58527.44
544.15	57738.68
544.32	57120.77
544.48	57415.68
544.65	57586.54
544.82	57925.92
544.99	57626.33
545.16	57315.04
545.32	56992.04
545.49	57979.75
545.66	58302.74
545.83	57881.45
546.00	57684.84
546.16	57069.28
546.33	57198.01
546.50	57165.24
546.67	57682.50
546.83	57305.68
547.00	57228.44
547.17	56753.31
547.34	56123.71
547.50	55863.91
547.67	56472.45
547.84	56624.58
548.00	56767.35
548.17	57228.44
548.34	57317.38
548.51	57172.27
548.67	57275.25
548.84	57427.38
549.01	57251.84
549.18	57102.05
549.34	57181.63
549.51	57106.73
549.68	57041.20
549.84	56875.02
550.01	56690.12
550.18	56587.13
550.34	56748.63
550.51	56753.31
550.68	56818.84
550.84	56165.84
551.01	56341.38
551.18	56404.57
551.34	56519.26
551.51	56893.74
551.68	57415.68
551.84	57174.61
552.01	56896.08
552.18	56795.44
552.34	56310.95
552.51	55655.60
552.68	55297.50
552.84	56236.05
553.01	56528.62
553.18	56334.35
553.34	56505.21
553.51	56463.08
553.67	56797.78
553.84	56910.13
554.01	56842.25
554.17	56500.53
554.34	56528.62
554.51	56816.50
554.67	57024.81
554.84	56985.02
555.00	56502.87
555.17	56378.82
555.33	56367.12
555.50	56217.33
555.67	56247.75
555.83	55983.27
556.00	55948.17
556.16	55840.50
556.33	55388.78
556.50	55203.88
556.66	55475.38
556.83	54869.18
556.99	55409.84
557.16	55320.90
557.32	55707.09
557.49	55789.01
557.65	55791.35
557.82	55824.12
557.98	55627.51
558.15	55253.03
558.32	54363.62
558.48	53364.21
558.65	53904.88
558.81	53881.47
558.98	54475.97
559.14	54550.87
559.31	54487.67
559.47	54588.31
559.64	54426.82
559.80	53804.24
559.97	53958.71
560.13	54361.28
560.30	55348.99
560.46	55931.78
560.63	56076.90
560.79	55913.06
560.96	55753.90
561.12	54464.27
561.29	53811.26
561.45	53844.02
561.61	54480.65
561.78	54649.17
561.94	54543.84
562.11	54468.95
562.27	54651.51
562.44	54621.08
562.60	55025.99
562.77	55084.51
562.93	55136.00
563.10	54946.42
563.26	54227.87
563.42	54396.39
563.59	54204.47
563.75	54204.47
563.92	54365.96
564.08	54333.20
564.24	54438.52
564.41	54534.48
564.57	54478.31
564.74	54220.85
564.90	54291.07
565.07	53949.35
565.23	53378.26
565.39	52875.04
565.56	52729.93
565.72	52582.48
565.88	52907.81
566.05	52760.36
566.21	53326.77
566.38	53251.87
566.54	53694.23
566.70	53682.53
566.87	54103.82
567.03	53808.92
567.19	54340.22
567.36	53764.45
567.52	53813.60
567.68	53565.50
567.85	52788.44
568.01	52254.80
568.17	52240.76
568.34	52250.12
568.50	51995.00
568.66	52329.70
568.83	52734.61
568.99	52701.84
569.15	52994.41
569.32	52828.23
569.48	52116.71
569.64	52161.18
569.81	52383.53
569.97	52128.41
570.13	52170.54
570.30	51578.39
570.46	51154.75
570.62	50391.73
570.78	50272.37
570.95	50380.03
571.11	51260.07
571.27	51690.73
571.43	51922.44
571.60	52109.69
571.76	52175.22
571.92	52549.71
572.09	52678.44
572.25	52519.28
572.41	52526.30
572.57	52549.71
572.74	52374.17
572.90	51807.76
573.06	51828.82
573.22	51866.27
573.38	52186.92
573.55	51889.68
573.71	52231.40
573.87	52186.92
574.03	52041.81
574.20	51714.14
574.36	51611.15
574.52	51545.62
574.68	51133.68
574.84	51339.65
575.01	50080.44
575.17	50335.56
575.33	50632.81
575.49	50960.48
575.65	50899.63
575.82	50625.79
575.98	50251.30
576.14	51112.62
576.30	51180.49
576.46	51353.69
576.62	50960.48
576.79	51129.00
576.95	50628.13
577.11	50724.09
577.27	50644.51
577.43	50738.13
577.59	50398.76
577.75	49876.82
577.92	49050.61
578.08	48734.63
578.24	48928.90
578.40	49319.77
578.56	49729.36
578.72	49406.37
578.88	50005.55
579.04	50155.34
579.21	50143.64
579.37	50253.64
579.53	50265.34
579.69	50199.81
579.85	50688.98
580.01	50099.17
580.17	50071.08
580.33	49710.64
580.49	49888.52
580.65	49930.65
580.82	49998.52
580.98	50178.75
581.14	50068.74
581.30	50199.81
581.46	49979.80
581.62	50382.37
581.78	50380.03
581.94	50677.28
582.10	50323.86
582.26	50553.23
582.42	50445.57
582.58	50677.28
582.74	50508.76
582.90	50176.40
583.06	50403.44
583.22	49972.78
583.38	50082.78
583.54	50162.36
583.70	50164.70
583.86	50059.38
584.02	49703.62
584.18	49921.29
584.34	49762.13
584.50	49778.51
584.66	49287.00
584.82	49120.82
584.98	49209.76
585.14	48425.68
585.30	47819.49
