SpectraSuite Data File
++++++++++++++++++++++++++++++++++++
Date: Mon Oct 07 14:53:11 GMT-05:00 2013
User: price-jones
Dark Spectrum Present: No
Reference Spectrum Present: No
Number of Sampled Component Spectra: 1
Spectrometers: USB2+H05261
Integration Time (usec): 100000 (USB2+H05261)
Spectra Averaged: 1 (USB2+H05261)
Boxcar Smoothing: 0 (USB2+H05261)
Correct for Electrical Dark: No (USB2+H05261)
Strobe/Lamp Enabled: No (USB2+H05261)
Correct for Detector Non-linearity: No (USB2+H05261)
Correct for Stray Light: No (USB2+H05261)
Number of Pixels in Processed Spectrum: 2048
>>>>>Begin Processed Spectral Data<<<<<
365.73	0.00
365.92	0.00
366.12	0.00
366.32	0.00
366.52	0.00
366.72	0.00
366.91	0.00
367.11	0.00
367.31	0.00
367.51	0.00
367.70	0.00
367.90	0.00
368.10	0.00
368.30	0.00
368.49	0.00
368.69	0.00
368.89	0.00
369.09	0.00
369.28	0.00
369.48	0.00
369.68	0.00
369.87	0.00
370.07	0.00
370.27	0.00
370.47	987.71
370.66	4650.64
370.86	5355.15
371.06	5966.03
371.25	5893.47
371.45	5310.68
371.65	4786.40
371.84	4542.98
372.04	4725.54
372.24	5287.27
372.44	5460.47
372.63	5357.49
372.83	5078.96
373.03	4379.14
373.22	4124.02
373.42	4365.10
373.62	4994.70
373.81	5226.42
374.01	5174.92
374.21	4777.03
374.40	4542.98
374.60	4774.69
374.79	5373.87
374.99	6370.94
375.19	6583.93
375.38	6527.75
375.58	6066.67
375.78	6207.10
375.97	6111.14
376.17	6457.54
376.37	6190.72
376.56	6672.87
376.76	6986.50
376.95	7365.67
377.15	7932.08
377.35	8105.28
377.54	8374.44
377.74	8664.66
377.93	8557.00
378.13	8248.05
378.33	7915.69
378.52	7215.87
378.72	7012.24
378.91	7070.76
379.11	6918.62
379.31	6476.26
379.50	6544.14
379.70	7087.14
379.89	7627.81
380.09	8219.96
380.28	8617.85
380.48	8397.84
380.68	8444.65
380.87	7887.61
381.07	7494.40
381.26	6764.15
381.46	6537.12
381.65	6242.21
381.85	6181.35
382.04	5837.30
382.24	5310.68
382.43	5153.86
382.63	4985.34
382.83	5074.28
383.02	5217.05
383.22	4931.51
383.41	5123.43
383.61	5544.73
383.80	6326.47
384.00	7260.34
384.19	7887.61
384.39	8320.60
384.58	8168.47
384.78	8023.36
384.97	7864.20
385.17	7403.11
385.36	7105.87
385.56	7007.56
385.75	7159.70
385.95	7826.75
386.14	8627.21
386.34	8643.60
386.53	8037.40
386.72	7662.91
386.92	7676.96
387.11	8175.49
387.31	8449.33
387.50	8201.24
387.70	7995.27
387.89	8102.93
388.09	7859.52
388.28	8051.44
388.48	8294.86
388.67	8957.23
388.86	9652.37
389.06	10101.75
389.25	10958.39
389.45	10712.63
389.64	10949.03
389.84	10909.24
390.03	10670.50
390.22	10710.29
390.42	10902.22
390.61	11737.79
390.81	12287.81
391.00	12830.82
391.19	12519.53
391.39	12028.01
391.58	11403.09
391.78	10768.80
391.97	10120.48
392.16	9423.00
392.36	8514.87
392.55	6808.62
392.75	5586.86
392.94	4582.77
393.13	4535.96
393.33	5413.66
393.52	7033.31
393.71	8620.19
393.91	9734.29
394.10	10478.58
394.29	11304.79
394.49	12325.26
394.68	13259.13
394.88	13547.02
395.07	13661.71
395.26	13685.11
395.46	12823.80
395.65	12145.04
395.84	10614.33
396.04	8903.40
396.23	7332.90
396.42	6090.07
396.62	6223.48
396.81	7129.27
397.00	9149.15
397.19	11328.19
397.39	13610.22
397.58	15080.07
397.77	15571.58
397.97	16510.14
398.16	16720.79
398.35	17364.43
398.55	17745.94
398.74	18473.85
398.93	18878.76
399.12	18548.75
399.32	17724.88
399.51	18228.09
399.70	19623.05
399.90	19157.28
400.09	19016.85
400.28	19101.11
400.47	19417.08
400.67	20444.58
400.86	20688.00
401.05	20407.13
401.24	20650.55
401.44	20961.84
401.63	20844.81
401.82	21254.40
402.01	21025.03
402.21	21214.62
402.40	21577.40
402.59	20964.18
402.78	20020.94
402.97	19468.58
403.17	20355.64
403.36	21280.15
403.55	21944.86
403.74	22394.25
403.93	21177.17
404.13	19779.87
404.32	19590.28
404.51	20652.89
404.70	21977.63
404.89	21678.04
405.09	21275.47
405.28	20788.64
405.47	20669.27
405.66	20816.72
405.85	20606.08
406.05	19974.13
406.24	20081.80
406.43	20863.54
406.62	21694.43
406.81	21640.59
407.00	20987.58
407.20	20247.97
407.39	20521.82
407.58	21715.49
407.77	22246.79
407.96	23222.80
408.15	23573.88
408.34	23868.78
408.54	24297.10
408.73	24702.01
408.92	24159.01
409.11	23353.87
409.30	22249.13
409.49	20704.38
409.68	19414.74
409.87	19227.50
410.07	20294.79
410.26	22312.33
410.45	23433.44
410.64	23995.17
410.83	24772.23
411.02	25172.46
411.21	26197.62
411.40	25507.16
411.59	25813.77
411.78	25310.55
411.98	25069.48
412.17	25628.87
412.36	25090.54
412.55	25315.23
412.74	24795.64
412.93	24311.14
413.12	24936.07
413.31	27115.11
413.50	27255.54
413.69	27501.29
413.88	26581.46
414.07	25769.30
414.26	26583.80
414.45	27185.32
414.64	27297.67
414.83	27101.06
415.02	26443.37
415.22	26628.27
415.41	27615.98
415.60	28142.60
415.79	29418.19
415.98	29961.20
416.17	29869.92
416.36	29158.39
416.55	28425.81
416.74	27363.20
416.93	26511.25
417.12	26738.28
417.31	27077.66
417.50	27854.72
417.69	28554.54
417.88	28477.30
418.07	28259.63
418.26	27782.16
418.45	28217.50
418.64	29163.08
418.83	29975.24
419.02	29795.02
419.21	29083.50
419.39	28070.04
419.58	26506.57
419.77	26890.41
419.96	28268.99
420.15	29928.43
420.34	30347.39
420.53	31527.02
420.72	31988.10
420.91	31707.24
421.10	30850.60
421.29	31672.13
421.48	30134.40
421.67	31606.59
421.86	30522.93
422.05	28311.12
422.24	25713.13
422.43	25717.81
422.61	28411.76
422.80	30560.37
422.99	30403.56
423.18	29441.60
423.37	29043.71
423.56	28889.23
423.75	29570.33
423.94	30302.92
424.13	28056.00
424.32	28943.06
424.50	28797.95
424.69	28243.24
424.88	28851.78
425.07	28336.87
425.26	28109.83
425.45	27910.89
425.64	27632.36
425.83	27683.86
426.01	29109.24
426.20	29469.69
426.39	29474.37
426.58	27037.87
426.77	25343.32
426.96	24554.56
427.15	25469.71
427.33	27910.89
427.52	28781.57
427.71	28940.72
427.90	28556.88
428.09	28032.60
428.28	27529.38
428.46	26434.01
428.65	26082.93
428.84	27173.62
429.03	27480.23
429.22	25696.74
429.40	24135.60
429.59	22195.30
429.78	19463.90
429.97	19962.43
430.16	20098.18
430.34	20229.25
430.53	20088.82
430.72	20833.11
430.91	23295.35
431.10	27255.54
431.28	31878.10
431.47	34052.45
431.66	33717.76
431.85	30789.75
432.03	28381.34
432.22	27601.94
432.41	29134.99
432.60	31765.75
432.79	32748.78
432.97	33804.36
433.16	32716.01
433.35	29668.63
433.54	27012.12
433.72	25954.20
433.91	26766.37
434.10	29780.98
434.28	31566.81
434.47	33071.77
434.66	32776.86
434.85	31690.85
435.03	31552.76
435.22	32652.81
435.41	34251.40
435.59	34300.55
435.78	34639.93
435.97	35498.91
436.16	35522.31
436.34	34696.10
436.53	34494.82
436.72	34735.89
436.90	32708.99
437.09	32835.38
437.28	32496.00
437.46	33443.91
437.65	33013.26
437.84	30541.65
438.02	28472.62
438.21	28587.30
438.40	29916.73
438.58	32301.73
438.77	33532.86
438.96	33532.86
439.14	34888.03
439.33	35629.98
439.52	36126.17
439.70	35091.65
439.89	34464.39
440.08	33731.80
440.26	33900.32
440.45	34967.60
440.63	37565.60
440.82	38770.97
441.01	38267.76
441.19	38192.86
441.38	38579.05
441.57	39885.07
441.75	40313.39
441.94	40610.64
442.12	40268.92
442.31	41523.44
442.50	40933.63
442.68	40306.37
442.87	40018.48
443.05	39629.95
443.24	40517.01
443.43	41209.81
443.61	41645.15
443.80	42033.68
443.98	39828.90
444.17	39643.99
444.35	41923.68
444.54	42405.83
444.73	42012.62
444.91	40250.19
445.10	38733.53
445.28	37762.20
445.47	36872.80
445.65	37298.78
445.84	38171.80
446.02	39243.76
446.21	40016.14
446.39	40039.54
446.58	40907.88
446.77	41404.08
446.95	41605.36
447.14	42604.77
447.32	43262.46
447.51	42192.84
447.69	40521.69
447.88	39938.90
448.06	40795.54
448.25	41921.34
448.43	41954.10
448.62	41626.43
448.80	41521.10
448.99	41188.75
449.17	41493.02
449.36	41853.46
449.54	43569.07
449.73	43648.65
449.91	44680.83
450.10	45338.52
450.28	45862.80
450.46	45633.42
450.65	45345.54
450.83	45425.12
451.02	44453.79
451.20	44423.37
451.39	44257.19
451.57	44168.25
451.76	44161.23
451.94	43711.84
452.13	42852.87
452.31	41134.92
452.49	39335.04
452.68	40294.66
452.86	39807.83
453.05	40732.34
453.23	41724.73
453.42	42593.07
453.60	43587.80
453.78	43903.77
453.97	43360.76
454.15	43716.53
454.34	42094.53
454.52	42843.51
454.70	42150.71
454.89	42328.59
455.07	42679.67
455.26	43292.89
455.44	44987.44
455.62	45689.60
455.81	45425.12
455.99	45165.32
456.17	45106.80
456.36	45015.52
456.54	46281.75
456.73	45773.86
456.91	46880.93
457.09	47100.94
457.28	47515.22
457.46	45603.00
457.64	45588.95
457.83	44643.38
458.01	43529.28
458.19	44479.54
458.38	44989.78
458.56	45888.54
458.74	45619.38
458.93	45439.16
459.11	45408.73
459.29	44893.82
459.48	44875.09
459.66	44615.29
459.84	44926.58
460.03	45469.59
460.21	45652.15
460.39	46852.84
460.57	46972.21
460.76	47313.93
460.94	47133.71
461.12	46948.81
461.31	47009.66
461.49	46974.55
461.67	46885.61
461.85	48062.90
462.04	47803.10
462.22	48144.82
462.40	47615.86
462.59	47838.21
462.77	48053.54
462.95	47873.32
463.13	47459.04
463.32	47136.05
463.50	46770.93
463.68	46691.35
463.86	46937.10
464.05	46284.09
464.23	45544.48
464.41	45577.25
464.59	44793.17
464.78	46927.74
464.96	46246.65
465.14	46176.43
465.32	47175.84
465.50	47950.56
465.69	48479.52
465.87	47564.37
466.05	46506.44
466.23	44814.24
466.41	43592.48
466.60	44938.29
466.78	45123.19
466.96	45794.92
467.14	46564.96
467.32	46796.67
467.51	46927.74
467.69	44746.36
467.87	45551.51
468.05	46398.78
468.23	46543.89
468.41	46972.21
468.60	46677.30
468.78	47189.88
468.96	46279.41
469.14	47227.33
469.32	46990.94
469.50	45593.64
469.69	46059.40
469.87	45029.57
470.05	45457.88
470.23	45518.74
470.41	45694.28
470.59	46295.80
470.77	46660.92
470.95	46801.35
471.14	47522.24
471.32	47711.82
471.50	49661.49
471.68	49844.05
471.86	49783.19
472.04	50164.70
472.22	50206.83
472.40	47969.28
472.58	48006.73
472.77	47459.04
472.95	48362.49
473.13	49263.60
473.31	48456.11
473.49	48601.22
473.67	49251.89
473.85	49951.71
474.03	50335.56
474.21	50677.28
474.39	50965.17
474.57	51182.84
474.75	51063.47
474.93	50660.90
475.12	50094.49
475.30	50050.02
475.48	50438.54
475.66	50721.75
475.84	49900.22
476.02	49876.82
476.20	49090.40
476.38	50382.37
476.56	51358.38
476.74	51742.22
476.92	51999.68
477.10	52334.38
477.28	53364.21
477.46	53394.64
477.64	53687.21
477.82	53668.48
478.00	53792.53
478.18	52994.41
478.36	53270.59
478.54	53329.11
478.72	53404.00
478.90	54162.34
479.08	54663.21
479.26	55290.48
479.44	54995.57
479.62	54976.84
479.80	54993.23
479.98	55072.81
480.16	55058.76
480.34	54686.62
480.52	55206.22
480.70	55449.63
480.88	55519.85
481.06	55962.21
481.24	56016.04
481.41	56886.72
481.59	57411.00
481.77	57043.54
481.95	56505.21
482.13	56369.46
482.31	56725.22
482.49	56989.70
482.67	56938.21
482.85	57116.09
483.03	57354.83
483.21	57836.98
483.39	57537.39
483.57	57111.41
483.74	57045.88
483.92	57450.79
484.10	57432.07
484.28	57993.79
484.46	58309.77
484.64	58459.56
484.82	57818.25
485.00	57385.25
485.18	56767.35
485.35	55994.98
485.53	53656.78
485.71	50850.48
485.89	50869.20
486.07	52477.15
486.25	54698.32
486.43	56514.58
486.61	56903.10
486.78	56952.26
486.96	57209.71
487.14	58148.27
487.32	58639.78
487.50	59405.14
487.68	59868.56
487.85	60353.05
488.03	60360.08
488.21	60158.79
488.39	59458.97
488.57	58925.33
488.75	59000.22
488.92	59650.89
489.10	61214.37
489.28	62087.39
489.46	62602.31
489.64	62370.60
489.81	62606.99
489.99	62269.95
490.17	62361.23
490.35	62728.70
490.53	62557.84
490.70	61895.47
490.88	62078.03
491.06	62876.15
491.24	62709.97
491.41	61691.84
491.59	60891.38
491.77	60268.79
491.95	60891.38
492.13	61893.13
492.30	62855.09
492.48	63559.59
492.66	63884.92
492.84	63793.64
493.01	63538.52
493.19	63199.15
493.37	62953.39
493.54	62972.11
493.72	63306.81
493.90	64184.51
494.08	64711.13
494.25	64919.44
494.43	64898.37
494.61	65314.99
494.79	65506.91
494.96	65244.77
495.14	64711.13
495.32	64001.95
495.49	63702.36
495.67	64615.17
495.85	65535.00
496.02	65535.00
496.20	65535.00
496.38	65200.30
496.55	65256.48
496.73	65516.28
496.91	65513.94
497.09	65535.00
497.26	65535.00
497.44	65535.00
497.62	65518.62
497.79	64757.94
497.97	63770.24
498.14	64104.93
498.32	64741.56
498.50	65535.00
498.67	65535.00
498.85	65535.00
499.03	65535.00
499.20	65535.00
499.38	65535.00
499.56	65535.00
499.73	65535.00
499.91	65535.00
500.08	65013.06
500.26	64573.04
500.44	64928.80
500.61	65535.00
500.79	65109.02
500.97	64809.43
501.14	64680.70
501.32	64654.96
501.49	64786.03
501.67	64989.66
501.84	65380.52
502.02	65535.00
502.20	65535.00
502.37	65535.00
502.55	65535.00
502.72	65535.00
502.90	65535.00
503.07	65535.00
503.25	65535.00
503.43	65535.00
503.60	65003.70
503.78	64554.32
503.95	64886.67
504.13	65535.00
504.30	65535.00
504.48	65535.00
504.65	65535.00
504.83	65535.00
505.01	65535.00
505.18	65535.00
505.36	65535.00
505.53	65535.00
505.71	65535.00
505.88	65535.00
506.06	65535.00
506.23	65535.00
506.41	65535.00
506.58	65535.00
506.76	65535.00
506.93	65535.00
507.11	65535.00
507.28	65535.00
507.46	65535.00
507.63	65535.00
507.81	65535.00
507.98	65535.00
508.16	65535.00
508.33	65535.00
508.50	65535.00
508.68	65535.00
508.85	65535.00
509.03	65535.00
509.20	65535.00
509.38	65535.00
509.55	65535.00
509.73	65535.00
509.90	65535.00
510.08	65535.00
510.25	65535.00
510.42	65535.00
510.60	65535.00
510.77	65535.00
510.95	65535.00
511.12	65535.00
511.30	65535.00
511.47	65535.00
511.64	65535.00
511.82	65535.00
511.99	65535.00
512.17	65535.00
512.34	65535.00
512.51	65535.00
512.69	65535.00
512.86	65535.00
513.04	65535.00
513.21	65535.00
513.38	65535.00
513.56	65535.00
513.73	65535.00
513.90	65535.00
514.08	65535.00
514.25	65535.00
514.43	65535.00
514.60	65535.00
514.77	65535.00
514.95	65535.00
515.12	65535.00
515.29	65535.00
515.47	65535.00
515.64	65535.00
515.81	65535.00
515.99	65535.00
516.16	65535.00
516.33	64624.53
516.51	62864.45
516.68	62068.67
516.85	61708.22
517.03	62382.30
517.20	64498.14
517.37	65535.00
517.54	65535.00
517.72	65535.00
517.89	64961.57
518.06	62632.74
518.24	63458.94
518.41	65125.41
518.58	65535.00
518.75	65535.00
518.93	65535.00
519.10	65535.00
519.27	65535.00
519.45	65535.00
519.62	65535.00
519.79	65535.00
519.96	65535.00
520.14	65535.00
520.31	65535.00
520.48	65535.00
520.65	65535.00
520.83	65535.00
521.00	65535.00
521.17	65535.00
521.34	65535.00
521.52	65535.00
521.69	65535.00
521.86	65535.00
522.03	65535.00
522.20	65535.00
522.38	65535.00
522.55	65535.00
522.72	65535.00
522.89	65535.00
523.07	65535.00
523.24	65535.00
523.41	65535.00
523.58	65535.00
523.75	65535.00
523.92	65535.00
524.10	65535.00
524.27	65535.00
524.44	65535.00
524.61	65535.00
524.78	65535.00
524.96	65535.00
525.13	65535.00
525.30	65535.00
525.47	65535.00
525.64	65535.00
525.81	65535.00
525.98	65535.00
526.16	65535.00
526.33	65509.25
526.50	64533.25
526.67	64317.92
526.84	64940.50
527.01	65535.00
527.18	65535.00
527.36	65535.00
527.53	65535.00
527.70	65535.00
527.87	65535.00
528.04	65535.00
528.21	65535.00
528.38	65535.00
528.55	65535.00
528.72	65535.00
528.89	65535.00
529.07	65535.00
529.24	65535.00
529.41	65535.00
529.58	65535.00
529.75	65535.00
529.92	65535.00
530.09	65535.00
530.26	65535.00
530.43	65535.00
530.60	65535.00
530.77	65535.00
530.94	65535.00
531.11	65535.00
531.28	65535.00
531.46	65535.00
531.63	65535.00
531.80	65535.00
531.97	65535.00
532.14	65535.00
532.31	65535.00
532.48	65535.00
532.65	65535.00
532.82	65535.00
532.99	65535.00
533.16	65535.00
533.33	65535.00
533.50	65535.00
533.67	65535.00
533.84	65535.00
534.01	65535.00
534.18	65535.00
534.35	65535.00
534.52	65535.00
534.69	65535.00
534.86	65535.00
535.03	65535.00
535.20	65535.00
535.37	65535.00
535.54	65535.00
535.71	65535.00
535.88	65535.00
536.05	65535.00
536.22	65535.00
536.38	65535.00
536.55	65535.00
536.72	65535.00
536.89	65535.00
537.06	65535.00
537.23	65535.00
537.40	65535.00
537.57	65535.00
537.74	65535.00
537.91	65535.00
538.08	65535.00
538.25	65535.00
538.42	65535.00
538.59	65535.00
538.75	65535.00
538.92	65535.00
539.09	65535.00
539.26	65535.00
539.43	65535.00
539.60	65535.00
539.77	65535.00
539.94	65535.00
540.11	65535.00
540.28	65535.00
540.44	65535.00
540.61	65535.00
540.78	65535.00
540.95	65535.00
541.12	65535.00
541.29	65535.00
541.46	65535.00
541.62	65535.00
541.79	65535.00
541.96	65535.00
542.13	65535.00
542.30	65535.00
542.47	65535.00
542.63	65535.00
542.80	65535.00
542.97	65535.00
543.14	65535.00
543.31	65535.00
543.48	65535.00
543.64	65535.00
543.81	65535.00
543.98	65535.00
544.15	65535.00
544.32	65535.00
544.48	65535.00
544.65	65535.00
544.82	65535.00
544.99	65535.00
545.16	65535.00
545.32	65535.00
545.49	65535.00
545.66	65535.00
545.83	65535.00
546.00	65535.00
546.16	65535.00
546.33	65535.00
546.50	65535.00
546.67	65535.00
546.83	65535.00
547.00	65535.00
547.17	65535.00
547.34	65535.00
547.50	65535.00
547.67	65535.00
547.84	65535.00
548.00	65535.00
548.17	65535.00
548.34	65535.00
548.51	65535.00
548.67	65535.00
548.84	65535.00
549.01	65535.00
549.18	65535.00
549.34	65535.00
549.51	65535.00
549.68	65535.00
549.84	65535.00
550.01	65535.00
550.18	65535.00
550.34	65535.00
550.51	65535.00
550.68	65535.00
550.84	65535.00
551.01	65535.00
551.18	65535.00
551.34	65535.00
551.51	65535.00
551.68	65535.00
551.84	65535.00
552.01	65535.00
552.18	65535.00
552.34	65535.00
552.51	65535.00
552.68	65535.00
552.84	65535.00
553.01	65535.00
553.18	65535.00
553.34	65535.00
553.51	65535.00
553.67	65535.00
553.84	65535.00
554.01	65535.00
554.17	65535.00
554.34	65535.00
554.51	65535.00
554.67	65535.00
554.84	65535.00
555.00	65535.00
555.17	65535.00
555.33	65535.00
555.50	65535.00
555.67	65535.00
555.83	65535.00
556.00	65535.00
556.16	65535.00
556.33	65535.00
556.50	65535.00
556.66	65535.00
556.83	65535.00
556.99	65535.00
557.16	65535.00
557.32	65535.00
557.49	65535.00
557.65	65535.00
557.82	65535.00
557.98	65535.00
558.15	65462.44
558.32	64711.13
558.48	64116.64
558.65	64280.47
558.81	64755.60
558.98	65022.42
559.14	65073.91
559.31	65087.96
559.47	65336.05
559.64	64975.61
559.80	64458.35
559.97	64589.42
560.13	65202.64
560.30	65535.00
560.46	65535.00
560.63	65535.00
560.79	65535.00
560.96	65535.00
561.12	65190.94
561.29	64329.62
561.45	64411.54
561.61	65041.15
561.78	65228.39
561.94	65066.89
562.11	64989.66
562.27	65165.20
562.44	65265.84
562.60	65535.00
562.77	65535.00
562.93	65535.00
563.10	65535.00
563.26	64963.91
563.42	64956.89
563.59	65064.55
563.75	64896.03
563.92	65055.19
564.08	64790.71
564.24	65286.90
564.41	65209.67
564.57	65125.41
564.74	64954.55
564.90	64938.16
565.07	64678.36
565.23	64537.93
565.39	64023.01
565.56	63678.96
565.72	63477.67
565.88	64032.38
566.05	64081.53
566.21	64149.40
566.38	64296.86
566.54	64369.41
566.70	64610.49
566.87	64968.59
567.03	64966.25
567.19	65045.83
567.36	64917.10
567.52	64722.83
567.68	64514.53
567.85	64090.89
568.01	63884.92
568.17	63547.89
568.34	63468.31
568.50	63568.95
568.66	63538.52
568.83	63604.06
568.99	63774.92
569.15	63962.16
569.32	64149.40
569.48	64109.61
569.64	63908.33
569.81	63522.14
569.97	63653.21
570.13	63522.14
570.30	62885.51
570.46	62576.56
570.62	62101.43
570.78	62145.90
570.95	62239.53
571.11	62986.16
571.27	63018.92
571.43	63426.18
571.60	63676.61
571.76	63660.23
571.92	63929.39
572.09	64051.10
572.25	63814.71
572.41	64013.65
572.57	63964.50
572.74	63641.51
572.90	63381.71
573.06	63571.29
573.22	63828.75
573.38	63545.54
573.55	63550.23
573.71	63409.79
573.87	63594.70
574.03	63395.75
574.20	63386.39
574.36	63194.46
574.52	63285.75
574.68	63032.97
574.84	62583.58
575.01	62251.23
575.17	62113.14
575.33	62541.45
575.49	62686.57
575.65	62815.30
575.82	62756.78
575.98	62457.20
576.14	62457.20
576.30	62773.17
576.46	63047.01
576.62	62665.50
576.79	62646.78
576.95	62787.21
577.11	62508.69
577.27	62550.82
577.43	62520.39
577.59	62260.59
577.75	61771.42
577.92	61296.29
578.08	61153.52
578.24	61441.40
578.40	61581.84
578.56	61464.81
578.72	61766.74
578.88	61881.42
579.04	62155.27
579.21	62204.42
579.37	62106.12
579.53	62307.40
579.69	62307.40
579.85	62415.07
580.01	62024.20
580.17	61872.06
580.33	61558.43
580.49	61916.53
580.65	61975.05
580.82	62288.68
580.98	62372.94
581.14	61890.79
581.30	62342.51
581.46	62035.90
581.62	62342.51
581.78	62253.57
581.94	62274.63
582.10	62576.56
582.26	62482.94
582.42	62342.51
582.58	62342.51
582.74	62386.98
582.90	62499.33
583.06	62274.63
583.22	62068.67
583.38	62159.95
583.54	62410.38
583.70	62204.42
583.86	62328.47
584.02	62131.86
584.18	62183.35
584.34	62080.37
584.50	61991.43
584.66	61890.79
584.82	61429.70
584.98	61542.05
