SpectraSuite Data File
++++++++++++++++++++++++++++++++++++
Date: Mon Oct 07 14:54:03 GMT-05:00 2013
User: price-jones
Dark Spectrum Present: No
Reference Spectrum Present: No
Number of Sampled Component Spectra: 1
Spectrometers: USB2+H05261
Integration Time (usec): 100000 (USB2+H05261)
Spectra Averaged: 1 (USB2+H05261)
Boxcar Smoothing: 0 (USB2+H05261)
Correct for Electrical Dark: No (USB2+H05261)
Strobe/Lamp Enabled: No (USB2+H05261)
Correct for Detector Non-linearity: No (USB2+H05261)
Correct for Stray Light: No (USB2+H05261)
Number of Pixels in Processed Spectrum: 2048
>>>>>Begin Processed Spectral Data<<<<<
365.73	0.00
365.92	0.00
366.12	0.00
366.32	0.00
366.52	0.00
366.72	0.00
366.91	0.00
367.11	0.00
367.31	0.00
367.51	0.00
367.70	0.00
367.90	0.00
368.10	0.00
368.30	0.00
368.49	0.00
368.69	0.00
368.89	0.00
369.09	0.00
369.28	0.00
369.48	0.00
369.68	0.00
369.87	0.00
370.07	0.00
370.27	0.00
370.47	688.12
370.66	3445.27
370.86	4067.85
371.06	4468.08
371.25	4283.18
371.45	4016.36
371.65	3538.89
371.84	3339.94
372.04	3473.36
372.24	4028.06
372.44	4124.02
372.63	4114.66
372.83	3831.46
373.03	3293.13
373.22	3115.25
373.42	3194.83
373.62	3850.18
373.81	3974.23
374.01	4065.51
374.21	3735.50
374.40	3393.78
374.60	3466.33
374.79	3999.98
374.99	4781.71
375.19	5111.73
375.38	4985.34
375.58	4479.79
375.78	4510.21
375.97	4573.41
376.17	4753.63
376.37	4847.25
376.56	5088.32
376.76	5214.71
376.95	5631.33
377.15	5877.09
377.35	6115.82
377.54	6518.39
377.74	6691.59
377.93	6441.15
378.13	6434.13
378.33	6099.44
378.52	5565.79
378.72	5364.51
378.91	5266.21
379.11	5146.84
379.31	4947.89
379.50	4854.27
379.70	5427.70
379.89	5682.82
380.09	6176.67
380.28	6581.59
380.48	6406.05
380.68	6342.85
380.87	6188.38
381.07	5888.79
381.26	5336.42
381.46	5057.90
381.65	4819.16
381.85	4664.69
382.04	4461.06
382.24	4203.60
382.43	4049.13
382.63	3845.50
382.83	3911.04
383.02	3894.65
383.22	3964.87
383.41	3920.40
383.61	4257.43
383.80	4819.16
384.00	5387.91
384.19	5963.68
384.39	6235.19
384.58	6394.34
384.78	6190.72
384.97	6106.46
385.17	6031.56
385.36	5746.02
385.56	5280.25
385.75	5521.32
385.95	5820.91
386.14	6445.84
386.34	6434.13
386.53	6406.05
386.72	5832.62
386.92	5926.24
387.11	6237.53
387.31	6457.54
387.50	6487.96
387.70	6305.40
387.89	6190.72
388.09	6305.40
388.28	6200.08
388.48	6314.77
388.67	6761.81
388.86	7393.75
389.06	7838.45
389.25	8559.34
389.45	8585.08
389.64	8313.58
389.84	8566.36
390.03	8229.32
390.22	8175.49
390.42	8575.72
390.61	8926.80
390.81	9736.63
391.00	9633.64
391.19	9776.42
391.39	9549.39
391.58	8844.88
391.78	8208.26
391.97	8100.59
392.16	7651.21
392.36	6885.86
392.55	5605.58
392.75	4313.61
392.94	3672.30
393.13	3669.96
393.33	4161.47
393.52	5310.68
393.71	6562.86
393.91	7508.44
394.10	7878.24
394.29	9015.74
394.49	9369.16
394.68	10197.71
394.88	10345.17
395.07	10511.35
395.26	10560.50
395.46	10038.56
395.65	9638.33
395.84	8510.19
396.04	7227.57
396.23	5778.78
396.42	4861.29
396.62	4627.24
396.81	5338.76
397.00	7030.97
397.19	8531.25
397.39	10303.04
397.58	11740.13
397.77	12442.29
397.97	12861.24
398.16	12844.86
398.35	13582.13
398.55	13743.63
398.74	14314.72
398.93	14590.90
399.12	14703.25
399.32	13914.48
399.51	14171.94
399.70	14991.13
399.90	14911.55
400.09	15084.75
400.28	14761.76
400.47	14827.29
400.67	15520.09
400.86	15960.11
401.05	16065.44
401.24	15857.13
401.44	16528.86
401.63	16355.66
401.82	16458.65
402.01	16479.71
402.21	16917.39
402.40	16903.35
402.59	16283.11
402.78	15328.17
402.97	15339.87
403.17	15606.69
403.36	16638.87
403.55	17099.95
403.74	17535.29
403.93	16788.66
404.13	15503.71
404.32	15321.15
404.51	15634.78
404.70	16776.96
404.89	16957.18
405.09	16744.19
405.28	15995.22
405.47	16142.67
405.66	16009.26
405.85	15932.03
406.05	15211.14
406.24	15576.27
406.43	16191.83
406.62	16807.39
406.81	17015.69
407.00	16114.59
407.20	16020.97
407.39	16126.29
407.58	16851.86
407.77	17439.33
407.96	18157.88
408.15	18242.14
408.34	18197.67
408.54	19154.94
408.73	19349.21
408.92	18958.34
409.11	18017.44
409.30	17282.52
409.49	16428.22
409.68	15552.86
409.87	14829.63
410.07	15829.04
410.26	17191.23
410.45	18288.95
410.64	18656.41
410.83	19103.45
411.02	19735.40
411.21	20393.09
411.40	20446.92
411.59	20402.45
411.78	20133.29
411.98	19985.83
412.17	20074.77
412.36	19847.74
412.55	19829.02
412.74	19527.09
412.93	18965.36
413.12	19157.28
413.31	20816.72
413.50	20992.26
413.69	21458.03
413.88	20730.12
414.07	20374.36
414.26	20219.89
414.45	21202.91
414.64	20940.77
414.83	21158.44
415.02	20580.33
415.22	20889.28
415.41	21266.11
415.60	21872.31
415.79	22867.03
415.98	23190.03
416.17	23325.78
416.36	22569.79
416.55	22672.77
416.74	21806.77
416.93	20783.96
417.12	21071.84
417.31	21263.77
417.50	21757.62
417.69	22410.63
417.88	21837.20
418.07	21745.92
418.26	21748.26
418.45	21881.67
418.64	22611.92
418.83	23513.02
419.02	22801.50
419.21	23199.39
419.39	21841.88
419.58	20856.51
419.77	20896.30
419.96	21727.19
420.15	22895.12
420.34	23798.57
420.53	24210.50
420.72	24821.38
420.91	24805.00
421.10	24170.71
421.29	24088.79
421.48	23143.22
421.67	24587.33
421.86	24159.01
422.05	22040.82
422.24	20046.69
422.43	19850.08
422.61	22106.36
422.80	23463.87
422.99	23447.49
423.18	22876.40
423.37	22218.71
423.56	22207.00
423.75	22747.67
423.94	22881.08
424.13	21823.16
424.32	22272.54
424.50	22302.96
424.69	22078.27
424.88	21994.01
425.07	22136.79
425.26	22024.44
425.45	21692.08
425.64	21039.08
425.83	21291.85
426.01	22525.32
426.20	22951.29
426.39	22911.50
426.58	21099.93
426.77	19690.93
426.96	18937.27
427.15	19676.88
427.33	21387.82
427.52	22190.62
427.71	21832.52
427.90	22010.40
428.09	21909.75
428.28	21233.34
428.46	20793.32
428.65	20414.15
428.84	20753.53
429.03	21326.96
429.22	20020.94
429.40	18995.79
429.59	17345.71
429.78	15253.27
429.97	15145.61
430.16	15468.60
430.34	15723.72
430.53	15300.08
430.72	16009.26
430.91	17418.27
431.10	20304.15
431.28	24147.31
431.47	26024.42
431.66	26607.21
431.85	23931.98
432.03	22373.18
432.22	20772.25
432.41	22190.62
432.60	24393.06
432.79	25373.75
432.97	25825.47
433.16	25200.55
433.35	23424.08
433.54	20844.81
433.72	19576.24
433.91	20374.36
434.10	22419.99
434.28	24013.90
434.47	25373.75
434.66	25146.72
434.85	24376.68
435.03	24112.20
435.22	24858.83
435.41	26490.18
435.59	26588.49
435.78	26794.45
435.97	27449.80
436.16	27501.29
436.34	27377.25
436.53	26506.57
436.72	26609.55
436.90	25378.43
437.09	25273.10
437.28	24795.64
437.46	25869.94
437.65	25312.89
437.84	24079.43
438.02	21876.99
438.21	21673.36
438.40	22862.35
438.58	25029.69
438.77	25441.62
438.96	25605.46
439.14	26497.20
439.33	27517.68
439.52	28205.80
439.70	27702.58
439.89	26532.31
440.08	25745.89
440.26	25762.28
440.45	27019.14
440.63	28285.37
440.82	29642.88
441.01	29699.06
441.19	29249.67
441.38	29481.39
441.57	31042.53
441.75	31213.38
441.94	31695.53
442.12	31115.08
442.31	31550.42
442.50	31267.22
442.68	31105.72
442.87	30649.32
443.05	29958.86
443.24	30932.52
443.43	31555.10
443.61	31798.52
443.80	32638.77
443.98	30789.75
444.17	30532.29
444.35	31962.36
444.54	32921.98
444.73	32311.10
444.91	31180.62
445.10	29900.34
445.28	28940.72
445.47	28388.36
445.65	28411.76
445.84	28968.81
446.02	30279.51
446.21	30742.94
446.39	31143.17
446.58	30817.83
446.77	31608.93
446.95	31917.89
447.14	32861.12
447.32	33369.02
447.51	32329.82
447.69	31512.97
447.88	30984.01
448.06	31269.56
448.25	32020.87
448.43	32407.06
448.62	31697.88
448.80	31363.18
448.99	31632.34
449.17	32084.06
449.36	32236.20
449.54	33692.01
449.73	34047.77
449.91	34015.01
450.10	34941.86
450.28	35288.26
450.46	35253.15
450.65	35461.46
450.83	35070.59
451.02	33766.91
451.20	34005.64
451.39	34068.84
451.57	33900.32
451.76	33511.79
451.94	33806.70
452.13	33053.05
452.31	31477.86
452.49	30052.48
452.68	30433.99
452.86	30635.27
453.05	30794.43
453.23	31655.75
453.42	32243.22
453.60	33167.73
453.78	33453.28
453.97	32999.21
454.15	33240.29
454.34	32456.21
454.52	32687.92
454.70	31910.86
454.89	32259.60
455.07	32753.46
455.26	33251.99
455.44	34260.76
455.62	34866.96
455.81	35321.02
455.99	35098.67
456.17	34190.55
456.36	34522.90
456.54	35290.60
456.73	35601.89
456.91	36428.10
457.09	35648.70
457.28	36720.66
457.46	35136.12
457.64	35112.72
457.83	33942.45
458.01	33378.38
458.19	34412.90
458.38	34520.56
458.56	35262.51
458.74	35274.21
458.93	34778.02
459.11	34235.02
459.29	34185.86
459.48	34719.51
459.66	34679.72
459.84	34801.43
460.03	35360.81
460.21	34972.28
460.39	35983.40
460.57	35985.74
460.76	36158.94
460.94	36421.08
461.12	35882.75
461.31	36018.50
461.49	35910.84
461.67	36187.02
461.85	36720.66
462.04	36849.39
462.22	36781.52
462.40	37125.58
462.59	36596.62
462.77	37148.98
462.95	36699.60
463.13	36177.66
463.32	35990.42
463.50	36032.55
463.68	36034.89
463.86	36142.55
464.05	35222.72
464.23	34745.25
464.41	34164.80
464.59	33902.66
464.78	35496.56
464.96	35274.21
465.14	35178.25
465.32	36091.06
465.50	36928.97
465.69	37275.37
465.87	36484.27
466.05	35412.31
466.23	33940.11
466.41	33392.42
466.60	33979.90
466.78	34237.36
466.96	35070.59
467.14	35393.58
467.32	35381.88
467.51	35721.26
467.69	34003.30
467.87	34838.87
468.05	35435.71
468.23	35606.57
468.41	35342.09
468.60	35749.34
468.78	35978.72
468.96	35358.47
469.14	36744.07
469.32	36093.40
469.50	34742.91
469.69	35124.42
469.87	34410.56
470.05	34342.68
470.23	34700.78
470.41	34389.49
470.59	35124.42
470.77	35332.73
470.95	35831.26
471.14	36456.18
471.32	36430.44
471.50	38230.31
471.68	38323.93
471.86	38513.52
472.04	38878.64
472.22	39412.28
472.40	36905.57
472.58	36715.98
472.77	36643.43
472.95	36975.78
473.13	38249.03
473.31	37048.34
473.49	37663.90
473.67	38209.25
473.85	37991.58
474.03	38916.09
474.21	39281.21
474.39	39447.39
474.57	40105.08
474.75	39697.83
474.93	39409.94
475.12	38408.19
475.30	38412.87
475.48	39253.12
475.66	39384.19
475.84	38988.64
476.02	38653.95
476.20	38071.15
476.38	38792.04
476.56	39990.39
476.74	40313.39
476.92	40397.65
477.10	41123.21
477.28	42312.20
477.46	42202.20
477.64	42532.22
477.82	43119.69
478.00	42822.44
478.18	42368.38
478.36	41876.86
478.54	42146.03
478.72	42515.83
478.90	43161.82
479.08	43950.58
479.26	45099.78
479.44	44783.81
479.62	44421.03
479.80	44526.35
479.98	44404.64
480.16	44896.16
480.34	44428.05
480.52	44858.71
480.70	45052.97
480.88	45294.05
481.06	46054.72
481.24	46569.64
481.41	47061.15
481.59	47847.57
481.77	47508.19
481.95	46852.84
482.13	46745.18
482.31	47028.38
482.49	47751.61
482.67	47028.38
482.85	47662.67
483.03	47899.06
483.21	48615.27
483.39	48261.85
483.57	47526.92
483.74	47573.73
483.92	47765.65
484.10	47889.70
484.28	48704.21
484.46	48931.24
484.64	49661.49
484.82	48767.40
485.00	48252.48
485.18	47590.11
485.35	46337.93
485.53	43044.79
485.71	39274.19
485.89	38300.53
486.07	40521.69
486.25	43929.51
486.43	46483.04
486.61	47442.66
486.78	47299.89
486.96	47522.24
487.14	49001.46
487.32	49469.56
487.50	50679.62
487.68	51484.76
487.85	51983.30
488.03	52013.73
488.21	51821.80
488.39	50714.73
488.57	50284.07
488.75	49881.50
488.92	51229.65
489.10	53031.86
489.28	54272.34
489.46	54981.52
489.64	54560.23
489.81	54955.78
489.99	54543.84
490.17	54419.80
490.35	54967.48
490.53	54291.07
490.70	53998.50
490.88	53818.28
491.06	54733.43
491.24	55028.34
491.41	53883.81
491.59	52264.16
491.77	51576.04
491.95	52484.17
492.13	53595.93
492.30	54625.76
492.48	55875.61
492.66	56154.13
492.84	55990.30
493.01	55760.92
493.19	55386.44
493.37	55353.67
493.54	54834.07
493.72	55510.49
493.90	56385.85
494.08	57038.86
494.25	57322.06
494.43	57474.20
494.61	57925.92
494.79	57965.71
494.96	57705.91
495.14	57235.46
495.32	56371.80
495.49	55632.19
495.67	56725.22
495.85	57907.19
496.02	58316.79
496.20	58230.19
496.38	57719.95
496.55	57464.83
496.73	58005.50
496.91	58099.12
497.09	58883.20
497.26	59061.08
497.44	58443.18
497.62	58087.42
497.79	57188.65
497.97	55936.46
498.14	56119.02
498.32	57179.29
498.50	58087.42
498.67	58588.29
498.85	58274.66
499.03	58438.50
499.20	58576.59
499.38	58960.44
499.56	58915.96
499.73	58049.97
499.91	57841.66
500.08	57446.11
500.26	56786.08
500.44	56982.68
500.61	57785.49
500.79	57425.04
500.97	57305.68
501.14	56980.34
501.32	56783.74
501.49	56886.72
501.67	57057.58
501.84	57661.44
502.02	57986.77
502.20	58286.36
502.37	58171.67
502.55	58471.26
502.72	58899.58
502.90	59323.22
503.07	59042.35
503.25	58623.40
503.43	57762.08
503.60	57256.53
503.78	56533.30
503.95	57071.62
504.13	58440.84
504.30	59040.01
504.48	58965.12
504.65	58684.25
504.83	58649.14
505.01	59281.09
505.18	59557.27
505.36	60027.72
505.53	60296.88
505.71	60303.90
505.88	60451.36
506.06	59681.32
506.23	59531.53
506.41	59058.74
506.58	59192.15
506.76	59316.20
506.93	59360.67
507.11	58953.41
507.28	59100.87
507.46	58695.95
507.63	58220.83
507.81	57991.45
507.98	58178.70
508.16	58953.41
508.33	59253.00
508.50	59669.62
508.68	60004.31
508.85	60493.49
509.03	60357.74
509.20	60444.33
509.38	59629.83
509.55	58941.71
509.73	58944.05
509.90	59536.21
510.08	59732.81
510.25	59723.45
510.42	59398.12
510.60	59393.43
510.77	59632.17
510.95	60294.54
511.12	60133.04
511.30	60526.25
511.47	60870.31
511.64	60701.79
511.82	60542.64
511.99	59840.48
512.17	59346.62
512.34	58773.19
512.51	58920.65
512.69	59082.14
512.86	59306.83
513.04	59817.07
513.21	59611.10
513.38	59346.62
513.56	58969.80
513.73	58342.53
513.90	58590.63
514.08	58555.52
514.25	58913.62
514.43	59112.57
514.60	59065.76
514.77	59377.05
514.95	59491.74
515.12	59325.56
515.29	59477.69
515.47	59875.58
515.64	60142.41
515.81	59803.03
515.99	59201.51
516.16	58159.97
516.33	55763.26
516.51	54457.24
516.68	53396.98
516.85	52861.00
517.03	53413.37
517.20	56175.20
517.37	58253.59
517.54	59377.05
517.72	59091.51
517.89	56781.40
518.06	54384.69
518.24	54387.03
518.41	56594.15
518.58	57942.30
518.75	58244.23
518.93	58288.70
519.10	58302.74
519.27	58590.63
519.45	58759.15
519.62	59561.95
519.79	59889.63
519.96	59636.85
520.14	59075.12
520.31	58340.19
520.48	58452.54
520.65	58763.83
520.83	59927.08
521.00	60034.74
521.17	59561.95
521.34	59475.35
521.52	59653.23
521.69	60102.62
521.86	60685.41
522.03	60097.94
522.20	59264.70
522.38	58281.68
522.55	58033.58
522.72	58576.59
522.89	58831.71
523.07	58967.46
523.24	59224.92
523.41	60018.36
523.58	60198.58
523.75	60776.69
523.92	60659.66
524.10	60528.59
524.27	60699.45
524.44	60446.68
524.61	60233.69
524.78	59901.33
524.96	59910.69
525.13	60039.42
525.30	60130.70
525.47	60591.79
525.64	60530.93
525.81	59810.05
525.98	58457.22
526.16	57106.73
526.33	56711.18
526.50	56193.92
526.67	56030.08
526.84	56575.43
527.01	57364.19
527.18	58284.02
527.36	58862.13
527.53	59805.37
527.70	60123.68
527.87	59611.10
528.04	59157.04
528.21	59578.34
528.38	60111.98
528.55	60846.91
528.72	60835.20
528.89	61338.42
529.07	60938.19
529.24	60076.87
529.41	59653.23
529.58	59018.95
529.75	59114.91
529.92	59419.18
530.09	60016.02
530.26	60404.55
530.43	60795.42
530.60	60774.35
530.77	60989.68
530.94	60982.66
531.11	60718.18
531.28	60273.48
531.46	60154.11
531.63	60266.45
531.80	60219.64
531.97	59814.73
532.14	58883.20
532.31	57897.83
532.48	57392.28
532.65	57326.74
532.82	58300.40
532.99	59316.20
533.16	59611.10
533.33	60221.98
533.50	59894.31
533.67	59433.22
533.84	58927.67
534.01	59145.34
534.18	59276.41
534.35	59426.20
534.52	59253.00
534.69	59405.14
534.86	59969.21
535.03	60175.17
535.20	60514.55
535.37	60811.80
535.54	60938.19
535.71	60720.52
535.88	60507.53
536.05	59786.64
536.22	59484.72
536.38	58972.14
536.55	58604.67
536.72	58096.78
536.89	58014.86
537.06	58770.85
537.23	59674.30
537.40	59732.81
537.57	59859.20
537.74	59538.55
537.91	59515.14
538.08	59512.80
538.25	59597.06
538.42	59709.41
538.59	59419.18
538.75	59077.46
538.92	58649.14
539.09	58618.72
539.26	58262.96
539.43	58265.30
539.60	58183.38
539.77	58253.59
539.94	58195.08
540.11	57684.84
540.28	57001.41
540.44	57233.12
540.61	57415.68
540.78	57593.56
540.95	58056.99
541.12	58335.51
541.29	58740.42
541.46	58894.90
541.62	58934.69
541.79	58780.21
541.96	58391.68
542.13	58347.21
542.30	58597.65
542.47	58787.24
542.63	58473.60
542.80	58192.74
542.97	58485.31
543.14	57911.88
543.31	58071.03
543.48	58801.28
543.64	59435.56
543.81	59730.47
543.98	59456.63
544.15	58946.39
544.32	58347.21
544.48	58391.68
544.65	58724.04
544.82	59283.43
544.99	58717.02
545.16	58450.20
545.32	58213.80
545.49	58976.82
545.66	59370.03
545.83	59131.29
546.00	58915.96
546.16	58588.29
546.33	58611.70
546.50	58335.51
546.67	59044.69
546.83	58590.63
547.00	58630.42
547.17	57853.36
547.34	57354.83
547.50	57275.25
547.67	57677.82
547.84	57755.06
548.00	58274.66
548.17	58721.70
548.34	58419.77
548.51	58518.07
548.67	58557.86
548.84	58475.94
549.01	58464.24
549.18	58225.51
549.34	58351.90
549.51	58391.68
549.68	58372.96
549.84	58071.03
550.01	57939.96
550.18	57841.66
550.34	57928.26
550.51	57925.92
550.68	58145.93
550.84	57296.31
551.01	57457.81
551.18	57581.86
551.34	57886.13
551.51	58035.92
551.68	58527.44
551.84	58415.09
552.01	58248.91
552.18	57996.13
552.34	57221.42
552.51	57057.58
552.68	56767.35
552.84	57228.44
553.01	57516.32
553.18	57537.39
553.34	57556.11
553.51	57689.52
553.67	57965.71
553.84	58082.73
554.01	57928.26
554.17	57799.53
554.34	57918.90
554.51	58010.18
554.67	58199.76
554.84	58195.08
555.00	57645.05
555.17	57523.35
555.33	57588.88
555.50	57462.49
555.67	57504.62
555.83	57289.29
556.00	57106.73
556.16	57130.14
556.33	56868.00
556.50	56549.68
556.66	56289.88
556.83	56456.06
556.99	56289.88
557.16	56451.38
557.32	56900.76
557.49	56985.02
557.65	56870.34
557.82	56830.55
557.98	56846.93
558.15	56275.84
558.32	55526.87
558.48	54738.11
558.65	54831.73
558.81	55227.28
558.98	55564.32
559.14	55868.59
559.31	55772.63
559.47	55716.45
559.64	55538.57
559.80	55316.22
559.97	55451.97
560.13	55716.45
560.30	56411.59
560.46	56933.53
560.63	57286.95
560.79	57109.07
560.96	56479.47
561.12	55791.35
561.29	54892.58
561.45	54927.69
561.61	55412.18
561.78	56013.70
561.94	55840.50
562.11	55676.66
562.27	55264.73
562.44	55861.57
562.60	56214.99
562.77	56348.40
562.93	56222.01
563.10	56151.79
563.26	55571.34
563.42	55920.08
563.59	55643.90
563.75	55618.15
563.92	55229.62
564.08	55255.37
564.24	55636.87
564.41	55540.91
564.57	55693.05
564.74	55510.49
564.90	55473.04
565.07	55288.13
565.23	54880.88
565.39	54344.90
565.56	53888.49
565.72	53710.61
565.88	53947.01
566.05	54270.00
566.21	54401.07
566.38	54560.23
566.54	54796.62
566.70	55002.59
566.87	55344.31
567.03	55583.04
567.19	55662.62
567.36	55274.09
567.52	55004.93
567.68	54738.11
567.85	54305.11
568.01	53947.01
568.17	53558.48
568.34	53652.10
568.50	53567.84
568.66	53464.86
568.83	54024.25
568.99	54071.06
569.15	54061.69
569.32	54150.63
569.48	53717.64
569.64	53652.10
569.81	53453.15
569.97	53085.69
570.13	53294.00
570.30	52762.70
570.46	52453.75
570.62	51845.21
570.78	51414.55
570.95	51889.68
571.11	52673.76
571.27	52802.49
571.43	53301.02
571.60	53265.91
571.76	53516.35
571.92	53743.38
572.09	53808.92
572.25	53829.98
572.41	53989.14
572.57	53719.98
572.74	53769.13
572.90	53497.62
573.06	53296.34
573.22	53401.66
573.38	53413.37
573.55	53581.88
573.71	53755.08
573.87	53581.88
574.03	53291.66
574.20	53001.43
574.36	52868.02
574.52	52643.33
574.68	52526.30
574.84	52320.34
575.01	51779.67
575.17	51662.64
575.33	52058.20
575.49	52240.76
575.65	52332.04
575.82	52168.20
575.98	51931.81
576.14	52072.24
576.30	52594.18
576.46	52631.63
576.62	52416.30
576.79	52746.31
576.95	51987.98
577.11	52121.39
577.27	52219.69
577.43	52147.14
577.59	51950.53
577.75	51477.74
577.92	50918.35
578.08	50450.25
578.24	50595.36
578.40	50787.28
578.56	51330.29
578.72	50937.08
578.88	51281.14
579.04	51655.62
579.21	51866.27
579.37	51604.13
579.53	51697.75
579.69	51489.45
579.85	51517.53
580.01	51538.60
580.17	51091.55
580.33	50883.25
580.49	51070.49
580.65	51681.37
580.82	51784.35
580.98	51498.81
581.14	51468.38
581.30	51349.01
581.46	51079.85
581.62	51786.69
581.78	51814.78
581.94	51971.60
582.10	51660.30
582.26	52090.96
582.42	51519.87
582.58	51800.74
582.74	51646.26
582.90	51854.57
583.06	51662.64
583.22	51227.31
583.38	51367.74
583.54	51208.58
583.70	51068.15
583.86	51407.53
584.02	50958.14
584.18	51461.36
584.34	51119.64
584.50	51349.01
584.66	50892.61
584.82	50768.56
584.98	50419.82
585.14	50216.19
