SpectraSuite Data File
++++++++++++++++++++++++++++++++++++
Date: Mon Oct 07 14:53:59 GMT-05:00 2013
User: price-jones
Dark Spectrum Present: No
Reference Spectrum Present: No
Number of Sampled Component Spectra: 1
Spectrometers: USB2+H05261
Integration Time (usec): 100000 (USB2+H05261)
Spectra Averaged: 1 (USB2+H05261)
Boxcar Smoothing: 0 (USB2+H05261)
Correct for Electrical Dark: No (USB2+H05261)
Strobe/Lamp Enabled: No (USB2+H05261)
Correct for Detector Non-linearity: No (USB2+H05261)
Correct for Stray Light: No (USB2+H05261)
Number of Pixels in Processed Spectrum: 2048
>>>>>Begin Processed Spectral Data<<<<<
365.73	0.00
365.92	0.00
366.12	0.00
366.32	0.00
366.52	0.00
366.72	0.00
366.91	0.00
367.11	0.00
367.31	0.00
367.51	0.00
367.70	0.00
367.90	0.00
368.10	0.00
368.30	0.00
368.49	0.00
368.69	0.00
368.89	0.00
369.09	0.00
369.28	0.00
369.48	0.00
369.68	0.00
369.87	0.00
370.07	0.00
370.27	0.00
370.47	704.50
370.66	3508.46
370.86	4093.60
371.06	4482.13
371.25	4620.22
371.45	4042.11
371.65	3726.13
371.84	3424.20
372.04	3510.80
372.24	4058.49
372.44	4121.68
372.63	4114.66
372.83	3946.14
373.03	3485.06
373.22	3124.62
373.42	3236.96
373.62	3733.15
373.81	4109.98
374.01	4168.49
374.21	3716.77
374.40	3501.44
374.60	3562.30
374.79	4053.81
374.99	4781.71
375.19	5242.80
375.38	5067.26
375.58	4730.22
375.78	4720.86
375.97	4809.80
376.17	4971.30
376.37	5004.07
376.56	5179.61
376.76	5387.91
376.95	5947.30
377.15	6183.70
377.35	6373.28
377.54	6569.88
377.74	6623.72
377.93	6686.91
378.13	6534.78
378.33	6181.35
378.52	5767.08
378.72	5621.97
378.91	5593.88
379.11	5205.35
379.31	5125.77
379.50	5327.06
379.70	5427.70
379.89	5959.00
380.09	6621.38
380.28	6789.89
380.48	6555.84
380.68	6422.43
380.87	6448.18
381.07	5970.71
381.26	5540.05
381.46	5184.29
381.65	5104.71
381.85	4770.01
382.04	4531.28
382.24	4236.37
382.43	4081.89
382.63	3920.40
382.83	4107.64
383.02	4046.79
383.22	3974.23
383.41	4016.36
383.61	4367.44
383.80	4884.70
384.00	5507.28
384.19	6143.91
384.39	6642.44
384.58	6640.10
384.78	6452.86
384.97	6345.19
385.17	6036.24
385.36	5834.96
385.56	5418.34
385.75	5614.95
385.95	6150.93
386.14	6675.21
386.34	6853.09
386.53	6427.11
386.72	5996.45
386.92	6090.07
387.11	6406.05
387.31	6876.49
387.50	6654.14
387.70	6373.28
387.89	6356.90
388.09	6417.75
388.28	6553.50
388.48	6558.18
388.67	6991.18
388.86	7831.43
389.06	8243.37
389.25	8571.04
389.45	8617.85
389.64	8674.03
389.84	8674.03
390.03	8381.46
390.22	8301.88
390.42	8851.91
390.61	9434.70
390.81	9888.76
391.00	10171.97
391.19	10043.24
391.39	9598.54
391.58	9254.48
391.78	8643.60
391.97	8463.38
392.16	7723.77
392.36	7122.25
392.55	5713.25
392.75	4601.49
392.94	3709.75
393.13	3576.34
393.33	4241.05
393.52	5544.73
393.71	6597.97
393.91	7779.94
394.10	8229.32
394.29	9139.79
394.49	9884.08
394.68	10679.86
394.88	10471.56
395.07	10881.15
395.26	10794.55
395.46	10366.23
395.65	9820.89
395.84	8648.28
396.04	7452.27
396.23	6031.56
396.42	4985.34
396.62	4931.51
396.81	5872.40
397.00	7145.66
397.19	9116.39
397.39	10546.45
397.58	12180.15
397.77	12924.44
397.97	13472.12
398.16	13186.58
398.35	13893.42
398.55	14424.72
398.74	14705.59
398.93	15250.93
399.12	14576.86
399.32	14251.52
399.51	14817.93
399.70	15800.96
399.90	15484.98
400.09	15335.19
400.28	15042.62
400.47	15187.74
400.67	16067.78
400.86	16503.12
401.05	16720.79
401.24	16592.06
401.44	16966.54
401.63	16926.75
401.82	17055.48
402.01	17106.98
402.21	16999.31
402.40	17263.79
402.59	16809.73
402.78	16154.38
402.97	15424.13
403.17	16098.20
403.36	17305.92
403.55	17877.01
403.74	18258.52
403.93	17139.74
404.13	15910.96
404.32	15417.11
404.51	16336.94
404.70	17689.77
404.89	17511.89
405.09	17385.50
405.28	16657.59
405.47	16697.38
405.66	16952.50
405.85	16322.90
406.05	15880.53
406.24	16013.95
406.43	16681.00
406.62	16947.82
406.81	17488.48
407.00	16697.38
407.20	16578.01
407.39	16329.92
407.58	17376.14
407.77	17935.53
407.96	18724.29
408.15	18663.43
408.34	18881.10
408.54	19929.66
408.73	19775.19
408.92	19569.22
409.11	19096.43
409.30	17958.93
409.49	16879.94
409.68	15875.85
409.87	15374.98
410.07	16170.76
410.26	17778.71
410.45	18572.15
410.64	19066.00
410.83	19695.61
411.02	20365.00
411.21	21015.67
411.40	20769.91
411.59	20816.72
411.78	20865.88
411.98	20563.95
412.17	21022.69
412.36	20332.23
412.55	20793.32
412.74	19969.45
412.93	19730.72
413.12	19805.61
413.31	21614.85
413.50	21750.60
413.69	22104.02
413.88	21294.19
414.07	20940.77
414.26	20919.71
414.45	21802.09
414.64	21900.39
414.83	21905.07
415.02	21495.48
415.22	21469.73
415.41	21795.07
415.60	22773.41
415.79	23438.12
415.98	24044.32
416.17	24198.80
416.36	23360.89
416.55	23073.00
416.74	22277.22
416.93	21364.41
417.12	21701.45
417.31	21841.88
417.50	22089.98
417.69	23215.77
417.88	23133.86
418.07	22686.81
418.26	22298.28
418.45	22324.03
418.64	23342.16
418.83	24093.47
419.02	23843.04
419.21	23779.84
419.39	22836.61
419.58	21394.84
419.77	21558.67
419.96	22373.18
420.15	23782.18
420.34	24662.22
420.53	25305.87
420.72	25654.61
420.91	25731.85
421.10	25205.23
421.29	24814.36
421.48	24432.85
421.67	25233.32
421.86	24496.05
422.05	23117.47
422.24	20505.43
422.43	20360.32
422.61	22237.43
422.80	24196.46
422.99	24123.90
423.18	23370.25
423.37	23033.21
423.56	23335.14
423.75	23501.32
423.94	23896.87
424.13	22923.21
424.32	23274.29
424.50	23073.00
424.69	22632.98
424.88	22838.95
425.07	22632.98
425.26	22504.25
425.45	22368.50
425.64	21750.60
425.83	21666.34
426.01	23396.00
426.20	23854.74
426.39	23648.77
426.58	22171.89
426.77	20224.57
426.96	19389.00
427.15	20278.40
427.33	22204.66
427.52	22998.10
427.71	22817.88
427.90	22548.72
428.09	22483.19
428.28	21975.29
428.46	21249.72
428.65	21013.33
428.84	21404.20
429.03	21748.26
429.22	20451.60
429.40	19660.50
429.59	17811.48
429.78	15515.41
429.97	15644.14
430.16	15985.86
430.34	15871.17
430.53	16079.48
430.72	16084.16
430.91	17977.65
431.10	21336.32
431.28	25046.07
431.47	26897.44
431.66	27487.25
431.85	24971.18
432.03	23140.88
432.22	21827.84
432.41	22661.07
432.60	25130.33
432.79	26118.04
432.97	26415.29
433.16	26412.95
433.35	23999.85
433.54	21500.16
433.72	20432.88
433.91	20863.54
434.10	23302.37
434.28	25184.16
434.47	26008.03
434.66	25781.00
434.85	25062.46
435.03	24868.19
435.22	25930.80
435.41	27330.44
435.59	27620.66
435.78	27487.25
435.97	28191.75
436.16	28594.32
436.34	28369.63
436.53	27480.23
436.72	27878.12
436.90	26003.35
437.09	26214.00
437.28	25750.57
437.46	26567.42
437.65	26122.72
437.84	24793.29
438.02	22363.82
438.21	22359.14
438.40	23929.64
438.58	25415.88
438.77	26401.24
438.96	26724.24
439.14	27627.68
439.33	28451.55
439.52	28526.45
439.70	28283.03
439.89	27400.65
440.08	26810.84
440.26	26944.25
440.45	27421.72
440.63	29467.34
440.82	30871.67
441.01	30801.45
441.19	30410.58
441.38	30974.65
441.57	31995.12
441.75	32404.72
441.94	32484.30
442.12	32091.09
442.31	32783.88
442.50	32421.10
442.68	32442.17
442.87	31798.52
443.05	31473.18
443.24	31943.63
443.43	32208.11
443.61	32992.19
443.80	33682.65
443.98	31185.30
444.17	31880.44
444.35	33708.40
444.54	34113.31
444.73	33680.31
444.91	32264.28
445.10	30909.11
445.28	30010.35
445.47	29263.72
445.65	29654.59
445.84	30480.80
446.02	31342.11
446.21	31866.39
446.39	31761.07
446.58	32350.88
446.77	32687.92
446.95	32886.87
447.14	34106.29
447.32	34164.80
447.51	33874.57
447.69	32959.42
447.88	32215.13
448.06	32404.72
448.25	33443.91
448.43	33867.55
448.62	32823.67
448.80	32488.98
448.99	32659.84
449.17	32980.49
449.36	33347.95
449.54	34300.55
449.73	34834.19
449.91	35222.72
450.10	36121.49
450.28	36751.09
450.46	36294.69
450.65	36381.29
450.83	36196.38
451.02	35257.83
451.20	35489.54
451.39	35264.85
451.57	34993.35
451.76	34576.73
451.94	34651.63
452.13	34150.76
452.31	32627.07
452.49	31442.76
452.68	31241.47
452.86	31475.52
453.05	31920.23
453.23	32994.53
453.42	33692.01
453.60	34089.90
453.78	35002.71
453.97	34508.86
454.15	34415.24
454.34	33535.20
454.52	33565.62
454.70	32704.31
454.89	33858.19
455.07	33432.21
455.26	33951.81
455.44	35510.61
455.62	35929.56
455.81	36425.76
455.99	35700.19
456.17	35824.24
456.36	35658.06
456.54	36760.45
456.73	36573.21
456.91	36886.84
457.09	37022.59
457.28	38342.66
457.46	36655.13
457.64	36334.48
457.83	35077.61
458.01	34749.93
458.19	35180.59
458.38	35491.88
458.56	36708.96
458.74	36636.41
458.93	35784.45
459.11	35854.67
459.29	35833.60
459.48	35622.95
459.66	35510.61
459.84	35648.70
460.03	36088.72
460.21	36304.05
460.39	37191.11
460.57	37287.07
460.76	37993.92
460.94	37626.45
461.12	37043.66
461.31	37258.99
461.49	37324.52
461.67	37413.46
461.85	38197.54
462.04	38010.30
462.22	38433.94
462.40	38508.83
462.59	37963.49
462.77	37949.45
462.95	38719.48
463.13	37338.57
463.32	37214.52
463.50	36896.20
463.68	37195.79
463.86	37284.73
464.05	36554.49
464.23	36088.72
464.41	36203.41
464.59	35278.89
464.78	37193.45
464.96	36601.30
465.14	36432.78
465.32	37429.85
465.50	38464.36
465.69	38380.10
465.87	37631.13
466.05	36524.06
466.23	35234.42
466.41	34265.44
466.60	35407.62
466.78	35426.35
466.96	35838.28
467.14	36432.78
467.32	37095.15
467.51	37439.21
467.69	35250.81
467.87	36346.18
468.05	36655.13
468.23	36938.33
468.41	36510.02
468.60	36877.48
468.78	37092.81
468.96	36847.05
469.14	37750.50
469.32	37666.24
469.50	35971.69
469.69	36301.71
469.87	35812.54
470.05	35887.43
470.23	35828.92
470.41	35742.32
470.59	36191.70
470.77	36711.30
470.95	37024.93
471.14	37441.55
471.32	37523.47
471.50	39463.77
471.68	39323.34
471.86	39842.94
472.04	40367.22
472.22	40528.72
472.40	38272.44
472.58	38150.73
472.77	37514.11
472.95	38532.24
473.13	38934.81
473.31	38700.76
473.49	38321.59
473.67	39084.61
473.85	39454.41
474.03	40292.32
474.21	40442.12
474.39	41062.36
474.57	41268.33
474.75	40942.99
474.93	40591.91
475.12	39849.96
475.30	39889.75
475.48	40126.14
475.66	40774.47
475.84	40165.93
476.02	39800.81
476.20	39009.71
476.38	39929.54
476.56	40856.39
476.74	41844.10
476.92	41832.39
477.10	42363.70
477.28	43117.35
477.46	43405.23
477.64	43971.64
477.82	44327.41
478.00	44346.13
478.18	43276.51
478.36	43445.02
478.54	43501.20
478.72	44194.00
478.90	44720.62
479.08	45668.53
479.26	46045.36
479.44	46050.04
479.62	45984.51
479.80	46082.81
479.98	46237.28
480.16	46520.49
480.34	45752.79
480.52	46279.41
480.70	46766.24
480.88	46567.30
481.06	47690.76
481.24	47489.47
481.41	48261.85
481.59	48947.62
481.77	49006.14
481.95	48299.30
482.13	47992.68
482.31	47990.34
482.49	48772.08
482.67	48540.37
482.85	48624.63
483.03	48971.03
483.21	49610.00
483.39	49762.13
483.57	48697.19
483.74	48849.32
483.92	48919.54
484.10	49518.71
484.28	49904.90
484.46	50712.39
484.64	50941.76
484.82	49942.35
485.00	49593.61
485.18	48727.61
485.35	47611.18
485.53	44446.77
485.71	40236.15
485.89	40084.01
486.07	42157.73
486.25	45216.81
486.43	47393.51
486.61	48470.15
486.78	48449.09
486.96	48624.63
487.14	50333.22
487.32	51054.11
487.50	51803.08
487.68	52800.15
487.85	53289.32
488.03	53097.39
488.21	52743.97
488.39	51779.67
488.57	51367.74
488.75	51126.66
488.92	52210.33
489.10	54255.96
489.28	55311.54
489.46	55927.10
489.64	55655.60
489.81	55906.04
489.99	55524.53
490.17	55735.18
490.35	55976.25
490.53	55559.64
490.70	54841.09
490.88	55065.78
491.06	55978.59
491.24	55957.53
491.41	54864.50
491.59	53228.46
491.77	52549.71
491.95	53844.02
492.13	54953.44
492.30	55950.51
492.48	56676.07
492.66	57139.50
492.84	57282.27
493.01	56879.70
493.19	56472.45
493.37	55917.74
493.54	55655.60
493.72	56395.21
493.90	57375.89
494.08	57932.94
494.25	58335.51
494.43	58492.33
494.61	58897.24
494.79	58745.11
494.96	58712.34
495.14	58033.58
495.32	57160.56
495.49	56722.88
495.67	57588.88
495.85	58798.94
496.02	59386.41
496.20	59245.98
496.38	58541.48
496.55	58489.99
496.73	59025.97
496.91	59288.11
497.09	59765.58
497.26	59781.96
497.44	59503.44
497.62	58845.75
497.79	58174.02
497.97	57186.31
498.14	57247.16
498.32	58131.89
498.50	59025.97
498.67	59484.72
498.85	59196.83
499.03	59508.12
499.20	59639.19
499.38	59877.93
499.56	59669.62
499.73	58920.65
499.91	58848.09
500.08	58471.26
500.26	57616.97
500.44	57977.41
500.61	59002.56
500.79	58454.88
500.97	58300.40
501.14	58068.69
501.32	57736.34
501.49	57932.94
501.67	58169.33
501.84	58672.55
502.02	58829.37
502.20	58983.84
502.37	59325.56
502.55	59288.11
502.72	59959.84
502.90	60114.32
503.07	59966.87
503.25	59363.01
503.43	58850.43
503.60	58370.62
503.78	57722.29
503.95	58045.29
504.13	59330.24
504.30	60151.77
504.48	59882.61
504.65	59447.27
504.83	59421.52
505.01	59997.29
505.18	60362.42
505.36	60910.10
505.53	60924.14
505.71	61331.40
505.88	61270.54
506.06	60736.90
506.23	60603.49
506.41	60102.62
506.58	60130.70
506.76	60238.37
506.93	60296.88
507.11	59917.71
507.28	60224.32
507.46	59728.13
507.63	59105.55
507.81	58883.20
507.98	58901.92
508.16	59917.71
508.33	60175.17
508.50	60647.96
508.68	60786.05
508.85	61317.35
509.03	61326.72
509.20	61233.10
509.38	60465.40
509.55	59690.68
509.73	59863.88
509.90	60521.57
510.08	60678.39
510.25	60537.96
510.42	60329.65
510.60	60184.54
510.77	60626.90
510.95	61017.77
511.12	61329.06
511.30	61312.67
511.47	61813.55
511.64	61656.73
511.82	61560.77
511.99	60530.93
512.17	60207.94
512.34	59678.98
512.51	60055.81
512.69	60172.83
512.86	60243.05
513.04	60690.09
513.21	60654.98
513.38	60287.52
513.56	59774.94
513.73	59255.34
513.90	59721.11
514.08	59414.50
514.25	59880.27
514.43	60018.36
514.60	60069.85
514.77	60168.15
514.95	60292.20
515.12	60161.13
515.29	60397.52
515.47	60898.40
515.64	61144.16
515.81	60779.03
515.99	60266.45
516.16	58969.80
516.33	56626.92
516.51	55646.24
516.68	54445.54
516.85	54365.96
517.03	54576.61
517.20	57102.05
517.37	59421.52
517.54	60236.03
517.72	59924.74
517.89	57513.98
518.06	55332.60
518.24	55604.11
518.41	57855.70
518.58	59004.91
518.75	59121.93
518.93	59346.62
519.10	59194.49
519.27	59517.48
519.45	59784.30
519.62	60472.42
519.79	60697.11
519.96	60638.60
520.14	60231.35
520.31	59363.01
520.48	59597.06
520.65	59788.98
520.83	60552.00
521.00	61008.40
521.17	60568.38
521.34	60175.17
521.52	60346.03
521.69	61073.94
521.86	61504.60
522.03	60989.68
522.20	60193.90
522.38	58897.24
522.55	59133.63
522.72	59473.01
522.89	59784.30
523.07	59999.63
523.24	60362.42
523.41	61062.24
523.58	61221.39
523.75	61635.67
523.92	61476.51
524.10	61467.15
524.27	61588.86
524.44	61216.71
524.61	61123.09
524.78	60900.74
524.96	60804.78
525.13	60786.05
525.30	61113.73
525.47	61481.19
525.64	61415.66
525.81	60701.79
525.98	59496.42
526.16	58342.53
526.33	57462.49
526.50	57116.09
526.67	56704.16
526.84	57289.29
527.01	58351.90
527.18	59164.06
527.36	59950.48
527.53	60779.03
527.70	60793.07
527.87	60390.50
528.04	60097.94
528.21	60519.23
528.38	61179.26
528.55	61689.50
528.72	61724.61
528.89	62115.48
529.07	61785.46
529.24	61151.18
529.41	60603.49
529.58	60065.17
529.75	60126.02
529.92	60420.93
530.09	60999.04
530.26	61516.30
530.43	61586.52
530.60	61595.88
530.77	61858.02
530.94	61911.85
531.11	61406.30
531.28	61160.54
531.46	60999.04
531.63	61165.22
531.80	60966.27
531.97	60802.44
532.14	59927.08
532.31	58878.52
532.48	58248.91
532.65	58209.12
532.82	59040.01
532.99	60360.08
533.16	60432.63
533.33	61118.41
533.50	60846.91
533.67	60292.20
533.84	59676.64
534.01	60264.11
534.18	60278.16
534.35	60498.17
534.52	60339.01
534.69	60568.38
534.86	60905.42
535.03	60947.55
535.20	61600.56
535.37	61778.44
535.54	61829.93
535.71	61525.66
535.88	61123.09
536.05	60673.71
536.22	60161.13
536.38	60041.76
536.55	59592.38
536.72	59084.48
536.89	58927.67
537.06	59856.86
537.23	60678.39
537.40	60779.03
537.57	60935.85
537.74	60662.00
537.91	60388.16
538.08	60397.52
538.25	60434.97
538.42	60666.69
538.59	60357.74
538.75	59868.56
538.92	59791.33
539.09	59667.28
539.26	59192.15
539.43	59292.79
539.60	59323.22
539.77	59458.97
539.94	59128.95
540.11	58635.10
540.28	58099.12
540.44	58319.13
540.61	58389.34
540.78	58452.54
540.95	59091.51
541.12	59449.61
541.29	59676.64
541.46	59952.82
541.62	60062.83
541.79	59929.42
541.96	59365.35
542.13	59199.17
542.30	59473.01
542.47	59714.09
542.63	59456.63
542.80	59161.72
542.97	59304.49
543.14	59180.45
543.31	59238.96
543.48	59742.17
543.64	60636.26
543.81	60910.10
543.98	60591.79
544.15	59835.80
544.32	59344.28
544.48	59367.69
544.65	59772.60
544.82	60381.14
544.99	59840.48
545.16	59407.48
545.32	59206.19
545.49	59950.48
545.66	60374.12
545.83	60013.68
546.00	59688.34
546.16	59444.93
546.33	59473.01
546.50	59482.37
546.67	59880.27
546.83	59501.10
547.00	59470.67
547.17	58918.31
547.34	58391.68
547.50	58401.05
547.67	58670.21
547.84	58890.22
548.00	59206.19
548.17	59861.54
548.34	59559.61
548.51	59388.75
548.67	59655.57
548.84	59473.01
549.01	59423.86
549.18	59203.85
549.34	59358.33
549.51	59304.49
549.68	59302.15
549.84	58894.90
550.01	58803.62
550.18	58562.54
550.34	58857.45
550.51	58885.54
550.68	59051.72
550.84	58543.82
551.01	58592.97
551.18	58501.69
551.34	58838.73
551.51	59112.57
551.68	59545.57
551.84	59414.50
552.01	59199.17
552.18	59025.97
552.34	58288.70
552.51	57872.09
552.68	58012.52
552.84	58415.09
553.01	58576.59
553.18	58569.57
553.34	58553.18
553.51	58728.72
553.67	58927.67
553.84	59128.95
554.01	58803.62
554.17	58798.94
554.34	58911.28
554.51	59089.16
554.67	59367.69
554.84	58976.82
555.00	58705.32
555.17	58560.20
555.33	58569.57
555.50	58637.44
555.67	58506.37
555.83	58356.58
556.00	58234.87
556.16	58122.52
556.33	57631.01
556.50	57675.48
556.66	57638.03
556.83	57296.31
556.99	57485.90
557.16	57687.18
557.32	57776.12
557.49	57972.73
557.65	57872.09
557.82	57979.75
557.98	57764.42
558.15	57481.22
558.32	56713.52
558.48	55711.77
558.65	56156.47
558.81	56402.23
558.98	56460.74
559.14	57073.96
559.31	57043.54
559.47	56816.50
559.64	56720.54
559.80	56315.63
559.97	56472.45
560.13	56711.18
560.30	57733.99
560.46	58148.27
560.63	57977.41
560.79	58585.95
560.96	57909.53
561.12	56851.61
561.29	56116.68
561.45	56259.46
561.61	56545.00
561.78	56907.79
561.94	56779.06
562.11	56807.14
562.27	56573.09
562.44	57160.56
562.60	57284.61
562.77	57537.39
562.93	57378.23
563.10	57127.80
563.26	56825.87
563.42	56612.88
563.59	56453.72
563.75	56364.78
563.92	56493.51
564.08	56552.02
564.24	56746.29
564.41	56959.28
564.57	56956.94
564.74	56472.45
564.90	56779.06
565.07	56186.90
565.23	56046.47
565.39	55311.54
565.56	55194.51
565.72	54883.22
565.88	55398.14
566.05	55641.56
566.21	55669.64
566.38	55852.20
566.54	55891.99
566.70	56189.24
566.87	56556.70
567.03	56470.11
567.19	56725.22
567.36	56362.44
567.52	56268.82
567.68	55978.59
567.85	55377.08
568.01	55201.53
568.17	54883.22
568.34	54691.30
568.50	54635.13
568.66	54808.32
568.83	55295.16
568.99	55187.49
569.15	55543.25
569.32	55444.95
569.48	55002.59
569.64	54845.77
569.81	54604.70
569.97	54585.97
570.13	54490.01
570.30	54307.45
570.46	53846.36
570.62	53368.90
570.78	53010.79
570.95	53219.10
571.11	53909.56
571.27	53907.22
571.43	54532.14
571.60	54803.64
571.76	54955.78
571.92	54976.84
572.09	55037.70
572.25	54901.95
572.41	55271.75
572.57	54906.63
572.74	54810.67
572.90	54628.10
573.06	54583.63
573.22	54635.13
573.38	54756.83
573.55	54506.40
573.71	54986.21
573.87	54735.77
574.03	54536.82
574.20	54541.50
574.36	54389.37
574.52	53876.79
574.68	53668.48
574.84	53411.02
575.01	53174.63
575.17	53015.47
575.33	53251.87
575.49	53333.79
575.65	53478.90
575.82	53373.58
575.98	52996.75
576.14	53645.08
576.30	53881.47
576.46	53710.61
576.62	53806.58
576.79	53427.41
576.95	53188.67
577.11	53286.98
577.27	53628.69
577.43	53631.04
577.59	53085.69
577.75	52694.82
577.92	51866.27
578.08	51739.88
578.24	51875.63
578.40	52119.05
578.56	52538.01
578.72	52765.04
578.88	52846.96
579.04	53013.13
579.21	53029.52
579.37	53317.40
579.53	53347.83
579.69	53043.56
579.85	53357.19
580.01	53155.91
580.17	52317.99
580.33	52509.92
580.49	52718.23
580.65	52760.36
580.82	52940.58
580.98	53050.58
581.14	53244.85
581.30	53052.92
581.46	53034.20
581.62	53066.97
581.78	52973.34
581.94	53326.77
582.10	53373.58
582.26	52823.55
582.42	53172.29
582.58	53064.63
582.74	52959.30
582.90	52914.83
583.06	52940.58
583.22	52488.85
583.38	52657.37
583.54	52685.46
583.70	52275.87
583.86	52622.26
584.02	52491.19
584.18	52846.96
584.34	52435.02
584.50	52512.26
584.66	52374.17
584.82	52210.33
584.98	51812.44
585.14	51920.10
