SpectraSuite Data File
++++++++++++++++++++++++++++++++++++
Date: Mon Oct 07 14:53:06 GMT-05:00 2013
User: price-jones
Dark Spectrum Present: No
Reference Spectrum Present: No
Number of Sampled Component Spectra: 1
Spectrometers: USB2+H05261
Integration Time (usec): 100000 (USB2+H05261)
Spectra Averaged: 1 (USB2+H05261)
Boxcar Smoothing: 0 (USB2+H05261)
Correct for Electrical Dark: No (USB2+H05261)
Strobe/Lamp Enabled: No (USB2+H05261)
Correct for Detector Non-linearity: No (USB2+H05261)
Correct for Stray Light: No (USB2+H05261)
Number of Pixels in Processed Spectrum: 2048
>>>>>Begin Processed Spectral Data<<<<<
365.73	0.00
365.92	0.00
366.12	0.00
366.32	0.00
366.52	0.00
366.72	0.00
366.91	0.00
367.11	0.00
367.31	0.00
367.51	0.00
367.70	0.00
367.90	0.00
368.10	0.00
368.30	0.00
368.49	0.00
368.69	0.00
368.89	0.00
369.09	0.00
369.28	0.00
369.48	0.00
369.68	0.00
369.87	0.00
370.07	0.00
370.27	0.00
370.47	634.29
370.66	3014.61
370.86	3480.38
371.06	3946.14
371.25	3852.52
371.45	3609.11
371.65	3150.36
371.84	3045.04
372.04	3122.27
372.24	3576.34
372.44	3801.03
372.63	3655.92
372.83	3461.65
373.03	2949.08
373.22	2745.45
373.42	2944.39
373.62	3368.03
373.81	3819.75
374.01	3641.87
374.21	3276.75
374.40	2991.20
374.60	3187.81
374.79	3712.09
374.99	4304.25
375.19	4547.66
375.38	4447.02
375.58	4112.32
375.78	4262.12
375.97	4381.48
376.17	4435.32
376.37	4456.38
376.56	4550.00
376.76	4741.93
376.95	5130.45
377.15	5633.67
377.35	5631.33
377.54	5830.27
377.74	6029.22
377.93	6026.88
378.13	5724.95
378.33	5416.00
378.52	5219.39
378.72	4964.28
378.91	4931.51
379.11	4688.09
379.31	4650.64
379.50	4634.26
379.70	4858.95
379.89	5568.13
380.09	5856.02
380.28	5811.55
380.48	5900.49
380.68	5863.04
380.87	5617.29
381.07	5130.45
381.26	4851.93
381.46	4440.00
381.65	4355.74
381.85	4404.89
382.04	4175.52
382.24	3763.58
382.43	3548.25
382.63	3576.34
382.83	3599.74
383.02	3648.90
383.22	3658.26
383.41	3590.38
383.61	3831.46
383.80	4360.42
384.00	4987.68
384.19	5540.05
384.39	5816.23
384.58	5905.17
384.78	5753.04
384.97	5858.36
385.17	5570.48
385.36	5036.83
385.56	4753.63
385.75	5130.45
385.95	5523.66
386.14	5942.62
386.34	5909.85
386.53	5762.40
386.72	5439.40
386.92	5315.36
387.11	5715.59
387.31	6108.80
387.50	5830.27
387.70	5703.89
387.89	5652.39
388.09	5631.33
388.28	5661.76
388.48	5926.24
388.67	6293.70
388.86	6974.80
389.06	7452.27
389.25	7803.35
389.45	7768.24
389.64	7908.67
389.84	7805.69
390.03	7583.34
390.22	7492.05
390.42	7801.01
390.61	8201.24
390.81	8840.20
391.00	9186.60
391.19	8767.65
391.39	8645.94
391.58	8107.62
391.78	7850.16
391.97	7391.41
392.16	7023.95
392.36	6415.41
392.55	5071.94
392.75	4117.00
392.94	3302.50
393.13	3253.34
393.33	3875.93
393.52	4966.62
393.71	6251.57
393.91	6834.36
394.10	7527.16
394.29	8215.28
394.49	8762.97
394.68	9411.29
394.88	9589.17
395.07	9767.06
395.26	9628.96
395.46	9362.14
395.65	8854.25
395.84	7946.12
396.04	6626.06
396.23	5437.06
396.42	4484.47
396.62	4325.31
396.81	5067.26
397.00	6560.52
397.19	8278.47
397.39	9703.86
397.58	10934.98
397.77	11482.67
397.97	11988.22
398.16	12039.72
398.35	12645.91
398.55	12755.92
398.74	13298.92
398.93	13680.43
399.12	13448.72
399.32	12875.29
399.51	13331.69
399.70	14120.45
399.90	13902.78
400.09	13809.16
400.28	13841.93
400.47	13867.67
400.67	14970.07
400.86	15150.29
401.05	14841.34
401.24	15218.16
401.44	15440.51
401.63	15328.17
401.82	15602.01
402.01	15480.30
402.21	15545.84
402.40	15637.12
402.59	15040.28
402.78	14406.00
402.97	14139.18
403.17	14740.69
403.36	15742.44
403.55	15990.54
403.74	16538.23
403.93	15515.41
404.13	14253.86
404.32	14291.31
404.51	14771.12
404.70	16142.67
404.89	15838.41
405.09	15901.60
405.28	15337.53
405.47	15056.67
405.66	15255.61
405.85	14628.35
406.05	14445.79
406.24	14677.50
406.43	15386.68
406.62	15784.57
406.81	15964.79
407.00	15272.00
407.20	14988.79
407.39	15133.90
407.58	15826.70
407.77	16226.93
407.96	17083.57
408.15	17252.09
408.34	17530.61
408.54	18080.64
408.73	18057.23
408.92	17905.10
409.11	17315.28
409.30	16641.21
409.49	15737.76
409.68	14703.25
409.87	14008.11
410.07	14941.98
410.26	16348.64
410.45	17200.60
410.64	17561.04
410.83	18302.99
411.02	18700.88
411.21	19475.60
411.40	19215.80
411.59	19229.84
411.78	18782.80
411.98	19108.13
412.17	19426.45
412.36	18759.39
412.55	19012.17
412.74	18607.26
412.93	18047.87
413.12	18216.39
413.31	19983.49
413.50	20222.23
413.69	20477.35
413.88	19723.69
414.07	19075.37
414.26	19569.22
414.45	19772.85
414.64	20130.95
414.83	20252.66
415.02	19861.79
415.22	19850.08
415.41	20489.05
415.60	21018.01
415.79	21596.12
415.98	22141.47
416.17	22410.63
416.36	21474.42
416.55	21149.08
416.74	20650.55
416.93	20009.24
417.12	19693.27
417.31	20217.55
417.50	20519.48
417.69	21364.41
417.88	21104.61
418.07	21186.53
418.26	20414.15
418.45	20671.61
418.64	21678.04
418.83	22490.21
419.02	21940.18
419.21	21654.64
419.39	20917.37
419.58	19859.45
419.77	20400.11
419.96	21132.70
420.15	22295.94
420.34	22759.37
420.53	23454.51
420.72	23772.82
420.91	23810.27
421.10	23281.31
421.29	23175.98
421.48	22380.20
421.67	23641.75
421.86	22726.60
422.05	21238.02
422.24	18703.22
422.43	19030.90
422.61	21436.97
422.80	22817.88
422.99	22932.57
423.18	21944.86
423.37	21202.91
423.56	21771.66
423.75	21762.30
423.94	22609.58
424.13	21139.72
424.32	21392.50
424.50	21448.67
424.69	21139.72
424.88	21268.45
425.07	20908.01
425.26	20741.83
425.45	21212.28
425.64	20280.74
425.83	20615.44
426.01	22141.47
426.20	22171.89
426.39	22214.02
426.58	20697.36
426.77	19014.51
426.96	18246.82
427.15	19119.84
427.33	20350.96
427.52	21345.69
427.71	21628.89
427.90	21223.98
428.09	21193.55
428.28	20617.78
428.46	20060.73
428.65	19442.83
428.84	20360.32
429.03	20610.76
429.22	19204.10
429.40	18291.29
429.59	16648.23
429.78	14572.18
429.97	15044.96
430.16	14841.34
430.34	14927.94
430.53	15059.01
430.72	15609.03
430.91	17153.79
431.10	20044.35
431.28	23800.91
431.47	25380.77
431.66	25659.29
431.85	23314.08
432.03	21399.52
432.22	20283.08
432.41	21664.00
432.60	23793.89
432.79	24783.93
432.97	25055.43
433.16	25102.25
433.35	22562.76
433.54	20276.06
433.72	19377.30
433.91	19892.21
434.10	21727.19
434.28	23632.39
434.47	25240.34
434.66	24823.72
434.85	23585.58
435.03	23477.91
435.22	23976.45
435.41	25755.26
435.59	25862.92
435.78	26398.90
435.97	26822.54
436.16	26434.01
436.34	26780.41
436.53	25879.30
436.72	26134.42
436.90	24599.03
437.09	24790.95
437.28	24327.53
437.46	25078.84
437.65	25181.82
437.84	23314.08
438.02	21626.55
438.21	21509.52
438.40	22640.00
438.58	24526.47
438.77	25205.23
438.96	25549.29
439.14	26345.07
439.33	27227.45
439.52	27756.41
439.70	26862.33
439.89	26176.55
440.08	25671.00
440.26	25624.18
440.45	26548.70
440.63	28247.93
440.82	29954.18
441.01	29003.92
441.19	29181.80
441.38	29507.13
441.57	30572.08
441.75	30541.65
441.94	30869.33
442.12	30888.05
442.31	31503.61
442.50	31323.39
442.68	30813.15
442.87	29996.31
443.05	30019.71
443.24	30412.92
443.43	31402.97
443.61	31800.86
443.80	31751.71
443.98	30473.78
444.17	30450.37
444.35	31981.08
444.54	32708.99
444.73	32189.39
444.91	30862.30
445.10	29661.61
445.28	28594.32
445.47	28074.73
445.65	28451.55
445.84	28800.29
446.02	30017.37
446.21	30588.46
446.39	30436.33
446.58	30632.93
446.77	31622.98
446.95	32224.50
447.14	32828.35
447.32	33013.26
447.51	32343.86
447.69	30986.35
447.88	30789.75
448.06	31316.37
448.25	32144.92
448.43	32416.42
448.62	31428.71
448.80	31189.98
448.99	31599.57
449.17	31943.63
449.36	31924.91
449.54	33212.20
449.73	33694.35
449.91	34068.84
450.10	35079.95
450.28	35168.89
450.46	35124.42
450.65	35166.55
450.83	34754.61
451.02	34141.39
451.20	33979.90
451.39	33949.47
451.57	33813.72
451.76	33549.24
451.94	33582.01
452.13	33015.60
452.31	31253.17
452.49	29607.78
452.68	30583.78
452.86	30642.29
453.05	30843.58
453.23	32048.96
453.42	32905.59
453.60	32884.53
453.78	33722.44
453.97	33289.44
454.15	33500.09
454.34	32629.41
454.52	32842.40
454.70	32107.47
454.89	32685.58
455.07	32535.79
455.26	33303.48
455.44	34628.23
455.62	34663.33
455.81	35381.88
455.99	34953.56
456.17	34785.04
456.36	34930.16
456.54	35723.60
456.73	35381.88
456.91	36449.16
457.09	36404.69
457.28	37015.57
457.46	35637.00
457.64	35447.41
457.83	34235.02
458.01	33354.97
458.19	34576.73
458.38	34663.33
458.56	35543.38
458.74	35468.48
458.93	34731.21
459.11	35199.32
459.29	34398.85
459.48	35063.57
459.66	34534.60
459.84	35655.72
460.03	35405.28
460.21	35356.13
460.39	36112.13
460.57	36460.87
460.76	36547.47
460.94	36797.90
461.12	36486.61
461.31	36519.38
461.49	36395.33
461.67	36851.73
461.85	37528.15
462.04	37139.62
462.22	38127.33
462.40	37780.93
462.59	37123.24
462.77	37415.80
462.95	37661.56
463.13	36758.11
463.32	36666.83
463.50	36491.29
463.68	36479.59
463.86	36444.48
464.05	35927.22
464.23	35335.07
464.41	35236.77
464.59	34305.23
464.78	36163.62
464.96	36191.70
465.14	35908.50
465.32	36926.63
465.50	37947.11
465.69	37912.00
465.87	37102.17
466.05	35831.26
466.23	34003.30
466.41	33722.44
466.60	34827.17
466.78	34829.51
466.96	35473.16
467.14	35859.35
467.32	36318.09
467.51	36615.34
467.69	34405.88
467.87	35524.65
468.05	36006.80
468.23	35842.96
468.41	36531.08
468.60	36622.36
468.78	36680.88
468.96	36140.21
469.14	36783.86
469.32	37038.98
469.50	35428.69
469.69	35618.27
469.87	35386.56
470.05	35194.64
470.23	35103.35
470.41	35257.83
470.59	36004.46
470.77	36133.19
470.95	36613.00
471.14	37092.81
471.32	37120.90
471.50	39353.77
471.68	39559.73
471.86	39793.79
472.04	39690.80
472.22	39768.04
472.40	37919.02
472.58	37659.22
472.77	37165.37
472.95	38000.94
473.13	39084.61
473.31	38192.86
473.49	38279.46
473.67	39014.39
473.85	38965.24
474.03	40062.95
474.21	40194.02
474.39	40620.00
474.57	40514.67
474.75	40992.14
474.93	40556.80
475.12	39346.75
475.30	39737.62
475.48	40348.50
475.66	40727.66
475.84	39798.47
476.02	39920.18
476.20	39056.52
476.38	40074.65
476.56	41125.55
476.74	41441.53
476.92	41694.30
477.10	42195.18
477.28	43517.58
477.46	43536.30
477.64	44030.16
477.82	43501.20
478.00	44467.84
478.18	43428.64
478.36	43515.24
478.54	43278.85
478.72	43737.59
478.90	44421.03
479.08	46195.15
479.26	46241.96
479.44	46064.08
479.62	45977.48
479.80	45708.32
479.98	45968.12
480.16	46253.67
480.34	45921.31
480.52	46424.53
480.70	46604.75
480.88	46813.05
481.06	47721.18
481.24	47594.79
481.41	48622.29
481.59	48907.83
481.77	48650.38
481.95	48123.75
482.13	48203.33
482.31	48109.71
482.49	48629.31
482.67	48531.01
482.85	48914.86
483.03	49556.16
483.21	49757.45
483.39	49858.09
483.57	48996.77
483.74	49043.59
483.92	49448.50
484.10	49593.61
484.28	50225.56
484.46	50251.30
484.64	51152.41
484.82	49858.09
485.00	49607.65
485.18	48858.68
485.35	47943.53
485.53	44428.05
485.71	40622.34
485.89	40114.44
486.07	42436.25
486.25	46127.28
486.43	47995.03
486.61	48371.85
486.78	48720.59
486.96	48814.21
487.14	50197.47
487.32	51405.19
487.50	52233.74
487.68	52966.32
487.85	53331.45
488.03	53284.64
488.21	52861.00
488.39	51999.68
488.57	51646.26
488.75	51487.10
488.92	52619.92
489.10	54223.19
489.28	55419.20
489.46	56299.25
489.64	55664.96
489.81	55973.91
489.99	55597.09
490.17	55966.89
490.35	56065.19
490.53	55739.86
490.70	55196.85
490.88	55341.97
491.06	56200.94
491.24	56137.75
491.41	55217.92
491.59	53691.89
491.77	53104.41
491.95	54274.68
492.13	55292.82
492.30	56355.42
492.48	56992.04
492.66	57558.45
492.84	57411.00
493.01	57373.55
493.19	56559.05
493.37	56498.19
493.54	56282.86
493.72	56910.13
493.90	57820.59
494.08	58358.92
494.25	58679.57
494.43	58836.39
494.61	59182.79
494.79	59238.96
494.96	59168.74
495.14	58522.76
495.32	57808.89
495.49	56980.34
495.67	58216.14
495.85	59327.90
496.02	59643.87
496.20	59437.90
496.38	59086.82
496.55	59105.55
496.73	59566.63
496.91	59606.42
497.09	59910.69
497.26	60315.61
497.44	59650.89
497.62	59358.33
497.79	58660.85
497.97	57244.82
498.14	57645.05
498.32	58567.23
498.50	59419.18
498.67	59950.48
498.85	59838.14
499.03	59938.78
499.20	60177.51
499.38	60147.09
499.56	60282.84
499.73	59550.25
499.91	59203.85
500.08	58831.71
500.26	58073.37
500.44	58986.18
500.61	59238.96
500.79	59152.36
500.97	58635.10
501.14	58489.99
501.32	58461.90
501.49	58532.12
501.67	58684.25
501.84	59318.54
502.02	59536.21
502.20	59788.98
502.37	59835.80
502.55	59901.33
502.72	60458.38
502.90	60863.29
503.07	60514.55
503.25	59978.57
503.43	59592.38
503.60	58625.74
503.78	58230.19
503.95	58805.96
504.13	59746.86
504.30	60652.64
504.48	60474.76
504.65	60350.71
504.83	60231.35
505.01	60713.50
505.18	61139.47
505.36	61687.16
505.53	61682.48
505.71	61822.91
505.88	62019.52
506.06	61403.95
506.23	61043.51
506.41	60669.03
506.58	61050.53
506.76	60753.29
506.93	60708.82
507.11	60729.88
507.28	60926.49
507.46	60257.09
507.63	59999.63
507.81	59772.60
507.98	60009.00
508.16	60533.28
508.33	61001.38
508.50	61413.32
508.68	61579.49
508.85	61998.45
509.03	62117.82
509.20	61808.87
509.38	61336.08
509.55	60584.77
509.73	60671.37
509.90	61282.25
510.08	61469.49
510.25	61286.93
510.42	61212.03
510.60	61052.87
510.77	61237.78
510.95	61736.31
511.12	62038.24
511.30	62157.61
511.47	62473.58
511.64	62363.57
511.82	62122.50
511.99	61195.65
512.17	61099.68
512.34	60713.50
512.51	60734.56
512.69	60994.36
512.86	61008.40
513.04	61584.18
513.21	61329.06
513.38	60992.02
513.56	60781.37
513.73	60126.02
513.90	60362.42
514.08	60317.95
514.25	60767.33
514.43	60739.24
514.60	61038.83
514.77	60924.14
514.95	61080.96
515.12	61043.51
515.29	61422.68
515.47	61860.36
515.64	62066.33
515.81	61495.24
515.99	61190.97
516.16	59784.30
516.33	57600.58
516.51	56437.34
516.68	55487.08
516.85	55430.91
517.03	55922.42
517.20	58323.81
517.37	60353.05
517.54	61364.17
517.72	60818.82
517.89	58426.79
518.06	56484.15
518.24	56933.53
518.41	58791.92
518.58	59973.89
518.75	60191.56
518.93	60250.07
519.10	60320.29
519.27	60736.90
519.45	60865.63
519.62	61523.32
519.79	61862.70
519.96	61525.66
520.14	61183.94
520.31	60481.78
520.48	60434.97
520.65	60844.57
520.83	61759.72
521.00	61865.04
521.17	61516.30
521.34	61389.91
521.52	61752.69
521.69	62021.86
521.86	62494.64
522.03	62028.88
522.20	60945.21
522.38	60182.19
522.55	60273.48
522.72	60753.29
522.89	60580.09
523.07	60905.42
523.24	61469.49
523.41	62120.16
523.58	62443.15
523.75	62878.49
523.92	62656.14
524.10	62548.48
524.27	62466.56
524.44	62293.36
524.61	62225.48
524.78	62024.20
524.96	61996.11
525.13	62087.39
525.30	62361.23
525.47	62667.84
525.64	62639.76
525.81	61778.44
525.98	60694.77
526.16	59250.66
526.33	58705.32
526.50	58525.10
526.67	58141.25
526.84	58782.55
527.01	59568.97
527.18	60425.61
527.36	61270.54
527.53	62115.48
527.70	62262.93
527.87	61677.80
528.04	61263.52
528.21	61705.88
528.38	62258.25
528.55	62784.87
528.72	63161.70
528.89	63419.16
529.07	62967.43
529.24	62468.90
529.41	61928.23
529.58	61270.54
529.75	61399.27
529.92	61820.57
530.09	61979.73
530.26	62747.42
530.43	63037.65
530.60	62859.77
530.77	63180.42
530.94	63023.61
531.11	62709.97
531.28	62452.51
531.46	62365.91
531.63	62351.87
531.80	62267.61
531.97	61839.29
532.14	61169.90
532.31	60168.15
532.48	59796.01
532.65	59868.56
532.82	60566.04
532.99	61511.62
533.16	61769.08
533.33	62344.85
533.50	62274.63
533.67	61577.15
533.84	61216.71
534.01	61333.74
534.18	61771.42
534.35	61839.29
534.52	61808.87
534.69	62068.67
534.86	62106.12
535.03	62520.39
535.20	62932.32
535.37	63175.74
535.54	63409.79
535.71	62857.43
535.88	62541.45
536.05	61900.15
536.22	61710.56
536.38	61415.66
536.55	60935.85
536.72	60273.48
536.89	60350.71
537.06	61394.59
537.23	62178.67
537.40	62239.53
537.57	62136.54
537.74	61961.00
537.91	61935.26
538.08	61860.36
538.25	61937.60
538.42	62127.18
538.59	61886.10
538.75	61270.54
538.92	61226.07
539.09	61099.68
539.26	61010.74
539.43	60708.82
539.60	60907.76
539.77	60996.70
539.94	60926.49
540.11	60170.49
540.28	59634.51
540.44	59852.18
540.61	59980.91
540.78	60322.63
540.95	60711.16
541.12	60853.93
541.29	61139.47
541.46	61485.87
541.62	61579.49
541.79	61125.43
541.96	60783.71
542.13	61041.17
542.30	61151.18
542.47	61333.74
542.63	60917.12
542.80	60825.84
542.97	61064.58
543.14	60795.42
543.31	60772.01
543.48	61511.62
543.64	62000.79
543.81	62293.36
543.98	62279.31
544.15	61422.68
544.32	60987.34
544.48	61268.20
544.65	61497.58
544.82	61841.63
544.99	61593.54
545.16	61209.69
545.32	61066.92
545.49	61836.95
545.66	62092.07
545.83	61518.64
546.00	61448.42
546.16	61202.67
546.33	61078.62
546.50	61331.40
546.67	61726.95
546.83	61310.33
547.00	61261.18
547.17	60704.13
547.34	60170.49
547.50	60079.21
547.67	60456.04
547.84	60402.21
548.00	60940.53
548.17	61347.78
548.34	61085.64
548.51	61205.01
548.67	61221.39
548.84	61183.94
549.01	61249.48
549.18	61055.21
549.34	61268.20
549.51	61275.22
549.68	60975.64
549.84	60755.63
550.01	60713.50
550.18	60776.69
550.34	60825.84
550.51	60924.14
550.68	60977.98
550.84	60299.22
551.01	60493.49
551.18	60542.64
551.34	60549.66
551.51	60945.21
551.68	61268.20
551.84	61310.33
552.01	61106.71
552.18	60919.46
552.34	60189.22
552.51	59927.08
552.68	59873.24
552.84	60193.90
553.01	60434.97
553.18	60441.99
553.34	60519.23
553.51	60715.84
553.67	60867.97
553.84	61024.79
554.01	60757.97
554.17	60886.70
554.34	60874.99
554.51	60912.44
554.67	61312.67
554.84	61193.31
555.00	60713.50
555.17	60507.53
555.33	60376.46
555.50	60481.78
555.67	60460.72
555.83	60568.38
556.00	60203.26
556.16	60161.13
556.33	59777.28
556.50	59667.28
556.66	59765.58
556.83	59475.35
556.99	59711.75
557.16	59796.01
557.32	59999.63
557.49	60062.83
557.65	59924.74
557.82	60137.72
557.98	59664.94
558.15	59468.33
558.32	58756.81
558.48	58026.56
558.65	58248.91
558.81	58508.71
558.98	58780.21
559.14	59178.10
559.31	59161.72
559.47	59058.74
559.64	58604.67
559.80	58489.99
559.97	58501.69
560.13	58859.79
560.30	59711.75
560.46	60264.11
560.63	60458.38
560.79	60357.74
560.96	60229.01
561.12	59037.67
561.29	58234.87
561.45	58387.00
561.61	58843.41
561.78	59468.33
561.94	59231.94
562.11	59105.55
562.27	59070.44
562.44	59318.54
562.60	59508.12
562.77	59669.62
562.93	59491.74
563.10	59365.35
563.26	59037.67
563.42	59023.63
563.59	58780.21
563.75	58845.75
563.92	58995.54
564.08	58782.55
564.24	59344.28
564.41	59138.32
564.57	59084.48
564.74	58787.24
564.90	58855.11
565.07	58637.44
565.23	58405.73
565.39	57794.85
565.56	57673.14
565.72	57453.13
565.88	57719.95
566.05	57855.70
566.21	58155.29
566.38	58171.67
566.54	58305.09
566.70	58679.57
566.87	59002.56
567.03	58859.79
567.19	59110.23
567.36	58663.19
567.52	58653.82
567.68	58422.11
567.85	57888.47
568.01	57579.52
568.17	57048.22
568.34	57270.57
568.50	57347.81
568.66	57443.77
568.83	57689.52
568.99	57495.26
569.15	57961.03
569.32	57914.22
569.48	57539.73
569.64	57581.86
569.81	57242.48
569.97	57331.42
570.13	57158.22
570.30	56715.86
570.46	56292.22
570.62	55791.35
570.78	55840.50
570.95	56137.75
571.11	56687.78
571.27	56910.13
571.43	57008.43
571.60	57368.87
571.76	57329.08
571.92	57595.90
572.09	57865.06
572.25	57956.35
572.41	57822.93
572.57	57677.82
572.74	57605.26
572.90	57268.23
573.06	57464.83
573.22	57411.00
573.38	57233.12
573.55	57364.19
573.71	57537.39
573.87	57282.27
574.03	57083.33
574.20	56999.07
574.36	56868.00
574.52	56636.28
574.68	56406.91
574.84	56168.18
575.01	55812.41
575.17	55732.84
575.33	55875.61
575.49	56299.25
575.65	56385.85
575.82	56144.77
575.98	55943.48
576.14	56257.12
576.30	56521.60
576.46	56757.99
576.62	56486.49
576.79	56596.49
576.95	56193.92
577.11	56107.32
577.27	56245.41
577.43	56449.04
577.59	55945.83
577.75	55831.14
577.92	55140.68
578.08	54836.41
578.24	55201.53
578.40	55409.84
578.56	55526.87
578.72	55365.37
578.88	55723.47
579.04	55707.09
579.21	56037.11
579.37	55669.64
579.53	56025.40
579.69	55856.88
579.85	56114.34
580.01	56018.38
580.17	55416.86
580.33	55290.48
580.49	55278.77
580.65	55917.74
580.82	56217.33
580.98	55980.93
581.14	55622.83
581.30	55866.25
581.46	55676.66
581.62	56196.26
581.78	56086.26
581.94	56020.72
582.10	56107.32
582.26	56357.76
582.42	56245.41
582.58	56252.44
582.74	55906.04
582.90	56039.45
583.06	56023.06
583.22	55835.82
583.38	55714.11
583.54	55819.44
583.70	55753.90
583.86	55812.41
584.02	55650.92
584.18	55763.26
584.34	55753.90
584.50	55515.17
584.66	55318.56
584.82	55344.31
584.98	55103.23
585.14	54735.77
585.30	54089.78
