SpectraSuite Data File
++++++++++++++++++++++++++++++++++++
Date: Mon Oct 07 14:55:02 GMT-05:00 2013
User: price-jones
Dark Spectrum Present: No
Reference Spectrum Present: No
Number of Sampled Component Spectra: 1
Spectrometers: USB2+H05261
Integration Time (usec): 10000 (USB2+H05261)
Spectra Averaged: 1 (USB2+H05261)
Boxcar Smoothing: 0 (USB2+H05261)
Correct for Electrical Dark: No (USB2+H05261)
Strobe/Lamp Enabled: No (USB2+H05261)
Correct for Detector Non-linearity: No (USB2+H05261)
Correct for Stray Light: No (USB2+H05261)
Number of Pixels in Processed Spectrum: 2048
>>>>>Begin Processed Spectral Data<<<<<
365.73	0.00
365.92	0.00
366.12	0.00
366.32	0.00
366.52	0.00
366.72	0.00
366.91	0.00
367.11	0.00
367.31	0.00
367.51	0.00
367.70	0.00
367.90	0.00
368.10	0.00
368.30	0.00
368.49	0.00
368.69	0.00
368.89	0.00
369.09	0.00
369.28	0.00
369.48	0.00
369.68	0.00
369.87	0.00
370.07	0.00
370.27	0.00
370.47	477.47
370.66	2513.74
370.86	3059.08
371.06	3328.24
371.25	3157.38
371.45	2759.49
371.65	2607.36
371.84	2476.29
372.04	2621.40
372.24	3000.57
372.44	3117.59
372.63	2932.69
372.83	2616.72
373.03	2389.69
373.22	2104.14
373.42	2422.45
373.62	2855.45
373.81	3007.59
374.01	2895.24
374.21	2548.84
374.40	2356.92
374.60	2593.31
374.79	3187.81
374.99	3557.61
375.19	3672.30
375.38	3557.61
375.58	3389.10
375.78	3543.57
375.97	3529.53
376.17	3442.93
376.37	3524.85
376.56	3779.97
376.76	3971.89
376.95	4234.03
377.15	4461.06
377.35	4620.22
377.54	4641.28
377.74	5100.03
377.93	4880.02
378.13	4587.45
378.33	4325.31
378.52	4112.32
378.72	3983.59
378.91	3779.97
379.11	3810.39
379.31	3637.19
379.50	3817.41
379.70	4236.37
379.89	4489.15
380.09	4786.40
380.28	4954.91
380.48	4793.42
380.68	4723.20
380.87	4489.15
381.07	4140.41
381.26	3808.05
381.46	3672.30
381.65	3581.02
381.85	3461.65
382.04	3129.30
382.24	3103.55
382.43	2916.31
382.63	2972.48
382.83	2874.18
383.02	2932.69
383.22	2909.29
383.41	2958.44
383.61	3236.96
383.80	3644.21
384.00	4198.92
384.19	4571.07
384.39	4826.18
384.58	4873.00
384.78	4891.72
384.97	4624.90
385.17	4437.66
385.36	4138.07
385.56	4032.74
385.75	4248.07
385.95	4671.71
386.14	4992.36
386.34	4938.53
386.53	4781.71
386.72	4442.34
386.92	4620.22
387.11	4980.66
387.31	5083.64
387.50	4865.97
387.70	4791.08
387.89	4627.24
388.09	4774.69
388.28	4924.49
388.48	4947.89
388.67	5380.89
388.86	5867.72
389.06	6370.94
389.25	6504.35
389.45	6609.67
389.64	6384.98
389.84	6436.47
390.03	6443.49
390.22	6511.37
390.42	6567.54
390.61	7169.06
390.81	7463.97
391.00	7777.60
391.19	7461.63
391.39	7325.88
391.58	6855.43
391.78	6354.55
391.97	6202.42
392.16	5837.30
392.36	4919.81
392.55	4119.34
392.75	3194.83
392.94	2717.36
393.13	2822.69
393.33	3597.40
393.52	4479.79
393.71	5303.65
393.91	5998.79
394.10	6747.76
394.29	7176.08
394.49	7775.26
394.68	8021.02
394.88	8053.78
395.07	8386.14
395.26	8170.81
395.46	7950.80
395.65	7255.66
395.84	6160.29
396.04	5144.50
396.23	4109.98
396.42	3574.00
396.62	3929.76
396.81	4650.64
397.00	5926.24
397.19	7260.34
397.39	8168.47
397.58	9376.19
397.77	9989.41
397.97	10160.27
398.16	10317.08
398.35	10696.25
398.55	11075.42
398.74	11431.18
398.93	11466.28
399.12	11461.60
399.32	10927.96
399.51	11384.37
399.70	12219.94
399.90	11808.00
400.09	11894.60
400.28	11595.01
400.47	11789.28
400.67	12573.36
400.86	12912.74
401.05	12772.30
401.24	12872.95
401.44	12865.92
401.63	13149.13
401.82	13121.04
402.01	13153.81
402.21	13301.26
402.40	13422.97
402.59	12695.07
402.78	12311.22
402.97	12521.87
403.17	12971.25
403.36	13640.64
403.55	13612.56
403.74	13760.01
403.93	13181.90
404.13	12128.66
404.32	12311.22
404.51	13385.52
404.70	13984.70
404.89	13640.64
405.09	13324.67
405.28	13074.23
405.47	13165.51
405.66	13004.02
405.85	12418.88
406.05	12421.22
406.24	12870.61
406.43	13217.01
406.62	13591.49
406.81	13778.73
407.00	13336.37
407.20	12931.46
407.39	12985.29
407.58	13928.53
407.77	14717.29
407.96	14771.12
408.15	15208.80
408.34	15281.36
408.54	15730.74
408.73	15620.74
408.92	15426.47
409.11	14560.47
409.30	14054.92
409.49	13172.54
409.68	12280.79
409.87	12552.29
410.07	13490.85
410.26	14242.16
410.45	14927.94
410.64	15253.27
410.83	15889.90
411.02	16077.14
411.21	16554.61
411.40	16456.31
411.59	16505.46
411.78	16547.59
411.98	16446.94
412.17	16823.77
412.36	16327.58
412.55	16376.73
412.74	15969.48
412.93	15459.24
413.12	16095.86
413.31	17572.74
413.50	17495.50
413.69	18090.00
413.88	16870.58
414.07	16702.06
414.26	17406.56
414.45	17717.86
414.64	17699.13
414.83	17476.78
415.02	17432.31
415.22	17125.70
415.41	17682.75
415.60	18263.20
415.79	19058.98
415.98	19051.96
416.17	19157.28
416.36	18647.05
416.55	18450.44
416.74	17600.83
416.93	17366.78
417.12	17722.54
417.31	17755.30
417.50	17965.95
417.69	18785.14
417.88	18743.01
418.07	18195.32
418.26	18043.19
418.45	18527.68
418.64	19281.33
418.83	19873.49
419.02	19166.65
419.21	19040.26
419.39	18050.21
419.58	17858.29
419.77	17734.24
419.96	18738.33
420.15	19836.04
420.34	20292.44
420.53	20823.75
420.72	20952.48
420.91	20673.95
421.10	20467.98
421.29	20334.57
421.48	19901.58
421.67	20767.57
421.86	19653.48
422.05	18001.06
422.24	16697.38
422.43	17467.42
422.61	19545.81
422.80	20161.37
422.99	19447.51
423.18	19037.92
423.37	19005.15
423.56	19370.27
423.75	19484.96
423.94	19854.76
424.13	18562.79
424.32	19133.88
424.50	18902.17
424.69	19030.90
424.88	19218.14
425.07	18946.64
425.26	18918.55
425.45	18270.22
425.64	18478.53
425.83	18735.99
426.01	19255.59
426.20	19723.69
426.39	19056.64
426.58	17755.30
426.77	17025.06
426.96	16634.19
427.15	17284.86
427.33	18595.56
427.52	19414.74
427.71	19330.48
427.90	18752.37
428.09	18555.77
428.28	18148.51
428.46	17556.36
428.65	17343.37
428.84	18136.81
429.03	18244.48
429.22	17207.62
429.40	16079.48
429.59	14214.07
429.78	12865.92
429.97	13177.22
430.16	13287.22
430.34	13287.22
430.53	13694.47
430.72	14321.74
430.91	16086.50
431.10	19051.96
431.28	21830.18
431.47	22742.99
431.66	22515.95
431.85	20147.33
432.03	18520.66
432.22	18789.82
432.41	20170.74
432.60	21774.00
432.79	22429.35
432.97	22387.22
433.16	21795.07
433.35	19499.00
433.54	17607.85
433.72	17088.25
433.91	18302.99
434.10	20542.88
434.28	21949.54
434.47	22366.16
434.66	21546.97
434.85	21202.91
435.03	21799.75
435.22	21900.39
435.41	23232.16
435.59	23206.41
435.78	23714.31
435.97	23885.17
436.16	24269.01
436.34	23931.98
436.53	23370.25
436.72	23496.64
436.90	22223.39
437.09	22052.53
437.28	22113.38
437.46	22855.33
437.65	22349.78
437.84	20159.03
438.02	19403.04
438.21	19662.84
438.40	20247.97
438.58	21921.46
438.77	22640.00
438.96	22761.71
439.14	23740.05
439.33	24395.40
439.52	24584.99
439.70	23777.50
439.89	22775.75
440.08	22813.20
440.26	22958.31
440.45	23901.55
440.63	25530.56
440.82	26560.40
441.01	25795.04
441.19	25656.95
441.38	26892.76
441.57	27667.47
441.75	27477.89
441.94	28037.28
442.12	27782.16
442.31	28276.01
442.50	27992.81
442.68	27524.70
442.87	27019.14
443.05	26906.80
443.24	27648.75
443.43	27672.15
443.61	28533.47
443.80	29074.13
443.98	27733.01
444.17	27417.04
444.35	28952.43
444.54	30361.43
444.73	28898.59
444.91	26962.97
445.10	26539.33
445.28	25476.73
445.47	25507.16
445.65	25586.74
445.84	26590.83
446.02	27138.51
446.21	27695.56
446.39	27356.18
446.58	28285.37
446.77	28891.57
446.95	28926.68
447.14	29853.53
447.32	29645.23
447.51	29322.23
447.69	28276.01
447.88	28009.19
448.06	28603.69
448.25	28723.05
448.43	28732.42
448.62	28250.27
448.80	28510.07
448.99	28393.04
449.17	29734.17
449.36	29149.03
449.54	30054.82
449.73	30356.75
449.91	31068.27
450.10	31744.69
450.28	32079.38
450.46	32388.33
450.65	32196.41
450.83	31339.77
451.02	30794.43
451.20	30536.97
451.39	30862.30
451.57	31189.98
451.76	30895.07
451.94	29858.21
452.13	29600.76
452.31	27894.50
452.49	27087.02
452.68	27929.61
452.86	28156.64
453.05	28355.59
453.23	29621.82
453.42	29635.86
453.60	30565.06
453.78	30532.29
453.97	29872.26
454.15	30092.27
454.34	28849.44
454.52	28793.27
454.70	29165.42
454.89	29752.89
455.07	29677.99
455.26	29912.05
455.44	31360.84
455.62	31768.09
455.81	31564.46
455.99	31721.28
456.17	31850.01
456.36	32486.64
456.54	32374.29
456.73	32081.72
456.91	32837.72
457.09	32648.13
457.28	33883.94
457.46	31744.69
457.64	31679.15
457.83	30918.48
458.01	30593.14
458.19	31447.44
458.38	32205.77
458.56	32547.49
458.74	32196.41
458.93	31892.14
459.11	31557.44
459.29	30817.83
459.48	31704.90
459.66	31559.78
459.84	31356.16
460.03	32084.06
460.21	32739.41
460.39	33308.16
460.57	32676.22
460.76	32648.13
460.94	33287.10
461.12	33130.28
461.31	33422.85
461.49	33167.73
461.67	33511.79
461.85	33694.35
462.04	34017.35
462.22	33795.00
462.40	33963.51
462.59	33268.37
462.77	33589.03
462.95	33654.56
463.13	33191.14
463.32	32603.66
463.50	32849.42
463.68	33156.03
463.86	33596.05
464.05	32432.80
464.23	31531.70
464.41	32018.53
464.59	31615.96
464.78	33226.24
464.96	32631.75
465.14	32252.58
465.32	33713.08
465.50	34728.87
465.69	34897.39
465.87	33825.42
466.05	32690.26
466.23	31316.37
466.41	30384.83
466.60	31737.66
466.78	31648.72
466.96	32268.97
467.14	32961.76
467.32	33060.07
467.51	33214.54
467.69	31559.78
467.87	32423.44
468.05	33099.86
468.23	32650.47
468.41	32680.90
468.60	32694.94
468.78	33780.95
468.96	33345.61
469.14	33682.65
469.32	34017.35
469.50	31840.65
469.69	32591.96
469.87	32184.71
470.05	32058.32
470.23	32034.91
470.41	32133.21
470.59	32336.84
470.77	32341.52
470.95	34099.26
471.14	34380.13
471.32	33909.68
471.50	35742.32
471.68	35704.87
471.86	36231.49
472.04	35903.82
472.22	36119.15
472.40	35126.76
472.58	34588.44
472.77	34199.91
472.95	34745.25
473.13	35847.64
473.31	34249.06
473.49	34263.10
473.67	35662.74
473.85	35927.22
474.03	37659.22
474.21	37787.95
474.39	38012.64
474.57	37373.67
474.75	37605.39
474.93	37008.55
475.12	35997.44
475.30	36343.84
475.48	35482.52
475.66	36105.10
475.84	35274.21
476.02	35889.77
476.20	35711.89
476.38	36645.77
476.56	37366.65
476.74	38658.63
476.92	38202.22
477.10	38380.10
477.28	39283.55
477.46	39945.92
477.64	40343.81
477.82	40526.38
478.00	40545.10
478.18	39435.69
478.36	38822.47
478.54	39835.92
478.72	40266.58
478.90	42101.56
479.08	43545.67
479.26	42953.51
479.44	43040.11
479.62	42281.78
479.80	42873.93
479.98	42913.72
480.16	43438.00
480.34	42216.24
480.52	43580.78
480.70	44060.58
480.88	43358.42
481.06	44018.46
481.24	44006.75
481.41	45312.77
481.59	46518.15
481.77	45146.59
481.95	44430.39
482.13	43718.87
482.31	44854.03
482.49	45511.72
482.67	44732.32
482.85	44921.90
483.03	45270.64
483.21	46649.22
483.39	46033.66
483.57	45420.44
483.74	45485.97
483.92	46567.30
484.10	46085.15
484.28	46302.82
484.46	46110.89
484.64	48062.90
484.82	46483.04
485.00	46047.70
485.18	45523.42
485.35	43358.42
485.53	38462.02
485.71	36664.49
485.89	36802.58
486.07	39468.45
486.25	42204.54
486.43	44685.51
486.61	44638.70
486.78	44423.37
486.96	45581.93
487.14	47091.58
487.32	47861.61
487.50	48577.82
487.68	49940.01
487.85	50892.61
488.03	49794.90
488.21	49474.24
488.39	49081.03
488.57	47903.74
488.75	47625.22
488.92	49837.03
489.10	51407.53
489.28	52502.90
489.46	53801.89
489.64	53572.52
489.81	53656.78
489.99	52633.97
490.17	53123.14
490.35	53034.20
490.53	53024.84
490.70	51995.00
490.88	52278.21
491.06	53251.87
491.24	53586.57
491.41	52472.47
491.59	50883.25
491.77	50307.47
491.95	52142.45
492.13	53336.13
492.30	54040.63
492.48	54742.79
492.66	55136.00
492.84	54623.42
493.01	54141.27
493.19	54162.34
493.37	53748.06
493.54	53916.58
493.72	55229.62
493.90	55341.97
494.08	55728.16
494.25	55601.77
494.43	56170.52
494.61	57137.16
494.79	56914.81
494.96	57097.37
495.14	56626.92
495.32	55416.86
495.49	55458.99
495.67	56264.14
495.85	57240.14
496.02	57703.57
496.20	57495.26
496.38	57132.48
496.55	57188.65
496.73	57785.49
496.91	57731.65
497.09	57542.07
497.26	57811.23
497.44	57752.72
497.62	56774.37
497.79	55899.01
497.97	55157.06
498.14	55737.52
498.32	57006.09
498.50	56886.72
498.67	56928.85
498.85	57352.49
499.03	58064.01
499.20	58532.12
499.38	57853.36
499.56	57174.61
499.73	56935.87
499.91	56638.62
500.08	55985.61
500.26	55817.10
500.44	56673.73
500.61	56889.06
500.79	56432.66
500.97	56978.00
501.14	55838.16
501.32	55711.77
501.49	56214.99
501.67	56332.01
501.84	56542.66
502.02	56868.00
502.20	57825.28
502.37	58071.03
502.55	57822.93
502.72	58368.28
502.90	58761.49
503.07	58602.33
503.25	57277.59
503.43	56671.39
503.60	56023.06
503.78	55863.91
503.95	56332.01
504.13	57733.99
504.30	57937.62
504.48	57422.70
504.65	57645.05
504.83	57921.24
505.01	58497.01
505.18	58717.02
505.36	59002.56
505.53	59306.83
505.71	59585.36
505.88	59674.30
506.06	59070.44
506.23	58805.96
506.41	58468.92
506.58	58859.79
506.76	58754.47
506.93	58227.85
507.11	57968.05
507.28	58494.67
507.46	57963.37
507.63	57881.45
507.81	57183.97
507.98	57811.23
508.16	58958.09
508.33	58705.32
508.50	58960.44
508.68	59498.76
508.85	59896.65
509.03	60001.97
509.20	59124.27
509.38	58267.64
509.55	58099.12
509.73	58581.27
509.90	58731.06
510.08	58958.09
510.25	58426.79
510.42	58433.81
510.60	59276.41
510.77	59309.18
510.95	59192.15
511.12	59531.53
511.30	60023.04
511.47	60528.59
511.64	60104.96
511.82	60229.01
511.99	58953.41
512.17	59281.09
512.34	58698.30
512.51	58445.52
512.69	59281.09
512.86	58728.72
513.04	59231.94
513.21	58646.80
513.38	57631.01
513.56	57701.23
513.73	57291.63
513.90	57895.49
514.08	57998.48
514.25	57710.59
514.43	58295.72
514.60	58642.12
514.77	59030.65
514.95	59035.33
515.12	58740.42
515.29	59554.93
515.47	59819.41
515.64	59695.36
515.81	59238.96
515.99	58176.36
516.16	56404.57
516.33	54246.60
516.51	54028.93
516.68	52404.59
516.85	51870.95
517.03	54085.10
517.20	56381.16
517.37	57928.26
517.54	59168.74
517.72	57633.35
517.89	54665.55
518.06	53270.59
518.24	54775.56
518.41	56662.03
518.58	57539.73
518.75	57607.61
518.93	57577.18
519.10	57179.29
519.27	58183.38
519.45	58473.60
519.62	58953.41
519.79	59327.90
519.96	58614.04
520.14	58504.03
520.31	57258.87
520.48	57954.00
520.65	58550.84
520.83	59175.76
521.00	59463.65
521.17	58836.39
521.34	58766.17
521.52	59304.49
521.69	59419.18
521.86	59950.48
522.03	59896.65
522.20	58176.36
522.38	57647.39
522.55	58347.21
522.72	58976.82
522.89	58185.72
523.07	58698.30
523.24	59044.69
523.41	60147.09
523.58	60439.65
523.75	60537.96
523.92	60360.08
524.10	60182.19
524.27	60030.06
524.44	59781.96
524.61	59615.79
524.78	59891.97
524.96	59686.00
525.13	59723.45
525.30	60088.57
525.47	60369.44
525.64	60093.25
525.81	59269.39
525.98	57591.22
526.16	56526.28
526.33	56559.05
526.50	56128.39
526.67	56097.96
526.84	56673.73
527.01	57474.20
527.18	58082.73
527.36	59178.10
527.53	60048.78
527.70	59250.66
527.87	57867.40
528.04	59042.35
528.21	59484.72
528.38	60254.75
528.55	60914.78
528.72	60514.55
528.89	60182.19
529.07	59906.01
529.24	58679.57
529.41	58742.77
529.58	58370.62
529.75	59540.89
529.92	59924.74
530.09	59550.25
530.26	60334.33
530.43	61024.79
530.60	59948.14
530.77	60336.67
530.94	60690.09
531.11	59772.60
531.28	60041.76
531.46	60217.30
531.63	60121.34
531.80	59377.05
531.97	58827.02
532.14	59051.72
532.31	57528.03
532.48	56956.94
532.65	57235.46
532.82	57785.49
532.99	59302.15
533.16	59681.32
533.33	59650.89
533.50	59840.48
533.67	59896.65
533.84	59051.72
534.01	59379.39
534.18	59599.40
534.35	59164.06
534.52	58548.50
534.69	59288.11
534.86	59913.03
535.03	59821.75
535.20	59721.11
535.37	60420.93
535.54	60959.25
535.71	60624.56
535.88	60741.58
536.05	59524.50
536.22	58801.28
536.38	58805.96
536.55	57752.72
536.72	57588.88
536.89	58417.43
537.06	58471.26
537.23	59217.89
537.40	59442.59
537.57	58878.52
537.74	59388.75
537.91	59384.07
538.08	59058.74
538.25	59056.40
538.42	59693.02
538.59	59112.57
538.75	58239.55
538.92	57963.37
539.09	58141.25
539.26	58157.63
539.43	58148.27
539.60	58284.02
539.77	58869.15
539.94	58464.24
540.11	57663.78
540.28	57045.88
540.44	56935.87
540.61	57073.96
540.78	57698.89
540.95	58621.06
541.12	58389.34
541.29	58749.79
541.46	59154.70
541.62	59185.13
541.79	58405.73
541.96	57694.21
542.13	57806.55
542.30	57935.28
542.47	58361.26
542.63	58431.47
542.80	58244.23
542.97	57698.89
543.14	57509.30
543.31	57623.99
543.48	58777.87
543.64	59089.16
543.81	60219.64
543.98	59868.56
544.15	58307.43
544.32	58820.00
544.48	58422.11
544.65	58700.64
544.82	58995.54
544.99	57785.49
545.16	57415.68
545.32	57600.58
545.49	58277.00
545.66	58365.94
545.83	57982.09
546.00	58567.23
546.16	58614.04
546.33	58410.41
546.50	58571.91
546.67	59107.89
546.83	57965.71
547.00	58747.45
547.17	57483.56
547.34	56666.71
547.50	56928.85
547.67	58131.89
547.84	58670.21
548.00	58506.37
548.17	58181.04
548.34	58578.93
548.51	58803.62
548.67	59133.63
548.84	58784.90
549.01	58918.31
549.18	58237.21
549.34	58218.49
549.51	58291.04
549.68	58478.28
549.84	57984.43
550.01	57605.26
550.18	57277.59
550.34	57434.41
550.51	58122.52
550.68	58410.41
550.84	58028.90
551.01	57387.60
551.18	57298.65
551.34	57031.83
551.51	58225.51
551.68	57944.64
551.84	58071.03
552.01	58101.46
552.18	57495.26
552.34	56921.83
552.51	56828.21
552.68	56802.46
552.84	56886.72
553.01	57193.33
553.18	57982.09
553.34	58183.38
553.51	57930.60
553.67	57682.50
553.84	57345.47
554.01	57965.71
554.17	57361.85
554.34	57640.37
554.51	57661.44
554.67	57027.15
554.84	57045.88
555.00	57027.15
555.17	57153.54
555.33	56676.07
555.50	56219.67
555.67	57034.17
555.83	57190.99
556.00	56973.32
556.16	56505.21
556.33	56123.71
556.50	56746.29
556.66	56748.63
556.83	56446.70
556.99	56048.81
557.16	56563.73
557.32	56259.46
557.49	56587.13
557.65	56207.97
557.82	56851.61
557.98	57127.80
558.15	56023.06
558.32	54972.16
558.48	54356.60
558.65	54782.58
558.81	55098.55
558.98	56013.70
559.14	56236.05
559.31	55770.28
559.47	55512.83
559.64	55288.13
559.80	54913.65
559.97	55657.94
560.13	56505.21
560.30	57504.62
560.46	57628.67
560.63	58375.30
560.79	57844.00
560.96	56928.85
561.12	55667.30
561.29	55281.11
561.45	55327.92
561.61	56652.67
561.78	55693.05
561.94	56498.19
562.11	56423.29
562.27	55566.66
562.44	56222.01
562.60	56399.89
562.77	56760.33
562.93	55447.29
563.10	55573.68
563.26	55711.77
563.42	56317.97
563.59	55332.60
563.75	55510.49
563.92	55304.52
564.08	54798.96
564.24	55730.50
564.41	55421.55
564.57	56229.03
564.74	55735.18
564.90	55011.95
565.07	55353.67
565.23	53975.09
565.39	54089.78
565.56	54405.75
565.72	54284.04
565.88	53209.74
566.05	55367.71
566.21	55847.52
566.38	55348.99
566.54	55185.15
566.70	55613.47
566.87	55428.57
567.03	54880.88
567.19	55973.91
567.36	56537.98
567.52	55117.28
567.68	54707.68
567.85	53993.82
568.01	54195.10
568.17	54553.21
568.34	55009.61
568.50	54585.97
568.66	54742.79
568.83	53855.73
568.99	53595.93
569.15	54199.79
569.32	54546.18
569.48	54131.91
569.64	53502.31
569.81	53464.86
569.97	53411.02
570.13	52971.00
570.30	52533.32
570.46	52013.73
570.62	50611.74
570.78	51367.74
570.95	52463.11
571.11	52528.64
571.27	52006.70
571.43	52203.31
571.60	51831.16
571.76	53654.44
571.92	53736.36
572.09	53965.73
572.25	54024.25
572.41	54805.98
572.57	54333.20
572.74	54349.58
572.90	55243.66
573.06	54293.41
573.22	54520.44
573.38	54274.68
573.55	55714.11
573.71	53932.96
573.87	54387.03
574.03	54354.26
574.20	53638.06
574.36	53930.62
574.52	52741.63
574.68	52598.86
574.84	52203.31
575.01	52303.95
575.17	52968.66
575.33	52921.85
575.49	52980.37
575.65	51995.00
575.82	52353.10
575.98	52161.18
576.14	53282.30
576.30	53490.60
576.46	52383.53
576.62	52846.96
576.79	52582.48
576.95	52224.37
577.11	52870.36
577.27	52746.31
577.43	53038.88
577.59	51969.26
577.75	50649.19
577.92	50628.13
578.08	51505.83
578.24	52296.93
578.40	51896.70
578.56	51267.09
578.72	51756.27
578.88	51262.41
579.04	51906.06
579.21	51341.99
579.37	51566.68
579.53	52004.36
579.69	51065.81
579.85	51332.63
580.01	51498.81
580.17	51222.62
580.33	52039.47
580.49	52369.49
580.65	50302.79
580.82	51058.79
580.98	52133.09
581.14	52289.91
581.30	51856.91
581.46	51592.43
581.62	51885.00
581.78	52615.24
581.94	52528.64
582.10	52872.70
582.26	53090.37
582.42	52715.89
582.58	50754.52
582.74	51166.45
582.90	51297.52
583.06	51707.12
583.22	52102.67
583.38	51721.16
583.54	52027.77
583.70	52566.09
583.86	51980.96
584.02	51695.41
584.18	51278.80
584.34	50810.69
584.50	50064.06
584.66	50494.72
584.82	50983.89
584.98	51189.86
585.14	50431.52
585.30	50789.62
