SpectraSuite Data File
++++++++++++++++++++++++++++++++++++
Date: Mon Oct 07 14:55:01 GMT-05:00 2013
User: price-jones
Dark Spectrum Present: No
Reference Spectrum Present: No
Number of Sampled Component Spectra: 1
Spectrometers: USB2+H05261
Integration Time (usec): 10000 (USB2+H05261)
Spectra Averaged: 1 (USB2+H05261)
Boxcar Smoothing: 0 (USB2+H05261)
Correct for Electrical Dark: No (USB2+H05261)
Strobe/Lamp Enabled: No (USB2+H05261)
Correct for Detector Non-linearity: No (USB2+H05261)
Correct for Stray Light: No (USB2+H05261)
Number of Pixels in Processed Spectrum: 2048
>>>>>Begin Processed Spectral Data<<<<<
365.73	0.00
365.92	0.00
366.12	0.00
366.32	0.00
366.52	0.00
366.72	0.00
366.91	0.00
367.11	0.00
367.31	0.00
367.51	0.00
367.70	0.00
367.90	0.00
368.10	0.00
368.30	0.00
368.49	0.00
368.69	0.00
368.89	0.00
369.09	0.00
369.28	0.00
369.48	0.00
369.68	0.00
369.87	0.00
370.07	0.00
370.27	0.00
370.47	390.87
370.66	2466.92
370.86	2853.11
371.06	3089.51
371.25	3007.59
371.45	2633.10
371.65	2375.64
371.84	2354.58
372.04	2551.18
372.24	2813.32
372.44	2855.45
372.63	2789.92
372.83	2420.11
373.03	2232.87
373.22	2232.87
373.42	2380.32
373.62	2595.65
373.81	2715.02
374.01	2682.25
374.21	2523.10
374.40	2413.09
374.60	2532.46
374.79	2993.55
374.99	3241.64
375.19	3314.20
375.38	3398.46
375.58	3337.60
375.78	3307.18
375.97	3222.92
376.17	3234.62
376.37	3452.29
376.56	3557.61
376.76	3836.14
376.95	4016.36
377.15	4318.29
377.35	4337.01
377.54	4650.64
377.74	4788.74
377.93	4699.80
378.13	4517.23
378.33	4070.19
378.52	3934.44
378.72	3756.56
378.91	3679.32
379.11	3613.79
379.31	3466.33
379.50	3564.64
379.70	4065.51
379.89	4311.27
380.09	4592.13
380.28	4552.34
380.48	4629.58
380.68	4465.74
380.87	4447.02
381.07	3983.59
381.26	3672.30
381.46	3414.84
381.65	3410.16
381.85	3229.94
382.04	3117.59
382.24	2909.29
382.43	2843.75
382.63	2775.88
382.83	2782.90
383.02	2630.76
383.22	2733.75
383.41	2778.22
383.61	3180.79
383.80	3578.68
384.00	3974.23
384.19	4454.04
384.39	4580.43
384.58	4561.70
384.78	4449.36
384.97	4449.36
385.17	4135.73
385.36	3911.04
385.56	3702.73
385.75	4121.68
385.95	4521.92
386.14	4849.59
386.34	4772.35
386.53	4255.09
386.72	4128.70
386.92	4386.16
387.11	4758.31
387.31	4725.54
387.50	4812.14
387.70	4571.07
387.89	4470.42
388.09	4472.76
388.28	4620.22
388.48	4727.88
388.67	5179.61
388.86	5549.41
389.06	5966.03
389.25	6265.61
389.45	6202.42
389.64	6204.76
389.84	6052.63
390.03	5987.09
390.22	6125.18
390.42	6544.14
390.61	6700.95
390.81	7124.59
391.00	7344.60
391.19	7148.00
391.39	7028.63
391.58	6555.84
391.78	6314.77
391.97	6040.92
392.16	5451.11
392.36	4772.35
392.55	3747.20
392.75	3068.44
392.94	2635.44
393.13	2640.12
393.33	3339.94
393.52	4358.08
393.71	5069.60
393.91	5575.16
394.10	6246.89
394.29	6923.30
394.49	7309.49
394.68	7707.38
394.88	7777.60
395.07	7903.99
395.26	7782.28
395.46	7585.68
395.65	6984.16
395.84	6010.50
396.04	5004.07
396.23	4021.04
396.42	3590.38
396.62	3604.42
396.81	4470.42
397.00	5565.79
397.19	6960.75
397.39	8107.62
397.58	9195.96
397.77	9350.44
397.97	9657.05
398.16	10012.81
398.35	10328.78
398.55	10546.45
398.74	10991.16
398.93	10970.09
399.12	11044.99
399.32	10656.46
399.51	10703.27
399.70	11658.21
399.90	11243.93
400.09	10963.07
400.28	11176.06
400.47	11552.88
400.67	12037.38
400.86	12226.96
401.05	12287.81
401.24	12362.71
401.44	12482.08
401.63	12713.79
401.82	12690.38
402.01	12533.57
402.21	12819.11
402.40	12826.14
402.59	12198.87
402.78	12032.69
402.97	11953.12
403.17	12327.60
403.36	13039.12
403.55	13013.38
403.74	13568.09
403.93	12582.72
404.13	11709.70
404.32	11611.40
404.51	12608.47
404.70	13226.37
404.89	12926.78
405.09	12746.56
405.28	12477.40
405.47	12681.02
405.66	12695.07
405.85	11971.84
406.05	11927.37
406.24	12091.21
406.43	12702.09
406.62	13043.81
406.81	13130.41
407.00	12884.65
407.20	12276.11
407.39	12463.35
407.58	13296.58
407.77	13563.40
407.96	13975.34
408.15	14721.97
408.34	14406.00
408.54	14874.10
408.73	14750.06
408.92	14743.03
409.11	14047.90
409.30	13483.83
409.49	12556.97
409.68	11775.24
409.87	11793.96
410.07	12636.55
410.26	13755.33
410.45	14202.37
410.64	14658.78
410.83	15028.58
411.02	15468.60
411.21	15920.32
411.40	15896.92
411.59	15992.88
411.78	15704.99
411.98	16025.65
412.17	16116.93
412.36	15695.63
412.55	15723.72
412.74	15157.31
412.93	15129.22
413.12	15496.69
413.31	16851.86
413.50	16966.54
413.69	17055.48
413.88	16093.52
414.07	16226.93
414.26	16423.54
414.45	17060.16
414.64	16669.30
414.83	16662.27
415.02	16341.62
415.22	16629.51
415.41	17207.62
415.60	17404.22
415.79	18150.85
415.98	18380.23
416.17	18143.83
416.36	17755.30
416.55	17757.64
416.74	16737.17
416.93	16582.70
417.12	16954.84
417.31	16786.32
417.50	17242.73
417.69	18045.53
417.88	17607.85
418.07	17649.98
418.26	17074.21
418.45	17584.44
418.64	18216.39
418.83	18927.91
419.02	18443.42
419.21	17823.18
419.39	17259.11
419.58	17008.67
419.77	16931.44
419.96	18008.08
420.15	18815.57
420.34	19585.60
420.53	19906.26
420.72	20037.33
420.91	19932.00
421.10	19641.78
421.29	19227.50
421.48	18857.70
421.67	19763.48
421.86	19112.81
422.05	17338.69
422.24	15798.62
422.43	16641.21
422.61	18607.26
422.80	19339.85
422.99	18679.82
423.18	18120.43
423.37	18104.04
423.56	18661.09
423.75	18860.04
423.94	19061.32
424.13	17872.33
424.32	17834.88
424.50	18218.73
424.69	18178.94
424.88	18192.98
425.07	18082.98
425.26	17834.88
425.45	17493.16
425.64	17252.09
425.83	18026.81
426.01	18665.77
426.20	18925.57
426.39	18651.73
426.58	17261.45
426.77	15915.64
426.96	15662.86
427.15	16470.35
427.33	17898.08
427.52	17907.44
427.71	18410.65
427.90	18204.69
428.09	17818.50
428.28	17401.88
428.46	16683.34
428.65	16697.38
428.84	17369.12
429.03	17184.21
429.22	16493.76
429.40	15166.67
429.59	13563.40
429.78	12353.35
429.97	12664.64
430.16	12486.76
430.34	12702.09
430.53	13296.58
430.72	13811.50
430.91	15344.55
431.10	18005.74
431.28	20580.33
431.47	22155.51
431.66	21525.91
431.85	19204.10
432.03	17942.55
432.22	17994.04
432.41	19030.90
432.60	20816.72
432.79	21460.37
432.97	21872.31
433.16	20968.86
433.35	18773.44
433.54	16809.73
433.72	16613.12
433.91	17561.04
434.10	19627.73
434.28	20428.20
434.47	21729.53
434.66	20542.88
434.85	20175.42
435.03	20706.72
435.22	20910.35
435.41	22078.27
435.59	22431.69
435.78	22422.33
435.97	23122.15
436.16	22920.87
436.34	22806.18
436.53	22204.66
436.72	22221.05
436.90	21193.55
437.09	21130.36
437.28	20851.83
437.46	21568.04
437.65	21076.52
437.84	19573.90
438.02	18389.59
438.21	18597.90
438.40	19513.05
438.58	21188.87
438.77	21802.09
438.96	21750.60
439.14	22955.97
439.33	23330.46
439.52	23740.05
439.70	22792.14
439.89	21944.86
440.08	21366.75
440.26	22111.04
440.45	22735.96
440.63	24201.14
440.82	25242.68
441.01	24465.62
441.19	24634.14
441.38	25626.53
441.57	26424.65
441.75	26279.54
441.94	26632.96
442.12	26663.38
442.31	26679.77
442.50	26607.21
442.68	26314.64
442.87	26314.64
443.05	25701.42
443.24	26148.46
443.43	26766.37
443.61	27215.75
443.80	27681.52
443.98	26480.82
444.17	25883.98
444.35	27562.15
444.54	28547.51
444.73	27756.41
444.91	26239.75
445.10	24900.96
445.28	24533.50
445.47	24095.82
445.65	24690.31
445.84	25502.48
446.02	26108.68
446.21	26359.11
446.39	26113.36
446.58	26731.26
446.77	27363.20
446.95	27835.99
447.14	28439.85
447.32	28458.57
447.51	28210.48
447.69	26607.21
447.88	26859.99
448.06	27271.92
448.25	27740.03
448.43	27606.62
448.62	27124.47
448.80	27243.84
448.99	26892.76
449.17	27747.05
449.36	28144.94
449.54	28474.96
449.73	28610.71
449.91	29329.25
450.10	30221.00
450.28	30389.52
450.46	30223.34
450.65	30391.86
450.83	29898.00
451.02	29750.55
451.20	29282.44
451.39	29577.35
451.57	29455.64
451.76	29525.86
451.94	29015.62
452.13	28166.01
452.31	27014.46
452.49	26050.16
452.68	26209.32
452.86	26792.11
453.05	27199.37
453.23	28308.78
453.42	28613.05
453.60	29151.37
453.78	28716.03
453.97	28996.90
454.15	28650.50
454.34	27180.64
454.52	27768.12
454.70	27686.20
454.89	28123.88
455.07	28079.41
455.26	28751.14
455.44	29661.61
455.62	30209.29
455.81	29993.97
455.99	30026.73
456.17	30314.62
456.36	31468.50
456.54	31117.42
456.73	30464.41
456.91	31124.44
457.09	31166.57
457.28	32074.70
457.46	30118.01
457.64	30256.11
457.83	29614.80
458.01	29270.74
458.19	30087.59
458.38	30586.12
458.56	31363.18
458.74	30551.01
458.93	30361.43
459.11	29982.26
459.29	29558.63
459.48	30192.91
459.66	30096.95
459.84	30274.83
460.03	30810.81
460.21	31199.34
460.39	31519.99
460.57	31374.88
460.76	31456.80
460.94	32030.23
461.12	31765.75
461.31	31828.95
461.49	32144.92
461.67	31751.71
461.85	32119.17
462.04	32339.18
462.22	32285.35
462.40	32077.04
462.59	31999.80
462.77	32175.34
462.95	32011.51
463.13	31845.33
463.32	31529.36
463.50	31384.24
463.68	31419.35
463.86	31714.26
464.05	30944.22
464.23	30094.61
464.41	30242.06
464.59	30118.01
464.78	31749.37
464.96	31187.64
465.14	30485.48
465.32	31810.22
465.50	32898.57
465.69	33251.99
465.87	31847.67
466.05	31077.63
466.23	29771.61
466.41	29111.58
466.60	30691.44
466.78	30274.83
466.96	30611.87
467.14	31941.29
467.32	31360.84
467.51	31545.74
467.69	30054.82
467.87	30707.83
468.05	31470.84
468.23	31421.69
468.41	31042.53
468.60	31412.33
468.78	32268.97
468.96	31665.11
469.14	31732.98
469.32	32304.07
469.50	29993.97
469.69	31094.02
469.87	30899.75
470.05	30185.89
470.23	30574.42
470.41	30848.26
470.59	31288.28
470.77	31150.19
470.95	31990.44
471.14	32641.11
471.32	32577.92
471.50	34188.21
471.68	34548.65
471.86	34873.98
472.04	34148.42
472.22	34256.08
472.40	33343.27
472.58	33291.78
472.77	32383.65
472.95	33343.27
473.13	34038.41
473.31	32608.34
473.49	32718.35
473.67	34031.39
473.85	34094.58
474.03	35655.72
474.21	35751.68
474.39	36114.47
474.57	35503.59
474.75	35847.64
474.93	35573.80
475.12	34534.60
475.30	35213.36
475.48	34209.27
475.66	34122.67
475.84	34047.77
476.02	34206.93
476.20	34043.09
476.38	35014.41
476.56	35990.42
476.74	36503.00
476.92	36474.91
477.10	36781.52
477.28	37605.39
477.46	37387.72
477.64	38550.96
477.82	38450.32
478.00	38611.82
478.18	37687.31
478.36	37160.69
478.54	37738.80
478.72	38543.94
478.90	39873.37
479.08	41839.42
479.26	41116.19
479.44	41427.48
479.62	40116.78
479.80	41167.68
479.98	41298.75
480.16	41654.51
480.34	40116.78
480.52	42131.98
480.70	42295.82
480.88	41130.23
481.06	42562.64
481.24	42330.93
481.41	43978.67
481.59	44355.49
481.77	43269.48
481.95	42672.65
482.13	42284.12
482.31	42906.70
482.49	43421.62
482.67	43112.67
482.85	43480.13
483.03	43330.34
483.21	44650.40
483.39	43948.24
483.57	43594.82
483.74	43695.46
483.92	44406.98
484.10	43990.37
484.28	43990.37
484.46	43924.83
484.64	45815.99
484.82	45172.34
485.00	44107.40
485.18	43278.85
485.35	41659.20
485.53	36685.56
485.71	34642.27
485.89	35103.35
486.07	37380.70
486.25	40435.10
486.43	42951.17
486.61	43009.68
486.78	42412.85
486.96	43833.55
487.14	45059.99
487.32	45603.00
487.50	46483.04
487.68	48013.75
487.85	48877.41
488.03	47927.15
488.21	48011.41
488.39	47433.30
488.57	45998.55
488.75	45766.84
488.92	48034.81
489.10	50141.30
489.28	50775.58
489.46	52432.68
489.64	51615.83
489.81	52011.38
489.99	51084.53
490.17	51150.07
490.35	51613.49
490.53	51311.56
490.70	50674.94
490.88	50642.17
491.06	51756.27
491.24	52062.88
491.41	50705.37
491.59	49195.72
491.77	48533.35
491.95	50583.66
492.13	51976.28
492.30	52608.22
492.48	53404.00
492.66	53565.50
492.84	53038.88
493.01	52961.64
493.19	52898.45
493.37	52032.45
493.54	52559.07
493.72	54026.59
493.90	54045.31
494.08	54302.77
494.25	54326.17
494.43	54899.61
494.61	55664.96
494.79	55664.96
494.96	55763.26
495.14	55388.78
495.32	53876.79
495.49	54218.51
495.67	54813.01
495.85	56088.60
496.02	56549.68
496.20	56126.05
496.38	55842.84
496.55	55770.28
496.73	56516.92
496.91	56420.95
497.09	56292.22
497.26	56605.86
497.44	56245.41
497.62	55241.32
497.79	54328.52
497.97	53492.94
498.14	54482.99
498.32	55784.33
498.50	55821.78
498.67	55669.64
498.85	56058.17
499.03	56839.91
499.20	56952.26
499.38	56273.50
499.56	55716.45
499.73	55526.87
499.91	55468.36
500.08	54967.48
500.26	54237.23
500.44	55260.05
500.61	55732.84
500.79	55229.62
500.97	55456.65
501.14	54600.02
501.32	54295.75
501.49	54525.12
501.67	54754.49
501.84	55030.68
502.02	55669.64
502.20	56334.35
502.37	56804.80
502.55	56877.36
502.72	57216.74
502.90	57247.16
503.07	57478.88
503.25	55847.52
503.43	55035.36
503.60	54817.69
503.78	54712.36
503.95	54904.29
504.13	56456.06
504.30	56844.59
504.48	56182.22
504.65	56378.82
504.83	56687.78
505.01	57471.85
505.18	57722.29
505.36	57780.81
505.53	58012.52
505.71	58234.87
505.88	58129.54
506.06	57860.38
506.23	57385.25
506.41	57286.95
506.58	57677.82
506.76	57293.97
506.93	56832.89
507.11	57052.90
507.28	57073.96
507.46	56498.19
507.63	56467.76
507.81	55599.43
507.98	56250.09
508.16	57565.48
508.33	57731.65
508.50	57722.29
508.68	58363.60
508.85	58394.03
509.03	58632.76
509.20	57921.24
509.38	56970.98
509.55	56952.26
509.73	57364.19
509.90	57504.62
510.08	57621.65
510.25	57275.25
510.42	57195.67
510.60	57766.76
510.77	58099.12
510.95	57853.36
511.12	58169.33
511.30	58990.86
511.47	59009.59
511.64	58965.12
511.82	58906.60
511.99	57939.96
512.17	57946.98
512.34	57242.48
512.51	57263.55
512.69	57954.00
512.86	57652.08
513.04	58028.90
513.21	57457.81
513.38	56624.58
513.56	56427.98
513.73	55877.95
513.90	56741.61
514.08	56753.31
514.25	56324.99
514.43	57073.96
514.60	57282.27
514.77	57467.17
514.95	57638.03
515.12	57612.29
515.29	58110.82
515.47	58508.71
515.64	58330.83
515.81	58087.42
515.99	57015.45
516.16	54988.55
516.33	52643.33
516.51	52750.99
516.68	50941.76
516.85	50101.51
517.03	52542.69
517.20	54822.37
517.37	56860.97
517.54	57698.89
517.72	56486.49
517.89	53216.76
518.06	52158.84
518.24	53226.12
518.41	55374.73
518.58	56198.60
518.75	56002.00
518.93	56378.82
519.10	55566.66
519.27	57015.45
519.45	57286.95
519.62	57790.17
519.79	57888.47
519.96	57453.13
520.14	57059.92
520.31	56083.92
520.48	56165.84
520.65	57298.65
520.83	58061.67
521.00	58155.29
521.17	57661.44
521.34	57663.78
521.52	58047.63
521.69	58045.29
521.86	58607.01
522.03	58480.63
522.20	56788.42
522.38	56170.52
522.55	56746.29
522.72	57513.98
522.89	56870.34
523.07	57497.60
523.24	57858.04
523.41	59150.02
523.58	59241.30
523.75	59386.41
523.92	59040.01
524.10	58546.16
524.27	58417.43
524.44	58440.84
524.61	58038.26
524.78	58457.22
524.96	58417.43
525.13	58438.50
525.30	59042.35
525.47	58962.78
525.64	58759.15
525.81	58155.29
525.98	56076.90
526.16	55133.66
526.33	55093.87
526.50	54515.76
526.67	54827.05
526.84	55194.51
527.01	55945.83
527.18	56788.42
527.36	57673.14
527.53	58777.87
527.70	57813.57
527.87	56516.92
528.04	57893.15
528.21	58300.40
528.38	58691.27
528.55	59739.83
528.72	59299.81
528.89	59063.42
529.07	58721.70
529.24	57757.40
529.41	57340.78
529.58	57457.81
529.75	58307.43
529.92	58518.07
530.09	58389.34
530.26	59007.25
530.43	59756.22
530.60	58679.57
530.77	59011.93
530.94	59449.61
531.11	58721.70
531.28	59054.06
531.46	58904.26
531.63	58717.02
531.80	58166.99
531.97	57616.97
532.14	57663.78
532.31	56486.49
532.48	55737.52
532.65	55847.52
532.82	56521.60
532.99	57963.37
533.16	58424.45
533.33	58246.57
533.50	58438.50
533.67	58450.20
533.84	57471.85
534.01	57954.00
534.18	58262.96
534.35	57834.64
534.52	57345.47
534.69	58066.35
534.86	58508.71
535.03	58801.28
535.20	58541.48
535.37	59423.86
535.54	59517.48
535.71	59189.81
535.88	59667.28
536.05	58197.42
536.22	57626.33
536.38	57286.95
536.55	56261.80
536.72	56378.82
536.89	56985.02
537.06	57022.47
537.23	57888.47
537.40	58169.33
537.57	57518.67
537.74	58042.95
537.91	58183.38
538.08	57719.95
538.25	57839.32
538.42	58560.20
538.59	58003.16
538.75	56757.99
538.92	56507.55
539.09	56729.90
539.26	56839.91
539.43	56800.12
539.60	56884.38
539.77	57387.60
539.94	56863.32
540.11	56427.98
540.28	56051.15
540.44	55653.26
540.61	55772.63
540.78	56324.99
540.95	57151.20
541.12	56928.85
541.29	57689.52
541.46	57855.70
541.62	57829.96
541.79	57111.41
541.96	56552.02
542.13	56353.08
542.30	56411.59
542.47	57139.50
542.63	57006.09
542.80	56947.57
542.97	56460.74
543.14	56137.75
543.31	56418.61
543.48	57595.90
543.64	57886.13
543.81	58862.13
543.98	58632.76
544.15	56877.36
544.32	57439.09
544.48	57382.91
544.65	57216.74
544.82	57656.76
544.99	56088.60
545.16	55772.63
545.32	56168.18
545.49	57183.97
545.66	57041.20
545.83	56797.78
546.00	57354.83
546.16	57373.55
546.33	57233.12
546.50	57146.52
546.67	57804.21
546.83	56790.76
547.00	57366.53
547.17	56083.92
547.34	55430.91
547.50	55444.95
547.67	56818.84
547.84	57492.92
548.00	57237.80
548.17	56807.14
548.34	57155.88
548.51	57411.00
548.67	57890.81
548.84	57654.42
549.01	57455.47
549.18	56683.09
549.34	56910.13
549.51	56886.72
549.68	57305.68
549.84	56619.90
550.01	56404.57
550.18	55856.88
550.34	56086.26
550.51	56711.18
550.68	56980.34
550.84	56704.16
551.01	55772.63
551.18	55891.99
551.34	55206.22
551.51	56839.91
551.68	56420.95
551.84	56619.90
552.01	56694.80
552.18	56067.53
552.34	55519.85
552.51	55370.05
552.68	55084.51
552.84	55281.11
553.01	55466.02
553.18	56896.08
553.34	56706.50
553.51	56537.98
553.67	56350.74
553.84	55765.60
554.01	56617.56
554.17	55856.88
554.34	56327.33
554.51	56273.50
554.67	55803.05
554.84	55552.62
555.00	55655.60
555.17	55847.52
555.33	55365.37
555.50	54721.72
555.67	55793.69
555.83	55772.63
556.00	55398.14
556.16	55047.06
556.33	54534.48
556.50	55143.02
556.66	55618.15
556.83	55028.34
556.99	54197.44
557.16	55018.97
557.32	54550.87
557.49	54862.16
557.65	54672.57
557.82	55398.14
557.98	55681.34
558.15	54539.16
558.32	53717.64
558.48	52783.76
558.65	53249.53
558.81	53801.89
558.98	54389.37
559.14	54646.83
559.31	54475.97
559.47	53687.21
559.64	53682.53
559.80	53020.16
559.97	54103.82
560.13	55133.66
560.30	55987.95
560.46	56259.46
560.63	56610.54
560.79	56570.75
560.96	55428.57
561.12	53918.92
561.29	53712.95
561.45	53745.72
561.61	55306.86
561.78	54466.61
561.94	55330.26
562.11	55140.68
562.27	54010.20
562.44	55042.38
562.60	55238.98
562.77	55241.32
562.93	54216.17
563.10	54227.87
563.26	54340.22
563.42	54894.92
563.59	54033.61
563.75	54120.21
563.92	54239.57
564.08	53308.04
564.24	54347.24
564.41	53652.10
564.57	54403.41
564.74	54415.11
564.90	53532.73
565.07	53595.93
565.23	52868.02
565.39	52044.15
565.56	52846.96
565.72	53010.79
565.88	51629.88
566.05	53794.87
566.21	54490.01
566.38	53647.42
566.54	53736.36
566.70	54307.45
566.87	54028.93
567.03	53324.43
567.19	54597.68
567.36	54941.74
567.52	53387.62
567.68	53296.34
567.85	52088.62
568.01	52453.75
568.17	52722.91
568.34	53366.55
568.50	53127.82
568.66	53076.33
568.83	52189.27
568.99	51985.64
569.15	52432.68
569.32	52603.54
569.48	52168.20
569.64	51924.78
569.81	52083.94
569.97	51157.09
570.13	51007.29
570.30	50995.59
570.46	50248.96
570.62	48884.43
570.78	49588.93
570.95	50934.74
571.11	50279.39
571.27	50415.14
571.43	50312.16
571.60	50188.11
571.76	51915.42
571.92	51868.61
572.09	52495.88
572.25	52306.29
572.41	53212.08
572.57	52868.02
572.74	52701.84
572.90	53696.57
573.06	52690.14
573.22	52914.83
573.38	52846.96
573.55	54040.63
573.71	52446.72
573.87	52500.56
574.03	52563.75
574.20	52020.75
574.36	52329.70
574.52	51126.66
574.68	50913.67
574.84	50426.84
575.01	50384.71
575.17	51302.20
575.33	51072.83
575.49	51229.65
575.65	50408.12
575.82	50499.40
575.98	50291.09
576.14	51503.49
576.30	52097.98
576.46	50340.24
576.62	50696.00
576.79	50768.56
576.95	50763.88
577.11	51114.96
577.27	51227.31
577.43	51140.71
577.59	50202.15
577.75	48961.67
577.92	48987.41
578.08	49661.49
578.24	50138.96
578.40	50136.62
578.56	49162.95
578.72	49588.93
578.88	49394.67
579.04	49773.83
579.21	49242.53
579.37	49846.39
579.53	50335.56
579.69	49373.60
579.85	49675.53
580.01	49839.37
580.17	49354.88
580.33	50305.13
580.49	50588.34
580.65	48465.47
580.82	49345.51
580.98	50564.93
581.14	50211.51
581.30	49998.52
581.46	49940.01
581.62	50089.80
581.78	50983.89
581.94	50686.64
582.10	51030.70
582.26	51009.64
582.42	50834.10
582.58	49275.30
582.74	48868.05
582.90	49645.10
583.06	49769.15
583.22	50138.96
583.38	50227.90
583.54	50307.47
583.70	50726.43
583.86	49954.05
584.02	50129.59
584.18	49645.10
584.34	48945.28
584.50	48423.34
584.66	48498.24
584.82	49120.82
584.98	49336.15
585.14	48744.00
585.30	48830.60
