SpectraSuite Data File
++++++++++++++++++++++++++++++++++++
Date: Mon Oct 07 14:53:57 GMT-05:00 2013
User: price-jones
Dark Spectrum Present: No
Reference Spectrum Present: No
Number of Sampled Component Spectra: 1
Spectrometers: USB2+H05261
Integration Time (usec): 100000 (USB2+H05261)
Spectra Averaged: 1 (USB2+H05261)
Boxcar Smoothing: 0 (USB2+H05261)
Correct for Electrical Dark: No (USB2+H05261)
Strobe/Lamp Enabled: No (USB2+H05261)
Correct for Detector Non-linearity: No (USB2+H05261)
Correct for Stray Light: No (USB2+H05261)
Number of Pixels in Processed Spectrum: 2048
>>>>>Begin Processed Spectral Data<<<<<
365.73	0.00
365.92	0.00
366.12	0.00
366.32	0.00
366.52	0.00
366.72	0.00
366.91	0.00
367.11	0.00
367.31	0.00
367.51	0.00
367.70	0.00
367.90	0.00
368.10	0.00
368.30	0.00
368.49	0.00
368.69	0.00
368.89	0.00
369.09	0.00
369.28	0.00
369.48	0.00
369.68	0.00
369.87	0.00
370.07	0.00
370.27	0.00
370.47	1411.34
370.66	6223.48
370.86	7297.79
371.06	7824.41
371.25	7669.94
371.45	6733.72
371.65	6279.66
371.84	6141.57
372.04	6438.81
372.24	7014.59
372.44	7080.12
372.63	6993.52
372.83	6441.15
373.03	5818.57
373.22	5439.40
373.42	5769.42
373.62	6621.38
373.81	6965.43
374.01	7012.24
374.21	6164.97
374.40	5790.49
374.60	6064.33
374.79	6956.07
374.99	7934.42
375.19	8402.52
375.38	8336.99
375.58	7789.30
375.78	7627.81
375.97	7948.46
376.17	8154.43
376.37	8095.91
376.56	8681.05
376.76	8950.21
376.95	9439.38
377.15	9909.83
377.35	10401.34
377.54	10752.42
377.74	11077.76
377.93	11321.17
378.13	10602.63
378.33	10225.80
378.52	9432.36
378.72	9121.07
378.91	9015.74
379.11	8538.27
379.31	8486.78
379.50	8449.33
379.70	9135.11
379.89	10214.10
380.09	10401.34
380.28	10918.60
380.48	10801.57
380.68	10347.51
380.87	10003.45
381.07	9404.27
381.26	8650.62
381.46	8145.06
381.65	7927.39
381.85	7641.85
382.04	7321.20
382.24	6857.77
382.43	6445.84
382.63	6392.00
382.83	6445.84
383.02	6438.81
383.22	6401.37
383.41	6494.99
383.61	6876.49
383.80	8065.49
384.00	8891.70
384.19	9886.42
384.39	10289.00
384.58	10487.94
384.78	9944.94
384.97	9975.36
385.17	9437.04
385.36	9214.69
385.56	8636.58
385.75	8896.38
385.95	9666.41
386.14	10672.84
386.34	10677.52
386.53	10026.86
386.72	9455.76
386.92	9680.46
387.11	9797.48
387.31	10429.43
387.50	9987.07
387.70	10164.95
387.89	9921.53
388.09	9907.49
388.28	10036.22
388.48	10258.57
388.67	10785.19
388.86	11918.01
389.06	12837.84
389.25	13334.03
389.45	13474.46
389.64	13448.72
389.84	13128.06
390.03	12971.25
390.22	12947.84
390.42	13633.62
390.61	14389.61
390.81	15295.40
391.00	15143.27
391.19	15194.76
391.39	14689.20
391.58	13984.70
391.78	12940.82
391.97	12610.81
392.16	11637.14
392.36	10384.96
392.55	8484.44
392.75	6736.06
392.94	5650.05
393.13	5743.67
393.33	6813.30
393.52	8704.45
393.71	10338.15
393.91	11702.68
394.10	12669.32
394.29	13874.70
394.49	14864.74
394.68	16180.12
394.88	16053.73
395.07	16273.74
395.26	16269.06
395.46	15573.92
395.65	14848.36
395.84	12816.77
396.04	10792.21
396.23	8924.46
396.42	7595.04
396.62	7124.59
396.81	8606.15
397.00	10848.38
397.19	13369.14
397.39	16016.29
397.58	17818.50
397.77	19239.20
397.97	19651.14
398.16	19955.41
398.35	20570.97
398.55	21413.56
398.74	22043.17
398.93	22452.76
399.12	21961.25
399.32	21083.55
399.51	21729.53
399.70	23316.42
399.90	22920.87
400.09	22920.87
400.28	22630.64
400.47	22852.99
400.67	23988.15
400.86	24414.13
401.05	24411.79
401.24	24346.25
401.44	24664.57
401.63	25034.37
401.82	25181.82
402.01	25029.69
402.21	25050.75
402.40	25703.76
402.59	24512.43
402.78	23435.78
402.97	22855.33
403.17	23637.07
403.36	25144.38
403.55	26244.43
403.74	26274.85
403.93	25034.37
404.13	22911.50
404.32	22984.06
404.51	23747.08
404.70	25783.34
404.89	25397.15
405.09	25064.80
405.28	24545.20
405.47	24465.62
405.66	24077.09
405.85	23751.76
406.05	22986.40
406.24	23487.28
406.43	24217.52
406.62	24896.28
406.81	25460.35
407.00	24498.39
407.20	23810.27
407.39	23971.77
407.58	25202.89
407.77	26211.66
407.96	27419.38
408.15	27110.43
408.34	27552.79
408.54	28442.19
408.73	28060.68
408.92	28173.03
409.11	27215.75
409.30	25865.26
409.49	24400.08
409.68	22817.88
409.87	22480.85
410.07	24070.07
410.26	25474.39
410.45	27342.14
410.64	27730.67
410.83	28460.91
411.02	28870.51
411.21	30167.16
411.40	29734.17
411.59	29734.17
411.78	29509.47
411.98	29151.37
412.17	29851.19
412.36	29336.27
412.55	29338.62
412.74	28795.61
412.93	27910.89
413.12	28386.02
413.31	30726.55
413.50	30958.27
413.69	31285.94
413.88	30199.93
414.07	29476.71
414.26	29792.68
414.45	31393.61
414.64	31051.89
414.83	31335.09
415.02	30160.14
415.22	30426.96
415.41	31304.67
415.60	32203.43
415.79	33504.77
415.98	33930.75
416.17	34017.35
416.36	33013.26
416.55	32357.91
416.74	31583.19
416.93	30106.31
417.12	30204.61
417.31	31091.68
417.50	31534.04
417.69	32437.48
417.88	32821.33
418.07	31903.84
418.26	31552.76
418.45	32140.24
418.64	33226.24
418.83	34110.97
419.02	33837.12
419.21	33567.96
419.39	31475.52
419.58	30824.86
419.77	30712.51
419.96	32123.85
420.15	33666.27
420.34	34775.68
420.53	35414.65
420.72	36538.10
420.91	35957.65
421.10	35686.15
421.29	35566.78
421.48	34501.84
421.67	35438.05
421.86	34813.13
422.05	32313.44
422.24	28863.49
422.43	29055.41
422.61	32044.27
422.80	33968.19
422.99	34185.86
423.18	33511.79
423.37	32645.79
423.56	32957.08
423.75	33294.12
423.94	33694.35
424.13	32137.90
424.32	32315.78
424.50	32362.59
424.69	31545.74
424.88	32425.78
425.07	32194.07
425.26	31938.95
425.45	31480.21
425.64	30803.79
425.83	30820.17
426.01	33226.24
426.20	33675.63
426.39	33195.82
426.58	30918.48
426.77	28393.04
426.96	27800.88
427.15	28790.93
427.33	31089.34
427.52	32144.92
427.71	32428.12
427.90	32210.45
428.09	31604.25
428.28	30799.11
428.46	30167.16
428.65	29432.24
428.84	30178.87
429.03	30583.78
429.22	29048.39
429.40	27204.05
429.59	24498.39
429.78	21909.75
429.97	22054.87
430.16	22160.19
430.34	22537.02
430.53	22342.75
430.72	23468.55
430.91	25839.51
431.10	30040.78
431.28	34625.89
431.47	37633.47
431.66	38120.31
431.85	34675.04
432.03	31749.37
432.22	30787.41
432.41	31892.14
432.60	35491.88
432.79	36701.94
432.97	37507.08
433.16	36297.03
433.35	33579.67
433.54	30429.30
433.72	28397.72
433.91	29776.30
434.10	32875.16
434.28	34550.99
434.47	36320.43
434.66	35573.80
434.85	34740.57
435.03	34976.97
435.22	35676.79
435.41	37837.10
435.59	37614.75
435.78	38412.87
435.97	39189.93
436.16	39538.67
436.34	38707.78
436.53	37827.74
436.72	37956.47
436.90	36065.31
437.09	36109.78
437.28	35601.89
437.46	36444.48
437.65	35929.56
437.84	34171.82
438.02	32065.34
438.21	31372.54
438.40	33144.33
438.58	35828.92
438.77	36531.08
438.96	36416.40
439.14	38195.20
439.33	39110.35
439.52	39786.77
439.70	38939.49
439.89	38005.62
440.08	37050.68
440.26	37078.77
440.45	37724.75
440.63	40474.88
440.82	42494.77
441.01	41738.77
441.19	41486.00
441.38	41837.08
441.57	43599.50
441.75	44027.82
441.94	44556.78
442.12	43990.37
442.31	44547.42
442.50	44285.28
442.68	44039.52
442.87	43784.40
443.05	42895.00
443.24	43524.60
443.43	44289.96
443.61	44938.29
443.80	45401.71
443.98	43473.11
444.17	43271.82
444.35	45621.72
444.54	46082.81
444.73	45476.61
444.91	43772.70
445.10	41862.82
445.28	40425.73
445.47	40636.38
445.65	40278.28
445.84	41139.60
446.02	42885.64
446.21	43255.44
446.39	43189.91
446.58	43498.86
446.77	44240.81
446.95	44755.72
447.14	46178.77
447.32	46529.85
447.51	45504.70
447.69	44128.46
447.88	43274.16
448.06	43875.68
448.25	44776.79
448.43	45680.24
448.62	44133.14
448.80	43901.43
448.99	44156.55
449.17	44917.22
449.36	44706.57
449.54	46038.34
449.73	46476.02
449.91	46955.83
450.10	48229.08
450.28	48699.53
450.46	48135.46
450.65	47983.32
450.83	47812.46
451.02	47679.05
451.20	47276.48
451.39	47028.38
451.57	46660.92
451.76	46894.97
451.94	47042.43
452.13	45361.92
452.31	44259.53
452.49	42066.45
452.68	42792.01
452.86	42892.66
453.05	43318.64
453.23	44765.09
453.42	45015.52
453.60	45694.28
453.78	46562.62
453.97	45844.07
454.15	46401.12
454.34	45371.28
454.52	45251.92
454.70	44594.23
454.89	44809.56
455.07	45188.72
455.26	46295.80
455.44	47262.44
455.62	47938.85
455.81	48144.82
455.99	47770.33
456.17	47224.99
456.36	47784.38
456.54	48589.52
456.73	48357.81
456.91	49298.70
457.09	49345.51
457.28	50169.38
457.46	48610.59
457.64	48018.43
457.83	46780.29
458.01	45965.78
458.19	47463.72
458.38	47503.51
458.56	48832.94
458.74	48334.40
458.93	47716.50
459.11	47620.54
459.29	47117.32
459.48	47061.15
459.66	46876.25
459.84	47744.59
460.03	48083.97
460.21	48149.50
460.39	48987.41
460.57	48868.05
460.76	49191.04
460.94	49413.39
461.12	48816.55
461.31	49064.65
461.49	48676.12
461.67	48961.67
461.85	50211.51
462.04	49886.18
462.22	50246.62
462.40	49579.57
462.59	50021.93
462.77	49940.01
462.95	50178.75
463.13	49186.36
463.32	48942.94
463.50	48926.56
463.68	48964.01
463.86	48708.89
464.05	48203.33
464.23	47522.24
464.41	46747.52
464.59	46298.14
464.78	48526.33
464.96	48163.54
465.14	47606.50
465.32	49174.66
465.50	49698.94
465.69	49783.19
465.87	49050.61
466.05	48467.81
466.23	46646.88
466.41	45743.43
466.60	46820.08
466.78	47072.85
466.96	47533.94
467.14	48292.27
467.32	48303.98
467.51	48421.00
467.69	46651.56
467.87	47732.89
468.05	48285.25
468.23	48156.52
468.41	48168.22
468.60	48179.93
468.78	48762.72
468.96	48025.45
469.14	48481.86
469.32	48844.64
469.50	47566.71
469.69	47660.33
469.87	47117.32
470.05	47227.33
470.23	46677.30
470.41	46756.88
470.59	47735.23
470.77	47400.53
470.95	48397.60
471.14	48825.92
471.32	49212.10
471.50	50642.17
471.68	50827.07
471.86	51292.84
472.04	51405.19
472.22	51182.84
472.40	49350.20
472.58	49184.02
472.77	48776.76
472.95	49565.52
473.13	50586.00
473.31	49595.95
473.49	49954.05
473.67	50305.13
473.85	50478.33
474.03	51531.57
474.21	51723.50
474.39	51723.50
474.57	51934.15
474.75	52079.26
474.93	51742.22
475.12	50904.31
475.30	50820.05
475.48	51187.52
475.66	51601.79
475.84	51189.86
476.02	51023.68
476.20	50426.84
476.38	51152.41
476.56	52332.04
476.74	51899.04
476.92	52374.17
477.10	53123.14
477.28	53851.05
477.46	53818.28
477.64	54061.69
477.82	54085.10
478.00	54218.51
478.18	53822.96
478.36	53776.15
478.54	53801.89
478.72	54057.01
478.90	54588.31
479.08	55522.19
479.26	55852.20
479.44	55749.22
479.62	55693.05
479.80	55831.14
479.98	55683.69
480.16	56088.60
480.34	55482.40
480.52	55618.15
480.70	55877.95
480.88	55742.20
481.06	56523.94
481.24	56439.68
481.41	57237.80
481.59	57778.46
481.77	57411.00
481.95	57111.41
482.13	57031.83
482.31	56992.04
482.49	57586.54
482.67	57153.54
482.85	57303.34
483.03	57663.78
483.21	58117.84
483.39	58251.25
483.57	57609.95
483.74	57411.00
483.92	57638.03
484.10	57778.46
484.28	58265.30
484.46	58431.47
484.64	58562.54
484.82	58120.18
485.00	58066.35
485.18	57675.48
485.35	56481.81
485.53	54319.15
485.71	51236.67
485.89	51086.87
486.07	52823.55
486.25	55547.93
486.43	56750.97
486.61	57343.12
486.78	57006.09
486.96	57099.71
487.14	58267.64
487.32	58951.07
487.50	59512.80
487.68	60140.07
487.85	60776.69
488.03	60378.80
488.21	60060.49
488.39	59655.57
488.57	59260.02
488.75	59145.34
488.92	59767.92
489.10	61530.34
489.28	62466.56
489.46	62812.96
489.64	62515.71
489.81	62691.25
489.99	62454.86
490.17	62452.51
490.35	62855.09
490.53	62269.95
490.70	62010.15
490.88	62063.99
491.06	62929.98
491.24	62906.58
491.41	62152.93
491.59	60926.49
491.77	60437.31
491.95	61031.81
492.13	62094.41
492.30	62873.81
492.48	63664.91
492.66	63889.60
492.84	63833.43
493.01	63622.78
493.19	63271.70
493.37	63030.63
493.54	63112.55
493.72	63468.31
493.90	64324.94
494.08	64828.16
494.25	64872.63
494.43	64982.63
494.61	65289.24
494.79	65284.56
494.96	65193.28
495.14	64350.69
495.32	63870.88
495.49	63309.15
495.67	64441.97
495.85	65441.38
496.02	65535.00
496.20	65535.00
496.38	65022.42
496.55	64914.76
496.73	65535.00
496.91	65525.64
497.09	65535.00
497.26	65535.00
497.44	65535.00
497.62	65471.81
497.79	64718.15
497.97	63702.36
498.14	63746.83
498.32	64874.97
498.50	65326.69
498.67	65535.00
498.85	65535.00
499.03	65535.00
499.20	65535.00
499.38	65535.00
499.56	65535.00
499.73	65535.00
499.91	65148.81
500.08	64795.39
500.26	64367.07
500.44	64638.57
500.61	65071.57
500.79	65123.07
500.97	64685.39
501.14	64680.70
501.32	64498.14
501.49	64456.01
501.67	64624.53
501.84	64980.29
502.02	65535.00
502.20	65535.00
502.37	65535.00
502.55	65535.00
502.72	65535.00
502.90	65535.00
503.07	65535.00
503.25	65535.00
503.43	65303.29
503.60	64563.68
503.78	64079.19
503.95	64561.34
504.13	65535.00
504.30	65535.00
504.48	65535.00
504.65	65535.00
504.83	65535.00
505.01	65535.00
505.18	65535.00
505.36	65535.00
505.53	65535.00
505.71	65535.00
505.88	65535.00
506.06	65535.00
506.23	65535.00
506.41	65535.00
506.58	65535.00
506.76	65535.00
506.93	65535.00
507.11	65535.00
507.28	65535.00
507.46	65535.00
507.63	65464.78
507.81	65174.56
507.98	65502.23
508.16	65535.00
508.33	65535.00
508.50	65535.00
508.68	65535.00
508.85	65535.00
509.03	65535.00
509.20	65535.00
509.38	65535.00
509.55	65535.00
509.73	65535.00
509.90	65535.00
510.08	65535.00
510.25	65535.00
510.42	65535.00
510.60	65535.00
510.77	65535.00
510.95	65535.00
511.12	65535.00
511.30	65535.00
511.47	65535.00
511.64	65535.00
511.82	65535.00
511.99	65535.00
512.17	65535.00
512.34	65535.00
512.51	65535.00
512.69	65535.00
512.86	65535.00
513.04	65535.00
513.21	65535.00
513.38	65535.00
513.56	65535.00
513.73	65535.00
513.90	65535.00
514.08	65535.00
514.25	65535.00
514.43	65535.00
514.60	65535.00
514.77	65535.00
514.95	65535.00
515.12	65535.00
515.29	65535.00
515.47	65535.00
515.64	65535.00
515.81	65535.00
515.99	65535.00
516.16	65535.00
516.33	63288.09
516.51	62101.43
516.68	61490.55
516.85	61237.78
517.03	61497.58
517.20	63948.12
517.37	65535.00
517.54	65535.00
517.72	65535.00
517.89	64158.76
518.06	62169.31
518.24	62480.60
518.41	64228.98
518.58	65064.55
518.75	65471.81
518.93	65535.00
519.10	65483.51
519.27	65535.00
519.45	65535.00
519.62	65535.00
519.79	65535.00
519.96	65535.00
520.14	65535.00
520.31	65535.00
520.48	65535.00
520.65	65535.00
520.83	65535.00
521.00	65535.00
521.17	65535.00
521.34	65535.00
521.52	65535.00
521.69	65535.00
521.86	65535.00
522.03	65535.00
522.20	65535.00
522.38	65535.00
522.55	65460.10
522.72	65535.00
522.89	65535.00
523.07	65535.00
523.24	65535.00
523.41	65535.00
523.58	65535.00
523.75	65535.00
523.92	65535.00
524.10	65535.00
524.27	65535.00
524.44	65535.00
524.61	65535.00
524.78	65535.00
524.96	65535.00
525.13	65535.00
525.30	65535.00
525.47	65535.00
525.64	65535.00
525.81	65535.00
525.98	65535.00
526.16	64816.46
526.33	63702.36
526.50	63568.95
526.67	63344.26
526.84	63920.03
527.01	64437.29
527.18	65312.65
527.36	65535.00
527.53	65535.00
527.70	65535.00
527.87	65535.00
528.04	65535.00
528.21	65535.00
528.38	65535.00
528.55	65535.00
528.72	65535.00
528.89	65535.00
529.07	65535.00
529.24	65535.00
529.41	65535.00
529.58	65535.00
529.75	65535.00
529.92	65535.00
530.09	65535.00
530.26	65535.00
530.43	65535.00
530.60	65535.00
530.77	65535.00
530.94	65535.00
531.11	65535.00
531.28	65535.00
531.46	65535.00
531.63	65535.00
531.80	65535.00
531.97	65535.00
532.14	65535.00
532.31	65347.76
532.48	64582.40
532.65	64807.09
532.82	65279.88
532.99	65535.00
533.16	65535.00
533.33	65535.00
533.50	65535.00
533.67	65535.00
533.84	65535.00
534.01	65535.00
534.18	65535.00
534.35	65535.00
534.52	65535.00
534.69	65535.00
534.86	65535.00
535.03	65535.00
535.20	65535.00
535.37	65535.00
535.54	65535.00
535.71	65535.00
535.88	65535.00
536.05	65535.00
536.22	65535.00
536.38	65535.00
536.55	65535.00
536.72	65221.37
536.89	65127.75
537.06	65535.00
537.23	65535.00
537.40	65535.00
537.57	65535.00
537.74	65535.00
537.91	65535.00
538.08	65535.00
538.25	65535.00
538.42	65535.00
538.59	65535.00
538.75	65535.00
538.92	65535.00
539.09	65535.00
539.26	65535.00
539.43	65298.61
539.60	65523.30
539.77	65535.00
539.94	65378.18
540.11	64643.26
540.28	64310.90
540.44	64418.56
540.61	64619.85
540.78	64816.46
540.95	65092.64
541.12	65350.10
541.29	65535.00
541.46	65535.00
541.62	65535.00
541.79	65535.00
541.96	65394.57
542.13	65202.64
542.30	65535.00
542.47	65535.00
542.63	65492.87
542.80	65202.64
542.97	65432.02
543.14	65226.05
543.31	65286.90
543.48	65535.00
543.64	65535.00
543.81	65535.00
543.98	65535.00
544.15	65535.00
544.32	65535.00
544.48	65509.25
544.65	65535.00
544.82	65535.00
544.99	65535.00
545.16	65535.00
545.32	65265.84
545.49	65535.00
545.66	65535.00
545.83	65535.00
546.00	65535.00
546.16	65509.25
546.33	65469.46
546.50	65535.00
546.67	65535.00
546.83	65453.08
547.00	65532.66
547.17	65071.57
547.34	64437.29
547.50	64559.00
547.67	64669.00
547.84	64994.34
548.00	65277.54
548.17	65504.57
548.34	65394.57
548.51	65251.80
548.67	65527.98
548.84	65476.49
549.01	65530.32
549.18	65446.06
549.34	65343.08
549.51	65417.97
549.68	65424.99
549.84	65066.89
550.01	65024.76
550.18	65031.78
550.34	65066.89
550.51	64942.84
550.68	65188.60
550.84	64743.90
551.01	64889.01
551.18	64828.16
551.34	64870.29
551.51	65324.35
551.68	65403.93
551.84	65535.00
552.01	65214.35
552.18	65139.45
552.34	64746.24
552.51	64411.54
552.68	64456.01
552.84	64823.48
553.01	64889.01
553.18	64757.94
553.34	64781.35
553.51	64984.97
553.67	65190.94
553.84	65284.56
554.01	65045.83
554.17	64928.80
554.34	64982.63
554.51	65071.57
554.67	65429.68
554.84	65340.74
555.00	65174.56
555.17	64898.37
555.33	64699.43
555.50	64736.88
555.67	64647.94
555.83	64774.33
556.00	64629.21
556.16	64521.55
556.33	64133.02
556.50	63856.84
556.66	64154.08
556.83	63472.99
556.99	63774.92
557.16	63671.93
557.32	63941.10
557.49	64317.92
557.65	64172.81
557.82	64233.66
557.98	64236.00
558.15	63655.55
558.32	63192.12
558.48	62782.53
558.65	62789.55
558.81	62871.47
558.98	62944.03
559.14	63157.02
559.31	63203.83
559.47	63295.11
559.64	63131.27
559.80	62817.64
559.97	62976.79
560.13	63208.51
560.30	64097.91
560.46	64465.38
560.63	64472.40
560.79	64610.49
560.96	64371.75
561.12	63220.21
561.29	62635.08
561.45	62637.42
561.61	63121.91
561.78	63407.45
561.94	63206.17
562.11	62967.43
562.27	62815.30
562.44	63269.36
562.60	63517.46
562.77	63482.35
562.93	63571.29
563.10	63487.03
563.26	63238.93
563.42	62925.30
563.59	62712.31
563.75	62948.71
563.92	63068.08
564.08	63011.90
564.24	63142.97
564.41	63412.13
564.57	63334.90
564.74	63051.69
564.90	63089.14
565.07	62866.79
565.23	62599.97
565.39	62089.73
565.56	61865.04
565.72	61499.92
565.88	62115.48
566.05	61787.80
566.21	61956.32
566.38	62295.70
566.54	62265.27
566.70	62791.89
566.87	63107.86
567.03	62857.43
567.19	63032.97
567.36	62983.82
567.52	62829.34
567.68	62541.45
567.85	61956.32
568.01	61759.72
568.17	61324.38
568.34	61066.92
568.50	61544.39
568.66	61350.12
568.83	61708.22
568.99	61783.12
569.15	62017.17
569.32	61876.74
569.48	61588.86
569.64	61432.04
569.81	61343.10
569.97	61202.67
570.13	61160.54
570.30	60914.78
570.46	60685.41
570.62	60271.14
570.78	60140.07
570.95	60460.72
571.11	60858.61
571.27	60942.87
571.43	60849.25
571.60	61471.83
571.76	61748.01
571.92	61942.28
572.09	61991.43
572.25	61998.45
572.41	61764.40
572.57	61628.65
572.74	61808.87
572.90	61408.64
573.06	61359.48
573.22	61268.20
573.38	61415.66
573.55	61219.05
573.71	61448.42
573.87	61268.20
574.03	61382.89
574.20	61221.39
574.36	61080.96
574.52	60903.08
574.68	60790.73
574.84	60465.40
575.01	60023.04
575.17	59936.44
575.33	60184.54
575.49	60460.72
575.65	60528.59
575.82	60376.46
575.98	60109.64
576.14	60324.97
576.30	60507.53
576.46	60605.83
576.62	60512.21
576.79	60423.27
576.95	60271.14
577.11	60439.65
577.27	60423.27
577.43	60528.59
577.59	60097.94
577.75	59950.48
577.92	59234.28
578.08	58944.05
578.24	59299.81
578.40	59318.54
578.56	59590.04
578.72	59744.51
578.88	59966.87
579.04	59817.07
579.21	59964.52
579.37	59990.27
579.53	60121.34
579.69	60161.13
579.85	60097.94
580.01	59765.58
580.17	59540.89
580.33	59611.10
580.49	59643.87
580.65	59931.76
580.82	60374.12
580.98	59917.71
581.14	59812.39
581.30	60292.20
581.46	59884.95
581.62	59971.55
581.78	59948.14
581.94	60046.44
582.10	59945.80
582.26	60196.24
582.42	60238.37
582.58	60083.89
582.74	59952.82
582.90	59896.65
583.06	59700.04
583.22	59744.51
583.38	59737.49
583.54	59671.96
583.70	59561.95
583.86	59760.90
584.02	59667.28
584.18	59671.96
584.34	59587.70
584.50	59398.12
584.66	59274.07
