SpectraSuite Data File
++++++++++++++++++++++++++++++++++++
Date: Mon Oct 07 14:55:01 GMT-05:00 2013
User: price-jones
Dark Spectrum Present: No
Reference Spectrum Present: No
Number of Sampled Component Spectra: 1
Spectrometers: USB2+H05261
Integration Time (usec): 10000 (USB2+H05261)
Spectra Averaged: 1 (USB2+H05261)
Boxcar Smoothing: 0 (USB2+H05261)
Correct for Electrical Dark: No (USB2+H05261)
Strobe/Lamp Enabled: No (USB2+H05261)
Correct for Detector Non-linearity: No (USB2+H05261)
Correct for Stray Light: No (USB2+H05261)
Number of Pixels in Processed Spectrum: 2048
>>>>>Begin Processed Spectral Data<<<<<
365.73	0.00
365.92	0.00
366.12	0.00
366.32	0.00
366.52	0.00
366.72	0.00
366.91	0.00
367.11	0.00
367.31	0.00
367.51	0.00
367.70	0.00
367.90	0.00
368.10	0.00
368.30	0.00
368.49	0.00
368.69	0.00
368.89	0.00
369.09	0.00
369.28	0.00
369.48	0.00
369.68	0.00
369.87	0.00
370.07	0.00
370.27	0.00
370.47	374.49
370.66	2349.90
370.86	2640.12
371.06	2970.14
371.25	2897.58
371.45	2649.49
371.65	2335.85
371.84	2340.54
372.04	2495.01
372.24	2729.06
372.44	2832.05
372.63	2839.07
372.83	2518.42
373.03	2179.04
373.22	2118.18
373.42	2380.32
373.62	2553.52
373.81	2890.56
374.01	2658.85
374.21	2373.30
374.40	2228.19
374.60	2420.11
374.79	2682.25
374.99	3225.26
375.19	3405.48
375.38	3349.31
375.58	3255.69
375.78	3124.62
375.97	3260.37
376.17	3274.41
376.37	3389.10
376.56	3578.68
376.76	3779.97
376.95	3882.95
377.15	3997.64
377.35	4229.35
377.54	4491.49
377.74	4676.39
377.93	4486.81
378.13	4416.59
378.33	4166.15
378.52	3805.71
378.72	3754.22
378.91	3590.38
379.11	3611.45
379.31	3365.69
379.50	3604.42
379.70	3922.74
379.89	4271.48
380.09	4418.93
380.28	4407.23
380.48	4571.07
380.68	4585.11
380.87	4269.14
381.07	3950.82
381.26	3634.85
381.46	3543.57
381.65	3386.76
381.85	3372.71
382.04	2946.73
382.24	2881.20
382.43	2759.49
382.63	2654.17
382.83	2682.25
383.02	2736.09
383.22	2651.83
383.41	2754.81
383.61	2874.18
383.80	3471.01
384.00	3885.29
384.19	4248.07
384.39	4421.27
384.58	4533.62
384.78	4273.82
384.97	4458.72
385.17	4100.62
385.36	3791.67
385.56	3714.43
385.75	4086.58
385.95	4528.94
386.14	4734.90
386.34	4557.02
386.53	4379.14
386.72	4107.64
386.92	4346.37
387.11	4608.51
387.31	4657.67
387.50	4720.86
387.70	4465.74
387.89	4578.09
388.09	4676.39
388.28	4423.61
388.48	4599.15
388.67	5034.49
388.86	5568.13
389.06	5713.25
389.25	6153.27
389.45	6083.05
389.64	5947.30
389.84	5799.85
390.03	5949.64
390.22	5991.77
390.42	6263.27
390.61	6700.95
390.81	7056.72
391.00	7115.23
391.19	7122.25
391.39	6801.60
391.58	6401.37
391.78	6033.90
391.97	5806.87
392.16	5507.28
392.36	4702.14
392.55	3779.97
392.75	2829.71
392.94	2574.59
393.13	2637.78
393.33	3251.00
393.52	4245.73
393.71	5015.77
393.91	5551.75
394.10	6169.65
394.29	6623.72
394.49	7033.31
394.68	7730.79
394.88	7595.04
395.07	7789.30
395.26	7801.01
395.46	7323.54
395.65	6862.45
395.84	5867.72
396.04	4887.04
396.23	4067.85
396.42	3449.95
396.62	3541.23
396.81	4351.06
397.00	5455.79
397.19	6787.55
397.39	7775.26
397.58	8879.99
397.77	9277.88
397.97	9554.07
398.16	9736.63
398.35	9949.62
398.55	10462.19
398.74	10384.96
398.93	10752.42
399.12	10761.78
399.32	10143.88
399.51	10803.91
399.70	11204.14
399.90	11066.05
400.09	10916.26
400.28	10895.19
400.47	11403.09
400.67	11611.40
400.86	11728.42
401.05	11915.67
401.24	11999.93
401.44	12074.82
401.63	12336.96
401.82	12191.85
402.01	12430.59
402.21	12395.48
402.40	12526.55
402.59	12004.61
402.78	11454.58
402.97	11452.24
403.17	12205.89
403.36	12758.26
403.55	12697.41
403.74	12943.16
403.93	12262.07
404.13	11426.50
404.32	11564.59
404.51	11910.99
404.70	12994.65
404.89	12807.41
405.09	12517.18
405.28	12372.07
405.47	12369.73
405.66	12184.83
405.85	11822.05
406.05	11576.29
406.24	11939.07
406.43	12409.52
406.62	12774.64
406.81	12805.07
407.00	12250.36
407.20	12070.14
407.39	12355.69
407.58	13022.74
407.77	13479.15
407.96	14001.08
408.15	13965.98
408.34	14188.33
408.54	14637.71
408.73	14689.20
408.92	14441.11
409.11	13818.52
409.30	13188.92
409.49	12105.25
409.68	11573.95
409.87	11445.22
410.07	12631.87
410.26	13132.75
410.45	13797.46
410.64	14537.07
410.83	14841.34
411.02	14970.07
411.21	15286.04
411.40	15503.71
411.59	15669.89
411.78	15573.92
411.98	15279.02
412.17	15791.59
412.36	15143.27
412.55	15503.71
412.74	14934.96
412.93	14651.75
413.12	15051.99
413.31	16676.32
413.50	16638.87
413.69	16568.65
413.88	15807.98
414.07	15646.48
414.26	16016.29
414.45	16423.54
414.64	16631.85
414.83	16189.49
415.02	15789.25
415.22	16180.12
415.41	16683.34
415.60	17200.60
415.79	17893.40
415.98	17813.82
416.17	17734.24
416.36	17504.87
416.55	17364.43
416.74	16472.69
416.93	16486.73
417.12	16423.54
417.31	16460.99
417.50	16872.92
417.69	17862.97
417.88	17589.13
418.07	16767.60
418.26	17041.44
418.45	17209.96
418.64	17872.33
418.83	18780.46
419.02	18288.95
419.21	17326.99
419.39	16800.37
419.58	16379.07
419.77	16791.00
419.96	17647.64
420.15	18455.12
420.34	19122.18
420.53	19335.17
420.72	19562.20
420.91	19328.14
421.10	19082.39
421.29	18885.78
421.48	18473.85
421.67	19463.90
421.86	18635.35
422.05	16741.85
422.24	15599.67
422.43	16318.22
422.61	17877.01
422.80	18696.20
422.99	18052.55
423.18	17596.15
423.37	17764.67
423.56	18008.08
423.75	18118.09
423.94	18506.62
424.13	17661.68
424.32	17720.20
424.50	17741.26
424.69	17949.57
424.88	17919.14
425.07	18204.69
425.26	17298.90
425.45	16744.19
425.64	17139.74
425.83	17645.30
426.01	18200.01
426.20	18185.96
426.39	18001.06
426.58	16676.32
426.77	15730.74
426.96	15538.82
427.15	16184.80
427.33	17310.60
427.52	17930.84
427.71	18054.89
427.90	17745.94
428.09	17481.46
428.28	17090.59
428.46	16297.15
428.65	16135.65
428.84	17160.81
429.03	16842.50
429.22	16006.92
429.40	14883.47
429.59	13563.40
429.78	12187.17
429.97	12432.93
430.16	12475.06
430.34	12571.02
430.53	12826.14
430.72	13284.88
430.91	15091.77
431.10	17565.72
431.28	19964.77
431.47	21584.42
431.66	20929.07
431.85	18600.24
432.03	17336.35
432.22	17664.02
432.41	18616.62
432.60	20259.68
432.79	20638.84
432.97	21027.37
433.16	20421.17
433.35	18150.85
433.54	16226.93
433.72	15594.99
433.91	16992.29
434.10	19084.73
434.28	19983.49
434.47	20805.02
434.66	20177.76
434.85	19901.58
435.03	20039.67
435.22	20683.31
435.41	21715.49
435.59	21776.34
435.78	21858.26
435.97	22370.84
436.16	22417.65
436.34	22024.44
436.53	22029.12
436.72	21979.97
436.90	20561.61
437.09	20882.26
437.28	20493.73
437.46	20994.61
437.65	21097.59
437.84	19136.22
438.02	18216.39
438.21	18380.23
438.40	19103.45
438.58	20566.29
438.77	20971.20
438.96	21390.16
439.14	22174.24
439.33	22419.99
439.52	22794.48
439.70	21975.29
439.89	21261.43
440.08	21142.06
440.26	21181.85
440.45	22279.56
440.63	24114.54
440.82	24912.66
441.01	24308.80
441.19	24121.56
441.38	25289.49
441.57	25675.68
441.75	25757.60
441.94	25902.71
442.12	25692.06
442.31	26419.97
442.50	26281.88
442.68	25586.74
442.87	25387.79
443.05	25408.86
443.24	25656.95
443.43	26256.13
443.61	26202.30
443.80	26815.52
443.98	25928.45
444.17	25216.93
444.35	26857.65
444.54	27484.91
444.73	26967.65
444.91	25703.76
445.10	24797.98
445.28	23899.21
445.47	23487.28
445.65	23892.19
445.84	24456.26
446.02	25570.35
446.21	25972.92
446.39	25305.87
446.58	26221.02
446.77	26771.05
446.95	27077.66
447.14	27466.19
447.32	27566.83
447.51	27115.11
447.69	26576.78
447.88	26342.73
448.06	26693.81
448.25	27023.83
448.43	26864.67
448.62	26719.56
448.80	26312.30
448.99	25949.52
449.17	26955.95
449.36	27393.63
449.54	27590.24
449.73	28364.95
449.91	28531.13
450.10	29598.41
450.28	29680.33
450.46	29858.21
450.65	29909.71
450.83	29523.52
451.02	28992.22
451.20	28821.36
451.39	29088.18
451.57	28898.59
451.76	28652.84
451.94	28112.17
452.13	27484.91
452.31	26003.35
452.49	25083.52
452.68	25872.28
452.86	26223.36
453.05	27096.38
453.23	28126.22
453.42	27754.07
453.60	28631.77
453.78	28313.46
453.97	28226.86
454.15	28056.00
454.34	26923.18
454.52	26836.58
454.70	26665.72
454.89	27620.66
455.07	27330.44
455.26	28287.71
455.44	28961.79
455.62	29600.76
455.81	29195.84
455.99	28907.96
456.17	29825.45
456.36	30087.59
456.54	30536.97
456.73	29818.42
456.91	30249.08
457.09	30368.45
457.28	31501.27
457.46	29600.76
457.64	29656.93
457.83	28900.94
458.01	28662.20
458.19	29308.19
458.38	30000.99
458.56	30480.80
458.74	30080.56
458.93	29406.49
459.11	29249.67
459.29	28966.47
459.48	29755.23
459.66	29317.55
459.84	29371.38
460.03	30071.20
460.21	30382.49
460.39	30625.91
460.57	30529.95
460.76	31070.61
460.94	30815.49
461.12	30771.02
461.31	30960.61
461.49	31044.87
461.67	30937.20
461.85	31981.08
462.04	31681.49
462.22	31866.39
462.40	31285.94
462.59	31185.30
462.77	31407.65
462.95	31599.57
463.13	31087.00
463.32	30696.13
463.50	30265.47
463.68	30792.09
463.86	30953.58
464.05	30361.43
464.23	29565.65
464.41	30211.64
464.59	29310.53
464.78	30614.21
464.96	30775.70
465.14	29806.72
465.32	31269.56
465.50	31990.44
465.69	32865.80
465.87	31711.92
466.05	30036.09
466.23	29371.38
466.41	28453.89
466.60	29797.36
466.78	29736.51
466.96	30000.99
467.14	30808.47
467.32	31110.40
467.51	30583.78
467.69	29546.92
467.87	30497.18
468.05	30735.92
468.23	30644.63
468.41	30532.29
468.60	30824.86
468.78	31524.68
468.96	30663.36
469.14	31339.77
469.32	31400.63
469.50	29530.54
469.69	30270.15
469.87	30064.18
470.05	29757.57
470.23	30022.05
470.41	30120.35
470.59	30583.78
470.77	30466.75
470.95	31346.79
471.14	31742.35
471.32	31695.53
471.50	33310.50
471.68	33511.79
471.86	33979.90
472.04	33191.14
472.22	33617.11
472.40	31885.12
472.58	32102.79
472.77	31866.39
472.95	32013.85
473.13	33043.68
473.31	31845.33
473.49	31948.31
473.67	32826.01
473.85	33329.23
474.03	35302.30
474.21	35058.88
474.39	34976.97
474.57	34909.09
474.75	35044.84
474.93	34703.12
475.12	33715.42
475.30	33998.62
475.48	33118.58
475.66	33436.89
475.84	33249.65
476.02	33631.16
476.20	33240.29
476.38	33986.92
476.56	34576.73
476.74	35929.56
476.92	35861.69
477.10	35751.68
477.28	36772.16
477.46	37001.53
477.64	37600.71
477.82	37853.48
478.00	37867.53
478.18	36264.26
478.36	35906.16
478.54	37273.03
478.72	37392.40
478.90	38675.01
479.08	40793.20
479.26	39887.41
479.44	40549.78
479.62	39093.97
479.80	40500.63
479.98	40156.57
480.16	40643.40
480.34	39232.06
480.52	40465.52
480.70	41160.66
480.88	40671.49
481.06	40940.65
481.24	41539.83
481.41	42433.91
481.59	43557.37
481.77	41916.65
481.95	41722.39
482.13	41177.04
482.31	42518.17
482.49	42918.40
482.67	42029.00
482.85	42110.92
483.03	42607.11
483.21	43744.61
483.39	42902.02
483.57	42419.87
483.74	42518.17
483.92	43650.99
484.10	42728.82
484.28	43515.24
484.46	43147.78
484.64	45352.56
484.82	43983.35
485.00	43199.27
485.18	42672.65
485.35	40135.51
485.53	35878.07
485.71	34082.88
485.89	34429.28
486.07	36397.67
486.25	39332.70
486.43	42026.66
486.61	42150.71
486.78	41518.76
486.96	42803.72
487.14	44711.25
487.32	44989.78
487.50	46019.61
487.68	47239.03
487.85	48217.38
488.03	47058.81
488.21	46703.05
488.39	46382.40
488.57	44959.35
488.75	45081.06
488.92	47192.22
489.10	48978.05
489.28	50085.12
489.46	51531.57
489.64	51131.34
489.81	51040.06
489.99	49972.78
490.17	50452.59
490.35	50721.75
490.53	49858.09
490.70	49509.35
490.88	49598.29
491.06	50944.10
491.24	50972.19
491.41	49684.89
491.59	47704.80
491.77	47882.68
491.95	49649.78
492.13	50967.51
492.30	51639.24
492.48	52493.54
492.66	53099.73
492.84	52612.90
493.01	51976.28
493.19	51674.35
493.37	51414.55
493.54	51817.12
493.72	52704.18
493.90	53123.14
494.08	53769.13
494.25	53565.50
494.43	54504.06
494.61	54752.15
494.79	55098.55
494.96	55196.85
495.14	54534.48
495.32	53169.95
495.49	53261.23
495.67	54326.17
495.85	55386.44
496.02	55969.23
496.20	55526.87
496.38	55021.31
496.55	54763.85
496.73	56009.02
496.91	55531.55
497.09	55569.00
497.26	55992.64
497.44	55604.11
497.62	54899.61
497.79	53708.27
497.97	53104.41
498.14	54035.95
498.32	55229.62
498.50	54976.84
498.67	55248.35
498.85	55559.64
499.03	56074.55
499.20	56484.15
499.38	55770.28
499.56	55079.83
499.73	54703.00
499.91	54653.85
500.08	54120.21
500.26	53675.51
500.44	54625.76
500.61	54897.27
500.79	54686.62
500.97	54976.84
501.14	53593.59
501.32	53633.38
501.49	53944.67
501.67	54176.38
501.84	54377.67
502.02	55051.74
502.20	55622.83
502.37	56086.26
502.55	56016.04
502.72	56502.87
502.90	56898.42
503.07	56329.67
503.25	55199.19
503.43	54396.39
503.60	54049.99
503.78	53783.17
503.95	54101.48
504.13	55620.49
504.30	56053.49
504.48	55515.17
504.65	55550.27
504.83	55990.30
505.01	56692.46
505.18	56949.92
505.36	56994.39
505.53	57403.98
505.71	57783.15
505.88	57551.43
506.06	57350.15
506.23	56786.08
506.41	56577.77
506.58	56992.04
506.76	57202.69
506.93	56268.82
507.11	56100.30
507.28	56612.88
507.46	55882.63
507.63	55739.86
507.81	55068.12
507.98	55910.72
508.16	57080.98
508.33	56814.16
508.50	56942.89
508.68	57689.52
508.85	57986.77
509.03	58246.57
509.20	57336.10
509.38	56369.46
509.55	56306.27
509.73	56404.57
509.90	56928.85
510.08	56970.98
510.25	56589.47
510.42	56472.45
510.60	57155.88
510.77	57446.11
510.95	57354.83
511.12	57565.48
511.30	58064.01
511.47	58321.47
511.64	58227.85
511.82	58351.90
511.99	57090.35
512.17	57198.01
512.34	56638.62
512.51	56619.90
512.69	57106.73
512.86	57036.51
513.04	57214.40
513.21	56748.63
513.38	55810.07
513.56	55833.48
513.73	55166.43
513.90	56041.79
514.08	56133.07
514.25	55676.66
514.43	56598.83
514.60	56921.83
514.77	56708.84
514.95	57153.54
515.12	57034.17
515.29	57366.53
515.47	57996.13
515.64	57694.21
515.81	57176.95
515.99	56247.75
516.16	54307.45
516.33	51863.93
516.51	51838.18
516.68	50234.92
516.85	49420.41
517.03	51585.41
517.20	54010.20
517.37	56151.79
517.54	57289.29
517.72	55714.11
517.89	52369.49
518.06	51180.49
518.24	52706.52
518.41	54827.05
518.58	55554.96
518.75	55400.48
518.93	55653.26
519.10	54787.26
519.27	56165.84
519.45	56416.27
519.62	57064.60
519.79	57043.54
519.96	56697.14
520.14	56488.83
520.31	55370.05
520.48	55423.89
520.65	56619.90
520.83	57359.51
521.00	57303.34
521.17	56741.61
521.34	56685.43
521.52	57429.72
521.69	57663.78
521.86	57834.64
522.03	58010.18
522.20	56095.62
522.38	55789.01
522.55	56112.00
522.72	56949.92
522.89	56133.07
523.07	56680.75
523.24	57111.41
523.41	58347.21
523.58	58672.55
523.75	58796.60
523.92	58454.88
524.10	57979.75
524.27	57932.94
524.44	57764.42
524.61	57570.16
524.78	57827.62
524.96	57790.17
525.13	57771.44
525.30	58396.37
525.47	58464.24
525.64	58169.33
525.81	57525.69
525.98	55475.38
526.16	54354.26
526.33	54513.42
526.50	53705.93
526.67	53872.11
526.84	54471.29
527.01	55318.56
527.18	55936.46
527.36	57057.58
527.53	57991.45
527.70	57361.85
527.87	55569.00
528.04	57256.53
528.21	57614.63
528.38	58202.10
528.55	59096.19
528.72	58592.97
528.89	58155.29
529.07	57961.03
529.24	56952.26
529.41	56444.36
529.58	56788.42
529.75	57680.16
529.92	57925.92
530.09	57848.68
530.26	58274.66
530.43	59231.94
530.60	58150.61
530.77	58550.84
530.94	58805.96
531.11	58071.03
531.28	58241.89
531.46	58485.31
531.63	58064.01
531.80	57509.30
531.97	56767.35
532.14	57123.11
532.31	55690.71
532.48	54691.30
532.65	55381.76
532.82	55803.05
532.99	57373.55
533.16	57745.70
533.33	57626.33
533.50	58024.22
533.67	57794.85
533.84	57020.13
534.01	57408.66
534.18	57691.86
534.35	57392.28
534.52	56575.43
534.69	57371.21
534.86	58003.16
535.03	58136.57
535.20	57844.00
535.37	58894.90
535.54	58932.35
535.71	58775.53
535.88	59058.74
536.05	57553.77
536.22	56865.66
536.38	56622.24
536.55	55639.22
536.72	55444.95
536.89	56346.06
537.06	56390.53
537.23	57219.08
537.40	57315.04
537.57	56966.30
537.74	57551.43
537.91	57293.97
538.08	57195.67
538.25	57031.83
538.42	57902.51
538.59	57326.74
538.75	56278.18
538.92	55611.13
539.09	56168.18
539.26	56023.06
539.43	55849.86
539.60	56413.93
539.77	56823.53
539.94	56622.24
540.11	55576.02
540.28	55358.35
540.44	54859.82
540.61	54981.52
540.78	55625.17
540.95	56463.08
541.12	56423.29
541.29	57027.15
541.46	57319.72
541.62	57221.42
541.79	56535.64
541.96	55480.06
542.13	55723.47
542.30	55913.06
542.47	56350.74
542.63	56392.87
542.80	56233.71
542.97	55751.56
543.14	55377.08
543.31	55704.75
543.48	56989.70
543.64	57069.28
543.81	58117.84
543.98	57829.96
544.15	56310.95
544.32	56994.39
544.48	56416.27
544.65	56617.56
544.82	56966.30
544.99	55641.56
545.16	55128.98
545.32	55363.03
545.49	56491.17
545.66	56453.72
545.83	56207.97
546.00	56788.42
546.16	56814.16
546.33	56493.51
546.50	56664.37
546.67	57240.14
546.83	55980.93
547.00	56713.52
547.17	55517.51
547.34	54632.78
547.50	54887.90
547.67	56058.17
547.84	56697.14
548.00	56608.20
548.17	56296.91
548.34	56425.64
548.51	56907.79
548.67	57130.14
548.84	57055.24
549.01	56926.51
549.18	56413.93
549.34	56388.19
549.51	56516.92
549.68	56420.95
549.84	55990.30
550.01	55442.61
550.18	55238.98
550.34	55461.33
550.51	56133.07
550.68	56264.14
550.84	56009.02
551.01	55463.67
551.18	55114.94
551.34	54705.34
551.51	56222.01
551.68	55906.04
551.84	55959.87
552.01	55730.50
552.18	55480.06
552.34	54695.98
552.51	54831.73
552.68	54529.80
552.84	54688.96
553.01	54735.77
553.18	56226.69
553.34	55899.01
553.51	56147.11
553.67	55653.26
553.84	54981.52
554.01	55760.92
554.17	55138.34
554.34	55833.48
554.51	55786.67
554.67	54738.11
554.84	54850.45
555.00	55056.42
555.17	55004.93
555.33	54618.74
555.50	54188.08
555.67	55004.93
555.83	54932.37
556.00	54632.78
556.16	54302.77
556.33	53855.73
556.50	54391.71
556.66	54876.20
556.83	54258.30
556.99	53785.51
557.16	54372.99
557.32	54021.90
557.49	54160.00
557.65	53989.14
557.82	54475.97
557.98	54915.99
558.15	53745.72
558.32	52884.40
558.48	52151.82
558.65	52552.05
558.81	52942.92
558.98	53666.14
559.14	54127.23
559.31	53485.92
559.47	53343.15
559.64	52882.06
559.80	52229.05
559.97	53212.08
560.13	54253.62
560.30	55267.07
560.46	55496.44
560.63	55805.39
560.79	55805.39
560.96	54901.95
561.12	53303.36
561.29	52802.49
561.45	52699.50
561.61	54557.89
561.78	53710.61
561.94	54319.15
562.11	54120.21
562.27	53553.80
562.44	54258.30
562.60	54468.95
562.77	54475.97
562.93	53221.44
563.10	53354.85
563.26	53460.18
563.42	54040.63
563.59	53141.86
563.75	53221.44
563.92	53385.28
564.08	52479.49
564.24	53464.86
564.41	53048.24
564.57	53687.21
564.74	53549.12
564.90	52940.58
565.07	52877.38
565.23	51688.39
565.39	51491.79
565.56	51786.69
565.72	52165.86
565.88	50440.89
566.05	52832.91
566.21	53556.14
566.38	52788.44
566.54	52886.74
566.70	53230.80
566.87	53411.02
567.03	52310.97
567.19	53649.76
567.36	54277.02
567.52	52835.25
567.68	52683.12
567.85	51358.38
568.01	51281.14
568.17	52144.80
568.34	52591.84
568.50	52353.10
568.66	52559.07
568.83	51414.55
568.99	51365.40
569.15	51618.17
569.32	51917.76
569.48	51454.34
569.64	50887.93
569.81	51121.98
569.97	50995.59
570.13	50660.90
570.30	49895.54
570.46	49392.33
570.62	48641.01
570.78	48938.26
570.95	50108.53
571.11	49439.14
571.27	49689.57
571.43	49427.43
571.60	49230.83
571.76	51164.11
571.92	51133.68
572.09	51510.51
572.25	51667.33
572.41	52530.98
572.57	52002.02
572.74	51910.74
572.90	52842.27
573.06	51863.93
573.22	52325.02
573.38	51622.86
573.55	53113.78
573.71	51641.58
573.87	51774.99
574.03	51672.01
574.20	51503.49
574.36	51592.43
574.52	50211.51
574.68	50754.52
574.84	49413.39
575.01	49619.36
575.17	50363.65
575.33	50319.18
575.49	50387.05
575.65	49251.89
575.82	49827.66
575.98	49294.02
576.14	50541.53
576.30	50925.38
576.46	49680.21
576.62	49734.04
576.79	49755.11
576.95	49965.76
577.11	50349.60
577.27	50370.67
577.43	50735.79
577.59	49186.36
577.75	48282.91
577.92	48090.99
578.08	48746.34
578.24	49305.73
578.40	49277.64
578.56	48320.36
578.72	48395.26
578.88	48666.76
579.04	49127.84
579.21	48299.30
579.37	48849.32
579.53	49001.46
579.69	48865.70
579.85	48774.42
580.01	48844.64
580.17	48182.27
580.33	49326.79
580.49	50014.91
580.65	47580.75
580.82	48493.56
580.98	49352.54
581.14	49628.72
581.30	49263.60
581.46	48781.45
581.62	49502.33
581.78	50131.93
581.94	49654.47
582.10	50192.79
582.26	50101.51
582.42	49961.08
582.58	48308.66
582.74	48018.43
582.90	48437.39
583.06	48872.73
583.22	49296.36
583.38	48961.67
583.54	49588.93
583.70	50110.87
583.86	49294.02
584.02	49193.38
584.18	48802.51
584.34	47863.96
584.50	47292.86
584.66	47868.64
584.82	47807.78
584.98	47983.32
585.14	47625.22
585.30	47702.46
