SpectraSuite Data File
++++++++++++++++++++++++++++++++++++
Date: Mon Oct 07 14:55:02 GMT-05:00 2013
User: price-jones
Dark Spectrum Present: No
Reference Spectrum Present: No
Number of Sampled Component Spectra: 1
Spectrometers: USB2+H05261
Integration Time (usec): 10000 (USB2+H05261)
Spectra Averaged: 1 (USB2+H05261)
Boxcar Smoothing: 0 (USB2+H05261)
Correct for Electrical Dark: No (USB2+H05261)
Strobe/Lamp Enabled: No (USB2+H05261)
Correct for Detector Non-linearity: No (USB2+H05261)
Correct for Stray Light: No (USB2+H05261)
Number of Pixels in Processed Spectrum: 2048
>>>>>Begin Processed Spectral Data<<<<<
365.73	0.00
365.92	0.00
366.12	0.00
366.32	0.00
366.52	0.00
366.72	0.00
366.91	0.00
367.11	0.00
367.31	0.00
367.51	0.00
367.70	0.00
367.90	0.00
368.10	0.00
368.30	0.00
368.49	0.00
368.69	0.00
368.89	0.00
369.09	0.00
369.28	0.00
369.48	0.00
369.68	0.00
369.87	0.00
370.07	0.00
370.27	0.00
370.47	470.45
370.66	2698.64
370.86	2850.77
371.06	3337.60
371.25	3213.56
371.45	2801.62
371.65	2588.63
371.84	2504.37
372.04	2726.72
372.24	2970.14
372.44	3009.93
372.63	3000.57
372.83	2651.83
373.03	2401.39
373.22	2251.60
373.42	2555.86
373.62	2956.10
373.81	2984.18
374.01	2937.37
374.21	2581.61
374.40	2431.82
374.60	2703.32
374.79	3096.53
374.99	3653.58
375.19	3758.90
375.38	3796.35
375.58	3433.57
375.78	3389.10
375.97	3475.70
376.17	3613.79
376.37	3637.19
376.56	3843.16
376.76	4009.34
376.95	4346.37
377.15	4461.06
377.35	4723.20
377.54	4889.38
377.74	5015.77
377.93	5205.35
378.13	4847.25
378.33	4702.14
378.52	4271.48
378.72	4009.34
378.91	3901.67
379.11	3845.50
379.31	3754.22
379.50	3934.44
379.70	4114.66
379.89	4477.44
380.09	4798.10
380.28	5041.51
380.48	4865.97
380.68	4791.08
380.87	4557.02
381.07	4189.56
381.26	3808.05
381.46	3651.24
381.65	3468.67
381.85	3604.42
382.04	3363.35
382.24	3033.33
382.43	2960.78
382.63	3000.57
382.83	2909.29
383.02	3000.57
383.22	3056.74
383.41	3049.72
383.61	3328.24
383.80	3761.24
384.00	4397.87
384.19	4734.90
384.39	4896.40
384.58	4992.36
384.78	4699.80
384.97	4741.93
385.17	4386.16
385.36	4194.24
385.56	4065.51
385.75	4456.38
385.95	4805.12
386.14	5135.14
386.34	5093.01
386.53	4627.24
386.72	4540.64
386.92	4629.58
387.11	4999.38
387.31	5111.73
387.50	4971.30
387.70	4868.31
387.89	4699.80
388.09	4912.78
388.28	4835.55
388.48	5011.09
388.67	5385.57
388.86	5923.90
389.06	6356.90
389.25	6843.73
389.45	6597.97
389.64	6696.27
389.84	6448.18
390.03	6567.54
390.22	6635.42
390.42	6815.64
390.61	7365.67
390.81	7712.07
391.00	7981.23
391.19	7719.09
391.39	7330.56
391.58	6981.82
391.78	6691.59
391.97	6408.39
392.16	6061.99
392.36	5247.48
392.55	3981.25
392.75	3262.71
392.94	2771.19
393.13	3045.04
393.33	3737.84
393.52	4550.00
393.71	5425.36
393.91	6104.12
394.10	6661.16
394.29	7197.15
394.49	7829.09
394.68	8287.84
394.88	8344.01
395.07	8407.20
395.26	8456.36
395.46	8140.38
395.65	7433.54
395.84	6443.49
396.04	5324.72
396.23	4131.05
396.42	3627.83
396.62	3817.41
396.81	4706.82
397.00	6080.71
397.19	7335.24
397.39	8578.06
397.58	9741.31
397.77	10033.88
397.97	10319.42
398.16	10710.29
398.35	10998.18
398.55	11335.21
398.74	11620.76
398.93	11927.37
399.12	11634.80
399.32	11112.86
399.51	11562.25
399.70	12297.17
399.90	12177.81
400.09	11833.75
400.28	11892.26
400.47	12395.48
400.67	12877.63
400.86	12931.46
401.05	13282.54
401.24	12769.96
401.44	13362.12
401.63	13507.23
401.82	13549.36
402.01	13645.32
402.21	13514.25
402.40	13525.96
402.59	12954.87
402.78	12531.23
402.97	12566.34
403.17	13259.13
403.36	13940.23
403.55	13769.37
403.74	14263.22
403.93	13540.00
404.13	12374.41
404.32	12606.13
404.51	13378.50
404.70	13998.74
404.89	13940.23
405.09	13514.25
405.28	13406.59
405.47	13556.38
405.66	13685.11
405.85	12994.65
406.05	12496.12
406.24	13090.62
406.43	13607.87
406.62	13834.91
406.81	13914.48
407.00	13481.49
407.20	13048.49
407.39	13266.16
407.58	13916.83
407.77	14452.81
407.96	14878.79
408.15	15585.63
408.34	15482.64
408.54	15868.83
408.73	16152.04
408.92	15969.48
409.11	14970.07
409.30	14349.82
409.49	13504.89
409.68	12594.42
409.87	12627.19
410.07	13465.10
410.26	14558.13
410.45	14956.02
410.64	15740.10
410.83	16219.91
411.02	16470.35
411.21	16952.50
411.40	16737.17
411.59	17064.85
411.78	17041.44
411.98	16795.68
412.17	17195.92
412.36	16973.56
412.55	16835.47
412.74	16215.23
412.93	16126.29
413.12	16545.25
413.31	18181.28
413.50	18274.90
413.69	18380.23
413.88	17296.56
414.07	17048.46
414.26	17860.63
414.45	18167.24
414.64	18298.31
414.83	17944.89
415.02	17759.98
415.22	17727.22
415.41	18534.70
415.60	18628.32
415.79	19414.74
415.98	19653.48
416.17	19110.47
416.36	19007.49
416.55	18951.32
416.74	18143.83
416.93	17799.77
417.12	18235.11
417.31	18087.66
417.50	18853.02
417.69	18930.25
417.88	18855.36
418.07	18644.71
418.26	18677.48
418.45	18743.01
418.64	19405.38
418.83	20379.04
419.02	19786.89
419.21	19353.89
419.39	18916.21
419.58	17874.67
419.77	17956.59
419.96	19274.31
420.15	19971.79
420.34	20781.62
420.53	21177.17
420.72	21256.75
420.91	21263.77
421.10	20945.45
421.29	20790.98
421.48	20362.66
421.67	21392.50
421.86	20367.34
422.05	18410.65
422.24	17111.66
422.43	18003.40
422.61	19800.93
422.80	20381.38
422.99	19896.89
423.18	19344.53
423.37	19150.26
423.56	19910.94
423.75	19934.34
423.94	20147.33
424.13	19033.24
424.32	19353.89
424.50	19475.60
424.69	19548.15
424.88	19515.39
425.07	19524.75
425.26	19147.92
425.45	18527.68
425.64	18824.93
425.83	18909.19
426.01	19609.01
426.20	19831.36
426.39	19662.84
426.58	18403.63
426.77	17226.34
426.96	17013.35
427.15	17755.30
427.33	19213.46
427.52	19433.47
427.71	20322.87
427.90	18944.30
428.09	19421.77
428.28	18752.37
428.46	17633.60
428.65	17893.40
428.84	18537.04
429.03	18644.71
429.22	17472.10
429.40	16212.89
429.59	14633.03
429.78	13011.04
429.97	13603.19
430.16	13275.52
430.34	13444.04
430.53	14125.13
430.72	14494.94
430.91	16402.47
431.10	19506.02
431.28	21687.40
431.47	23866.44
431.66	23070.66
431.85	20369.68
432.03	19126.86
432.22	18738.33
432.41	20800.34
432.60	22136.79
432.79	22754.69
432.97	23337.48
433.16	22155.51
433.35	19915.62
433.54	18111.07
433.72	17511.89
433.91	18464.49
434.10	20760.55
434.28	22122.74
434.47	22843.63
434.66	21965.93
434.85	21476.76
435.03	22242.11
435.22	22361.48
435.41	23747.08
435.59	23632.39
435.78	24217.52
435.97	24769.89
436.16	24929.05
436.34	24301.78
436.53	23934.32
436.72	23843.04
436.90	22597.87
437.09	23005.13
437.28	22485.53
437.46	23014.49
437.65	22548.72
437.84	20910.35
438.02	19747.10
438.21	20318.19
438.40	21219.30
438.58	22424.67
438.77	23278.97
438.96	23232.16
439.14	24456.26
439.33	24893.94
439.52	25090.54
439.70	24070.07
439.89	23201.73
440.08	22689.15
440.26	23150.24
440.45	24315.83
440.63	26600.19
440.82	27108.08
441.01	26558.06
441.19	26600.19
441.38	27323.41
441.57	28201.11
441.75	28091.11
441.94	28507.72
442.12	28217.50
442.31	28940.72
442.50	28804.97
442.68	27985.79
442.87	27903.87
443.05	27721.30
443.24	28343.89
443.43	28922.00
443.61	28460.91
443.80	29724.80
443.98	28428.15
444.17	27953.02
444.35	29212.23
444.54	30108.65
444.73	29757.57
444.91	27957.70
445.10	27091.70
445.28	26291.24
445.47	25905.05
445.65	26253.79
445.84	26939.57
446.02	28067.70
446.21	28114.52
446.39	28039.62
446.58	28975.83
446.77	29280.10
446.95	29479.05
447.14	30651.66
447.32	30635.27
447.51	29921.41
447.69	28627.09
447.88	28690.29
448.06	29237.97
448.25	29654.59
448.43	29106.90
448.62	29345.64
448.80	29085.84
448.99	28943.06
449.17	29832.47
449.36	29841.83
449.54	30539.31
449.73	30955.93
449.91	31365.52
450.10	32142.58
450.28	32718.35
450.46	32828.35
450.65	32692.60
450.83	32161.30
451.02	31309.35
451.20	31707.24
451.39	31782.13
451.57	31590.21
451.76	31339.77
451.94	30824.86
452.13	30534.63
452.31	28561.56
452.49	27550.45
452.68	28259.63
452.86	28545.17
453.05	28631.77
453.23	30291.21
453.42	30471.43
453.60	31409.99
453.78	30630.59
453.97	30499.52
454.15	30146.10
454.34	29371.38
454.52	29467.34
454.70	29460.32
454.89	30022.05
455.07	30113.33
455.26	30558.03
455.44	31967.04
455.62	32322.80
455.81	32514.72
455.99	32025.55
456.17	32451.53
456.36	33055.39
456.54	33338.59
456.73	32851.76
456.91	33205.18
457.09	33703.71
457.28	34293.53
457.46	32868.14
457.64	32109.81
457.83	31339.77
458.01	31159.55
458.19	32517.06
458.38	32978.15
458.56	33102.20
458.74	32999.21
458.93	32568.55
459.11	31908.52
459.29	31253.17
459.48	32648.13
459.66	32236.20
459.84	32360.25
460.03	32940.70
460.21	33303.48
460.39	33708.40
460.57	33846.49
460.76	33792.65
460.94	34036.07
461.12	34199.91
461.31	33972.88
461.49	33907.34
461.67	33982.24
461.85	34450.35
462.04	34684.40
462.22	34756.96
462.40	35051.86
462.59	34663.33
462.77	34866.96
462.95	34354.38
463.13	34040.75
463.32	33773.93
463.50	33137.30
463.68	33991.60
463.86	34366.09
464.05	33184.12
464.23	32334.50
464.41	32987.51
464.59	32320.46
464.78	34113.31
464.96	33996.28
465.14	32924.32
465.32	34665.67
465.50	35161.87
465.69	35714.23
465.87	34431.62
466.05	33490.73
466.23	32065.34
466.41	31360.84
466.60	32730.05
466.78	32161.30
466.96	32851.76
467.14	33319.87
467.32	33773.93
467.51	34022.03
467.69	32121.51
467.87	33160.71
468.05	33722.44
468.23	33820.74
468.41	33675.63
468.60	34036.07
468.78	34836.53
468.96	34125.01
469.14	34487.79
469.32	34656.31
469.50	32868.14
469.69	33149.01
469.87	33235.61
470.05	32708.99
470.23	33048.36
470.41	33298.80
470.59	33497.75
470.77	33401.79
470.95	34459.71
471.14	35049.52
471.32	34866.96
471.50	36381.29
471.68	37186.43
471.86	37153.66
472.04	36287.67
472.22	36903.23
472.40	35447.41
472.58	34995.69
472.77	35538.69
472.95	35264.85
473.13	36882.16
473.31	34808.45
473.49	35438.05
473.67	36638.75
473.85	37102.17
474.03	38501.81
474.21	38576.71
474.39	38658.63
474.57	38309.89
474.75	38567.35
474.93	37982.21
475.12	36931.31
475.30	37050.68
475.48	36809.61
475.66	36575.55
475.84	36627.04
476.02	36744.07
476.20	36517.04
476.38	37581.98
476.56	38572.03
476.74	39576.12
476.92	39372.49
477.10	39421.64
477.28	40610.64
477.46	40577.87
477.64	41312.80
477.82	41163.00
478.00	41315.14
478.18	40395.31
478.36	39763.36
478.54	40671.49
478.72	40722.98
478.90	43065.86
479.08	44332.09
479.26	43629.93
479.44	43831.21
479.62	42749.88
479.80	43688.44
479.98	43997.39
480.16	44605.93
480.34	43047.13
480.52	44507.63
480.70	45170.00
480.88	44385.92
481.06	45420.44
481.24	45457.88
481.41	46452.61
481.59	47194.56
481.77	46082.81
481.95	45282.34
482.13	44910.20
482.31	45628.74
482.49	46309.84
482.67	45638.11
482.85	46192.81
483.03	46279.41
483.21	47398.19
483.39	46513.47
483.57	46150.68
483.74	46504.10
483.92	47524.58
484.10	47009.66
484.28	47222.65
484.46	46866.89
484.64	49013.16
484.82	48060.56
485.00	46892.63
485.18	46452.61
485.35	44151.87
485.53	39381.85
485.71	37385.38
485.89	37703.69
486.07	40353.18
486.25	43351.40
486.43	45549.17
486.61	45701.30
486.78	45111.49
486.96	46845.82
487.14	48151.84
487.32	48830.60
487.50	49502.33
487.68	51250.71
487.85	51948.19
488.03	50576.64
488.21	50050.02
488.39	49982.14
488.57	49001.46
488.75	48886.77
488.92	50426.84
489.10	52453.75
489.28	53389.96
489.46	54628.10
489.64	54152.97
489.81	53902.54
489.99	53434.43
490.17	53666.14
490.35	53907.22
490.53	53275.27
490.70	52809.51
490.88	52856.32
491.06	54145.95
491.24	53935.30
491.41	52959.30
491.59	51414.55
491.77	51545.62
491.95	52786.10
492.13	53965.73
492.30	54789.60
492.48	55309.20
492.66	55983.27
492.84	55430.91
493.01	54892.58
493.19	55096.21
493.37	54436.18
493.54	55000.25
493.72	55845.18
493.90	55936.46
494.08	56278.18
494.25	56629.26
494.43	57050.56
494.61	57352.49
494.79	57490.58
494.96	57883.79
495.14	57322.06
495.32	56275.84
495.49	56086.26
495.67	57078.64
495.85	58232.53
496.02	58461.90
496.20	58120.18
496.38	57600.58
496.55	57715.27
496.73	58417.43
496.91	58475.94
497.09	58377.64
497.26	58316.79
497.44	58394.03
497.62	57247.16
497.79	56605.86
497.97	55793.69
498.14	56624.58
498.32	57708.25
498.50	57392.28
498.67	57661.44
498.85	58279.34
499.03	58578.93
499.20	59000.22
499.38	58052.31
499.56	57895.49
499.73	57654.42
499.91	57254.18
500.08	57055.24
500.26	56484.15
500.44	57326.74
500.61	57457.81
500.79	57130.14
500.97	57427.38
501.14	56680.75
501.32	56640.96
501.49	56830.55
501.67	56978.00
501.84	57230.78
502.02	57797.19
502.20	58269.98
502.37	58361.26
502.55	58698.30
502.72	58953.41
502.90	59489.40
503.07	59089.16
503.25	57804.21
503.43	57240.14
503.60	56942.89
503.78	56640.96
503.95	57003.75
504.13	58305.09
504.30	58618.72
504.48	58117.84
504.65	58284.02
504.83	58602.33
505.01	59423.86
505.18	59309.18
505.36	59620.47
505.53	59821.75
505.71	59936.44
505.88	59793.67
506.06	59702.38
506.23	59351.30
506.41	59220.23
506.58	59341.94
506.76	59433.22
506.93	58728.72
507.11	58805.96
507.28	59110.23
507.46	58768.51
507.63	58253.59
507.81	57827.62
507.98	58731.06
508.16	59311.52
508.33	59323.22
508.50	59391.09
508.68	60067.51
508.85	60453.70
509.03	60523.91
509.20	59854.52
509.38	58812.98
509.55	58712.34
509.73	59061.08
509.90	59391.09
510.08	59559.61
510.25	58857.45
510.42	59222.58
510.60	59613.44
510.77	59835.80
510.95	59906.01
511.12	60308.58
511.30	60633.92
511.47	60830.52
511.64	60530.93
511.82	60664.35
511.99	59423.86
512.17	59686.00
512.34	59152.36
512.51	59278.75
512.69	59831.11
512.86	59838.14
513.04	59992.61
513.21	59480.03
513.38	58391.68
513.56	58267.64
513.73	57776.12
513.90	58497.01
514.08	58497.01
514.25	58190.40
514.43	58878.52
514.60	59131.29
514.77	59671.96
514.95	59664.94
515.12	59578.34
515.29	59955.16
515.47	60264.11
515.64	60336.67
515.81	59831.11
515.99	58733.40
516.16	56891.40
516.33	55065.78
516.51	54735.77
516.68	53148.88
516.85	52540.35
517.03	54363.62
517.20	57167.58
517.37	58635.10
517.54	59634.51
517.72	58171.67
517.89	55367.71
518.06	54326.17
518.24	55463.67
518.41	57567.82
518.58	58433.81
518.75	58174.02
518.93	58181.04
519.10	57588.88
519.27	58588.29
519.45	59143.00
519.62	59704.73
519.79	59866.22
519.96	59267.05
520.14	58997.88
520.31	57869.75
520.48	58396.37
520.65	59288.11
520.83	59854.52
521.00	59758.56
521.17	59370.03
521.34	59419.18
521.52	59758.56
521.69	59908.35
521.86	60554.34
522.03	60708.82
522.20	58937.03
522.38	58534.46
522.55	59044.69
522.72	59622.81
522.89	58993.20
523.07	59119.59
523.24	59831.11
523.41	60764.99
523.58	61087.98
523.75	60985.00
523.92	60748.60
524.10	60484.12
524.27	60505.19
524.44	60467.74
524.61	60229.01
524.78	60521.57
524.96	60542.64
525.13	60322.63
525.30	60874.99
525.47	60860.95
525.64	60837.54
525.81	60102.62
525.98	58321.47
526.16	57083.33
526.33	57265.89
526.50	56638.62
526.67	56860.97
526.84	57158.22
527.01	57944.64
527.18	58717.02
527.36	59718.77
527.53	60467.74
527.70	59877.93
527.87	58529.78
528.04	59451.95
528.21	60275.82
528.38	60809.46
528.55	61544.39
528.72	61146.50
528.89	60863.29
529.07	60715.84
529.24	59269.39
529.41	59281.09
529.58	59154.70
529.75	60212.62
529.92	60348.37
530.09	60467.74
530.26	61036.49
530.43	61736.31
530.60	60587.11
530.77	61010.74
530.94	61333.74
531.11	60554.34
531.28	60617.53
531.46	60933.51
531.63	60629.24
531.80	60186.88
531.97	59442.59
532.14	59522.16
532.31	58078.05
532.48	57836.98
532.65	58106.14
532.82	58492.33
532.99	60023.04
533.16	60233.69
533.33	59941.12
533.50	60388.16
533.67	60123.68
533.84	59615.79
534.01	60062.83
534.18	60390.50
534.35	59861.54
534.52	59442.59
534.69	59934.10
534.86	60547.32
535.03	60402.21
535.20	60090.91
535.37	60947.55
535.54	61394.59
535.71	61116.07
535.88	61422.68
536.05	60135.38
536.22	59330.24
536.38	59522.16
536.55	58443.18
536.72	58351.90
536.89	59133.63
537.06	59454.29
537.23	59971.55
537.40	60093.25
537.57	59840.48
537.74	60100.28
537.91	59976.23
538.08	59756.22
538.25	59487.06
538.42	60409.23
538.59	59805.37
538.75	58812.98
538.92	58611.70
539.09	58639.78
539.26	58787.24
539.43	58754.47
539.60	58855.11
539.77	59381.73
539.94	58979.16
540.11	58382.32
540.28	58026.56
540.44	57806.55
540.61	57804.21
540.78	58515.73
540.95	59337.26
541.12	58958.09
541.29	59407.48
541.46	59833.46
541.62	60123.68
541.79	58958.09
541.96	58223.17
542.13	58232.53
542.30	58515.73
542.47	59143.00
542.63	59238.96
542.80	59192.15
542.97	58574.25
543.14	58220.83
543.31	58026.56
543.48	59426.20
543.64	59765.58
543.81	60762.65
543.98	60477.10
544.15	58553.18
544.32	59517.48
544.48	59126.61
544.65	59316.20
544.82	59646.21
544.99	58452.54
545.16	58372.96
545.32	58342.53
545.49	59306.83
545.66	59084.48
545.83	58845.75
546.00	59402.80
546.16	59468.33
546.33	59276.41
546.50	59173.42
546.67	59749.20
546.83	58913.62
547.00	59519.82
547.17	58319.13
547.34	57425.04
547.50	57673.14
547.67	59002.56
547.84	59236.62
548.00	59103.21
548.17	59032.99
548.34	58990.86
548.51	59194.49
548.67	59814.73
548.84	59655.57
549.01	59554.93
549.18	58922.99
549.34	58859.79
549.51	59035.33
549.68	58848.09
549.84	58862.13
550.01	58330.83
550.18	58113.16
550.34	58225.51
550.51	58695.95
550.68	59054.06
550.84	58447.86
551.01	58204.44
551.18	57935.28
551.34	57619.31
551.51	58707.66
551.68	58857.45
551.84	58473.60
552.01	58749.79
552.18	58344.87
552.34	57570.16
552.51	57755.06
552.68	57481.22
552.84	57834.64
553.01	57815.91
553.18	58777.87
553.34	58852.77
553.51	58967.46
553.67	58520.41
553.84	57928.26
554.01	58616.38
554.17	57897.83
554.34	58457.22
554.51	58269.98
554.67	57542.07
554.84	57839.32
555.00	57801.87
555.17	57968.05
555.33	57340.78
555.50	56886.72
555.67	57904.85
555.83	58150.61
556.00	57701.23
556.16	57097.37
556.33	56968.64
556.50	57549.09
556.66	57591.22
556.83	56968.64
556.99	56978.00
557.16	57146.52
557.32	57247.16
557.49	57167.58
557.65	56767.35
557.82	57504.62
557.98	57848.68
558.15	56772.03
558.32	56016.04
558.48	55435.59
558.65	55421.55
558.81	56179.88
558.98	56561.39
559.14	56896.08
559.31	56589.47
559.47	56327.33
559.64	55908.38
559.80	55351.33
559.97	56404.57
560.13	57429.72
560.30	57979.75
560.46	58431.47
560.63	58796.60
560.79	58557.86
560.96	57689.52
561.12	56645.65
561.29	55917.74
561.45	55920.08
561.61	57396.96
561.78	56676.07
561.94	57240.14
562.11	57216.74
562.27	56563.73
562.44	57038.86
562.60	57233.12
562.77	57638.03
562.93	56467.76
563.10	56444.36
563.26	56296.91
563.42	57127.80
563.59	56278.18
563.75	56083.92
563.92	56177.54
564.08	55246.00
564.24	56584.79
564.41	56257.12
564.57	57104.39
564.74	56446.70
564.90	55561.98
565.07	56072.21
565.23	54843.43
565.39	54707.68
565.56	55063.44
565.72	55056.42
565.88	53961.05
566.05	55805.39
566.21	56797.78
566.38	55962.21
566.54	55751.56
566.70	56402.23
566.87	56083.92
567.03	55194.51
567.19	56364.78
567.36	56978.00
567.52	55966.89
567.68	55540.91
567.85	54838.75
568.01	54560.23
568.17	55061.10
568.34	55779.65
568.50	55248.35
568.66	55554.96
568.83	54618.74
568.99	54522.78
569.15	54810.67
569.32	55302.18
569.48	54904.29
569.64	54227.87
569.81	54585.97
569.97	54064.03
570.13	53979.78
570.30	53521.03
570.46	53034.20
570.62	51868.61
570.78	52252.46
570.95	53392.30
571.11	52968.66
571.27	52949.94
571.43	52938.24
571.60	52715.89
571.76	54562.57
571.92	54698.32
572.09	55180.47
572.25	55140.68
572.41	55545.59
572.57	55519.85
572.74	55262.39
572.90	55950.51
573.06	55231.96
573.22	55444.95
573.38	54887.90
573.55	56151.79
573.71	54665.55
573.87	55117.28
574.03	55138.34
574.20	54401.07
574.36	54546.18
574.52	53499.97
574.68	53467.20
574.84	53027.18
575.01	53083.35
575.17	53883.81
575.33	53815.94
575.49	53853.39
575.65	52928.87
575.82	53539.75
575.98	53167.61
576.14	53595.93
576.30	54429.16
576.46	53045.90
576.62	53516.35
576.79	53399.32
576.95	53404.00
577.11	53572.52
577.27	53806.58
577.43	53965.73
577.59	52790.78
577.75	51915.42
577.92	51470.72
578.08	52072.24
578.24	53188.67
578.40	52905.47
578.56	52346.08
578.72	52612.90
578.88	52215.01
579.04	52676.10
579.21	52126.07
579.37	52074.58
579.53	52765.04
579.69	52708.86
579.85	52704.18
580.01	52289.91
580.17	52219.69
580.33	52863.34
580.49	53172.29
580.65	51096.24
580.82	51950.53
580.98	52921.85
581.14	53181.65
581.30	52879.72
581.46	52870.36
581.62	53052.92
581.78	53481.24
581.94	53006.11
582.10	53663.80
582.26	53539.75
582.42	53731.68
582.58	52472.47
582.74	51618.17
582.90	52542.69
583.06	52542.69
583.22	52919.51
583.38	52868.02
583.54	52839.93
583.70	53844.02
583.86	52612.90
584.02	52926.53
584.18	52666.73
584.34	51650.94
584.50	51341.99
584.66	51349.01
584.82	52172.88
584.98	51866.27
585.14	51515.19
585.30	51517.53
