SpectraSuite Data File
++++++++++++++++++++++++++++++++++++
Date: Mon Oct 07 14:55:00 GMT-05:00 2013
User: price-jones
Dark Spectrum Present: No
Reference Spectrum Present: No
Number of Sampled Component Spectra: 1
Spectrometers: USB2+H05261
Integration Time (usec): 10000 (USB2+H05261)
Spectra Averaged: 1 (USB2+H05261)
Boxcar Smoothing: 0 (USB2+H05261)
Correct for Electrical Dark: No (USB2+H05261)
Strobe/Lamp Enabled: No (USB2+H05261)
Correct for Detector Non-linearity: No (USB2+H05261)
Correct for Stray Light: No (USB2+H05261)
Number of Pixels in Processed Spectrum: 2048
>>>>>Begin Processed Spectral Data<<<<<
365.73	0.00
365.92	0.00
366.12	0.00
366.32	0.00
366.52	0.00
366.72	0.00
366.91	0.00
367.11	0.00
367.31	0.00
367.51	0.00
367.70	0.00
367.90	0.00
368.10	0.00
368.30	0.00
368.49	0.00
368.69	0.00
368.89	0.00
369.09	0.00
369.28	0.00
369.48	0.00
369.68	0.00
369.87	0.00
370.07	0.00
370.27	0.00
370.47	341.72
370.66	2380.32
370.86	2787.58
371.06	2939.71
371.25	2806.30
371.45	2623.74
371.65	2211.81
371.84	2204.78
372.04	2296.07
372.24	2644.81
372.44	2740.77
372.63	2813.32
372.83	2392.03
373.03	2115.84
373.22	2019.88
373.42	2139.25
373.62	2471.61
373.81	2569.91
374.01	2616.72
374.21	2326.49
374.40	2183.72
374.60	2342.88
374.79	2761.83
374.99	3150.36
375.19	3307.18
375.38	3253.34
375.58	3148.02
375.78	3056.74
375.97	3101.21
376.17	3293.13
376.37	3232.28
376.56	3370.37
376.76	3599.74
376.95	3801.03
377.15	3999.98
377.35	4208.28
377.54	4285.52
377.74	4580.43
377.93	4376.80
378.13	4219.99
378.33	3988.27
378.52	3791.67
378.72	3707.41
378.91	3566.98
379.11	3435.91
379.31	3314.20
379.50	3485.06
379.70	3714.43
379.89	4114.66
380.09	4187.22
380.28	4379.14
380.48	4463.40
380.68	4344.03
380.87	4032.74
381.07	3889.97
381.26	3602.08
381.46	3403.14
381.65	3241.64
381.85	2963.12
382.04	2853.11
382.24	2888.22
382.43	2689.28
382.63	2724.38
382.83	2628.42
383.02	2586.29
383.22	2595.65
383.41	2717.36
383.61	2825.03
383.80	3337.60
384.00	3782.31
384.19	4376.80
384.39	4388.50
384.58	4435.32
384.78	4280.84
384.97	4245.73
385.17	3943.80
385.36	3749.54
385.56	3700.39
385.75	3896.99
385.95	4194.24
386.14	4629.58
386.34	4599.15
386.53	4170.83
386.72	3948.48
386.92	4102.96
387.11	4486.81
387.31	4519.57
387.50	4489.15
387.70	4301.90
387.89	4367.44
388.09	4287.86
388.28	4418.93
388.48	4407.23
388.67	4870.65
388.86	5350.46
389.06	5542.39
389.25	5991.77
389.45	6001.13
389.64	5870.06
389.84	5933.26
390.03	5694.52
390.22	5853.68
390.42	6361.58
390.61	6668.19
390.81	6965.43
391.00	6918.62
391.19	6750.10
391.39	6574.56
391.58	6127.52
391.78	5729.63
391.97	5781.12
392.16	5313.02
392.36	4603.83
392.55	3676.98
392.75	2939.71
392.94	2434.16
393.13	2609.70
393.33	3089.51
393.52	4039.76
393.71	4896.40
393.91	5607.92
394.10	5933.26
394.29	6483.28
394.49	6956.07
394.68	7576.31
394.88	7506.10
395.07	7756.54
395.26	7522.48
395.46	7274.38
395.65	6949.05
395.84	5757.72
396.04	4849.59
396.23	3922.74
396.42	3393.78
396.62	3377.39
396.81	4124.02
397.00	5376.21
397.19	6607.33
397.39	7793.98
397.58	8819.14
397.77	9312.99
397.97	9404.27
398.16	9528.32
398.35	9748.33
398.55	10134.52
398.74	10516.03
398.93	10682.20
399.12	10635.39
399.32	10317.08
399.51	10504.32
399.70	11332.87
399.90	10836.68
400.09	10944.34
400.28	10761.78
400.47	11265.00
400.67	11417.13
400.86	11705.02
401.05	11763.53
401.24	12070.14
401.44	12231.64
401.63	12133.34
401.82	12379.09
402.01	12540.59
402.21	12456.33
402.40	12212.92
402.59	11592.67
402.78	11370.32
402.97	11080.10
403.17	12046.74
403.36	12655.28
403.55	12753.58
403.74	12737.20
403.93	12173.13
404.13	11281.38
404.32	11215.85
404.51	12095.89
404.70	12585.06
404.89	12713.79
405.09	12341.64
405.28	12233.98
405.47	12334.62
405.66	12313.56
405.85	11548.20
406.05	11438.20
406.24	11679.27
406.43	12329.94
406.62	12678.68
406.81	12678.68
407.00	12241.00
407.20	11831.41
407.39	12039.72
407.58	12772.30
407.77	13488.51
407.96	13841.93
408.15	13865.33
408.34	13928.53
408.54	14794.53
408.73	14420.04
408.92	14164.92
409.11	13371.48
409.30	12926.78
409.49	12184.83
409.68	11695.66
409.87	11625.44
410.07	12400.16
410.26	13233.39
410.45	13682.77
410.64	13984.70
410.83	14663.46
411.02	15346.89
411.21	15529.45
411.40	14895.17
411.59	15721.38
411.78	15367.96
411.98	15119.86
412.17	15112.84
412.36	14941.98
412.55	14965.39
412.74	14520.68
412.93	14569.83
413.12	14949.00
413.31	16451.63
413.50	16643.55
413.69	16442.26
413.88	15702.65
414.07	15454.56
414.26	15964.79
414.45	16266.72
414.64	16308.85
414.83	15896.92
415.02	15964.79
415.22	15990.54
415.41	16437.58
415.60	17172.51
415.79	17809.14
415.98	18082.98
416.17	17762.33
416.36	17256.77
416.55	17418.27
416.74	16666.95
416.93	16147.36
417.12	16217.57
417.31	16414.18
417.50	16730.15
417.69	17432.31
417.88	17502.53
418.07	17149.11
418.26	17144.42
418.45	17097.61
418.64	17961.27
418.83	18459.81
419.02	18012.76
419.21	17624.23
419.39	17029.74
419.58	15985.86
419.77	16294.81
419.96	17277.83
420.15	18347.46
420.34	18724.29
420.53	19208.78
420.72	19412.40
420.91	19073.03
421.10	18555.77
421.29	18967.70
421.48	18602.58
421.67	19414.74
421.86	18249.16
422.05	17043.78
422.24	15496.69
422.43	15695.63
422.61	17413.59
422.80	18534.70
422.99	18345.12
423.18	17565.72
423.37	17661.68
423.56	17867.65
423.75	17954.25
423.94	18698.54
424.13	17486.14
424.32	17373.80
424.50	17649.98
424.69	17657.00
424.88	17664.02
425.07	17490.82
425.26	17764.67
425.45	17027.40
425.64	17060.16
425.83	17249.75
426.01	18415.34
426.20	18644.71
426.39	18176.60
426.58	16416.52
426.77	15716.70
426.96	15344.55
427.15	15990.54
427.33	17586.79
427.52	17884.03
427.71	18148.51
427.90	17869.99
428.09	17497.84
428.28	17060.16
428.46	16196.51
428.65	16456.31
428.84	17116.34
429.03	16709.08
429.22	15686.27
429.40	14778.14
429.59	13303.60
429.78	12025.67
429.97	12287.81
430.16	12461.01
430.34	12299.52
430.53	12744.22
430.72	13114.02
430.91	14747.72
431.10	17514.23
431.28	20294.79
431.47	21563.36
431.66	20924.39
431.85	19253.25
432.03	17694.45
432.22	17097.61
432.41	18792.16
432.60	20025.62
432.79	20751.19
432.97	21060.14
433.16	20798.00
433.35	18686.84
433.54	16416.52
433.72	16201.19
433.91	16884.62
434.10	18909.19
434.28	20100.52
434.47	20821.41
434.66	20255.00
434.85	19934.34
435.03	19887.53
435.22	20271.38
435.41	21664.00
435.59	21762.30
435.78	21989.33
435.97	22632.98
436.16	22508.93
436.34	22057.21
436.53	21640.59
436.72	21755.28
436.90	20383.73
437.09	20606.08
437.28	20816.72
437.46	21341.00
437.65	20554.58
437.84	19332.82
438.02	17764.67
438.21	18398.95
438.40	18857.70
438.58	20592.03
438.77	21350.37
438.96	21462.71
439.14	22490.21
439.33	22656.39
439.52	22941.93
439.70	22499.57
439.89	21895.71
440.08	21343.35
440.26	21500.16
440.45	22499.57
440.63	23871.12
440.82	24896.28
441.01	24397.74
441.19	24315.83
441.38	24767.55
441.57	25649.93
441.75	26160.17
441.94	26677.43
442.12	26244.43
442.31	26902.12
442.50	26792.11
442.68	26242.09
442.87	25729.51
443.05	25551.63
443.24	26560.40
443.43	26757.00
443.61	26576.78
443.80	26501.89
443.98	26223.36
444.17	26396.56
444.35	27515.34
444.54	27587.89
444.73	27190.00
444.91	25972.92
445.10	25254.38
445.28	24137.94
445.47	23939.00
445.65	24212.84
445.84	24793.29
446.02	25958.88
446.21	25563.33
446.39	25708.44
446.58	26314.64
446.77	27316.39
446.95	27213.41
447.14	28297.08
447.32	28587.30
447.51	27353.84
447.69	26867.01
447.88	26604.87
448.06	27688.54
448.25	27770.46
448.43	27426.40
448.62	26899.78
448.80	27269.58
448.99	26941.91
449.17	26958.29
449.36	27641.73
449.54	28542.83
449.73	28776.89
449.91	29294.14
450.10	30139.08
450.28	29916.73
450.46	30228.02
450.65	30338.02
450.83	29666.29
451.02	29252.02
451.20	29282.44
451.39	29240.31
451.57	28840.08
451.76	29032.00
451.94	28290.06
452.13	27700.24
452.31	26134.42
452.49	24875.21
452.68	26429.33
452.86	26036.12
453.05	26312.30
453.23	27894.50
453.42	28149.62
453.60	28936.04
453.78	29336.27
453.97	28697.31
454.15	28493.68
454.34	27580.87
454.52	27943.66
454.70	27592.58
454.89	27833.65
455.07	28460.91
455.26	28615.39
455.44	30005.67
455.62	29766.93
455.81	29511.81
455.99	29652.25
456.17	29895.66
456.36	29888.64
456.54	30389.52
456.73	30541.65
456.91	31246.15
457.09	31363.18
457.28	32601.32
457.46	30600.16
457.64	29713.10
457.83	29303.51
458.01	28486.66
458.19	29331.59
458.38	30015.03
458.56	31089.34
458.74	30855.28
458.93	30103.97
459.11	30005.67
459.29	29343.30
459.48	29745.87
459.66	29420.53
459.84	29930.77
460.03	30555.69
460.21	30270.15
460.39	31653.40
460.57	31330.41
460.76	31461.48
460.94	31475.52
461.12	31433.39
461.31	31676.81
461.49	31447.44
461.67	31381.90
461.85	32659.84
462.04	31934.27
462.22	31988.10
462.40	32191.73
462.59	32058.32
462.77	32395.35
462.95	32091.09
463.13	32374.29
463.32	31494.25
463.50	31449.78
463.68	31803.20
463.86	32030.23
464.05	30862.30
464.23	30469.09
464.41	30206.95
464.59	30504.20
464.78	31728.30
464.96	31337.43
465.14	30270.15
465.32	31756.39
465.50	32584.94
465.69	32844.74
465.87	32006.83
466.05	31026.14
466.23	29575.01
466.41	29132.65
466.60	29682.67
466.78	30340.36
466.96	30005.67
467.14	31140.83
467.32	31941.29
467.51	31749.37
467.69	30462.07
467.87	30960.61
468.05	31810.22
468.23	31632.34
468.41	31201.68
468.60	31061.25
468.78	32009.17
468.96	31592.55
469.14	32627.07
469.32	31964.70
469.50	30384.83
469.69	31395.95
469.87	30684.42
470.05	30387.18
470.23	30955.93
470.41	30752.30
470.59	31842.99
470.77	31639.36
470.95	31974.06
471.14	32236.20
471.32	32933.68
471.50	34511.20
471.68	33460.30
471.86	34185.86
472.04	34190.55
472.22	34195.23
472.40	32872.82
472.58	32706.65
472.77	32484.30
472.95	33057.73
473.13	33230.93
473.31	33387.74
473.49	33591.37
473.67	33977.56
473.85	34216.29
474.03	34789.72
474.21	35714.23
474.39	35681.47
474.57	35510.61
474.75	35899.14
474.93	34787.38
475.12	34293.53
475.30	35007.39
475.48	35288.26
475.66	35136.12
475.84	35019.10
476.02	35119.74
476.20	34199.91
476.38	35526.99
476.56	36542.78
476.74	36425.76
476.92	36926.63
477.10	36648.11
477.28	37586.66
477.46	37256.65
477.64	38181.16
477.82	38579.05
478.00	37525.81
478.18	37095.15
478.36	37694.33
478.54	37383.04
478.72	38127.33
478.90	39218.02
479.08	40425.73
479.26	40121.46
479.44	40484.25
479.62	40594.25
479.80	40477.22
479.98	40369.56
480.16	40570.85
480.34	40051.25
480.52	41378.33
480.70	41228.54
480.88	41081.08
481.06	40835.33
481.24	41078.74
481.41	42752.23
481.59	43709.50
481.77	42375.40
481.95	42705.41
482.13	42719.46
482.31	42274.76
482.49	43136.07
482.67	43299.91
482.85	43248.42
483.03	43732.91
483.21	45036.59
483.39	44765.09
483.57	43887.39
483.74	43360.76
483.92	44231.44
484.10	44114.42
484.28	44603.59
484.46	45514.06
484.64	46057.06
484.82	45074.04
485.00	45202.77
485.18	43311.61
485.35	41298.75
485.53	37537.51
485.71	35248.47
485.89	35138.46
486.07	37659.22
486.25	40451.48
486.43	42820.10
486.61	43756.32
486.78	43749.29
486.96	44664.44
487.14	45387.67
487.32	46892.63
487.50	47540.96
487.68	48130.78
487.85	48945.28
488.03	48151.84
488.21	47672.03
488.39	47278.82
488.57	46047.70
488.75	46672.62
488.92	47695.44
489.10	50412.80
489.28	49811.28
489.46	51161.77
489.64	51423.91
489.81	52083.94
489.99	51882.66
490.17	51812.44
490.35	51606.47
490.53	51363.06
490.70	51437.95
490.88	51969.26
491.06	53160.59
491.24	52430.34
491.41	50719.41
491.59	49127.84
491.77	48788.47
491.95	50330.88
492.13	52004.36
492.30	52088.62
492.48	53544.44
492.66	54073.40
492.84	52940.58
493.01	52914.83
493.19	52891.43
493.37	52376.51
493.54	52233.74
493.72	53141.86
493.90	54380.01
494.08	55292.82
494.25	55751.56
494.43	55473.04
494.61	55917.74
494.79	55461.33
494.96	55334.95
495.14	54990.89
495.32	53551.46
495.49	53600.61
495.67	54527.46
495.85	55571.34
496.02	56275.84
496.20	56252.44
496.38	56364.78
496.55	55791.35
496.73	56081.58
496.91	55819.44
497.09	56430.32
497.26	56884.38
497.44	56477.13
497.62	55288.13
497.79	54426.82
497.97	53858.07
498.14	54782.58
498.32	55803.05
498.50	56282.86
498.67	56521.60
498.85	56301.59
499.03	56903.10
499.20	57448.45
499.38	56390.53
499.56	56119.02
499.73	56170.52
499.91	55634.53
500.08	55353.67
500.26	55356.01
500.44	55966.89
500.61	55688.37
500.79	55379.42
500.97	55487.08
501.14	55395.80
501.32	54670.23
501.49	54773.22
501.67	55374.73
501.84	55449.63
502.02	56090.94
502.20	56369.46
502.37	56523.94
502.55	56687.78
502.72	57645.05
502.90	57832.30
503.07	56891.40
503.25	56320.31
503.43	54958.12
503.60	55161.75
503.78	55189.83
503.95	55182.81
504.13	56907.79
504.30	57733.99
504.48	56949.92
504.65	56996.73
504.83	56947.57
505.01	57476.54
505.18	57717.61
505.36	58337.85
505.53	58436.16
505.71	58712.34
505.88	58848.09
506.06	58518.07
506.23	57724.63
506.41	57247.16
506.58	57396.96
506.76	57862.72
506.93	57476.54
507.11	57429.72
507.28	57148.86
507.46	56708.84
507.63	56968.64
507.81	56987.36
507.98	56921.83
508.16	57137.16
508.33	57359.51
508.50	58475.94
508.68	58588.29
508.85	59421.52
509.03	59241.30
509.20	58988.52
509.38	58038.26
509.55	57502.28
509.73	57406.32
509.90	57928.26
510.08	58511.05
510.25	58122.52
510.42	57151.20
510.60	56989.70
510.77	57712.93
510.95	58822.34
511.12	58506.37
511.30	58948.73
511.47	59047.04
511.64	59241.30
511.82	59355.99
511.99	57939.96
512.17	57855.70
512.34	57434.41
512.51	57815.91
512.69	58054.65
512.86	57532.71
513.04	58073.37
513.21	57668.46
513.38	56830.55
513.56	56287.54
513.73	56119.02
513.90	56666.71
514.08	56790.76
514.25	57141.84
514.43	57403.98
514.60	57343.12
514.77	57930.60
514.95	58735.74
515.12	58581.27
515.29	58864.47
515.47	58803.62
515.64	59028.31
515.81	58585.95
515.99	57293.97
516.16	55330.26
516.33	52886.74
516.51	52872.70
516.68	51054.11
516.85	50213.85
517.03	51793.71
517.20	54719.38
517.37	57399.30
517.54	58078.05
517.72	57521.01
517.89	54099.14
518.06	52538.01
518.24	54007.86
518.41	56161.15
518.58	57193.33
518.75	56324.99
518.93	56477.13
519.10	56453.72
519.27	56980.34
519.45	57296.31
519.62	58265.30
519.79	58354.24
519.96	57677.82
520.14	57827.62
520.31	57237.80
520.48	57226.10
520.65	57425.04
520.83	58136.57
521.00	58085.07
521.17	57338.44
521.34	58033.58
521.52	58789.58
521.69	58965.12
521.86	59711.75
522.03	58981.50
522.20	57055.24
522.38	56467.76
522.55	56460.74
522.72	56741.61
522.89	57282.27
523.07	57523.35
523.24	57986.77
523.41	58649.14
523.58	59435.56
523.75	59561.95
523.92	59608.76
524.10	59444.93
524.27	59573.66
524.44	58653.82
524.61	58506.37
524.78	58981.50
524.96	58569.57
525.13	59203.85
525.30	59531.53
525.47	60257.09
525.64	59648.55
525.81	58834.05
525.98	57446.11
526.16	55482.40
526.33	55388.78
526.50	54810.67
526.67	55199.19
526.84	55650.92
527.01	55889.65
527.18	56671.39
527.36	58031.24
527.53	58883.20
527.70	58803.62
527.87	57890.81
528.04	57946.98
528.21	58794.26
528.38	59044.69
528.55	59856.86
528.72	60046.44
528.89	59765.58
529.07	59690.68
529.24	58679.57
529.41	58295.72
529.58	58506.37
529.75	58670.21
529.92	59201.51
530.09	59189.81
530.26	58756.81
530.43	59501.10
530.60	59906.01
530.77	59608.76
530.94	59091.51
531.11	58869.15
531.28	58642.12
531.46	58990.86
531.63	59510.46
531.80	58344.87
531.97	58152.95
532.14	57616.97
532.31	56133.07
532.48	55873.27
532.65	56734.59
532.82	57006.09
532.99	58995.54
533.16	59086.82
533.33	59121.93
533.50	59299.81
533.67	57748.04
533.84	57944.64
534.01	58415.09
534.18	58157.63
534.35	58475.94
534.52	57977.41
534.69	58546.16
534.86	58518.07
535.03	59330.24
535.20	59461.31
535.37	59891.97
535.54	60439.65
535.71	59611.10
535.88	59192.15
536.05	58672.55
536.22	57783.15
536.38	58314.45
536.55	57563.14
536.72	57172.27
536.89	57535.05
537.06	58330.83
537.23	58855.11
537.40	58951.07
537.57	59475.35
537.74	59192.15
537.91	58983.84
538.08	58834.05
538.25	59330.24
538.42	58733.40
538.59	58396.37
538.75	58040.60
538.92	57425.04
539.09	57460.15
539.26	57729.31
539.43	58021.88
539.60	57506.96
539.77	57867.40
539.94	57420.36
540.11	56640.96
540.28	56315.63
540.44	56786.08
540.61	57378.23
540.78	57155.88
540.95	57485.90
541.12	56523.94
541.29	58122.52
541.46	58073.37
541.62	58536.80
541.79	56938.21
541.96	56594.15
542.13	57492.92
542.30	58080.39
542.47	57783.15
542.63	57684.84
542.80	57619.31
542.97	57511.64
543.14	57649.74
543.31	57532.71
543.48	58513.39
543.64	59180.45
543.81	59044.69
543.98	59398.12
544.15	58183.38
544.32	57743.36
544.48	58522.76
544.65	58415.09
544.82	58848.09
544.99	57546.75
545.16	57914.22
545.32	57567.82
545.49	58497.01
545.66	58838.73
545.83	58337.85
546.00	58398.71
546.16	58349.56
546.33	58314.45
546.50	57331.42
546.67	58372.96
546.83	58300.40
547.00	58206.78
547.17	56423.29
547.34	56378.82
547.50	56601.18
547.67	56804.80
547.84	57029.49
548.00	58164.65
548.17	57860.38
548.34	58269.98
548.51	58134.23
548.67	57626.33
548.84	57874.43
549.01	57701.23
549.18	57595.90
549.34	57301.00
549.51	57586.54
549.68	57439.09
549.84	57099.71
550.01	56493.51
550.18	56718.20
550.34	56736.93
550.51	57715.27
550.68	57024.81
550.84	57406.32
551.01	57614.63
551.18	57338.44
551.34	57471.85
551.51	57593.56
551.68	57462.49
551.84	57886.13
552.01	57462.49
552.18	57036.51
552.34	56533.30
552.51	56121.37
552.68	56718.20
552.84	56624.58
553.01	56945.23
553.18	56172.86
553.34	56926.51
553.51	57055.24
553.67	57078.64
553.84	56868.00
554.01	57628.67
554.17	56793.10
554.34	56676.07
554.51	57544.41
554.67	56732.25
554.84	56970.98
555.00	56793.10
555.17	56919.49
555.33	56973.32
555.50	57186.31
555.67	57535.05
555.83	57130.14
556.00	56364.78
556.16	56116.68
556.33	56383.51
556.50	56863.32
556.66	56624.58
556.83	56594.15
556.99	56467.76
557.16	56427.98
557.32	56612.88
557.49	57013.11
557.65	56280.52
557.82	56973.32
557.98	56570.75
558.15	55929.44
558.32	54838.75
558.48	54396.39
558.65	54035.95
558.81	54480.65
558.98	54450.22
559.14	54223.19
559.31	55091.53
559.47	56002.00
559.64	54492.35
559.80	54045.31
559.97	54375.33
560.13	55461.33
560.30	56465.42
560.46	57371.21
560.63	57406.32
560.79	58085.07
560.96	56563.73
561.12	55807.73
561.29	55547.93
561.45	55189.83
561.61	56329.67
561.78	55927.10
561.94	55501.12
562.11	54817.69
562.27	54546.18
562.44	54885.56
562.60	55569.00
562.77	55936.46
562.93	55557.30
563.10	55765.60
563.26	55842.84
563.42	55718.79
563.59	55451.97
563.75	54782.58
563.92	55318.56
564.08	55927.10
564.24	56114.34
564.41	55114.94
564.57	55561.98
564.74	55175.79
564.90	55068.12
565.07	54555.55
565.23	54337.88
565.39	53818.28
565.56	53607.63
565.72	53879.13
565.88	54064.03
566.05	55480.06
566.21	54225.53
566.38	54684.28
566.54	55370.05
566.70	55140.68
566.87	55016.63
567.03	55639.22
567.19	55585.38
567.36	55182.81
567.52	54911.31
567.68	54831.73
567.85	54368.30
568.01	54160.00
568.17	53918.92
568.34	53848.71
568.50	53654.44
568.66	52797.80
568.83	53057.60
568.99	53228.46
569.15	53876.79
569.32	54475.97
569.48	53680.19
569.64	53722.32
569.81	54349.58
569.97	53586.57
570.13	52493.54
570.30	52360.12
570.46	52470.13
570.62	51168.79
570.78	52313.31
570.95	52842.27
571.11	52769.72
571.27	52437.36
571.43	53659.12
571.60	53972.75
571.76	53509.33
571.92	53900.20
572.09	53806.58
572.25	53638.06
572.41	53914.24
572.57	54370.64
572.74	54775.56
572.90	53219.10
573.06	54508.74
573.22	54450.22
573.38	54230.21
573.55	54485.33
573.71	53914.24
573.87	53858.07
574.03	53846.36
574.20	53537.41
574.36	52435.02
574.52	52961.64
574.68	51999.68
574.84	52046.49
575.01	51992.66
575.17	52844.62
575.33	52875.04
575.49	53483.58
575.65	53352.51
575.82	52378.85
575.98	52238.42
576.14	52940.58
576.30	53277.61
576.46	53092.71
576.62	52308.63
576.79	52130.75
576.95	52875.04
577.11	52238.42
577.27	52542.69
577.43	51826.48
577.59	52142.45
577.75	52659.71
577.92	51828.82
578.08	51040.06
578.24	50752.18
578.40	51016.66
578.56	50791.97
578.72	51587.75
578.88	52250.12
579.04	52296.93
579.21	51681.37
579.37	51550.30
579.53	51009.64
579.69	51281.14
579.85	51655.62
580.01	51304.54
580.17	50866.86
580.33	52369.49
580.49	51943.51
580.65	52507.58
580.82	52292.25
580.98	52121.39
581.14	51054.11
581.30	51512.85
581.46	51508.17
581.62	51959.89
581.78	51922.44
581.94	51889.68
582.10	51672.01
582.26	51112.62
582.42	51550.30
582.58	52222.03
582.74	51704.77
582.90	51077.51
583.06	53109.10
583.22	52062.88
583.38	52009.04
583.54	52217.35
583.70	51681.37
583.86	51620.52
584.02	51676.69
584.18	52121.39
584.34	51395.82
584.50	51175.81
584.66	50810.69
584.82	50457.27
584.98	50960.48
585.14	50122.57
585.30	49509.35
