SpectraSuite Data File
++++++++++++++++++++++++++++++++++++
Date: Mon Oct 07 14:53:39 GMT-05:00 2013
User: price-jones
Dark Spectrum Present: No
Reference Spectrum Present: No
Number of Sampled Component Spectra: 1
Spectrometers: USB2+H05261
Integration Time (usec): 100000 (USB2+H05261)
Spectra Averaged: 1 (USB2+H05261)
Boxcar Smoothing: 0 (USB2+H05261)
Correct for Electrical Dark: No (USB2+H05261)
Strobe/Lamp Enabled: No (USB2+H05261)
Correct for Detector Non-linearity: No (USB2+H05261)
Correct for Stray Light: No (USB2+H05261)
Number of Pixels in Processed Spectrum: 2048
>>>>>Begin Processed Spectral Data<<<<<
365.73	0.00
365.92	0.00
366.12	0.00
366.32	0.00
366.52	0.00
366.72	0.00
366.91	0.00
367.11	0.00
367.31	0.00
367.51	0.00
367.70	0.00
367.90	0.00
368.10	0.00
368.30	0.00
368.49	0.00
368.69	0.00
368.89	0.00
369.09	0.00
369.28	0.00
369.48	0.00
369.68	0.00
369.87	0.00
370.07	0.00
370.27	0.00
370.47	189.58
370.66	1584.54
370.86	1877.11
371.06	2129.89
371.25	2071.37
371.45	1790.51
371.65	1617.31
371.84	1467.52
372.04	1645.40
372.24	2012.86
372.44	1961.37
372.63	2122.87
372.83	1792.85
373.03	1598.59
373.22	1486.24
373.42	1596.25
373.62	1816.26
373.81	2022.22
374.01	1914.56
374.21	1673.48
374.40	1647.74
374.60	1654.76
374.79	1788.17
374.99	2132.23
375.19	2401.39
375.38	2480.97
375.58	2202.44
375.78	2202.44
375.97	2312.45
376.17	2377.98
376.37	2244.57
376.56	2338.20
376.76	2476.29
376.95	2691.62
377.15	2792.26
377.35	3138.66
377.54	3115.25
377.74	3138.66
377.93	3286.11
378.13	3185.47
378.33	3091.85
378.52	2810.98
378.72	2682.25
378.91	2600.34
379.11	2504.37
379.31	2410.75
379.50	2354.58
379.70	2640.12
379.89	2857.79
380.09	3035.67
380.28	3159.72
380.48	3323.56
380.68	3035.67
380.87	3075.46
381.07	2724.38
381.26	2569.91
381.46	2354.58
381.65	2377.98
381.85	2293.72
382.04	2251.60
382.24	1935.62
382.43	1886.47
382.63	1884.13
382.83	1849.02
383.02	1893.49
383.22	1944.99
383.41	1919.24
383.61	2132.23
383.80	2293.72
384.00	2633.10
384.19	2944.39
384.39	3180.79
384.58	3138.66
384.78	2984.18
384.97	3021.63
385.17	2857.79
385.36	2708.00
385.56	2808.64
385.75	2822.69
385.95	2984.18
386.14	3234.62
386.34	3178.45
386.53	3042.70
386.72	2949.08
386.92	3047.38
387.11	3152.70
387.31	3241.64
387.50	3159.72
387.70	3117.59
387.89	2825.03
388.09	3126.96
388.28	3068.44
388.48	3061.42
388.67	3372.71
388.86	3712.09
389.06	4037.42
389.25	4219.99
389.45	4287.86
389.64	4210.62
389.84	4219.99
390.03	4142.75
390.22	4161.47
390.42	4273.82
390.61	4660.01
390.81	4762.99
391.00	4983.00
391.19	4952.57
391.39	4755.97
391.58	4437.66
391.78	4198.92
391.97	4114.66
392.16	3817.41
392.36	3489.74
392.55	2829.71
392.75	2296.07
392.94	1750.72
393.13	1804.55
393.33	2186.06
393.52	2649.49
393.71	3393.78
393.91	3733.15
394.10	3950.82
394.29	4395.53
394.49	4826.18
394.68	5135.14
394.88	5411.32
395.07	5298.97
395.26	5467.49
395.46	5135.14
395.65	4842.57
395.84	4070.19
396.04	3623.15
396.23	2796.94
396.42	2410.75
396.62	2267.98
396.81	2726.72
397.00	3574.00
397.19	4320.63
397.39	5219.39
397.58	5736.65
397.77	6106.46
397.97	6558.18
398.16	6621.38
398.35	6862.45
398.55	6878.83
398.74	7323.54
398.93	7545.89
399.12	7286.09
399.32	7133.95
399.51	7218.21
399.70	7791.64
399.90	7545.89
400.09	7559.93
400.28	7599.72
400.47	7609.08
400.67	8215.28
400.86	8241.03
401.05	8259.75
401.24	8276.13
401.44	8468.06
401.63	8388.48
401.82	8332.31
402.01	8257.41
402.21	8519.55
402.40	8379.12
402.59	8308.90
402.78	8105.28
402.97	7955.48
403.17	7857.18
403.36	8514.87
403.55	8802.75
403.74	9095.32
403.93	8667.00
404.13	7822.07
404.32	7889.95
404.51	8081.87
404.70	8751.26
404.89	8807.44
405.09	8753.60
405.28	8358.05
405.47	8458.70
405.66	8250.39
405.85	8116.98
406.05	7948.46
406.24	8142.72
406.43	8486.78
406.62	8737.22
406.81	8732.54
407.00	8528.91
407.20	8273.79
407.39	8369.76
407.58	8615.51
407.77	8912.76
407.96	9224.05
408.15	9364.48
408.34	9486.19
408.54	10005.79
408.73	10200.05
408.92	9973.02
409.11	9617.26
409.30	9160.86
409.49	8603.81
409.68	8145.06
409.87	7782.28
410.07	8229.32
410.26	8992.34
410.45	9392.57
410.64	9544.70
410.83	9895.78
411.02	10284.31
411.21	10518.37
411.40	10422.41
411.59	10724.33
411.78	10647.10
411.98	10366.23
412.17	10394.32
412.36	10162.61
412.55	10459.85
412.74	10291.34
412.93	9858.34
413.12	9926.21
413.31	10892.85
413.50	11349.26
413.69	11384.37
413.88	11007.54
414.07	10258.57
414.26	10523.05
414.45	11138.61
414.64	10984.13
414.83	11117.54
415.02	10813.28
415.22	10796.89
415.41	11321.17
415.60	11571.61
415.79	11763.53
415.98	12219.94
416.17	12311.22
416.36	11669.91
416.55	11786.94
416.74	11365.64
416.93	10981.79
417.12	10967.75
417.31	11286.06
417.50	11082.44
417.69	11557.57
417.88	11618.42
418.07	11325.85
418.26	11300.11
418.45	11669.91
418.64	12011.63
418.83	12414.20
419.02	12037.38
419.21	12177.81
419.39	11620.76
419.58	11089.46
419.77	10860.09
419.96	11510.75
420.15	12194.19
420.34	12381.43
420.53	12910.40
420.72	13226.37
420.91	13149.13
421.10	12807.41
421.29	12980.61
421.48	12308.88
421.67	12865.92
421.86	12725.49
422.05	12079.50
422.24	10551.14
422.43	10368.57
422.61	11552.88
422.80	12713.79
422.99	12615.49
423.18	12135.68
423.37	12051.42
423.56	11782.26
423.75	11985.88
423.94	12376.75
424.13	11445.22
424.32	11726.08
424.50	11789.28
424.69	11564.59
424.88	11728.42
425.07	11833.75
425.26	11712.04
425.45	11426.50
425.64	11328.19
425.83	11424.15
426.01	11910.99
426.20	12013.97
426.39	12042.06
426.58	11538.84
426.77	10480.92
426.96	10111.11
427.15	10377.94
427.33	11171.38
427.52	12044.40
427.71	11873.54
427.90	11716.72
428.09	11562.25
428.28	11183.08
428.46	10930.30
428.65	10785.19
428.84	11201.80
429.03	11487.35
429.22	10658.80
429.40	10115.80
429.59	9238.09
429.78	8255.07
429.97	8201.24
430.16	8390.82
430.34	8313.58
430.53	8107.62
430.72	8414.23
430.91	9394.91
431.10	10871.79
431.28	13022.74
431.47	14139.18
431.66	13973.00
431.85	12737.20
432.03	11599.70
432.22	11468.62
432.41	11815.02
432.60	13088.28
432.79	13640.64
432.97	14202.37
433.16	13568.09
433.35	12468.03
433.54	11337.56
433.72	10471.56
433.91	10740.72
434.10	12088.87
434.28	12994.65
434.47	13610.22
434.66	13188.92
434.85	13081.25
435.03	12931.46
435.22	13607.87
435.41	14380.25
435.59	14471.53
435.78	14780.48
435.97	14700.90
436.16	14941.98
436.34	14555.79
436.53	14443.45
436.72	14738.35
436.90	13577.45
437.09	13511.91
437.28	13448.72
437.46	13834.91
437.65	14029.17
437.84	12755.92
438.02	11803.32
438.21	11906.31
438.40	12669.32
438.58	13467.44
438.77	13462.76
438.96	14073.64
439.14	14593.24
439.33	14801.55
439.52	15232.21
439.70	14665.80
439.89	14267.91
440.08	14080.66
440.26	14075.98
440.45	14651.75
440.63	15272.00
440.82	16306.51
441.01	16088.84
441.19	15971.82
441.38	16130.97
441.57	16624.83
441.75	17015.69
441.94	17130.38
442.12	16893.99
442.31	17486.14
442.50	17153.79
442.68	16971.22
442.87	16748.87
443.05	16503.12
443.24	16840.15
443.43	17397.20
443.61	17596.15
443.80	17614.87
443.98	16622.48
444.17	16711.42
444.35	17502.53
444.54	18050.21
444.73	17621.89
444.91	17048.46
445.10	16393.11
445.28	15768.19
445.47	15606.69
445.65	15978.84
445.84	16039.69
446.02	16711.42
446.21	16835.47
446.39	16868.24
446.58	17390.18
446.77	17614.87
446.95	17631.26
447.14	18146.17
447.32	18466.83
447.51	18036.17
447.69	17214.64
447.88	17345.71
448.06	17149.11
448.25	17685.09
448.43	17715.51
448.62	17439.33
448.80	17610.19
448.99	17497.84
449.17	17579.76
449.36	17528.27
449.54	18312.35
449.73	18705.56
449.91	18991.11
450.10	19421.77
450.28	19763.48
450.46	19325.80
450.65	19506.02
450.83	19201.76
451.02	18977.06
451.20	18836.63
451.39	18558.11
451.57	18853.02
451.76	18719.60
451.94	18735.99
452.13	18515.98
452.31	17689.77
452.49	16535.88
452.68	17027.40
452.86	16783.98
453.05	17022.72
453.23	17675.73
453.42	17539.97
453.60	18347.46
453.78	18703.22
453.97	18377.89
454.15	18455.12
454.34	18026.81
454.52	18120.43
454.70	17563.38
454.89	17874.67
455.07	17919.14
455.26	18148.51
455.44	19115.16
455.62	19501.34
455.81	19625.39
455.99	19197.07
456.17	18920.89
456.36	19166.65
456.54	19730.72
456.73	19653.48
456.91	20503.09
457.09	19960.09
457.28	20489.05
457.46	19634.75
457.64	19461.55
457.83	18941.96
458.01	18506.62
458.19	18934.93
458.38	18974.72
458.56	20011.58
458.74	19658.16
458.93	19587.94
459.11	19447.51
459.29	19278.99
459.48	19321.12
459.66	19288.35
459.84	19295.38
460.03	19646.46
460.21	19634.75
460.39	19880.51
460.57	20100.52
460.76	20423.51
460.94	20758.21
461.12	20191.80
461.31	20217.55
461.49	20025.62
461.67	19960.09
461.85	20517.14
462.04	20608.42
462.22	21205.25
462.40	20482.03
462.59	20943.11
462.77	20631.82
462.95	20718.42
463.13	20376.70
463.32	20166.06
463.50	19953.07
463.68	20217.55
463.86	20027.96
464.05	20025.62
464.23	19220.48
464.41	19393.68
464.59	18703.22
464.78	19761.14
464.96	20093.50
465.14	19700.29
465.32	20418.83
465.50	20734.81
465.69	20666.93
465.87	20247.97
466.05	20027.96
466.23	19157.28
466.41	18759.39
466.60	19150.26
466.78	19180.69
466.96	19529.43
467.14	20049.03
467.32	20135.63
467.51	20255.00
467.69	18972.38
467.87	19669.86
468.05	20135.63
468.23	20023.28
468.41	19831.36
468.60	20067.75
468.78	20273.72
468.96	19976.47
469.14	20166.06
469.32	20582.67
469.50	19599.65
469.69	19716.67
469.87	19232.18
470.05	19089.41
470.23	19662.84
470.41	19346.87
470.59	19744.76
470.77	19826.68
470.95	20402.45
471.14	20662.25
471.32	20657.57
471.50	21930.82
471.68	21879.33
471.86	21848.90
472.04	22288.92
472.22	22279.56
472.40	21174.83
472.58	21022.69
472.77	20439.90
472.95	21221.64
473.13	21568.04
473.31	20842.47
473.49	20982.90
473.67	21736.56
473.85	21785.71
474.03	22059.55
474.21	22312.33
474.39	22530.00
474.57	22874.06
474.75	22333.39
474.93	22153.17
475.12	22115.72
475.30	21949.54
475.48	22160.19
475.66	22396.59
475.84	22015.08
476.02	21851.24
476.20	21486.12
476.38	21776.34
476.56	22878.74
476.74	22803.84
476.92	23089.38
477.10	23489.62
477.28	23906.23
477.46	24046.66
477.64	24568.60
477.82	24833.08
478.00	24477.32
478.18	24437.53
478.36	24215.18
478.54	24086.45
478.72	24175.39
478.90	24524.13
479.08	25570.35
479.26	25949.52
479.44	26080.59
479.62	25919.09
479.80	25816.11
479.98	25944.84
480.16	25949.52
480.34	25820.79
480.52	26059.52
480.70	25919.09
480.88	26174.21
481.06	26476.14
481.24	27292.99
481.41	27658.11
481.59	27765.78
481.77	27924.93
481.95	27239.15
482.13	27063.61
482.31	27278.94
482.49	27901.53
482.67	28226.86
482.85	27770.46
483.03	28198.77
483.21	28833.06
483.39	28432.83
483.57	28053.66
483.74	27812.59
483.92	28030.26
484.10	27789.18
484.28	28893.91
484.46	29170.10
484.64	29659.27
484.82	28936.04
485.00	28233.88
485.18	28283.03
485.35	27037.87
485.53	24793.29
485.71	23058.96
485.89	22530.00
486.07	23662.82
486.25	25914.41
486.43	27314.05
486.61	27541.08
486.78	27843.01
486.96	27768.12
487.14	29029.66
487.32	29509.47
487.50	30309.94
487.68	31164.23
487.85	31810.22
488.03	31826.60
488.21	31527.02
488.39	30586.12
488.57	30031.41
488.75	29738.85
488.92	30937.20
489.10	32556.85
489.28	34188.21
489.46	35236.77
489.64	34857.60
489.81	34850.58
489.99	34328.64
490.17	34595.46
490.35	34918.45
490.53	34274.80
490.70	34429.28
490.88	33699.03
491.06	35213.36
491.24	34815.47
491.41	34000.96
491.59	32385.99
491.77	31356.16
491.95	32451.53
492.13	33748.18
492.30	34735.89
492.48	36130.85
492.66	36781.52
492.84	37181.75
493.01	36622.36
493.19	35061.22
493.37	35068.25
493.54	34707.80
493.72	35524.65
493.90	36964.08
494.08	37528.15
494.25	38728.84
494.43	38419.89
494.61	38759.27
494.79	39047.16
494.96	38576.71
495.14	37717.73
495.32	37186.43
495.49	36006.80
495.67	37481.34
495.85	38948.85
496.02	39725.91
496.20	39777.40
496.38	38899.70
496.55	38464.36
496.73	39229.72
496.91	39758.68
497.09	40341.47
497.26	40842.35
497.44	39901.45
497.62	39559.73
497.79	37890.93
497.97	36451.50
498.14	36711.30
498.32	38178.82
498.50	39494.20
498.67	40268.92
498.85	40233.81
499.03	40418.71
499.20	40659.79
499.38	40879.80
499.56	40456.16
499.73	39651.02
499.91	39157.16
500.08	38850.55
500.26	37656.88
500.44	38242.01
500.61	38827.15
500.79	38831.83
500.97	38780.34
501.14	38274.78
501.32	38284.14
501.49	38024.34
501.67	38352.02
501.84	39189.93
502.02	39100.99
502.20	40100.40
502.37	40210.40
502.55	39868.69
502.72	41078.74
502.90	41357.27
503.07	40842.35
503.25	40692.55
503.43	39548.03
503.60	38345.00
503.78	37361.97
503.95	38384.79
504.13	40163.59
504.30	41111.51
504.48	41495.36
504.65	40547.44
504.83	40610.64
505.01	40994.48
505.18	42131.98
505.36	42930.11
505.53	43143.09
505.71	43264.80
505.88	43264.80
506.06	42478.38
506.23	41710.69
506.41	40891.50
506.58	41846.44
506.76	41439.18
506.93	41345.56
507.11	41673.24
507.28	41642.81
507.46	40797.88
507.63	40481.91
507.81	39711.87
507.98	40275.94
508.16	40980.44
508.33	41827.71
508.50	42307.52
508.68	43051.81
508.85	43140.75
509.03	43803.13
509.20	43386.51
509.38	42354.33
509.55	41048.32
509.73	41497.70
509.90	42017.30
510.08	42714.78
510.25	42831.80
510.42	42213.90
510.60	41628.77
510.77	42391.78
510.95	43292.89
511.12	43274.16
511.30	43377.15
511.47	44142.50
511.64	44257.19
511.82	43842.92
511.99	42440.93
512.17	42337.95
512.34	41588.98
512.51	41722.39
512.69	41832.39
512.86	42366.04
513.04	42356.67
513.21	42497.11
513.38	42206.88
513.56	41165.34
513.73	40512.33
513.90	41163.00
514.08	40587.23
514.25	41401.74
514.43	41343.22
514.60	41706.01
514.77	42174.11
514.95	42380.08
515.12	42043.04
515.29	42431.57
515.47	43056.50
515.64	43779.72
515.81	42696.05
515.99	41794.95
516.16	39693.15
516.33	36919.61
516.51	34920.79
516.68	34469.07
516.85	33888.62
517.03	34340.34
517.20	37368.99
517.37	41116.19
517.54	42499.45
517.72	41649.83
517.89	37699.01
518.06	35061.22
518.24	35782.11
518.41	38520.54
518.58	40133.17
518.75	40091.04
518.93	40517.01
519.10	40711.28
519.27	41198.11
519.45	41219.17
519.62	42663.28
519.79	42841.17
519.96	42918.40
520.14	42237.31
520.31	40996.82
520.48	40772.13
520.65	41287.05
520.83	43021.39
521.00	43519.92
521.17	42777.97
521.34	42066.45
521.52	42761.59
521.69	44081.65
521.86	44385.92
522.03	43739.93
522.20	41741.11
522.38	40304.02
522.55	40456.16
522.72	41256.62
522.89	41471.95
523.07	42059.43
523.24	42328.59
523.41	44093.35
523.58	44215.06
523.75	44847.00
523.92	44641.04
524.10	44261.87
524.27	44549.76
524.44	44318.04
524.61	43983.35
524.78	43847.60
524.96	43660.35
525.13	43831.21
525.30	43643.97
525.47	44891.48
525.64	44367.20
525.81	43133.73
525.98	41331.52
526.16	39454.41
526.33	38279.46
526.50	37844.12
526.67	37666.24
526.84	38291.16
527.01	39531.65
527.18	40854.05
527.36	42057.09
527.53	43641.63
527.70	43557.37
527.87	42443.27
528.04	42057.09
528.21	43005.00
528.38	43814.83
528.55	44926.58
528.72	45645.13
528.89	45539.80
529.07	45167.66
529.24	43772.70
529.41	42866.91
529.58	42349.65
529.75	42759.25
529.92	43313.95
530.09	43466.09
530.26	44409.32
530.43	44973.39
530.60	44741.68
530.77	45244.90
530.94	45191.06
531.11	45074.04
531.28	44018.46
531.46	43873.34
531.63	43753.97
531.80	44098.03
531.97	43442.68
532.14	42316.89
532.31	40601.27
532.48	40264.24
532.65	39625.27
532.82	41069.38
532.99	42218.58
533.16	43374.81
533.33	44355.49
533.50	43800.79
533.67	42890.32
533.84	42089.85
534.01	42754.57
534.18	43082.24
534.35	42976.92
534.52	42513.49
534.69	43625.25
534.86	43430.98
535.03	43845.26
535.20	44811.90
535.37	45298.73
535.54	45469.59
535.71	44928.92
535.88	44580.18
536.05	43489.49
536.22	42869.25
536.38	41890.91
536.55	42005.59
536.72	41090.44
536.89	40505.31
537.06	42082.83
537.23	43363.11
537.40	43868.66
537.57	43896.75
537.74	43171.18
537.91	43456.73
538.08	43456.73
538.25	43681.42
538.42	43873.34
538.59	43349.06
538.75	41797.29
538.92	42085.17
539.09	41628.77
539.26	41460.25
539.43	41294.07
539.60	41493.02
539.77	41876.86
539.94	41638.13
540.11	40076.99
540.28	39875.71
540.44	40133.17
540.61	40444.46
540.78	40615.32
540.95	41312.80
541.12	41968.15
541.29	42185.82
541.46	42873.93
541.62	42969.90
541.79	42293.48
541.96	41570.25
542.13	40975.76
542.30	42103.90
542.47	42522.85
542.63	41577.28
542.80	41415.78
542.97	41860.48
543.14	41294.07
543.31	41478.97
543.48	42162.41
543.64	43620.56
543.81	44367.20
543.98	43306.93
544.15	42307.52
544.32	41528.13
544.48	41771.54
544.65	42209.22
544.82	43070.54
544.99	42506.47
545.16	41584.30
545.32	42127.30
545.49	42941.81
545.66	43929.51
545.83	42782.65
546.00	42501.79
546.16	42103.90
546.33	41968.15
546.50	41902.61
546.67	42906.70
546.83	41773.88
547.00	42174.11
547.17	40900.86
547.34	40481.91
547.50	40198.70
547.67	40877.46
547.84	41144.28
548.00	41177.04
548.17	42216.24
548.34	41867.50
548.51	41844.10
548.67	42045.38
548.84	42564.98
549.01	41984.53
549.18	41841.76
549.34	41755.16
549.51	41792.61
549.68	41724.73
549.84	41394.71
550.01	41359.61
550.18	41366.63
550.34	41256.62
550.51	41556.21
550.68	41607.70
550.84	40966.40
551.01	40559.14
551.18	40779.15
551.34	41565.57
551.51	41598.34
551.68	41942.40
551.84	41844.10
552.01	41577.28
552.18	41280.03
552.34	40531.06
552.51	39756.34
552.68	39742.30
552.84	40648.08
553.01	40734.68
553.18	40552.12
553.34	41233.22
553.51	41347.90
553.67	41268.33
553.84	41427.48
554.01	41713.03
554.17	41287.05
554.34	41345.56
554.51	41804.31
554.67	41617.07
554.84	41530.47
555.00	40945.33
555.17	41097.47
555.33	41111.51
555.50	41038.95
555.67	40435.10
555.83	40285.30
556.00	39805.49
556.16	40402.33
556.33	39615.91
556.50	39299.94
556.66	38988.64
556.83	39243.76
556.99	38855.23
557.16	39526.97
557.32	39856.98
557.49	39927.20
557.65	40093.38
557.82	39789.11
557.98	39674.42
558.15	38972.26
558.32	38328.61
558.48	37158.34
558.65	37509.43
558.81	37340.91
558.98	37860.51
559.14	38272.44
559.31	38990.98
559.47	38462.02
559.64	38167.12
559.80	37816.04
559.97	37935.40
560.13	38405.85
560.30	39779.74
560.46	40268.92
560.63	40645.74
560.79	40388.28
560.96	40144.87
561.12	38518.20
561.29	37448.57
561.45	37411.12
561.61	38281.80
561.78	38733.53
561.94	38693.74
562.11	38653.95
562.27	38197.54
562.44	38651.61
562.60	39131.42
562.77	39234.40
562.93	38813.10
563.10	39100.99
563.26	38286.48
563.42	38525.22
563.59	38000.94
563.75	38438.62
563.92	37961.15
564.08	38349.68
564.24	38527.56
564.41	38859.91
564.57	38579.05
564.74	38333.29
564.90	38424.57
565.07	37942.42
565.23	37207.50
565.39	36680.88
565.56	36383.63
565.72	36044.25
565.88	36652.79
566.05	36458.52
566.21	36898.55
566.38	37022.59
566.54	36842.37
566.70	37572.62
566.87	37890.93
567.03	38389.47
567.19	38611.82
567.36	38398.83
567.52	37717.73
567.68	37373.67
567.85	36891.52
568.01	35941.27
568.17	35885.09
568.34	35468.48
568.50	35679.13
568.66	35878.07
568.83	36343.84
568.99	36498.31
569.15	36842.37
569.32	36858.76
569.48	36329.80
569.64	36048.93
569.81	35864.03
569.97	35665.08
570.13	35531.67
570.30	34902.07
570.46	34735.89
570.62	33593.71
570.78	33900.32
570.95	34387.15
571.11	35077.61
571.27	35400.60
571.43	35871.05
571.60	35770.41
571.76	36224.47
571.92	36790.88
572.09	36631.72
572.25	36313.41
572.41	36479.59
572.57	36240.86
572.74	36201.07
572.90	35789.13
573.06	36025.53
573.22	35711.89
573.38	35749.34
573.55	35686.15
573.71	35974.03
573.87	36051.27
574.03	35665.08
574.20	35531.67
574.36	35173.57
574.52	35311.66
574.68	35180.59
574.84	34639.93
575.01	34471.41
575.17	34244.38
575.33	34155.44
575.49	34485.45
575.65	34429.28
575.82	34656.31
575.98	34389.49
576.14	34520.56
576.30	34855.26
576.46	34932.50
576.62	34871.64
576.79	34714.83
576.95	34604.82
577.11	34085.22
577.27	34724.19
577.43	34181.18
577.59	33710.74
577.75	33860.53
577.92	32891.55
578.08	32797.93
578.24	32744.09
578.40	33184.12
578.56	33537.54
578.72	33677.97
578.88	34160.12
579.04	34211.61
579.21	34267.78
579.37	34110.97
579.53	34136.71
579.69	34218.63
579.85	34015.01
580.01	34312.25
580.17	33771.59
580.33	33621.80
580.49	33631.16
580.65	33551.58
580.82	34448.00
580.98	34162.46
581.14	33989.26
581.30	34419.92
581.46	34017.35
581.62	34555.67
581.78	34328.64
581.94	34529.92
582.10	34356.72
582.26	34258.42
582.42	34604.82
582.58	34679.72
582.74	34263.10
582.90	34087.56
583.06	34433.96
583.22	34295.87
583.38	34169.48
583.54	34022.03
583.70	34202.25
583.86	34115.65
584.02	34197.57
584.18	34052.45
584.34	33736.48
584.50	33432.21
584.66	33495.41
584.82	32877.51
584.98	33261.35
585.14	32542.81
585.30	31824.26
585.46	31285.94
585.62	31906.18
585.78	32236.20
585.94	31936.61
