SpectraSuite Data File
++++++++++++++++++++++++++++++++++++
Date: Mon Oct 07 14:55:00 GMT-05:00 2013
User: price-jones
Dark Spectrum Present: No
Reference Spectrum Present: No
Number of Sampled Component Spectra: 1
Spectrometers: USB2+H05261
Integration Time (usec): 10000 (USB2+H05261)
Spectra Averaged: 1 (USB2+H05261)
Boxcar Smoothing: 0 (USB2+H05261)
Correct for Electrical Dark: No (USB2+H05261)
Strobe/Lamp Enabled: No (USB2+H05261)
Correct for Detector Non-linearity: No (USB2+H05261)
Correct for Stray Light: No (USB2+H05261)
Number of Pixels in Processed Spectrum: 2048
>>>>>Begin Processed Spectral Data<<<<<
365.73	0.00
365.92	0.00
366.12	0.00
366.32	0.00
366.52	0.00
366.72	0.00
366.91	0.00
367.11	0.00
367.31	0.00
367.51	0.00
367.70	0.00
367.90	0.00
368.10	0.00
368.30	0.00
368.49	0.00
368.69	0.00
368.89	0.00
369.09	0.00
369.28	0.00
369.48	0.00
369.68	0.00
369.87	0.00
370.07	0.00
370.27	0.00
370.47	135.75
370.66	1467.52
370.86	1771.79
371.06	2099.46
371.25	1991.80
371.45	1734.34
371.65	1542.41
371.84	1446.45
372.04	1636.03
372.24	1736.68
372.44	1804.55
372.63	1895.83
372.83	1584.54
373.03	1458.15
373.22	1406.66
373.42	1437.09
373.62	1614.97
373.81	1825.62
374.01	1739.02
374.21	1535.39
374.40	1526.03
374.60	1619.65
374.79	1947.33
374.99	2176.70
375.19	2277.34
375.38	2225.85
375.58	2094.78
375.78	2078.40
375.97	2069.03
376.17	2195.42
376.37	2176.70
376.56	2291.38
376.76	2469.27
376.95	2649.49
377.15	2764.17
377.35	2841.41
377.54	2981.84
377.74	3133.98
377.93	3040.36
378.13	3014.61
378.33	2810.98
378.52	2551.18
378.72	2396.71
378.91	2363.94
379.11	2427.14
379.31	2167.34
379.50	2270.32
379.70	2588.63
379.89	2649.49
380.09	2834.39
380.28	2972.48
380.48	2967.80
380.68	2820.35
380.87	2775.88
381.07	2548.84
381.26	2420.11
381.46	2293.72
381.65	2136.91
381.85	2036.27
382.04	1933.28
382.24	1867.75
382.43	1710.93
382.63	1771.79
382.83	1596.25
383.02	1781.15
383.22	1858.39
383.41	1849.02
383.61	1963.71
383.80	2239.89
384.00	2672.89
384.19	2911.63
384.39	3101.21
384.58	3007.59
384.78	2792.26
384.97	2785.24
385.17	2719.70
385.36	2558.21
385.56	2406.07
385.75	2656.51
385.95	2909.29
386.14	3059.08
386.34	3049.72
386.53	2932.69
386.72	2679.91
386.92	2916.31
387.11	3075.46
387.31	3089.51
387.50	3047.38
387.70	2853.11
387.89	2956.10
388.09	2923.33
388.28	3009.93
388.48	3007.59
388.67	3463.99
388.86	3618.47
389.06	3805.71
389.25	3889.97
389.45	3983.59
389.64	3990.61
389.84	3854.86
390.03	3929.76
390.22	4039.76
390.42	4058.49
390.61	4423.61
390.81	4608.51
391.00	4741.93
391.19	4720.86
391.39	4437.66
391.58	4252.75
391.78	3950.82
391.97	3808.05
392.16	3658.26
392.36	3073.12
392.55	2429.48
392.75	1809.23
392.94	1610.29
393.13	1682.85
393.33	2190.74
393.52	2853.11
393.71	3279.09
393.91	3709.75
394.10	4088.92
394.29	4320.63
394.49	4627.24
394.68	5188.97
394.88	5008.75
395.07	5242.80
395.26	5193.65
395.46	4858.95
395.65	4610.86
395.84	3861.88
396.04	3220.58
396.23	2675.23
396.42	2232.87
396.62	2375.64
396.81	2726.72
397.00	3531.87
397.19	4458.72
397.39	5287.27
397.58	5708.57
397.77	6160.29
397.97	6384.98
398.16	6586.27
398.35	6691.59
398.55	6862.45
398.74	7112.89
398.93	7227.57
399.12	7066.08
399.32	6855.43
399.51	6986.50
399.70	7487.37
399.90	7494.40
400.09	7318.86
400.28	7351.62
400.47	7534.18
400.67	7796.32
400.86	8100.59
401.05	7899.31
401.24	8145.06
401.44	8049.10
401.63	8152.09
401.82	8308.90
402.01	8145.06
402.21	8341.67
402.40	8135.70
402.59	8044.42
402.78	7581.00
402.97	7737.81
403.17	7770.58
403.36	8301.88
403.55	8573.38
403.74	8709.13
403.93	8056.12
404.13	7564.61
404.32	7740.15
404.51	8283.16
404.70	8428.27
404.89	8252.73
405.09	8184.85
405.28	8147.40
405.47	8231.66
405.66	8266.77
405.85	7906.33
406.05	7751.85
406.24	7878.24
406.43	8276.13
406.62	8547.64
406.81	8336.99
407.00	7988.25
407.20	7808.03
407.39	7927.39
407.58	8592.11
407.77	8816.80
407.96	9076.60
408.15	9270.86
408.34	9256.82
408.54	9502.58
408.73	9626.62
408.92	9469.81
409.11	9268.52
409.30	8638.92
409.49	8159.11
409.68	7747.17
409.87	7688.66
410.07	8339.33
410.26	8959.57
410.45	9102.34
410.64	9511.94
410.83	9895.78
411.02	10214.10
411.21	10640.08
411.40	10148.56
411.59	10303.04
411.78	10232.82
411.98	10195.37
412.17	10146.22
412.36	10296.02
412.55	10017.49
412.74	10129.84
412.93	9811.53
413.12	9792.80
413.31	10773.49
413.50	11005.20
413.69	10881.15
413.88	10300.70
414.07	10249.21
414.26	10509.01
414.45	10775.83
414.64	10380.28
414.83	10665.82
415.02	10672.84
415.22	10658.80
415.41	10970.09
415.60	11351.60
415.79	11733.11
415.98	11908.65
416.17	11901.62
416.36	11679.27
416.55	11447.56
416.74	10916.26
416.93	10565.18
417.12	10714.97
417.31	11052.01
417.50	11070.73
417.69	11573.95
417.88	11391.39
418.07	11328.19
418.26	11014.56
418.45	11386.71
418.64	11868.86
418.83	12407.18
419.02	11800.98
419.21	11726.08
419.39	11145.63
419.58	10977.11
419.77	10972.43
419.96	11707.36
420.15	12273.77
420.34	12659.96
420.53	12650.60
420.72	12720.81
420.91	12552.29
421.10	12631.87
421.29	12638.89
421.48	12355.69
421.67	12631.87
421.86	12065.46
422.05	10972.43
422.24	10242.18
422.43	10874.13
422.61	12018.65
422.80	12566.34
422.99	12222.28
423.18	11613.74
423.37	11534.16
423.56	11796.30
423.75	11857.15
423.94	11896.94
424.13	11487.35
424.32	11243.93
424.50	11433.52
424.69	11653.53
424.88	11513.10
425.07	11442.88
425.26	11375.00
425.45	11363.30
425.64	11117.54
425.83	11372.66
426.01	11838.43
426.20	12081.85
426.39	11976.52
426.58	10949.03
426.77	10375.59
426.96	9886.42
427.15	10441.13
427.33	11566.93
427.52	11367.98
427.71	11655.87
427.90	11674.59
428.09	11417.13
428.28	11150.31
428.46	10663.48
428.65	10705.61
428.84	11311.81
429.03	10949.03
429.22	10532.41
429.40	9928.55
429.59	8891.70
429.78	8161.45
429.97	8287.84
430.16	8255.07
430.34	7906.33
430.53	8196.56
430.72	8769.99
430.91	9893.44
431.10	11501.39
431.28	13362.12
431.47	13902.78
431.66	14031.51
431.85	12472.71
432.03	11445.22
432.22	11346.92
432.41	12248.02
432.60	13235.73
432.79	13792.78
432.97	13722.56
433.16	13135.09
433.35	12067.80
433.54	10682.20
433.72	10485.60
433.91	11021.58
434.10	12348.67
434.28	13043.81
434.47	13528.30
434.66	13247.43
434.85	12882.31
435.03	13214.66
435.22	13378.50
435.41	13989.38
435.59	14429.40
435.78	14235.14
435.97	14719.63
436.16	14731.33
436.34	14614.30
436.53	14375.57
436.72	14398.98
436.90	13357.44
437.09	13390.20
437.28	13315.31
437.46	13760.01
437.65	13870.01
437.84	12348.67
438.02	11782.26
438.21	11721.40
438.40	12491.44
438.58	13411.27
438.77	13837.25
438.96	13640.64
439.14	14647.07
439.33	14930.28
439.52	14904.53
439.70	14534.73
439.89	14083.00
440.08	13624.26
440.26	14204.71
440.45	14672.82
440.63	15662.86
440.82	16201.19
441.01	15513.07
441.19	15819.68
441.38	16369.71
441.57	16716.11
441.75	16893.99
441.94	17071.87
442.12	17317.62
442.31	17303.58
442.50	17474.44
442.68	16671.64
442.87	16783.98
443.05	16444.60
443.24	16816.75
443.43	17413.59
443.61	17174.85
443.80	17741.26
443.98	16533.54
444.17	16727.81
444.35	17521.25
444.54	17795.09
444.73	17895.74
444.91	16788.66
445.10	16130.97
445.28	15382.00
445.47	15257.95
445.65	15480.30
445.84	16196.51
446.02	16652.91
446.21	17043.78
446.39	17109.32
446.58	17099.95
446.77	17619.55
446.95	17547.00
447.14	17996.38
447.32	18408.31
447.51	17689.77
447.69	17111.66
447.88	17291.88
448.06	17582.10
448.25	17706.15
448.43	17455.72
448.62	17432.31
448.80	17228.68
448.99	17282.52
449.17	17727.22
449.36	17884.03
449.54	18223.41
449.73	18721.95
449.91	19084.73
450.10	19477.94
450.28	19665.18
450.46	19140.90
450.65	19548.15
450.83	19213.46
451.02	18958.34
451.20	18906.85
451.39	18843.65
451.57	18607.26
451.76	18895.14
451.94	18202.35
452.13	18286.61
452.31	17036.76
452.49	16255.02
452.68	16814.41
452.86	16585.04
453.05	16989.95
453.23	17825.52
453.42	17778.71
453.60	18192.98
453.78	18623.64
453.97	18125.11
454.15	18167.24
454.34	17228.68
454.52	17830.20
454.70	17649.98
454.89	17998.72
455.07	18017.44
455.26	18483.21
455.44	19297.72
455.62	19445.17
455.81	19225.16
455.99	19274.31
456.17	18829.61
456.36	18956.00
456.54	19829.02
456.73	19225.16
456.91	19784.55
457.09	19817.32
457.28	20695.02
457.46	19936.68
457.64	19019.19
457.83	18925.57
458.01	18665.77
458.19	18925.57
458.38	19309.42
458.56	19658.16
458.74	19564.54
458.93	18731.31
459.11	19098.77
459.29	19115.16
459.48	19307.08
459.66	18743.01
459.84	19515.39
460.03	19625.39
460.21	19845.40
460.39	20320.53
460.57	20376.70
460.76	19969.45
460.94	20355.64
461.12	19910.94
461.31	19969.45
461.49	20357.98
461.67	20224.57
461.85	20624.80
462.04	20950.14
462.22	20730.12
462.40	20879.92
462.59	20879.92
462.77	20617.78
462.95	20636.50
463.13	20510.11
463.32	19995.20
463.50	20374.36
463.68	19887.53
463.86	20278.40
464.05	19672.20
464.23	19428.79
464.41	19269.63
464.59	19112.81
464.78	20596.71
464.96	20133.29
465.14	19807.95
465.32	20166.06
465.50	20814.38
465.69	21270.79
465.87	20666.93
466.05	19772.85
466.23	18937.27
466.41	18555.77
466.60	19651.14
466.78	19562.20
466.96	19964.77
467.14	19920.30
467.32	19887.53
467.51	19924.98
467.69	18899.83
467.87	19487.30
468.05	20180.10
468.23	19901.58
468.41	20205.84
468.60	19826.68
468.78	20105.20
468.96	19917.96
469.14	20400.11
469.32	20795.66
469.50	19325.80
469.69	19389.00
469.87	19300.06
470.05	19637.09
470.23	19389.00
470.41	19222.82
470.59	19513.05
470.77	20060.73
470.95	20500.75
471.14	20673.95
471.32	20657.57
471.50	21596.12
471.68	21762.30
471.86	22141.47
472.04	21867.63
472.22	21926.14
472.40	20711.40
472.58	20491.39
472.77	20877.58
472.95	20987.58
473.13	21865.28
473.31	21069.50
473.49	21336.32
473.67	21385.47
473.85	21781.03
474.03	22455.10
474.21	22766.39
474.39	22625.96
474.57	22780.43
474.75	22993.42
474.93	22691.49
475.12	22001.04
475.30	21916.78
475.48	22064.23
475.66	22462.12
475.84	21928.48
476.02	21813.79
476.20	21467.39
476.38	22398.93
476.56	23098.75
476.74	22991.08
476.92	23271.95
477.10	23351.52
477.28	24456.26
477.46	23878.15
477.64	24308.80
477.82	24547.54
478.00	25158.42
478.18	24334.55
478.36	23969.43
478.54	24634.14
478.72	24547.54
478.90	25460.35
479.08	25839.51
479.26	25525.88
479.44	26057.18
479.62	25415.88
479.80	25867.60
479.98	26115.70
480.16	26111.02
480.34	25902.71
480.52	26148.46
480.70	26883.39
480.88	26520.61
481.06	27232.13
481.24	27080.00
481.41	27569.17
481.59	28027.92
481.77	27934.29
481.95	28079.41
482.13	27690.88
482.31	27583.21
482.49	28472.62
482.67	28180.05
482.85	28156.64
483.03	28748.80
483.21	29350.32
483.39	28507.72
483.57	27601.94
483.74	27449.80
483.92	27850.03
484.10	28215.16
484.28	28811.99
484.46	29369.04
484.64	29034.35
484.82	28245.58
485.00	28219.84
485.18	27655.77
485.35	26434.01
485.53	23864.10
485.71	22082.95
485.89	22532.34
486.07	23644.09
486.25	26129.74
486.43	28063.02
486.61	27938.97
486.78	27583.21
486.96	28414.10
487.14	29502.45
487.32	29184.14
487.50	30649.32
487.68	31154.87
487.85	31658.09
488.03	31962.36
488.21	31433.39
488.39	30579.10
488.57	30078.22
488.75	30761.66
488.92	31707.24
489.10	33076.45
489.28	34148.42
489.46	34761.64
489.64	34455.03
489.81	35175.91
489.99	34473.75
490.17	34881.00
490.35	34927.81
490.53	34277.15
490.70	33694.35
490.88	33706.05
491.06	34579.07
491.24	34195.23
491.41	32692.60
491.59	31758.73
491.77	31028.48
491.95	33216.88
492.13	34333.32
492.30	35196.98
492.48	37074.09
492.66	36701.94
492.84	36168.30
493.01	36077.02
493.19	35711.89
493.37	35606.57
493.54	36053.61
493.72	36662.15
493.90	37544.53
494.08	37397.08
494.25	38656.29
494.43	38911.41
494.61	38698.42
494.79	39466.11
494.96	38958.22
495.14	37890.93
495.32	37053.02
495.49	36727.69
495.67	37860.51
495.85	39529.31
496.02	39934.22
496.20	39346.75
496.38	39089.29
496.55	38960.56
496.73	39758.68
496.91	39665.06
497.09	40781.49
497.26	40666.81
497.44	39407.60
497.62	38754.59
497.79	37626.45
497.97	36638.75
498.14	37556.24
498.32	40268.92
498.50	40084.01
498.67	40147.21
498.85	40294.66
499.03	40715.96
499.20	41109.17
499.38	41305.77
499.56	40638.72
499.73	39526.97
499.91	38335.63
500.08	38005.62
500.26	37085.79
500.44	38148.39
500.61	39278.87
500.79	38700.76
500.97	37820.72
501.14	37773.91
501.32	37422.83
501.49	38019.66
501.67	39000.35
501.84	39028.43
502.02	40194.02
502.20	39817.19
502.37	40287.64
502.55	40657.45
502.72	41333.86
502.90	41570.25
503.07	40664.47
503.25	39697.83
503.43	38665.65
503.60	38387.13
503.78	37572.62
503.95	38391.81
504.13	40442.12
504.30	41539.83
504.48	40889.16
504.65	39976.35
504.83	40151.89
505.01	41233.22
505.18	41518.76
505.36	41404.08
505.53	42185.82
505.71	43267.14
505.88	44105.06
506.06	42834.14
506.23	42043.04
506.41	41584.30
506.58	42017.30
506.76	41542.17
506.93	41460.25
507.11	40781.49
507.28	40891.50
507.46	40608.29
507.63	40509.99
507.81	39566.76
507.98	40009.12
508.16	40994.48
508.33	42326.25
508.50	41949.42
508.68	42691.37
508.85	43611.20
509.03	43732.91
509.20	43320.98
509.38	41240.24
509.55	41720.05
509.73	41734.09
509.90	42052.41
510.08	41200.45
510.25	41698.98
510.42	40732.34
510.60	42003.25
510.77	43482.47
510.95	43973.98
511.12	43859.30
511.30	44507.63
511.47	43894.41
511.64	43524.60
511.82	42344.97
511.99	41406.42
512.17	41801.97
512.34	41418.12
512.51	41544.51
512.69	40502.97
512.86	40765.11
513.04	42782.65
513.21	42326.25
513.38	40996.82
513.56	40327.43
513.73	39126.74
513.90	40832.99
514.08	39768.04
514.25	41076.40
514.43	40664.47
514.60	41226.20
514.77	40596.59
514.95	42927.77
515.12	42010.28
515.29	41708.35
515.47	42323.91
515.64	43213.31
515.81	43028.41
515.99	40797.88
516.16	38022.00
516.33	35672.10
516.51	35201.66
516.68	33317.53
516.85	33305.82
517.03	34768.66
517.20	38050.09
517.37	41436.84
517.54	41841.76
517.72	39765.70
517.89	37205.16
518.06	34937.18
518.24	36243.20
518.41	38445.64
518.58	41209.81
518.75	41312.80
518.93	39892.09
519.10	41071.72
519.27	40690.21
519.45	41635.79
519.62	42244.33
519.79	42220.92
519.96	42197.52
520.14	40942.99
520.31	40238.49
520.48	40512.33
520.65	42143.69
520.83	43026.07
521.00	42539.24
521.17	42192.84
521.34	42763.93
521.52	43182.88
521.69	42782.65
521.86	43264.80
522.03	43206.29
522.20	40905.54
522.38	40472.54
522.55	40435.10
522.72	41090.44
522.89	40863.41
523.07	41338.54
523.24	41670.90
523.41	42862.23
523.58	42934.79
523.75	43533.96
523.92	43454.39
524.10	43756.32
524.27	44002.07
524.44	43138.41
524.61	42862.23
524.78	42021.98
524.96	42628.18
525.13	42185.82
525.30	42684.35
525.47	43040.11
525.64	44105.06
525.81	40886.82
525.98	39475.48
526.16	38682.03
526.33	36807.26
526.50	36233.83
526.67	35665.08
526.84	37811.35
527.01	39761.02
527.18	40685.53
527.36	42351.99
527.53	41556.21
527.70	42082.83
527.87	41427.48
528.04	41727.07
528.21	41797.29
528.38	43990.37
528.55	44765.09
528.72	44919.56
528.89	45446.18
529.07	44215.06
529.24	41752.82
529.41	41284.71
529.58	41687.28
529.75	41855.80
529.92	43157.14
530.09	43763.34
530.26	43910.79
530.43	45055.31
530.60	44367.20
530.77	43681.42
530.94	44259.53
531.11	43367.79
531.28	42579.03
531.46	42447.96
531.63	42258.37
531.80	42391.78
531.97	41469.61
532.14	40158.91
532.31	38897.36
532.48	39585.48
532.65	40048.91
532.82	40708.94
532.99	42473.70
533.16	42478.38
533.33	41993.89
533.50	40472.54
533.67	41359.61
533.84	41684.94
534.01	41752.82
534.18	42239.65
534.35	43058.84
534.52	41801.97
534.69	43091.60
534.86	43576.09
535.03	42480.72
535.20	43812.49
535.37	44507.63
535.54	44231.44
535.71	43941.22
535.88	42841.17
536.05	41813.67
536.22	41893.25
536.38	41593.66
536.55	39798.47
536.72	39784.43
536.89	40091.04
537.06	40491.27
537.23	42384.76
537.40	42726.48
537.57	43145.44
537.74	42724.14
537.91	43091.60
538.08	41792.61
538.25	41179.39
538.42	42202.20
538.59	42431.57
538.75	40376.58
538.92	40612.98
539.09	40540.42
539.26	40828.30
539.43	40067.63
539.60	40357.86
539.77	41762.18
539.94	40381.26
540.11	39363.13
540.28	38693.74
540.44	38347.34
540.61	39840.60
540.78	41076.40
540.95	41757.50
541.12	40722.98
541.29	41078.74
541.46	41422.80
541.62	41530.47
541.79	41808.99
541.96	40795.54
542.13	40325.09
542.30	39957.63
542.47	40140.19
542.63	40320.41
542.80	40203.38
542.97	40533.40
543.14	39543.35
543.31	40638.72
543.48	41486.00
543.64	41883.89
543.81	42417.53
543.98	42515.83
544.15	40868.09
544.32	40474.88
544.48	41329.18
544.65	41986.87
544.82	42075.81
544.99	40844.69
545.16	40542.76
545.32	40498.29
545.49	41993.89
545.66	40711.28
545.83	40112.10
546.00	40641.06
546.16	40062.95
546.33	41024.91
546.50	41130.23
546.67	42389.44
546.83	41003.85
547.00	40559.14
547.17	39910.82
547.34	38550.96
547.50	39819.53
547.67	40442.12
547.84	39583.14
548.00	40332.11
548.17	40636.38
548.34	40421.05
548.51	40030.18
548.67	41493.02
548.84	41663.88
549.01	42078.15
549.18	41221.52
549.34	40664.47
549.51	40439.78
549.68	41118.53
549.84	41006.19
550.01	39894.43
550.18	39480.16
550.34	39480.16
550.51	39421.64
550.68	40294.66
550.84	39709.53
551.01	39772.72
551.18	39786.77
551.34	40517.01
551.51	40203.38
551.68	40968.74
551.84	41331.52
552.01	40617.66
552.18	40046.57
552.34	39835.92
552.51	39702.51
552.68	39856.98
552.84	40402.33
553.01	39746.98
553.18	39391.22
553.34	39739.96
553.51	40308.71
553.67	40397.65
553.84	39566.76
554.01	40261.90
554.17	39791.45
554.34	40348.50
554.51	39440.37
554.67	39510.58
554.84	40706.60
555.00	39756.34
555.17	39683.78
555.33	38763.95
555.50	39470.79
555.67	39302.28
555.83	37858.17
556.00	37001.53
556.16	37801.99
556.33	37013.23
556.50	38724.16
556.66	39363.13
556.83	39288.23
556.99	38604.80
557.16	38089.88
557.32	38745.23
557.49	38466.70
557.65	39220.36
557.82	39349.09
557.98	38726.50
558.15	39215.68
558.32	37780.93
558.48	35601.89
558.65	35983.40
558.81	35606.57
558.98	36137.87
559.14	37085.79
559.31	37862.85
559.47	36790.88
559.64	35742.32
559.80	35218.04
559.97	36676.19
560.13	38183.50
560.30	38274.78
560.46	39091.63
560.63	39901.45
560.79	40102.74
560.96	38466.70
561.12	36760.45
561.29	35995.10
561.45	35304.64
561.61	36128.51
561.78	36893.86
561.94	37762.20
562.11	37340.91
562.27	38242.01
562.44	38195.20
562.60	38462.02
562.77	38541.60
562.93	37874.55
563.10	36648.11
563.26	36577.89
563.42	36603.64
563.59	35587.85
563.75	36416.40
563.92	36336.82
564.08	36807.26
564.24	36669.17
564.41	36346.18
564.57	37743.48
564.74	36397.67
564.90	36121.49
565.07	36587.25
565.23	35321.02
565.39	35157.19
565.56	34845.90
565.72	34370.77
565.88	34279.49
566.05	35484.86
566.21	36648.11
566.38	35372.52
566.54	36025.53
566.70	36416.40
566.87	37280.05
567.03	36119.15
567.19	35786.79
567.36	36830.67
567.52	35948.29
567.68	36247.88
567.85	34792.06
568.01	33617.11
568.17	35021.44
568.34	35903.82
568.50	35452.09
568.66	36240.86
568.83	36041.91
568.99	35639.34
569.15	35819.56
569.32	36079.36
569.48	35372.52
569.64	34305.23
569.81	34836.53
569.97	34698.44
570.13	35613.59
570.30	34972.28
570.46	34122.67
570.62	33170.07
570.78	33600.73
570.95	33844.15
571.11	34253.74
571.27	34806.11
571.43	34733.55
571.60	33930.75
571.76	35323.36
571.92	35182.93
572.09	35014.41
572.25	35566.78
572.41	36510.02
572.57	36776.84
572.74	36589.59
572.90	35594.87
573.06	35494.22
573.22	34328.64
573.38	34448.00
573.55	34740.57
573.71	33621.80
573.87	33614.77
574.03	34476.09
574.20	34476.09
574.36	34979.31
574.52	35234.42
574.68	33846.49
574.84	32584.94
575.01	33041.34
575.17	33830.10
575.33	33907.34
575.49	33280.08
575.65	32982.83
575.82	33626.48
575.98	33413.49
576.14	33270.72
576.30	33670.95
576.46	33535.20
576.62	34211.61
576.79	33841.81
576.95	33083.47
577.11	32325.14
577.27	33230.93
577.43	33572.64
577.59	32851.76
577.75	33249.65
577.92	31522.34
578.08	31407.65
578.24	32308.76
578.40	31543.40
578.56	32325.14
578.72	32364.93
578.88	32149.60
579.04	32542.81
579.21	32325.14
579.37	32662.18
579.53	33469.66
579.69	34202.25
579.85	32701.96
580.01	32779.20
580.17	32442.17
580.33	33268.37
580.49	33413.49
580.65	31826.60
580.82	32364.93
580.98	32807.29
581.14	33762.23
581.30	32929.00
581.46	32769.84
581.62	32641.11
581.78	32308.76
581.94	33001.55
582.10	33652.22
582.26	33708.40
582.42	33476.68
582.58	33146.67
582.74	33160.71
582.90	32971.13
583.06	33401.79
583.22	33383.06
583.38	33696.69
583.54	32870.48
583.70	33261.35
583.86	32575.58
584.02	33167.73
584.18	32802.61
584.34	32393.01
584.50	32367.27
584.66	31885.12
584.82	31971.72
584.98	32870.48
585.14	31864.05
585.30	31960.02
585.46	31718.94
585.62	31110.40
585.78	31597.23
585.94	31363.18
586.10	30225.68
