SpectraSuite Data File
++++++++++++++++++++++++++++++++++++
Date: Mon Oct 07 14:54:01 GMT-05:00 2013
User: price-jones
Dark Spectrum Present: No
Reference Spectrum Present: No
Number of Sampled Component Spectra: 1
Spectrometers: USB2+H05261
Integration Time (usec): 100000 (USB2+H05261)
Spectra Averaged: 1 (USB2+H05261)
Boxcar Smoothing: 0 (USB2+H05261)
Correct for Electrical Dark: No (USB2+H05261)
Strobe/Lamp Enabled: No (USB2+H05261)
Correct for Detector Non-linearity: No (USB2+H05261)
Correct for Stray Light: No (USB2+H05261)
Number of Pixels in Processed Spectrum: 2048
>>>>>Begin Processed Spectral Data<<<<<
365.73	0.00
365.92	0.00
366.12	0.00
366.32	0.00
366.52	0.00
366.72	0.00
366.91	0.00
367.11	0.00
367.31	0.00
367.51	0.00
367.70	0.00
367.90	0.00
368.10	0.00
368.30	0.00
368.49	0.00
368.69	0.00
368.89	0.00
369.09	0.00
369.28	0.00
369.48	0.00
369.68	0.00
369.87	0.00
370.07	0.00
370.27	0.00
370.47	770.04
370.66	3384.41
370.86	3915.72
371.06	4208.28
371.25	4231.69
371.45	3843.16
371.65	3466.33
371.84	3171.43
372.04	3262.71
372.24	3665.28
372.44	3922.74
372.63	3964.87
372.83	3716.77
373.03	3227.60
373.22	2930.35
373.42	3122.27
373.62	3667.62
373.81	3782.31
374.01	3899.33
374.21	3536.55
374.40	3346.97
374.60	3325.90
374.79	3864.22
374.99	4505.53
375.19	4753.63
375.38	4830.87
375.58	4533.62
375.78	4358.08
375.97	4484.47
376.17	4606.17
376.37	4760.65
376.56	4692.77
376.76	5050.88
376.95	5390.25
377.15	5699.20
377.35	5853.68
377.54	6092.41
377.74	6256.25
377.93	6424.77
378.13	6408.39
378.33	5806.87
378.52	5420.68
378.72	5219.39
378.91	5355.15
379.11	5025.13
379.31	4739.58
379.50	4676.39
379.70	5238.12
379.89	5818.57
380.09	6022.20
380.28	6422.43
380.48	6214.12
380.68	6136.88
380.87	6090.07
381.07	5710.91
381.26	5144.50
381.46	4690.43
381.65	4770.01
381.85	4486.81
382.04	4465.74
382.24	4093.60
382.43	3707.41
382.63	3658.26
382.83	3770.60
383.02	3831.46
383.22	3705.07
383.41	3866.56
383.61	4018.70
383.80	4676.39
384.00	5097.69
384.19	5954.32
384.39	6204.76
384.58	6317.11
384.78	6040.92
384.97	5987.09
385.17	5682.82
385.36	5570.48
385.56	5123.43
385.75	5476.85
385.95	5827.93
386.14	6506.69
386.34	6375.62
386.53	6090.07
386.72	5785.80
386.92	5928.58
387.11	5954.32
387.31	6296.04
387.50	6157.95
387.70	6080.71
387.89	6001.13
388.09	6094.76
388.28	6120.50
388.48	6228.17
388.67	6677.55
388.86	7243.96
389.06	7843.14
389.25	8231.66
389.45	8189.53
389.64	8271.45
389.84	8320.60
390.03	7922.71
390.22	7992.93
390.42	8173.15
390.61	8851.91
390.81	9334.06
391.00	9666.41
391.19	9284.91
391.39	9163.20
391.58	8835.52
391.78	8280.82
391.97	7819.73
392.16	7391.41
392.36	6864.79
392.55	5298.97
392.75	4266.80
392.94	3583.36
393.13	3449.95
393.33	4105.30
393.52	5135.14
393.71	6457.54
393.91	7239.28
394.10	7723.77
394.29	8306.56
394.49	9118.73
394.68	9846.63
394.88	9928.55
395.07	10249.21
395.26	10359.21
395.46	9771.74
395.65	9612.58
395.84	8217.62
396.04	6857.77
396.23	5603.24
396.42	4751.29
396.62	4428.29
396.81	5277.91
397.00	6705.63
397.19	8465.72
397.39	10061.96
397.58	11424.15
397.77	12013.97
397.97	12320.58
398.16	12512.50
398.35	12978.27
398.55	13338.71
398.74	13998.74
398.93	14368.55
399.12	14066.62
399.32	13525.96
399.51	13729.58
399.70	14640.05
399.90	14434.08
400.09	14600.26
400.28	14356.85
400.47	14675.16
400.67	15059.01
400.86	15733.08
401.05	15386.68
401.24	15466.26
401.44	15934.37
401.63	15873.51
401.82	16170.76
402.01	15903.94
402.21	16039.69
402.40	16248.00
402.59	15878.19
402.78	15131.56
402.97	14527.71
403.17	15239.23
403.36	16074.80
403.55	16643.55
403.74	17078.89
403.93	16402.47
404.13	15307.10
404.32	14581.54
404.51	15272.00
404.70	16533.54
404.89	16367.37
405.09	16119.27
405.28	15889.90
405.47	16013.95
405.66	15817.34
405.85	15520.09
406.05	14958.36
406.24	15377.32
406.43	15838.41
406.62	16718.45
406.81	16423.54
407.00	15969.48
407.20	15499.03
407.39	15667.55
407.58	16376.73
407.77	17118.68
407.96	17268.47
408.15	17703.81
408.34	17696.79
408.54	18724.29
408.73	18930.25
408.92	18558.11
409.11	18019.78
409.30	17116.34
409.49	16098.20
409.68	15103.48
409.87	14555.79
410.07	15552.86
410.26	16695.04
410.45	17762.33
410.64	18211.71
410.83	18590.88
411.02	19325.80
411.21	19814.98
411.40	19161.97
411.59	19599.65
411.78	19569.22
411.98	19105.79
412.17	19864.13
412.36	19318.78
412.55	19351.55
412.74	18623.64
412.93	18684.50
413.12	18607.26
413.31	20259.68
413.50	20489.05
413.69	20903.32
413.88	20304.15
414.07	19707.31
414.26	19899.23
414.45	20376.70
414.64	20449.26
414.83	20594.37
415.02	20498.41
415.22	20238.61
415.41	20891.62
415.60	21439.31
415.79	21979.97
415.98	22602.55
416.17	22658.73
416.36	22284.24
416.55	21891.03
416.74	21135.04
416.93	20482.03
417.12	20404.79
417.31	20945.45
417.50	20847.15
417.69	21933.16
417.88	21664.00
418.07	21202.91
418.26	21165.46
418.45	21200.57
418.64	22047.85
418.83	22558.08
419.02	22857.67
419.21	22485.53
419.39	21406.54
419.58	20262.02
419.77	20556.93
419.96	21504.84
420.15	22405.95
420.34	23150.24
420.53	23969.43
420.72	24280.72
420.91	24142.63
421.10	23866.44
421.29	23531.75
421.48	22614.26
421.67	23506.00
421.86	23421.74
422.05	21741.24
422.24	19601.99
422.43	19286.01
422.61	21329.30
422.80	22742.99
422.99	23215.77
423.18	22363.82
423.37	21626.55
423.56	21539.95
423.75	22338.07
423.94	22654.05
424.13	21427.60
424.32	21661.66
424.50	21724.85
424.69	21516.54
424.88	21675.70
425.07	21483.78
425.26	21228.66
425.45	21212.28
425.64	20924.39
425.83	20713.74
426.01	21991.67
426.20	22675.11
426.39	22562.76
426.58	20807.36
426.77	19218.14
426.96	18174.26
427.15	18984.09
427.33	20521.82
427.52	21647.61
427.71	21776.34
427.90	21516.54
428.09	21092.91
428.28	20615.44
428.46	20210.53
428.65	19491.98
428.84	20393.09
429.03	20638.84
429.22	19484.96
429.40	18317.03
429.59	16807.39
429.78	14782.82
429.97	14740.69
430.16	15033.26
430.34	15173.69
430.53	15489.67
430.72	15496.69
430.91	17041.44
431.10	19871.15
431.28	23381.95
431.47	25647.59
431.66	25935.48
431.85	23555.15
432.03	21607.83
432.22	20161.37
432.41	21448.67
432.60	23784.52
432.79	24753.51
432.97	25624.18
433.16	24870.53
433.35	22792.14
433.54	20229.25
433.72	19192.39
433.91	19468.58
434.10	22111.04
434.28	23403.02
434.47	24634.14
434.66	24259.65
434.85	23948.36
435.03	23840.70
435.22	24219.86
435.41	25825.47
435.59	25642.91
435.78	26370.82
435.97	27108.08
436.16	27178.30
436.34	26841.26
436.53	25874.62
436.72	26061.87
436.90	24748.82
437.09	24343.91
437.28	24428.17
437.46	25298.85
437.65	24882.24
437.84	23096.41
438.02	21443.99
438.21	21008.65
438.40	22602.55
438.58	24388.38
438.77	25034.37
438.96	25551.63
439.14	26214.00
439.33	26965.31
439.52	27005.10
439.70	26927.86
439.89	26286.56
440.08	25158.42
440.26	25680.36
440.45	26387.20
440.63	28058.34
440.82	28912.64
441.01	29312.87
441.19	28542.83
441.38	29003.92
441.57	30405.90
441.75	30649.32
441.94	30785.07
442.12	30331.00
442.31	31285.94
442.50	30939.54
442.68	30284.19
442.87	30335.68
443.05	29549.26
443.24	29907.37
443.43	30738.26
443.61	31154.87
443.80	31985.76
443.98	30146.10
444.17	29701.40
444.35	31658.09
444.54	32444.51
444.73	31924.91
444.91	30347.39
445.10	29397.13
445.28	27754.07
445.47	27695.56
445.65	28030.26
445.84	28711.35
446.02	29544.58
446.21	29975.24
446.39	30087.59
446.58	30141.42
446.77	31019.12
446.95	31012.10
447.14	32238.54
447.32	32992.19
447.51	31981.08
447.69	30384.83
447.88	30415.26
448.06	30321.64
448.25	31335.09
448.43	31791.50
448.62	31147.85
448.80	30820.17
448.99	31608.93
449.17	31295.30
449.36	31283.60
449.54	32554.51
449.73	33376.04
449.91	33694.35
450.10	34550.99
450.28	34871.64
450.46	34543.97
450.65	34614.18
450.83	34265.44
451.02	33483.70
451.20	33574.98
451.39	33244.97
451.57	33193.48
451.76	33013.26
451.94	32809.63
452.13	32189.39
452.31	30733.57
452.49	29261.38
452.68	29837.15
452.86	29851.19
453.05	30347.39
453.23	31285.94
453.42	32079.38
453.60	32535.79
453.78	33006.23
453.97	32435.14
454.15	32261.94
454.34	31702.56
454.52	32023.21
454.70	31419.35
454.89	31833.63
455.07	31756.39
455.26	32208.11
455.44	33504.77
455.62	34272.46
455.81	34120.33
455.99	33804.36
456.17	33532.86
456.36	33432.21
456.54	34546.31
456.73	34115.65
456.91	35262.51
457.09	35360.81
457.28	35803.17
457.46	34808.45
457.64	34548.65
457.83	33130.28
458.01	32400.04
458.19	33333.91
458.38	33479.02
458.56	34862.28
458.74	34885.68
458.93	33748.18
459.11	33942.45
459.29	33497.75
459.48	33996.28
459.66	33347.95
459.84	34394.17
460.03	34639.93
460.21	34061.82
460.39	35255.49
460.57	35192.30
460.76	35882.75
460.94	35576.14
461.12	35105.70
461.31	35571.46
461.49	35026.12
461.67	35372.52
461.85	36362.56
462.04	36416.40
462.22	36779.18
462.40	36320.43
462.59	36079.36
462.77	36514.70
462.95	36058.29
463.13	35789.13
463.32	35505.93
463.50	34944.20
463.68	35494.22
463.86	35014.41
464.05	34787.38
464.23	34244.38
464.41	34127.35
464.59	33214.54
464.78	34801.43
464.96	34632.91
465.14	34478.43
465.32	35503.59
465.50	36381.29
465.69	36751.09
465.87	35648.70
466.05	35157.19
466.23	33373.70
466.41	32250.24
466.60	33528.17
466.78	33326.89
466.96	34033.73
467.14	34553.33
467.32	35044.84
467.51	35377.20
467.69	33432.21
467.87	34333.32
468.05	34824.83
468.23	34974.63
468.41	35009.73
468.60	34646.95
468.78	35082.29
468.96	34923.13
469.14	35271.87
469.32	35859.35
469.50	34162.46
469.69	34752.27
469.87	33502.43
470.05	33743.50
470.23	33853.51
470.41	33790.31
470.59	34473.75
470.77	34108.63
470.95	35049.52
471.14	35332.73
471.32	35562.10
471.50	37048.34
471.68	37881.57
471.86	37972.85
472.04	37975.19
472.22	38075.84
472.40	36140.21
472.58	36074.68
472.77	35775.09
472.95	36194.04
473.13	36938.33
473.31	36360.22
473.49	36411.71
473.67	37275.37
473.85	37439.21
474.03	38298.19
474.21	38504.15
474.39	38660.97
474.57	39360.79
474.75	38756.93
474.93	38700.76
475.12	37441.55
475.30	38057.11
475.48	38092.22
475.66	38431.60
475.84	38146.05
476.02	37977.53
476.20	37067.06
476.38	37563.26
476.56	38820.13
476.74	39690.80
476.92	39889.75
477.10	40509.99
477.28	41706.01
477.46	41247.26
477.64	41844.10
477.82	42136.66
478.00	41771.54
478.18	41691.96
478.36	40978.10
478.54	41256.62
478.72	41741.11
478.90	42347.31
479.08	43290.55
479.26	44177.61
479.44	44093.35
479.62	43550.35
479.80	43859.30
479.98	43957.60
480.16	44233.78
480.34	43215.65
480.52	44186.97
480.70	44409.32
480.88	44343.79
481.06	45022.54
481.24	45703.64
481.41	46569.64
481.59	46864.55
481.77	46665.60
481.95	46314.52
482.13	45806.62
482.31	46110.89
482.49	46644.54
482.67	46539.21
482.85	46911.36
483.03	47435.64
483.21	47217.97
483.39	47695.44
483.57	46822.42
483.74	46532.19
483.92	46747.52
484.10	46899.65
484.28	48072.26
484.46	48357.81
484.64	48868.05
484.82	48051.20
485.00	47522.24
485.18	46735.82
485.35	45595.98
485.53	42316.89
485.71	38930.13
485.89	37801.99
486.07	39807.83
486.25	43433.32
486.43	45993.87
486.61	46096.85
486.78	46358.99
486.96	46632.83
487.14	48458.45
487.32	48830.60
487.50	50115.55
487.68	50742.81
487.85	51526.89
488.03	51302.20
488.21	51028.36
488.39	50333.22
488.57	49764.47
488.75	49081.03
488.92	49832.35
489.10	52554.39
489.28	53719.98
489.46	54387.03
489.64	53839.34
489.81	54370.64
489.99	53954.03
490.17	53794.87
490.35	54148.29
490.53	53895.52
490.70	53469.54
490.88	53270.59
491.06	54340.22
491.24	54478.31
491.41	53308.04
491.59	51906.06
491.77	50810.69
491.95	52027.77
492.13	52940.58
492.30	54349.58
492.48	55367.71
492.66	55732.84
492.84	55718.79
493.01	55402.82
493.19	54768.54
493.37	54782.58
493.54	54440.86
493.72	54712.36
493.90	55915.40
494.08	56552.02
494.25	56949.92
494.43	57137.16
494.61	57315.04
494.79	57715.27
494.96	57205.03
495.14	56701.82
495.32	55679.00
495.49	55035.36
495.67	56112.00
495.85	57518.67
496.02	57591.22
496.20	57560.79
496.38	57429.72
496.55	57139.50
496.73	57532.71
496.91	57785.49
497.09	58260.62
497.26	58267.64
497.44	57925.92
497.62	57317.38
497.79	56685.43
497.97	55648.58
498.14	55746.88
498.32	56643.30
498.50	57556.11
498.67	58108.48
498.85	57829.96
499.03	57963.37
499.20	58314.45
499.38	58415.09
499.56	58269.98
499.73	57574.84
499.91	57322.06
500.08	57057.58
500.26	56207.97
500.44	56449.04
500.61	57242.48
500.79	57139.50
500.97	56940.55
501.14	56633.94
501.32	56460.74
501.49	56334.35
501.67	56610.54
501.84	57237.80
502.02	57647.39
502.20	57736.34
502.37	57984.43
502.55	57820.59
502.72	58433.81
502.90	58864.47
503.07	58660.85
503.25	58106.14
503.43	57387.60
503.60	56528.62
503.78	56079.24
503.95	56418.61
504.13	57853.36
504.30	58695.95
504.48	58429.13
504.65	57996.13
504.83	58424.45
505.01	58686.59
505.18	58972.14
505.36	59412.16
505.53	59704.73
505.71	59852.18
505.88	60053.47
506.06	59377.05
506.23	59000.22
506.41	58665.53
506.58	58777.87
506.76	58803.62
506.93	58995.54
507.11	58567.23
507.28	58787.24
507.46	58204.44
507.63	57616.97
507.81	57336.10
507.98	57694.21
508.16	58354.24
508.33	58756.81
508.50	59393.43
508.68	59608.76
508.85	60107.30
509.03	60018.36
509.20	59910.69
509.38	59306.83
509.55	58396.37
509.73	58478.28
509.90	59007.25
510.08	59311.52
510.25	59316.20
510.42	59058.74
510.60	58986.18
510.77	59274.07
510.95	59686.00
511.12	60023.04
511.30	60055.81
511.47	60439.65
511.64	60308.58
511.82	59976.23
511.99	59285.77
512.17	59002.56
512.34	58438.50
512.51	58576.59
512.69	58623.40
512.86	58841.07
513.04	59238.96
513.21	59021.29
513.38	58986.18
513.56	58080.39
513.73	57832.30
513.90	57958.69
514.08	58248.91
514.25	58272.32
514.43	58639.78
514.60	58548.50
514.77	58775.53
514.95	58925.33
515.12	58951.07
515.29	59145.34
515.47	59643.87
515.64	59657.91
515.81	59290.45
515.99	58801.28
516.16	57495.26
516.33	55302.18
516.51	53446.13
516.68	52935.90
516.85	52533.32
517.03	53212.08
517.20	55718.79
517.37	57886.13
517.54	58965.12
517.72	58370.62
517.89	56095.62
518.06	53879.13
518.24	54010.20
518.41	56156.47
518.58	57521.01
518.75	57743.36
518.93	57923.58
519.10	57900.17
519.27	58312.11
519.45	58248.91
519.62	59016.61
519.79	59386.41
519.96	59180.45
520.14	58653.82
520.31	57982.09
520.48	57834.64
520.65	58391.68
520.83	59117.25
521.00	59634.51
521.17	59220.23
521.34	58958.09
521.52	59138.32
521.69	59903.67
521.86	60097.94
522.03	59704.73
522.20	58492.33
522.38	57565.48
522.55	57511.64
522.72	58089.76
522.89	58361.26
523.07	58487.65
523.24	58845.75
523.41	59704.73
523.58	59966.87
523.75	60266.45
523.92	60245.39
524.10	60151.77
524.27	60135.38
524.44	59723.45
524.61	59833.46
524.78	59655.57
524.96	59531.53
525.13	59501.10
525.30	59896.65
525.47	60088.57
525.64	59969.21
525.81	59444.93
525.98	58148.27
526.16	56690.12
526.33	55990.30
526.50	55866.25
526.67	55316.22
526.84	56023.06
527.01	56900.76
527.18	57521.01
527.36	58475.94
527.53	59388.75
527.70	59725.79
527.87	59206.19
528.04	58590.63
528.21	59131.29
528.38	59622.81
528.55	60177.51
528.72	60509.87
528.89	60809.46
529.07	60413.91
529.24	59716.43
529.41	59145.34
529.58	58691.27
529.75	58908.94
529.92	59002.56
530.09	59437.90
530.26	60072.19
530.43	60189.22
530.60	60371.78
530.77	60591.79
530.94	60388.16
531.11	59927.08
531.28	59753.88
531.46	59678.98
531.63	59831.11
531.80	59639.19
531.97	59285.77
532.14	58438.50
532.31	57659.10
532.48	56910.13
532.65	56999.07
532.82	57689.52
532.99	58836.39
533.16	59030.65
533.33	59831.11
533.50	59554.93
533.67	58922.99
533.84	58342.53
534.01	58628.08
534.18	58976.82
534.35	58880.86
534.52	58969.80
534.69	59021.29
534.86	59484.72
535.03	59753.88
535.20	60289.86
535.37	60315.61
535.54	60561.36
535.71	60100.28
535.88	59751.54
536.05	59323.22
536.22	58906.60
536.38	58749.79
536.55	57942.30
536.72	57710.59
536.89	57432.07
537.06	58291.04
537.23	59262.36
537.40	59367.69
537.57	59318.54
537.74	59264.70
537.91	59164.06
538.08	59187.47
538.25	59070.44
538.42	59447.27
538.59	58962.78
538.75	58382.32
538.92	58319.13
539.09	58174.02
539.26	57890.81
539.43	57792.51
539.60	57818.25
539.77	58005.50
539.94	57928.26
540.11	56935.87
540.28	56486.49
540.44	56704.16
540.61	56919.49
540.78	57366.53
540.95	57649.74
541.12	58056.99
541.29	58298.06
541.46	58548.50
541.62	58733.40
541.79	58539.14
541.96	57935.28
542.13	57722.29
542.30	58068.69
542.47	58220.83
542.63	58087.42
542.80	57757.40
542.97	57790.17
543.14	57729.31
543.31	57897.83
543.48	58286.36
543.64	59276.41
543.81	59267.05
543.98	59285.77
544.15	58497.01
544.32	57928.26
544.48	58010.18
544.65	58365.94
544.82	58852.77
544.99	58412.75
545.16	58052.31
545.32	57956.35
545.49	58621.06
545.66	58939.37
545.83	58740.42
546.00	58330.83
546.16	58024.22
546.33	58017.20
546.50	58328.49
546.67	58494.67
546.83	58174.02
547.00	58056.99
547.17	57453.13
547.34	56970.98
547.50	56774.37
547.67	57366.53
547.84	57282.27
548.00	57567.82
548.17	57907.19
548.34	58031.24
548.51	57989.11
548.67	57958.69
548.84	58206.78
549.01	57979.75
549.18	58127.20
549.34	58108.48
549.51	57881.45
549.68	57736.34
549.84	57516.32
550.01	57598.24
550.18	57308.02
550.34	57450.79
550.51	57464.83
550.68	57649.74
550.84	57293.97
551.01	57235.46
551.18	57284.61
551.34	57378.23
551.51	57392.28
551.68	57916.56
551.84	57970.39
552.01	57944.64
552.18	57619.31
552.34	56832.89
552.51	56591.81
552.68	56142.43
552.84	57017.79
553.01	57235.46
553.18	57134.82
553.34	57270.57
553.51	57373.55
553.67	57673.14
553.84	57771.44
554.01	57600.58
554.17	57312.70
554.34	57392.28
554.51	57490.58
554.67	57862.72
554.84	57565.48
555.00	57188.65
555.17	57116.09
555.33	57076.30
555.50	56884.38
555.67	57230.78
555.83	57052.90
556.00	56772.03
556.16	56470.11
556.33	56287.54
556.50	56088.60
556.66	56058.17
556.83	55791.35
556.99	56011.36
557.16	56006.68
557.32	56545.00
557.49	56750.97
557.65	56456.06
557.82	56547.34
557.98	56294.56
558.15	55910.72
558.32	55168.77
558.48	54246.60
558.65	54576.61
558.81	54766.20
558.98	55075.15
559.14	55639.22
559.31	55386.44
559.47	55292.82
559.64	55185.15
559.80	54817.69
559.97	54899.61
560.13	55030.68
560.30	55992.64
560.46	56711.18
560.63	56858.63
560.79	56992.04
560.96	56516.92
561.12	55246.00
561.29	54796.62
561.45	54656.19
561.61	55103.23
561.78	55430.91
561.94	55363.03
562.11	55136.00
562.27	55210.90
562.44	55318.56
562.60	55779.65
562.77	56158.81
562.93	56025.40
563.10	55943.48
563.26	55288.13
563.42	55246.00
563.59	54801.30
563.75	54925.35
563.92	55117.28
564.08	55157.06
564.24	55320.90
564.41	55311.54
564.57	55489.42
564.74	55016.63
564.90	55028.34
565.07	54866.84
565.23	54234.89
565.39	53937.65
565.56	53539.75
565.72	53265.91
565.88	53602.95
566.05	53771.47
566.21	54005.52
566.38	54174.04
566.54	54199.79
566.70	54686.62
566.87	54990.89
567.03	54876.20
567.19	55161.75
567.36	54899.61
567.52	54567.25
567.68	54490.01
567.85	53932.96
568.01	53366.55
568.17	52938.24
568.34	53071.65
568.50	52900.79
568.66	53237.83
568.83	53371.24
568.99	53460.18
569.15	53727.00
569.32	53530.39
569.48	53340.81
569.64	52973.34
569.81	53130.16
569.97	53029.52
570.13	52924.19
570.30	52168.20
570.46	51985.64
570.62	51353.69
570.78	51370.08
570.95	51725.84
571.11	52053.51
571.27	52432.68
571.43	52580.13
571.60	53116.12
571.76	53268.25
571.92	53333.79
572.09	53710.61
572.25	53485.92
572.41	53256.55
572.57	53366.55
572.74	53289.32
572.90	53043.56
573.06	53176.97
573.22	52940.58
573.38	52992.07
573.55	52851.64
573.71	53352.51
573.87	53240.17
574.03	52945.26
574.20	52720.57
574.36	52240.76
574.52	52575.45
574.68	52205.65
574.84	51992.66
575.01	51278.80
575.17	51241.35
575.33	51426.25
575.49	51482.42
575.65	51899.04
575.82	51657.96
575.98	51433.27
576.14	51491.79
576.30	52009.04
576.46	51892.02
576.62	51901.38
576.79	51966.91
576.95	51475.40
577.11	51316.25
577.27	51632.22
577.43	51517.53
577.59	51384.12
577.75	50913.67
577.92	50174.06
578.08	49804.26
578.24	49968.10
578.40	50593.02
578.56	50499.40
578.72	50586.00
578.88	50932.40
579.04	51044.74
579.21	51255.39
579.37	51199.22
579.53	51267.09
579.69	51112.62
579.85	51409.87
580.01	51201.56
580.17	50663.24
580.33	50639.83
580.49	50576.64
580.65	50944.10
580.82	51217.94
580.98	50782.60
581.14	51161.77
581.30	51323.27
581.46	51011.98
581.62	51026.02
581.78	51084.53
581.94	51540.94
582.10	51239.01
582.26	51318.59
582.42	51166.45
582.58	51491.79
582.74	51192.20
582.90	51365.40
583.06	51119.64
583.22	51222.62
583.38	50916.01
583.54	51086.87
583.70	50747.50
583.86	50593.02
584.02	50719.41
584.18	50878.57
584.34	50330.88
584.50	50471.31
584.66	50593.02
584.82	49858.09
584.98	49916.61
585.14	49822.98
