SpectraSuite Data File
++++++++++++++++++++++++++++++++++++
Date: Mon Oct 07 14:55:00 GMT-05:00 2013
User: price-jones
Dark Spectrum Present: No
Reference Spectrum Present: No
Number of Sampled Component Spectra: 1
Spectrometers: USB2+H05261
Integration Time (usec): 10000 (USB2+H05261)
Spectra Averaged: 1 (USB2+H05261)
Boxcar Smoothing: 0 (USB2+H05261)
Correct for Electrical Dark: No (USB2+H05261)
Strobe/Lamp Enabled: No (USB2+H05261)
Correct for Detector Non-linearity: No (USB2+H05261)
Correct for Stray Light: No (USB2+H05261)
Number of Pixels in Processed Spectrum: 2048
>>>>>Begin Processed Spectral Data<<<<<
365.73	0.00
365.92	0.00
366.12	0.00
366.32	0.00
366.52	0.00
366.72	0.00
366.91	0.00
367.11	0.00
367.31	0.00
367.51	0.00
367.70	0.00
367.90	0.00
368.10	0.00
368.30	0.00
368.49	0.00
368.69	0.00
368.89	0.00
369.09	0.00
369.28	0.00
369.48	0.00
369.68	0.00
369.87	0.00
370.07	0.00
370.27	0.00
370.47	131.07
370.66	1479.22
370.86	1757.74
371.06	1933.28
371.25	1834.98
371.45	1586.88
371.65	1598.59
371.84	1425.39
372.04	1540.07
372.24	1675.82
372.44	1785.83
372.63	1732.00
372.83	1610.29
373.03	1364.53
373.22	1301.34
373.42	1540.07
373.62	1603.27
373.81	1856.04
374.01	1694.55
374.21	1507.30
374.40	1460.49
374.60	1614.97
374.79	1856.04
374.99	1944.99
375.19	2207.13
375.38	2111.16
375.58	2005.84
375.78	1956.69
375.97	2104.14
376.17	2057.33
376.37	2155.63
376.56	2235.21
376.76	2340.54
376.95	2537.14
377.15	2656.51
377.35	2832.05
377.54	2757.15
377.74	2888.22
377.93	2993.55
378.13	2841.41
378.33	2705.66
378.52	2459.90
378.72	2375.64
378.91	2487.99
379.11	2279.68
379.31	2193.08
379.50	2174.36
379.70	2438.84
379.89	2712.68
380.09	2928.01
380.28	2974.82
380.48	2794.60
380.68	2719.70
380.87	2733.75
381.07	2509.05
381.26	2377.98
381.46	2160.31
381.65	2069.03
381.85	2047.97
382.04	1870.09
382.24	1696.89
382.43	1666.46
382.63	1680.50
382.83	1542.41
383.02	1724.97
383.22	1661.78
383.41	1720.29
383.61	1996.48
383.80	2216.49
384.00	2492.67
384.19	2834.39
384.39	2839.07
384.58	2867.16
384.78	2834.39
384.97	2656.51
385.17	2609.70
385.36	2424.80
385.56	2420.11
385.75	2546.50
385.95	2752.47
386.14	3059.08
386.34	3033.33
386.53	2773.53
386.72	2684.59
386.92	2682.25
387.11	2827.37
387.31	2979.50
387.50	3002.91
387.70	2848.43
387.89	2722.04
388.09	2822.69
388.28	2920.99
388.48	2946.73
388.67	3173.77
388.86	3492.08
389.06	3641.87
389.25	3812.73
389.45	3988.27
389.64	4004.66
389.84	3747.20
390.03	3836.14
390.22	3843.16
390.42	3906.35
390.61	4203.60
390.81	4500.85
391.00	4610.86
391.19	4351.06
391.39	4379.14
391.58	3948.48
391.78	3761.24
391.97	3749.54
392.16	3510.80
392.36	2923.33
392.55	2303.09
392.75	1893.49
392.94	1561.14
393.13	1619.65
393.33	2012.86
393.52	2698.64
393.71	3201.85
393.91	3578.68
394.10	3918.06
394.29	4341.69
394.49	4411.91
394.68	4826.18
394.88	4896.40
395.07	4933.85
395.26	4915.12
395.46	4690.43
395.65	4400.21
395.84	3515.48
396.04	3089.51
396.23	2485.65
396.42	1984.77
396.62	2214.15
396.81	2679.91
397.00	3405.48
397.19	4269.14
397.39	5057.90
397.58	5607.92
397.77	5792.83
397.97	6057.31
398.16	6160.29
398.35	6293.70
398.55	6560.52
398.74	6686.91
398.93	7042.67
399.12	6705.63
399.32	6509.03
399.51	6792.23
399.70	7108.21
399.90	7007.56
400.09	7096.50
400.28	7073.10
400.47	7096.50
400.67	7339.92
400.86	7538.87
401.05	7618.44
401.24	7768.24
401.44	7758.88
401.63	7772.92
401.82	7761.22
402.01	7859.52
402.21	7873.56
402.40	7985.91
402.59	7435.88
402.78	7208.85
402.97	7201.83
403.17	7569.29
403.36	7967.18
403.55	8278.47
403.74	8168.47
403.93	7714.41
404.13	7187.79
404.32	7363.33
404.51	7861.86
404.70	8231.66
404.89	7948.46
405.09	7911.01
405.28	7578.65
405.47	7763.56
405.66	7709.72
405.85	7473.33
406.05	7290.77
406.24	7555.25
406.43	7943.78
406.62	8084.21
406.81	8046.76
407.00	7861.86
407.20	7482.69
407.39	7728.45
407.58	8189.53
407.77	8500.83
407.96	8919.78
408.15	8844.88
408.34	8730.20
408.54	9004.04
408.73	9256.82
408.92	9186.60
409.11	8964.25
409.30	8421.25
409.49	7882.92
409.68	7543.55
409.87	7456.95
410.07	7894.63
410.26	8416.57
410.45	8816.80
410.64	9104.68
410.83	9305.97
411.02	9692.16
411.21	9928.55
411.40	9874.72
411.59	9678.12
411.78	9661.73
411.98	9687.48
412.17	9802.16
412.36	9692.16
412.55	9736.63
412.74	9481.51
412.93	9350.44
413.12	9507.26
413.31	10164.95
413.50	10239.84
413.69	10101.75
413.88	10036.22
414.07	9848.97
414.26	10061.96
414.45	10253.89
414.64	10258.57
414.83	10272.61
415.02	10115.80
415.22	10134.52
415.41	10534.75
415.60	10836.68
415.79	11162.01
415.98	11328.19
416.17	11398.41
416.36	11330.53
416.55	10796.89
416.74	10260.91
416.93	10141.54
417.12	10136.86
417.31	10427.09
417.50	10782.85
417.69	10927.96
417.88	10799.23
418.07	10794.55
418.26	10574.54
418.45	10960.73
418.64	11524.80
418.83	11850.13
419.02	11403.09
419.21	11049.67
419.39	10478.58
419.58	10340.49
419.77	10572.20
419.96	11239.25
420.15	11641.82
420.34	11721.40
420.53	12093.55
420.72	12224.62
420.91	11955.46
421.10	11934.39
421.29	12058.44
421.48	11676.93
421.67	11948.43
421.86	11580.97
422.05	10780.51
422.24	9673.43
422.43	10122.82
422.61	11435.86
422.80	11824.39
422.99	11456.92
423.18	11103.50
423.37	10890.51
423.56	11248.61
423.75	11499.05
423.94	11421.81
424.13	11009.88
424.32	10864.77
424.50	10890.51
424.69	11227.55
424.88	11077.76
425.07	11279.04
425.26	10583.90
425.45	10656.46
425.64	10724.33
425.83	10874.13
426.01	11335.21
426.20	11349.26
426.39	11522.46
426.58	10307.72
426.77	9696.84
426.96	9584.49
427.15	10033.88
427.33	10738.38
427.52	10839.02
427.71	11056.69
427.90	10967.75
428.09	10785.19
428.28	10483.26
428.46	10298.36
428.65	10265.59
428.84	10506.66
429.03	10637.73
429.22	9994.09
429.40	9406.61
429.59	8578.06
429.78	7705.04
429.97	7683.98
430.16	7798.66
430.34	7761.22
430.53	7812.71
430.72	8170.81
430.91	9298.95
431.10	11377.34
431.28	12580.38
431.47	13357.44
431.66	13284.88
431.85	11690.98
432.03	11145.63
432.22	10806.25
432.41	11616.08
432.60	12402.50
432.79	12929.12
432.97	13415.95
433.16	12652.94
433.35	11655.87
433.54	10150.90
433.72	10059.62
433.91	10490.28
434.10	11772.89
434.28	12449.31
434.47	13099.98
434.66	12458.67
434.85	12514.84
435.03	12477.40
435.22	12863.58
435.41	13277.86
435.59	13425.31
435.78	13401.91
435.97	13858.31
436.16	14204.71
436.34	13851.29
436.53	13589.15
436.72	13792.78
436.90	12727.83
437.09	13032.10
437.28	12762.94
437.46	12926.78
437.65	12891.67
437.84	11695.66
438.02	11255.64
438.21	11367.98
438.40	11740.13
438.58	12926.78
438.77	13301.26
438.96	13261.48
439.14	13902.78
439.33	13970.66
439.52	14113.43
439.70	13556.38
439.89	13399.57
440.08	13081.25
440.26	13334.03
440.45	13769.37
440.63	14932.62
440.82	15302.42
441.01	15183.06
441.19	15047.30
441.38	15515.41
441.57	15857.13
441.75	15997.56
441.94	16184.80
442.12	15943.73
442.31	16367.37
442.50	16400.13
442.68	15786.91
442.87	16140.33
443.05	15609.03
443.24	16025.65
443.43	16425.88
443.61	16620.14
443.80	16919.73
443.98	15859.47
444.17	16018.63
444.35	16678.66
444.54	16992.29
444.73	16847.18
444.91	15983.52
445.10	15398.38
445.28	14609.62
445.47	14602.60
445.65	14523.02
445.84	15272.00
446.02	15805.64
446.21	16374.39
446.39	16149.70
446.58	16159.06
446.77	16613.12
446.95	16739.51
447.14	17043.78
447.32	17418.27
447.51	16437.58
447.69	16088.84
447.88	16201.19
448.06	16695.04
448.25	16531.20
448.43	16837.81
448.62	16596.74
448.80	16343.96
448.99	16027.99
449.17	16702.06
449.36	16575.67
449.54	17446.35
449.73	17586.79
449.91	17731.90
450.10	18445.76
450.28	18574.49
450.46	18675.13
450.65	18618.96
450.83	18134.47
451.02	17980.00
451.20	17919.14
451.39	17790.41
451.57	17610.19
451.76	17806.80
451.94	17275.49
452.13	17439.33
452.31	16018.63
452.49	15262.63
452.68	15910.96
452.86	15786.91
453.05	16210.55
453.23	16893.99
453.42	17209.96
453.60	17516.57
453.78	17774.03
453.97	17523.59
454.15	17167.83
454.34	16652.91
454.52	17013.35
454.70	16741.85
454.89	17060.16
455.07	17025.06
455.26	17228.68
455.44	18087.66
455.62	18200.01
455.81	18363.84
455.99	17968.29
456.17	18010.42
456.36	18349.80
456.54	18625.98
456.73	18349.80
456.91	18658.75
457.09	19087.07
457.28	19435.81
457.46	18438.74
457.64	18174.26
457.83	17895.74
458.01	17319.96
458.19	18129.79
458.38	18333.42
458.56	18604.92
458.74	18649.39
458.93	18099.36
459.11	18246.82
459.29	17628.92
459.48	17797.43
459.66	17598.49
459.84	18611.94
460.03	18588.53
460.21	18588.53
460.39	19700.29
460.57	19220.48
460.76	19075.37
460.94	19204.10
461.12	18977.06
461.31	18780.46
461.49	19234.52
461.67	19173.67
461.85	19234.52
462.04	19800.93
462.22	19782.21
462.40	19927.32
462.59	19419.42
462.77	19433.47
462.95	19499.00
463.13	19452.19
463.32	18974.72
463.50	18794.50
463.68	18855.36
463.86	19185.37
464.05	18649.39
464.23	18485.55
464.41	18068.94
464.59	17851.27
464.78	19314.10
464.96	19215.80
465.14	18635.35
465.32	18913.87
465.50	19538.79
465.69	19826.68
465.87	19330.48
466.05	18834.29
466.23	17935.53
466.41	17673.39
466.60	18579.17
466.78	18246.82
466.96	18689.18
467.14	18689.18
467.32	18960.68
467.51	19014.51
467.69	18146.17
467.87	18597.90
468.05	19054.30
468.23	19058.98
468.41	18944.30
468.60	19005.15
468.78	19220.48
468.96	18705.56
469.14	19248.57
469.32	19468.58
469.50	18384.91
469.69	18513.64
469.87	18029.15
470.05	18429.38
470.23	18494.91
470.41	18490.23
470.59	18527.68
470.77	18862.38
470.95	19325.80
471.14	19482.62
471.32	19353.89
471.50	20423.51
471.68	20601.40
471.86	20664.59
472.04	20774.60
472.22	20755.87
472.40	19545.81
472.58	19456.87
472.77	19143.24
472.95	19632.41
473.13	20699.70
473.31	19742.42
473.49	20016.26
473.67	20374.36
473.85	20620.12
474.03	20922.05
474.21	21254.40
474.39	21537.61
474.57	21294.19
474.75	21792.73
474.93	21144.40
475.12	20821.41
475.30	20795.66
475.48	20400.11
475.66	20414.15
475.84	20872.90
476.02	20524.16
476.20	19990.52
476.38	21401.86
476.56	21392.50
476.74	21933.16
476.92	22050.19
477.10	22010.40
477.28	22960.66
477.46	22223.39
477.64	22771.07
477.82	23063.64
478.00	23660.48
478.18	22831.93
478.36	22885.76
478.54	23058.96
478.72	23157.26
478.90	23875.80
479.08	24704.35
479.26	24025.60
479.44	23915.59
479.62	24257.31
479.80	24346.25
479.98	24772.23
480.16	24636.48
480.34	24322.85
480.52	24446.90
480.70	25537.59
480.88	24856.49
481.06	25483.75
481.24	25472.05
481.41	25757.60
481.59	26218.68
481.77	26195.28
481.95	26134.42
482.13	26089.95
482.31	26328.69
482.49	26965.31
482.67	26590.83
482.85	26735.94
483.03	27613.64
483.21	27234.47
483.39	27508.32
483.57	26209.32
483.74	25869.94
483.92	26305.28
484.10	26312.30
484.28	26969.99
484.46	27864.08
484.64	27449.80
484.82	26855.31
485.00	26817.86
485.18	25848.88
485.35	24821.38
485.53	22361.48
485.71	21018.01
485.89	21242.70
486.07	22408.29
486.25	24566.26
486.43	26075.91
486.61	25865.26
486.78	26443.37
486.96	26637.64
487.14	27990.47
487.32	27641.73
487.50	28849.44
487.68	29111.58
487.85	30251.42
488.03	29951.84
488.21	30064.18
488.39	29095.20
488.57	28322.82
488.75	28697.31
488.92	29851.19
489.10	31431.05
489.28	32222.16
489.46	33092.83
489.64	32744.09
489.81	32996.87
489.99	32435.14
490.17	33062.41
490.35	33116.24
490.53	32205.77
490.70	31765.75
490.88	31999.80
491.06	32985.17
491.24	32617.71
491.41	31208.70
491.59	29790.34
491.77	29158.39
491.95	31288.28
492.13	32610.68
492.30	33357.32
492.48	34387.15
492.66	35047.18
492.84	34312.25
493.01	34108.63
493.19	33706.05
493.37	33771.59
493.54	33724.78
493.72	34939.52
493.90	34930.16
494.08	35281.24
494.25	36542.78
494.43	36657.47
494.61	36741.73
494.79	36992.17
494.96	36638.75
495.14	35541.03
495.32	35152.51
495.49	35234.42
495.67	36072.34
495.85	37514.11
496.02	37757.52
496.20	37282.39
496.38	36495.97
496.55	37003.87
496.73	37200.47
496.91	37542.19
497.09	38188.18
497.26	38532.24
497.44	37415.80
497.62	36376.61
497.79	35924.88
497.97	34763.98
498.14	35534.01
498.32	37556.24
498.50	37872.21
498.67	37933.06
498.85	38211.59
499.03	38689.06
499.20	38850.55
499.38	39033.11
499.56	38789.70
499.73	37345.59
499.91	36168.30
500.08	35695.51
500.26	35220.38
500.44	35653.38
500.61	36924.29
500.79	36786.20
500.97	36006.80
501.14	35744.66
501.32	35140.80
501.49	35903.82
501.67	36629.38
501.84	36833.01
502.02	37256.65
502.20	37399.42
502.37	38253.72
502.55	38057.11
502.72	38883.32
502.90	38866.94
503.07	38216.27
503.25	37390.06
503.43	36189.36
503.60	36027.87
503.78	35360.81
503.95	36549.81
504.13	38246.69
504.30	39159.50
504.48	38316.91
504.65	37720.07
504.83	37855.82
505.01	38649.27
505.18	38817.78
505.36	39531.65
505.53	40289.98
505.71	40816.60
505.88	41916.65
506.06	40165.93
506.23	39770.38
506.41	39838.26
506.58	40271.26
506.76	39435.69
506.93	38983.96
507.11	38597.77
507.28	38352.02
507.46	38831.83
507.63	37858.17
507.81	37146.64
507.98	37425.17
508.16	39133.76
508.33	39866.34
508.50	40002.10
508.68	40376.58
508.85	41106.83
509.03	41097.47
509.20	40636.38
509.38	38623.52
509.55	38733.53
509.73	39199.29
509.90	39934.22
510.08	38892.68
510.25	39047.16
510.42	38754.59
510.60	39646.33
510.77	40423.39
510.95	41794.95
511.12	40933.63
511.30	42164.75
511.47	41008.53
511.64	41256.62
511.82	40266.58
511.99	39255.46
512.17	39400.58
512.34	39093.97
512.51	38787.36
512.69	38141.37
512.86	39098.65
513.04	40587.23
513.21	39990.39
513.38	38628.20
513.56	37287.07
513.73	37017.91
513.90	37727.10
514.08	37818.38
514.25	38806.08
514.43	38546.28
514.60	38476.07
514.77	38611.82
514.95	40079.33
515.12	39526.97
515.29	39037.80
515.47	39732.93
515.64	40807.24
515.81	40259.55
515.99	38335.63
516.16	35791.47
516.33	33762.23
516.51	33373.70
516.68	31761.07
516.85	31292.96
517.03	32491.32
517.20	35978.72
517.37	39026.09
517.54	38965.24
517.72	37612.41
517.89	34686.74
518.06	33237.95
518.24	33755.21
518.41	36060.63
518.58	38342.66
518.75	38995.67
518.93	37904.98
519.10	38316.91
519.27	38195.20
519.45	39126.74
519.62	39199.29
519.79	39325.68
519.96	39875.71
520.14	38808.42
520.31	37776.25
520.48	38148.39
520.65	38501.81
520.83	40774.47
521.00	40451.48
521.17	39304.62
521.34	40020.82
521.52	40030.18
521.69	40385.94
521.86	40715.96
522.03	39887.41
522.20	38567.35
522.38	37928.38
522.55	38171.80
522.72	38445.64
522.89	38361.38
523.07	39037.80
523.24	38890.34
523.41	40587.23
523.58	40175.30
523.75	40699.58
523.92	41322.16
524.10	41148.96
524.27	41542.17
524.44	41228.54
524.61	39981.03
524.78	40191.68
524.96	39501.22
525.13	39351.43
525.30	40554.46
525.47	41069.38
525.64	41600.68
525.81	38897.36
525.98	37420.48
526.16	36460.87
526.33	34649.29
526.50	33785.63
526.67	33415.83
526.84	35491.88
527.01	36964.08
527.18	38417.55
527.36	39257.81
527.53	39482.50
527.70	39864.00
527.87	39103.33
528.04	39849.96
528.21	39847.62
528.38	41794.95
528.55	42321.57
528.72	42777.97
528.89	42525.19
529.07	41734.09
529.24	39711.87
529.41	39351.43
529.58	39529.31
529.75	39278.87
529.92	40701.92
530.09	41125.55
530.26	41493.02
530.43	41883.89
530.60	41638.13
530.77	41551.53
530.94	41607.70
531.11	40701.92
531.28	40247.85
531.46	40088.70
531.63	39971.67
531.80	39938.90
531.97	38321.59
532.14	37965.83
532.31	36554.49
532.48	37436.87
532.65	37343.25
532.82	37656.88
532.99	39845.28
533.16	40055.93
533.33	40102.74
533.50	38204.56
533.67	38955.88
533.84	39611.23
534.01	39023.75
534.18	39557.39
534.35	40491.27
534.52	38625.86
534.69	40947.67
534.86	40364.88
535.03	39901.45
535.20	41064.70
535.37	41872.18
535.54	42199.86
535.71	41579.62
535.88	40823.62
536.05	39573.78
536.22	39859.32
536.38	39147.80
536.55	37230.90
536.72	37797.31
536.89	37479.00
537.06	37886.25
537.23	40423.39
537.40	40350.84
537.57	40191.68
537.74	39999.76
537.91	40250.19
538.08	39351.43
538.25	38761.61
538.42	40037.20
538.59	39533.99
538.75	38192.86
538.92	38401.17
539.09	38408.19
539.26	38574.37
539.43	38309.89
539.60	37677.94
539.77	39777.40
539.94	38054.77
540.11	36449.16
540.28	36030.21
540.44	36151.91
540.61	37392.40
540.78	38621.18
540.95	39091.63
541.12	38284.14
541.29	38852.89
541.46	38705.44
541.62	39526.97
541.79	39686.12
541.96	39164.18
542.13	37493.04
542.30	37361.97
542.47	37926.04
542.63	37722.41
542.80	37574.96
542.97	38249.03
543.14	37647.52
543.31	38330.95
543.48	38742.89
543.64	38918.43
543.81	39880.39
543.98	39875.71
544.15	38555.64
544.32	37839.44
544.48	38976.94
544.65	39313.98
544.82	39660.38
544.99	38124.99
545.16	38190.52
545.32	38335.63
545.49	39620.59
545.66	38705.44
545.83	38059.45
546.00	38211.59
546.16	38188.18
546.33	38689.06
546.50	38281.80
546.67	39512.92
546.83	38267.76
547.00	37851.14
547.17	36961.74
547.34	36430.44
547.50	37160.69
547.67	37986.89
547.84	37544.53
548.00	38342.66
548.17	38085.20
548.34	38036.05
548.51	37991.58
548.67	38972.26
548.84	39225.04
549.01	39171.21
549.18	38574.37
549.34	38043.07
549.51	38146.05
549.68	38618.84
549.84	38576.71
550.01	37591.34
550.18	37663.90
550.34	36992.17
550.51	37378.36
550.68	37633.47
550.84	37523.47
551.01	37663.90
551.18	37865.19
551.34	38422.23
551.51	37904.98
551.68	38267.76
551.84	39100.99
552.01	38686.71
552.18	37689.65
552.34	37048.34
552.51	37343.25
552.68	37628.79
552.84	38171.80
553.01	36891.52
553.18	37069.40
553.34	37230.90
553.51	37977.53
553.67	37633.47
553.84	37361.97
554.01	37736.46
554.17	37486.02
554.34	37771.57
554.51	36978.12
554.67	37139.62
554.84	38204.56
555.00	37759.86
555.17	37640.50
555.33	36996.85
555.50	37273.03
555.67	36884.50
555.83	35559.76
556.00	34597.80
556.16	36149.57
556.33	35056.54
556.50	36538.10
556.66	36566.19
556.83	37366.65
556.99	36395.33
557.16	36254.90
557.32	36098.08
557.49	36793.22
557.65	36680.88
557.82	37055.36
557.98	36301.71
558.15	36404.69
558.32	35800.83
558.48	33914.36
558.65	33851.17
558.81	33476.68
558.98	34096.92
559.14	35072.93
559.31	36180.00
559.47	34958.24
559.64	34155.44
559.80	32484.30
559.97	34356.72
560.13	35707.21
560.30	35739.98
560.46	37273.03
560.63	37640.50
560.79	37762.20
560.96	35959.99
561.12	34630.57
561.29	33905.00
561.45	33233.27
561.61	33797.34
561.78	34651.63
561.94	35243.79
562.11	34644.61
562.27	35990.42
562.44	35548.06
562.60	36540.44
562.77	36437.46
562.93	35601.89
563.10	34345.02
563.26	34415.24
563.42	34899.73
563.59	34160.12
563.75	33851.17
563.92	34227.99
564.08	34845.90
564.24	34185.86
564.41	34244.38
564.57	35381.88
564.74	34134.37
564.90	34029.05
565.07	33813.72
565.23	32673.88
565.39	33048.36
565.56	32968.79
565.72	32673.88
565.88	32350.88
566.05	33111.56
566.21	34724.19
566.38	32980.49
566.54	33743.50
566.70	33844.15
566.87	34721.85
567.03	33598.39
567.19	33582.01
567.36	34298.21
567.52	33682.65
567.68	33684.99
567.85	32587.28
568.01	31903.84
568.17	32683.24
568.34	33638.18
568.50	33214.54
568.66	33907.34
568.83	33935.43
568.99	33120.92
569.15	33507.11
569.32	33713.08
569.48	32994.53
569.64	32608.34
569.81	32982.83
569.97	32673.88
570.13	33179.43
570.30	32591.96
570.46	31784.48
570.62	31040.18
570.78	31288.28
570.95	32240.88
571.11	32446.85
571.27	32959.42
571.43	32730.05
571.60	32332.16
571.76	32879.85
571.92	33174.75
572.09	32711.33
572.25	33617.11
572.41	34455.03
572.57	34651.63
572.74	34532.26
572.90	33624.14
573.06	33104.54
573.22	32191.73
573.38	31969.38
573.55	32503.02
573.71	31737.66
573.87	32100.45
574.03	32334.50
574.20	32519.40
574.36	32521.74
574.52	33184.12
574.68	31519.99
574.84	31028.48
575.01	31075.29
575.17	31360.84
575.33	31941.29
575.49	31065.93
575.65	31557.44
575.82	31908.52
575.98	30904.43
576.14	30946.56
576.30	31143.17
576.46	31456.80
576.62	31913.20
576.79	31850.01
576.95	31328.07
577.11	30115.67
577.27	30866.98
577.43	31566.81
577.59	31012.10
577.75	30934.86
577.92	29991.62
578.08	29216.91
578.24	30536.97
578.40	30251.42
578.56	30181.21
578.72	30773.36
578.88	30373.13
579.04	30759.32
579.21	30518.25
579.37	30611.87
579.53	31821.92
579.69	32437.48
579.85	31419.35
580.01	31105.72
580.17	30370.79
580.33	30553.35
580.49	31054.23
580.65	29883.96
580.82	30403.56
580.98	30728.89
581.14	31461.48
581.30	30459.73
581.46	30728.89
581.62	30764.00
581.78	30923.16
581.94	31459.14
582.10	31620.64
582.26	31360.84
582.42	31398.29
582.58	30967.63
582.74	31189.98
582.90	31199.34
583.06	31393.61
583.22	30852.94
583.38	31318.71
583.54	30972.31
583.70	30902.09
583.86	30962.95
584.02	30972.31
584.18	30824.86
584.34	31054.23
584.50	30717.19
584.66	30115.67
584.82	30075.88
584.98	30799.11
585.14	29717.78
585.30	29589.05
585.46	29556.28
585.62	29048.39
585.78	29406.49
585.94	29511.81
586.10	28980.51
586.26	29006.26
