SpectraSuite Data File
++++++++++++++++++++++++++++++++++++
Date: Mon Oct 07 14:53:36 GMT-05:00 2013
User: price-jones
Dark Spectrum Present: No
Reference Spectrum Present: No
Number of Sampled Component Spectra: 1
Spectrometers: USB2+H05261
Integration Time (usec): 100000 (USB2+H05261)
Spectra Averaged: 1 (USB2+H05261)
Boxcar Smoothing: 0 (USB2+H05261)
Correct for Electrical Dark: No (USB2+H05261)
Strobe/Lamp Enabled: No (USB2+H05261)
Correct for Detector Non-linearity: No (USB2+H05261)
Correct for Stray Light: No (USB2+H05261)
Number of Pixels in Processed Spectrum: 2048
>>>>>Begin Processed Spectral Data<<<<<
365.73	0.00
365.92	0.00
366.12	0.00
366.32	0.00
366.52	0.00
366.72	0.00
366.91	0.00
367.11	0.00
367.31	0.00
367.51	0.00
367.70	0.00
367.90	0.00
368.10	0.00
368.30	0.00
368.49	0.00
368.69	0.00
368.89	0.00
369.09	0.00
369.28	0.00
369.48	0.00
369.68	0.00
369.87	0.00
370.07	0.00
370.27	0.00
370.47	730.25
370.66	3552.93
370.86	4210.62
371.06	4660.01
371.25	4727.88
371.45	4257.43
371.65	3838.48
371.84	3543.57
372.04	3765.92
372.24	4065.51
372.44	4456.38
372.63	4463.40
372.83	3943.80
373.03	3555.27
373.22	3316.54
373.42	3431.23
373.62	3824.44
373.81	4503.19
374.01	4182.54
374.21	3999.98
374.40	3578.68
374.60	3660.60
374.79	4229.35
374.99	4926.83
375.19	5308.34
375.38	5247.48
375.58	4950.23
375.78	4945.55
375.97	4858.95
376.17	5261.52
376.37	5130.45
376.56	5266.21
376.76	5643.03
376.95	5991.77
377.15	6413.07
377.35	6642.44
377.54	6963.09
377.74	6953.73
377.93	7091.82
378.13	6946.71
378.33	6539.46
378.52	6036.24
378.72	5816.23
378.91	5806.87
379.11	5816.23
379.31	5359.83
379.50	5364.51
379.70	5680.48
379.89	6312.42
380.09	6911.60
380.28	7068.42
380.48	6822.66
380.68	6698.61
380.87	6799.26
381.07	6267.95
381.26	5565.79
381.46	5500.26
381.65	5118.75
381.85	5217.05
382.04	4767.67
382.24	4461.06
382.43	4177.86
382.63	4219.99
382.83	4234.03
383.02	4257.43
383.22	4177.86
383.41	4308.93
383.61	4660.01
383.80	5027.47
384.00	5863.04
384.19	6534.78
384.39	6843.73
384.58	6885.86
384.78	6654.14
384.97	6803.94
385.17	6394.34
385.36	6127.52
385.56	5781.12
385.75	6057.31
385.95	6502.01
386.14	7171.40
386.34	6974.80
386.53	6810.96
386.72	6375.62
386.92	6317.11
387.11	6698.61
387.31	7023.95
387.50	7033.31
387.70	6700.95
387.89	6761.81
388.09	6626.06
388.28	6782.87
388.48	7007.56
388.67	7328.22
388.86	8095.91
389.06	8643.60
389.25	9123.41
389.45	9277.88
389.64	9128.09
389.84	9165.54
390.03	9020.42
390.22	8957.23
390.42	9263.84
390.61	9919.19
390.81	10506.66
391.00	10614.33
391.19	10693.91
391.39	10291.34
391.58	9687.48
391.78	9188.94
391.97	8610.83
392.16	8196.56
392.36	7541.21
392.55	5989.43
392.75	4903.42
392.94	3913.38
393.13	3833.80
393.33	4489.15
393.52	5879.43
393.71	7297.79
393.91	8032.72
394.10	8833.18
394.29	9451.08
394.49	10558.16
394.68	11239.25
394.88	11246.27
395.07	11674.59
395.26	11606.72
395.46	11070.73
395.65	10382.62
395.84	9158.52
396.04	7779.94
396.23	6207.10
396.42	5188.97
396.62	5057.90
396.81	6113.48
397.00	7573.97
397.19	9465.13
397.39	11281.38
397.58	12650.60
397.77	13507.23
397.97	13860.65
398.16	14284.29
398.35	14443.45
398.55	14949.00
398.74	15630.10
398.93	16119.27
399.12	16049.05
399.32	15328.17
399.51	15494.35
399.70	16346.30
399.90	16287.79
400.09	16240.98
400.28	16233.96
400.47	16475.03
400.67	17418.27
400.86	17788.07
401.05	17855.95
401.24	17626.57
401.44	18127.45
401.63	18150.85
401.82	18108.72
402.01	18277.24
402.21	18338.10
402.40	18567.47
402.59	17872.33
402.78	17226.34
402.97	16643.55
403.17	17387.84
403.36	18230.43
403.55	18916.21
403.74	19112.81
403.93	18391.93
404.13	16840.15
404.32	16961.86
404.51	17394.86
404.70	18518.32
404.89	18759.39
405.09	18614.28
405.28	18036.17
405.47	17767.01
405.66	17975.31
405.85	17563.38
406.05	17057.82
406.24	17116.34
406.43	18047.87
406.62	18799.18
406.81	18829.61
407.00	18349.80
407.20	17783.39
407.39	17680.41
407.58	18611.94
407.77	19014.51
407.96	19644.12
408.15	20030.30
408.34	20065.41
408.54	21015.67
408.73	21317.60
408.92	20807.36
409.11	20299.47
409.30	19316.44
409.49	18157.88
409.68	17116.34
409.87	16552.27
410.07	17467.42
410.26	18977.06
410.45	20231.59
410.64	20884.60
410.83	21228.66
411.02	21549.31
411.21	22860.01
411.40	22345.09
411.59	22951.29
411.78	22284.24
411.98	21776.34
412.17	22153.17
412.36	21769.32
412.55	21996.35
412.74	21537.61
412.93	21102.27
413.12	21411.22
413.31	23255.56
413.50	23435.78
413.69	23688.56
413.88	23054.28
414.07	22214.02
414.26	22878.74
414.45	23157.26
414.64	23543.45
414.83	23817.29
415.02	23438.12
415.22	22733.62
415.41	23758.78
415.60	24109.86
415.79	25418.22
415.98	25944.84
416.17	25518.86
416.36	25184.16
416.55	25212.25
416.74	24161.35
416.93	23328.12
417.12	23435.78
417.31	23992.83
417.50	24545.20
417.69	24886.92
417.88	25041.39
418.07	24610.73
418.26	24257.31
418.45	24156.67
418.64	25111.61
418.83	26038.46
419.02	25891.01
419.21	25462.69
419.39	24484.34
419.58	23229.82
419.77	23264.92
419.96	24423.49
420.15	25509.50
420.34	26438.69
420.53	27812.59
420.72	27843.01
420.91	27410.01
421.10	27737.69
421.29	27199.37
421.48	26199.96
421.67	27548.11
421.86	26649.34
422.05	25008.62
422.24	22246.79
422.43	21886.35
422.61	24318.17
422.80	26452.73
422.99	26649.34
423.18	25848.88
423.37	24919.68
423.56	25411.20
423.75	25659.29
423.94	25888.67
424.13	25090.54
424.32	25137.35
424.50	25301.19
424.69	24783.93
424.88	25071.82
425.07	24503.07
425.26	24673.93
425.45	24409.45
425.64	24053.69
425.83	23763.46
426.01	25348.00
426.20	26026.76
426.39	25806.75
426.58	24002.19
426.77	22279.56
426.96	21280.15
427.15	22331.05
427.33	23754.10
427.52	25230.98
427.71	25029.69
427.90	24800.32
428.09	24676.27
428.28	24297.10
428.46	23033.21
428.65	22941.93
428.84	23180.67
429.03	23838.36
429.22	22827.24
429.40	21523.57
429.59	19744.76
429.78	17076.55
429.97	17022.72
430.16	17378.48
430.34	17612.53
430.53	17446.35
430.72	17884.03
430.91	19414.74
431.10	23164.28
431.28	27302.35
431.47	29816.08
431.66	29890.98
431.85	27463.85
432.03	25282.47
432.22	24058.37
432.41	25310.55
432.60	27318.73
432.79	28795.61
432.97	29710.76
433.16	29090.52
433.35	26609.55
433.54	24006.87
433.72	22427.01
433.91	22948.95
434.10	25844.20
434.28	27461.51
434.47	28964.13
434.66	28388.36
434.85	27414.69
435.03	27615.98
435.22	27971.74
435.41	30040.78
435.59	29750.55
435.78	30459.73
435.97	31136.15
436.16	31604.25
436.34	31033.16
436.53	30087.59
436.72	30373.13
436.90	28886.89
437.09	28716.03
437.28	28128.56
437.46	29144.35
437.65	29029.66
437.84	27374.91
438.02	25415.88
438.21	24549.88
438.40	26073.57
438.58	28236.22
438.77	28659.86
438.96	29340.96
439.14	30307.60
439.33	31852.35
439.52	31517.65
439.70	31119.76
439.89	30576.76
440.08	29736.51
440.26	29109.24
440.45	30031.41
440.63	32245.56
440.82	34150.76
441.01	33912.02
441.19	33277.74
441.38	33549.24
441.57	35515.29
441.75	35538.69
441.94	35622.95
442.12	35557.42
442.31	35985.74
442.50	35997.44
442.68	35866.37
442.87	35938.93
443.05	34986.33
443.24	34993.35
443.43	35873.39
443.61	36811.95
443.80	36849.39
443.98	35185.27
444.17	35049.52
444.35	37390.06
444.54	37780.93
444.73	37385.38
444.91	35882.75
445.10	34485.45
445.28	32938.36
445.47	32109.81
445.65	32643.45
445.84	33191.14
446.02	34742.91
446.21	35608.91
446.39	35196.98
446.58	35765.73
446.77	36313.41
446.95	36985.15
447.14	37684.97
447.32	38171.80
447.51	37581.98
447.69	35700.19
447.88	35517.63
448.06	36074.68
448.25	36910.25
448.43	36957.06
448.62	36627.04
448.80	36203.41
448.99	36627.04
449.17	37024.93
449.36	36720.66
449.54	37830.08
449.73	38548.62
449.91	39091.63
450.10	40023.16
450.28	40425.73
450.46	40568.51
450.65	40402.33
450.83	40287.64
451.02	39159.50
451.20	39374.83
451.39	39299.94
451.57	39091.63
451.76	38595.43
451.94	38660.97
452.13	38354.36
452.31	36503.00
452.49	34876.32
452.68	34902.07
452.86	34925.47
453.05	35482.52
453.23	36648.11
453.42	37446.23
453.60	38583.73
453.78	38897.36
453.97	38199.88
454.15	38600.12
454.34	37516.45
454.52	37907.32
454.70	37067.06
454.89	37083.45
455.07	37219.20
455.26	37935.40
455.44	39264.83
455.62	39889.75
455.81	40561.48
455.99	40100.40
456.17	39473.13
456.36	39590.16
456.54	40741.71
456.73	40685.53
456.91	41729.41
457.09	41310.46
457.28	42363.70
457.46	40917.25
457.64	40481.91
457.83	39185.25
458.01	38520.54
458.19	39423.98
458.38	39915.50
458.56	40877.46
458.74	40917.25
458.93	40271.26
459.11	40289.98
459.29	39782.09
459.48	40205.72
459.66	39711.87
459.84	40355.52
460.03	40795.54
460.21	40678.51
460.39	41689.62
460.57	41450.89
460.76	42078.15
460.94	42625.84
461.12	41553.87
461.31	41755.16
461.49	41413.44
461.67	41748.14
461.85	42946.49
462.04	42815.42
462.22	43311.61
462.40	42684.35
462.59	42815.42
462.77	42541.58
462.95	42724.14
463.13	42412.85
463.32	42183.48
463.50	41097.47
463.68	41184.07
463.86	42087.51
464.05	40959.38
464.23	40484.25
464.41	40179.98
464.59	39194.61
464.78	41141.94
464.96	41174.70
465.14	40519.35
465.32	42099.22
465.50	42513.49
465.69	43105.65
465.87	42417.53
466.05	41415.78
466.23	39845.28
466.41	38436.28
466.60	39941.24
466.78	39477.82
466.96	40367.22
467.14	41085.76
467.32	41682.60
467.51	42036.02
467.69	39835.92
467.87	40643.40
468.05	41689.62
468.23	41312.80
468.41	41165.34
468.60	41521.10
468.78	41942.40
468.96	41455.57
469.14	42405.83
469.32	42450.30
469.50	40690.21
469.69	40891.50
469.87	40414.03
470.05	40374.24
470.23	40294.66
470.41	40355.52
470.59	40889.16
470.77	41078.74
470.95	41961.12
471.14	42270.08
471.32	42548.60
471.50	44343.79
471.68	44701.89
471.86	44926.58
472.04	45132.55
472.22	45123.19
472.40	43452.05
472.58	43222.67
472.77	42344.97
472.95	43379.49
473.13	44107.40
473.31	42976.92
473.49	43807.81
473.67	44109.74
473.85	44652.74
474.03	45563.21
474.21	45415.76
474.39	45839.39
474.57	46113.23
474.75	46508.79
474.93	46078.13
475.12	44935.95
475.30	44868.07
475.48	45340.86
475.66	45916.63
475.84	45387.67
476.02	44844.66
476.20	44488.90
476.38	45022.54
476.56	46178.77
476.74	47199.24
476.92	47152.43
477.10	47920.13
477.28	48413.98
477.46	48570.80
477.64	49378.28
477.82	49455.52
478.00	49216.78
478.18	48814.21
478.36	48388.24
478.54	48910.17
478.72	49102.10
478.90	49628.72
479.08	50438.54
479.26	51075.17
479.44	51363.06
479.62	50827.07
479.80	50997.93
479.98	51285.82
480.16	51419.23
480.34	50845.80
480.52	51480.08
480.70	51452.00
480.88	51346.67
481.06	52086.28
481.24	52458.43
481.41	53036.54
481.59	53654.44
481.77	53132.50
481.95	52917.17
482.13	52926.53
482.31	52781.42
482.49	53371.24
482.67	53036.54
482.85	53464.86
483.03	54038.29
483.21	53968.07
483.39	53993.82
483.57	53361.87
483.74	53364.21
483.92	53415.71
484.10	53663.80
484.28	54485.33
484.46	54890.24
484.64	55220.26
484.82	54298.09
485.00	53951.69
485.18	53385.28
485.35	52802.49
485.53	49970.44
485.71	46293.46
485.89	45429.80
486.07	47721.18
486.25	50672.60
486.43	52582.48
486.61	53251.87
486.78	52949.94
486.96	53244.85
487.14	54419.80
487.32	55105.57
487.50	56025.40
487.68	56427.98
487.85	57092.69
488.03	57118.43
488.21	56652.67
488.39	56254.78
488.57	55606.45
488.75	55089.19
488.92	56128.39
489.10	57937.62
489.28	59103.21
489.46	59664.94
489.64	59278.75
489.81	59465.99
489.99	59222.58
490.17	59196.83
490.35	59405.14
490.53	59231.94
490.70	58871.49
490.88	58707.66
491.06	59491.74
491.24	59543.23
491.41	58880.86
491.59	57499.94
491.77	56802.46
491.95	57469.51
492.13	58520.41
492.30	59470.67
492.48	60261.77
492.66	60584.77
492.84	60720.52
493.01	60477.10
493.19	59922.40
493.37	59735.15
493.54	59590.04
493.72	59952.82
493.90	61010.74
494.08	61591.20
494.25	61792.48
494.43	61893.13
494.61	62209.10
494.79	62321.44
494.96	62162.29
495.14	61563.11
495.32	60870.31
495.49	60264.11
495.67	61209.69
495.85	62372.94
496.02	62913.60
496.20	62637.42
496.38	62117.82
496.55	62059.30
496.73	62520.39
496.91	62536.77
497.09	63370.00
497.26	63203.83
497.44	62749.76
497.62	62368.26
497.79	61942.28
497.97	60690.09
498.14	60727.54
498.32	61614.60
498.50	62513.37
498.67	63121.91
498.85	62831.68
499.03	63096.16
499.20	63213.19
499.38	63449.58
499.56	63072.76
499.73	62892.54
499.91	62248.89
500.08	61874.40
500.26	61048.19
500.44	61661.41
500.61	62389.32
500.79	61975.05
500.97	61703.54
501.14	61628.65
501.32	61623.96
501.49	61736.31
501.67	61677.80
501.84	62033.56
502.02	62443.15
502.20	62960.41
502.37	62845.72
502.55	63000.20
502.72	63269.36
502.90	63842.79
503.07	63660.23
503.25	63262.34
503.43	62606.99
503.60	61975.05
503.78	61200.33
503.95	61766.74
504.13	63054.03
504.30	63873.22
504.48	63463.63
504.65	63325.53
504.83	63068.08
505.01	63690.66
505.18	64034.72
505.36	64601.13
505.53	64598.79
505.71	64650.28
505.88	64767.30
506.06	64247.71
506.23	63999.61
506.41	63683.64
506.58	63922.37
506.76	63856.84
506.93	63978.54
507.11	63669.59
507.28	63894.28
507.46	63449.58
507.63	62873.81
507.81	62630.40
507.98	62887.85
508.16	63477.67
508.33	64013.65
508.50	64376.43
508.68	64488.78
508.85	64919.44
509.03	64900.71
509.20	64793.05
509.38	64163.45
509.55	63465.97
509.73	63597.04
509.90	64067.48
510.08	64357.71
510.25	64308.56
510.42	64055.78
510.60	63936.41
510.77	64315.58
510.95	64647.94
511.12	64853.90
511.30	65204.98
511.47	65429.68
511.64	65310.31
511.82	64975.61
511.99	64196.21
512.17	63842.79
512.34	63615.76
512.51	63685.98
512.69	63866.20
512.86	63992.59
513.04	64413.88
513.21	64404.52
513.38	64102.59
513.56	63758.53
513.73	63107.86
513.90	63285.75
514.08	63414.47
514.25	63639.17
514.43	63711.72
514.60	63824.07
514.77	63962.16
514.95	64027.70
515.12	64118.98
515.29	64217.28
515.47	64692.41
515.64	64898.37
515.81	64437.29
515.99	64196.21
516.16	62873.81
516.33	60825.84
516.51	59421.52
516.68	59009.59
516.85	58546.16
517.03	58946.39
517.20	61015.43
517.37	63236.59
517.54	64137.70
517.72	63779.60
517.89	61647.37
518.06	59693.02
518.24	59784.30
518.41	61645.03
518.58	62990.84
518.75	63056.37
518.93	63091.48
519.10	63182.76
519.27	63416.82
519.45	63606.40
519.62	64140.04
519.79	64587.08
519.96	64502.82
520.14	64076.85
520.31	63302.13
520.48	63278.72
520.65	63496.39
520.83	64453.67
521.00	64760.28
521.17	64474.74
521.34	63959.82
521.52	64313.24
521.69	64928.80
521.86	65169.88
522.03	65094.98
522.20	63894.28
522.38	63079.78
522.55	62815.30
522.72	63512.78
522.89	63585.33
523.07	63746.83
523.24	64140.04
523.41	64898.37
523.58	65094.98
523.75	65535.00
523.92	65427.34
524.10	65293.92
524.27	65410.95
524.44	65137.11
524.61	64973.27
524.78	64877.31
524.96	64615.17
525.13	64898.37
525.30	65085.62
525.47	65389.89
525.64	65219.03
525.81	64708.79
525.98	63538.52
526.16	62213.78
526.33	61666.09
526.50	61474.17
526.67	61279.91
526.84	61567.79
527.01	62386.98
527.18	63201.49
527.36	63845.13
527.53	64650.28
527.70	64984.97
527.87	64456.01
528.04	64046.42
528.21	64306.22
528.38	65083.28
528.55	65535.00
528.72	65535.00
528.89	65535.00
529.07	65535.00
529.24	65116.04
529.41	64582.40
529.58	63987.91
529.75	64055.78
529.92	64540.27
530.09	64786.03
530.26	65406.27
530.43	65530.32
530.60	65535.00
530.77	65535.00
530.94	65535.00
531.11	65535.00
531.28	65146.47
531.46	65017.74
531.63	65144.13
531.80	64956.89
531.97	64622.19
532.14	63880.24
532.31	63068.08
532.48	62721.68
532.65	62511.03
532.82	63278.72
532.99	64390.48
533.16	64444.31
533.33	65160.51
533.50	64816.46
533.67	64207.92
533.84	63868.54
534.01	64095.57
534.18	64360.05
534.35	64551.98
534.52	64182.17
534.69	64547.29
534.86	64818.80
535.03	65062.21
535.20	65350.10
535.37	65535.00
535.54	65535.00
535.71	65506.91
535.88	65340.74
536.05	64711.13
536.22	64308.56
536.38	64013.65
536.55	63678.96
536.72	63157.02
536.89	63072.76
537.06	63910.67
537.23	64659.64
537.40	64727.52
537.57	64933.48
537.74	64690.07
537.91	64610.49
538.08	64425.59
538.25	64495.80
538.42	64795.39
538.59	64755.60
538.75	64027.70
538.92	63964.50
539.09	63744.49
539.26	63646.19
539.43	63430.86
539.60	63489.37
539.77	63650.87
539.94	63559.59
540.11	63000.20
540.28	62429.11
540.44	62461.88
540.61	62679.55
540.78	62911.26
540.95	63330.22
541.12	63608.74
541.29	64062.80
541.46	64058.12
541.62	64051.10
541.79	64055.78
541.96	63360.64
542.13	63554.91
542.30	63744.49
542.47	63915.35
542.63	63573.63
542.80	63379.37
542.97	63590.01
543.14	63550.23
543.31	63463.63
543.48	64044.08
543.64	64610.49
543.81	64678.36
543.98	64736.88
544.15	64161.11
544.32	63550.23
544.48	63739.81
544.65	64039.40
544.82	64294.52
544.99	64179.83
545.16	63732.79
545.32	63529.16
545.49	64046.42
545.66	64645.60
545.83	64383.46
546.00	63884.92
546.16	63594.70
546.33	63669.59
546.50	63629.80
546.67	64079.19
546.83	63772.58
547.00	63882.58
547.17	63222.55
547.34	62653.80
547.50	62637.42
547.67	63238.93
547.84	63149.99
548.00	63655.55
548.17	63905.99
548.34	63753.85
548.51	63826.41
548.67	63674.27
548.84	63735.13
549.01	63910.67
549.18	63728.11
549.34	63714.06
549.51	63669.59
549.68	63547.89
549.84	63512.78
550.01	63332.56
550.18	63199.15
550.34	63358.30
550.51	63348.94
550.68	63487.03
550.84	63098.50
551.01	63145.31
551.18	63028.29
551.34	63192.12
551.51	63489.37
551.68	63767.90
551.84	63795.98
552.01	63650.87
552.18	63653.21
552.34	62927.64
552.51	62419.75
552.68	62492.30
552.84	62962.75
553.01	63103.18
553.18	62972.11
553.34	63164.04
553.51	63267.02
553.67	63501.07
553.84	63641.51
554.01	63379.37
554.17	63384.05
554.34	63320.85
554.51	63379.37
554.67	63683.64
554.84	63683.64
555.00	63147.65
555.17	63044.67
555.33	63028.29
555.50	63042.33
555.67	63056.37
555.83	62808.28
556.00	62822.32
556.16	62719.34
556.33	62321.44
556.50	62354.21
556.66	62363.57
556.83	61921.21
556.99	62024.20
557.16	62260.59
557.32	62529.75
557.49	62794.23
557.65	62630.40
557.82	62611.67
557.98	62562.52
558.15	61963.34
558.32	61410.98
558.48	60505.19
558.65	60928.83
558.81	61165.22
558.98	61455.45
559.14	61649.71
559.31	61666.09
559.47	61719.93
559.64	61361.82
559.80	60952.23
559.97	61076.28
560.13	61525.66
560.30	62305.06
560.46	62709.97
560.63	62979.14
560.79	63018.92
560.96	62618.69
561.12	61572.47
561.29	60865.63
561.45	60872.65
561.61	61492.89
561.78	61825.25
561.94	61731.63
562.11	61773.76
562.27	61350.12
562.44	61717.59
562.60	62124.84
562.77	62258.25
562.93	62049.94
563.10	62049.94
563.26	61415.66
563.42	61712.91
563.59	61418.00
563.75	61425.02
563.92	61443.74
564.08	61307.99
564.24	61513.96
564.41	61591.20
564.57	61661.41
564.74	61298.63
564.90	61340.76
565.07	61268.20
565.23	60903.08
565.39	60500.51
565.56	60207.94
565.72	60041.76
565.88	60362.42
566.05	60392.84
566.21	60757.97
566.38	60685.41
566.54	60814.14
566.70	61078.62
566.87	61296.29
567.03	61389.91
567.19	61446.08
567.36	61399.27
567.52	61172.24
567.68	61031.81
567.85	60329.65
568.01	60163.47
568.17	59884.95
568.34	59791.33
568.50	59887.29
568.66	60083.89
568.83	60254.75
568.99	60306.24
569.15	60498.17
569.32	60439.65
569.48	60247.73
569.64	60226.66
569.81	59760.90
569.97	59648.55
570.13	59597.06
570.30	59257.68
570.46	59126.61
570.62	58372.96
570.78	58220.83
570.95	58815.32
571.11	59288.11
571.27	59526.84
571.43	59784.30
571.60	59920.05
571.76	60069.85
571.92	60095.60
572.09	60446.68
572.25	60245.39
572.41	60060.49
572.57	60041.76
572.74	60301.56
572.90	59615.79
573.06	59924.74
573.22	59898.99
573.38	59756.22
573.55	59835.80
573.71	59845.16
573.87	59725.79
574.03	59587.70
574.20	59573.66
574.36	59316.20
574.52	59332.58
574.68	59475.35
574.84	58827.02
575.01	58738.08
575.17	58363.60
575.33	58794.26
575.49	58890.22
575.65	59040.01
575.82	58815.32
575.98	58553.18
576.14	58915.96
576.30	59121.93
576.46	59292.79
576.62	59084.48
576.79	59068.10
576.95	58808.30
577.11	58759.15
577.27	58841.07
577.43	59007.25
577.59	58592.97
577.75	58031.24
577.92	58082.73
578.08	57572.50
578.24	57733.99
578.40	58038.26
578.56	58071.03
578.72	58169.33
578.88	58183.38
579.04	58403.39
579.21	58487.65
579.37	58578.93
579.53	58684.25
579.69	58571.91
579.85	58721.70
580.01	58525.10
580.17	58358.92
580.33	58045.29
580.49	58328.49
580.65	58447.86
580.82	58621.06
580.98	58766.17
581.14	58422.11
581.30	58628.08
581.46	58141.25
581.62	58665.53
581.78	58684.25
581.94	58836.39
582.10	58602.33
582.26	58878.52
582.42	58646.80
582.58	58710.00
582.74	58712.34
582.90	58782.55
583.06	58599.99
583.22	58471.26
583.38	58384.66
583.54	58171.67
583.70	58157.63
583.86	58534.46
584.02	58489.99
584.18	58424.45
584.34	58223.17
584.50	58178.70
584.66	58164.65
584.82	57771.44
584.98	57757.40
585.14	57214.40
