SpectraSuite Data File
++++++++++++++++++++++++++++++++++++
Date: Mon Oct 07 14:53:24 GMT-05:00 2013
User: price-jones
Dark Spectrum Present: No
Reference Spectrum Present: No
Number of Sampled Component Spectra: 1
Spectrometers: USB2+H05261
Integration Time (usec): 100000 (USB2+H05261)
Spectra Averaged: 1 (USB2+H05261)
Boxcar Smoothing: 0 (USB2+H05261)
Correct for Electrical Dark: No (USB2+H05261)
Strobe/Lamp Enabled: No (USB2+H05261)
Correct for Detector Non-linearity: No (USB2+H05261)
Correct for Stray Light: No (USB2+H05261)
Number of Pixels in Processed Spectrum: 2048
>>>>>Begin Processed Spectral Data<<<<<
365.73	0.00
365.92	0.00
366.12	0.00
366.32	0.00
366.52	0.00
366.72	0.00
366.91	0.00
367.11	0.00
367.31	0.00
367.51	0.00
367.70	0.00
367.90	0.00
368.10	0.00
368.30	0.00
368.49	0.00
368.69	0.00
368.89	0.00
369.09	0.00
369.28	0.00
369.48	0.00
369.68	0.00
369.87	0.00
370.07	0.00
370.27	0.00
370.47	514.92
370.66	2935.03
370.86	3393.78
371.06	3679.32
371.25	3801.03
371.45	3412.50
371.65	3075.46
371.84	2803.96
372.04	2958.44
372.24	3454.63
372.44	3630.17
372.63	3466.33
372.83	3190.15
373.03	2836.73
373.22	2715.02
373.42	2818.00
373.62	3197.17
373.81	3489.74
374.01	3447.61
374.21	3171.43
374.40	2832.05
374.60	2930.35
374.79	3363.35
374.99	3880.61
375.19	4489.15
375.38	4379.14
375.58	3964.87
375.78	3957.85
375.97	4060.83
376.17	4044.45
376.37	4058.49
376.56	4334.67
376.76	4514.89
376.95	4739.58
377.15	5046.20
377.35	5275.57
377.54	5654.73
377.74	5678.14
377.93	5687.50
378.13	5584.52
378.33	5359.83
378.52	5011.09
378.72	4676.39
378.91	4610.86
379.11	4416.59
379.31	4407.23
379.50	4224.67
379.70	4531.28
379.89	5235.78
380.09	5425.36
380.28	5617.29
380.48	5626.65
380.68	5357.49
380.87	5369.19
381.07	5071.94
381.26	4638.94
381.46	4255.09
381.65	4159.13
381.85	4060.83
382.04	3826.78
382.24	3574.00
382.43	3398.46
382.63	3300.16
382.83	3372.71
383.02	3358.67
383.22	3435.91
383.41	3346.97
383.61	3672.30
383.80	4046.79
384.00	4699.80
384.19	5053.22
384.39	5645.37
384.58	5446.43
384.78	5397.28
384.97	5467.49
385.17	5069.60
385.36	4887.04
385.56	4737.24
385.75	4671.71
385.95	5214.71
386.14	5802.19
386.34	5846.66
386.53	5614.95
386.72	5046.20
386.92	5142.16
387.11	5430.04
387.31	5717.93
387.50	5659.42
387.70	5469.83
387.89	5352.81
388.09	5533.03
388.28	5380.89
388.48	5633.67
388.67	5841.98
388.86	6469.24
389.06	6988.84
389.25	7314.17
389.45	7449.93
389.64	7360.98
389.84	7288.43
390.03	7351.62
390.22	7304.81
390.42	7489.71
390.61	7913.35
390.81	8308.90
391.00	8631.90
391.19	8652.96
391.39	8203.58
391.58	7639.51
391.78	7281.41
391.97	7087.14
392.16	6537.12
392.36	6101.78
392.55	4849.59
392.75	3967.21
392.94	3178.45
393.13	3073.12
393.33	3571.66
393.52	4620.22
393.71	5856.02
393.91	6595.63
394.10	7084.80
394.29	7571.63
394.49	8222.30
394.68	9121.07
394.88	9322.35
395.07	9385.55
395.26	9256.82
395.46	8985.32
395.65	8264.43
395.84	7403.11
396.04	6057.31
396.23	4943.21
396.42	4337.01
396.62	4098.28
396.81	4814.48
397.00	6214.12
397.19	7456.95
397.39	9179.58
397.58	10293.68
397.77	10759.44
397.97	11129.25
398.16	11442.88
398.35	11707.36
398.55	11922.69
398.74	12479.74
398.93	12833.16
399.12	12662.30
399.32	12386.12
399.51	12425.90
399.70	13217.01
399.90	12926.78
400.09	13139.77
400.28	13076.57
400.47	13184.24
400.67	13692.13
400.86	14181.31
401.05	14073.64
401.24	14375.57
401.44	14539.41
401.63	14583.88
401.82	14614.30
402.01	14642.39
402.21	14867.08
402.40	14831.97
402.59	14455.15
402.78	13724.90
402.97	13212.32
403.17	13668.73
403.36	14611.96
403.55	15087.09
403.74	15604.35
403.93	14677.50
404.13	13731.92
404.32	13394.89
404.51	13893.42
404.70	15051.99
404.89	15005.17
405.09	14909.21
405.28	14640.05
405.47	14338.12
405.66	14438.76
405.85	13844.27
406.05	13628.94
406.24	13788.10
406.43	14228.12
406.62	14979.43
406.81	15152.63
407.00	14471.53
407.20	14127.47
407.39	14232.80
407.58	15176.03
407.77	15393.70
407.96	15976.50
408.15	16299.49
408.34	16269.06
408.54	16903.35
408.73	17060.16
408.92	16891.65
409.11	16458.65
409.30	15428.81
409.49	14553.45
409.68	13650.00
409.87	13207.64
410.07	14118.11
410.26	15180.71
410.45	16149.70
410.64	16456.31
410.83	16964.20
411.02	17584.44
411.21	17790.41
411.40	18022.12
411.59	18118.09
411.78	18150.85
411.98	17486.14
412.17	17942.55
412.36	17654.66
412.55	17579.76
412.74	17537.63
412.93	16957.18
413.12	16931.44
413.31	18483.21
413.50	18745.35
413.69	19372.61
413.88	18281.92
414.07	17954.25
414.26	18150.85
414.45	18822.59
414.64	19063.66
414.83	18775.78
415.02	18579.17
415.22	18302.99
415.41	19082.39
415.60	19513.05
415.79	20334.57
415.98	20886.94
416.17	20943.11
416.36	20355.64
416.55	20102.86
416.74	19281.33
416.93	18845.99
417.12	18593.22
417.31	18890.46
417.50	19105.79
417.69	19754.12
417.88	19524.75
418.07	19658.16
418.26	19606.67
418.45	19374.95
418.64	20273.72
418.83	20774.60
419.02	20634.16
419.21	20601.40
419.39	19194.73
419.58	18562.79
419.77	18707.90
419.96	19515.39
420.15	20676.29
420.34	21247.38
420.53	22115.72
420.72	22363.82
420.91	22127.42
421.10	21876.99
421.29	21432.29
421.48	20912.69
421.67	22050.19
421.86	21633.57
422.05	19997.54
422.24	17949.57
422.43	17561.04
422.61	19536.45
422.80	21294.19
422.99	21486.12
423.18	20577.99
423.37	19861.79
423.56	19854.76
423.75	20475.01
423.94	20758.21
424.13	19711.99
424.32	19908.60
424.50	20095.84
424.69	19807.95
424.88	20088.82
425.07	19733.06
425.26	19758.80
425.45	19475.60
425.64	18960.68
425.83	19300.06
426.01	20114.56
426.20	20788.64
426.39	20507.77
426.58	18850.67
426.77	17811.48
426.96	17357.41
427.15	17722.54
427.33	19035.58
427.52	20262.02
427.71	19932.00
427.90	19655.82
428.09	19562.20
428.28	18876.42
428.46	18850.67
428.65	18169.58
428.84	18820.25
429.03	19122.18
429.22	18272.56
429.40	17224.00
429.59	15412.43
429.78	13687.45
429.97	13577.45
430.16	13916.83
430.34	13923.85
430.53	14078.32
430.72	14345.14
430.91	15831.38
431.10	18754.71
431.28	21914.44
431.47	23714.31
431.66	23747.08
431.85	21921.46
432.03	20039.67
432.22	19117.50
432.41	19903.92
432.60	21926.14
432.79	22913.84
432.97	23417.06
433.16	22906.82
433.35	21057.80
433.54	18792.16
433.72	17977.65
433.91	18080.64
434.10	20514.80
434.28	22050.19
434.47	23058.96
434.66	22752.35
434.85	21610.17
435.03	21949.54
435.22	22548.72
435.41	23908.57
435.59	23885.17
435.78	24292.42
435.97	24662.22
436.16	24922.02
436.34	24723.08
436.53	24142.63
436.72	24074.75
436.90	23454.51
437.09	22759.37
437.28	22455.10
437.46	23330.46
437.65	23103.43
437.84	21481.44
438.02	19770.51
438.21	19709.65
438.40	20758.21
438.58	22572.13
438.77	23187.69
438.96	23637.07
439.14	24250.29
439.33	24971.18
439.52	25537.59
439.70	25081.18
439.89	23999.85
440.08	23573.88
440.26	23311.74
440.45	24360.30
440.63	25771.64
440.82	27573.85
441.01	26794.45
441.19	26618.91
441.38	26848.29
441.57	27901.53
441.75	28699.65
441.94	28460.91
442.12	28074.73
442.31	29017.96
442.50	28601.35
442.68	28758.16
442.87	27889.82
443.05	27789.18
443.24	28173.03
443.43	28882.21
443.61	29448.62
443.80	29532.88
443.98	28149.62
444.17	27931.95
444.35	29347.98
444.54	29954.18
444.73	29696.72
444.91	28657.52
445.10	27428.74
445.28	26321.66
445.47	25649.93
445.65	26183.57
445.84	26787.43
446.02	28002.17
446.21	27964.72
446.39	28276.01
446.58	28369.63
446.77	29347.98
446.95	29109.24
447.14	30260.79
447.32	30635.27
447.51	29982.26
447.69	28631.77
447.88	28283.03
448.06	28957.11
448.25	29287.12
448.43	29497.77
448.62	29249.67
448.80	28889.23
448.99	29490.75
449.17	29652.25
449.36	29139.67
449.54	30717.19
449.73	31351.48
449.91	31318.71
450.10	32268.97
450.28	32910.27
450.46	32652.81
450.65	32467.91
450.83	32067.68
451.02	31330.41
451.20	31601.91
451.39	31063.59
451.57	30991.03
451.76	31173.60
451.94	31087.00
452.13	30436.33
452.31	28945.41
452.49	27840.67
452.68	28032.60
452.86	27847.69
453.05	28187.07
453.23	29406.49
453.42	30171.85
453.60	30820.17
453.78	30747.62
453.97	30602.50
454.15	30962.95
454.34	30213.98
454.52	29914.39
454.70	29748.21
454.89	29766.93
455.07	30185.89
455.26	30373.13
455.44	31445.10
455.62	31915.54
455.81	32327.48
455.99	32027.89
456.17	31545.74
456.36	31543.40
456.54	32552.17
456.73	32638.77
456.91	33315.19
457.09	33092.83
457.28	33963.51
457.46	32559.19
457.64	32304.07
457.83	31515.31
458.01	30202.27
458.19	31440.42
458.38	31311.69
458.56	32723.03
458.74	32329.82
458.93	32266.63
459.11	32229.18
459.29	31342.11
459.48	32053.64
459.66	31835.97
459.84	32374.29
460.03	32540.47
460.21	32528.77
460.39	32978.15
460.57	32924.32
460.76	33855.85
460.94	33818.40
461.12	33216.88
461.31	33467.32
461.49	33670.95
461.67	33228.59
461.85	34471.41
462.04	34125.01
462.22	34824.83
462.40	33881.60
462.59	34286.51
462.77	33748.18
462.95	33677.97
463.13	33530.51
463.32	33399.44
463.50	33345.61
463.68	33266.03
463.86	33446.26
464.05	32753.46
464.23	31990.44
464.41	32325.14
464.59	31402.97
464.78	33303.48
464.96	32931.34
465.14	32474.93
465.32	33464.98
465.50	34405.88
465.69	34539.29
465.87	33780.95
466.05	32884.53
466.23	31377.22
466.41	30630.59
466.60	31695.53
466.78	31634.68
466.96	32063.00
467.14	32978.15
467.32	33340.93
467.51	33031.98
467.69	31648.72
467.87	32496.00
468.05	33130.28
468.23	32690.26
468.41	33043.68
468.60	33476.68
468.78	33057.73
468.96	32842.40
469.14	33369.02
469.32	33897.98
469.50	32208.11
469.69	32503.02
469.87	32149.60
470.05	32018.53
470.23	31929.59
470.41	31871.07
470.59	32741.75
470.77	33041.34
470.95	33469.66
471.14	34099.26
471.32	33647.54
471.50	36280.64
471.68	35798.49
471.86	36545.12
472.04	35997.44
472.22	36336.82
472.40	34267.78
472.58	34237.36
472.77	33919.04
472.95	34808.45
473.13	35431.03
473.31	34653.97
473.49	34862.28
473.67	35601.89
473.85	35566.78
474.03	36680.88
474.21	36390.65
474.39	36594.28
474.57	36704.28
474.75	37184.09
474.93	37090.47
475.12	36009.14
475.30	36072.34
475.48	36077.02
475.66	36605.98
475.84	36287.67
476.02	35749.34
476.20	35061.22
476.38	36495.97
476.56	37324.52
476.74	37893.27
476.92	37589.00
477.10	38735.87
477.28	39592.50
477.46	39695.49
477.64	39922.52
477.82	40112.10
478.00	40233.81
478.18	39695.49
478.36	39241.42
478.54	39393.56
478.72	39913.16
478.90	40685.53
479.08	42094.53
479.26	42314.55
479.44	42047.72
479.62	41930.70
479.80	41415.78
479.98	42274.76
480.16	42506.47
480.34	41958.78
480.52	42234.97
480.70	42586.05
480.88	42265.39
481.06	43866.32
481.24	43363.11
481.41	44917.22
481.59	44884.45
481.77	44835.30
481.95	44156.55
482.13	44346.13
482.31	43999.73
482.49	45151.27
482.67	44575.50
482.85	44982.76
483.03	45855.78
483.21	45818.33
483.39	45785.56
483.57	45291.71
483.74	45048.29
483.92	45446.18
484.10	45270.64
484.28	46801.35
484.46	46560.28
484.64	47189.88
484.82	46150.68
485.00	45764.49
485.18	44966.37
485.35	44004.41
485.53	40449.14
485.71	37368.99
485.89	36224.47
486.07	38178.82
486.25	41558.55
486.43	44327.41
486.61	44615.29
486.78	44626.99
486.96	45059.99
487.14	46464.32
487.32	47721.18
487.50	48641.01
487.68	49497.65
487.85	49904.90
488.03	49663.83
488.21	49621.70
488.39	48629.31
488.57	47782.04
488.75	47203.92
488.92	49125.50
489.10	51309.22
489.28	52481.83
489.46	52959.30
489.64	52748.65
489.81	52905.47
489.99	52683.12
490.17	52664.39
490.35	53041.22
490.53	52481.83
490.70	51875.63
490.88	52034.79
491.06	53183.99
491.24	53219.10
491.41	52135.43
491.59	50312.16
491.77	49371.26
491.95	50499.40
492.13	51756.27
492.30	52924.19
492.48	54073.40
492.66	54543.84
492.84	54363.62
493.01	54068.72
493.19	53544.44
493.37	53396.98
493.54	53148.88
493.72	53710.61
493.90	55044.72
494.08	55466.02
494.25	55833.48
494.43	56023.06
494.61	56397.55
494.79	56442.02
494.96	56161.15
495.14	55632.19
495.32	54546.18
495.49	54040.63
495.67	55009.61
495.85	56369.46
496.02	56825.87
496.20	56479.47
496.38	56329.67
496.55	56177.54
496.73	56435.00
496.91	56685.43
497.09	57319.72
497.26	57673.14
497.44	57024.81
497.62	56736.93
497.79	55934.12
497.97	54417.46
498.14	54693.64
498.32	55669.64
498.50	56704.16
498.67	57024.81
498.85	57240.14
499.03	57120.77
499.20	57602.92
499.38	57474.20
499.56	57338.44
499.73	56687.78
499.91	56474.79
500.08	56020.72
500.26	55297.50
500.44	55819.44
500.61	56418.61
500.79	56247.75
500.97	55840.50
501.14	55714.11
501.32	55557.30
501.49	55419.20
501.67	55791.35
501.84	56144.77
502.02	56535.64
502.20	56987.36
502.37	57050.56
502.55	57024.81
502.72	57675.48
502.90	58061.67
503.07	57666.12
503.25	57113.75
503.43	56760.33
503.60	56107.32
503.78	55103.23
503.95	55648.58
504.13	57095.03
504.30	57914.22
504.48	57647.39
504.65	57364.19
504.83	57343.12
505.01	58028.90
505.18	58120.18
505.36	58932.35
505.53	59161.72
505.71	59131.29
505.88	59044.69
506.06	58497.01
506.23	58314.45
506.41	58017.20
506.58	58115.50
506.76	58127.20
506.93	58099.12
507.11	57710.59
507.28	58017.20
507.46	57518.67
507.63	56903.10
507.81	56750.97
507.98	57027.15
508.16	57724.63
508.33	58108.48
508.50	58745.11
508.68	58632.76
508.85	59145.34
509.03	59337.26
509.20	59213.21
509.38	58578.93
509.55	57602.92
509.73	57806.55
509.90	58251.25
510.08	58578.93
510.25	58592.97
510.42	58356.58
510.60	58272.32
510.77	58384.66
510.95	58899.58
511.12	59124.27
511.30	59480.03
511.47	59557.27
511.64	59409.82
511.82	59360.67
511.99	58492.33
512.17	58028.90
512.34	57787.83
512.51	57904.85
512.69	58080.39
512.86	58129.54
513.04	58621.06
513.21	58506.37
513.38	58185.72
513.56	57708.25
513.73	57176.95
513.90	57305.68
514.08	57329.08
514.25	57745.70
514.43	57921.24
514.60	58014.86
514.77	58176.36
514.95	58412.75
515.12	58197.42
515.29	58532.12
515.47	58735.74
515.64	59051.72
515.81	58880.86
515.99	58267.64
516.16	56933.53
516.33	54518.10
516.51	53034.20
516.68	52261.82
516.85	51707.12
517.03	52273.52
517.20	54841.09
517.37	57399.30
517.54	58382.32
517.72	57708.25
517.89	55423.89
518.06	53097.39
518.24	53598.27
518.41	55531.55
518.58	56942.89
518.75	57207.37
518.93	57279.93
519.10	57190.99
519.27	57701.23
519.45	57895.49
519.62	58520.41
519.79	58660.85
519.96	58590.63
520.14	58127.20
520.31	57296.31
520.48	57605.26
520.65	57855.70
520.83	58763.83
521.00	59061.08
521.17	58571.91
521.34	58279.34
521.52	58677.23
521.69	59187.47
521.86	59587.70
522.03	59370.03
522.20	57799.53
522.38	56947.57
522.55	57216.74
522.72	57705.91
522.89	57815.91
523.07	57890.81
523.24	58174.02
523.41	59049.38
523.58	59557.27
523.75	60140.07
523.92	59781.96
524.10	59693.02
524.27	59643.87
524.44	59470.67
524.61	59077.46
524.78	59091.51
524.96	59025.97
525.13	59011.93
525.30	59311.52
525.47	59732.81
525.64	59693.02
525.81	58981.50
525.98	57600.58
526.16	56069.87
526.33	55402.82
526.50	54988.55
526.67	54691.30
526.84	55358.35
527.01	56507.55
527.18	57366.53
527.36	58014.86
527.53	59063.42
527.70	59100.87
527.87	58403.39
528.04	58110.82
528.21	58681.91
528.38	59175.76
528.55	59838.14
528.72	60081.55
528.89	60339.01
529.07	59882.61
529.24	59367.69
529.41	58609.35
529.58	58021.88
529.75	58335.51
529.92	58777.87
530.09	59114.91
530.26	59702.38
530.43	59910.69
530.60	59803.03
530.77	60058.15
530.94	60226.66
531.11	59786.64
531.28	59269.39
531.46	59133.63
531.63	59208.53
531.80	59304.49
531.97	59077.46
532.14	57822.93
532.31	57350.15
532.48	56619.90
532.65	56388.19
532.82	57303.34
532.99	58501.69
533.16	58721.70
533.33	59482.37
533.50	59185.13
533.67	58578.93
533.84	58089.76
534.01	58333.17
534.18	58394.03
534.35	58492.33
534.52	58550.84
534.69	58754.47
534.86	59004.91
535.03	59320.88
535.20	59653.23
535.37	60004.31
535.54	60142.41
535.71	59877.93
535.88	59515.14
536.05	58829.37
536.22	58539.14
536.38	58192.74
536.55	57640.37
536.72	57242.48
536.89	57298.65
537.06	58136.57
537.23	58789.58
537.40	58958.09
537.57	58993.20
537.74	58922.99
537.91	58915.96
538.08	58869.15
538.25	58962.78
538.42	58967.46
538.59	58838.73
538.75	58124.86
538.92	57939.96
539.09	57928.26
539.26	57670.80
539.43	57490.58
539.60	57591.22
539.77	57818.25
539.94	57738.68
540.11	56837.57
540.28	56556.70
540.44	56521.60
540.61	56507.55
540.78	56931.19
540.95	57485.90
541.12	57717.61
541.29	58089.76
541.46	58237.21
541.62	58412.75
541.79	58347.21
541.96	57488.24
542.13	57551.43
542.30	57965.71
542.47	57834.64
542.63	57689.52
542.80	57680.16
542.97	57666.12
543.14	57701.23
543.31	57628.67
543.48	58094.44
543.64	58946.39
543.81	59189.81
543.98	58866.81
544.15	58176.36
544.32	57691.86
544.48	57801.87
544.65	58178.70
544.82	58644.46
544.99	58295.72
545.16	57895.49
545.32	57600.58
545.49	58614.04
545.66	58766.17
545.83	58419.77
546.00	58225.51
546.16	58019.54
546.33	57696.55
546.50	57902.51
546.67	58225.51
546.83	57825.28
547.00	57956.35
547.17	57434.41
547.34	56603.52
547.50	56718.20
547.67	57069.28
547.84	57200.35
548.00	57343.12
548.17	57771.44
548.34	57829.96
548.51	57811.23
548.67	57818.25
548.84	57902.51
549.01	57923.58
549.18	57748.04
549.34	57689.52
549.51	57696.55
549.68	57675.48
549.84	57406.32
550.01	57357.17
550.18	57181.63
550.34	57359.51
550.51	57272.91
550.68	57495.26
550.84	56963.96
551.01	57050.56
551.18	57244.82
551.34	57275.25
551.51	57591.22
551.68	57907.19
551.84	57776.12
552.01	57579.52
552.18	57638.03
552.34	56472.45
552.51	56619.90
552.68	56175.20
552.84	56985.02
553.01	57153.54
553.18	56919.49
553.34	57200.35
553.51	57275.25
553.67	57483.56
553.84	57588.88
554.01	57483.56
554.17	57205.03
554.34	57359.51
554.51	57546.75
554.67	57776.12
554.84	57432.07
555.00	57071.62
555.17	57123.11
555.33	57027.15
555.50	56832.89
555.67	57165.24
555.83	56718.20
556.00	56666.71
556.16	56526.28
556.33	56179.88
556.50	56119.02
556.66	55920.08
556.83	55559.64
556.99	56013.70
557.16	55821.78
557.32	56168.18
557.49	56896.08
557.65	56650.33
557.82	56425.64
557.98	56390.53
558.15	56067.53
558.32	55084.51
558.48	54333.20
558.65	54433.84
558.81	54768.54
558.98	55065.78
559.14	55267.07
559.31	55290.48
559.47	55552.62
559.64	54829.39
559.80	54466.61
559.97	54625.76
560.13	55323.24
560.30	56273.50
560.46	56580.11
560.63	56926.51
560.79	56837.57
560.96	56395.21
561.12	55323.24
561.29	54651.51
561.45	54546.18
561.61	55140.68
561.78	55318.56
561.94	55545.59
562.11	55449.63
562.27	55171.11
562.44	55405.16
562.60	55796.03
562.77	55903.70
562.93	56081.58
563.10	55882.63
563.26	55131.32
563.42	55257.71
563.59	55250.69
563.75	55327.92
563.92	55145.36
564.08	55025.99
564.24	55128.98
564.41	55573.68
564.57	55180.47
564.74	55089.19
564.90	55126.64
565.07	54829.39
565.23	54220.85
565.39	53738.70
565.56	53628.69
565.72	53422.73
565.88	53951.69
566.05	53851.05
566.21	54068.72
566.38	54370.64
566.54	54251.28
566.70	54653.85
566.87	55236.64
567.03	54911.31
567.19	55140.68
567.36	54866.84
567.52	54822.37
567.68	54653.85
567.85	53783.17
568.01	53525.71
568.17	53207.40
568.34	53160.59
568.50	52898.45
568.66	53305.70
568.83	53712.95
568.99	53574.86
569.15	54019.56
569.32	54064.03
569.48	53364.21
569.64	53645.08
569.81	53055.26
569.97	53024.84
570.13	52800.15
570.30	52559.07
570.46	51910.74
570.62	51313.90
570.78	51442.63
570.95	51641.58
571.11	52697.16
571.27	52587.16
571.43	52692.48
571.60	53188.67
571.76	53214.42
571.92	53598.27
572.09	53904.88
572.25	53792.53
572.41	53745.72
572.57	53794.87
572.74	53380.60
572.90	53020.16
573.06	53294.00
573.22	53144.20
573.38	53123.14
573.55	53066.97
573.71	53387.62
573.87	53083.35
574.03	53120.80
574.20	53263.57
574.36	52631.63
574.52	52472.47
574.68	52154.16
574.84	51892.02
575.01	51758.61
575.17	51236.67
575.33	51805.42
575.49	51777.33
575.65	52207.99
575.82	51856.91
575.98	51468.38
576.14	52058.20
576.30	51828.82
576.46	52100.32
576.62	51924.78
576.79	52442.04
576.95	51840.53
577.11	51845.21
577.27	51966.91
577.43	51852.23
577.59	51676.69
577.75	51157.09
577.92	50349.60
578.08	50162.36
578.24	50241.94
578.40	50609.40
578.56	51047.08
578.72	50831.75
578.88	51339.65
579.04	51229.65
579.21	51475.40
579.37	51416.89
579.53	51423.91
579.69	51601.79
579.85	51634.56
580.01	51540.94
580.17	51007.29
580.33	50632.81
580.49	50754.52
580.65	51257.73
580.82	51292.84
580.98	51522.21
581.14	51239.01
581.30	51360.72
581.46	51480.08
581.62	51309.22
581.78	51302.20
581.94	52072.24
582.10	51660.30
582.26	51690.73
582.42	51679.03
582.58	51753.93
582.74	51774.99
582.90	51723.50
583.06	51725.84
583.22	51224.96
583.38	51515.19
583.54	51559.66
583.70	51107.94
583.86	51260.07
584.02	51033.04
584.18	51395.82
584.34	51124.32
584.50	50653.87
584.66	50782.60
584.82	50354.29
584.98	50450.25
585.14	49752.77
585.30	49682.55
