SpectraSuite Data File
++++++++++++++++++++++++++++++++++++
Date: Mon Oct 07 14:53:32 GMT-05:00 2013
User: price-jones
Dark Spectrum Present: No
Reference Spectrum Present: No
Number of Sampled Component Spectra: 1
Spectrometers: USB2+H05261
Integration Time (usec): 100000 (USB2+H05261)
Spectra Averaged: 1 (USB2+H05261)
Boxcar Smoothing: 0 (USB2+H05261)
Correct for Electrical Dark: No (USB2+H05261)
Strobe/Lamp Enabled: No (USB2+H05261)
Correct for Detector Non-linearity: No (USB2+H05261)
Correct for Stray Light: No (USB2+H05261)
Number of Pixels in Processed Spectrum: 2048
>>>>>Begin Processed Spectral Data<<<<<
365.73	0.00
365.92	0.00
366.12	0.00
366.32	0.00
366.52	0.00
366.72	0.00
366.91	0.00
367.11	0.00
367.31	0.00
367.51	0.00
367.70	0.00
367.90	0.00
368.10	0.00
368.30	0.00
368.49	0.00
368.69	0.00
368.89	0.00
369.09	0.00
369.28	0.00
369.48	0.00
369.68	0.00
369.87	0.00
370.07	0.00
370.27	0.00
370.47	650.67
370.66	3103.55
370.86	3534.21
371.06	4021.04
371.25	3971.89
371.45	3351.65
371.65	3080.14
371.84	3009.93
372.04	3082.49
372.24	3581.02
372.44	3566.98
372.63	3454.63
372.83	3370.37
373.03	2984.18
373.22	2700.98
373.42	2890.56
373.62	3297.81
373.81	3496.76
374.01	3613.79
374.21	3225.26
374.40	3119.93
374.60	3251.00
374.79	3487.40
374.99	4224.67
375.19	4442.34
375.38	4475.10
375.58	4273.82
375.78	4070.19
375.97	4243.39
376.17	4299.56
376.37	4294.88
376.56	4461.06
376.76	4798.10
376.95	5060.24
377.15	5362.17
377.35	5345.78
377.54	5771.76
377.74	5935.60
377.93	5914.53
378.13	5797.51
378.33	5612.60
378.52	5078.96
378.72	4755.97
378.91	4770.01
379.11	4681.07
379.31	4493.83
379.50	4512.55
379.70	4767.67
379.89	5327.06
380.09	5692.18
380.28	5898.15
380.48	5783.46
380.68	5617.29
380.87	5593.88
381.07	5198.33
381.26	4798.10
381.46	4510.21
381.65	4372.12
381.85	4198.92
382.04	3941.46
382.24	3749.54
382.43	3644.21
382.63	3438.25
382.83	3543.57
383.02	3506.12
383.22	3583.36
383.41	3627.83
383.61	3801.03
383.80	4332.33
384.00	4844.91
384.19	5521.32
384.39	5722.61
384.58	5678.14
384.78	5579.84
384.97	5706.23
385.17	5259.18
385.36	5144.50
385.56	4674.05
385.75	5181.95
385.95	5439.40
386.14	5975.39
386.34	5930.92
386.53	5860.70
386.72	5334.08
386.92	5352.81
387.11	5708.57
387.31	6064.33
387.50	5877.09
387.70	5675.80
387.89	5675.80
388.09	5666.44
388.28	5638.35
388.48	5865.38
388.67	6218.80
388.86	6923.30
389.06	7180.76
389.25	7850.16
389.45	7688.66
389.64	7681.64
389.84	7576.31
390.03	7454.61
390.22	7365.67
390.42	7719.09
390.61	8241.03
390.81	8872.97
391.00	9062.55
391.19	8926.80
391.39	8601.47
391.58	8152.09
391.78	7798.66
391.97	7346.94
392.16	6986.50
392.36	6317.11
392.55	5064.92
392.75	4184.88
392.94	3325.90
393.13	3262.71
393.33	3873.59
393.52	5032.15
393.71	6026.88
393.91	6970.12
394.10	7370.35
394.29	8044.42
394.49	8744.24
394.68	9406.61
394.88	9439.38
395.07	9877.06
395.26	9713.22
395.46	9404.27
395.65	8938.51
395.84	7669.94
396.04	6567.54
396.23	5254.50
396.42	4390.84
396.62	4327.65
396.81	5193.65
397.00	6413.07
397.19	8187.19
397.39	9533.00
397.58	10642.42
397.77	11470.97
397.97	11915.67
398.16	11908.65
398.35	12491.44
398.55	12650.60
398.74	13174.88
398.93	13633.62
399.12	13422.97
399.32	12620.17
399.51	13301.26
399.70	13888.74
399.90	14122.79
400.09	13888.74
400.28	13795.12
400.47	14005.77
400.67	14525.36
400.86	14843.68
401.05	15094.11
401.24	14860.06
401.44	15108.16
401.63	14958.36
401.82	15307.10
402.01	15218.16
402.21	15379.66
402.40	15569.24
402.59	15321.15
402.78	14310.04
402.97	13980.02
403.17	14356.85
403.36	15255.61
403.55	15688.61
403.74	16222.25
403.93	15452.22
404.13	14324.08
404.32	13729.58
404.51	14661.12
404.70	15693.29
404.89	15697.97
405.09	15489.67
405.28	14714.95
405.47	14988.79
405.66	14953.68
405.85	14656.43
406.05	14583.88
406.24	14511.32
406.43	14869.42
406.62	15868.83
406.81	15543.50
407.00	15234.55
407.20	15016.88
407.39	14843.68
407.58	15627.76
407.77	16203.53
407.96	16468.01
408.15	16566.31
408.34	17015.69
408.54	17914.46
408.73	17853.61
408.92	17488.48
409.11	17137.40
409.30	16269.06
409.49	15037.94
409.68	14366.21
409.87	13661.71
410.07	14738.35
410.26	15815.00
410.45	16968.88
410.64	17310.60
410.83	17647.64
411.02	18530.02
411.21	18888.12
411.40	18668.11
411.59	18948.98
411.78	18853.02
411.98	18672.79
412.17	18925.57
412.36	18642.37
412.55	18480.87
412.74	18300.65
412.93	17930.84
413.12	17989.36
413.31	19730.72
413.50	19822.00
413.69	20353.30
413.88	19358.57
414.07	18881.10
414.26	19033.24
414.45	19536.45
414.64	19534.11
414.83	19882.85
415.02	19379.64
415.22	19337.51
415.41	20020.94
415.60	20662.25
415.79	21387.82
415.98	21422.92
416.17	21486.12
416.36	21411.22
416.55	20961.84
416.74	20292.44
416.93	19557.52
417.12	19740.08
417.31	19800.93
417.50	20231.59
417.69	21109.29
417.88	20854.17
418.07	20554.58
418.26	20334.57
418.45	20554.58
418.64	21312.92
418.83	21542.29
419.02	21944.86
419.21	21799.75
419.39	20449.26
419.58	19850.08
419.77	19667.52
419.96	20421.17
420.15	21483.78
420.34	22293.60
420.53	23201.73
420.72	23541.11
420.91	23498.98
421.10	23335.14
421.29	22834.27
421.48	22136.79
421.67	23236.84
421.86	22682.13
422.05	21226.32
422.24	18895.14
422.43	18857.70
422.61	20575.65
422.80	22572.13
422.99	22410.63
423.18	21853.58
423.37	21170.15
423.56	21186.53
423.75	21415.90
423.94	21755.28
424.13	20706.72
424.32	20926.73
424.50	21142.06
424.69	20636.50
424.88	20699.70
425.07	20535.86
425.26	20552.24
425.45	20786.30
425.64	20233.93
425.83	20247.97
426.01	21553.99
426.20	21991.67
426.39	21778.68
426.58	20173.08
426.77	18569.81
426.96	17633.60
427.15	18525.34
427.33	20023.28
427.52	20851.83
427.71	20868.22
427.90	20610.76
428.09	20489.05
428.28	20123.93
428.46	19302.40
428.65	19213.46
428.84	19747.10
429.03	20383.73
429.22	19145.58
429.40	18101.70
429.59	16311.19
429.78	14284.29
429.97	14567.49
430.16	14714.95
430.34	14782.82
430.53	14824.95
430.72	15040.28
430.91	16489.07
431.10	19330.48
431.28	22822.56
431.47	25013.31
431.66	25301.19
431.85	23236.84
432.03	21317.60
432.22	20135.63
432.41	20915.03
432.60	23080.02
432.79	24226.89
432.97	24657.54
433.16	24269.01
433.35	22022.10
433.54	19669.86
433.72	18452.78
433.91	19466.24
434.10	21418.24
434.28	23007.47
434.47	24369.66
434.66	23878.15
434.85	23197.05
435.03	23447.49
435.22	23667.50
435.41	24933.73
435.59	25296.51
435.78	25509.50
435.97	25942.50
436.16	26366.13
436.34	26022.08
436.53	25443.96
436.72	25748.23
436.90	23957.72
437.09	24149.65
437.28	23728.35
437.46	24610.73
437.65	24261.99
437.84	22799.16
438.02	21139.72
438.21	20304.15
438.40	21598.46
438.58	23658.14
438.77	24463.28
438.96	24716.06
439.14	25467.37
439.33	26232.72
439.52	26448.05
439.70	26195.28
439.89	25685.04
440.08	24851.81
440.26	24858.83
440.45	25582.06
440.63	27180.64
440.82	28987.53
441.01	28261.97
441.19	28158.99
441.38	28355.59
441.57	28917.32
441.75	29860.55
441.94	29773.95
442.12	29841.83
442.31	30218.66
442.50	30050.14
442.68	30188.23
442.87	29902.68
443.05	29167.76
443.24	29418.19
443.43	30366.11
443.61	30785.07
443.80	31283.60
443.98	29310.53
444.17	29359.68
444.35	31098.70
444.54	31735.32
444.73	31197.00
444.91	30136.74
445.10	28919.66
445.28	27515.34
445.47	27302.35
445.65	27171.28
445.84	28301.76
446.02	29457.98
446.21	29755.23
446.39	30019.71
446.58	30017.37
446.77	30300.58
446.95	30644.63
447.14	31262.54
447.32	32093.43
447.51	31470.84
447.69	30389.52
447.88	29940.13
448.06	30101.63
448.25	31201.68
448.43	31068.27
448.62	30305.26
448.80	30176.53
448.99	30354.41
449.17	31379.56
449.36	30661.02
449.54	32095.77
449.73	32339.18
449.91	32999.21
450.10	33670.95
450.28	34342.68
450.46	34087.56
450.65	33860.53
450.83	33589.03
451.02	32833.04
451.20	33167.73
451.39	32741.75
451.57	32566.21
451.76	32535.79
451.94	32479.61
452.13	31669.79
452.31	30602.50
452.49	29027.32
452.68	29312.87
452.86	29696.72
453.05	29858.21
453.23	30527.61
453.42	31693.19
453.60	32273.65
453.78	32385.99
453.97	32126.19
454.15	32189.39
454.34	31035.50
454.52	32058.32
454.70	30958.27
454.89	31409.99
455.07	31456.80
455.26	32074.70
455.44	32694.94
455.62	33942.45
455.81	34047.77
455.99	33734.14
456.17	33488.38
456.36	33457.96
456.54	34338.00
456.73	34433.96
456.91	34836.53
457.09	34675.04
457.28	35688.49
457.46	34775.68
457.64	33832.44
457.83	33031.98
458.01	32165.98
458.19	33102.20
458.38	33551.58
458.56	34848.24
458.74	34506.52
458.93	33837.12
459.11	33600.73
459.29	33832.44
459.48	33490.73
459.66	33174.75
459.84	33729.46
460.03	34075.86
460.21	33848.83
460.39	34705.46
460.57	34745.25
460.76	35878.07
460.94	35637.00
461.12	35241.45
461.31	34827.17
461.49	34948.88
461.67	34576.73
461.85	35985.74
462.04	35927.22
462.22	36341.50
462.40	36240.86
462.59	36079.36
462.77	36055.95
462.95	35714.23
463.13	35707.21
463.32	34824.83
463.50	34831.85
463.68	34927.81
463.86	35192.30
464.05	34803.77
464.23	33647.54
464.41	33670.95
464.59	32781.54
464.78	34700.78
464.96	34677.38
465.14	34260.76
465.32	35112.72
465.50	35765.73
465.69	36404.69
465.87	35662.74
466.05	34658.65
466.23	33308.16
466.41	32652.81
466.60	33441.57
466.78	33207.52
466.96	33795.00
467.14	34504.18
467.32	35187.61
467.51	35370.18
467.69	33359.66
467.87	34391.83
468.05	34635.25
468.23	34323.96
468.41	34597.80
468.60	34735.89
468.78	34981.65
468.96	34235.02
469.14	35196.98
469.32	35367.84
469.50	34141.39
469.69	33965.85
469.87	33666.27
470.05	33673.29
470.23	33493.07
470.41	33799.68
470.59	34141.39
470.77	34515.88
470.95	35271.87
471.14	35679.13
471.32	35082.29
471.50	37226.22
471.68	37565.60
471.86	37949.45
472.04	38471.39
472.22	38340.32
472.40	36114.47
472.58	35871.05
472.77	35512.95
472.95	36418.74
473.13	37619.43
473.31	36364.90
473.49	36418.74
473.67	37516.45
473.85	37350.27
474.03	38326.27
474.21	38469.04
474.39	39084.61
474.57	38899.70
474.75	38974.60
474.93	39215.68
475.12	37624.11
475.30	38335.63
475.48	37876.89
475.66	38857.57
475.84	38663.31
476.02	37961.15
476.20	37289.42
476.38	37574.96
476.56	38822.47
476.74	39407.60
476.92	39817.19
477.10	40369.56
477.28	41811.33
477.46	41682.60
477.64	42148.37
477.82	42220.92
478.00	42340.29
478.18	41811.33
478.36	41535.15
478.54	41584.30
478.72	41656.85
478.90	43124.37
479.08	43789.08
479.26	44425.71
479.44	44060.58
479.62	43833.55
479.80	43988.03
479.98	44032.50
480.16	44985.10
480.34	43805.47
480.52	44144.84
480.70	44884.45
480.88	44839.98
481.06	45619.38
481.24	45935.35
481.41	46745.18
481.59	47054.13
481.77	46864.55
481.95	46258.35
482.13	46178.77
482.31	46078.13
482.49	46745.18
482.67	46754.54
482.85	46871.57
483.03	47576.07
483.21	48135.46
483.39	47756.29
483.57	47229.67
483.74	47178.18
483.92	47164.14
484.10	47393.51
484.28	48573.14
484.46	48994.43
484.64	49242.53
484.82	48172.91
485.00	47859.27
485.18	46883.27
485.35	45427.46
485.53	42717.12
485.71	39044.82
485.89	38548.62
486.07	40112.10
486.25	43721.21
486.43	45851.09
486.61	46579.00
486.78	46934.76
486.96	47084.56
487.14	48435.05
487.32	49254.23
487.50	50162.36
487.68	51187.52
487.85	51746.90
488.03	51543.28
488.21	51533.92
488.39	50735.79
488.57	49801.92
488.75	49881.50
488.92	50408.12
489.10	52940.58
489.28	54014.88
489.46	54578.95
489.64	54459.58
489.81	54836.41
489.99	54281.70
490.17	54433.84
490.35	54667.89
490.53	54232.55
490.70	54031.27
490.88	53790.19
491.06	54766.20
491.24	54731.09
491.41	53691.89
491.59	52355.44
491.77	51482.42
491.95	52336.72
492.13	53668.48
492.30	54674.91
492.48	55721.13
492.66	56149.45
492.84	55906.04
493.01	55812.41
493.19	55224.94
493.37	54855.14
493.54	54752.15
493.72	55121.96
493.90	56317.97
494.08	57015.45
494.25	57254.18
494.43	57354.83
494.61	57785.49
494.79	58033.58
494.96	57776.12
495.14	57017.79
495.32	56037.11
495.49	55819.44
495.67	56509.89
495.85	57687.18
496.02	58356.58
496.20	58141.25
496.38	57656.76
496.55	57628.67
496.73	57977.41
496.91	58080.39
497.09	58642.12
497.26	58754.47
497.44	58265.30
497.62	57942.30
497.79	57041.20
497.97	56287.54
498.14	55929.44
498.32	57345.47
498.50	57914.22
498.67	58574.25
498.85	58567.23
499.03	58492.33
499.20	58880.86
499.38	58681.91
499.56	58607.01
499.73	58417.43
499.91	57991.45
500.08	57551.43
500.26	56591.81
500.44	57027.15
500.61	57785.49
500.79	57708.25
500.97	57190.99
501.14	56821.19
501.32	56905.44
501.49	56896.08
501.67	57186.31
501.84	57567.82
502.02	57893.15
502.20	58284.02
502.37	58681.91
502.55	58426.79
502.72	58937.03
502.90	59386.41
503.07	59171.08
503.25	58599.99
503.43	57902.51
503.60	57354.83
503.78	56580.11
503.95	57134.82
504.13	58518.07
504.30	59274.07
504.48	59065.76
504.65	58735.74
504.83	58564.88
505.01	59201.51
505.18	59412.16
505.36	60245.39
505.53	60203.26
505.71	60505.19
505.88	60346.03
506.06	59966.87
506.23	59646.21
506.41	59145.34
506.58	59545.57
506.76	59421.52
506.93	59444.93
507.11	59082.14
507.28	59398.12
507.46	58810.64
507.63	58164.65
507.81	58080.39
507.98	58260.62
508.16	58960.44
508.33	59393.43
508.50	60025.38
508.68	60055.81
508.85	60313.26
509.03	60327.31
509.20	60369.44
509.38	59889.63
509.55	59105.55
509.73	59000.22
509.90	59704.73
510.08	59861.54
510.25	59784.30
510.42	59683.66
510.60	59590.04
510.77	59730.47
510.95	60257.09
511.12	60451.36
511.30	60739.24
511.47	60968.61
511.64	60832.86
511.82	60755.63
511.99	59779.62
512.17	59449.61
512.34	59037.67
512.51	59164.06
512.69	59421.52
512.86	59627.49
513.04	60001.97
513.21	59896.65
513.38	59498.76
513.56	59016.61
513.73	58497.01
513.90	58855.11
514.08	58831.71
514.25	59044.69
514.43	59311.52
514.60	59309.18
514.77	59608.76
514.95	59714.09
515.12	59435.56
515.29	59641.53
515.47	60214.96
515.64	60456.04
515.81	60018.36
515.99	59489.40
516.16	57989.11
516.33	55760.92
516.51	54232.55
516.68	53825.30
516.85	53418.05
517.03	53811.26
517.20	56261.80
517.37	58562.54
517.54	59803.03
517.72	59208.53
517.89	57109.07
518.06	54646.83
518.24	54901.95
518.41	56921.83
518.58	58389.34
518.75	58574.25
518.93	58614.04
519.10	58742.77
519.27	59009.59
519.45	59107.89
519.62	59838.14
519.79	60282.84
519.96	60020.70
520.14	59749.20
520.31	58794.26
520.48	58700.64
520.65	58894.90
520.83	60107.30
521.00	60537.96
521.17	59976.23
521.34	59515.14
521.52	59917.71
521.69	60582.43
521.86	60779.03
522.03	60479.44
522.20	59543.23
522.38	58382.32
522.55	58391.68
522.72	58878.52
522.89	59213.21
523.07	59468.33
523.24	59931.76
523.41	60395.18
523.58	60741.58
523.75	61160.54
523.92	60762.65
524.10	61111.39
524.27	60917.12
524.44	60750.94
524.61	60722.86
524.78	60259.43
524.96	60247.73
525.13	60261.77
525.30	60617.53
525.47	61130.11
525.64	60863.29
525.81	60317.95
525.98	58883.20
526.16	57593.56
526.33	56970.98
526.50	56474.79
526.67	56264.14
526.84	56956.94
527.01	57972.73
527.18	58571.91
527.36	59339.60
527.53	60259.43
527.70	60495.83
527.87	59948.14
528.04	59365.35
528.21	60055.81
528.38	60622.22
528.55	61179.26
528.72	61448.42
528.89	61600.56
529.07	61366.51
529.24	60662.00
529.41	60111.98
529.58	59660.26
529.75	59660.26
529.92	59957.50
530.09	60446.68
530.26	60935.85
530.43	61141.81
530.60	61176.92
530.77	61371.19
530.94	61432.04
531.11	60879.67
531.28	60662.00
531.46	60622.22
531.63	60694.77
531.80	60582.43
531.97	60261.77
532.14	59501.10
532.31	58625.74
532.48	57893.15
532.65	57682.50
532.82	58618.72
532.99	59760.90
533.16	60032.40
533.33	60640.94
533.50	60577.75
533.67	59770.26
533.84	59428.54
534.01	59664.94
534.18	59898.99
534.35	60058.15
534.52	59753.88
534.69	60023.04
534.86	60360.08
535.03	60715.84
535.20	61109.05
535.37	61310.33
535.54	61504.60
535.71	61130.11
535.88	60889.04
536.05	60240.71
536.22	59936.44
536.38	59686.00
536.55	59299.81
536.72	58747.45
536.89	58513.39
537.06	59379.39
537.23	60294.54
537.40	60479.44
537.57	60275.82
537.74	60011.34
537.91	60156.45
538.08	60011.34
538.25	60236.03
538.42	60343.69
538.59	60221.98
538.75	59620.47
538.92	59264.70
539.09	59096.19
539.26	59054.06
539.43	58773.19
539.60	58883.20
539.77	58812.98
539.94	58965.12
540.11	58202.10
540.28	57731.65
540.44	57743.36
540.61	57888.47
540.78	58115.50
540.95	58712.34
541.12	59054.06
541.29	59297.47
541.46	59576.00
541.62	59772.60
541.79	59496.42
541.96	58831.71
542.13	58836.39
542.30	58981.50
542.47	59583.02
542.63	59068.10
542.80	58880.86
542.97	59100.87
543.14	59056.40
543.31	58944.05
543.48	59498.76
543.64	60121.34
543.81	60378.80
543.98	60353.05
544.15	59646.21
544.32	59164.06
544.48	59208.53
544.65	59377.05
544.82	60046.44
544.99	59683.66
545.16	59433.22
545.32	58922.99
545.49	59847.50
545.66	60165.81
545.83	59667.28
546.00	59559.61
546.16	59260.02
546.33	59194.49
546.50	59255.34
546.67	59608.76
546.83	59269.39
547.00	59178.10
547.17	58710.00
547.34	58047.63
547.50	58225.51
547.67	58391.68
547.84	58618.72
548.00	58918.31
548.17	59234.28
548.34	59194.49
548.51	59269.39
548.67	59360.67
548.84	59255.34
549.01	59325.56
549.18	58993.20
549.34	59145.34
549.51	59100.87
549.68	59100.87
549.84	58710.00
550.01	58930.01
550.18	58667.87
550.34	58740.42
550.51	58834.05
550.68	58838.73
550.84	58312.11
551.01	58382.32
551.18	58560.20
551.34	58555.52
551.51	58944.05
551.68	59112.57
551.84	59533.87
552.01	59077.46
552.18	59114.91
552.34	58213.80
552.51	57968.05
552.68	57853.36
552.84	58248.91
553.01	58616.38
553.18	58288.70
553.34	58424.45
553.51	58637.44
553.67	58894.90
553.84	59056.40
554.01	59023.63
554.17	58543.82
554.34	58794.26
554.51	58677.23
554.67	59152.36
554.84	59075.12
555.00	58618.72
555.17	58323.81
555.33	58365.94
555.50	58438.50
555.67	58511.05
555.83	58384.66
556.00	57986.77
556.16	58213.80
556.33	57504.62
556.50	57579.52
556.66	57474.20
556.83	57202.69
556.99	57518.67
557.16	57631.01
557.32	57872.09
557.49	57977.41
557.65	57855.70
557.82	57874.43
557.98	57593.56
558.15	57195.67
558.32	56617.56
558.48	55618.15
558.65	56067.53
558.81	56212.65
558.98	56853.95
559.14	56924.17
559.31	56757.99
559.47	57139.50
559.64	56563.73
559.80	55997.32
559.97	56371.80
560.13	56814.16
560.30	57558.45
560.46	58150.61
560.63	58176.36
560.79	58258.27
560.96	57881.45
561.12	56870.34
561.29	55945.83
561.45	56128.39
561.61	56540.32
561.78	56846.93
561.94	56842.25
562.11	56694.80
562.27	56690.12
562.44	57111.41
562.60	57144.18
562.77	57457.81
562.93	57429.72
563.10	57190.99
563.26	56671.39
563.42	56788.42
563.59	56467.76
563.75	56545.00
563.92	56498.19
564.08	56449.04
564.24	56739.27
564.41	57041.20
564.57	56624.58
564.74	56718.20
564.90	56566.07
565.07	56259.46
565.23	56025.40
565.39	55693.05
565.56	55110.25
565.72	55040.04
565.88	55377.08
566.05	55402.82
566.21	55746.88
566.38	55742.20
566.54	56030.08
566.70	56329.67
566.87	56779.06
567.03	56671.39
567.19	56694.80
567.36	56264.14
567.52	56371.80
567.68	56044.13
567.85	55377.08
568.01	55061.10
568.17	54937.05
568.34	54958.12
568.50	54703.00
568.66	54747.47
568.83	55260.05
568.99	55416.86
569.15	55283.45
569.32	55512.83
569.48	55173.45
569.64	55040.04
569.81	54710.02
569.97	54794.28
570.13	54595.34
570.30	54162.34
570.46	53975.09
570.62	52982.71
570.78	53148.88
570.95	53434.43
571.11	54117.87
571.27	54438.52
571.43	54597.68
571.60	54937.05
571.76	54892.58
571.92	55227.28
572.09	55517.51
572.25	54993.23
572.41	55103.23
572.57	55086.85
572.74	55175.79
572.90	54789.60
573.06	54534.48
573.22	54777.90
573.38	54899.61
573.55	54789.60
573.71	54967.48
573.87	54808.32
574.03	54672.57
574.20	54770.88
574.36	54344.90
574.52	54394.05
574.68	54019.56
574.84	53961.05
575.01	52938.24
575.17	53071.65
575.33	53506.99
575.49	53755.08
575.65	53787.85
575.82	53872.11
575.98	53340.81
576.14	53897.86
576.30	54157.66
576.46	53979.78
576.62	53815.94
576.79	54199.79
576.95	53745.72
577.11	53151.23
577.27	53801.89
577.43	53806.58
577.59	53303.36
577.75	53127.82
577.92	52212.67
578.08	52184.58
578.24	52114.37
578.40	52299.27
578.56	52608.22
578.72	52643.33
578.88	52828.23
579.04	53294.00
579.21	53078.67
579.37	53457.84
579.53	53455.50
579.69	52971.00
579.85	53462.52
580.01	53319.74
580.17	52926.53
580.33	52552.05
580.49	52896.11
580.65	53041.22
580.82	53347.83
580.98	53256.55
581.14	53155.91
581.30	53359.53
581.46	52832.91
581.62	53151.23
581.78	53151.23
581.94	53380.60
582.10	53446.13
582.26	53614.65
582.42	53378.26
582.58	53340.81
582.74	53254.21
582.90	53373.58
583.06	53478.90
583.22	53085.69
583.38	52968.66
583.54	52786.10
583.70	53228.46
583.86	52774.40
584.02	52863.34
584.18	53050.58
584.34	52837.59
584.50	52823.55
584.66	52692.48
584.82	52121.39
584.98	52130.75
585.14	51770.31
585.30	51028.36
