SpectraSuite Data File
++++++++++++++++++++++++++++++++++++
Date: Mon Oct 07 14:55:50 GMT-05:00 2013
User: price-jones
Dark Spectrum Present: No
Reference Spectrum Present: No
Number of Sampled Component Spectra: 1
Spectrometers: USB2+H05261
Integration Time (usec): 1000000 (USB2+H05261)
Spectra Averaged: 1 (USB2+H05261)
Boxcar Smoothing: 0 (USB2+H05261)
Correct for Electrical Dark: No (USB2+H05261)
Strobe/Lamp Enabled: No (USB2+H05261)
Correct for Detector Non-linearity: No (USB2+H05261)
Correct for Stray Light: No (USB2+H05261)
Number of Pixels in Processed Spectrum: 2048
>>>>>Begin Processed Spectral Data<<<<<
365.73	0.00
365.92	0.00
366.12	0.00
366.32	0.00
366.52	0.00
366.72	220.01
366.91	0.00
367.11	145.11
367.31	93.62
367.51	159.16
367.70	280.86
367.90	386.19
368.10	189.58
368.30	248.10
368.49	0.00
368.69	411.93
368.89	189.58
369.09	0.00
369.28	86.60
369.48	0.00
369.68	30.43
369.87	311.29
370.07	74.90
370.27	458.74
370.47	1207.72
370.66	3592.72
370.86	4442.34
371.06	5015.77
371.25	5186.63
371.45	4018.70
371.65	3985.93
371.84	3431.23
372.04	3606.77
372.24	4187.22
372.44	4135.73
372.63	4318.29
372.83	4241.05
373.03	3349.31
373.22	3208.87
373.42	3433.57
373.62	3927.42
373.81	4156.79
374.01	4400.21
374.21	4037.42
374.40	3431.23
374.60	4140.41
374.79	4161.47
374.99	4634.26
375.19	4915.12
375.38	5032.15
375.58	4784.06
375.78	4844.91
375.97	4779.37
376.17	5256.84
376.37	4809.80
376.56	5076.62
376.76	4983.00
376.95	5355.15
377.15	6073.69
377.35	6186.04
377.54	6485.62
377.74	6223.48
377.93	6125.18
378.13	5996.45
378.33	6190.72
378.52	5343.44
378.72	5619.63
378.91	5387.91
379.11	5013.43
379.31	4856.61
379.50	4674.05
379.70	5423.02
379.89	5991.77
380.09	5923.90
380.28	5959.00
380.48	6242.21
380.68	5968.37
380.87	5678.14
381.07	5486.22
381.26	5364.51
381.46	5034.49
381.65	4891.72
381.85	4484.47
382.04	4573.41
382.24	4299.56
382.43	4037.42
382.63	3777.62
382.83	3911.04
383.02	4194.24
383.22	4353.40
383.41	3857.20
383.61	4327.65
383.80	5149.18
384.00	5341.10
384.19	5888.79
384.39	6092.41
384.58	5989.43
384.78	6146.25
384.97	5753.04
385.17	5570.48
385.36	5245.14
385.56	5355.15
385.75	5376.21
385.95	5844.32
386.14	6169.65
386.34	6024.54
386.53	5942.62
386.72	5689.84
386.92	6057.31
387.11	6043.26
387.31	6399.02
387.50	5970.71
387.70	5738.99
387.89	5914.53
388.09	5771.76
388.28	5778.78
388.48	5944.96
388.67	6754.79
388.86	6864.79
389.06	7377.37
389.25	7716.75
389.45	7735.47
389.64	7634.83
389.84	7927.39
390.03	7782.28
390.22	7749.51
390.42	7859.52
390.61	8070.17
390.81	8397.84
391.00	8758.28
391.19	8805.10
391.39	8465.72
391.58	8217.62
391.78	7438.22
391.97	7478.01
392.16	6604.99
392.36	6532.44
392.55	5348.12
392.75	4222.33
392.94	3452.29
393.13	3927.42
393.33	4063.17
393.52	5378.55
393.71	6677.55
393.91	6799.26
394.10	7309.49
394.29	8058.46
394.49	8542.96
394.68	9380.87
394.88	9320.01
395.07	9633.64
395.26	9305.97
395.46	9172.56
395.65	8784.03
395.84	7641.85
396.04	7222.89
396.23	5214.71
396.42	4554.68
396.62	4657.67
396.81	5385.57
397.00	6726.70
397.19	8170.81
397.39	9469.81
397.58	10738.38
397.77	10883.49
397.97	11323.51
398.16	11358.62
398.35	12079.50
398.55	12035.03
398.74	12418.88
398.93	13184.24
399.12	12517.18
399.32	12201.21
399.51	12423.56
399.70	13547.02
399.90	13472.12
400.09	13186.58
400.28	13109.34
400.47	13418.29
400.67	13827.88
400.86	14153.22
401.05	14319.40
401.24	14270.25
401.44	14792.19
401.63	14684.52
401.82	14841.34
402.01	14314.72
402.21	14441.11
402.40	14637.71
402.59	14052.58
402.78	13556.38
402.97	13193.60
403.17	14083.00
403.36	14771.12
403.55	15033.26
403.74	15002.83
403.93	14689.20
404.13	14382.59
404.32	13874.70
404.51	14544.09
404.70	15545.84
404.89	14740.69
405.09	15094.11
405.28	14434.08
405.47	14256.20
405.66	14384.93
405.85	13933.21
406.05	13638.30
406.24	13788.10
406.43	14532.39
406.62	14977.09
406.81	15335.19
407.00	14782.82
407.20	14040.87
407.39	14293.65
407.58	15051.99
407.77	15644.14
407.96	16030.33
408.15	16002.24
408.34	16063.10
408.54	16922.07
408.73	16758.24
408.92	16503.12
409.11	16301.83
409.30	15611.37
409.49	14291.31
409.68	13474.46
409.87	13315.31
410.07	14216.41
410.26	15351.57
410.45	16175.44
410.64	16119.27
410.83	16798.02
411.02	17057.82
411.21	18361.50
411.40	17696.79
411.59	17626.57
411.78	17249.75
411.98	17343.37
412.17	17453.37
412.36	17249.75
412.55	17312.94
412.74	17034.42
412.93	16980.59
413.12	16760.58
413.31	18623.64
413.50	18239.79
413.69	18600.24
413.88	18239.79
414.07	17673.39
414.26	17909.78
414.45	18352.14
414.64	18548.75
414.83	18469.17
415.02	18092.34
415.22	18244.48
415.41	19014.51
415.60	18885.78
415.79	19814.98
415.98	20517.14
416.17	20109.88
416.36	19442.83
416.55	19232.18
416.74	18834.29
416.93	18396.61
417.12	18279.58
417.31	18375.55
417.50	18750.03
417.69	19843.06
417.88	19073.03
418.07	18796.84
418.26	18972.38
418.45	19049.62
418.64	20264.36
418.83	20491.39
419.02	20042.01
419.21	19716.67
419.39	18904.51
419.58	18094.68
419.77	18188.30
419.96	19463.90
420.15	20456.28
420.34	20458.62
420.53	21111.63
420.72	21474.42
420.91	21546.97
421.10	20802.68
421.29	20680.97
421.48	20695.02
421.67	21429.94
421.86	20240.95
422.05	18836.63
422.24	17008.67
422.43	17315.28
422.61	18890.46
422.80	20348.62
422.99	20231.59
423.18	19683.91
423.37	19726.04
423.56	19342.19
423.75	20037.33
423.94	19716.67
424.13	18773.44
424.32	18927.91
424.50	19124.52
424.69	19002.81
424.88	19379.64
425.07	18656.41
425.26	18869.40
425.45	18691.52
425.64	18452.78
425.83	18569.81
426.01	19929.66
426.20	20180.10
426.39	19719.01
426.58	17771.69
426.77	16978.25
426.96	16657.59
427.15	16912.71
427.33	18600.24
427.52	19061.32
427.71	19047.28
427.90	18647.05
428.09	18728.97
428.28	17987.02
428.46	17699.13
428.65	17448.69
428.84	17769.35
429.03	18745.35
429.22	16950.16
429.40	15976.50
429.59	14738.35
429.78	13495.53
429.97	13301.26
430.16	13514.25
430.34	13666.39
430.53	13558.72
430.72	13921.51
430.91	15936.71
431.10	17900.42
431.28	21186.53
431.47	22340.41
431.66	22298.28
431.85	20098.18
432.03	18373.21
432.22	19033.24
432.41	19442.83
432.60	21235.68
432.79	21596.12
432.97	22118.06
433.16	21390.16
433.35	19349.21
433.54	17511.89
433.72	17156.13
433.91	18022.12
434.10	19414.74
434.28	21113.97
434.47	21443.99
434.66	21366.75
434.85	20844.81
435.03	21624.21
435.22	24439.87
435.41	27255.54
435.59	27372.57
435.78	25970.58
435.97	24180.07
436.16	23658.14
436.34	23178.33
436.53	22904.48
436.72	22590.85
436.90	21701.45
437.09	21516.54
437.28	21174.83
437.46	21811.45
437.65	21598.46
437.84	20222.23
438.02	18801.52
438.21	18890.46
438.40	19681.56
438.58	20828.43
438.77	21563.36
438.96	21865.28
439.14	22422.33
439.33	23632.39
439.52	23325.78
439.70	22923.21
439.89	22684.47
440.08	22029.12
440.26	22040.82
440.45	23260.24
440.63	24093.47
440.82	25149.06
441.01	24856.49
441.19	24662.22
441.38	25020.33
441.57	25811.43
441.75	26403.58
441.94	26604.87
442.12	26001.01
442.31	26600.19
442.50	26544.02
442.68	26331.03
442.87	26284.22
443.05	25282.47
443.24	26342.73
443.43	27021.48
443.61	27639.39
443.80	27028.51
443.98	25542.27
444.17	26190.59
444.35	27718.96
444.54	27559.81
444.73	27377.25
444.91	26625.93
445.10	24737.12
445.28	23948.36
445.47	23997.51
445.65	24121.56
445.84	24776.91
446.02	25390.13
446.21	25900.37
446.39	25570.35
446.58	25844.20
446.77	26778.07
446.95	26850.63
447.14	27751.73
447.32	28243.24
447.51	26955.95
447.69	26033.78
447.88	26036.12
448.06	26913.82
448.25	27161.92
448.43	26831.90
448.62	26609.55
448.80	26855.31
448.99	26962.97
449.17	26544.02
449.36	26787.43
449.54	27985.79
449.73	28048.98
449.91	28795.61
450.10	29083.50
450.28	30132.06
450.46	29888.64
450.65	29631.18
450.83	29102.22
451.02	28386.02
451.20	28388.36
451.39	28481.98
451.57	28215.16
451.76	28250.27
451.94	27889.82
452.13	27417.04
452.31	26462.10
452.49	24896.28
452.68	25247.36
452.86	25661.63
453.05	26211.66
453.23	26391.88
453.42	26902.12
453.60	27810.25
453.78	28119.20
453.97	27255.54
454.15	27728.33
454.34	26838.92
454.52	26944.25
454.70	26827.22
454.89	27115.11
455.07	27550.45
455.26	27615.98
455.44	28844.76
455.62	28786.25
455.81	29223.93
455.99	28584.96
456.17	28631.77
456.36	28444.53
456.54	29214.57
456.73	29359.68
456.91	29975.24
457.09	30202.27
457.28	30569.74
457.46	29331.59
457.64	29429.90
457.83	27992.81
458.01	27370.22
458.19	28364.95
458.38	28278.35
458.56	29413.51
458.74	28821.36
458.93	28943.06
459.11	28961.79
459.29	28086.43
459.48	28905.62
459.66	29027.32
459.84	29015.62
460.03	30331.00
460.21	29233.29
460.39	30005.67
460.57	30412.92
460.76	29972.90
460.94	29923.75
461.12	29935.45
461.31	30384.83
461.49	29385.43
461.67	29362.02
461.85	30424.62
462.04	30462.07
462.22	37724.75
462.40	30012.69
462.59	30689.10
462.77	29879.28
462.95	30391.86
463.13	29652.25
463.32	29914.39
463.50	29848.85
463.68	29551.60
463.86	29659.27
464.05	29085.84
464.23	28907.96
464.41	28652.84
464.59	28077.07
464.78	29617.14
464.96	29233.29
465.14	28709.01
465.32	29675.65
465.50	30855.28
465.69	30466.75
465.87	29563.31
466.05	29305.85
466.23	27337.46
466.41	27159.58
466.60	28460.91
466.78	27976.42
466.96	28744.12
467.14	28982.85
467.32	29905.02
467.51	29034.35
467.69	27903.87
467.87	29441.60
468.05	29336.27
468.23	29675.65
468.41	29429.90
468.60	29130.31
468.78	29240.31
468.96	29490.75
469.14	29685.01
469.32	29254.36
469.50	28416.44
469.69	28755.82
469.87	28135.58
470.05	27943.66
470.23	28322.82
470.41	28212.82
470.59	28458.57
470.77	29095.20
470.95	29521.18
471.14	30232.70
471.32	29839.49
471.50	31440.42
471.68	31353.82
471.86	31543.40
472.04	31735.32
472.22	31428.71
472.40	29862.90
472.58	29549.26
472.77	29399.47
472.95	30279.51
473.13	31590.21
473.31	30436.33
473.49	30274.83
473.67	30473.78
473.85	31255.51
474.03	32266.63
474.21	31615.96
474.39	32453.87
474.57	33076.45
474.75	32601.32
474.93	31594.89
475.12	30995.71
475.30	31557.44
475.48	31529.36
475.66	32060.66
475.84	31505.95
476.02	31531.70
476.20	31262.54
476.38	31606.59
476.56	32870.48
476.74	32964.10
476.92	33235.61
477.10	33694.35
477.28	34202.25
477.46	34422.26
477.64	34417.58
477.82	34707.80
478.00	35101.01
478.18	34415.24
478.36	34499.50
478.54	34157.78
478.72	34347.36
478.90	35416.99
479.08	36538.10
479.26	36622.36
479.44	36332.14
479.62	35882.75
479.80	36388.31
479.98	36453.84
480.16	36903.23
480.34	36252.56
480.52	36554.49
480.70	36975.78
480.88	37230.90
481.06	37338.57
481.24	37724.75
481.41	38445.64
481.59	39374.83
481.77	39093.97
481.95	38504.15
482.13	38897.36
482.31	38447.98
482.49	38506.49
482.67	38565.01
482.85	39636.97
483.03	39941.24
483.21	40151.89
483.39	39966.99
483.57	38906.73
483.74	39285.89
483.92	38820.13
484.10	39384.19
484.28	40137.85
484.46	41476.63
484.64	41148.96
484.82	39899.11
485.00	39328.02
485.18	39084.61
485.35	37935.40
485.53	34738.23
485.71	32205.77
485.89	32086.40
486.07	33890.96
486.25	37336.23
486.43	38623.52
486.61	39051.84
486.78	38958.22
486.96	38799.06
487.14	40928.95
487.32	41539.83
487.50	42539.24
487.68	43576.09
487.85	43452.05
488.03	43938.88
488.21	43498.86
488.39	42930.11
488.57	41853.46
488.75	41556.21
488.92	46115.58
489.10	45736.41
489.28	47318.61
489.46	46990.94
489.64	47494.15
489.81	47250.74
489.99	47154.77
490.17	46876.25
490.35	48224.40
490.53	46642.20
490.70	45682.58
490.88	46330.90
491.06	47686.07
491.24	47627.56
491.41	45998.55
491.59	44421.03
491.77	43573.75
491.95	44907.86
492.13	45787.90
492.30	47765.65
492.48	48313.34
492.66	48966.35
492.84	48732.29
493.01	48645.69
493.19	48247.80
493.37	47805.44
493.54	47672.03
493.72	48126.10
493.90	49296.36
494.08	50373.01
494.25	50586.00
494.43	50681.96
494.61	50925.38
494.79	50852.82
494.96	50787.28
495.14	50021.93
495.32	48992.09
495.49	48098.01
495.67	50237.26
495.85	51344.33
496.02	51648.60
496.20	51653.28
496.38	50834.10
496.55	51091.55
496.73	51746.90
496.91	51522.21
497.09	52353.10
497.26	52367.15
497.44	51573.70
497.62	51030.70
497.79	50059.38
497.97	48657.40
498.14	49354.88
498.32	50344.92
498.50	51173.47
498.67	52119.05
498.85	51980.96
499.03	51903.72
499.20	52423.32
499.38	52275.87
499.56	51704.77
499.73	51583.07
499.91	51098.58
500.08	50548.55
500.26	49600.63
500.44	50281.73
500.61	50990.91
500.79	50518.12
500.97	50340.24
501.14	50227.90
501.32	49708.30
501.49	50045.33
501.67	50075.76
501.84	50852.82
502.02	50892.61
502.20	51913.08
502.37	51709.46
502.55	51831.16
502.72	52495.88
502.90	52453.75
503.07	52453.75
503.25	51852.23
503.43	51007.29
503.60	50061.72
503.78	49268.28
503.95	50038.31
504.13	51854.57
504.30	52655.03
504.48	52018.41
504.65	52231.40
504.83	51924.78
505.01	52713.55
505.18	52652.69
505.36	53939.99
505.53	54260.64
505.71	53696.57
505.88	54143.61
506.06	53275.27
506.23	53221.44
506.41	52303.95
506.58	53183.99
506.76	52931.22
506.93	52996.75
507.11	52659.71
507.28	52346.08
507.46	51969.26
507.63	51079.85
507.81	51096.24
507.98	51540.94
508.16	52243.10
508.33	53338.47
508.50	53296.34
508.68	53635.72
508.85	54380.01
509.03	53736.36
509.20	53425.07
509.38	52893.77
509.55	52254.80
509.73	52898.45
509.90	53474.22
510.08	53272.93
510.25	53329.11
510.42	52921.85
510.60	52891.43
510.77	53441.45
510.95	54012.54
511.12	53900.20
511.30	54408.09
511.47	54953.44
511.64	54733.43
511.82	54167.02
511.99	53373.58
512.17	52921.85
512.34	52486.51
512.51	52767.38
512.69	52500.56
512.86	52940.58
513.04	53125.48
513.21	53422.73
513.38	52715.89
513.56	52158.84
513.73	51679.03
513.90	51835.84
514.08	52072.24
514.25	52561.41
514.43	52896.11
514.60	52758.02
514.77	52610.56
514.95	53116.12
515.12	52980.37
515.29	53436.77
515.47	54405.75
515.64	54370.64
515.81	53764.45
515.99	52992.07
516.16	51210.92
516.33	48311.00
516.51	46677.30
516.68	45750.45
516.85	45174.68
517.03	46403.46
517.20	49785.54
517.37	51948.19
517.54	53202.72
517.72	52039.47
517.89	49008.48
518.06	46541.55
518.24	48446.75
518.41	50593.02
518.58	52027.77
518.75	51697.75
518.93	51826.48
519.10	51966.91
519.27	52240.76
519.45	52556.73
519.62	53652.10
519.79	53984.46
519.96	53670.82
520.14	53146.54
520.31	52271.18
520.48	52568.43
520.65	52781.42
520.83	53874.45
521.00	54017.22
521.17	53647.42
521.34	53038.88
521.52	53886.15
521.69	54358.94
521.86	54487.67
522.03	54188.08
522.20	53457.84
522.38	51594.77
522.55	52191.61
522.72	52535.66
522.89	52718.23
523.07	53254.21
523.24	53769.13
523.41	54614.06
523.58	54684.28
523.75	55234.30
523.92	54784.92
524.10	54843.43
524.27	54974.50
524.44	54658.53
524.61	55009.61
524.78	54183.40
524.96	54403.41
525.13	54415.11
525.30	54658.53
525.47	55302.18
525.64	54618.74
525.81	53628.69
525.98	52507.58
526.16	50461.95
526.33	50110.87
526.50	49048.27
526.67	48907.83
526.84	50176.40
527.01	50911.33
527.18	52439.70
527.36	53153.57
527.53	54403.41
527.70	54630.44
527.87	53769.13
528.04	53279.96
528.21	53741.04
528.38	54784.92
528.55	55515.17
528.72	55817.10
528.89	56172.86
529.07	55508.14
529.24	54679.60
529.41	54120.21
529.58	53563.16
529.75	53588.91
529.92	54061.69
530.09	54574.27
530.26	55316.22
530.43	55484.74
530.60	55550.27
530.77	55730.50
530.94	55929.44
531.11	55337.29
531.28	54951.10
531.46	54866.84
531.63	55002.59
531.80	54794.28
531.97	54164.68
532.14	53116.12
532.31	52486.51
532.48	52006.70
532.65	52402.25
532.82	52814.19
532.99	53918.92
533.16	54415.11
533.33	54754.49
533.50	54759.17
533.67	53829.98
533.84	53656.78
534.01	53514.01
534.18	53839.34
534.35	54178.72
534.52	54609.38
534.69	54714.70
534.86	54932.37
535.03	55159.41
535.20	55683.69
535.37	56261.80
535.54	56093.28
535.71	55531.55
535.88	55458.99
536.05	54843.43
536.22	54253.62
536.38	53785.51
536.55	53645.08
536.72	53429.75
536.89	53069.31
537.06	53759.76
537.23	54536.82
537.40	54569.59
537.57	55004.93
537.74	55278.77
537.91	55002.59
538.08	54906.63
538.25	55033.02
538.42	55253.03
538.59	54829.39
538.75	54080.42
538.92	54110.85
539.09	53881.47
539.26	53923.60
539.43	53977.43
539.60	54136.59
539.77	54635.13
539.94	54382.35
540.11	53804.24
540.28	53551.46
540.44	54054.67
540.61	53698.91
540.78	54621.08
540.95	55047.06
541.12	55938.80
541.29	56339.04
541.46	56830.55
541.62	56439.68
541.79	56533.30
541.96	56023.06
542.13	55812.41
542.30	56046.47
542.47	56350.74
542.63	55800.71
542.80	55594.74
542.97	55674.32
543.14	55557.30
543.31	55800.71
543.48	56360.10
543.64	57162.90
543.81	57382.91
543.98	56795.44
544.15	56388.19
544.32	55573.68
544.48	55889.65
544.65	56313.29
544.82	56456.06
544.99	56100.30
545.16	56037.11
545.32	56004.34
545.49	58623.40
545.66	60203.26
545.83	60587.11
546.00	59124.27
546.16	57123.11
546.33	56175.20
546.50	55714.11
546.67	56018.38
546.83	54930.03
547.00	55112.59
547.17	54141.27
547.34	53722.32
547.50	53743.38
547.67	54396.39
547.84	54319.15
548.00	54693.64
548.17	54960.46
548.34	54834.07
548.51	55030.68
548.67	55040.04
548.84	54756.83
549.01	54913.65
549.18	54541.50
549.34	55161.75
549.51	54490.01
549.68	54426.82
549.84	54405.75
550.01	53879.13
550.18	54728.75
550.34	54555.55
550.51	54131.91
550.68	54277.02
550.84	53567.84
551.01	53593.59
551.18	53593.59
551.34	53719.98
551.51	53932.96
551.68	54330.86
551.84	54356.60
552.01	53986.80
552.18	53769.13
552.34	53006.11
552.51	52736.95
552.68	52540.35
552.84	53275.27
553.01	53429.75
553.18	53511.67
553.34	53331.45
553.51	53048.24
553.67	53715.29
553.84	54169.36
554.01	53757.42
554.17	53371.24
554.34	53240.17
554.51	53736.36
554.67	54026.59
554.84	53722.32
555.00	53205.06
555.17	53195.70
555.33	52952.28
555.50	52870.36
555.67	52767.38
555.83	52762.70
556.00	52746.31
556.16	53675.51
556.33	52027.77
556.50	51978.62
556.66	51910.74
556.83	51435.61
556.99	51566.68
557.16	52144.80
557.32	52149.48
557.49	52315.65
557.65	52191.61
557.82	51901.38
557.98	52062.88
558.15	51494.13
558.32	50810.69
558.48	49375.94
558.65	50103.85
558.81	50454.93
558.98	50209.17
559.14	50649.19
559.31	50944.10
559.47	50981.55
559.64	50387.05
559.80	50473.65
559.97	50005.55
560.13	50913.67
560.30	51547.96
560.46	52355.44
560.63	52608.22
560.79	52591.84
560.96	52090.96
561.12	50604.72
561.29	49656.81
561.45	49691.91
561.61	50066.40
561.78	51690.73
561.94	50979.21
562.11	51262.41
562.27	50691.32
562.44	51152.41
562.60	51250.71
562.77	51700.09
562.93	52027.77
563.10	51517.53
563.26	50600.04
563.42	50756.86
563.59	50356.63
563.75	49991.50
563.92	51035.38
564.08	50810.69
564.24	50923.04
564.41	50803.67
564.57	50667.92
564.74	50153.00
564.90	50064.06
565.07	50263.00
565.23	49787.88
565.39	48832.94
565.56	48463.13
565.72	48280.57
565.88	48807.19
566.05	49102.10
566.21	49343.17
566.38	49387.64
566.54	49483.61
566.70	50431.52
566.87	50265.34
567.03	50408.12
567.19	50340.24
567.36	50323.86
567.52	49846.39
567.68	49897.88
567.85	49045.93
568.01	48451.43
568.17	47824.17
568.34	48142.48
568.50	48142.48
568.66	48018.43
568.83	49074.01
568.99	48411.64
569.15	48828.26
569.32	48935.92
569.48	48760.38
569.64	48491.22
569.81	47807.78
569.97	47606.50
570.13	47999.71
570.30	47470.75
570.46	46724.11
570.62	46155.36
570.78	46071.10
570.95	46288.77
571.11	47765.65
571.27	47835.87
571.43	47526.92
571.60	48603.56
571.76	48081.63
571.92	48795.49
572.09	48891.45
572.25	48617.61
572.41	48718.25
572.57	48481.86
572.74	48842.30
572.90	48486.54
573.06	48133.12
573.22	48067.58
573.38	48205.67
573.55	48027.79
573.71	48594.20
573.87	48282.91
574.03	47236.69
574.20	47983.32
574.36	47803.10
574.52	47482.45
574.68	47243.71
574.84	46972.21
575.01	46541.55
575.17	46490.06
575.33	46646.88
575.49	47012.00
575.65	47632.24
575.82	46986.25
575.98	47063.49
576.14	47033.07
576.30	48081.63
576.46	48577.82
576.62	49551.48
576.79	48676.12
576.95	48383.55
577.11	47349.04
577.27	46906.68
577.43	47173.50
577.59	46623.47
577.75	46258.35
577.92	45102.12
578.08	44631.68
578.24	45333.84
578.40	46389.42
578.56	47498.83
578.72	47899.06
578.88	48285.25
579.04	47236.69
579.21	46967.53
579.37	46611.77
579.53	46677.30
579.69	46960.51
579.85	47299.89
580.01	46897.31
580.17	46382.40
580.33	46174.09
580.49	46440.91
580.65	46684.33
580.82	46944.12
580.98	46499.42
581.14	46410.48
581.30	46969.87
581.46	46859.87
581.62	47103.28
581.78	47082.22
581.94	47601.82
582.10	46911.36
582.26	47173.50
582.42	47133.71
582.58	47421.59
582.74	46880.93
582.90	47531.60
583.06	47550.32
583.22	46749.86
583.38	47550.32
583.54	46955.83
583.70	47669.69
583.86	47250.74
584.02	46965.19
584.18	47906.08
584.34	46644.54
584.50	46899.65
584.66	46361.33
584.82	45626.40
584.98	46246.65
