SpectraSuite Data File
++++++++++++++++++++++++++++++++++++
Date: Mon Oct 07 14:54:56 GMT-05:00 2013
User: price-jones
Dark Spectrum Present: No
Reference Spectrum Present: No
Number of Sampled Component Spectra: 1
Spectrometers: USB2+H05261
Integration Time (usec): 10000 (USB2+H05261)
Spectra Averaged: 1 (USB2+H05261)
Boxcar Smoothing: 0 (USB2+H05261)
Correct for Electrical Dark: No (USB2+H05261)
Strobe/Lamp Enabled: No (USB2+H05261)
Correct for Detector Non-linearity: No (USB2+H05261)
Correct for Stray Light: No (USB2+H05261)
Number of Pixels in Processed Spectrum: 2048
>>>>>Begin Processed Spectral Data<<<<<
365.73	0.00
365.92	0.00
366.12	0.00
366.32	0.00
366.52	0.00
366.72	0.00
366.91	0.00
367.11	0.00
367.31	0.00
367.51	0.00
367.70	0.00
367.90	0.00
368.10	0.00
368.30	0.00
368.49	0.00
368.69	0.00
368.89	0.00
369.09	0.00
369.28	0.00
369.48	0.00
369.68	0.00
369.87	0.00
370.07	0.00
370.27	0.00
370.47	0.00
370.66	299.59
370.86	322.99
371.06	355.76
371.25	344.06
371.45	276.18
371.65	229.37
371.84	297.25
372.04	369.80
372.24	278.52
372.44	337.04
372.63	369.80
372.83	320.65
373.03	255.12
373.22	243.42
373.42	297.25
373.62	320.65
373.81	407.25
374.01	327.68
374.21	297.25
374.40	313.63
374.60	255.12
374.79	397.89
374.99	451.72
375.19	454.06
375.38	503.22
375.58	444.70
375.78	617.90
375.97	454.06
376.17	423.64
376.37	454.06
376.56	437.68
376.76	500.87
376.95	524.28
377.15	601.52
377.35	624.92
377.54	648.33
377.74	753.65
377.93	662.37
378.13	624.92
378.33	615.56
378.52	573.43
378.72	505.56
378.91	486.83
379.11	554.71
379.31	500.87
379.50	524.28
379.70	585.13
379.89	695.14
380.09	641.31
380.28	692.80
380.48	566.41
380.68	592.16
380.87	690.46
381.07	589.82
381.26	479.81
381.46	468.11
381.65	468.11
381.85	344.06
382.04	330.02
382.24	285.55
382.43	306.61
382.63	306.61
382.83	245.76
383.02	325.33
383.22	252.78
383.41	346.40
383.61	400.23
383.80	435.34
384.00	580.45
384.19	648.33
384.39	594.50
384.58	601.52
384.78	678.76
384.97	533.64
385.17	650.67
385.36	468.11
385.56	498.53
385.75	531.30
385.95	559.39
386.14	678.76
386.34	709.18
386.53	571.09
386.72	514.92
386.92	601.52
387.11	660.03
387.31	524.28
387.50	645.99
387.70	557.05
387.89	603.86
388.09	543.00
388.28	575.77
388.48	678.76
388.67	596.84
388.86	805.14
389.06	741.95
389.25	875.36
389.45	793.44
389.64	880.04
389.84	873.02
390.03	774.72
390.22	940.90
390.42	840.25
390.61	945.58
390.81	1029.84
391.00	1071.97
391.19	1170.27
391.39	987.71
391.58	973.66
391.78	814.51
391.97	830.89
392.16	727.91
392.36	613.22
392.55	442.36
392.75	320.65
392.94	180.22
393.13	231.71
393.33	311.29
393.52	521.94
393.71	601.52
393.91	770.04
394.10	774.72
394.29	912.81
394.49	1004.09
394.68	1158.57
394.88	1090.69
395.07	1090.69
395.26	1078.99
395.46	1078.99
395.65	983.02
395.84	847.27
396.04	657.69
396.23	465.77
396.42	320.65
396.62	320.65
396.81	500.87
397.00	702.16
397.19	851.96
397.39	1114.10
397.58	1217.08
397.77	1420.71
397.97	1284.95
398.16	1458.15
398.35	1416.02
398.55	1380.92
398.74	1465.18
398.93	1521.35
399.12	1486.24
399.32	1486.24
399.51	1561.14
399.70	1603.27
399.90	1629.01
400.09	1680.50
400.28	1556.46
400.47	1621.99
400.67	1647.74
400.86	1638.38
401.05	1654.76
401.24	1748.38
401.44	1781.15
401.63	1783.49
401.82	1720.29
402.01	1834.98
402.21	1748.38
402.40	1827.96
402.59	1659.44
402.78	1568.16
402.97	1528.37
403.17	1593.90
403.36	1802.21
403.55	1748.38
403.74	1823.28
403.93	1790.51
404.13	1638.38
404.32	1516.67
404.51	1671.14
404.70	1860.73
404.89	1947.33
405.09	1732.00
405.28	1645.40
405.47	1724.97
405.66	1797.53
405.85	1561.14
406.05	1680.50
406.24	1647.74
406.43	1671.14
406.62	1853.70
406.81	1898.17
407.00	1647.74
407.20	1631.35
407.39	1645.40
407.58	1701.57
407.77	1736.68
407.96	1926.26
408.15	1933.28
408.34	1895.83
408.54	1991.80
408.73	2050.31
408.92	1891.15
409.11	1781.15
409.30	1820.94
409.49	1710.93
409.68	1516.67
409.87	1511.99
410.07	1685.19
410.26	1895.83
410.45	1900.52
410.64	1982.43
410.83	2040.95
411.02	1989.46
411.21	2172.02
411.40	2059.67
411.59	2111.16
411.78	2193.08
411.98	2010.52
412.17	2064.35
412.36	2099.46
412.55	2122.87
412.74	2125.21
412.93	1989.46
413.12	1959.03
413.31	2197.76
413.50	2270.32
413.69	2190.74
413.88	2092.44
414.07	2200.10
414.26	2176.70
414.45	2211.81
414.64	2221.17
414.83	2148.61
415.02	2108.82
415.22	2167.34
415.41	2211.81
415.60	2267.98
415.79	2298.41
415.98	2396.71
416.17	2513.74
416.36	2399.05
416.55	2331.17
416.74	2230.53
416.93	2165.00
417.12	2169.68
417.31	2153.29
417.50	2202.44
417.69	2277.34
417.88	2258.62
418.07	2361.60
418.26	2237.55
418.45	2317.13
418.64	2401.39
418.83	2373.30
419.02	2450.54
419.21	2340.54
419.39	2267.98
419.58	2085.42
419.77	2052.65
419.96	2272.66
420.15	2396.71
420.34	2476.29
420.53	2509.05
420.72	2565.23
420.91	2642.46
421.10	2565.23
421.29	2469.27
421.48	2363.94
421.67	2569.91
421.86	2457.56
422.05	2305.43
422.24	2062.01
422.43	2026.90
422.61	2244.57
422.80	2286.70
422.99	2335.85
423.18	2260.96
423.37	2237.55
423.56	2303.09
423.75	2298.41
423.94	2340.54
424.13	2155.63
424.32	2260.96
424.50	2237.55
424.69	2279.68
424.88	2251.60
425.07	2347.56
425.26	2223.51
425.45	2267.98
425.64	2092.44
425.83	2104.14
426.01	2298.41
426.20	2331.17
426.39	2363.94
426.58	2139.25
426.77	1937.96
426.96	1928.60
427.15	2015.20
427.33	2188.40
427.52	2230.53
427.71	2214.15
427.90	2221.17
428.09	2153.29
428.28	2165.00
428.46	2064.35
428.65	2017.54
428.84	2099.46
429.03	2111.16
429.22	1949.67
429.40	1834.98
429.59	1689.87
429.78	1430.07
429.97	1390.28
430.16	1493.26
430.34	1575.18
430.53	1497.94
430.72	1614.97
430.91	1675.82
431.10	2043.29
431.28	2464.58
431.47	2588.63
431.66	2654.17
431.85	2356.92
432.03	2162.66
432.22	2062.01
432.41	2202.44
432.60	2431.82
432.79	2574.59
432.97	2504.37
433.16	2626.08
433.35	2352.24
433.54	2036.27
433.72	1886.47
433.91	1966.05
434.10	2200.10
434.28	2483.31
434.47	2590.97
434.66	2483.31
434.85	2282.02
435.03	2401.39
435.22	2548.84
435.41	2499.69
435.59	2537.14
435.78	2663.53
435.97	2672.89
436.16	2640.12
436.34	2658.85
436.53	2644.81
436.72	2609.70
436.90	2527.78
437.09	2616.72
437.28	2406.07
437.46	2532.46
437.65	2499.69
437.84	2361.60
438.02	2221.17
438.21	2167.34
438.40	2221.17
438.58	2520.76
438.77	2513.74
438.96	2459.90
439.14	2693.96
439.33	2813.32
439.52	2808.64
439.70	2775.88
439.89	2644.81
440.08	2710.34
440.26	2478.63
440.45	2602.68
440.63	2808.64
440.82	2972.48
441.01	2909.29
441.19	2860.13
441.38	2904.60
441.57	3087.17
441.75	3009.93
441.94	3281.43
442.12	3101.21
442.31	3066.10
442.50	3084.83
442.68	2991.20
442.87	3082.49
443.05	2937.37
443.24	2951.42
443.43	2998.23
443.61	3194.83
443.80	3229.94
443.98	3213.56
444.17	3180.79
444.35	3356.33
444.54	3295.47
444.73	3049.72
444.91	2951.42
445.10	2878.86
445.28	2794.60
445.47	2881.20
445.65	2792.26
445.84	2848.43
446.02	3112.91
446.21	3169.09
446.39	3035.67
446.58	3133.98
446.77	3143.34
446.95	3215.90
447.14	3290.79
447.32	3342.28
447.51	3267.39
447.69	3103.55
447.88	3159.72
448.06	3075.46
448.25	3141.00
448.43	3173.77
448.62	3061.42
448.80	3141.00
448.99	3169.09
449.17	3126.96
449.36	3232.28
449.54	3304.84
449.73	3246.32
449.91	3328.24
450.10	3508.46
450.28	3438.25
450.46	3510.80
450.65	3452.29
450.83	3414.84
451.02	3391.44
451.20	3243.98
451.39	3403.14
451.57	3370.37
451.76	3344.63
451.94	3260.37
452.13	3225.26
452.31	2902.26
452.49	2878.86
452.68	2904.60
452.86	3066.10
453.05	3105.89
453.23	3119.93
453.42	3276.75
453.60	3213.56
453.78	3346.97
453.97	3353.99
454.15	3192.49
454.34	3124.62
454.52	3183.13
454.70	3108.23
454.89	3112.91
455.07	3098.87
455.26	3215.90
455.44	3311.86
455.62	3274.41
455.81	3421.86
455.99	3353.99
456.17	3316.54
456.36	3346.97
456.54	3475.70
456.73	3566.98
456.91	3452.29
457.09	3534.21
457.28	3723.79
457.46	3370.37
457.64	3475.70
457.83	3295.47
458.01	3262.71
458.19	3321.22
458.38	3265.05
458.56	3386.76
458.74	3545.91
458.93	3318.88
459.11	3255.69
459.29	3204.19
459.48	3122.27
459.66	3272.07
459.84	3463.99
460.03	3445.27
460.21	3302.50
460.39	3396.12
460.57	3435.91
460.76	3503.78
460.94	3496.76
461.12	3389.10
461.31	3449.95
461.49	3545.91
461.67	3454.63
461.85	3721.45
462.04	3536.55
462.22	3597.40
462.40	3559.95
462.59	3695.71
462.77	3583.36
462.95	3522.51
463.13	3538.89
463.32	3447.61
463.50	3396.12
463.68	3400.80
463.86	3405.48
464.05	3473.36
464.23	3368.03
464.41	3335.26
464.59	3157.38
464.78	3482.72
464.96	3346.97
465.14	3377.39
465.32	3550.59
465.50	3475.70
465.69	3620.81
465.87	3494.42
466.05	3555.27
466.23	3166.74
466.41	3192.49
466.60	3267.39
466.78	3288.45
466.96	3232.28
467.14	3375.05
467.32	3578.68
467.51	3417.18
467.69	3309.52
467.87	3396.12
468.05	3492.08
468.23	3431.23
468.41	3361.01
468.60	3325.90
468.78	3386.76
468.96	3356.33
469.14	3492.08
469.32	3536.55
469.50	3286.11
469.69	3328.24
469.87	3316.54
470.05	3236.96
470.23	3272.07
470.41	3300.16
470.59	3379.73
470.77	3316.54
470.95	3349.31
471.14	3438.25
471.32	3386.76
471.50	3801.03
471.68	3847.84
471.86	3824.44
472.04	3709.75
472.22	3674.64
472.40	3492.08
472.58	3559.95
472.77	3461.65
472.95	3489.74
473.13	3559.95
473.31	3599.74
473.49	3623.15
473.67	3529.53
473.85	3625.49
474.03	3686.34
474.21	3672.30
474.39	3707.41
474.57	3733.15
474.75	3871.25
474.93	3784.65
475.12	3475.70
475.30	3728.47
475.48	3665.28
475.66	3597.40
475.84	3684.00
476.02	3751.88
476.20	3428.88
476.38	3817.41
476.56	3824.44
476.74	3721.45
476.92	3765.92
477.10	3878.27
477.28	4117.00
477.46	4065.51
477.64	4044.45
477.82	4121.68
478.00	4049.13
478.18	3971.89
478.36	3992.95
478.54	3971.89
478.72	4049.13
478.90	4297.22
479.08	4194.24
479.26	4301.90
479.44	4287.86
479.62	4409.57
479.80	4170.83
479.98	4252.75
480.16	4362.76
480.34	4187.22
480.52	4304.25
480.70	4393.19
480.88	4386.16
481.06	4430.63
481.24	4493.83
481.41	4641.28
481.59	4688.09
481.77	4620.22
481.95	4603.83
482.13	4594.47
482.31	4542.98
482.49	4596.81
482.67	4542.98
482.85	4751.29
483.03	4587.45
483.21	4638.94
483.39	4758.31
483.57	4498.51
483.74	4465.74
483.92	4592.13
484.10	4648.30
484.28	4704.48
484.46	4779.37
484.64	4805.12
484.82	4774.69
485.00	4772.35
485.18	4400.21
485.35	4533.62
485.53	4028.06
485.71	3627.83
485.89	3506.12
486.07	3911.04
486.25	4114.66
486.43	4425.95
486.61	4540.64
486.78	4437.66
486.96	4629.58
487.14	4765.33
487.32	4922.15
487.50	5055.56
487.68	5193.65
487.85	5041.51
488.03	5238.12
488.21	5090.67
488.39	5062.58
488.57	4908.10
488.75	4922.15
488.92	4877.68
489.10	5387.91
489.28	5640.69
489.46	5825.59
489.64	5680.48
489.81	5710.91
489.99	5628.99
490.17	5706.23
490.35	5865.38
490.53	5568.13
490.70	5561.11
490.88	5579.84
491.06	5717.93
491.24	5591.54
491.41	5561.11
491.59	5174.92
491.77	4997.04
491.95	5191.31
492.13	5434.72
492.30	5605.58
492.48	5940.28
492.66	6033.90
492.84	5902.83
493.01	5926.24
493.19	5746.02
493.37	5762.40
493.54	5640.69
493.72	5762.40
493.90	6010.50
494.08	6277.32
494.25	6333.49
494.43	6293.70
494.61	6382.64
494.79	6335.83
494.96	6349.87
495.14	6087.73
495.32	5856.02
495.49	5811.55
495.67	6296.04
495.85	6581.59
496.02	6504.35
496.20	6576.91
496.38	6282.00
496.55	6429.45
496.73	6516.05
496.91	6532.44
497.09	6532.44
497.26	6527.75
497.44	6422.43
497.62	6160.29
497.79	6207.10
497.97	5961.34
498.14	5893.47
498.32	6127.52
498.50	6242.21
498.67	6614.35
498.85	6431.79
499.03	6715.00
499.20	6670.53
499.38	6656.48
499.56	6509.03
499.73	6256.25
499.91	6251.57
500.08	6132.20
500.26	5973.05
500.44	6092.41
500.61	6244.55
500.79	6101.78
500.97	6150.93
501.14	6019.86
501.32	6090.07
501.49	6087.73
501.67	6073.69
501.84	6319.45
502.02	6399.02
502.20	6462.22
502.37	6429.45
502.55	6583.93
502.72	6785.21
502.90	6480.94
503.07	6815.64
503.25	6569.88
503.43	6399.02
503.60	6284.34
503.78	6136.88
503.95	6120.50
504.13	6576.91
504.30	6808.62
504.48	6546.48
504.65	6623.72
504.83	6614.35
505.01	6569.88
505.18	6759.47
505.36	7075.44
505.53	6888.20
505.71	6958.41
505.88	6876.49
506.06	6874.15
506.23	6832.02
506.41	6604.99
506.58	6656.48
506.76	6698.61
506.93	6647.12
507.11	6672.87
507.28	6661.16
507.46	6593.29
507.63	6289.02
507.81	6244.55
507.98	6504.35
508.16	6548.82
508.33	6616.69
508.50	6857.77
508.68	6942.03
508.85	7096.50
509.03	7056.72
509.20	6927.99
509.38	6700.95
509.55	6604.99
509.73	6562.86
509.90	6738.40
510.08	6834.36
510.25	6712.66
510.42	6586.27
510.60	6698.61
510.77	6579.25
510.95	6780.53
511.12	6771.17
511.30	6956.07
511.47	7075.44
511.64	7054.37
511.82	7068.42
511.99	6780.53
512.17	6843.73
512.34	6476.26
512.51	6539.46
512.69	6523.07
512.86	6724.36
513.04	6691.59
513.21	6609.67
513.38	6621.38
513.56	6483.28
513.73	6436.47
513.90	6455.20
514.08	6579.25
514.25	6604.99
514.43	6502.01
514.60	6609.67
514.77	6593.29
514.95	6700.95
515.12	6569.88
515.29	6696.27
515.47	6815.64
515.64	6839.05
515.81	6771.17
515.99	6527.75
516.16	6260.93
516.33	5792.83
516.51	5465.15
516.68	5432.38
516.85	5210.03
517.03	5266.21
517.20	5746.02
517.37	6417.75
517.54	6452.86
517.72	6532.44
517.89	5919.21
518.06	5476.85
518.24	5521.32
518.41	5996.45
518.58	6289.02
518.75	6443.49
518.93	6544.14
519.10	6211.78
519.27	6480.94
519.45	6504.35
519.62	6609.67
519.79	6766.49
519.96	6731.38
520.14	6583.93
520.31	6354.55
520.48	6478.60
520.65	6476.26
520.83	6654.14
521.00	6860.11
521.17	6726.70
521.34	6553.50
521.52	6565.20
521.69	6689.25
521.86	6808.62
522.03	6775.85
522.20	6628.40
522.38	6188.38
522.55	6312.42
522.72	6218.80
522.89	6417.75
523.07	6644.78
523.24	6665.85
523.41	6733.72
523.58	6857.77
523.75	6956.07
523.92	7070.76
524.10	6984.16
524.27	6963.09
524.44	7133.95
524.61	6677.55
524.78	6670.53
524.96	6771.17
525.13	6604.99
525.30	7035.65
525.47	7045.01
525.64	6899.90
525.81	6574.56
525.98	6335.83
526.16	6094.76
526.33	5724.95
526.50	5816.23
526.67	5682.82
526.84	5734.31
527.01	6043.26
527.18	6265.61
527.36	6471.58
527.53	6623.72
527.70	6848.41
527.87	6509.03
528.04	6523.07
528.21	6808.62
528.38	6874.15
528.55	6918.62
528.72	7012.24
528.89	7138.63
529.07	6927.99
529.24	6731.38
529.41	6623.72
529.58	6441.15
529.75	6539.46
529.92	6715.00
530.09	6825.00
530.26	6918.62
530.43	6785.21
530.60	6920.96
530.77	6925.65
530.94	7063.74
531.11	6944.37
531.28	6923.30
531.46	6799.26
531.63	6780.53
531.80	6808.62
531.97	6597.97
532.14	6553.50
532.31	6380.30
532.48	6211.78
532.65	6127.52
532.82	6186.04
532.99	6562.86
533.16	6452.86
533.33	6792.23
533.50	6815.64
533.67	6609.67
533.84	6523.07
534.01	6731.38
534.18	6616.69
534.35	6609.67
534.52	6532.44
534.69	6576.91
534.86	6595.63
535.03	6913.94
535.20	7148.00
535.37	6944.37
535.54	6876.49
535.71	6988.84
535.88	6876.49
536.05	6656.48
536.22	6581.59
536.38	6342.85
536.55	6361.58
536.72	6209.44
536.89	6115.82
537.06	6427.11
537.23	6586.27
537.40	6700.95
537.57	6558.18
537.74	6670.53
537.91	6668.19
538.08	6516.05
538.25	6499.67
538.42	6516.05
538.59	6623.72
538.75	6476.26
538.92	6237.53
539.09	6480.94
539.26	6324.13
539.43	6354.55
539.60	6242.21
539.77	6263.27
539.94	6307.74
540.11	5996.45
540.28	5954.32
540.44	6061.99
540.61	5870.06
540.78	6087.73
540.95	6125.18
541.12	6197.74
541.29	6260.93
541.46	6394.34
541.62	6427.11
541.79	6429.45
541.96	6274.98
542.13	6209.44
542.30	6345.19
542.47	6204.76
542.63	6223.48
542.80	6164.97
542.97	6122.84
543.14	6195.40
543.31	6284.34
543.48	6300.72
543.64	6487.96
543.81	6700.95
543.98	6471.58
544.15	6380.30
544.32	6300.72
544.48	6401.37
544.65	6279.66
544.82	6455.20
544.99	6396.68
545.16	6403.71
545.32	6228.17
545.49	6403.71
545.66	6384.98
545.83	6450.52
546.00	6448.18
546.16	6223.48
546.33	6188.38
546.50	6125.18
546.67	6335.83
546.83	6340.51
547.00	6258.59
547.17	6047.94
547.34	5970.71
547.50	6115.82
547.67	6246.89
547.84	6087.73
548.00	6066.67
548.17	6324.13
548.34	6251.57
548.51	6232.85
548.67	6118.16
548.84	6483.28
549.01	6424.77
549.18	6296.04
549.34	6382.64
549.51	6193.06
549.68	6080.71
549.84	6069.01
550.01	6286.68
550.18	6090.07
550.34	5984.75
550.51	6104.12
550.68	6321.79
550.84	6251.57
551.01	5942.62
551.18	6094.76
551.34	6171.99
551.51	6197.74
551.68	6239.87
551.84	6125.18
552.01	6015.18
552.18	6155.61
552.34	5898.15
552.51	5841.98
552.68	5809.21
552.84	6026.88
553.01	6167.31
553.18	6094.76
553.34	6125.18
553.51	6078.37
553.67	6148.59
553.84	6267.95
554.01	6071.35
554.17	6129.86
554.34	6153.27
554.51	6008.16
554.67	6038.58
554.84	6267.95
555.00	6115.82
555.17	6022.20
555.33	6022.20
555.50	6094.76
555.67	6104.12
555.83	5849.00
556.00	5853.68
556.16	5846.66
556.33	5858.36
556.50	5746.02
556.66	5856.02
556.83	5788.14
556.99	5731.97
557.16	5764.74
557.32	5853.68
557.49	5846.66
557.65	5769.42
557.82	5874.74
557.98	5837.30
558.15	5743.67
558.32	5600.90
558.48	5378.55
558.65	5430.04
558.81	5481.53
558.98	5724.95
559.14	5638.35
559.31	5666.44
559.47	5554.09
559.64	5593.88
559.80	5458.13
559.97	5476.85
560.13	5554.09
560.30	5762.40
560.46	5905.17
560.63	5921.56
560.79	6017.52
560.96	5895.81
561.12	5673.46
561.29	5483.88
561.45	5598.56
561.61	5462.81
561.78	5659.42
561.94	5598.56
562.11	5636.01
562.27	5523.66
562.44	5666.44
562.60	5741.33
562.77	5741.33
562.93	5647.71
563.10	5631.33
563.26	5619.63
563.42	5612.60
563.59	5521.32
563.75	5504.94
563.92	5612.60
564.08	5518.98
564.24	5577.50
564.41	5533.03
564.57	5570.48
564.74	5598.56
564.90	5626.65
565.07	5425.36
565.23	5444.09
565.39	5366.85
565.56	5132.79
565.72	5004.07
565.88	5315.36
566.05	5308.34
566.21	5364.51
566.38	5348.12
566.54	5371.53
566.70	5350.46
566.87	5523.66
567.03	5577.50
567.19	5516.64
567.36	5378.55
567.52	5565.79
567.68	5488.56
567.85	5256.84
568.01	5228.76
568.17	4947.89
568.34	5125.77
568.50	5039.17
568.66	5254.50
568.83	5247.48
568.99	5280.25
569.15	5401.96
569.32	5303.65
569.48	5240.46
569.64	5315.36
569.81	5011.09
569.97	5043.85
570.13	5039.17
570.30	5123.43
570.46	4931.51
570.62	4786.40
570.78	4823.84
570.95	4868.31
571.11	5011.09
571.27	5055.56
571.43	5191.31
571.60	5015.77
571.76	5064.92
571.92	5205.35
572.09	5128.11
572.25	5207.69
572.41	5165.56
572.57	5245.14
572.74	5219.39
572.90	5142.16
573.06	4997.04
573.22	5207.69
573.38	5165.56
573.55	5022.79
573.71	5275.57
573.87	5041.51
574.03	5067.26
574.20	5036.83
574.36	5013.43
574.52	5043.85
574.68	5069.60
574.84	4910.44
575.01	4896.40
575.17	4809.80
575.33	4952.57
575.49	4980.66
575.65	4877.68
575.82	4983.00
575.98	4851.93
576.14	4987.68
576.30	4847.25
576.46	4835.55
576.62	4809.80
576.79	4765.33
576.95	4880.02
577.11	4805.12
577.27	4908.10
577.43	4990.02
577.59	4873.00
577.75	4819.16
577.92	4617.88
578.08	4636.60
578.24	4613.20
578.40	4777.03
578.56	4746.61
578.72	4692.77
578.88	4720.86
579.04	4746.61
579.21	4758.31
579.37	4807.46
579.53	4774.69
579.69	4765.33
579.85	5032.15
580.01	4758.31
580.17	4718.52
580.33	4664.69
580.49	4751.29
580.65	4821.50
580.82	4741.93
580.98	4809.80
581.14	4641.28
581.30	4781.71
581.46	4903.42
581.62	4786.40
581.78	4748.95
581.94	4821.50
582.10	4699.80
582.26	4805.12
582.42	4983.00
582.58	4828.53
582.74	4720.86
582.90	4739.58
583.06	4788.74
583.22	4807.46
583.38	4732.56
583.54	4802.78
583.70	4741.93
583.86	4557.02
584.02	4645.96
584.18	4762.99
584.34	4671.71
584.50	4683.41
584.66	4678.73
584.82	4578.09
584.98	4648.30
585.14	4706.82
585.30	4475.10
585.46	4517.23
585.62	4505.53
585.78	4484.47
585.94	4418.93
586.10	4512.55
586.26	4393.19
586.42	4573.41
586.58	4601.49
586.74	4657.67
586.90	4650.64
587.06	4596.81
587.22	4660.01
587.38	4587.45
587.54	4465.74
587.70	4374.46
587.86	4332.33
588.02	4374.46
588.18	4374.46
588.34	4077.21
588.49	4035.08
588.65	3730.81
588.81	3620.81
588.97	3918.06
589.13	3679.32
589.29	3730.81
589.45	3801.03
589.61	3878.27
589.77	4014.02
589.93	4248.07
590.08	4290.20
590.24	4224.67
590.40	4311.27
590.56	4332.33
590.72	4198.92
590.88	4280.84
591.04	4166.15
591.20	4191.90
591.35	4238.71
591.51	4128.70
591.67	4231.69
591.83	4004.66
591.99	4264.46
592.15	4248.07
592.31	4311.27
592.46	4135.73
592.62	4264.46
592.78	4236.37
592.94	4203.60
593.10	4173.18
593.26	4231.69
593.41	4229.35
593.57	4077.21
593.73	4145.09
593.89	4014.02
594.05	4217.65
594.20	4070.19
594.36	3976.57
594.52	3880.61
594.68	3950.82
594.84	4095.94
594.99	4098.28
595.15	4105.30
595.31	4102.96
595.47	4086.58
595.62	4215.30
595.78	4219.99
595.94	4219.99
596.10	4311.27
596.25	4119.34
596.41	3953.16
596.57	4121.68
596.73	4114.66
596.88	3990.61
597.04	3974.23
597.20	4032.74
597.36	4100.62
597.51	4051.47
597.67	4154.45
597.83	4042.11
