SpectraSuite Data File
++++++++++++++++++++++++++++++++++++
Date: Mon Oct 07 14:53:02 GMT-05:00 2013
User: price-jones
Dark Spectrum Present: No
Reference Spectrum Present: No
Number of Sampled Component Spectra: 1
Spectrometers: USB2+H05261
Integration Time (usec): 100000 (USB2+H05261)
Spectra Averaged: 1 (USB2+H05261)
Boxcar Smoothing: 0 (USB2+H05261)
Correct for Electrical Dark: No (USB2+H05261)
Strobe/Lamp Enabled: No (USB2+H05261)
Correct for Detector Non-linearity: No (USB2+H05261)
Correct for Stray Light: No (USB2+H05261)
Number of Pixels in Processed Spectrum: 2048
>>>>>Begin Processed Spectral Data<<<<<
365.73	0.00
365.92	0.00
366.12	0.00
366.32	0.00
366.52	0.00
366.72	0.00
366.91	0.00
367.11	0.00
367.31	0.00
367.51	0.00
367.70	0.00
367.90	0.00
368.10	0.00
368.30	0.00
368.49	0.00
368.69	0.00
368.89	0.00
369.09	0.00
369.28	0.00
369.48	0.00
369.68	0.00
369.87	0.00
370.07	0.00
370.27	0.00
370.47	449.38
370.66	2656.51
370.86	3246.32
371.06	3489.74
371.25	3461.65
371.45	3061.42
371.65	2789.92
371.84	2675.23
372.04	2839.07
372.24	3110.57
372.44	3171.43
372.63	3297.81
372.83	3040.36
373.03	2647.15
373.22	2462.24
373.42	2532.46
373.62	2930.35
373.81	3262.71
374.01	3169.09
374.21	2902.26
374.40	2649.49
374.60	2679.91
374.79	3112.91
374.99	3618.47
375.19	3974.23
375.38	3908.69
375.58	3653.58
375.78	3730.81
375.97	3684.00
376.17	3882.95
376.37	3868.91
376.56	3950.82
376.76	4367.44
376.95	4458.72
377.15	4762.99
377.35	4975.98
377.54	5217.05
377.74	5221.74
377.93	5118.75
378.13	5181.95
378.33	4884.70
378.52	4463.40
378.72	4227.01
378.91	4325.31
379.11	4014.02
379.31	4070.19
379.50	4079.55
379.70	4386.16
379.89	4870.65
380.09	5069.60
380.28	5095.35
380.48	5240.46
380.68	5228.76
380.87	4978.32
381.07	4643.62
381.26	4264.46
381.46	3896.99
381.65	4004.66
381.85	3803.37
382.04	3433.57
382.24	3384.41
382.43	3169.09
382.63	3075.46
382.83	3187.81
383.02	3103.55
383.22	3131.64
383.41	3138.66
383.61	3475.70
383.80	3943.80
384.00	4285.52
384.19	5034.49
384.39	5130.45
384.58	5179.61
384.78	5163.22
384.97	5043.85
385.17	4727.88
385.36	4524.26
385.56	4341.69
385.75	4507.87
385.95	4990.02
386.14	5303.65
386.34	5228.76
386.53	4997.04
386.72	4723.20
386.92	4816.82
387.11	5039.17
387.31	5547.07
387.50	5231.10
387.70	5041.51
387.89	4968.96
388.09	4985.34
388.28	4964.28
388.48	5116.41
388.67	5493.24
388.86	6207.10
389.06	6630.74
389.25	6855.43
389.45	6913.94
389.64	6801.60
389.84	6677.55
390.03	6593.29
390.22	6757.13
390.42	6993.52
390.61	7545.89
390.81	7730.79
391.00	8060.80
391.19	7967.18
391.39	7882.92
391.58	7309.49
391.78	6888.20
391.97	6513.71
392.16	6129.86
392.36	5516.64
392.55	4425.95
392.75	3609.11
392.94	2789.92
393.13	2958.44
393.33	3440.59
393.52	4491.49
393.71	5465.15
393.91	6265.61
394.10	6663.51
394.29	7194.81
394.49	7688.66
394.68	8381.46
394.88	8294.86
395.07	8704.45
395.26	8610.83
395.46	8477.42
395.65	7765.90
395.84	7068.42
396.04	5762.40
396.23	4676.39
396.42	3962.53
396.62	3786.99
396.81	4531.28
397.00	5769.42
397.19	7122.25
397.39	8503.17
397.58	9554.07
397.77	10211.76
397.97	10553.48
398.16	10518.37
398.35	11070.73
398.55	11339.90
398.74	11782.26
398.93	12123.98
399.12	11934.39
399.32	11316.49
399.51	11690.98
399.70	12559.31
399.90	12283.13
400.09	12456.33
400.28	12053.76
400.47	12212.92
400.67	13036.78
400.86	13348.08
401.05	13219.35
401.24	13186.58
401.44	13603.19
401.63	13593.83
401.82	13352.76
402.01	13575.11
402.21	13584.47
402.40	13778.73
402.59	13453.40
402.78	13020.40
402.97	12573.36
403.17	12886.99
403.36	13692.13
403.55	14384.93
403.74	14462.17
403.93	13792.78
404.13	12915.08
404.32	12596.76
404.51	12875.29
404.70	14068.96
404.89	14235.14
405.09	13853.63
405.28	13661.71
405.47	13298.92
405.66	13474.46
405.85	13004.02
406.05	12870.61
406.24	12926.78
406.43	13685.11
406.62	13898.10
406.81	14108.75
407.00	13799.80
407.20	13153.81
407.39	13369.14
407.58	14066.62
407.77	14403.66
407.96	14850.70
408.15	15344.55
408.34	15447.54
408.54	15756.49
408.73	15971.82
408.92	15861.81
409.11	15555.20
409.30	14565.15
409.49	13666.39
409.68	12805.07
409.87	12678.68
410.07	13369.14
410.26	14237.48
410.45	15248.59
410.64	15510.73
410.83	15744.78
411.02	16468.01
411.21	16924.41
411.40	16805.05
411.59	16795.68
411.78	16753.55
411.98	16641.21
412.17	16964.20
412.36	16547.59
412.55	16599.08
412.74	16219.91
412.93	15871.17
413.12	16180.12
413.31	17715.51
413.50	17439.33
413.69	17895.74
413.88	17434.65
414.07	16732.49
414.26	17242.73
414.45	17654.66
414.64	17720.20
414.83	17715.51
415.02	17397.20
415.22	17511.89
415.41	17944.89
415.60	18459.81
415.79	19115.16
415.98	19693.27
416.17	19466.24
416.36	18963.02
416.55	18586.19
416.74	17851.27
416.93	17694.45
417.12	17544.66
417.31	17818.50
417.50	18321.71
417.69	18679.82
417.88	18581.51
418.07	18314.69
418.26	17940.21
418.45	18422.36
418.64	19066.00
418.83	19939.02
419.02	19538.79
419.21	19318.78
419.39	18417.68
419.58	17734.24
419.77	17841.90
419.96	18602.58
420.15	19616.03
420.34	19969.45
420.53	20561.61
420.72	21069.50
420.91	21076.52
421.10	20613.10
421.29	20456.28
421.48	19576.24
421.67	20858.85
421.86	20526.50
422.05	18871.74
422.24	16872.92
422.43	16861.22
422.61	18567.47
422.80	20121.59
422.99	20023.28
423.18	19346.87
423.37	18993.45
423.56	18771.10
423.75	19288.35
423.94	19468.58
424.13	18778.12
424.32	18724.29
424.50	18986.43
424.69	18492.57
424.88	18892.80
425.07	18906.85
425.26	18911.53
425.45	18616.62
425.64	18052.55
425.83	18225.75
426.01	19311.76
426.20	19475.60
426.39	19585.60
426.58	18078.30
426.77	16802.71
426.96	16585.04
427.15	16695.04
427.33	18324.05
427.52	18972.38
427.71	18792.16
427.90	18417.68
428.09	18532.36
428.28	18099.36
428.46	17589.13
428.65	17481.46
428.84	17664.02
429.03	17984.68
429.22	17123.36
429.40	16049.05
429.59	14661.12
429.78	13207.64
429.97	13118.70
430.16	13411.27
430.34	13193.60
430.53	13371.48
430.72	13591.49
430.91	14998.15
431.10	17799.77
431.28	20828.43
431.47	22398.93
431.66	22576.81
431.85	20524.16
432.03	18979.40
432.22	18174.26
432.41	18890.46
432.60	20812.04
432.79	21860.60
432.97	22352.12
433.16	21614.85
433.35	19700.29
433.54	18024.47
433.72	16720.79
433.91	17745.94
434.10	19316.44
434.28	20819.07
434.47	21682.72
434.66	21535.27
434.85	21170.15
435.03	20760.55
435.22	21635.91
435.41	22728.94
435.59	22693.83
435.78	22934.91
435.97	23838.36
436.16	23740.05
436.34	23281.31
436.53	22778.09
436.72	23028.53
436.90	21500.16
437.09	21310.58
437.28	21434.63
437.46	21935.50
437.65	21949.54
437.84	20421.17
438.02	18878.76
438.21	18750.03
438.40	19763.48
438.58	21324.62
438.77	22260.84
438.96	22288.92
439.14	22986.40
439.33	23826.65
439.52	24259.65
439.70	23510.68
439.89	22885.76
440.08	22302.96
440.26	22621.28
440.45	23309.40
440.63	24444.56
440.82	26150.81
441.01	25406.52
441.19	25490.77
441.38	25579.71
441.57	26724.24
441.75	27030.85
441.94	27035.53
442.12	27054.25
442.31	27700.24
442.50	27307.03
442.68	27295.33
442.87	27080.00
443.05	26188.25
443.24	26836.58
443.43	27491.93
443.61	27845.35
443.80	28009.19
443.98	26532.31
444.17	26480.82
444.35	28231.54
444.54	28774.55
444.73	28407.08
444.91	26991.06
445.10	25811.43
445.28	24978.20
445.47	24680.95
445.65	24753.51
445.84	25809.09
446.02	26558.06
446.21	26703.17
446.39	26850.63
446.58	27452.14
446.77	27709.60
446.95	27868.76
447.14	28456.23
447.32	28982.85
447.51	28161.33
447.69	27126.81
447.88	26773.39
448.06	27667.47
448.25	27740.03
448.43	28292.40
448.62	27718.96
448.80	27812.59
448.99	27735.35
449.17	27910.89
449.36	28245.58
449.54	28924.34
449.73	29113.92
449.91	29872.26
450.10	30522.93
450.28	31105.72
450.46	30895.07
450.65	31400.63
450.83	30579.10
451.02	29975.24
451.20	29867.58
451.39	29677.99
451.57	29483.73
451.76	29689.70
451.94	29603.10
452.13	28910.30
452.31	27381.93
452.49	26111.02
452.68	26874.03
452.86	27056.59
453.05	27363.20
453.23	28432.83
453.42	28631.77
453.60	29092.86
453.78	29523.52
453.97	29132.65
454.15	29465.00
454.34	28512.41
454.52	28950.09
454.70	28219.84
454.89	28524.11
455.07	28486.66
455.26	29167.76
455.44	30368.45
455.62	30801.45
455.81	30705.49
455.99	30703.15
456.17	30174.19
456.36	30415.26
456.54	30866.98
456.73	31112.74
456.91	31807.88
457.09	31742.35
457.28	32648.13
457.46	31087.00
457.64	31002.74
457.83	30043.12
458.01	29214.57
458.19	30331.00
458.38	30448.03
458.56	31257.85
458.74	31005.08
458.93	30803.79
459.11	30515.90
459.29	30361.43
459.48	30881.03
459.66	30401.22
459.84	31040.18
460.03	31489.57
460.21	30932.52
460.39	31620.64
460.57	31920.23
460.76	32051.30
460.94	32233.86
461.12	32006.83
461.31	32063.00
461.49	32004.49
461.67	31988.10
461.85	33261.35
462.04	32811.97
462.22	33275.40
462.40	32884.53
462.59	32493.66
462.77	32950.06
462.95	32884.53
463.13	32208.11
463.32	32063.00
463.50	32112.15
463.68	31800.86
463.86	32149.60
464.05	31718.94
464.23	30864.64
464.41	31061.25
464.59	30176.53
464.78	31826.60
464.96	31676.81
465.14	31035.50
465.32	32435.14
465.50	33507.11
465.69	33144.33
465.87	32662.18
466.05	31461.48
466.23	30284.19
466.41	29902.68
466.60	30707.83
466.78	30602.50
466.96	31054.23
467.14	31758.73
467.32	31732.98
467.51	32121.51
467.69	30291.21
467.87	31438.08
468.05	31917.89
468.23	31833.63
468.41	31927.25
468.60	32063.00
468.78	32315.78
468.96	31597.23
469.14	32521.74
469.32	32243.22
469.50	31309.35
469.69	31353.82
469.87	30906.77
470.05	30874.01
470.23	30731.23
470.41	30642.29
470.59	31894.48
470.77	31349.14
470.95	32201.09
471.14	32882.19
471.32	32741.75
471.50	34302.89
471.68	34253.74
471.86	34422.26
472.04	35089.31
472.22	34876.32
472.40	32842.40
472.58	32783.88
472.77	32678.56
472.95	33551.58
473.13	34398.85
473.31	33443.91
473.49	33757.55
473.67	34263.10
473.85	34532.26
474.03	35484.86
474.21	35510.61
474.39	36025.53
474.57	36053.61
474.75	35714.23
474.93	35578.48
475.12	34824.83
475.30	34806.11
475.48	34991.01
475.66	35604.23
475.84	35337.41
476.02	34628.23
476.20	33872.23
476.38	35103.35
476.56	36245.54
476.74	36229.15
476.92	36734.71
477.10	37153.66
477.28	38309.89
477.46	38206.90
477.64	38270.10
477.82	38698.42
478.00	39007.37
478.18	38611.82
478.36	38284.14
478.54	38103.92
478.72	38698.42
478.90	39508.24
479.08	40144.87
479.26	41113.85
479.44	40580.21
479.62	39992.73
479.80	40060.61
479.98	40556.80
480.16	41113.85
480.34	40856.39
480.52	41097.47
480.70	41434.50
480.88	41043.63
481.06	42281.78
481.24	42279.44
481.41	43264.80
481.59	43906.11
481.77	43274.16
481.95	42930.11
482.13	42988.62
482.31	42883.30
482.49	43838.23
482.67	43463.75
482.85	43515.24
483.03	44577.84
483.21	44921.90
483.39	45083.40
483.57	43695.46
483.74	43622.90
483.92	43700.14
484.10	43793.76
484.28	45371.28
484.46	45492.99
484.64	45778.54
484.82	45031.91
485.00	44406.98
485.18	43482.47
485.35	42337.95
485.53	39213.34
485.71	35580.82
485.89	35618.27
486.07	37586.66
486.25	40470.20
486.43	42621.16
486.61	43285.87
486.78	43133.73
486.96	43604.18
487.14	45359.58
487.32	46471.34
487.50	47552.66
487.68	48348.45
487.85	48514.62
488.03	48514.62
488.21	48060.56
488.39	47824.17
488.57	46658.58
488.75	46277.07
488.92	47885.02
489.10	50012.57
489.28	51330.29
489.46	52231.40
489.64	51971.60
489.81	52027.77
489.99	51590.09
490.17	51779.67
490.35	52055.85
490.53	51351.35
490.70	51447.32
490.88	51316.25
491.06	52062.88
491.24	52102.67
491.41	50995.59
491.59	49059.97
491.77	48292.27
491.95	49949.37
492.13	51227.31
492.30	52254.80
492.48	53188.67
492.66	53900.20
492.84	53574.86
493.01	53553.80
493.19	52781.42
493.37	52418.64
493.54	52505.24
493.72	53174.63
493.90	53876.79
494.08	54684.28
494.25	55255.37
494.43	55189.83
494.61	55529.21
494.79	55533.89
494.96	55398.14
495.14	54581.29
495.32	53698.91
495.49	53275.27
495.67	54267.66
495.85	55709.43
496.02	56402.23
496.20	55955.19
496.38	55489.42
496.55	55203.88
496.73	55913.06
496.91	55938.80
497.09	56589.47
497.26	56830.55
497.44	56484.15
497.62	55646.24
497.79	54782.58
497.97	53392.30
498.14	53949.35
498.32	54824.71
498.50	55824.12
498.67	56439.68
498.85	56271.16
499.03	56694.80
499.20	56776.72
499.38	56694.80
499.56	56313.29
499.73	56119.02
499.91	55660.28
500.08	55023.65
500.26	54698.32
500.44	55119.62
500.61	55679.00
500.79	55503.46
500.97	55229.62
501.14	54967.48
501.32	54714.70
501.49	54953.44
501.67	55185.15
501.84	55716.45
502.02	55735.18
502.20	56245.41
502.37	56423.29
502.55	56385.85
502.72	56849.27
502.90	57268.23
503.07	57088.01
503.25	56626.92
503.43	55810.07
503.60	54972.16
503.78	54747.47
503.95	54967.48
504.13	56247.75
504.30	57315.04
504.48	56914.81
504.65	56603.52
504.83	56868.00
505.01	57387.60
505.18	57694.21
505.36	58218.49
505.53	58237.21
505.71	58508.71
505.88	58494.67
506.06	58045.29
506.23	57443.77
506.41	57492.92
506.58	57535.05
506.76	57446.11
506.93	57317.38
507.11	57261.21
507.28	57296.31
507.46	56746.29
507.63	56411.59
507.81	56219.67
507.98	56378.82
508.16	56996.73
508.33	57518.67
508.50	58122.52
508.68	58342.53
508.85	58564.88
509.03	58644.46
509.20	58548.50
509.38	57855.70
509.55	57172.27
509.73	57172.27
509.90	57705.91
510.08	57954.00
510.25	57958.69
510.42	57701.23
510.60	57558.45
510.77	57932.94
510.95	58754.47
511.12	58585.95
511.30	58841.07
511.47	59264.70
511.64	59028.31
511.82	58899.58
511.99	57834.64
512.17	57612.29
512.34	57120.77
512.51	57464.83
512.69	57748.04
512.86	57490.58
513.04	58113.16
513.21	58024.22
513.38	57804.21
513.56	57158.22
513.73	56678.41
513.90	56996.73
514.08	57006.09
514.25	57251.84
514.43	57509.30
514.60	57687.18
514.77	57647.39
514.95	57832.30
515.12	57773.78
515.29	57954.00
515.47	58553.18
515.64	58855.11
515.81	58314.45
515.99	57684.84
516.16	55976.25
516.33	53727.00
516.51	52708.86
516.68	51475.40
516.85	50974.53
517.03	51882.66
517.20	54468.95
517.37	57130.14
517.54	57865.06
517.72	57205.03
517.89	54621.08
518.06	52310.97
518.24	52814.19
518.41	55121.96
518.58	56619.90
518.75	56432.66
518.93	56743.95
519.10	56727.56
519.27	57198.01
519.45	57462.49
519.62	58092.10
519.79	58298.06
519.96	58003.16
520.14	57602.92
520.31	56999.07
520.48	56994.39
520.65	57392.28
520.83	58454.88
521.00	58845.75
521.17	58071.03
521.34	57897.83
521.52	58365.94
521.69	58740.42
521.86	59154.70
522.03	58827.02
522.20	57574.84
522.38	56624.58
522.55	56753.31
522.72	57162.90
522.89	57542.07
523.07	57530.37
523.24	57998.48
523.41	58777.87
523.58	59028.31
523.75	59367.69
523.92	59182.79
524.10	59229.60
524.27	59318.54
524.44	58937.03
524.61	58979.16
524.78	58679.57
524.96	58637.44
525.13	58667.87
525.30	59065.76
525.47	59402.80
525.64	58993.20
525.81	58585.95
525.98	57076.30
526.16	55660.28
526.33	55107.91
526.50	54607.04
526.67	54637.47
526.84	55264.73
527.01	56130.73
527.18	56919.49
527.36	58010.18
527.53	58670.21
527.70	58845.75
527.87	58340.19
528.04	58085.07
528.21	58494.67
528.38	59021.29
528.55	59475.35
528.72	59688.34
528.89	59803.03
529.07	59557.27
529.24	58993.20
529.41	58305.09
529.58	57691.86
529.75	58024.22
529.92	58321.47
530.09	58965.12
530.26	59075.12
530.43	59253.00
530.60	59550.25
530.77	59676.64
530.94	59845.16
531.11	59288.11
531.28	59044.69
531.46	58824.68
531.63	58901.92
531.80	58897.24
531.97	58307.43
532.14	57638.03
532.31	56559.05
532.48	56100.30
532.65	56364.78
532.82	56959.28
532.99	58085.07
533.16	58492.33
533.33	59040.01
533.50	58827.02
533.67	58031.24
533.84	57820.59
534.01	57968.05
534.18	58286.36
534.35	58361.26
534.52	58227.85
534.69	58468.92
534.86	58684.25
535.03	59086.82
535.20	59571.32
535.37	59887.29
535.54	59913.03
535.71	59512.80
535.88	59175.76
536.05	58536.80
536.22	58234.87
536.38	57839.32
536.55	57331.42
536.72	56839.91
536.89	57268.23
537.06	57640.37
537.23	58653.82
537.40	58817.66
537.57	58815.32
537.74	58562.54
537.91	58553.18
538.08	58489.99
538.25	58511.05
538.42	58702.98
538.59	58408.07
538.75	57893.15
538.92	57621.65
539.09	57628.67
539.26	57432.07
539.43	57132.48
539.60	57464.83
539.77	57422.70
539.94	57190.99
540.11	56664.37
540.28	56081.58
540.44	56280.52
540.61	56629.26
540.78	56893.74
540.95	57130.14
541.12	57455.47
541.29	57804.21
541.46	57914.22
541.62	57792.51
541.79	57785.49
541.96	57186.31
542.13	57223.76
542.30	57551.43
542.47	57616.97
542.63	57530.37
542.80	57296.31
542.97	57291.63
543.14	57216.74
543.31	57490.58
543.48	57928.26
543.64	58733.40
543.81	58822.34
543.98	58932.35
544.15	57989.11
544.32	57588.88
544.48	57715.27
544.65	58218.49
544.82	58438.50
544.99	57911.88
545.16	57476.54
545.32	57558.45
545.49	58508.71
545.66	58632.76
545.83	58000.82
546.00	57818.25
546.16	57668.46
546.33	57621.65
546.50	57832.30
546.67	58150.61
546.83	57663.78
547.00	57572.50
547.17	57013.11
547.34	56633.94
547.50	56390.53
547.67	56940.55
547.84	56851.61
548.00	57464.83
548.17	57916.56
548.34	57530.37
548.51	57329.08
548.67	57675.48
548.84	57759.74
549.01	57647.39
549.18	57570.16
549.34	57682.50
549.51	57832.30
549.68	57521.01
549.84	57130.14
550.01	57130.14
550.18	57071.62
550.34	57338.44
550.51	57216.74
550.68	57462.49
550.84	56638.62
551.01	56926.51
551.18	57080.98
551.34	57031.83
551.51	57420.36
551.68	57858.04
551.84	57794.85
552.01	57623.99
552.18	57499.94
552.34	56626.92
552.51	56175.20
552.68	56076.90
552.84	56825.87
553.01	57088.01
553.18	56776.72
553.34	56865.66
553.51	57015.45
553.67	57228.44
553.84	57684.84
554.01	57141.84
554.17	56980.34
554.34	57148.86
554.51	57411.00
554.67	57773.78
554.84	57598.24
555.00	57144.18
555.17	56884.38
555.33	56776.72
555.50	57083.33
555.67	56978.00
555.83	56739.27
556.00	56521.60
556.16	56521.60
556.33	56086.26
556.50	56102.64
556.66	56165.84
556.83	55718.79
556.99	55632.19
557.16	55917.74
557.32	56399.89
557.49	56643.30
557.65	56268.82
557.82	56374.14
557.98	56240.73
558.15	55730.50
558.32	54946.42
558.48	53909.56
558.65	54314.47
558.81	54712.36
558.98	54665.55
559.14	55145.36
559.31	55128.98
559.47	55290.48
559.64	54969.82
559.80	54651.51
559.97	54787.26
560.13	55253.03
560.30	56222.01
560.46	56697.14
560.63	56713.52
560.79	56633.94
560.96	56491.17
561.12	55255.37
561.29	54717.04
561.45	54527.46
561.61	55248.35
561.78	55402.82
561.94	55437.93
562.11	55021.31
562.27	55213.24
562.44	55519.85
562.60	55826.46
562.77	55992.64
562.93	56039.45
563.10	55899.01
563.26	55166.43
563.42	55124.30
563.59	54719.38
563.75	55210.90
563.92	55358.35
564.08	55040.04
564.24	55295.16
564.41	55538.57
564.57	55466.02
564.74	55196.85
564.90	54930.03
565.07	55016.63
565.23	54391.71
565.39	53911.90
565.56	53549.12
565.72	53535.07
565.88	54115.53
566.05	54035.95
566.21	54143.61
566.38	54321.49
566.54	54548.53
566.70	54740.45
566.87	55152.38
567.03	55114.94
567.19	55056.42
567.36	55100.89
567.52	54866.84
567.68	54745.13
567.85	54003.18
568.01	53553.80
568.17	52921.85
568.34	53268.25
568.50	53111.44
568.66	53179.31
568.83	53602.95
568.99	53361.87
569.15	54021.90
569.32	53829.98
569.48	53455.50
569.64	53277.61
569.81	53066.97
569.97	52961.64
570.13	52912.49
570.30	52406.94
570.46	52039.47
570.62	51763.29
570.78	51278.80
570.95	51882.66
571.11	52554.39
571.27	52755.68
571.43	52999.09
571.60	53345.49
571.76	53380.60
571.92	53897.86
572.09	53682.53
572.25	53991.48
572.41	53848.71
572.57	53488.26
572.74	53492.94
572.90	53249.53
573.06	53230.80
573.22	53340.81
573.38	53455.50
573.55	53256.55
573.71	53319.74
573.87	53202.72
574.03	53247.19
574.20	53265.91
574.36	53102.07
574.52	52774.40
574.68	52453.75
574.84	51821.80
575.01	51707.12
575.17	51526.89
575.33	51908.40
575.49	52044.15
575.65	52268.84
575.82	52240.76
575.98	51639.24
576.14	52154.16
576.30	52259.48
576.46	52523.96
576.62	52102.67
576.79	52437.36
576.95	51931.81
577.11	51929.47
577.27	52165.86
577.43	52053.51
577.59	51903.72
577.75	51058.79
577.92	50803.67
578.08	50684.30
578.24	50440.89
578.40	51114.96
578.56	50965.17
578.72	51222.62
578.88	51320.93
579.04	51416.89
579.21	51194.54
579.37	51721.16
579.53	51632.22
579.69	51463.70
579.85	51927.13
580.01	51629.88
580.17	51173.47
580.33	50827.07
580.49	51566.68
580.65	51683.71
580.82	51800.74
580.98	51751.59
581.14	51676.69
581.30	51597.11
581.46	51253.05
581.62	51924.78
581.78	51728.18
581.94	51934.15
582.10	51845.21
582.26	51739.88
582.42	51929.47
582.58	51938.83
582.74	51749.24
582.90	51894.36
583.06	51791.37
583.22	51613.49
583.38	51529.23
583.54	51627.54
583.70	51510.51
583.86	51679.03
584.02	51646.26
584.18	51311.56
584.34	51239.01
584.50	51206.24
584.66	51299.86
584.82	50117.89
584.98	50663.24
585.14	49832.35
585.30	49226.15
