SpectraSuite Data File
++++++++++++++++++++++++++++++++++++
Date: Mon Oct 07 14:54:56 GMT-05:00 2013
User: price-jones
Dark Spectrum Present: No
Reference Spectrum Present: No
Number of Sampled Component Spectra: 1
Spectrometers: USB2+H05261
Integration Time (usec): 10000 (USB2+H05261)
Spectra Averaged: 1 (USB2+H05261)
Boxcar Smoothing: 0 (USB2+H05261)
Correct for Electrical Dark: No (USB2+H05261)
Strobe/Lamp Enabled: No (USB2+H05261)
Correct for Detector Non-linearity: No (USB2+H05261)
Correct for Stray Light: No (USB2+H05261)
Number of Pixels in Processed Spectrum: 2048
>>>>>Begin Processed Spectral Data<<<<<
365.73	0.00
365.92	0.00
366.12	0.00
366.32	0.00
366.52	0.00
366.72	0.00
366.91	0.00
367.11	0.00
367.31	0.00
367.51	0.00
367.70	0.00
367.90	0.00
368.10	0.00
368.30	0.00
368.49	0.00
368.69	0.00
368.89	0.00
369.09	0.00
369.28	0.00
369.48	0.00
369.68	0.00
369.87	0.00
370.07	0.00
370.27	0.00
370.47	287.89
370.66	2387.35
370.86	2647.15
371.06	2871.84
371.25	2871.84
371.45	2546.50
371.65	2375.64
371.84	2141.59
372.04	2443.52
372.24	2649.49
372.44	2679.91
372.63	2637.78
372.83	2450.54
373.03	2083.08
373.22	2005.84
373.42	2256.28
373.62	2562.89
373.81	2612.04
374.01	2609.70
374.21	2331.17
374.40	2214.15
374.60	2396.71
374.79	2642.46
374.99	3234.62
375.19	3330.58
375.38	3187.81
375.58	3091.85
375.78	3070.78
375.97	3089.51
376.17	3178.45
376.37	3169.09
376.56	3412.50
376.76	3555.27
376.95	3889.97
377.15	4021.04
377.35	4243.39
377.54	4205.94
377.74	4311.27
377.93	4440.00
378.13	4362.76
378.33	4002.32
378.52	3749.54
378.72	3609.11
378.91	3569.32
379.11	3410.16
379.31	3379.73
379.50	3400.80
379.70	3726.13
379.89	4065.51
380.09	4297.22
380.28	4435.32
380.48	4430.63
380.68	4252.75
380.87	4163.81
381.07	3688.68
381.26	3459.31
381.46	3159.72
381.65	3131.64
381.85	3096.53
382.04	2801.62
382.24	2689.28
382.43	2602.68
382.63	2590.97
382.83	2532.46
383.02	2670.55
383.22	2668.21
383.41	2747.79
383.61	2911.63
383.80	3438.25
384.00	3836.14
384.19	4297.22
384.39	4449.36
384.58	4358.08
384.78	4262.12
384.97	4255.09
385.17	3957.85
385.36	3730.81
385.56	3686.34
385.75	3878.27
385.95	4311.27
386.14	4624.90
386.34	4348.72
386.53	4187.22
386.72	3880.61
386.92	4107.64
387.11	4475.10
387.31	4444.68
387.50	4627.24
387.70	4229.35
387.89	4344.03
388.09	4407.23
388.28	4252.75
388.48	4461.06
388.67	4905.76
388.86	5479.19
389.06	5614.95
389.25	5841.98
389.45	5921.56
389.64	5816.23
389.84	5764.74
390.03	5542.39
390.22	5919.21
390.42	6099.44
390.61	6586.27
390.81	6960.75
391.00	7054.37
391.19	6619.04
391.39	6403.71
391.58	6022.20
391.78	5631.33
391.97	5600.90
392.16	4940.87
392.36	4517.23
392.55	3480.38
392.75	2857.79
392.94	2335.85
393.13	2530.12
393.33	3143.34
393.52	3992.95
393.71	4751.29
393.91	5317.70
394.10	5708.57
394.29	6403.71
394.49	6930.33
394.68	7332.90
394.88	7255.66
395.07	7459.29
395.26	7459.29
395.46	6949.05
395.65	6434.13
395.84	5633.67
396.04	4674.05
396.23	3847.84
396.42	3297.81
396.62	3262.71
396.81	4184.88
397.00	5245.14
397.19	6347.53
397.39	7627.81
397.58	8336.99
397.77	8884.67
397.97	9125.75
398.16	9448.74
398.35	9584.49
398.55	9811.53
398.74	10141.54
398.93	10090.05
399.12	10274.95
399.32	9916.85
399.51	10310.06
399.70	10932.64
399.90	10860.09
400.09	10689.23
400.28	10815.62
400.47	11000.52
400.67	11176.06
400.86	11627.78
401.05	11332.87
401.24	11372.66
401.44	11747.15
401.63	11719.06
401.82	11967.16
402.01	11667.57
402.21	12088.87
402.40	11957.80
402.59	11328.19
402.78	10832.00
402.97	10953.71
403.17	11419.47
403.36	12126.32
403.55	12283.13
403.74	12615.49
403.93	11772.89
404.13	10902.22
404.32	11040.31
404.51	11545.86
404.70	12159.08
404.89	12238.66
405.09	11971.84
405.28	11845.45
405.47	11583.31
405.66	11686.29
405.85	11248.61
406.05	10824.98
406.24	11442.88
406.43	11693.32
406.62	12098.23
406.81	12056.10
407.00	11639.48
407.20	11419.47
407.39	11667.57
407.58	12470.37
407.77	12388.46
407.96	12720.81
408.15	13067.21
408.34	13373.82
408.54	14036.19
408.73	13797.46
408.92	13678.09
409.11	13071.89
409.30	12262.07
409.49	11573.95
409.68	11033.29
409.87	11002.86
410.07	12107.59
410.26	12395.48
410.45	13132.75
410.64	13523.62
410.83	14015.13
411.02	14370.89
411.21	14939.64
411.40	14286.63
411.59	14504.30
411.78	14773.46
411.98	14707.93
412.17	14548.77
412.36	14380.25
412.55	14263.22
412.74	14106.41
412.93	13923.85
413.12	14167.26
413.31	15213.48
413.50	15211.14
413.69	15541.16
413.88	14855.38
414.07	14649.41
414.26	15578.61
414.45	15447.54
414.64	15311.78
414.83	15232.21
415.02	15096.46
415.22	15194.76
415.41	15964.79
415.60	16212.89
415.79	16893.99
415.98	17284.86
416.17	17317.62
416.36	16835.47
416.55	16512.48
416.74	15716.70
416.93	15559.88
417.12	15262.63
417.31	15747.12
417.50	16039.69
417.69	16182.46
417.88	15978.84
418.07	15941.39
418.26	15887.56
418.45	16388.43
418.64	17032.08
418.83	17502.53
419.02	16828.45
419.21	16540.57
419.39	15913.30
419.58	15454.56
419.77	15672.23
419.96	16655.25
420.15	17221.66
420.34	17563.38
420.53	18169.58
420.72	18581.51
420.91	18382.57
421.10	17799.77
421.29	17799.77
421.48	17408.90
421.67	18026.81
421.86	17528.27
422.05	15845.43
422.24	14394.29
422.43	15129.22
422.61	16957.18
422.80	17713.17
422.99	17270.81
423.18	16734.83
423.37	16755.90
423.56	16798.02
423.75	16999.31
423.94	17446.35
424.13	16624.83
424.32	16460.99
424.50	16381.41
424.69	16545.25
424.88	16650.57
425.07	16528.86
425.26	16695.04
425.45	15763.51
425.64	16187.14
425.83	16112.25
426.01	17425.29
426.20	17390.18
426.39	17116.34
426.58	15494.35
426.77	14757.08
426.96	14686.86
427.15	15007.52
427.33	16374.39
427.52	16552.27
427.71	16615.46
427.90	16402.47
428.09	16175.44
428.28	15843.09
428.46	15484.98
428.65	15377.32
428.84	16100.55
429.03	15740.10
429.22	14651.75
429.40	13830.23
429.59	12512.50
429.78	11543.52
429.97	11538.84
430.16	11506.07
430.34	11136.27
430.53	11403.09
430.72	12175.47
430.91	13926.19
431.10	16053.73
431.28	18883.44
431.47	20070.09
431.66	19393.68
431.85	17654.66
432.03	16100.55
432.22	16240.98
432.41	17558.70
432.60	18843.65
432.79	19278.99
432.97	19782.21
433.16	18890.46
433.35	16886.97
433.54	15091.77
433.72	14768.78
433.91	15894.58
434.10	18019.78
434.28	18838.97
434.47	19601.99
434.66	18862.38
434.85	18267.88
435.03	18616.62
435.22	18984.09
435.41	19517.73
435.59	20217.55
435.78	20264.36
435.97	21034.39
436.16	20657.57
436.34	20381.38
436.53	20044.35
436.72	20264.36
436.90	19234.52
437.09	19372.61
437.28	19389.00
437.46	19417.08
437.65	19410.06
437.84	17385.50
438.02	16496.10
438.21	17380.82
438.40	18005.74
438.58	18998.13
438.77	19672.20
438.96	19824.34
439.14	20854.17
439.33	21366.75
439.52	21202.91
439.70	20673.95
439.89	20065.41
440.08	19733.06
440.26	19798.59
440.45	20870.56
440.63	22267.86
440.82	23264.92
441.01	22513.61
441.19	22560.42
441.38	23321.10
441.57	23735.37
441.75	23770.48
441.94	23924.96
442.12	24177.73
442.31	25076.50
442.50	24926.71
442.68	23910.91
442.87	23197.05
443.05	23030.87
443.24	23777.50
443.43	24390.72
443.61	24030.28
443.80	24601.37
443.98	24283.06
444.17	23831.33
444.35	25017.99
444.54	25582.06
444.73	24802.66
444.91	24051.34
445.10	23358.55
445.28	22443.40
445.47	21975.29
445.65	21942.52
445.84	22654.05
446.02	23536.43
446.21	23871.12
446.39	23410.04
446.58	24540.52
446.77	24498.39
446.95	24584.99
447.14	25455.67
447.32	25951.86
447.51	25022.67
447.69	24107.52
447.88	24297.10
448.06	24219.86
448.25	24907.98
448.43	24924.36
448.62	24615.41
448.80	24261.99
448.99	24430.51
449.17	25029.69
449.36	25338.64
449.54	25907.39
449.73	26698.49
449.91	26939.57
450.10	27688.54
450.28	27885.14
450.46	27168.94
450.65	27187.66
450.83	27094.04
451.02	26845.94
451.20	26426.99
451.39	26733.60
451.57	26508.91
451.76	26565.08
451.94	26111.02
452.13	25542.27
452.31	24463.28
452.49	23555.15
452.68	24418.81
452.86	24336.89
453.05	24304.12
453.23	25434.60
453.42	26101.65
453.60	26136.76
453.78	26635.30
453.97	26258.47
454.15	25841.85
454.34	25453.33
454.52	25682.70
454.70	25233.32
454.89	25699.08
455.07	25640.57
455.26	25706.10
455.44	26792.11
455.62	27105.74
455.81	27431.08
455.99	27138.51
456.17	26665.72
456.36	27119.79
456.54	27805.56
456.73	27969.40
456.91	28486.66
457.09	28638.80
457.28	28886.89
457.46	27805.56
457.64	27812.59
457.83	26698.49
458.01	26302.94
458.19	26930.20
458.38	27040.21
458.56	27611.30
458.74	27489.59
458.93	26911.48
459.11	27014.46
459.29	26621.25
459.48	26813.18
459.66	26508.91
459.84	27358.52
460.03	27529.38
460.21	28491.34
460.39	29083.50
460.57	28170.69
460.76	28734.76
460.94	28594.32
461.12	27983.44
461.31	28404.74
461.49	28411.76
461.67	27798.54
461.85	28994.56
462.04	29125.63
462.22	29514.16
462.40	28816.68
462.59	28893.91
462.77	28804.97
462.95	29284.78
463.13	29558.63
463.32	27796.20
463.50	27660.45
463.68	28261.97
463.86	28208.14
464.05	27716.62
464.23	27087.02
464.41	27431.08
464.59	27297.67
464.78	28765.18
464.96	27971.74
465.14	27730.67
465.32	28231.54
465.50	29411.17
465.69	29055.41
465.87	28912.64
466.05	27704.92
466.23	26471.46
466.41	26885.73
466.60	27721.30
466.78	27725.99
466.96	27901.53
467.14	28474.96
467.32	28247.93
467.51	28507.72
467.69	27314.05
467.87	28467.94
468.05	28938.38
468.23	27810.25
468.41	28266.65
468.60	28056.00
468.78	28510.07
468.96	27555.13
469.14	28432.83
469.32	29378.40
469.50	27681.52
469.69	27410.01
469.87	27023.83
470.05	27194.68
470.23	27110.43
470.41	27859.40
470.59	28224.52
470.77	28507.72
470.95	28313.46
471.14	29193.50
471.32	29111.58
471.50	30335.68
471.68	30525.27
471.86	30976.99
472.04	31213.38
472.22	30546.33
472.40	28893.91
472.58	29095.20
472.77	28854.12
472.95	29748.21
473.13	29654.59
473.31	29951.84
473.49	29727.14
473.67	30534.63
473.85	30815.49
474.03	31604.25
474.21	31723.62
474.39	31618.30
474.57	31821.92
474.75	31922.57
474.93	31449.78
475.12	30426.96
475.30	30684.42
475.48	30876.35
475.66	31309.35
475.84	30515.90
476.02	31028.48
476.20	30279.51
476.38	31594.89
476.56	32435.14
476.74	31498.93
476.92	32643.45
477.10	33319.87
477.28	34204.59
477.46	34230.33
477.64	34139.05
477.82	34780.36
478.00	34848.24
478.18	33207.52
478.36	34340.34
478.54	33886.28
478.72	34637.59
478.90	36900.89
479.08	36926.63
479.26	36156.60
479.44	36135.53
479.62	36292.35
479.80	35510.61
479.98	36545.12
480.16	37076.43
480.34	36133.19
480.52	36952.38
480.70	36914.93
480.88	36215.11
481.06	37397.08
481.24	37282.39
481.41	38553.30
481.59	38728.84
481.77	37968.17
481.95	37195.79
482.13	38375.42
482.31	38265.42
482.49	38583.73
482.67	38171.80
482.85	38920.77
483.03	38911.41
483.21	39302.28
483.39	39831.24
483.57	38799.06
483.74	38857.57
483.92	39229.72
484.10	39840.60
484.28	40048.91
484.46	39885.07
484.64	40144.87
484.82	39910.82
485.00	38513.52
485.18	37909.66
485.35	36587.25
485.53	33214.54
485.71	30761.66
485.89	31622.98
486.07	33198.16
486.25	36620.02
486.43	38014.98
486.61	38286.48
486.78	38447.98
486.96	39021.41
487.14	40608.29
487.32	40769.79
487.50	41607.70
487.68	42335.61
487.85	43477.79
488.03	43746.95
488.21	43824.19
488.39	42478.38
488.57	41116.19
488.75	41647.49
488.92	43227.35
489.10	45455.54
489.28	46323.88
489.46	46515.81
489.64	46759.22
489.81	47704.80
489.99	47571.39
490.17	48004.39
490.35	48320.36
490.53	47672.03
490.70	47002.64
490.88	46649.22
491.06	47971.62
491.24	47145.41
491.41	44931.26
491.59	44612.95
491.77	44222.08
491.95	45408.73
492.13	47091.58
492.30	48556.75
492.48	49244.87
492.66	49162.95
492.84	48348.45
493.01	48060.56
493.19	47473.09
493.37	47456.70
493.54	48016.09
493.72	49932.99
493.90	50557.91
494.08	50497.06
494.25	50096.83
494.43	50600.04
494.61	51236.67
494.79	51482.42
494.96	51550.30
495.14	50169.38
495.32	48413.98
495.49	49200.40
495.67	50653.87
495.85	51767.97
496.02	52257.14
496.20	51606.47
496.38	51643.92
496.55	51388.80
496.73	52114.37
496.91	53556.14
497.09	53284.64
497.26	52505.24
497.44	51363.06
497.62	50581.32
497.79	50195.13
497.97	48458.45
498.14	49418.07
498.32	51302.20
498.50	51110.28
498.67	51444.98
498.85	51852.23
499.03	51672.01
499.20	52535.66
499.38	52287.57
499.56	52545.03
499.73	51545.62
499.91	51466.04
500.08	50232.58
500.26	49497.65
500.44	50199.81
500.61	50969.85
500.79	50993.25
500.97	51405.19
501.14	50525.14
501.32	50806.01
501.49	50698.34
501.67	50813.03
501.84	51889.68
502.02	51672.01
502.20	51672.01
502.37	52985.05
502.55	52191.61
502.72	52769.72
502.90	52891.43
503.07	53144.20
503.25	52128.41
503.43	51606.47
503.60	50642.17
503.78	50419.82
503.95	51784.35
504.13	53446.13
504.30	52748.65
504.48	52790.78
504.65	53020.16
504.83	52699.50
505.01	53434.43
505.18	53490.60
505.36	53806.58
505.53	54328.52
505.71	55075.15
505.88	54047.65
506.06	52828.23
506.23	53233.14
506.41	52844.62
506.58	53738.70
506.76	53118.46
506.93	52917.17
507.11	52563.75
507.28	53750.40
507.46	53429.75
507.63	52409.28
507.81	51398.16
507.98	52404.59
508.16	52893.77
508.33	54391.71
508.50	54674.91
508.68	55105.57
508.85	55501.12
509.03	55157.06
509.20	54040.63
509.38	53104.41
509.55	53329.11
509.73	53057.60
509.90	55021.31
510.08	54291.07
510.25	53542.10
510.42	53207.40
510.60	53073.99
510.77	52917.17
510.95	54527.46
511.12	54464.27
511.30	54614.06
511.47	54466.61
511.64	54625.76
511.82	54539.16
511.99	53439.11
512.17	52942.92
512.34	52657.37
512.51	53219.10
512.69	53806.58
512.86	53675.51
513.04	54148.29
513.21	53937.65
513.38	52741.63
513.56	53027.18
513.73	52699.50
513.90	52388.21
514.08	52486.51
514.25	52753.33
514.43	53446.13
514.60	53052.92
514.77	53137.18
514.95	54382.35
515.12	53928.28
515.29	54597.68
515.47	55166.43
515.64	54946.42
515.81	54124.89
515.99	52177.56
516.16	50138.96
516.33	48165.88
516.51	48142.48
516.68	45062.33
516.85	44891.48
517.03	47934.17
517.20	51033.04
517.37	52692.48
517.54	53574.86
517.72	51512.85
517.89	48619.95
518.06	46382.40
518.24	48839.96
518.41	51407.53
518.58	52655.03
518.75	52559.07
518.93	52409.28
519.10	52502.90
519.27	53097.39
519.45	52875.04
519.62	53289.32
519.79	53474.22
519.96	52961.64
520.14	52959.30
520.31	52053.51
520.48	52748.65
520.65	52247.78
520.83	53759.76
521.00	54262.98
521.17	53322.08
521.34	53696.57
521.52	54042.97
521.69	55058.76
521.86	54787.26
522.03	53851.05
522.20	52676.10
522.38	51859.25
522.55	52030.11
522.72	52364.81
522.89	52715.89
523.07	52123.73
523.24	53141.86
523.41	54064.03
523.58	53621.67
523.75	54740.45
523.92	54513.42
524.10	54873.86
524.27	55105.57
524.44	54686.62
524.61	54555.55
524.78	54791.94
524.96	55164.09
525.13	54892.58
525.30	54351.92
525.47	54326.17
525.64	54270.00
525.81	53059.94
525.98	51559.66
526.16	50506.42
526.33	48947.62
526.50	49319.77
526.67	49263.60
526.84	51091.55
527.01	52023.09
527.18	52542.69
527.36	53741.04
527.53	53506.99
527.70	53464.86
527.87	53090.37
528.04	54024.25
528.21	53757.42
528.38	55147.70
528.55	55913.06
528.72	55714.11
528.89	55814.76
529.07	54148.29
529.24	54501.71
529.41	54185.74
529.58	53916.58
529.75	53848.71
529.92	54127.23
530.09	55033.02
530.26	54883.22
530.43	55660.28
530.60	55278.77
530.77	54937.05
530.94	55210.90
531.11	54571.93
531.28	54087.44
531.46	54824.71
531.63	55030.68
531.80	55171.11
531.97	53944.67
532.14	53677.85
532.31	52488.85
532.48	50951.12
532.65	51405.19
532.82	52598.86
532.99	53310.38
533.16	53930.62
533.33	54164.68
533.50	53118.46
533.67	53780.83
533.84	53123.14
534.01	53301.02
534.18	53315.06
534.35	53476.56
534.52	53139.52
534.69	53488.26
534.86	53909.56
535.03	53535.07
535.20	54894.92
535.37	55522.19
535.54	55770.28
535.71	55641.56
535.88	55669.64
536.05	53799.55
536.22	53918.92
536.38	53558.48
536.55	52678.44
536.72	52123.73
536.89	52678.44
537.06	53415.71
537.23	53455.50
537.40	53841.68
537.57	53694.23
537.74	53497.62
537.91	53895.52
538.08	53453.15
538.25	53221.44
538.42	53645.08
538.59	52268.84
538.75	51505.83
538.92	52615.24
539.09	52910.15
539.26	52170.54
539.43	52317.99
539.60	52030.11
539.77	52282.89
539.94	51587.75
540.11	50789.62
540.28	49806.60
540.44	50223.22
540.61	51489.45
540.78	51868.61
540.95	52493.54
541.12	52804.83
541.29	53336.13
541.46	53375.92
541.62	53567.84
541.79	52357.78
541.96	50731.11
542.13	52006.70
542.30	52528.64
542.47	52041.81
542.63	52334.38
542.80	51760.95
542.97	51840.53
543.14	52135.43
543.31	52353.10
543.48	53619.33
543.64	55065.78
543.81	54759.17
543.98	54887.90
544.15	52933.56
544.32	52851.64
544.48	53029.52
544.65	52371.83
544.82	53422.73
544.99	53982.12
545.16	54089.78
545.32	52882.06
545.49	53939.99
545.66	53488.26
545.83	53385.28
546.00	53581.88
546.16	53310.38
546.33	52491.19
546.50	51854.57
546.67	52294.59
546.83	51859.25
547.00	52013.73
547.17	51686.05
547.34	50859.84
547.50	51585.41
547.67	52158.84
547.84	52006.70
548.00	52842.27
548.17	53212.08
548.34	52350.76
548.51	52884.40
548.67	51861.59
548.84	53022.50
549.01	52748.65
549.18	52533.32
549.34	52287.57
549.51	52533.32
549.68	52750.99
549.84	52182.24
550.01	52259.48
550.18	50698.34
550.34	52095.64
550.51	51515.19
550.68	51325.61
550.84	51058.79
551.01	51320.93
551.18	49874.48
551.34	52348.42
551.51	51903.72
551.68	52189.27
551.84	52530.98
552.01	52428.00
552.18	51473.06
552.34	50845.80
552.51	51763.29
552.68	51084.53
552.84	51440.29
553.01	52219.69
553.18	52002.02
553.34	50548.55
553.51	51655.62
553.67	52196.29
553.84	51854.57
554.01	51269.43
554.17	50948.78
554.34	52224.37
554.51	52823.55
554.67	52954.62
554.84	52250.12
555.00	51459.02
555.17	51040.06
555.33	51105.60
555.50	51487.10
555.67	51559.66
555.83	50546.21
556.00	50206.83
556.16	48851.66
556.33	49514.03
556.50	49799.58
556.66	50134.28
556.83	49329.13
556.99	49488.29
557.16	49570.21
557.32	50440.89
557.49	50337.90
557.65	50031.29
557.82	50920.70
557.98	50815.37
558.15	49499.99
558.32	48842.30
558.48	49558.50
558.65	49031.88
558.81	48676.12
558.98	49453.18
559.14	48854.00
559.31	48989.75
559.47	49944.69
559.64	48788.47
559.80	48989.75
559.97	49801.92
560.13	50403.44
560.30	51419.23
560.46	52245.44
560.63	51093.89
560.79	50649.19
560.96	48732.29
561.12	47145.41
561.29	47995.03
561.45	48722.93
561.61	48200.99
561.78	49240.19
561.94	47758.63
562.11	48175.25
562.27	47461.38
562.44	48687.82
562.60	49507.01
562.77	50129.59
562.93	50461.95
563.10	48435.05
563.26	47529.26
563.42	47524.58
563.59	48336.74
563.75	49820.64
563.92	49048.27
564.08	48203.33
564.24	49565.52
564.41	49804.26
564.57	50761.54
564.74	49457.86
564.90	48729.95
565.07	47662.67
565.23	47980.98
565.39	47529.26
565.56	47054.13
565.72	47524.58
565.88	48011.41
566.05	48374.19
566.21	49132.53
566.38	48914.86
566.54	48725.27
566.70	49113.80
566.87	48741.66
567.03	48402.28
567.19	48800.17
567.36	48053.54
567.52	47047.11
567.68	46916.04
567.85	46705.39
568.01	46417.50
568.17	44699.55
568.34	46270.05
568.50	46181.11
568.66	46230.26
568.83	48364.83
568.99	47157.11
569.15	46052.38
569.32	47243.71
569.48	44912.54
569.64	45673.21
569.81	45729.39
569.97	46508.79
570.13	46555.60
570.30	46506.44
570.46	44844.66
570.62	43955.26
570.78	43576.09
570.95	43999.73
571.11	44371.88
571.27	45705.98
571.43	46628.15
571.60	46089.83
571.76	45783.22
571.92	46422.19
572.09	47199.24
572.25	47657.99
572.41	47374.78
572.57	45986.85
572.74	45614.70
572.90	46721.77
573.06	48240.78
573.22	46443.25
573.38	46766.24
573.55	46089.83
573.71	47274.14
573.87	46920.72
574.03	45778.54
574.20	44912.54
574.36	45925.99
574.52	44947.65
574.68	44406.98
574.84	44662.10
575.01	44304.00
575.17	44222.08
575.33	43672.06
575.49	43519.92
575.65	44315.70
575.82	43208.63
575.98	43096.28
576.14	44030.16
576.30	44065.27
576.46	44287.62
576.62	44456.14
576.79	43959.94
576.95	45530.44
577.11	45818.33
577.27	46213.88
577.43	43875.68
577.59	43887.39
577.75	44296.98
577.92	44767.43
578.08	44369.54
578.24	43625.25
578.40	43681.42
578.56	43679.08
578.72	43789.08
578.88	44116.76
579.04	45003.82
579.21	45792.58
579.37	46127.28
579.53	45865.14
579.69	44048.88
579.85	44924.24
580.01	45095.10
580.17	42808.40
580.33	43175.86
580.49	43203.95
580.65	43622.90
580.82	44093.35
580.98	44079.31
581.14	44236.12
581.30	44631.68
581.46	44371.88
581.62	44582.52
581.78	43863.98
581.94	44521.67
582.10	44652.74
582.26	44156.55
582.42	43969.30
582.58	44631.68
582.74	45888.54
582.90	44315.70
583.06	44786.15
583.22	44549.76
583.38	44648.06
583.54	45174.68
583.70	44025.48
583.86	43702.48
584.02	42824.78
584.18	42801.38
584.34	43353.74
584.50	44336.77
584.66	44149.53
584.82	43091.60
584.98	42396.46
585.14	43243.74
585.30	40605.95
