SpectraSuite Data File
++++++++++++++++++++++++++++++++++++
Date: Mon Oct 07 14:53:20 GMT-05:00 2013
User: price-jones
Dark Spectrum Present: No
Reference Spectrum Present: No
Number of Sampled Component Spectra: 1
Spectrometers: USB2+H05261
Integration Time (usec): 100000 (USB2+H05261)
Spectra Averaged: 1 (USB2+H05261)
Boxcar Smoothing: 0 (USB2+H05261)
Correct for Electrical Dark: No (USB2+H05261)
Strobe/Lamp Enabled: No (USB2+H05261)
Correct for Detector Non-linearity: No (USB2+H05261)
Correct for Stray Light: No (USB2+H05261)
Number of Pixels in Processed Spectrum: 2048
>>>>>Begin Processed Spectral Data<<<<<
365.73	0.00
365.92	0.00
366.12	0.00
366.32	0.00
366.52	0.00
366.72	0.00
366.91	0.00
367.11	0.00
367.31	0.00
367.51	0.00
367.70	0.00
367.90	0.00
368.10	0.00
368.30	0.00
368.49	0.00
368.69	0.00
368.89	0.00
369.09	0.00
369.28	0.00
369.48	0.00
369.68	0.00
369.87	0.00
370.07	0.00
370.27	0.00
370.47	535.98
370.66	2752.47
370.86	3269.73
371.06	3662.94
371.25	3506.12
371.45	3246.32
371.65	2972.48
371.84	2988.86
372.04	2988.86
372.24	3204.19
372.44	3548.25
372.63	3414.84
372.83	3133.98
373.03	2736.09
373.22	2675.23
373.42	2668.21
373.62	3131.64
373.81	3328.24
374.01	3262.71
374.21	2918.65
374.40	2757.15
374.60	2906.95
374.79	3173.77
374.99	3831.46
375.19	4046.79
375.38	4182.54
375.58	4107.64
375.78	3904.01
375.97	3719.11
376.17	3932.10
376.37	4053.81
376.56	4203.60
376.76	4322.97
376.95	4608.51
377.15	4999.38
377.35	5151.52
377.54	5551.75
377.74	5678.14
377.93	5423.02
378.13	5413.66
378.33	5193.65
378.52	4793.42
378.72	4521.92
378.91	4627.24
379.11	4348.72
379.31	4194.24
379.50	4224.67
379.70	4440.00
379.89	5046.20
380.09	5277.91
380.28	5521.32
380.48	5411.32
380.68	5331.74
380.87	5081.30
381.07	4929.17
381.26	4571.07
381.46	4360.42
381.65	3978.91
381.85	4007.00
382.04	3770.60
382.24	3442.93
382.43	3314.20
382.63	3211.22
382.83	3375.05
383.02	3236.96
383.22	3288.45
383.41	3279.09
383.61	3688.68
383.80	4112.32
384.00	4463.40
384.19	5043.85
384.39	5401.96
384.58	5416.00
384.78	5191.31
384.97	5217.05
385.17	4992.36
385.36	4781.71
385.56	4477.44
385.75	4587.45
385.95	5130.45
386.14	5561.11
386.34	5558.77
386.53	5362.17
386.72	4971.30
386.92	5060.24
387.11	5296.63
387.31	5619.63
387.50	5593.88
387.70	5266.21
387.89	5301.31
388.09	5228.76
388.28	5362.17
388.48	5203.01
388.67	5757.72
388.86	6509.03
389.06	6768.83
389.25	7255.66
389.45	7330.56
389.64	7201.83
389.84	7059.06
390.03	6972.46
390.22	7070.76
390.42	7171.40
390.61	7695.68
390.81	8191.88
391.00	8241.03
391.19	8348.69
391.39	7971.86
391.58	7616.10
391.78	7164.38
391.97	7129.27
392.16	6286.68
392.36	5834.96
392.55	4681.07
392.75	3770.60
392.94	2986.52
393.13	3056.74
393.33	3555.27
393.52	4596.81
393.71	5633.67
393.91	6300.72
394.10	6942.03
394.29	7468.65
394.49	8266.77
394.68	8627.21
394.88	8819.14
395.07	9151.49
395.26	8975.95
395.46	8737.22
395.65	8325.29
395.84	7227.57
396.04	6094.76
396.23	4945.55
396.42	4051.47
396.62	3950.82
396.81	4634.26
397.00	5881.77
397.19	7548.23
397.39	8830.84
397.58	9851.31
397.77	10679.86
397.97	10883.49
398.16	11094.14
398.35	11360.96
398.55	11777.58
398.74	12341.64
398.93	12655.28
399.12	12390.80
399.32	11915.67
399.51	12245.68
399.70	12863.58
399.90	12760.60
400.09	12732.51
400.28	12755.92
400.47	12758.26
400.67	13741.29
400.86	13792.78
401.05	13668.73
401.24	13701.50
401.44	14024.49
401.63	13977.68
401.82	14370.89
402.01	14265.57
402.21	14443.45
402.40	14544.09
402.59	13987.04
402.78	13364.46
402.97	12919.76
403.17	13343.39
403.36	14516.00
403.55	14986.45
403.74	15241.57
403.93	14504.30
404.13	13303.60
404.32	12994.65
404.51	13657.03
404.70	14789.85
404.89	14721.97
405.09	14604.94
405.28	14415.36
405.47	13944.91
405.66	14115.77
405.85	13731.92
406.05	13238.07
406.24	13472.12
406.43	14256.20
406.62	14696.22
406.81	14679.84
407.00	14307.69
407.20	13626.60
407.39	13973.00
407.58	14644.73
407.77	15040.28
407.96	15587.97
408.15	15611.37
408.34	15866.49
408.54	16664.61
408.73	16641.21
408.92	16196.51
409.11	16013.95
409.30	15040.28
409.49	14277.27
409.68	13362.12
409.87	12793.37
410.07	13652.34
410.26	14792.19
410.45	15854.79
410.64	16130.97
410.83	16793.34
411.02	17172.51
411.21	17989.36
411.40	17399.54
411.59	17268.47
411.78	17434.65
411.98	17312.94
412.17	17575.08
412.36	17348.05
412.55	17371.46
412.74	17078.89
412.93	16278.43
413.12	16858.88
413.31	18384.91
413.50	18331.08
413.69	18677.48
413.88	17975.31
414.07	17432.31
414.26	17848.93
414.45	18485.55
414.64	18331.08
414.83	18457.46
415.02	18106.38
415.22	18040.85
415.41	18534.70
415.60	19154.94
415.79	19857.10
415.98	20196.48
416.17	20425.86
416.36	19822.00
416.55	19321.12
416.74	18705.56
416.93	18097.02
417.12	18129.79
417.31	18427.04
417.50	18853.02
417.69	19393.68
417.88	19410.06
418.07	19199.41
418.26	18974.72
418.45	18902.17
418.64	20152.01
418.83	20592.03
419.02	20166.06
419.21	20350.96
419.39	19012.17
419.58	18097.02
419.77	18321.71
419.96	19091.75
420.15	20056.05
420.34	20790.98
420.53	21640.59
420.72	21858.26
420.91	21788.05
421.10	21584.42
421.29	21144.40
421.48	20343.94
421.67	21546.97
421.86	20884.60
422.05	19445.17
422.24	17614.87
422.43	17242.73
422.61	19201.76
422.80	20683.31
422.99	20631.82
423.18	19917.96
423.37	19522.41
423.56	19740.08
423.75	19997.54
423.94	20271.38
424.13	19435.81
424.32	19517.73
424.50	19515.39
424.69	19087.07
424.88	19616.03
425.07	19110.47
425.26	19552.84
425.45	19112.81
425.64	18707.90
425.83	18593.22
426.01	19836.04
426.20	20226.91
426.39	20107.54
426.58	18670.45
426.77	17488.48
426.96	16805.05
427.15	17170.17
427.33	18665.77
427.52	19456.87
427.71	19700.29
427.90	19185.37
428.09	19522.41
428.28	18789.82
428.46	18120.43
428.65	17750.62
428.84	18532.36
429.03	18635.35
429.22	17582.10
429.40	16414.18
429.59	15030.92
429.78	13156.15
429.97	13380.84
430.16	13834.91
430.34	13806.82
430.53	13516.59
430.72	13886.40
430.91	15442.85
431.10	18256.18
431.28	21364.41
431.47	23325.78
431.66	23267.27
431.85	21453.35
432.03	19651.14
432.22	18558.11
432.41	19374.95
432.60	21500.16
432.79	22403.61
432.97	22867.03
433.16	22569.79
433.35	20416.49
433.54	18228.09
433.72	17593.81
433.91	17942.55
434.10	20133.29
434.28	21652.30
434.47	22492.55
434.66	22490.21
434.85	21708.47
435.03	21837.20
435.22	22047.85
435.41	23487.28
435.59	23147.90
435.78	23784.52
435.97	24425.83
436.16	24727.76
436.34	24016.24
436.53	23854.74
436.72	23747.08
436.90	22530.00
437.09	22738.30
437.28	22265.52
437.46	22799.16
437.65	22551.06
437.84	21333.98
438.02	19515.39
438.21	19168.99
438.40	20278.40
438.58	21994.01
438.77	22707.88
438.96	22918.53
439.14	23824.31
439.33	24400.08
439.52	24727.76
439.70	24437.53
439.89	23810.27
440.08	22944.27
440.26	22759.37
440.45	24332.21
440.63	25460.35
440.82	27000.42
441.01	26349.75
441.19	26099.31
441.38	26387.20
441.57	27552.79
441.75	27955.36
441.94	27866.42
442.12	28004.51
442.31	28205.80
442.50	28524.11
442.68	27964.72
442.87	27613.64
443.05	27321.07
443.24	27571.51
443.43	28226.86
443.61	28430.49
443.80	29132.65
443.98	27749.39
444.17	27627.68
444.35	29057.75
444.54	29640.54
444.73	29036.69
444.91	28091.11
445.10	26911.48
445.28	25631.21
445.47	25116.29
445.65	25797.38
445.84	26333.37
446.02	27187.66
446.21	27161.92
446.39	27541.08
446.58	27906.21
446.77	28786.25
446.95	29090.52
447.14	29408.83
447.32	30092.27
447.51	29333.93
447.69	28051.32
447.88	27957.70
448.06	28348.57
448.25	29090.52
448.43	29237.97
448.62	28381.34
448.80	28229.20
448.99	28299.42
449.17	28947.75
449.36	28549.85
449.54	29680.33
449.73	30497.18
449.91	30274.83
450.10	31688.51
450.28	31866.39
450.46	32018.53
450.65	31945.97
450.83	31653.40
451.02	30518.25
451.20	30775.70
451.39	30871.67
451.57	30822.51
451.76	30267.81
451.94	30314.62
452.13	29893.32
452.31	28304.10
452.49	26892.76
452.68	27852.38
452.86	27665.13
453.05	28044.30
453.23	28526.45
453.42	29502.45
453.60	30171.85
453.78	30272.49
453.97	30106.31
454.15	30216.32
454.34	29303.51
454.52	29465.00
454.70	28865.83
454.89	29788.00
455.07	29762.25
455.26	29879.28
455.44	31089.34
455.62	31735.32
455.81	31517.65
455.99	31204.02
456.17	31264.88
456.36	31028.48
456.54	31992.78
456.73	31824.26
456.91	32659.84
457.09	32732.39
457.28	33514.13
457.46	31934.27
457.64	32250.24
457.83	30747.62
458.01	30188.23
458.19	30806.13
458.38	30939.54
458.56	32163.64
458.74	32168.32
458.93	31477.86
459.11	31236.79
459.29	31395.95
459.48	31363.18
459.66	31129.12
459.84	31625.32
460.03	31695.53
460.21	31817.24
460.39	33041.34
460.57	32725.37
460.76	33027.30
460.94	33333.91
461.12	32725.37
461.31	32833.04
461.49	32957.08
461.67	32713.67
461.85	33729.46
462.04	33715.42
462.22	34281.83
462.40	33886.28
462.59	33380.72
462.77	34003.30
462.95	33457.96
463.13	33408.81
463.32	32861.12
463.50	32472.59
463.68	32493.66
463.86	32765.16
464.05	32292.37
464.23	31807.88
464.41	31072.95
464.59	30717.19
464.78	32690.26
464.96	32449.19
465.14	31910.86
465.32	33095.18
465.50	33823.08
465.69	33851.17
465.87	33521.15
466.05	32624.73
466.23	30981.67
466.41	30555.69
466.60	31309.35
466.78	31061.25
466.96	32168.32
467.14	32268.97
467.32	32746.44
467.51	32914.95
467.69	31321.05
467.87	31833.63
468.05	32016.19
468.23	32393.01
468.41	32725.37
468.60	32692.60
468.78	33102.20
468.96	32116.83
469.14	33151.35
469.32	33331.57
469.50	31931.93
469.69	31962.36
469.87	31377.22
470.05	31407.65
470.23	31548.08
470.41	31831.29
470.59	32374.29
470.77	32512.38
470.95	32802.61
471.14	33062.41
471.32	33207.52
471.50	34974.63
471.68	35000.37
471.86	35672.10
472.04	35576.14
472.22	35824.24
472.40	34040.75
472.58	33708.40
472.77	33432.21
472.95	33713.08
473.13	35044.84
473.31	34129.69
473.49	34361.40
473.67	35061.22
473.85	35435.71
474.03	35945.95
474.21	35896.80
474.39	35955.31
474.57	36378.95
474.75	36673.85
474.93	36341.50
475.12	35248.47
475.30	35398.26
475.48	35402.94
475.66	36215.11
475.84	36135.53
476.02	35714.23
476.20	34951.22
476.38	35473.16
476.56	36886.84
476.74	37352.61
476.92	37455.59
477.10	37893.27
477.28	38696.08
477.46	38923.11
477.64	39208.65
477.82	39519.95
478.00	39690.80
478.18	39026.09
478.36	38572.03
478.54	38536.92
478.72	39882.73
478.90	39800.81
479.08	41134.92
479.26	41411.10
479.44	41450.89
479.62	41273.01
479.80	41352.58
479.98	41844.10
480.16	42005.59
480.34	41230.88
480.52	41895.59
480.70	42094.53
480.88	42052.41
481.06	43358.42
481.24	42904.36
481.41	43873.34
481.59	44320.38
481.77	44194.00
481.95	43672.06
482.13	43573.75
482.31	43889.73
482.49	44547.42
482.67	44121.44
482.85	44636.36
483.03	45069.36
483.21	44964.03
483.39	45207.45
483.57	44566.14
483.74	44133.14
483.92	44666.78
484.10	44713.59
484.28	45968.12
484.46	46431.55
484.64	46422.19
484.82	45312.77
485.00	45282.34
485.18	44371.88
485.35	42904.36
485.53	39929.54
485.71	36486.61
485.89	35779.77
486.07	38103.92
486.25	40830.65
486.43	43377.15
486.61	44112.08
486.78	43772.70
486.96	43988.03
487.14	45624.06
487.32	47086.90
487.50	47760.97
487.68	48884.43
487.85	49242.53
488.03	49158.27
488.21	49055.29
488.39	48402.28
488.57	47519.90
488.75	47114.98
488.92	48409.30
489.10	50763.88
489.28	51810.10
489.46	52463.11
489.64	52563.75
489.81	52657.37
489.99	52383.53
490.17	52493.54
490.35	52622.26
490.53	52430.34
490.70	51735.20
490.88	51543.28
491.06	52704.18
491.24	52423.32
491.41	51573.70
491.59	49769.15
491.77	48989.75
491.95	50174.06
492.13	51606.47
492.30	52669.08
492.48	53731.68
492.66	53872.11
492.84	54185.74
493.01	53881.47
493.19	52963.98
493.37	53064.63
493.54	52357.78
493.72	53148.88
493.90	54281.70
494.08	55117.28
494.25	55671.98
494.43	55767.94
494.61	56020.72
494.79	55763.26
494.96	55667.30
495.14	55229.62
495.32	54169.36
495.49	53708.27
495.67	54831.73
495.85	55992.64
496.02	56348.40
496.20	56409.25
496.38	55798.37
496.55	55540.91
496.73	56030.08
496.91	56301.59
497.09	56970.98
497.26	57022.47
497.44	56339.04
497.62	56121.37
497.79	55231.96
497.97	54157.66
498.14	54443.20
498.32	55234.30
498.50	56280.52
498.67	56989.70
498.85	56795.44
499.03	56842.25
499.20	57109.07
499.38	57113.75
499.56	56832.89
499.73	56502.87
499.91	56207.97
500.08	55494.10
500.26	54894.92
500.44	55634.53
500.61	56055.83
500.79	55941.14
500.97	55451.97
501.14	55468.36
501.32	55136.00
501.49	55196.85
501.67	55238.98
501.84	55777.31
502.02	56226.69
502.20	56533.30
502.37	56514.58
502.55	56746.29
502.72	57013.11
502.90	57745.70
503.07	57209.71
503.25	56797.78
503.43	56079.24
503.60	55592.40
503.78	54630.44
503.95	55175.79
504.13	56687.78
504.30	57485.90
504.48	57207.37
504.65	56917.15
504.83	56832.89
505.01	57523.35
505.18	57806.55
505.36	58747.45
505.53	58387.00
505.71	58693.61
505.88	58539.14
506.06	58080.39
506.23	57792.51
506.41	57324.40
506.58	57668.46
506.76	57628.67
506.93	57572.50
507.11	57336.10
507.28	57380.57
507.46	57029.49
507.63	56589.47
507.81	56275.84
507.98	56512.23
508.16	57050.56
508.33	57855.70
508.50	58197.42
508.68	58478.28
508.85	58962.78
509.03	58986.18
509.20	58583.61
509.38	58078.05
509.55	57237.80
509.73	57441.43
509.90	57792.51
510.08	58274.66
510.25	57851.02
510.42	57722.29
510.60	57916.56
510.77	58188.06
510.95	58588.29
511.12	58857.45
511.30	58773.19
511.47	59583.02
511.64	59070.44
511.82	58810.64
511.99	58227.85
512.17	57733.99
512.34	57293.97
512.51	57565.48
512.69	57780.81
512.86	57769.10
513.04	58258.27
513.21	58284.02
513.38	57970.39
513.56	57364.19
513.73	56701.82
513.90	56975.66
514.08	57167.58
514.25	57389.94
514.43	57677.82
514.60	57841.66
514.77	58089.76
514.95	57731.65
515.12	57991.45
515.29	57968.05
515.47	58454.88
515.64	58667.87
515.81	58312.11
515.99	58003.16
516.16	56409.25
516.33	54040.63
516.51	52350.76
516.68	51854.57
516.85	51147.73
517.03	51945.85
517.20	54459.58
517.37	56912.47
517.54	57954.00
517.72	57385.25
517.89	54857.48
518.06	52598.86
518.24	53146.54
518.41	55260.05
518.58	56472.45
518.75	56427.98
518.93	56917.15
519.10	56912.47
519.27	57219.08
519.45	57441.43
519.62	58284.02
519.79	58405.73
519.96	58389.34
520.14	57975.07
520.31	57169.93
520.48	56882.04
520.65	57441.43
520.83	58450.20
521.00	58812.98
521.17	58213.80
521.34	58014.86
521.52	58244.23
521.69	58820.00
521.86	59166.40
522.03	58969.80
522.20	57717.61
522.38	56839.91
522.55	56851.61
522.72	57345.47
522.89	57492.92
523.07	57612.29
523.24	58066.35
523.41	58939.37
523.58	59131.29
523.75	59730.47
523.92	59175.76
524.10	59398.12
524.27	59393.43
524.44	59040.01
524.61	58834.05
524.78	58639.78
524.96	58588.29
525.13	58527.44
525.30	58862.13
525.47	59512.80
525.64	59447.27
525.81	58773.19
525.98	57104.39
526.16	55791.35
526.33	55112.59
526.50	54925.35
526.67	54265.32
526.84	55203.88
527.01	55941.14
527.18	57031.83
527.36	57743.36
527.53	58712.34
527.70	58672.55
527.87	58255.93
528.04	57844.00
528.21	58347.21
528.38	58962.78
528.55	59583.02
528.72	59664.94
528.89	60018.36
529.07	59746.86
529.24	59114.91
529.41	58457.22
529.58	57677.82
529.75	58059.33
529.92	58567.23
530.09	58679.57
530.26	59367.69
530.43	59587.70
530.60	59592.38
530.77	59791.33
530.94	59868.56
531.11	59339.60
531.28	59042.35
531.46	58946.39
531.63	59107.89
531.80	58738.08
531.97	58473.60
532.14	57797.19
532.31	56755.65
532.48	56252.44
532.65	56271.16
532.82	57024.81
532.99	58209.12
533.16	58546.16
533.33	59065.76
533.50	58862.13
533.67	58122.52
533.84	57790.17
534.01	58064.01
534.18	58188.06
534.35	58429.13
534.52	58078.05
534.69	58450.20
534.86	58651.48
535.03	58951.07
535.20	59484.72
535.37	59791.33
535.54	59922.40
535.71	59491.74
535.88	59213.21
536.05	58426.79
536.22	58225.51
536.38	57865.06
536.55	57420.36
536.72	57144.18
536.89	56868.00
537.06	57773.78
537.23	58667.87
537.40	58740.42
537.57	58841.07
537.74	58499.35
537.91	58595.31
538.08	58412.75
538.25	58679.57
538.42	58794.26
538.59	58365.94
538.75	57771.44
538.92	57738.68
539.09	57542.07
539.26	57345.47
539.43	57357.17
539.60	57256.53
539.77	57497.60
539.94	57279.93
540.11	56453.72
540.28	56023.06
540.44	56074.55
540.61	56526.28
540.78	56720.54
540.95	57181.63
541.12	57359.51
541.29	57626.33
541.46	57951.66
541.62	58019.54
541.79	57794.85
541.96	57286.95
542.13	57233.12
542.30	57607.61
542.47	57771.44
542.63	57418.02
542.80	57387.60
542.97	57420.36
543.14	57286.95
543.31	57343.12
543.48	57858.04
543.64	58539.14
543.81	58663.19
543.98	58695.95
544.15	57979.75
544.32	57434.41
544.48	57553.77
544.65	57923.58
544.82	58342.53
544.99	58045.29
545.16	57731.65
545.32	57293.97
545.49	58307.43
545.66	58459.56
545.83	58190.40
546.00	57916.56
546.16	57495.26
546.33	57556.11
546.50	57570.16
546.67	57806.55
546.83	57338.44
547.00	57680.16
547.17	56980.34
547.34	56097.96
547.50	56423.29
547.67	57022.47
547.84	56772.03
548.00	57153.54
548.17	57717.61
548.34	57584.20
548.51	57546.75
548.67	57719.95
548.84	57762.08
549.01	57553.77
549.18	57394.62
549.34	57389.94
549.51	57385.25
549.68	57277.59
549.84	56893.74
550.01	57219.08
550.18	56970.98
550.34	57024.81
550.51	57317.38
550.68	56945.23
550.84	56645.65
551.01	56846.93
551.18	56608.20
551.34	56924.17
551.51	57312.70
551.68	57659.10
551.84	57670.80
552.01	57478.88
552.18	57111.41
552.34	56640.96
552.51	56076.90
552.68	56095.62
552.84	56570.75
553.01	56842.25
553.18	56692.46
553.34	57097.37
553.51	57008.43
553.67	57324.40
553.84	57387.60
554.01	57343.12
554.17	57048.22
554.34	57109.07
554.51	57006.09
554.67	57645.05
554.84	57530.37
555.00	57099.71
555.17	56912.47
555.33	56713.52
555.50	56942.89
555.67	56519.26
555.83	56743.95
556.00	56226.69
556.16	56601.18
556.33	56044.13
556.50	55667.30
556.66	55732.84
556.83	55594.74
556.99	55613.47
557.16	55709.43
557.32	56149.45
557.49	56498.19
557.65	56198.60
557.82	56156.47
557.98	55884.97
558.15	55559.64
558.32	54644.49
558.48	53968.07
558.65	54028.93
558.81	54513.42
558.98	54759.17
559.14	55337.29
559.31	54983.86
559.47	55143.02
559.64	54794.28
559.80	54307.45
559.97	54571.93
560.13	54873.86
560.30	55807.73
560.46	56170.52
560.63	56519.26
560.79	56638.62
560.96	56002.00
561.12	54836.41
561.29	54115.53
561.45	54057.01
561.61	54684.28
561.78	55330.26
561.94	54958.12
562.11	54911.31
562.27	54972.16
562.44	55182.81
562.60	55388.78
562.77	55751.56
562.93	55526.87
563.10	55433.25
563.26	55014.29
563.42	55105.57
563.59	54625.76
563.75	54866.84
563.92	54808.32
564.08	54658.53
564.24	55117.28
564.41	55018.97
564.57	54983.86
564.74	54667.89
564.90	54693.64
565.07	54328.52
565.23	54019.56
565.39	53626.35
565.56	53319.74
565.72	53073.99
565.88	53687.21
566.05	53874.45
566.21	54028.93
566.38	53895.52
566.54	54464.27
566.70	54590.66
566.87	54904.29
567.03	54735.77
567.19	54923.01
567.36	54782.58
567.52	54541.50
567.68	54445.54
567.85	53762.11
568.01	53022.50
568.17	52673.76
568.34	53116.12
568.50	52760.36
568.66	52666.73
568.83	52910.15
568.99	53361.87
569.15	53666.14
569.32	53743.38
569.48	53066.97
569.64	52921.85
569.81	52729.93
569.97	52996.75
570.13	52669.08
570.30	51803.08
570.46	51625.20
570.62	51208.58
570.78	51047.08
570.95	51154.75
571.11	52067.56
571.27	52491.19
571.43	52694.82
571.60	52903.13
571.76	53256.55
571.92	53359.53
572.09	53563.16
572.25	53251.87
572.41	53558.48
572.57	53284.64
572.74	53247.19
572.90	52715.89
573.06	52853.98
573.22	52935.90
573.38	52989.73
573.55	53076.33
573.71	52933.56
573.87	52809.51
574.03	52669.08
574.20	52765.04
574.36	52341.40
574.52	52170.54
574.68	51873.29
574.84	51437.95
575.01	51262.41
575.17	51028.36
575.33	51473.06
575.49	51519.87
575.65	51934.15
575.82	51557.32
575.98	50878.57
576.14	51426.25
576.30	51791.37
576.46	52004.36
576.62	51955.21
576.79	52126.07
576.95	51557.32
577.11	51533.92
577.27	51421.57
577.43	51531.57
577.59	51065.81
577.75	51035.38
577.92	50047.68
578.08	49705.96
578.24	49951.71
578.40	50534.51
578.56	50497.06
578.72	50794.31
578.88	50946.44
579.04	50705.37
579.21	50913.67
579.37	51011.98
579.53	51049.42
579.69	51304.54
579.85	51669.67
580.01	51201.56
580.17	50588.34
580.33	50326.20
580.49	50768.56
580.65	51316.25
580.82	50838.78
580.98	51075.17
581.14	50946.44
581.30	51227.31
581.46	50962.82
581.62	51096.24
581.78	51306.88
581.94	51545.62
582.10	51246.03
582.26	51585.41
582.42	51107.94
582.58	51597.11
582.74	51384.12
582.90	51615.83
583.06	51295.18
583.22	51129.00
583.38	50820.05
583.54	50965.17
583.70	50724.09
583.86	50967.51
584.02	50548.55
584.18	50962.82
584.34	50658.56
584.50	50609.40
584.66	50295.77
584.82	50368.33
584.98	50007.89
585.14	49392.33
585.30	48978.05
