SpectraSuite Data File
++++++++++++++++++++++++++++++++++++
Date: Mon Oct 07 14:53:42 GMT-05:00 2013
User: price-jones
Dark Spectrum Present: No
Reference Spectrum Present: No
Number of Sampled Component Spectra: 1
Spectrometers: USB2+H05261
Integration Time (usec): 100000 (USB2+H05261)
Spectra Averaged: 1 (USB2+H05261)
Boxcar Smoothing: 0 (USB2+H05261)
Correct for Electrical Dark: No (USB2+H05261)
Strobe/Lamp Enabled: No (USB2+H05261)
Correct for Detector Non-linearity: No (USB2+H05261)
Correct for Stray Light: No (USB2+H05261)
Number of Pixels in Processed Spectrum: 2048
>>>>>Begin Processed Spectral Data<<<<<
365.73	0.00
365.92	0.00
366.12	0.00
366.32	0.00
366.52	0.00
366.72	0.00
366.91	0.00
367.11	0.00
367.31	0.00
367.51	0.00
367.70	0.00
367.90	0.00
368.10	0.00
368.30	0.00
368.49	0.00
368.69	0.00
368.89	0.00
369.09	0.00
369.28	0.00
369.48	0.00
369.68	0.00
369.87	0.00
370.07	0.00
370.27	0.00
370.47	580.45
370.66	3091.85
370.86	3847.84
371.06	4037.42
371.25	4175.52
371.45	3852.52
371.65	3358.67
371.84	3218.24
372.04	3295.47
372.24	3662.94
372.44	3871.25
372.63	3871.25
372.83	3590.38
373.03	3162.06
373.22	2818.00
373.42	3000.57
373.62	3550.59
373.81	3922.74
374.01	3728.47
374.21	3517.83
374.40	3180.79
374.60	3236.96
374.79	3791.67
374.99	4276.16
375.19	4585.11
375.38	4912.78
375.58	4498.51
375.78	4367.44
375.97	4444.68
376.17	4510.21
376.37	4498.51
376.56	4706.82
376.76	4933.85
376.95	5224.08
377.15	5523.66
377.35	5846.66
377.54	6162.63
377.74	6324.13
377.93	6246.89
378.13	6022.20
378.33	5961.34
378.52	5451.11
378.72	5167.90
378.91	5020.45
379.11	4674.05
379.31	4835.55
379.50	4748.95
379.70	5053.22
379.89	5537.71
380.09	5916.87
380.28	6101.78
380.48	6106.46
380.68	6132.20
380.87	5982.41
381.07	5451.11
381.26	5020.45
381.46	4678.73
381.65	4678.73
381.85	4557.02
382.04	4327.65
382.24	4030.40
382.43	3812.73
382.63	3726.13
382.83	3695.71
383.02	3691.02
383.22	3646.55
383.41	3775.28
383.61	3908.69
383.80	4676.39
384.00	5406.64
384.19	5795.17
384.39	6106.46
384.58	6080.71
384.78	5921.56
384.97	6064.33
385.17	5680.48
385.36	5416.00
385.56	5310.68
385.75	5275.57
385.95	5870.06
386.14	6347.53
386.34	6413.07
386.53	5923.90
386.72	5621.97
386.92	5827.93
387.11	5980.07
387.31	6366.26
387.50	6352.21
387.70	6061.99
387.89	6043.26
388.09	5961.34
388.28	6010.50
388.48	6120.50
388.67	6558.18
388.86	7124.59
389.06	7770.58
389.25	8114.64
389.45	8116.98
389.64	8098.25
389.84	8091.23
390.03	7976.55
390.22	8091.23
390.42	8313.58
390.61	8739.56
390.81	9486.19
391.00	9652.37
391.19	9495.55
391.39	9144.47
391.58	8678.71
391.78	8145.06
391.97	7857.18
392.16	7447.58
392.36	6729.04
392.55	5533.03
392.75	4402.55
392.94	3492.08
393.13	3339.94
393.33	4051.47
393.52	5289.61
393.71	6583.93
393.91	7190.13
394.10	7730.79
394.29	8594.45
394.49	9139.79
394.68	9933.23
394.88	9998.77
395.07	10370.91
395.26	10356.87
395.46	9942.60
395.65	9495.55
395.84	8587.43
396.04	6974.80
396.23	5671.12
396.42	4858.95
396.62	4472.76
396.81	5294.29
397.00	6698.61
397.19	8592.11
397.39	10115.80
397.58	11339.90
397.77	12262.07
397.97	12702.09
398.16	12788.69
398.35	13254.45
398.55	13364.46
398.74	13935.55
398.93	14410.68
399.12	14223.44
399.32	13488.51
399.51	13853.63
399.70	14843.68
399.90	14771.12
400.09	14871.76
400.28	14567.49
400.47	14647.07
400.67	15487.32
400.86	16004.58
401.05	15852.45
401.24	15822.02
401.44	16039.69
401.63	16177.78
401.82	16350.98
402.01	16280.77
402.21	16353.32
402.40	16765.26
402.59	16051.39
402.78	15426.47
402.97	14740.69
403.17	15426.47
403.36	16315.87
403.55	16943.14
403.74	17582.10
403.93	16603.76
404.13	15389.02
404.32	14841.34
404.51	15733.08
404.70	17172.51
404.89	16655.25
405.09	16587.38
405.28	16095.86
405.47	15681.59
405.66	16137.99
405.85	15889.90
406.05	15300.08
406.24	15452.22
406.43	15948.41
406.62	16748.87
406.81	16753.55
407.00	16205.87
407.20	15819.68
407.39	16130.97
407.58	16669.30
407.77	17160.81
407.96	17479.12
408.15	18256.18
408.34	18274.90
408.54	18925.57
408.73	19311.76
408.92	18623.64
409.11	18040.85
409.30	17411.25
409.49	16098.20
409.68	15365.62
409.87	14941.98
410.07	15840.75
410.26	17071.87
410.45	18120.43
410.64	18478.53
410.83	19026.21
411.02	19325.80
411.21	20166.06
411.40	20313.51
411.59	20079.46
411.78	20016.26
411.98	19920.30
412.17	20163.72
412.36	19618.37
412.55	19726.04
412.74	19417.08
412.93	18874.08
413.12	19171.33
413.31	20943.11
413.50	21043.76
413.69	21546.97
413.88	20800.34
414.07	19957.75
414.26	20301.81
414.45	21088.23
414.64	20968.86
414.83	21448.67
415.02	20826.09
415.22	20802.68
415.41	21413.56
415.60	21869.97
415.79	22651.70
415.98	23161.94
416.17	23246.20
416.36	22436.38
416.55	22501.91
416.74	21514.20
416.93	21130.36
417.12	20805.02
417.31	21223.98
417.50	21736.56
417.69	22326.37
417.88	22153.17
418.07	22054.87
418.26	21514.20
418.45	21998.70
418.64	22597.87
418.83	23412.38
419.02	23281.31
419.21	23171.30
419.39	21893.37
419.58	20809.70
419.77	21109.29
419.96	21727.19
420.15	23061.30
420.34	23803.25
420.53	24477.32
420.72	25242.68
420.91	24884.58
421.10	24627.12
421.29	24575.62
421.48	23480.25
421.67	24521.79
421.86	24060.71
422.05	22602.55
422.24	20077.12
422.43	19489.64
422.61	21713.15
422.80	23857.08
422.99	24034.96
423.18	23124.49
423.37	22691.49
423.56	22515.95
423.75	23019.17
423.94	23417.06
424.13	21961.25
424.32	22389.56
424.50	22532.34
424.69	21935.50
424.88	22279.56
425.07	22068.91
425.26	22155.51
425.45	22127.42
425.64	21415.90
425.83	21371.43
426.01	22700.86
426.20	23403.02
426.39	23091.73
426.58	21549.31
426.77	19758.80
426.96	19014.51
427.15	20070.09
427.33	21668.68
427.52	22157.85
427.71	22654.05
427.90	22434.03
428.09	22127.42
428.28	21652.30
428.46	20947.79
428.65	20847.15
428.84	21179.51
429.03	21710.81
429.22	20287.76
429.40	19286.01
429.59	17507.21
429.78	15246.25
429.97	15587.97
430.16	15658.18
430.34	15768.19
430.53	15566.90
430.72	15908.62
430.91	17940.21
431.10	20800.34
431.28	24332.21
431.47	26513.59
431.66	27250.86
431.85	24552.22
432.03	22759.37
432.22	21631.23
432.41	22380.20
432.60	24594.35
432.79	25900.37
432.97	26412.95
433.16	25886.32
433.35	23833.68
433.54	21467.39
433.72	19983.49
433.91	20519.48
434.10	22684.47
434.28	24568.60
434.47	26185.91
434.66	25535.24
434.85	24765.21
435.03	24767.55
435.22	25472.05
435.41	27175.96
435.59	26822.54
435.78	27288.31
435.97	27782.16
436.16	28360.27
436.34	27667.47
436.53	27321.07
436.72	27283.62
436.90	25619.50
437.09	25783.34
437.28	25303.53
437.46	26328.69
437.65	26125.06
437.84	24285.40
438.02	22249.13
438.21	22022.10
438.40	23730.69
438.58	25291.83
438.77	26103.99
438.96	26511.25
439.14	27651.09
439.33	28016.21
439.52	28781.57
439.70	28231.54
439.89	27220.43
440.08	26618.91
440.26	26377.84
440.45	27440.44
440.63	29305.85
440.82	30869.33
441.01	30450.37
441.19	30197.59
441.38	30419.94
441.57	31756.39
441.75	31981.08
441.94	32290.03
442.12	31782.13
442.31	32699.62
442.50	32257.26
442.68	31894.48
442.87	31615.96
443.05	30899.75
443.24	31693.19
443.43	32252.58
443.61	32961.76
443.80	33481.36
443.98	31669.79
444.17	31402.97
444.35	33488.38
444.54	34024.37
444.73	33425.19
444.91	32383.65
445.10	30916.14
445.28	29677.99
445.47	29273.08
445.65	29385.43
445.84	30443.35
446.02	31459.14
446.21	31688.51
446.39	31672.13
446.58	32364.93
446.77	32582.60
446.95	32945.38
447.14	33928.41
447.32	34150.76
447.51	33633.50
447.69	32325.14
447.88	32081.72
448.06	32531.11
448.25	33067.09
448.43	33497.75
448.62	32807.29
448.80	32940.70
448.99	33050.70
449.17	33434.55
449.36	33113.90
449.54	34464.39
449.73	34944.20
449.91	35281.24
450.10	36491.29
450.28	36704.28
450.46	36767.48
450.65	36453.84
450.83	36481.93
451.02	35168.89
451.20	35189.95
451.39	35419.33
451.57	34981.65
451.76	35236.77
451.94	35072.93
452.13	34202.25
452.31	32952.40
452.49	31299.98
452.68	31536.38
452.86	31688.51
453.05	32222.16
453.23	33322.21
453.42	33858.19
453.60	34923.13
453.78	34796.74
453.97	34459.71
454.15	34642.27
454.34	33734.14
454.52	34211.61
454.70	33345.61
454.89	33413.49
455.07	33818.40
455.26	34682.06
455.44	35821.90
455.62	36671.51
455.81	36535.76
455.99	36123.83
456.17	35644.02
456.36	35796.15
456.54	37336.23
456.73	36723.01
456.91	37081.11
457.09	37734.12
457.28	38445.64
457.46	36610.66
457.64	36301.71
457.83	35704.87
458.01	34813.13
458.19	35416.99
458.38	35782.11
458.56	36825.99
458.74	36634.06
458.93	36552.15
459.11	36236.17
459.29	35943.61
459.48	35903.82
459.66	35587.85
459.84	36505.34
460.03	36973.44
460.21	36437.46
460.39	37652.20
460.57	37713.05
460.76	38045.41
460.94	38443.30
461.12	37610.07
461.31	37429.85
461.49	37645.18
461.67	37399.42
461.85	38796.72
462.04	38230.31
462.22	38675.01
462.40	38557.99
462.59	38192.86
462.77	38834.17
462.95	38686.71
463.13	37958.81
463.32	37876.89
463.50	37378.36
463.68	37766.88
463.86	37549.21
464.05	37172.39
464.23	36584.91
464.41	36636.41
464.59	35702.53
464.78	37539.85
464.96	37010.89
465.14	37053.02
465.32	37251.97
465.50	38574.37
465.69	39459.09
465.87	38148.39
466.05	37778.59
466.23	35662.74
466.41	34834.19
466.60	36095.74
466.78	35810.20
466.96	36524.06
467.14	37193.45
467.32	37809.01
467.51	37830.08
467.69	36130.85
467.87	36531.08
468.05	36994.51
468.23	37387.72
468.41	37474.32
468.60	37589.00
468.78	38110.94
468.96	37383.04
469.14	38323.93
469.32	38223.29
469.50	36528.74
469.69	37102.17
469.87	36332.14
470.05	36285.33
470.23	36437.46
470.41	36739.39
470.59	36856.42
470.77	37027.28
470.95	37963.49
471.14	38204.56
471.32	38349.68
471.50	40767.45
471.68	40371.90
471.86	40790.86
472.04	41343.22
472.22	41212.15
472.40	39119.71
472.58	38836.51
472.77	38340.32
472.95	39299.94
473.13	40137.85
473.31	39171.21
473.49	39117.37
473.67	40088.70
473.85	40254.87
474.03	41280.03
474.21	41148.96
474.39	41680.26
474.57	42036.02
474.75	42064.11
474.93	42075.81
475.12	40842.35
475.30	41055.34
475.48	41125.55
475.66	41975.17
475.84	41085.76
476.02	40828.30
476.20	40343.81
476.38	41125.55
476.56	42040.70
476.74	42218.58
476.92	42754.57
477.10	43445.02
477.28	44889.13
477.46	44582.52
477.64	45167.66
477.82	44779.13
478.00	45359.58
478.18	44767.43
478.36	44121.44
478.54	44156.55
478.72	44746.36
478.90	46026.63
479.08	47033.07
479.26	47657.99
479.44	47222.65
479.62	47061.15
479.80	46925.40
479.98	47349.04
480.16	47700.12
480.34	46595.38
480.52	47590.11
480.70	47931.83
480.88	47833.53
481.06	48596.54
481.24	48346.11
481.41	49272.96
481.59	50232.58
481.77	49825.32
481.95	49357.22
482.13	49230.83
482.31	49113.80
482.49	49815.96
482.67	49645.10
482.85	49972.78
483.03	50342.58
483.21	50688.98
483.39	50541.53
483.57	50216.19
483.74	50188.11
483.92	49834.69
484.10	50220.87
484.28	51489.45
484.46	51679.03
484.64	52168.20
484.82	50960.48
485.00	50705.37
485.18	49998.52
485.35	48882.09
485.53	45933.01
485.71	42092.19
485.89	41450.89
486.07	43335.02
486.25	46663.26
486.43	48692.50
486.61	50150.66
486.78	49450.84
486.96	49790.22
487.14	51309.22
487.32	52088.62
487.50	52966.32
487.68	53750.40
487.85	54181.06
488.03	54003.18
488.21	53684.87
488.39	53139.52
488.57	52655.03
488.75	52561.41
488.92	52844.62
489.10	55145.36
489.28	56292.22
489.46	56750.97
489.64	56350.74
489.81	56844.59
489.99	56409.25
490.17	56542.66
490.35	56907.79
490.53	56589.47
490.70	55999.66
490.88	56090.94
491.06	56882.04
491.24	56680.75
491.41	56142.43
491.59	54396.39
491.77	53844.02
491.95	54698.32
492.13	55791.35
492.30	56640.96
492.48	57705.91
492.66	58078.05
492.84	57958.69
493.01	57708.25
493.19	57308.02
493.37	57151.20
493.54	56935.87
493.72	57694.21
493.90	58166.99
494.08	59028.31
494.25	59311.52
494.43	59323.22
494.61	59683.66
494.79	59662.60
494.96	59739.83
495.14	59121.93
495.32	58239.55
495.49	57757.40
495.67	58618.72
495.85	59838.14
496.02	60175.17
496.20	59931.76
496.38	59632.17
496.55	59430.88
496.73	60114.32
496.91	60016.02
497.09	60753.29
497.26	60772.01
497.44	60250.07
497.62	59800.69
497.79	59110.23
497.97	58061.67
498.14	58113.16
498.32	59110.23
498.50	59969.21
498.67	60451.36
498.85	60289.86
499.03	60566.04
499.20	60647.96
499.38	60966.27
499.56	60367.10
499.73	60081.55
499.91	59889.63
500.08	59515.14
500.26	58653.82
500.44	58990.86
500.61	59765.58
500.79	59615.79
500.97	59267.05
501.14	59334.92
501.32	58946.39
501.49	58906.60
501.67	59255.34
501.84	59793.67
502.02	60013.68
502.20	60259.43
502.37	60573.06
502.55	60292.20
502.72	61022.45
502.90	61300.97
503.07	61183.94
503.25	60818.82
503.43	59938.78
503.60	59332.58
503.78	58941.71
503.95	59159.38
504.13	60388.16
504.30	61219.05
504.48	61003.72
504.65	60701.79
504.83	60793.07
505.01	61317.35
505.18	61518.64
505.36	62073.35
505.53	61953.98
505.71	62288.68
505.88	62305.06
506.06	61902.49
506.23	61525.66
506.41	61188.63
506.58	61490.55
506.76	61399.27
506.93	61303.31
507.11	61041.17
507.28	61268.20
507.46	60963.93
507.63	60331.99
507.81	60413.91
507.98	60409.23
508.16	60851.59
508.33	61483.53
508.50	61944.62
508.68	62262.93
508.85	62429.11
509.03	62553.16
509.20	62307.40
509.38	61673.12
509.55	61015.43
509.73	60996.70
509.90	61584.18
510.08	61949.30
510.25	61705.88
510.42	61530.34
510.60	61352.46
510.77	61755.03
510.95	62129.52
511.12	62328.47
511.30	62660.82
511.47	62794.23
511.64	62796.57
511.82	62625.71
511.99	61703.54
512.17	61504.60
512.34	61071.60
512.51	61450.77
512.69	61380.55
512.86	61432.04
513.04	61792.48
513.21	61839.29
513.38	61535.02
513.56	61102.03
513.73	60523.91
513.90	60757.97
514.08	60711.16
514.25	61228.41
514.43	61293.95
514.60	61396.93
514.77	61499.92
514.95	61696.52
515.12	61340.76
515.29	61553.75
515.47	62190.37
515.64	62410.38
515.81	61961.00
515.99	61474.17
516.16	60324.97
516.33	58248.91
516.51	57083.33
516.68	56200.94
516.85	55945.83
517.03	56273.50
517.20	58639.78
517.37	60685.41
517.54	61593.54
517.72	61322.04
517.89	59213.21
518.06	56720.54
518.24	57066.94
518.41	59042.35
518.58	60303.90
518.75	60547.32
518.93	60676.05
519.10	60495.83
519.27	60903.08
519.45	61029.47
519.62	61944.62
519.79	62218.46
519.96	61932.92
520.14	61364.17
520.31	60858.61
520.48	60860.95
520.65	61216.71
520.83	61951.64
521.00	62176.33
521.17	62066.33
521.34	61661.41
521.52	61820.57
521.69	62419.75
521.86	62775.51
522.03	62504.01
522.20	61572.47
522.38	60519.23
522.55	60416.25
522.72	60940.53
522.89	61272.88
523.07	61382.89
523.24	61797.16
523.41	62464.22
523.58	62653.80
523.75	63117.23
523.92	63039.99
524.10	62911.26
524.27	62911.26
524.44	62791.89
524.61	62595.29
524.78	62307.40
524.96	62284.00
525.13	62508.69
525.30	62506.35
525.47	62929.98
525.64	62892.54
525.81	62349.53
525.98	61031.81
526.16	59664.94
526.33	59117.25
526.50	58859.79
526.67	58742.77
526.84	59128.95
527.01	59868.56
527.18	60453.70
527.36	61310.33
527.53	62330.81
527.70	62529.75
527.87	62213.78
528.04	61588.86
528.21	61935.26
528.38	62700.61
528.55	63255.32
528.72	63353.62
528.89	63526.82
529.07	63313.83
529.24	62574.22
529.41	62136.54
529.58	61549.07
529.75	61740.99
529.92	62019.52
530.09	62396.34
530.26	62827.00
530.43	63149.99
530.60	63086.80
530.77	63217.87
530.94	63465.97
531.11	62937.01
531.28	62892.54
531.46	62489.96
531.63	62693.59
531.80	62569.54
531.97	62052.28
532.14	61441.40
532.31	60718.18
532.48	60161.13
532.65	59791.33
532.82	61017.77
532.99	61872.06
533.16	61977.39
533.33	62709.97
533.50	62604.65
533.67	61879.08
533.84	61385.23
534.01	61649.71
534.18	61771.42
534.35	62026.54
534.52	62035.90
534.69	62106.12
534.86	62394.00
535.03	62548.48
535.20	63140.63
535.37	63416.82
535.54	63524.48
535.71	63154.68
535.88	62869.13
536.05	62330.81
536.22	61968.02
536.38	61659.07
536.55	61183.94
536.72	60666.69
536.89	60591.79
537.06	61333.74
537.23	62356.55
537.40	62415.07
537.57	62230.16
537.74	62328.47
537.91	62197.40
538.08	62101.43
538.25	62166.97
538.42	62351.87
538.59	62141.22
538.75	61448.42
538.92	61432.04
539.09	61282.25
539.26	61221.39
539.43	60767.33
539.60	61087.98
539.77	61116.07
539.94	61048.19
540.11	60437.31
540.28	59634.51
540.44	59971.55
540.61	60278.16
540.78	60427.95
540.95	60828.18
541.12	61300.97
541.29	61256.50
541.46	61663.75
541.62	61556.09
541.79	61467.15
541.96	61134.79
542.13	60945.21
542.30	61441.40
542.47	61446.08
542.63	61319.70
542.80	60970.96
542.97	61113.73
543.14	61017.77
543.31	60992.02
543.48	61380.55
543.64	62183.35
543.81	62494.64
543.98	62358.89
544.15	61691.84
544.32	61228.41
544.48	61258.84
544.65	61759.72
544.82	62049.94
544.99	61715.25
545.16	61319.70
545.32	61076.28
545.49	61740.99
545.66	62059.30
545.83	61797.16
546.00	61336.08
546.16	61120.75
546.33	61251.82
546.50	61448.42
546.67	61565.45
546.83	61244.80
547.00	61385.23
547.17	60430.29
547.34	60027.72
547.50	60301.56
547.67	60612.85
547.84	60537.96
548.00	61118.41
548.17	61499.92
548.34	61205.01
548.51	61179.26
548.67	61336.08
548.84	61385.23
549.01	61254.16
549.18	61289.27
549.34	61083.30
549.51	61219.05
549.68	61139.47
549.84	60722.86
550.01	60889.04
550.18	60636.26
550.34	60687.75
550.51	60954.57
550.68	60865.63
550.84	60374.12
551.01	60559.02
551.18	60626.90
551.34	60767.33
551.51	61057.56
551.68	61357.14
551.84	61202.67
552.01	61097.34
552.18	61017.77
552.34	60378.80
552.51	59964.52
552.68	59854.52
552.84	60441.99
553.01	60622.22
553.18	60589.45
553.34	60519.23
553.51	60764.99
553.67	61087.98
553.84	61228.41
554.01	60956.91
554.17	60783.71
554.34	60795.42
554.51	60912.44
554.67	61188.63
554.84	61006.06
555.00	60928.83
555.17	60589.45
555.33	60814.14
555.50	60669.03
555.67	60481.78
555.83	60486.46
556.00	59980.91
556.16	60165.81
556.33	59854.52
556.50	59721.11
556.66	59784.30
556.83	59501.10
556.99	59522.16
557.16	59587.70
557.32	59901.33
557.49	60137.72
557.65	60217.30
557.82	59973.89
557.98	59889.63
558.15	59477.69
558.32	58791.92
558.48	58014.86
558.65	58262.96
558.81	58646.80
558.98	58684.25
559.14	59096.19
559.31	59117.25
559.47	59061.08
559.64	59014.27
559.80	58459.56
559.97	58511.05
560.13	58731.06
560.30	59711.75
560.46	60196.24
560.63	60367.10
560.79	60425.61
560.96	60009.00
561.12	59037.67
561.29	58291.04
561.45	58314.45
561.61	58784.90
561.78	59231.94
561.94	59213.21
562.11	59072.78
562.27	58922.99
562.44	59112.57
562.60	59435.56
562.77	59671.96
562.93	59568.97
563.10	59400.46
563.26	58808.30
563.42	58899.58
563.59	58864.47
563.75	58768.51
563.92	58915.96
564.08	58684.25
564.24	59140.66
564.41	58990.86
564.57	58890.22
564.74	58932.35
564.90	58834.05
565.07	58637.44
565.23	58174.02
565.39	57883.79
565.56	57872.09
565.72	57476.54
565.88	57652.08
566.05	57991.45
566.21	58052.31
566.38	58237.21
566.54	58230.19
566.70	58714.68
566.87	58866.81
567.03	58955.75
567.19	58944.05
567.36	58815.32
567.52	58693.61
567.68	58457.22
567.85	57832.30
568.01	57453.13
568.17	57174.61
568.34	57251.84
568.50	57186.31
568.66	57137.16
568.83	57446.11
568.99	57757.40
569.15	57888.47
569.32	57712.93
569.48	57675.48
569.64	57528.03
569.81	57420.36
569.97	56910.13
570.13	57160.56
570.30	56582.45
570.46	56280.52
570.62	55835.82
570.78	55709.43
570.95	55943.48
571.11	56537.98
571.27	56765.01
571.43	56846.93
571.60	57036.51
571.76	57333.76
571.92	57588.88
572.09	57900.17
572.25	57858.04
572.41	57602.92
572.57	57640.37
572.74	57680.16
572.90	57279.93
573.06	57347.81
573.22	57240.14
573.38	57083.33
573.55	57155.88
573.71	57403.98
573.87	57251.84
574.03	56931.19
574.20	57092.69
574.36	56561.39
574.52	56844.59
574.68	56662.03
574.84	56030.08
575.01	55894.33
575.17	55522.19
575.33	56151.79
575.49	56224.35
575.65	56149.45
575.82	56018.38
575.98	55767.94
576.14	56126.05
576.30	56472.45
576.46	56647.99
576.62	56427.98
576.79	56526.28
576.95	56027.74
577.11	56130.73
577.27	56364.78
577.43	56287.54
577.59	56037.11
577.75	55681.34
577.92	54892.58
578.08	55004.93
578.24	54560.23
578.40	55014.29
578.56	55374.73
578.72	55510.49
578.88	55508.14
579.04	55751.56
579.21	55613.47
579.37	55760.92
579.53	55866.25
579.69	55688.37
579.85	55882.63
580.01	56079.24
580.17	55358.35
580.33	55238.98
580.49	55388.78
580.65	55592.40
580.82	55728.16
580.98	55599.43
581.14	55594.74
581.30	55676.66
581.46	55463.67
581.62	55910.72
581.78	55716.45
581.94	55852.20
582.10	55899.01
582.26	56013.70
582.42	55877.95
582.58	55789.01
582.74	55838.16
582.90	55976.25
583.06	55744.54
583.22	55508.14
583.38	55608.79
583.54	55793.69
583.70	55512.83
583.86	55760.92
584.02	55501.12
584.18	55552.62
584.34	55311.54
584.50	55143.02
584.66	55042.38
584.82	54845.77
584.98	54883.22
585.14	54644.49
