SpectraSuite Data File
++++++++++++++++++++++++++++++++++++
Date: Mon Oct 07 14:53:44 GMT-05:00 2013
User: price-jones
Dark Spectrum Present: No
Reference Spectrum Present: No
Number of Sampled Component Spectra: 1
Spectrometers: USB2+H05261
Integration Time (usec): 100000 (USB2+H05261)
Spectra Averaged: 1 (USB2+H05261)
Boxcar Smoothing: 0 (USB2+H05261)
Correct for Electrical Dark: No (USB2+H05261)
Strobe/Lamp Enabled: No (USB2+H05261)
Correct for Detector Non-linearity: No (USB2+H05261)
Correct for Stray Light: No (USB2+H05261)
Number of Pixels in Processed Spectrum: 2048
>>>>>Begin Processed Spectral Data<<<<<
365.73	0.00
365.92	0.00
366.12	0.00
366.32	0.00
366.52	0.00
366.72	0.00
366.91	0.00
367.11	0.00
367.31	0.00
367.51	0.00
367.70	0.00
367.90	0.00
368.10	0.00
368.30	0.00
368.49	0.00
368.69	0.00
368.89	0.00
369.09	0.00
369.28	0.00
369.48	0.00
369.68	0.00
369.87	0.00
370.07	0.00
370.27	0.00
370.47	681.10
370.66	3300.16
370.86	3803.37
371.06	4269.14
371.25	4208.28
371.45	3873.59
371.65	3555.27
371.84	3225.26
372.04	3363.35
372.24	3740.18
372.44	3918.06
372.63	4042.11
372.83	3735.50
373.03	3293.13
373.22	2951.42
373.42	3229.94
373.62	3576.34
373.81	3988.27
374.01	4065.51
374.21	3772.94
374.40	3302.50
374.60	3466.33
374.79	3789.33
374.99	4496.17
375.19	4821.50
375.38	4877.68
375.58	4531.28
375.78	4269.14
375.97	4610.86
376.17	4821.50
376.37	4828.53
376.56	4884.70
376.76	5301.31
376.95	5446.43
377.15	5788.14
377.35	6155.61
377.54	6097.10
377.74	6396.68
377.93	6473.92
378.13	6214.12
378.33	6045.60
378.52	5551.75
378.72	5317.70
378.91	5364.51
379.11	5172.58
379.31	4863.63
379.50	4858.95
379.70	5320.04
379.89	5928.58
380.09	6195.40
380.28	6363.92
380.48	6370.94
380.68	6347.53
380.87	6176.67
381.07	5706.23
381.26	5301.31
381.46	4774.69
381.65	4770.01
381.85	4748.95
382.04	4308.93
382.24	4194.24
382.43	3988.27
382.63	3808.05
382.83	3880.61
383.02	3911.04
383.22	3852.52
383.41	3794.01
383.61	4156.79
383.80	4730.22
384.00	5350.46
384.19	6057.31
384.39	6333.49
384.58	6420.09
384.78	6193.06
384.97	6197.74
385.17	5881.77
385.36	5549.41
385.56	5467.49
385.75	5500.26
385.95	6045.60
386.14	6574.56
386.34	6459.88
386.53	6502.01
386.72	5959.00
386.92	6005.81
387.11	6366.26
387.31	6539.46
387.50	6504.35
387.70	6249.23
387.89	6181.35
388.09	6186.04
388.28	6221.14
388.48	6284.34
388.67	6799.26
388.86	7562.27
389.06	8039.74
389.25	8404.86
389.45	8493.80
389.64	8407.20
389.84	8491.46
390.03	8138.04
390.22	8252.73
390.42	8683.39
390.61	9074.26
390.81	9577.47
391.00	9762.37
391.19	9736.63
391.39	9516.62
391.58	8994.68
391.78	8336.99
391.97	8161.45
392.16	7826.75
392.36	7040.33
392.55	5432.38
392.75	4440.00
392.94	3691.02
393.13	3475.70
393.33	4229.35
393.52	5287.27
393.71	6785.21
393.91	7513.12
394.10	8032.72
394.29	9064.89
394.49	9568.11
394.68	10406.02
394.88	10375.59
395.07	10558.16
395.26	10635.39
395.46	10076.01
395.65	9797.48
395.84	8542.96
396.04	7229.91
396.23	5846.66
396.42	4929.17
396.62	4713.84
396.81	5308.34
397.00	7019.27
397.19	8718.50
397.39	10520.71
397.58	11749.49
397.77	12376.75
397.97	12908.05
398.16	12877.63
398.35	13635.96
398.55	14101.73
398.74	14319.40
398.93	14862.40
399.12	14590.90
399.32	14029.17
399.51	14590.90
399.70	15300.08
399.90	15023.90
400.09	15222.84
400.28	15220.50
400.47	15377.32
400.67	15997.56
400.86	16463.33
401.05	16500.78
401.24	16311.19
401.44	16589.72
401.63	16699.72
401.82	16896.33
402.01	16624.83
402.21	17057.82
402.40	16879.94
402.59	16636.53
402.78	15983.52
402.97	15243.91
403.17	16056.08
403.36	17003.99
403.55	17509.55
403.74	17933.18
403.93	16996.97
404.13	15625.42
404.32	15201.78
404.51	16210.55
404.70	17589.13
404.89	17762.33
405.09	16994.63
405.28	16610.78
405.47	16535.88
405.66	16650.57
405.85	16435.24
406.05	15807.98
406.24	15974.16
406.43	16713.77
406.62	17245.07
406.81	17532.95
407.00	16896.33
407.20	16030.33
407.39	16507.80
407.58	17121.02
407.77	17729.56
407.96	18602.58
408.15	18382.57
408.34	18494.91
408.54	19632.41
408.73	19620.71
408.92	19501.34
409.11	18759.39
409.30	17666.36
409.49	16737.17
409.68	15681.59
409.87	15290.72
410.07	16350.98
410.26	17455.72
410.45	18703.22
410.64	19147.92
410.83	19824.34
411.02	20240.95
411.21	21020.35
411.40	20659.91
411.59	20870.56
411.78	20470.33
411.98	20369.68
412.17	20844.81
412.36	20463.30
412.55	20734.81
412.74	19955.41
412.93	19318.78
413.12	19648.80
413.31	21521.23
413.50	21568.04
413.69	22195.30
413.88	21497.82
414.07	20634.16
414.26	21050.78
414.45	21818.47
414.64	21579.74
414.83	21919.12
415.02	21261.43
415.22	21298.88
415.41	21928.48
415.60	22537.02
415.79	23304.71
415.98	24240.93
416.17	23903.89
416.36	23679.20
416.55	23398.34
416.74	22391.91
416.93	21549.31
417.12	21781.03
417.31	22043.17
417.50	22405.95
417.69	23091.73
417.88	22934.91
418.07	22785.12
418.26	22228.07
418.45	22621.28
418.64	23421.74
418.83	24437.53
419.02	24067.73
419.21	23962.40
419.39	22698.52
419.58	21605.49
419.77	21750.60
419.96	22740.64
420.15	24112.20
420.34	24650.52
420.53	25427.58
420.72	25764.62
420.91	25858.24
421.10	25273.10
421.29	25071.82
421.48	24231.57
421.67	25352.68
421.86	24744.14
422.05	22876.40
422.24	20809.70
422.43	20507.77
422.61	22522.98
422.80	24390.72
422.99	24807.34
423.18	23810.27
423.37	23288.33
423.56	23253.22
423.75	23896.87
423.94	24088.79
424.13	22764.05
424.32	23204.07
424.50	23454.51
424.69	22735.96
424.88	23098.75
425.07	22902.14
425.26	22979.38
425.45	22586.17
425.64	22225.73
425.83	21977.63
426.01	23604.30
426.20	23892.19
426.39	23920.28
426.58	22487.87
426.77	20575.65
426.96	19733.06
427.15	20577.99
427.33	22382.54
427.52	23349.18
427.71	23344.50
427.90	22831.93
428.09	22742.99
428.28	22309.99
428.46	21825.50
428.65	21308.24
428.84	21252.06
429.03	22202.32
429.22	21055.46
429.40	19915.62
429.59	17898.08
429.78	15810.32
429.97	15777.55
430.16	16400.13
430.34	16231.62
430.53	16283.11
430.72	16503.12
430.91	18190.64
431.10	21373.77
431.28	25411.20
431.47	27552.79
431.66	27742.37
431.85	25392.47
432.03	23314.08
432.22	21762.30
432.41	23339.82
432.60	25565.67
432.79	26885.73
432.97	27372.57
433.16	26841.26
433.35	24334.55
433.54	22024.44
433.72	20779.28
433.91	21518.89
434.10	23665.16
434.28	25106.93
434.47	26909.14
434.66	26473.80
434.85	25907.39
435.03	25797.38
435.22	26331.03
435.41	27899.19
435.59	27899.19
435.78	27938.97
435.97	29134.99
436.16	29268.40
436.34	28622.41
436.53	27983.44
436.72	28376.66
436.90	26710.19
437.09	26380.18
437.28	25724.83
437.46	27157.24
437.65	26932.54
437.84	25399.49
438.02	23278.97
438.21	22710.22
438.40	24254.97
438.58	26494.86
438.77	27101.06
438.96	27295.33
439.14	28758.16
439.33	29060.09
439.52	29450.96
439.70	29193.50
439.89	27938.97
440.08	26897.44
440.26	27267.24
440.45	28336.87
440.63	30108.65
440.82	31431.05
441.01	31220.41
441.19	30885.71
441.38	31461.48
441.57	32507.70
441.75	32842.40
441.94	33109.22
442.12	32964.10
442.31	33219.22
442.50	33127.94
442.68	32884.53
442.87	32500.68
443.05	32091.09
443.24	32481.95
443.43	33240.29
443.61	33937.77
443.80	34768.66
443.98	32404.72
444.17	32421.10
444.35	34380.13
444.54	34881.00
444.73	34576.73
444.91	33308.16
445.10	31960.02
445.28	30644.63
445.47	29860.55
445.65	29984.60
445.84	31211.04
446.02	31910.86
446.21	32339.18
446.39	32978.15
446.58	33289.44
446.77	33897.98
446.95	34015.01
447.14	35138.46
447.32	35700.19
447.51	34881.00
447.69	33230.93
447.88	33013.26
448.06	33450.94
448.25	34410.56
448.43	34375.45
448.62	33713.08
448.80	33205.18
448.99	33944.79
449.17	34361.40
449.36	33968.19
449.54	35309.32
449.73	35959.99
449.91	36680.88
450.10	37219.20
450.28	37858.17
450.46	37570.28
450.65	37684.97
450.83	37090.47
451.02	36755.77
451.20	36912.59
451.39	36411.71
451.57	35997.44
451.76	36297.03
451.94	36030.21
452.13	35321.02
452.31	33701.37
452.49	31988.10
452.68	32678.56
452.86	32460.89
453.05	33228.59
453.23	33862.87
453.42	34628.23
453.60	35421.67
453.78	35955.31
453.97	35625.29
454.15	35772.75
454.34	34646.95
454.52	34925.47
454.70	34024.37
454.89	34827.17
455.07	35211.02
455.26	35187.61
455.44	36877.48
455.62	37172.39
455.81	37481.34
455.99	36987.49
456.17	36322.77
456.36	37095.15
456.54	37701.35
456.73	38043.07
456.91	38377.76
457.09	38895.02
457.28	39449.73
457.46	37677.94
457.64	37656.88
457.83	36589.59
458.01	35826.58
458.19	35910.84
458.38	36304.05
458.56	38340.32
458.74	37720.07
458.93	36760.45
459.11	37177.07
459.29	36563.85
459.48	37378.36
459.66	36807.26
459.84	37600.71
460.03	37970.51
460.21	38244.35
460.39	38827.15
460.57	38813.10
460.76	39545.69
460.94	39058.86
461.12	38511.17
461.31	38815.44
461.49	38803.74
461.67	38354.36
461.85	39990.39
462.04	39667.40
462.22	39866.34
462.40	39533.99
462.59	39536.33
462.77	39452.07
462.95	39768.04
463.13	39023.75
463.32	38925.45
463.50	38150.73
463.68	38373.08
463.86	39009.71
464.05	38146.05
464.23	37177.07
464.41	37266.01
464.59	36498.31
464.78	38590.75
464.96	38370.74
465.14	38050.09
465.32	38417.55
465.50	39875.71
465.69	40364.88
465.87	38946.51
466.05	38382.45
466.23	36734.71
466.41	35690.83
466.60	36964.08
466.78	36779.18
466.96	37762.20
467.14	37577.30
467.32	38925.45
467.51	38735.87
467.69	37031.96
467.87	37350.27
468.05	38382.45
468.23	38251.38
468.41	38352.02
468.60	38288.82
468.78	38630.54
468.96	38298.19
469.14	39115.03
469.32	39388.88
469.50	37366.65
469.69	38129.67
469.87	37479.00
470.05	37408.78
470.23	37158.34
470.41	37603.05
470.59	37738.80
470.77	38019.66
470.95	38946.51
471.14	39203.97
471.32	39159.50
471.50	41579.62
471.68	41682.60
471.86	42017.30
472.04	42213.90
472.22	41748.14
472.40	40027.84
472.58	39545.69
472.77	39356.11
472.95	40151.89
473.13	40840.01
473.31	40346.15
473.49	40589.57
473.67	40730.00
473.85	41310.46
474.03	42447.96
474.21	42312.20
474.39	42981.60
474.57	43199.27
474.75	43222.67
474.93	42916.06
475.12	41638.13
475.30	41869.84
475.48	41668.56
475.66	42698.39
475.84	42099.22
476.02	42192.84
476.20	41179.39
476.38	42227.95
476.56	42876.27
476.74	43426.30
476.92	43992.71
477.10	44428.05
477.28	45621.72
477.46	45839.39
477.64	46225.58
477.82	45860.46
478.00	46129.62
478.18	45696.62
478.36	45696.62
478.54	45193.40
478.72	45977.48
478.90	46590.70
479.08	47868.64
479.26	48641.01
479.44	48161.20
479.62	47540.96
479.80	47835.87
479.98	48322.70
480.16	48350.79
480.34	48046.52
480.52	48467.81
480.70	48552.07
480.88	48364.83
481.06	49514.03
481.24	49434.45
481.41	50333.22
481.59	51014.32
481.77	50836.44
481.95	50071.08
482.13	50148.32
482.31	50204.49
482.49	50670.26
482.67	50712.39
482.85	50747.50
483.03	51430.93
483.21	51587.75
483.39	51847.55
483.57	50916.01
483.74	51136.02
483.92	51021.34
484.10	50990.91
484.28	51861.59
484.46	52432.68
484.64	52486.51
484.82	52023.09
485.00	51639.24
485.18	50939.42
485.35	49577.23
485.53	46920.72
485.71	43304.59
485.89	42532.22
486.07	44442.09
486.25	48165.88
486.43	49916.61
486.61	50670.26
486.78	50712.39
486.96	50864.52
487.14	51985.64
487.32	52729.93
487.50	53923.60
487.68	54190.42
487.85	54829.39
488.03	54724.07
488.21	54564.91
488.39	53961.05
488.57	53525.71
488.75	52772.06
488.92	53584.22
489.10	55756.24
489.28	56779.06
489.46	57544.41
489.64	57291.63
489.81	57495.26
489.99	57322.06
490.17	57095.03
490.35	57481.22
490.53	56973.32
490.70	56931.19
490.88	56617.56
491.06	57448.45
491.24	57474.20
491.41	56449.04
491.59	55346.65
491.77	54457.24
491.95	55484.74
492.13	56498.19
492.30	57645.05
492.48	58408.07
492.66	58590.63
492.84	58880.86
493.01	58522.76
493.19	57785.49
493.37	58031.24
493.54	57588.88
493.72	57839.32
493.90	58843.41
494.08	59458.97
494.25	59779.62
494.43	60079.21
494.61	60259.43
494.79	60540.30
494.96	60207.94
495.14	59737.49
495.32	59117.25
495.49	58300.40
495.67	59199.17
495.85	60245.39
496.02	60823.50
496.20	60727.54
496.38	60303.90
496.55	60247.73
496.73	60680.73
496.91	60725.20
497.09	61148.84
497.26	61394.59
497.44	60949.89
497.62	60540.30
497.79	59868.56
497.97	58644.46
498.14	58838.73
498.32	59756.22
498.50	60776.69
498.67	61137.13
498.85	60816.48
499.03	61010.74
499.20	61364.17
499.38	61331.40
499.56	61343.10
499.73	60732.22
499.91	60430.29
500.08	59980.91
500.26	59470.67
500.44	59641.53
500.61	60271.14
500.79	60247.73
500.97	59723.45
501.14	59746.86
501.32	59505.78
501.49	59585.36
501.67	59877.93
501.84	60334.33
502.02	60470.08
502.20	60795.42
502.37	61034.15
502.55	60982.66
502.72	61471.83
502.90	61982.07
503.07	61616.94
503.25	61242.46
503.43	60479.44
503.60	60104.96
503.78	59341.94
503.95	59788.98
504.13	60835.20
504.30	61682.48
504.48	61504.60
504.65	61228.41
504.83	61111.39
505.01	61876.74
505.18	62152.93
505.36	62698.27
505.53	62763.81
505.71	63011.90
505.88	62934.66
506.06	62340.17
506.23	62145.90
506.41	61661.41
506.58	62019.52
506.76	61904.83
506.93	61811.21
507.11	61717.59
507.28	61762.06
507.46	61539.71
507.63	60853.93
507.81	60624.56
507.98	60949.89
508.16	61579.49
508.33	62124.84
508.50	62424.43
508.68	62639.76
508.85	63133.61
509.03	62941.69
509.20	63000.20
509.38	62529.75
509.55	61630.99
509.73	61687.16
509.90	62253.57
510.08	62405.70
510.25	62276.97
510.42	62152.93
510.60	61965.68
510.77	62302.72
510.95	62801.25
511.12	62864.45
511.30	63187.44
511.47	63458.94
511.64	63430.86
511.82	63098.50
511.99	62361.23
512.17	62040.58
512.34	61792.48
512.51	61916.53
512.69	62078.03
512.86	61879.08
513.04	62436.13
513.21	62485.28
513.38	62134.20
513.56	61602.90
513.73	60898.40
513.90	61542.05
514.08	61282.25
514.25	61619.28
514.43	61843.98
514.60	61916.53
514.77	62176.33
514.95	62358.89
515.12	62218.46
515.29	62391.66
515.47	62691.25
515.64	62929.98
515.81	62609.33
515.99	62040.58
516.16	60912.44
516.33	58908.94
516.51	57577.18
516.68	56765.01
516.85	56790.76
517.03	56765.01
517.20	58951.07
517.37	61319.70
517.54	62251.23
517.72	61923.55
517.89	59793.67
518.06	57633.35
518.24	57638.03
518.41	59664.94
518.58	60746.26
518.75	61029.47
518.93	61350.12
519.10	61193.31
519.27	61572.47
519.45	61740.99
519.62	62300.38
519.79	62536.77
519.96	62599.97
520.14	62276.97
520.31	61415.66
520.48	61083.30
520.65	61780.78
520.83	62534.43
521.00	62731.04
521.17	62525.07
521.34	62227.82
521.52	62401.02
521.69	63107.86
521.86	63512.78
522.03	63114.89
522.20	62092.07
522.38	60961.59
522.55	60975.64
522.72	61619.28
522.89	61633.33
523.07	61724.61
523.24	62225.48
523.41	62997.86
523.58	63304.47
523.75	63636.83
523.92	63611.08
524.10	63484.69
524.27	63423.84
524.44	63409.79
524.61	63009.56
524.78	63037.65
524.96	62904.24
525.13	62922.96
525.30	63157.02
525.47	63477.67
525.64	63311.49
525.81	62791.89
525.98	61492.89
526.16	60233.69
526.33	59650.89
526.50	59423.86
526.67	59082.14
526.84	59496.42
527.01	60528.59
527.18	61132.45
527.36	61911.85
527.53	62761.47
527.70	62836.36
527.87	62436.13
528.04	62080.37
528.21	62403.36
528.38	63065.73
528.55	63669.59
528.72	63957.48
528.89	64102.59
529.07	63931.73
529.24	63114.89
529.41	62452.51
529.58	61956.32
529.75	62209.10
529.92	62754.44
530.09	62988.50
530.26	63533.84
530.43	63564.27
530.60	63620.44
530.77	63842.79
530.94	64121.32
531.11	63707.04
531.28	63304.47
531.46	63098.50
531.63	63236.59
531.80	63028.29
531.97	62728.70
532.14	62176.33
532.31	61300.97
532.48	60640.94
532.65	60463.06
532.82	61286.93
532.99	62279.31
533.16	62681.89
533.33	63126.59
533.50	63023.61
533.67	62410.38
533.84	62089.73
534.01	62099.09
534.18	62349.53
534.35	62686.57
534.52	62412.73
534.69	62777.85
534.86	62922.96
535.03	63112.55
535.20	63489.37
535.37	63847.47
535.54	63868.54
535.71	63657.89
535.88	63419.16
536.05	62745.08
536.22	62347.19
536.38	62234.84
536.55	61726.95
536.72	61336.08
536.89	61322.04
537.06	61993.77
537.23	62817.64
537.40	62892.54
537.57	62829.34
537.74	62747.42
537.91	62766.15
538.08	62478.26
538.25	62602.31
538.42	62852.75
538.59	62639.76
538.75	62134.20
538.92	61822.91
539.09	61759.72
539.26	61539.71
539.43	61544.39
539.60	61478.85
539.77	61677.80
539.94	61638.01
540.11	60926.49
540.28	60231.35
540.44	60432.63
540.61	60554.34
540.78	60926.49
540.95	61418.00
541.12	61771.42
541.29	62021.86
541.46	61979.73
541.62	62181.01
541.79	62176.33
541.96	61469.49
542.13	61549.07
542.30	61787.80
542.47	61965.68
542.63	61780.78
542.80	61319.70
542.97	61668.44
543.14	61666.09
543.31	61565.45
543.48	61862.70
543.64	62705.29
543.81	62883.17
543.98	62731.04
544.15	62255.91
544.32	61616.94
544.48	61677.80
544.65	62206.76
544.82	62527.41
544.99	62150.59
545.16	61914.19
545.32	61439.06
545.49	62288.68
545.66	62686.57
545.83	62478.26
546.00	62000.79
546.16	61598.22
546.33	61689.50
546.50	61743.33
546.67	62358.89
546.83	61801.85
547.00	61895.47
547.17	61305.65
547.34	60755.63
547.50	60598.81
547.67	61109.05
547.84	61286.93
548.00	61511.62
548.17	62017.17
548.34	61663.75
548.51	61628.65
548.67	61783.12
548.84	61836.95
549.01	61982.07
549.18	61591.20
549.34	61748.01
549.51	61785.46
549.68	61621.62
549.84	61635.67
550.01	61279.91
550.18	61212.03
550.34	61289.27
550.51	61427.36
550.68	61436.72
550.84	60938.19
551.01	61034.15
551.18	61137.13
551.34	61076.28
551.51	61516.30
551.68	61769.08
551.84	61883.76
552.01	61743.33
552.18	61530.34
552.34	60762.65
552.51	60615.19
552.68	60418.59
552.84	60821.16
553.01	61212.03
553.18	60956.91
553.34	61256.50
553.51	61230.75
553.67	61322.04
553.84	61621.62
554.01	61439.06
554.17	61286.93
554.34	61223.73
554.51	61481.19
554.67	61591.20
554.84	61434.38
555.00	61263.52
555.17	61148.84
555.33	61097.34
555.50	61109.05
555.67	61158.20
555.83	60931.17
556.00	60638.60
556.16	60727.54
556.33	60289.86
556.50	60196.24
556.66	60296.88
556.83	59863.88
556.99	60074.53
557.16	60444.33
557.32	60430.29
557.49	60692.43
557.65	60671.37
557.82	60762.65
557.98	60507.53
558.15	60107.30
558.32	59260.02
558.48	58494.67
558.65	58728.72
558.81	58955.75
558.98	59274.07
559.14	59564.29
559.31	59510.46
559.47	59625.15
559.64	59339.60
559.80	59004.91
559.97	59049.38
560.13	59393.43
560.30	60196.24
560.46	60559.02
560.63	60893.72
560.79	60849.25
560.96	60544.98
561.12	59648.55
561.29	58691.27
561.45	58937.03
561.61	59468.33
561.78	59817.07
561.94	59798.35
562.11	59550.25
562.27	59412.16
562.44	59779.62
562.60	60100.28
562.77	60140.07
562.93	60126.02
563.10	60083.89
563.26	59374.71
563.42	59629.83
563.59	59278.75
563.75	59444.93
563.92	59262.36
564.08	59377.05
564.24	59566.63
564.41	59625.15
564.57	59519.82
564.74	59348.96
564.90	59374.71
565.07	59285.77
565.23	58644.46
565.39	58394.03
565.56	58157.63
565.72	57935.28
565.88	58349.56
566.05	58422.11
566.21	58674.89
566.38	58688.93
566.54	58710.00
566.70	59133.63
566.87	59430.88
567.03	59388.75
567.19	59365.35
567.36	59215.55
567.52	59096.19
567.68	58934.69
567.85	58155.29
568.01	57989.11
568.17	57422.70
568.34	57790.17
568.50	57539.73
568.66	57666.12
568.83	58092.10
568.99	58017.20
569.15	58337.85
569.32	58429.13
569.48	57916.56
569.64	57804.21
569.81	57558.45
569.97	57415.68
570.13	57432.07
570.30	57003.75
570.46	56786.08
570.62	56378.82
570.78	56332.01
570.95	56512.23
571.11	57003.75
571.27	57432.07
571.43	57425.04
571.60	57813.57
571.76	57745.70
571.92	58150.61
572.09	58042.95
572.25	58415.09
572.41	58178.70
572.57	57741.02
572.74	58047.63
572.90	57769.10
573.06	57467.17
573.22	57773.78
573.38	57736.34
573.55	57712.93
573.71	57755.06
573.87	57560.79
574.03	57467.17
574.20	57602.92
574.36	57230.78
574.52	57109.07
574.68	57071.62
574.84	56842.25
575.01	56362.44
575.17	56207.97
575.33	56411.59
575.49	56676.07
575.65	56750.97
575.82	56554.36
575.98	56364.78
576.14	56711.18
576.30	57038.86
576.46	56910.13
576.62	57153.54
576.79	56891.40
576.95	56734.59
577.11	56427.98
577.27	56893.74
577.43	56786.08
577.59	56662.03
577.75	56154.13
577.92	55646.24
578.08	55365.37
578.24	55473.04
578.40	55739.86
578.56	55632.19
578.72	55917.74
578.88	56151.79
579.04	56214.99
579.21	56236.05
579.37	56233.71
579.53	56245.41
579.69	56505.21
579.85	56507.55
580.01	56423.29
580.17	56013.70
580.33	56072.21
580.49	56039.45
580.65	56083.92
580.82	56287.54
580.98	56207.97
581.14	56245.41
581.30	56236.05
581.46	55997.32
581.62	56287.54
581.78	56250.09
581.94	56640.96
582.10	56573.09
582.26	56727.56
582.42	56285.20
582.58	56427.98
582.74	56388.19
582.90	56594.15
583.06	56500.53
583.22	56285.20
583.38	56226.69
583.54	56186.90
583.70	56200.94
583.86	56250.09
584.02	55999.66
584.18	56126.05
584.34	55959.87
584.50	55807.73
584.66	55721.13
584.82	55629.85
584.98	55313.88
585.14	55180.47
