SpectraSuite Data File
++++++++++++++++++++++++++++++++++++
Date: Mon Oct 07 14:53:08 GMT-05:00 2013
User: price-jones
Dark Spectrum Present: No
Reference Spectrum Present: No
Number of Sampled Component Spectra: 1
Spectrometers: USB2+H05261
Integration Time (usec): 100000 (USB2+H05261)
Spectra Averaged: 1 (USB2+H05261)
Boxcar Smoothing: 0 (USB2+H05261)
Correct for Electrical Dark: No (USB2+H05261)
Strobe/Lamp Enabled: No (USB2+H05261)
Correct for Detector Non-linearity: No (USB2+H05261)
Correct for Stray Light: No (USB2+H05261)
Number of Pixels in Processed Spectrum: 2048
>>>>>Begin Processed Spectral Data<<<<<
365.73	0.00
365.92	0.00
366.12	0.00
366.32	0.00
366.52	0.00
366.72	0.00
366.91	0.00
367.11	0.00
367.31	0.00
367.51	0.00
367.70	0.00
367.90	0.00
368.10	0.00
368.30	0.00
368.49	0.00
368.69	0.00
368.89	0.00
369.09	0.00
369.28	0.00
369.48	0.00
369.68	0.00
369.87	0.00
370.07	0.00
370.27	0.00
370.47	678.76
370.66	3510.80
370.86	4149.77
371.06	4479.79
371.25	4425.95
371.45	4121.68
371.65	3714.43
371.84	3393.78
372.04	3637.19
372.24	4128.70
372.44	4271.48
372.63	4224.67
372.83	3775.28
373.03	3454.63
373.22	3201.85
373.42	3236.96
373.62	3866.56
373.81	4241.05
374.01	4077.21
374.21	3723.79
374.40	3513.14
374.60	3543.57
374.79	4128.70
374.99	4800.44
375.19	5165.56
375.38	5064.92
375.58	4858.95
375.78	4648.30
375.97	4678.73
376.17	4999.38
376.37	4975.98
376.56	5043.85
376.76	5390.25
376.95	5687.50
377.15	6188.38
377.35	6450.52
377.54	6726.70
377.74	6757.13
377.93	6731.38
378.13	6712.66
378.33	6448.18
378.52	5757.72
378.72	5502.60
378.91	5596.22
379.11	5432.38
379.31	5074.28
379.50	4957.25
379.70	5753.04
379.89	6267.95
380.09	6377.96
380.28	6647.12
380.48	6595.63
380.68	6359.24
380.87	6282.00
381.07	5746.02
381.26	5483.88
381.46	5181.95
381.65	4924.49
381.85	4833.21
382.04	4521.92
382.24	4210.62
382.43	4060.83
382.63	3988.27
382.83	4124.02
383.02	3957.85
383.22	4234.03
383.41	3918.06
383.61	4203.60
383.80	5062.58
384.00	5575.16
384.19	6392.00
384.39	6560.52
384.58	6684.57
384.78	6469.24
384.97	6466.90
385.17	6122.84
385.36	5750.70
385.56	5495.58
385.75	5652.39
385.95	6277.32
386.14	6871.81
386.34	6626.06
386.53	6338.17
386.72	6085.39
386.92	6153.27
387.11	6464.56
387.31	6628.40
387.50	6497.33
387.70	6354.55
387.89	6377.96
388.09	6422.43
388.28	6483.28
388.48	6380.30
388.67	7122.25
388.86	7798.66
389.06	8269.11
389.25	8751.26
389.45	8788.71
389.64	8638.92
389.84	8835.52
390.03	8564.02
390.22	8531.25
390.42	8819.14
390.61	9446.40
390.81	10148.56
391.00	10136.86
391.19	10024.51
391.39	9839.61
391.58	9032.13
391.78	8709.13
391.97	8425.93
392.16	7871.22
392.36	7164.38
392.55	5757.72
392.75	4547.66
392.94	3756.56
393.13	3740.18
393.33	4472.76
393.52	5764.74
393.71	6909.26
393.91	7566.95
394.10	8252.73
394.29	9298.95
394.49	9926.21
394.68	10593.26
394.88	10640.08
395.07	11075.42
395.26	10895.19
395.46	10597.95
395.65	10120.48
395.84	8840.20
396.04	7318.86
396.23	5954.32
396.42	5078.96
396.62	4868.31
396.81	5675.80
397.00	7368.01
397.19	9235.75
397.39	10738.38
397.58	12156.74
397.77	12903.37
397.97	13245.09
398.16	13544.68
398.35	13970.66
398.55	14295.99
398.74	14958.36
398.93	15307.10
399.12	15080.07
399.32	14431.74
399.51	14752.40
399.70	15934.37
399.90	15562.22
400.09	15733.08
400.28	15524.77
400.47	15683.93
400.67	16439.92
400.86	16760.58
401.05	16809.73
401.24	16886.97
401.44	17467.42
401.63	17371.46
401.82	17511.89
402.01	17413.59
402.21	17439.33
402.40	17825.52
402.59	17092.93
402.78	16442.26
402.97	15847.77
403.17	16500.78
403.36	17490.82
403.55	18012.76
403.74	18518.32
403.93	17612.53
404.13	16395.45
404.32	16130.97
404.51	16554.61
404.70	17965.95
404.89	17865.31
405.09	17554.02
405.28	16966.54
405.47	17125.70
405.66	17252.09
405.85	16685.68
406.05	16180.12
406.24	16425.88
406.43	17263.79
406.62	18101.70
406.81	18115.75
407.00	17310.60
407.20	16996.97
407.39	17209.96
407.58	17907.44
407.77	18422.36
407.96	19253.25
408.15	19302.40
408.34	19325.80
408.54	20360.32
408.73	20407.13
408.92	19658.16
409.11	19489.64
409.30	18501.93
409.49	17085.91
409.68	16353.32
409.87	15758.83
410.07	16938.46
410.26	18146.17
410.45	19117.50
410.64	19606.67
410.83	20285.42
411.02	20915.03
411.21	21692.08
411.40	21268.45
411.59	21647.61
411.78	21298.88
411.98	21125.68
412.17	21628.89
412.36	21359.73
412.55	20940.77
412.74	20542.88
412.93	20255.00
413.12	20365.00
413.31	22202.32
413.50	22321.69
413.69	22988.74
413.88	21724.85
414.07	21326.96
414.26	22136.79
414.45	22389.56
414.64	22459.78
414.83	22604.89
415.02	22010.40
415.22	22176.58
415.41	22717.24
415.60	23424.08
415.79	24315.83
415.98	24795.64
416.17	24833.08
416.36	24444.56
416.55	23765.80
416.74	23234.50
416.93	22347.44
417.12	22272.54
417.31	22778.09
417.50	23183.01
417.69	23892.19
417.88	23915.59
418.07	23447.49
418.26	23166.62
418.45	23253.22
418.64	24212.84
418.83	25081.18
419.02	24924.36
419.21	24456.26
419.39	23377.27
419.58	22375.52
419.77	22602.55
419.96	23484.94
420.15	24655.20
420.34	25638.23
420.53	26230.38
420.72	27026.17
420.91	26658.70
421.10	26305.28
421.29	26263.15
421.48	24805.00
421.67	26527.63
421.86	25549.29
422.05	23983.47
422.24	21570.38
422.43	21291.85
422.61	23449.83
422.80	25408.86
422.99	25359.70
423.18	24580.31
423.37	24191.78
423.56	23791.55
423.75	24617.75
423.94	25235.66
424.13	23903.89
424.32	23674.52
424.50	24121.56
424.69	23791.55
424.88	23590.26
425.07	24072.41
425.26	23477.91
425.45	23440.47
425.64	23192.37
425.83	23276.63
426.01	24430.51
426.20	24833.08
426.39	25013.31
426.58	23044.91
426.77	21441.65
426.96	20393.09
427.15	21525.91
427.33	22916.19
427.52	23948.36
427.71	24070.07
427.90	23798.57
428.09	23859.42
428.28	23033.21
428.46	22246.79
428.65	22429.35
428.84	22796.82
429.03	22576.81
429.22	21776.34
429.40	20931.41
429.59	18625.98
429.78	16383.75
429.97	16669.30
430.16	16940.80
430.34	17057.82
430.53	16769.94
430.72	17385.50
430.91	19166.65
431.10	22230.41
431.28	26588.49
431.47	28680.92
431.66	29050.73
431.85	25996.33
432.03	24266.67
432.22	23166.62
432.41	24137.94
432.60	26803.82
432.79	27697.90
432.97	28821.36
433.16	27948.34
433.35	25458.01
433.54	22829.59
433.72	21383.13
433.91	22380.20
434.10	24549.88
434.28	26829.56
434.47	27749.39
434.66	26955.95
434.85	26651.68
435.03	26328.69
435.22	27541.08
435.41	29132.65
435.59	29240.31
435.78	29443.94
435.97	29949.50
436.16	30143.76
436.34	30029.07
436.53	29151.37
436.72	29687.36
436.90	27702.58
437.09	27742.37
437.28	27213.41
437.46	28528.79
437.65	27917.91
437.84	25935.48
438.02	24198.80
438.21	24025.60
438.40	25088.20
438.58	27620.66
438.77	27992.81
438.96	28201.11
439.14	29600.76
439.33	30225.68
439.52	30843.58
439.70	30199.93
439.89	29453.30
440.08	28460.91
440.26	28416.44
440.45	29612.46
440.63	31459.14
440.82	33097.52
441.01	32243.22
441.19	32187.05
441.38	32835.38
441.57	34103.95
441.75	34323.96
441.94	34508.86
442.12	34396.51
442.31	34969.94
442.50	34660.99
442.68	34576.73
442.87	34258.42
443.05	33633.50
443.24	34590.78
443.43	34850.58
443.61	35868.71
443.80	35934.24
443.98	34204.59
444.17	34047.77
444.35	35735.30
444.54	36243.20
444.73	35831.26
444.91	34323.96
445.10	33259.01
445.28	31777.45
445.47	31494.25
445.65	31618.30
445.84	32580.26
446.02	33443.91
446.21	33928.41
446.39	34089.90
446.58	35150.17
446.77	35072.93
446.95	35346.77
447.14	36070.00
447.32	37090.47
447.51	36222.13
447.69	34944.20
447.88	34473.75
448.06	35002.71
448.25	35892.12
448.43	36184.68
448.62	35548.06
448.80	35386.56
448.99	35594.87
449.17	35672.10
449.36	35878.07
449.54	37214.52
449.73	37809.01
449.91	38354.36
450.10	38916.09
450.28	39838.26
450.46	39306.96
450.65	39257.81
450.83	38990.98
451.02	38181.16
451.20	37940.08
451.39	38134.35
451.57	37937.74
451.76	37771.57
451.94	37699.01
452.13	36732.37
452.31	35232.08
452.49	33411.15
452.68	34075.86
452.86	34036.07
453.05	34178.84
453.23	35503.59
453.42	35779.77
453.60	37156.00
453.78	37811.35
453.97	37212.18
454.15	37294.10
454.34	36191.70
454.52	36392.99
454.70	35938.93
454.89	36575.55
455.07	36741.73
455.26	36912.59
455.44	38394.15
455.62	39257.81
455.81	39381.85
455.99	39086.95
456.17	39159.50
456.36	38597.77
456.54	39447.39
456.73	39636.97
456.91	40268.92
457.09	40584.89
457.28	40945.33
457.46	39648.68
457.64	39227.38
457.83	38639.90
458.01	37319.84
458.19	38593.09
458.38	38237.33
458.56	39936.56
458.74	39592.50
458.93	38859.91
459.11	38635.22
459.29	38703.10
459.48	38597.77
459.66	38745.23
459.84	39290.57
460.03	39047.16
460.21	39494.20
460.39	40753.41
460.57	40713.62
460.76	41008.53
460.94	41366.63
461.12	40556.80
461.31	40900.86
461.49	40690.21
461.67	40315.73
461.85	41790.27
462.04	41717.71
462.22	41855.80
462.40	41883.89
462.59	41574.94
462.77	41434.50
462.95	42026.66
463.13	41265.99
463.32	40781.49
463.50	40879.80
463.68	40732.34
463.86	40589.57
464.05	40226.79
464.23	39344.41
464.41	39129.08
464.59	38529.90
464.78	40732.34
464.96	39812.51
465.14	40016.14
465.32	41160.66
465.50	41769.20
465.69	41965.81
465.87	40975.76
466.05	40175.30
466.23	38684.37
466.41	37659.22
466.60	38778.00
466.78	38593.09
466.96	38972.26
467.14	40067.63
467.32	40641.06
467.51	40638.72
467.69	38742.89
467.87	39845.28
468.05	40175.30
468.23	40840.01
468.41	40210.40
468.60	40491.27
468.78	40453.82
468.96	40229.13
469.14	41385.35
469.32	41287.05
469.50	39800.81
469.69	40198.70
469.87	39517.60
470.05	39136.10
470.23	39501.22
470.41	39730.59
470.59	39952.94
470.77	40479.57
470.95	40861.07
471.14	41460.25
471.32	41244.92
471.50	43742.27
471.68	43653.33
471.86	44154.21
472.04	44194.00
472.22	44395.28
472.40	42092.19
472.58	42419.87
472.77	41518.76
472.95	42277.10
473.13	43122.03
473.31	42506.47
473.49	42906.70
473.67	43416.94
473.85	43973.98
474.03	44519.33
474.21	44680.83
474.39	44910.20
474.57	45244.90
474.75	45263.62
474.93	45137.23
475.12	44336.77
475.30	44123.78
475.48	44268.89
475.66	45118.51
475.84	44573.16
476.02	44343.79
476.20	43606.52
476.38	44449.11
476.56	45303.41
476.74	45586.61
476.92	46171.75
477.10	46494.74
477.28	47971.62
477.46	48212.70
477.64	48477.18
477.82	48488.88
478.00	48652.72
478.18	47828.85
478.36	47674.37
478.54	47620.54
478.72	48350.79
478.90	48982.73
479.08	50092.15
479.26	50447.91
479.44	50354.29
479.62	50485.36
479.80	50162.36
479.98	50513.44
480.16	50649.19
480.34	49904.90
480.52	50227.90
480.70	50834.10
480.88	50707.71
481.06	51615.83
481.24	51915.42
481.41	52552.05
481.59	52619.92
481.77	52786.10
481.95	52119.05
482.13	52023.09
482.31	51997.34
482.49	52797.80
482.67	52512.26
482.85	52776.74
483.03	53233.14
483.21	53677.85
483.39	53691.89
483.57	52722.91
483.74	52449.06
483.92	53045.90
484.10	53244.85
484.28	53937.65
484.46	54061.69
484.64	54761.51
484.82	53930.62
485.00	53301.02
485.18	52748.65
485.35	51910.74
485.53	49052.95
485.71	45120.85
485.89	45223.83
486.07	46981.57
486.25	50057.04
486.43	51992.66
486.61	52561.41
486.78	52809.51
486.96	52713.55
487.14	54047.65
487.32	54721.72
487.50	55540.91
487.68	56294.56
487.85	56343.72
488.03	56463.08
488.21	56046.47
488.39	55718.79
488.57	55065.78
488.75	55040.04
488.92	55657.94
489.10	57640.37
489.28	58443.18
489.46	59051.72
489.64	58855.11
489.81	59086.82
489.99	58649.14
490.17	59119.59
490.35	59199.17
490.53	58798.94
490.70	58267.64
490.88	58358.92
491.06	59189.81
491.24	59063.42
491.41	58171.67
491.59	56924.17
491.77	56612.88
491.95	57511.64
492.13	58202.10
492.30	59320.88
492.48	60046.44
492.66	60416.25
492.84	60495.83
493.01	60182.19
493.19	59735.15
493.37	59381.73
493.54	59075.12
493.72	59796.01
493.90	60463.06
494.08	61216.71
494.25	61382.89
494.43	61511.62
494.61	61921.21
494.79	62113.14
494.96	61883.76
495.14	61212.03
495.32	60444.33
495.49	60006.65
495.67	61013.08
495.85	62082.71
496.02	62391.66
496.20	62365.91
496.38	61598.22
496.55	61602.90
496.73	62106.12
496.91	62328.47
497.09	62892.54
497.26	62885.51
497.44	62464.22
497.62	62073.35
497.79	61446.08
497.97	60334.33
498.14	60753.29
498.32	61476.51
498.50	62232.50
498.67	62775.51
498.85	62628.05
499.03	62679.55
499.20	62834.02
499.38	63007.22
499.56	63011.90
499.73	62398.68
499.91	62101.43
500.08	61612.26
500.26	61059.90
500.44	61336.08
500.61	62157.61
500.79	61647.37
500.97	61476.51
501.14	61275.22
501.32	61230.75
501.49	61450.77
501.67	61595.88
501.84	62176.33
502.02	62358.89
502.20	62459.54
502.37	62618.69
502.55	62621.03
502.72	63234.25
502.90	63412.13
503.07	63274.04
503.25	62836.36
503.43	62211.44
503.60	61504.60
503.78	61130.11
503.95	61572.47
504.13	62660.82
504.30	63554.91
504.48	63236.59
504.65	62934.66
504.83	63032.97
505.01	63498.73
505.18	63781.94
505.36	64151.74
505.53	64306.22
505.71	64458.35
505.88	64374.09
506.06	63845.13
506.23	63824.07
506.41	63449.58
506.58	63505.76
506.76	63592.36
506.93	63575.97
507.11	63201.49
507.28	63594.70
507.46	63171.06
507.63	62578.90
507.81	62415.07
507.98	62717.00
508.16	63318.51
508.33	63653.21
508.50	63945.78
508.68	64404.52
508.85	64652.62
509.03	64790.71
509.20	64446.65
509.38	63817.05
509.55	63203.83
509.73	63323.19
509.90	63891.94
510.08	64203.24
510.25	64008.97
510.42	63997.27
510.60	63739.81
510.77	64074.51
510.95	64594.10
511.12	64554.32
511.30	64884.33
511.47	64968.59
511.64	64917.10
511.82	64849.22
511.99	63915.35
512.17	63889.60
512.34	63351.28
512.51	63440.22
512.69	63620.44
512.86	63784.28
513.04	64203.24
513.21	64238.34
513.38	63983.22
513.56	63206.17
513.73	62920.62
513.90	63110.20
514.08	63341.92
514.25	63458.94
514.43	63676.61
514.60	63559.59
514.77	63812.37
514.95	63938.75
515.12	63824.07
515.29	63957.48
515.47	64528.57
515.64	64774.33
515.81	64427.93
515.99	63728.11
516.16	62546.14
516.33	60299.22
516.51	59370.03
516.68	58927.67
516.85	58326.15
517.03	58969.80
517.20	61134.79
517.37	63084.46
517.54	64048.76
517.72	63440.22
517.89	61352.46
518.06	59374.71
518.24	59945.80
518.41	61591.20
518.58	62677.21
518.75	62969.77
518.93	62979.14
519.10	62848.06
519.27	63274.04
519.45	63587.67
519.62	64034.72
519.79	64484.10
519.96	64252.39
520.14	63875.56
520.31	63009.56
520.48	63168.72
520.65	63571.29
520.83	64544.95
521.00	64601.13
521.17	64217.28
521.34	64090.89
521.52	64357.71
521.69	64809.43
521.86	65233.07
522.03	64853.90
522.20	63578.31
522.38	62665.50
522.55	62976.79
522.72	63468.31
522.89	63407.45
523.07	63805.34
523.24	64186.85
523.41	64846.88
523.58	65172.22
523.75	65535.00
523.92	65432.02
524.10	65317.33
524.27	65186.26
524.44	64980.29
524.61	64996.68
524.78	64678.36
524.96	64807.09
525.13	64779.01
525.30	64886.67
525.47	65293.92
525.64	65268.18
525.81	64612.83
525.98	63395.75
526.16	62115.48
526.33	61525.66
526.50	61340.76
526.67	60996.70
526.84	61588.86
527.01	62433.79
527.18	63243.62
527.36	63990.25
527.53	64645.60
527.70	64771.99
527.87	64236.00
528.04	63999.61
528.21	64507.50
528.38	64924.12
528.55	65504.57
528.72	65535.00
528.89	65535.00
529.07	65535.00
529.24	65165.20
529.41	64456.01
529.58	64008.97
529.75	64128.34
529.92	64430.27
530.09	64865.61
530.26	65357.12
530.43	65535.00
530.60	65535.00
530.77	65535.00
530.94	65535.00
531.11	65467.12
531.28	65066.89
531.46	64858.59
531.63	65160.51
531.80	64952.21
531.97	64589.42
532.14	63966.84
532.31	63047.01
532.48	62564.86
532.65	62632.74
532.82	63386.39
532.99	64254.73
533.16	64643.26
533.33	65113.70
533.50	64884.33
533.67	64350.69
533.84	64079.19
534.01	64116.64
534.18	64240.68
534.35	64615.17
534.52	64252.39
534.69	64544.95
534.86	64764.96
535.03	65188.60
535.20	65467.12
535.37	65535.00
535.54	65535.00
535.71	65535.00
535.88	65219.03
536.05	64650.28
536.22	64362.39
536.38	64107.27
536.55	63800.66
536.72	63180.42
536.89	63238.93
537.06	64013.65
537.23	64643.26
537.40	64783.69
537.57	64860.93
537.74	64556.66
537.91	64584.74
538.08	64502.82
538.25	64605.81
538.42	64741.56
538.59	64633.89
538.75	63936.41
538.92	63884.92
539.09	63697.68
539.26	63735.13
539.43	63316.17
539.60	63674.27
539.77	63657.89
539.94	63604.06
540.11	62831.68
540.28	62405.70
540.44	62595.29
540.61	62794.23
540.78	62988.50
540.95	63355.96
541.12	63908.33
541.29	64037.06
541.46	64165.79
541.62	64126.00
541.79	64133.02
541.96	63508.10
542.13	63618.10
542.30	63831.09
542.47	63990.25
542.63	63856.84
542.80	63578.31
542.97	63707.04
543.14	63683.64
543.31	63781.94
543.48	64135.36
543.64	64804.75
543.81	65134.77
543.98	64762.62
544.15	64133.02
544.32	63756.19
544.48	63810.03
544.65	64334.31
544.82	64554.32
544.99	64175.15
545.16	63763.21
545.32	63604.06
545.49	64402.18
545.66	64650.28
545.83	64418.56
546.00	64008.97
546.16	63681.30
546.33	63678.96
546.50	63877.90
546.67	64355.37
546.83	63920.03
547.00	63852.15
547.17	63360.64
547.34	63039.99
547.50	62901.90
547.67	63138.29
547.84	63316.17
548.00	63657.89
548.17	64086.21
548.34	63882.58
548.51	63971.52
548.67	64011.31
548.84	63861.52
549.01	63992.59
549.18	63887.26
549.34	63952.80
549.51	63798.32
549.68	63540.86
549.84	63498.73
550.01	63412.13
550.18	63238.93
550.34	63334.90
550.51	63428.52
550.68	63475.33
550.84	63121.91
551.01	63203.83
551.18	63203.83
551.34	63391.07
551.51	63709.38
551.68	63964.50
551.84	63910.67
552.01	63732.79
552.18	63566.61
552.34	62953.39
552.51	62571.88
552.68	62724.02
552.84	63152.33
553.01	63269.36
553.18	63171.06
553.34	63255.32
553.51	63327.87
553.67	63716.40
553.84	63746.83
554.01	63702.36
554.17	63442.56
554.34	63416.82
554.51	63568.95
554.67	63845.13
554.84	63718.74
555.00	63515.12
555.17	63061.05
555.33	63210.85
555.50	63164.04
555.67	63311.49
555.83	63023.61
556.00	62927.64
556.16	62908.92
556.33	62461.88
556.50	62340.17
556.66	62597.63
556.83	62262.93
556.99	62204.42
557.16	62389.32
557.32	62630.40
557.49	62855.09
557.65	62775.51
557.82	62852.75
557.98	62628.05
558.15	62120.16
558.32	61638.01
558.48	60889.04
558.65	61041.17
558.81	61600.56
558.98	61598.22
559.14	61965.68
559.31	61874.40
559.47	61822.91
559.64	61567.79
559.80	61446.08
559.97	61537.36
560.13	61609.92
560.30	62445.49
560.46	63047.01
560.63	63103.18
560.79	63178.08
560.96	62787.21
561.12	61914.19
561.29	61076.28
561.45	61190.97
561.61	61677.80
561.78	62115.48
561.94	61839.29
562.11	61755.03
562.27	61766.74
562.44	61984.41
562.60	62450.17
562.77	62506.35
562.93	62323.78
563.10	62468.90
563.26	61804.19
563.42	62014.83
563.59	61638.01
563.75	61724.61
563.92	61722.27
564.08	61762.06
564.24	62035.90
564.41	61883.76
564.57	61893.13
564.74	61710.56
564.90	61684.82
565.07	61467.15
565.23	61272.88
565.39	60659.66
565.56	60537.96
565.72	60434.97
565.88	60774.35
566.05	60629.24
566.21	60893.72
566.38	61139.47
566.54	61097.34
566.70	61558.43
566.87	61666.09
567.03	61689.50
567.19	61759.72
567.36	61560.77
567.52	61532.68
567.68	61221.39
567.85	60720.52
568.01	60516.89
568.17	60212.62
568.34	60158.79
568.50	60079.21
568.66	60306.24
568.83	60727.54
568.99	60608.17
569.15	60722.86
569.32	60814.14
569.48	60540.30
569.64	60626.90
569.81	60058.15
569.97	59938.78
570.13	60027.72
570.30	59461.31
570.46	59077.46
570.62	58915.96
570.78	59023.63
570.95	59154.70
571.11	59576.00
571.27	59746.86
571.43	59969.21
571.60	60364.76
571.76	60434.97
571.92	60669.03
572.09	60727.54
572.25	60669.03
572.41	60657.32
572.57	60456.04
572.74	60406.89
572.90	60144.75
573.06	60034.74
573.22	60278.16
573.38	60254.75
573.55	60327.31
573.71	60425.61
573.87	60367.10
574.03	60229.01
574.20	59952.82
574.36	59847.50
574.52	59749.20
574.68	59454.29
574.84	59124.27
575.01	58759.15
575.17	58958.09
575.33	59180.45
575.49	59281.09
575.65	59639.19
575.82	59494.08
575.98	58953.41
576.14	59227.26
576.30	59435.56
576.46	59753.88
576.62	59538.55
576.79	59503.44
576.95	59278.75
577.11	59344.28
577.27	59274.07
577.43	59360.67
577.59	58796.60
577.75	58731.06
577.92	57968.05
578.08	57935.28
578.24	58024.22
578.40	58319.13
578.56	58459.56
578.72	58424.45
578.88	58724.04
579.04	58714.68
579.21	58974.48
579.37	58827.02
579.53	59018.95
579.69	58955.75
579.85	59250.66
580.01	58918.31
580.17	58576.59
580.33	58403.39
580.49	58717.02
580.65	58986.18
580.82	59194.49
580.98	58904.26
581.14	58845.75
581.30	58876.18
581.46	58562.54
581.62	58920.65
581.78	58885.54
581.94	59112.57
582.10	58953.41
582.26	59325.56
582.42	59178.10
582.58	59175.76
582.74	59131.29
582.90	59138.32
583.06	58974.48
583.22	58951.07
583.38	59040.01
583.54	58981.50
583.70	58820.00
583.86	58693.61
584.02	58796.60
584.18	58848.09
584.34	58724.04
584.50	58543.82
584.66	58562.54
584.82	58122.52
584.98	58328.49
585.14	57818.25
