SpectraSuite Data File
++++++++++++++++++++++++++++++++++++
Date: Mon Oct 07 14:53:59 GMT-05:00 2013
User: price-jones
Dark Spectrum Present: No
Reference Spectrum Present: No
Number of Sampled Component Spectra: 1
Spectrometers: USB2+H05261
Integration Time (usec): 100000 (USB2+H05261)
Spectra Averaged: 1 (USB2+H05261)
Boxcar Smoothing: 0 (USB2+H05261)
Correct for Electrical Dark: No (USB2+H05261)
Strobe/Lamp Enabled: No (USB2+H05261)
Correct for Detector Non-linearity: No (USB2+H05261)
Correct for Stray Light: No (USB2+H05261)
Number of Pixels in Processed Spectrum: 2048
>>>>>Begin Processed Spectral Data<<<<<
365.73	0.00
365.92	0.00
366.12	0.00
366.32	0.00
366.52	0.00
366.72	0.00
366.91	0.00
367.11	0.00
367.31	0.00
367.51	0.00
367.70	0.00
367.90	0.00
368.10	0.00
368.30	0.00
368.49	0.00
368.69	0.00
368.89	0.00
369.09	0.00
369.28	0.00
369.48	0.00
369.68	0.00
369.87	0.00
370.07	0.00
370.27	0.00
370.47	730.25
370.66	3471.01
370.86	4011.68
371.06	4367.44
371.25	4393.19
371.45	3953.16
371.65	3730.81
371.84	3365.69
372.04	3510.80
372.24	4170.83
372.44	4250.41
372.63	4168.49
372.83	3850.18
373.03	3229.94
373.22	3082.49
373.42	3253.34
373.62	3754.22
373.81	4021.04
374.01	4189.56
374.21	3803.37
374.40	3318.88
374.60	3536.55
374.79	3988.27
374.99	4716.18
375.19	4947.89
375.38	5109.39
375.58	4760.65
375.78	4540.64
375.97	4589.79
376.17	4917.47
376.37	4830.87
376.56	5076.62
376.76	5320.04
376.95	5593.88
377.15	5991.77
377.35	6221.14
377.54	6340.51
377.74	6670.53
377.93	6846.07
378.13	6471.58
378.33	6106.46
378.52	5696.86
378.72	5441.75
378.91	5444.09
379.11	5146.84
379.31	5081.30
379.50	4968.96
379.70	5383.23
379.89	6115.82
380.09	6429.45
380.28	6483.28
380.48	6457.54
380.68	6434.13
380.87	6291.36
381.07	5813.89
381.26	5413.66
381.46	5142.16
381.65	4971.30
381.85	4613.20
382.04	4435.32
382.24	4297.22
382.43	3988.27
382.63	3964.87
382.83	3932.10
383.02	3885.29
383.22	3932.10
383.41	4084.23
383.61	4262.12
383.80	4819.16
384.00	5528.35
384.19	6111.14
384.39	6558.18
384.58	6448.18
384.78	6284.34
384.97	6326.47
385.17	5846.66
385.36	5586.86
385.56	5483.88
385.75	5549.41
385.95	5980.07
386.14	6738.40
386.34	6555.84
386.53	6176.67
386.72	6111.14
386.92	5951.98
387.11	6389.66
387.31	6696.27
387.50	6658.82
387.70	6218.80
387.89	6087.73
388.09	6342.85
388.28	6452.86
388.48	6490.31
388.67	6949.05
388.86	7644.19
389.06	8119.32
389.25	8547.64
389.45	8615.51
389.64	8662.32
389.84	8454.02
390.03	8454.02
390.22	8428.27
390.42	8800.41
390.61	9256.82
390.81	9727.27
391.00	10076.01
391.19	9635.99
391.39	9584.49
391.58	8936.17
391.78	8601.47
391.97	8367.42
392.16	7599.72
392.36	7082.46
392.55	5713.25
392.75	4329.99
392.94	3569.32
393.13	3571.66
393.33	4189.56
393.52	5320.04
393.71	6623.72
393.91	7531.84
394.10	7985.91
394.29	8929.14
394.49	9603.22
394.68	10431.77
394.88	10434.11
395.07	10883.49
395.26	10693.91
395.46	10555.82
395.65	9788.12
395.84	8491.46
396.04	7138.63
396.23	6008.16
396.42	4924.49
396.62	4730.22
396.81	5404.30
397.00	6927.99
397.19	8793.39
397.39	10399.00
397.58	11934.39
397.77	12484.42
397.97	13039.12
398.16	13142.11
398.35	13467.44
398.55	14019.81
398.74	14518.34
398.93	14897.51
399.12	14544.09
399.32	14200.03
399.51	14413.02
399.70	15255.61
399.90	15126.88
400.09	15283.70
400.28	14892.83
400.47	15096.46
400.67	15899.26
400.86	16280.77
401.05	15969.48
401.24	16650.57
401.44	16512.48
401.63	16636.53
401.82	16798.02
402.01	16886.97
402.21	16737.17
402.40	16964.20
402.59	16542.91
402.78	15756.49
402.97	15335.19
403.17	15784.57
403.36	16847.18
403.55	17476.78
403.74	17802.11
403.93	16964.20
404.13	15639.46
404.32	15346.89
404.51	16079.48
404.70	17542.32
404.89	17202.94
405.09	17020.38
405.28	16678.66
405.47	16397.79
405.66	16320.56
405.85	16187.14
406.05	15639.46
406.24	15742.44
406.43	16248.00
406.62	17156.13
406.81	16879.94
407.00	16634.19
407.20	16402.47
407.39	16201.19
407.58	16973.56
407.77	18003.40
407.96	18223.41
408.15	18394.27
408.34	18471.51
408.54	19353.89
408.73	19578.58
408.92	19538.79
409.11	18782.80
409.30	17631.26
409.49	16957.18
409.68	15791.59
409.87	15232.21
410.07	16168.42
410.26	17401.88
410.45	18485.55
410.64	18869.40
410.83	19454.53
411.02	20063.07
411.21	20624.80
411.40	20360.32
411.59	20465.64
411.78	20507.77
411.98	19817.32
412.17	20493.73
412.36	20070.09
412.55	20137.97
412.74	19857.10
412.93	19555.18
413.12	19782.21
413.31	21528.25
413.50	21593.78
413.69	21844.22
413.88	21135.04
414.07	20290.10
414.26	20727.78
414.45	21177.17
414.64	21376.11
414.83	21509.52
415.02	21120.99
415.22	21048.44
415.41	21696.77
415.60	22345.09
415.79	23166.62
415.98	23594.94
416.17	23709.63
416.36	23026.19
416.55	22375.52
416.74	21937.84
416.93	21193.55
417.12	21455.69
417.31	21666.34
417.50	21965.93
417.69	22597.87
417.88	22857.67
418.07	22403.61
418.26	22054.87
418.45	22164.87
418.64	22857.67
418.83	23513.02
419.02	23515.36
419.21	23330.46
419.39	22122.74
419.58	21310.58
419.77	21041.42
419.96	22270.20
420.15	23171.30
420.34	23953.04
420.53	24931.39
420.72	25429.92
420.91	25029.69
421.10	24950.11
421.29	24350.93
421.48	23655.79
421.67	24884.58
421.86	23934.32
422.05	22771.07
422.24	20357.98
422.43	19997.54
422.61	22073.59
422.80	24107.52
422.99	24144.97
423.18	23157.26
423.37	22757.03
423.56	22733.62
423.75	23197.05
423.94	23431.10
424.13	22260.84
424.32	22581.49
424.50	22593.19
424.69	22015.08
424.88	22726.60
425.07	22375.52
425.26	22431.69
425.45	22270.20
425.64	21720.17
425.83	21546.97
426.01	23276.63
426.20	23541.11
426.39	23222.80
426.58	21706.13
426.77	19990.52
426.96	19339.85
427.15	19822.00
427.33	21593.78
427.52	22822.56
427.71	22347.44
427.90	21989.33
428.09	22228.07
428.28	21914.44
428.46	20994.61
428.65	20725.44
428.84	21319.94
429.03	21605.49
429.22	20470.33
429.40	19335.17
429.59	17692.11
429.78	15414.77
429.97	15410.09
430.16	15758.83
430.34	15990.54
430.53	16130.97
430.72	15983.52
430.91	17687.43
431.10	20947.79
431.28	24872.87
431.47	26429.33
431.66	26836.58
431.85	24622.44
432.03	22588.51
432.22	21153.76
432.41	22499.57
432.60	24765.21
432.79	25830.15
432.97	26534.65
433.16	25907.39
433.35	23758.78
433.54	21172.49
433.72	20067.75
433.91	20720.76
434.10	23084.70
434.28	24926.71
434.47	25961.22
434.66	25701.42
434.85	24746.48
435.03	24631.80
435.22	25270.76
435.41	26874.03
435.59	26948.93
435.78	27211.07
435.97	27634.71
436.16	28254.95
436.34	27831.31
436.53	27080.00
436.72	27307.03
436.90	25703.76
437.09	25722.49
437.28	25032.03
437.46	26176.55
437.65	25916.75
437.84	24538.18
438.02	22244.45
438.21	22120.40
438.40	23435.78
438.58	25268.42
438.77	26424.65
438.96	26221.02
439.14	27115.11
439.33	28002.17
439.52	28664.54
439.70	27810.25
439.89	27260.22
440.08	26265.49
440.26	26288.90
440.45	27271.92
440.63	28917.32
440.82	30419.94
441.01	30223.34
441.19	29921.41
441.38	30190.57
441.57	31360.84
441.75	31756.39
441.94	31814.90
442.12	31307.01
442.31	32470.25
442.50	32217.47
442.68	31424.03
442.87	31236.79
443.05	30747.62
443.24	31466.16
443.43	31936.61
443.61	32687.92
443.80	32884.53
443.98	31339.77
444.17	31194.66
444.35	32919.63
444.54	33738.82
444.73	32809.63
444.91	32224.50
445.10	30480.80
445.28	29378.40
445.47	28912.64
445.65	28996.90
445.84	30110.99
446.02	30991.03
446.21	31108.06
446.39	31566.81
446.58	32095.77
446.77	32320.46
446.95	32627.07
447.14	33476.68
447.32	33998.62
447.51	33347.95
447.69	31721.28
447.88	31477.86
448.06	32032.57
448.25	32037.25
448.43	33017.94
448.62	32432.80
448.80	32236.20
448.99	32187.05
449.17	32828.35
449.36	32943.04
449.54	33860.53
449.73	33937.77
449.91	34909.09
450.10	36268.94
450.28	36210.43
450.46	36290.01
450.65	36016.16
450.83	35552.74
451.02	34628.23
451.20	34836.53
451.39	34717.17
451.57	34555.67
451.76	34216.29
451.94	33947.13
452.13	33757.55
452.31	32063.00
452.49	30436.33
452.68	31061.25
452.86	31101.04
453.05	31381.90
453.23	32283.01
453.42	32973.47
453.60	34136.71
453.78	34391.83
453.97	33802.02
454.15	33745.84
454.34	33219.22
454.52	33467.32
454.70	32472.59
454.89	33146.67
455.07	33453.28
455.26	33329.23
455.44	34916.11
455.62	35929.56
455.81	35742.32
455.99	35580.82
456.17	34995.69
456.36	34843.56
456.54	36046.59
456.73	36037.23
456.91	36477.25
457.09	36825.99
457.28	37509.43
457.46	35875.73
457.64	35424.01
457.83	35037.82
458.01	33881.60
458.19	34614.18
458.38	34944.20
458.56	36027.87
458.74	35800.83
458.93	35627.63
459.11	35599.55
459.29	35012.07
459.48	35213.36
459.66	34586.10
459.84	35435.71
460.03	35810.20
460.21	35269.53
460.39	37071.75
460.57	36477.25
460.76	37376.01
460.94	37404.10
461.12	36786.20
461.31	36690.24
461.49	36622.36
461.67	36385.97
461.85	38050.09
462.04	37750.50
462.22	37977.53
462.40	37537.51
462.59	37294.10
462.77	37792.63
462.95	37324.52
463.13	37144.30
463.32	36933.65
463.50	36329.80
463.68	36617.68
463.86	36940.68
464.05	35992.76
464.23	35681.47
464.41	35260.17
464.59	34899.73
464.78	36350.86
464.96	36320.43
465.14	35489.54
465.32	36510.02
465.50	37766.88
465.69	37699.01
465.87	37233.24
466.05	36098.08
466.23	34675.04
466.41	34101.61
466.60	34876.32
466.78	34951.22
466.96	35377.20
467.14	36058.29
467.32	36456.18
467.51	36566.19
467.69	34670.36
467.87	35576.14
468.05	35887.43
468.23	36072.34
468.41	36329.80
468.60	36287.67
468.78	36268.94
468.96	35929.56
469.14	37092.81
469.32	36697.26
469.50	35311.66
469.69	35784.45
469.87	35253.15
470.05	34789.72
470.23	35185.27
470.41	35349.11
470.59	35538.69
470.77	35503.59
470.95	36723.01
471.14	37010.89
471.32	36924.29
471.50	38686.71
471.68	39058.86
471.86	39093.97
472.04	39653.36
472.22	40004.44
472.40	38057.11
472.58	37535.17
472.77	36797.90
472.95	37600.71
473.13	38754.59
473.31	37916.68
473.49	38117.96
473.67	38518.20
473.85	39206.31
474.03	39669.74
474.21	39690.80
474.39	40236.15
474.57	40479.57
474.75	40311.05
474.93	40142.53
475.12	39206.31
475.30	39276.53
475.48	39651.02
475.66	39908.47
475.84	39714.21
476.02	39519.95
476.20	38820.13
476.38	39634.63
476.56	40479.57
476.74	41504.72
476.92	41015.55
477.10	41720.05
477.28	42920.74
477.46	42784.99
477.64	43372.47
477.82	43093.94
478.00	43466.09
478.18	43225.01
478.36	43000.32
478.54	42602.43
478.72	42925.42
478.90	44301.66
479.08	45069.36
479.26	45954.08
479.44	45570.23
479.62	45195.74
479.80	45446.18
479.98	45352.56
480.16	45935.35
480.34	45429.80
480.52	45364.26
480.70	46169.41
480.88	46010.25
481.06	46326.22
481.24	46958.17
481.41	47936.51
481.59	48357.81
481.77	48516.96
481.95	47356.06
482.13	47103.28
482.31	47456.70
482.49	47976.30
482.67	47540.96
482.85	48013.75
483.03	48598.88
483.21	49045.93
483.39	49392.33
483.57	48460.79
483.74	48025.45
483.92	48224.40
484.10	48683.14
484.28	49352.54
484.46	50024.27
484.64	50265.34
484.82	49528.08
485.00	49130.19
485.18	48149.50
485.35	47021.36
485.53	44098.03
485.71	40182.32
485.89	39494.20
486.07	41624.09
486.25	44823.60
486.43	47194.56
486.61	48236.10
486.78	47927.15
486.96	47936.51
487.14	49745.75
487.32	50380.03
487.50	51248.37
487.68	52264.16
487.85	52671.42
488.03	52718.23
488.21	52378.85
488.39	51526.89
488.57	51220.28
488.75	50560.25
488.92	51379.44
489.10	53626.35
489.28	54546.18
489.46	55508.14
489.64	55400.48
489.81	55604.11
489.99	55082.17
490.17	55089.19
490.35	55423.89
490.53	54829.39
490.70	54644.49
490.88	54663.21
491.06	55491.76
491.24	55650.92
491.41	54616.40
491.59	53013.13
491.77	52163.52
491.95	53380.60
492.13	54274.68
492.30	55611.13
492.48	56556.70
492.66	56868.00
492.84	56776.72
493.01	56381.16
493.19	56100.30
493.37	55796.03
493.54	55332.60
493.72	56060.51
493.90	56954.60
494.08	57731.65
494.25	57951.66
494.43	58080.39
494.61	58358.92
494.79	58489.99
494.96	58506.37
495.14	57717.61
495.32	57045.88
495.49	56292.22
495.67	57153.54
495.85	58693.61
496.02	58827.02
496.20	58728.72
496.38	58204.44
496.55	58260.62
496.73	58611.70
496.91	58782.55
497.09	59332.58
497.26	59421.52
497.44	58899.58
497.62	58487.65
497.79	57654.42
497.97	56615.22
498.14	56748.63
498.32	57733.99
498.50	58569.57
498.67	59110.23
498.85	58927.67
499.03	59131.29
499.20	59496.42
499.38	59473.01
499.56	59313.86
499.73	58604.67
499.91	58436.16
500.08	57939.96
500.26	57408.66
500.44	57975.07
500.61	58269.98
500.79	58269.98
500.97	57764.42
501.14	57832.30
501.32	57640.37
501.49	57584.20
501.67	57841.66
501.84	58178.70
502.02	58520.41
502.20	58862.13
502.37	59096.19
502.55	58890.22
502.72	59524.50
502.90	59786.64
503.07	59763.24
503.25	59220.23
503.43	58539.14
503.60	57677.82
503.78	57188.65
503.95	57443.77
504.13	58855.11
504.30	59814.73
504.48	59561.95
504.65	59325.56
504.83	59341.94
505.01	59770.26
505.18	59976.23
505.36	60757.97
505.53	60563.70
505.71	60949.89
505.88	60874.99
506.06	60420.93
506.23	60140.07
506.41	59674.30
506.58	59880.27
506.76	59908.35
506.93	59718.77
507.11	59512.80
507.28	59927.08
507.46	59255.34
507.63	58581.27
507.81	58518.07
507.98	58798.94
508.16	59477.69
508.33	59910.69
508.50	60126.02
508.68	60573.06
508.85	61146.50
509.03	61001.38
509.20	60942.87
509.38	60088.57
509.55	59374.71
509.73	59437.90
509.90	60081.55
510.08	60346.03
510.25	60128.36
510.42	60196.24
510.60	59992.61
510.77	60196.24
510.95	60800.10
511.12	60767.33
511.30	61095.00
511.47	61361.82
511.64	61357.14
511.82	60963.93
511.99	60236.03
512.17	59870.90
512.34	59449.61
512.51	59641.53
512.69	59721.11
512.86	59983.25
513.04	60165.81
513.21	60348.37
513.38	59980.91
513.56	59470.67
513.73	58901.92
513.90	58979.16
514.08	59229.60
514.25	59576.00
514.43	59695.36
514.60	59765.58
514.77	59891.97
514.95	59765.58
515.12	59594.72
515.29	60083.89
515.47	60596.47
515.64	60874.99
515.81	60135.38
515.99	59716.43
516.16	58377.64
516.33	56252.44
516.51	54820.03
516.68	54429.16
516.85	53736.36
517.03	54138.93
517.20	56694.80
517.37	58855.11
517.54	60020.70
517.72	59620.47
517.89	57022.47
518.06	54894.92
518.24	55011.95
518.41	57172.27
518.58	58518.07
518.75	58906.60
518.93	58864.47
519.10	58864.47
519.27	59255.34
519.45	59522.16
519.62	60088.57
519.79	60519.23
519.96	60313.26
520.14	59847.50
520.31	58918.31
520.48	58843.41
520.65	59171.08
520.83	60308.58
521.00	60584.77
521.17	60200.92
521.34	59980.91
521.52	60275.82
521.69	60687.75
521.86	61106.71
522.03	60772.01
522.20	59653.23
522.38	58766.17
522.55	58672.55
522.72	59185.13
522.89	59391.09
523.07	59664.94
523.24	59821.75
523.41	60575.40
523.58	60779.03
523.75	61354.80
523.92	61020.11
524.10	61190.97
524.27	61228.41
524.44	60851.59
524.61	60603.49
524.78	60779.03
524.96	60479.44
525.13	60671.37
525.30	60671.37
525.47	61207.35
525.64	61183.94
525.81	60334.33
525.98	59068.10
526.16	57705.91
526.33	57193.33
526.50	56718.20
526.67	56444.36
526.84	57013.11
527.01	58078.05
527.18	58599.99
527.36	59643.87
527.53	60179.85
527.70	60474.76
527.87	60259.43
528.04	60032.40
528.21	60161.13
528.38	60807.12
528.55	61406.30
528.72	61619.28
528.89	61591.20
529.07	61298.63
529.24	60842.23
529.41	60264.11
529.58	59412.16
529.75	59702.38
529.92	60200.92
530.09	60519.23
530.26	61064.58
530.43	61228.41
530.60	61125.43
530.77	61366.51
530.94	61645.03
531.11	61109.05
531.28	60563.70
531.46	60437.31
531.63	60884.36
531.80	60526.25
531.97	60245.39
532.14	59557.27
532.31	58604.67
532.48	58136.57
532.65	58033.58
532.82	58791.92
532.99	59655.57
533.16	60177.51
533.33	60753.29
533.50	60441.99
533.67	59819.41
533.84	59473.01
534.01	59819.41
534.18	59798.35
534.35	60170.49
534.52	60165.81
534.69	60315.61
534.86	60392.84
535.03	60729.88
535.20	61197.99
535.37	61403.95
535.54	61322.04
535.71	61172.24
535.88	60910.10
536.05	60331.99
536.22	59840.48
536.38	59718.77
536.55	59306.83
536.72	58595.31
536.89	58504.03
537.06	59379.39
537.23	60144.75
537.40	60238.37
537.57	60357.74
537.74	60055.81
537.91	60097.94
538.08	60034.74
538.25	60168.15
538.42	60259.43
538.59	60027.72
538.75	59480.03
538.92	59447.27
539.09	59278.75
539.26	59011.93
539.43	58857.45
539.60	58686.59
539.77	58824.68
539.94	59002.56
540.11	58089.76
540.28	57755.06
540.44	57979.75
540.61	57961.03
540.78	58223.17
540.95	58583.61
541.12	59133.63
541.29	59363.01
541.46	59449.61
541.62	59587.70
541.79	59423.86
541.96	58670.21
542.13	59016.61
542.30	59285.77
542.47	59217.89
542.63	58922.99
542.80	58684.25
542.97	59133.63
543.14	58876.18
543.31	58986.18
543.48	59451.95
543.64	60303.90
543.81	60481.78
543.98	60308.58
544.15	59611.10
544.32	58878.52
544.48	59086.82
544.65	59358.33
544.82	59725.79
544.99	59587.70
545.16	59096.19
545.32	58831.71
545.49	59641.53
545.66	60046.44
545.83	59636.85
546.00	59236.62
546.16	58983.84
546.33	59215.55
546.50	59159.38
546.67	59407.48
546.83	59072.78
547.00	59187.47
547.17	58293.38
547.34	57979.75
547.50	57836.98
547.67	58312.11
547.84	58382.32
548.00	58747.45
548.17	59192.15
548.34	58988.52
548.51	58995.54
548.67	59070.44
548.84	59224.92
549.01	59068.10
549.18	59014.27
549.34	59058.74
549.51	59002.56
549.68	58691.27
549.84	58756.81
550.01	58714.68
550.18	58468.92
550.34	58585.95
550.51	58782.55
550.68	58604.67
550.84	58211.46
551.01	58295.72
551.18	58159.97
551.34	58269.98
551.51	58784.90
551.68	59107.89
551.84	59047.04
552.01	58873.84
552.18	58679.57
552.34	58019.54
552.51	57579.52
552.68	57492.92
552.84	58005.50
553.01	58274.66
553.18	58031.24
553.34	58239.55
553.51	58248.91
553.67	58740.42
553.84	58822.34
554.01	58656.17
554.17	58192.74
554.34	58681.91
554.51	58700.64
554.67	58892.56
554.84	58639.78
555.00	58293.38
555.17	58260.62
555.33	58237.21
555.50	58066.35
555.67	58197.42
555.83	58092.10
556.00	57698.89
556.16	57769.10
556.33	57289.29
556.50	57195.67
556.66	57265.89
556.83	56865.66
556.99	57162.90
557.16	57242.48
557.32	57537.39
557.49	57481.22
557.65	57661.44
557.82	57488.24
557.98	57422.70
558.15	57155.88
558.32	56296.91
558.48	55442.61
558.65	55805.39
558.81	56100.30
558.98	56086.26
559.14	56526.28
559.31	56416.27
559.47	56554.36
559.64	56168.18
559.80	55856.88
559.97	56090.94
560.13	56427.98
560.30	57144.18
560.46	57715.27
560.63	57834.64
560.79	57975.07
560.96	57509.30
561.12	56409.25
561.29	55730.50
561.45	55798.37
561.61	56528.62
561.78	56533.30
561.94	56376.48
562.11	56409.25
562.27	56088.60
562.44	56498.19
562.60	56765.01
562.77	57324.40
562.93	56978.00
563.10	56907.79
563.26	56182.22
563.42	56362.44
563.59	56193.92
563.75	56158.81
563.92	56004.34
564.08	56062.85
564.24	56413.93
564.41	56535.64
564.57	56451.38
564.74	56114.34
564.90	56048.81
565.07	56156.47
565.23	55440.27
565.39	54986.21
565.56	54740.45
565.72	54590.66
565.88	54836.41
566.05	54857.48
566.21	55068.12
566.38	55288.13
566.54	55440.27
566.70	55845.18
566.87	56163.50
567.03	56051.15
567.19	56163.50
567.36	56165.84
567.52	55693.05
567.68	55643.90
567.85	54918.33
568.01	54396.39
568.17	54354.26
568.34	54396.39
568.50	54272.34
568.66	54593.00
568.83	54452.56
568.99	54728.75
569.15	54962.80
569.32	54899.61
569.48	54452.56
569.64	54585.97
569.81	54239.57
569.97	54178.72
570.13	54295.75
570.30	53567.84
570.46	53146.54
570.62	52538.01
570.78	52481.83
570.95	52748.65
571.11	53701.25
571.27	53724.66
571.43	54052.33
571.60	54466.61
571.76	54340.22
571.92	54876.20
572.09	54822.37
572.25	54887.90
572.41	54609.38
572.57	54333.20
572.74	54349.58
572.90	54204.47
573.06	54092.12
573.22	54251.28
573.38	54127.23
573.55	54209.15
573.71	54349.58
573.87	54239.57
574.03	53904.88
574.20	53956.37
574.36	53631.04
574.52	53542.10
574.68	53577.20
574.84	53317.40
575.01	52163.52
575.17	52463.11
575.33	52746.31
575.49	52748.65
575.65	53209.74
575.82	52975.69
575.98	52535.66
576.14	53099.73
576.30	53050.58
576.46	53310.38
576.62	53036.54
576.79	53083.35
576.95	52987.39
577.11	52633.97
577.27	52664.39
577.43	53155.91
577.59	52851.64
577.75	52217.35
577.92	51622.86
578.08	51531.57
578.24	51313.90
578.40	51700.09
578.56	51976.28
578.72	52006.70
578.88	52320.34
579.04	52238.42
579.21	52317.99
579.37	52673.76
579.53	52769.72
579.69	52402.25
579.85	52956.96
580.01	52428.00
580.17	52002.02
580.33	51913.08
580.49	52315.65
580.65	52224.37
580.82	52470.13
580.98	52617.58
581.14	52226.71
581.30	52341.40
581.46	52020.75
581.62	52699.50
581.78	52655.03
581.94	52584.82
582.10	52818.87
582.26	52872.70
582.42	52636.31
582.58	52706.52
582.74	52189.27
582.90	52369.49
583.06	52437.36
583.22	52161.18
583.38	52123.73
583.54	52364.81
583.70	52268.84
583.86	52006.70
584.02	51978.62
584.18	51838.18
584.34	52121.39
584.50	52128.41
584.66	51973.94
584.82	51606.47
584.98	51435.61
585.14	51269.43
