SpectraSuite Data File
++++++++++++++++++++++++++++++++++++
Date: Mon Oct 07 14:52:55 GMT-05:00 2013
User: price-jones
Dark Spectrum Present: No
Reference Spectrum Present: No
Number of Sampled Component Spectra: 1
Spectrometers: USB2+H05261
Integration Time (usec): 100000 (USB2+H05261)
Spectra Averaged: 1 (USB2+H05261)
Boxcar Smoothing: 0 (USB2+H05261)
Correct for Electrical Dark: No (USB2+H05261)
Strobe/Lamp Enabled: No (USB2+H05261)
Correct for Detector Non-linearity: No (USB2+H05261)
Correct for Stray Light: No (USB2+H05261)
Number of Pixels in Processed Spectrum: 2048
>>>>>Begin Processed Spectral Data<<<<<
365.73	0.00
365.92	0.00
366.12	0.00
366.32	0.00
366.52	0.00
366.72	0.00
366.91	0.00
367.11	0.00
367.31	0.00
367.51	0.00
367.70	0.00
367.90	0.00
368.10	0.00
368.30	0.00
368.49	0.00
368.69	0.00
368.89	0.00
369.09	0.00
369.28	0.00
369.48	0.00
369.68	0.00
369.87	0.00
370.07	0.00
370.27	0.00
370.47	393.21
370.66	2499.69
370.86	2892.90
371.06	3150.36
371.25	3155.04
371.45	2918.65
371.65	2600.34
371.84	2445.86
372.04	2532.46
372.24	2839.07
372.44	2925.67
372.63	2956.10
372.83	2588.63
373.03	2431.82
373.22	2307.77
373.42	2356.92
373.62	2745.45
373.81	3002.91
374.01	2958.44
374.21	2726.72
374.40	2389.69
374.60	2672.89
374.79	2974.82
374.99	3339.94
375.19	3506.12
375.38	3520.17
375.58	3337.60
375.78	3276.75
375.97	3398.46
376.17	3571.66
376.37	3541.23
376.56	3627.83
376.76	3775.28
376.95	4016.36
377.15	4428.29
377.35	4531.28
377.54	4603.83
377.74	4762.99
377.93	4961.94
378.13	4788.74
378.33	4547.66
378.52	4117.00
378.72	3941.46
378.91	4065.51
379.11	3648.90
379.31	3723.79
379.50	3705.07
379.70	4063.17
379.89	4475.10
380.09	4786.40
380.28	4723.20
380.48	4868.31
380.68	4781.71
380.87	4545.32
381.07	4093.60
381.26	3864.22
381.46	3653.58
381.65	3606.77
381.85	3482.72
382.04	3314.20
382.24	3021.63
382.43	2979.50
382.63	2806.30
382.83	2970.14
383.02	2965.46
383.22	2839.07
383.41	2949.08
383.61	3150.36
383.80	3559.95
384.00	3981.25
384.19	4465.74
384.39	4870.65
384.58	4856.61
384.78	4580.43
384.97	4620.22
385.17	4381.48
385.36	4159.13
385.56	3985.93
385.75	4074.87
385.95	4596.81
386.14	5053.22
386.34	4774.69
386.53	4601.49
386.72	4505.53
386.92	4430.63
387.11	4774.69
387.31	4762.99
387.50	4833.21
387.70	4650.64
387.89	4699.80
388.09	4695.11
388.28	4723.20
388.48	4671.71
388.67	5139.82
388.86	5551.75
389.06	6122.84
389.25	6389.66
389.45	6401.37
389.64	6314.77
389.84	6267.95
390.03	6054.97
390.22	6188.38
390.42	6328.81
390.61	6803.94
390.81	7321.20
391.00	7438.22
391.19	7307.15
391.39	7075.44
391.58	6860.11
391.78	6289.02
391.97	5961.34
392.16	5673.46
392.36	5291.95
392.55	4086.58
392.75	3162.06
392.94	2703.32
393.13	2768.85
393.33	3236.96
393.52	4121.68
393.71	5151.52
393.91	5717.93
394.10	6197.74
394.29	6715.00
394.49	7169.06
394.68	7932.08
394.88	7796.32
395.07	8060.80
395.26	8002.29
395.46	7573.97
395.65	7325.88
395.84	6347.53
396.04	5345.78
396.23	4491.49
396.42	3613.79
396.62	3482.72
396.81	4283.18
397.00	5430.04
397.19	6609.67
397.39	7868.88
397.58	9053.19
397.77	9277.88
397.97	9928.55
398.16	9994.09
398.35	10272.61
398.55	10537.09
398.74	10932.64
398.93	11194.78
399.12	11112.86
399.32	10700.93
399.51	10740.72
399.70	11665.23
399.90	11398.41
400.09	11339.90
400.28	11536.50
400.47	11461.60
400.67	12002.27
400.86	12556.97
401.05	12016.31
401.24	12395.48
401.44	12439.95
401.63	12587.40
401.82	12407.18
402.01	12655.28
402.21	12908.05
402.40	12807.41
402.59	12383.77
402.78	11899.28
402.97	11679.27
403.17	12028.01
403.36	12950.18
403.55	13282.54
403.74	13444.04
403.93	12833.16
404.13	11913.33
404.32	11730.76
404.51	12315.90
404.70	12858.90
404.89	12849.54
405.09	12788.69
405.28	12491.44
405.47	12393.14
405.66	12430.59
405.85	12273.77
406.05	11693.32
406.24	11932.05
406.43	12657.62
406.62	13224.03
406.81	13191.26
407.00	12435.27
407.20	12255.04
407.39	12568.68
407.58	13233.39
407.77	13469.78
407.96	14024.49
408.15	14190.67
408.34	14396.64
408.54	14710.27
408.73	14829.63
408.92	14736.01
409.11	14106.41
409.30	13570.43
409.49	12421.22
409.68	11953.12
409.87	11564.59
410.07	12315.90
410.26	13455.74
410.45	14143.86
410.64	14307.69
410.83	14869.42
411.02	15508.39
411.21	15744.78
411.40	15793.94
411.59	15852.45
411.78	15475.62
411.98	15424.13
412.17	15854.79
412.36	15466.26
412.55	15293.06
412.74	15073.05
412.93	14951.34
413.12	14829.63
413.31	16489.07
413.50	16568.65
413.69	16863.56
413.88	16039.69
414.07	15466.26
414.26	15950.75
414.45	16608.44
414.64	16629.51
414.83	16360.34
415.02	15957.77
415.22	15985.86
415.41	16650.57
415.60	17104.64
415.79	17626.57
415.98	18349.80
416.17	18141.49
416.36	17685.09
416.55	17699.13
416.74	16793.34
416.93	16617.80
417.12	16456.31
417.31	16697.38
417.50	16886.97
417.69	17355.07
417.88	17776.37
418.07	17273.15
418.26	17111.66
418.45	17261.45
418.64	17975.31
418.83	18422.36
419.02	18356.82
419.21	17958.93
419.39	17420.61
419.58	16327.58
419.77	16587.38
419.96	17088.25
420.15	18242.14
420.34	18864.72
420.53	19239.20
420.72	19716.67
420.91	19438.15
421.10	19260.27
421.29	19140.90
421.48	18700.88
421.67	19367.93
421.86	18675.13
422.05	17401.88
422.24	16058.42
422.43	15899.26
422.61	17158.47
422.80	18909.19
422.99	18801.52
423.18	18143.83
423.37	17558.70
423.56	17462.74
423.75	17893.40
423.94	18356.82
424.13	17376.14
424.32	17598.49
424.50	17802.11
424.69	17322.30
424.88	17649.98
425.07	17441.67
425.26	17593.81
425.45	17301.24
425.64	17020.38
425.83	17006.33
426.01	17963.61
426.20	18188.30
426.39	18398.95
426.58	17039.10
426.77	15740.10
426.96	15192.42
427.15	15817.34
427.33	17226.34
427.52	17895.74
427.71	17488.48
427.90	17226.34
428.09	17392.52
428.28	16807.39
428.46	16449.28
428.65	16086.50
428.84	16645.89
429.03	16903.35
429.22	15936.71
429.40	15112.84
429.59	13893.42
429.78	12037.38
429.97	12217.60
430.16	12489.10
430.34	12589.74
430.53	12517.18
430.72	12760.60
430.91	14143.86
431.10	16830.79
431.28	19714.33
431.47	21104.61
431.66	20952.48
431.85	19229.84
432.03	17909.78
432.22	17350.39
432.41	17961.27
432.60	19590.28
432.79	20503.09
432.97	21032.05
433.16	20570.97
433.35	18513.64
433.54	16636.53
433.72	15859.47
433.91	16163.74
434.10	18382.57
434.28	19527.09
434.47	20472.67
434.66	20112.22
434.85	19667.52
435.03	19782.21
435.22	20617.78
435.41	21408.88
435.59	21472.07
435.78	21373.77
435.97	22115.72
436.16	22314.67
436.34	21982.31
436.53	21408.88
436.72	21551.65
436.90	20388.41
437.09	20278.40
437.28	20091.16
437.46	21018.01
437.65	20666.93
437.84	19274.31
438.02	17649.98
438.21	17708.49
438.40	18707.90
438.58	20343.94
438.77	20861.19
438.96	21144.40
439.14	21694.43
439.33	22492.55
439.52	22937.25
439.70	22312.33
439.89	21891.03
440.08	20989.92
440.26	21186.53
440.45	21848.90
440.63	23243.86
440.82	24458.60
441.01	23983.47
441.19	23885.17
441.38	24437.53
441.57	25287.15
441.75	25673.34
441.94	25514.18
442.12	25317.57
442.31	26129.74
442.50	25853.56
442.68	25228.63
442.87	25357.36
443.05	24669.25
443.24	25188.85
443.43	25790.36
443.61	26197.62
443.80	26593.17
443.98	24910.32
444.17	25259.06
444.35	26452.73
444.54	27292.99
444.73	26611.89
444.91	25296.51
445.10	24592.01
445.28	23585.58
445.47	23049.60
445.65	23468.55
445.84	24280.72
446.02	25158.42
446.21	25268.42
446.39	24898.62
446.58	25668.66
446.77	25893.35
446.95	26148.46
447.14	27328.10
447.32	27651.09
447.51	26705.51
447.69	25757.60
447.88	25645.25
448.06	25708.44
448.25	26120.38
448.43	26838.92
448.62	26101.65
448.80	26129.74
448.99	26441.03
449.17	26721.90
449.36	26419.97
449.54	27835.99
449.73	28105.15
449.91	28252.61
450.10	29170.10
450.28	29472.03
450.46	29156.05
450.65	29221.59
450.83	28779.23
451.02	28500.70
451.20	28041.96
451.39	28201.11
451.57	28313.46
451.76	27882.80
451.94	27683.86
452.13	27035.53
452.31	26122.72
452.49	24926.71
452.68	25245.02
452.86	25614.82
453.05	25488.43
453.23	26499.55
453.42	27087.02
453.60	27805.56
453.78	27857.06
453.97	27625.34
454.15	27669.81
454.34	27005.10
454.52	27192.34
454.70	26349.75
454.89	26932.54
455.07	27026.17
455.26	27997.49
455.44	28339.21
455.62	29043.71
455.81	29392.45
455.99	29099.88
456.17	28577.94
456.36	28669.22
456.54	29359.68
456.73	29495.43
456.91	30274.83
457.09	30356.75
457.28	30916.14
457.46	29919.07
457.64	29420.53
457.83	28367.29
458.01	27744.71
458.19	28423.47
458.38	28980.51
458.56	29617.14
458.74	29736.51
458.93	29069.45
459.11	28954.77
459.29	28994.56
459.48	28833.06
459.66	28769.86
459.84	29247.33
460.03	29654.59
460.21	29479.05
460.39	30017.37
460.57	30143.76
460.76	30815.49
460.94	30726.55
461.12	30228.02
461.31	30663.36
461.49	30841.24
461.67	30122.69
461.85	31660.43
462.04	31101.04
462.22	31637.02
462.40	31150.19
462.59	31087.00
462.77	30944.22
462.95	31084.65
463.13	30855.28
463.32	30354.41
463.50	30345.05
463.68	30054.82
463.86	30380.15
464.05	30181.21
464.23	28893.91
464.41	29607.78
464.59	28318.14
464.78	30431.65
464.96	30195.25
465.14	29872.26
465.32	30457.39
465.50	31304.67
465.69	31749.37
465.87	30888.05
466.05	30082.91
466.23	28704.33
466.41	28163.67
466.60	29450.96
466.78	28903.28
466.96	29607.78
467.14	29818.42
467.32	30504.20
467.51	30218.66
467.69	28849.44
467.87	29764.59
468.05	30183.55
468.23	30026.73
468.41	30506.54
468.60	30228.02
468.78	30483.14
468.96	30134.40
469.14	30930.18
469.32	30522.93
469.50	29766.93
469.69	29795.02
469.87	29340.96
470.05	29347.98
470.23	29235.63
470.41	29333.93
470.59	30103.97
470.77	29996.31
470.95	30462.07
471.14	30927.84
471.32	30920.82
471.50	32755.80
471.68	32837.72
471.86	33151.35
472.04	33240.29
472.22	32868.14
472.40	31807.88
472.58	31791.50
472.77	31143.17
472.95	31569.15
473.13	32390.67
473.31	31679.15
473.49	31791.50
473.67	32788.56
473.85	32987.51
474.03	33757.55
474.21	33736.48
474.39	33848.83
474.57	34113.31
474.75	33897.98
474.93	33539.88
475.12	33017.94
475.30	33113.90
475.48	33357.32
475.66	33558.60
475.84	33322.21
476.02	32634.09
476.20	32306.41
476.38	33277.74
476.56	34462.05
476.74	35042.50
476.92	35182.93
477.10	35627.63
477.28	36273.62
477.46	36170.64
477.64	36950.04
477.82	36587.25
478.00	36900.89
478.18	36685.56
478.36	36538.10
478.54	36402.35
478.72	36683.22
478.90	37486.02
479.08	38829.49
479.26	39077.58
479.44	38843.53
479.62	38705.44
479.80	39005.03
479.98	39236.74
480.16	39007.37
480.34	38675.01
480.52	39615.91
480.70	39468.45
480.88	39538.67
481.06	40229.13
481.24	40638.72
481.41	41291.73
481.59	41979.85
481.77	41476.63
481.95	40739.36
482.13	41296.41
482.31	40854.05
482.49	41528.13
482.67	41420.46
482.85	41834.74
483.03	42410.51
483.21	43187.56
483.39	42522.85
483.57	41895.59
483.74	41965.81
483.92	41825.37
484.10	42274.76
484.28	43222.67
484.46	43728.23
484.64	43798.44
484.82	43210.97
485.00	42607.11
485.18	41720.05
485.35	40278.28
485.53	37048.34
485.71	33818.40
485.89	34096.92
486.07	35943.61
486.25	38707.78
486.43	40907.88
486.61	41254.28
486.78	41165.34
486.96	41425.14
487.14	43264.80
487.32	44343.79
487.50	45537.46
487.68	46234.94
487.85	46892.63
488.03	46995.62
488.21	46471.34
488.39	45586.61
488.57	44329.75
488.75	44615.29
488.92	46124.94
489.10	48430.36
489.28	49638.08
489.46	50597.70
489.64	50000.86
489.81	50403.44
489.99	50138.96
490.17	50422.16
490.35	50281.73
490.53	49750.43
490.70	49631.06
490.88	49464.88
491.06	50361.31
491.24	50483.01
491.41	49287.00
491.59	47831.19
491.77	46602.41
491.95	47929.49
492.13	49586.59
492.30	50546.21
492.48	51845.21
492.66	52051.17
492.84	52140.11
493.01	51866.27
493.19	51468.38
493.37	50976.87
493.54	50979.21
493.72	51533.92
493.90	52743.97
494.08	53308.04
494.25	53776.15
494.43	53689.55
494.61	54162.34
494.79	54251.28
494.96	53745.72
495.14	53221.44
495.32	52559.07
495.49	51817.12
495.67	52994.41
495.85	54490.01
496.02	54995.57
496.20	54564.91
496.38	53996.16
496.55	54045.31
496.73	54478.31
496.91	54712.36
497.09	55246.00
497.26	55412.18
497.44	55114.94
497.62	54309.79
497.79	53219.10
497.97	52259.48
498.14	52514.60
498.32	53474.22
498.50	54438.52
498.67	55248.35
498.85	55051.74
499.03	55241.32
499.20	55519.85
499.38	55182.81
499.56	55091.53
499.73	54677.25
499.91	54492.35
500.08	53785.51
500.26	53223.78
500.44	53598.27
500.61	54485.33
500.79	54045.31
500.97	53776.15
501.14	53689.55
501.32	52973.34
501.49	53539.75
501.67	53862.75
501.84	54241.92
502.02	54616.40
502.20	54845.77
502.37	55224.94
502.55	54857.48
502.72	55774.97
502.90	55987.95
503.07	55711.77
503.25	55503.46
503.43	54590.66
503.60	53680.19
503.78	53022.50
503.95	53691.89
504.13	55168.77
504.30	56069.87
504.48	55622.83
504.65	55374.73
504.83	55330.26
505.01	56170.52
505.18	56275.84
505.36	57038.86
505.53	56999.07
505.71	57317.38
505.88	57326.74
506.06	56821.19
506.23	56252.44
506.41	55856.88
506.58	56074.55
506.76	56137.75
506.93	56526.28
507.11	55828.80
507.28	56027.74
507.46	55435.59
507.63	55072.81
507.81	54911.31
507.98	55161.75
508.16	56112.00
508.33	56324.99
508.50	56830.55
508.68	57013.11
508.85	57457.81
509.03	57661.44
509.20	57275.25
509.38	56287.54
509.55	55817.10
509.73	55861.57
509.90	56430.32
510.08	56870.34
510.25	56687.78
510.42	56348.40
510.60	56437.34
510.77	56570.75
510.95	57176.95
511.12	57429.72
511.30	57762.08
511.47	58169.33
511.64	57923.58
511.82	57350.15
511.99	56397.55
512.17	56261.80
512.34	55962.21
512.51	56112.00
512.69	56247.75
512.86	56453.72
513.04	56713.52
513.21	56877.36
513.38	56605.86
513.56	55863.91
513.73	55309.20
513.90	55664.96
514.08	55693.05
514.25	55835.82
514.43	56156.47
514.60	56259.46
514.77	56310.95
514.95	56697.14
515.12	56526.28
515.29	56655.01
515.47	57045.88
515.64	57411.00
515.81	57031.83
515.99	56343.72
516.16	54770.88
516.33	52275.87
516.51	51061.13
516.68	49766.81
516.85	49371.26
517.03	50272.37
517.20	53205.06
517.37	55847.52
517.54	56470.11
517.72	55884.97
517.89	53324.43
518.06	50581.32
518.24	51704.77
518.41	53832.32
518.58	54857.48
518.75	55175.79
518.93	55716.45
519.10	55484.74
519.27	55922.42
519.45	56163.50
519.62	56718.20
519.79	56935.87
519.96	56942.89
520.14	56245.41
520.31	55615.81
520.48	55686.03
520.65	56116.68
520.83	56910.13
521.00	57315.04
521.17	56947.57
521.34	56720.54
521.52	57059.92
521.69	57577.18
521.86	57925.92
522.03	57242.48
522.20	56339.04
522.38	55384.10
522.55	55538.57
522.72	56030.08
522.89	56109.66
523.07	56189.24
523.24	56622.24
523.41	57497.60
523.58	57949.32
523.75	58188.06
523.92	58106.14
524.10	58120.18
524.27	58246.57
524.44	57883.79
524.61	57663.78
524.78	57373.55
524.96	57291.63
525.13	57450.79
525.30	57584.20
525.47	58052.31
525.64	57928.26
525.81	57270.57
525.98	55859.23
526.16	54241.92
526.33	53879.13
526.50	53415.71
526.67	53361.87
526.84	53851.05
527.01	54646.83
527.18	55826.46
527.36	56601.18
527.53	57352.49
527.70	57485.90
527.87	56933.53
528.04	56664.37
528.21	57153.54
528.38	57614.63
528.55	58436.16
528.72	58581.27
528.89	58738.08
529.07	58515.73
529.24	57633.35
529.41	56942.89
529.58	56446.70
529.75	56774.37
529.92	57230.78
530.09	57701.23
530.26	58021.88
530.43	58253.59
530.60	58291.04
530.77	58372.96
530.94	58817.66
531.11	58033.58
531.28	57813.57
531.46	57598.24
531.63	57944.64
531.80	57827.62
531.97	57221.42
532.14	56453.72
532.31	55419.20
532.48	55025.99
532.65	55124.30
532.82	55540.91
532.99	56994.39
533.16	57134.82
533.33	57813.57
533.50	57560.79
533.67	56985.02
533.84	56573.09
534.01	56856.29
534.18	57038.86
534.35	57162.90
534.52	57097.37
534.69	57506.96
534.86	57719.95
535.03	57822.93
535.20	58328.49
535.37	58735.74
535.54	58812.98
535.71	58391.68
535.88	58082.73
536.05	57331.42
536.22	57055.24
536.38	56753.31
536.55	56214.99
536.72	55625.17
536.89	55671.98
537.06	56750.97
537.23	57485.90
537.40	57701.23
537.57	57574.84
537.74	57254.18
537.91	57223.76
538.08	57654.42
538.25	57455.47
538.42	57736.34
538.59	57190.99
538.75	56463.08
538.92	56332.01
539.09	56385.85
539.26	55983.27
539.43	55938.80
539.60	55959.87
539.77	56446.70
539.94	55992.64
540.11	55208.56
540.28	54995.57
540.44	54944.08
540.61	55075.15
540.78	55419.20
540.95	55994.98
541.12	56439.68
541.29	56519.26
541.46	56821.19
541.62	56970.98
541.79	56687.78
541.96	55969.23
542.13	56023.06
542.30	56397.55
542.47	56706.50
542.63	56226.69
542.80	56343.72
542.97	56252.44
543.14	55973.91
543.31	56186.90
543.48	56622.24
543.64	57689.52
543.81	57832.30
543.98	57485.90
544.15	56662.03
544.32	56367.12
544.48	56449.04
544.65	56954.60
544.82	57176.95
544.99	56917.15
545.16	56631.60
545.32	56088.60
545.49	57256.53
545.66	57528.03
545.83	56762.67
546.00	56306.27
546.16	56477.13
546.33	56577.77
546.50	56350.74
546.67	56570.75
546.83	56264.14
547.00	56324.99
547.17	55580.70
547.34	55128.98
547.50	55332.60
547.67	55772.63
547.84	55700.07
548.00	56058.17
548.17	56666.71
548.34	56472.45
548.51	56561.39
548.67	56570.75
548.84	56619.90
549.01	56170.52
549.18	56357.76
549.34	56481.81
549.51	56299.25
549.68	56362.44
549.84	55856.88
550.01	55983.27
550.18	55821.78
550.34	55978.59
550.51	56058.17
550.68	56327.33
550.84	55519.85
551.01	55615.81
551.18	55814.76
551.34	55583.04
551.51	56240.73
551.68	56678.41
551.84	56493.51
552.01	56186.90
552.18	56112.00
552.34	55030.68
552.51	55126.64
552.68	54822.37
552.84	55356.01
553.01	55627.51
553.18	55480.06
553.34	55571.34
553.51	55957.53
553.67	56229.03
553.84	56404.57
554.01	56189.24
554.17	55852.20
554.34	56156.47
554.51	56399.89
554.67	56444.36
554.84	56282.86
555.00	55903.70
555.17	55470.70
555.33	55709.43
555.50	55807.73
555.67	55571.34
555.83	55283.45
556.00	55105.57
556.16	55021.31
556.33	54803.64
556.50	54581.29
556.66	54869.18
556.83	54370.64
556.99	54569.59
557.16	54726.41
557.32	54890.24
557.49	55290.48
557.65	54887.90
557.82	54906.63
557.98	54653.85
558.15	54330.86
558.32	53504.65
558.48	52758.02
558.65	52748.65
558.81	53214.42
558.98	53455.50
559.14	53916.58
559.31	54045.31
559.47	54131.91
559.64	53434.43
559.80	53076.33
559.97	53214.42
560.13	53914.24
560.30	54803.64
560.46	55091.53
560.63	55454.31
560.79	55269.41
560.96	54831.73
561.12	53813.60
561.29	52774.40
561.45	53052.92
561.61	53621.67
561.78	54178.72
561.94	53790.19
562.11	53818.28
562.27	53691.89
562.44	54237.23
562.60	54354.26
562.77	54410.43
562.93	54777.90
563.10	54323.83
563.26	53691.89
563.42	53904.88
563.59	53645.08
563.75	53792.53
563.92	53584.22
564.08	53757.42
564.24	54143.61
564.41	54167.02
564.57	53968.07
564.74	53785.51
564.90	53759.76
565.07	53427.41
565.23	52786.10
565.39	52299.27
565.56	52210.33
565.72	52074.58
565.88	52378.85
566.05	52828.23
566.21	52865.68
566.38	52640.99
566.54	53015.47
566.70	53523.37
566.87	53497.62
567.03	53389.96
567.19	53687.21
567.36	53310.38
567.52	53265.91
567.68	53027.18
567.85	52533.32
568.01	52275.87
568.17	51536.26
568.34	51772.65
568.50	51416.89
568.66	52055.85
568.83	52009.04
568.99	52191.61
569.15	52582.48
569.32	52624.60
569.48	52097.98
569.64	51782.01
569.81	51660.30
569.97	51456.68
570.13	51393.48
570.30	50979.21
570.46	50415.14
570.62	49469.56
570.78	49785.54
570.95	50138.96
571.11	50754.52
571.27	51049.42
571.43	51540.94
571.60	51845.21
571.76	52051.17
571.92	52287.57
572.09	52364.81
572.25	52425.66
572.41	52207.99
572.57	52163.52
572.74	52109.69
572.90	51695.41
573.06	51611.15
573.22	51526.89
573.38	51536.26
573.55	51852.23
573.71	51779.67
573.87	51807.76
574.03	51569.02
574.20	51358.38
574.36	51049.42
574.52	51023.68
574.68	50691.32
574.84	50422.16
575.01	49820.64
575.17	49691.91
575.33	50014.91
575.49	50354.29
575.65	50578.98
575.82	50181.09
575.98	49975.12
576.14	50464.29
576.30	50698.34
576.46	50813.03
576.62	50873.88
576.79	50794.31
576.95	50487.70
577.11	50347.26
577.27	50529.83
577.43	50607.06
577.59	49958.73
577.75	49696.59
577.92	49076.35
578.08	48460.79
578.24	48626.97
578.40	49195.72
578.56	48966.35
578.72	49495.31
578.88	49577.23
579.04	49865.11
579.21	50122.57
579.37	49785.54
579.53	50712.39
579.69	49998.52
579.85	49914.26
580.01	50014.91
580.17	49261.26
580.33	49317.43
580.49	49324.45
580.65	49628.72
580.82	50188.11
580.98	49989.16
581.14	49993.84
581.30	49923.63
581.46	49961.08
581.62	49872.14
581.78	50204.49
581.94	50270.03
582.10	50115.55
582.26	50035.97
582.42	50028.95
582.58	50621.11
582.74	50415.14
582.90	50286.41
583.06	50263.00
583.22	49855.75
583.38	49612.34
583.54	49457.86
583.70	50082.78
583.86	49619.36
584.02	49881.50
584.18	49897.88
584.34	50183.43
584.50	49322.11
584.66	49507.01
584.82	48687.82
584.98	48835.28
585.14	48341.42
585.30	47445.00
