SpectraSuite Data File
++++++++++++++++++++++++++++++++++++
Date: Mon Oct 07 14:53:52 GMT-05:00 2013
User: price-jones
Dark Spectrum Present: No
Reference Spectrum Present: No
Number of Sampled Component Spectra: 1
Spectrometers: USB2+H05261
Integration Time (usec): 100000 (USB2+H05261)
Spectra Averaged: 1 (USB2+H05261)
Boxcar Smoothing: 0 (USB2+H05261)
Correct for Electrical Dark: No (USB2+H05261)
Strobe/Lamp Enabled: No (USB2+H05261)
Correct for Detector Non-linearity: No (USB2+H05261)
Correct for Stray Light: No (USB2+H05261)
Number of Pixels in Processed Spectrum: 2048
>>>>>Begin Processed Spectral Data<<<<<
365.73	0.00
365.92	0.00
366.12	0.00
366.32	0.00
366.52	0.00
366.72	0.00
366.91	0.00
367.11	0.00
367.31	0.00
367.51	0.00
367.70	0.00
367.90	0.00
368.10	0.00
368.30	0.00
368.49	0.00
368.69	0.00
368.89	0.00
369.09	0.00
369.28	0.00
369.48	0.00
369.68	0.00
369.87	0.00
370.07	0.00
370.27	0.00
370.47	514.92
370.66	2869.50
370.86	3110.57
371.06	3707.41
371.25	3702.73
371.45	3330.58
371.65	3019.29
371.84	2789.92
372.04	2846.09
372.24	3325.90
372.44	3442.93
372.63	3365.69
372.83	3171.43
373.03	2773.53
373.22	2487.99
373.42	2654.17
373.62	3150.36
373.81	3365.69
374.01	3349.31
374.21	3101.21
374.40	2836.73
374.60	2956.10
374.79	3398.46
374.99	3803.37
375.19	4219.99
375.38	4184.88
375.58	3765.92
375.78	3714.43
375.97	3901.67
376.17	4067.85
376.37	3995.29
376.56	4259.78
376.76	4470.42
376.95	4755.97
377.15	4947.89
377.35	5123.43
377.54	5535.37
377.74	5490.90
377.93	5542.39
378.13	5355.15
378.33	5088.32
378.52	4842.57
378.72	4507.87
378.91	4594.47
379.11	4348.72
379.31	4215.30
379.50	4264.46
379.70	4594.47
379.89	4980.66
380.09	5329.40
380.28	5425.36
380.48	5378.55
380.68	5305.99
380.87	5193.65
381.07	4741.93
381.26	4535.96
381.46	4234.03
381.65	4077.21
381.85	3847.84
382.04	3796.35
382.24	3492.08
382.43	3379.73
382.63	3255.69
382.83	3269.73
383.02	3349.31
383.22	3283.77
383.41	3328.24
383.61	3485.06
383.80	4098.28
384.00	4486.81
384.19	5355.15
384.39	5338.76
384.58	5509.62
384.78	5277.91
384.97	5327.06
385.17	4985.34
385.36	4865.97
385.56	4528.94
385.75	4582.77
385.95	4978.32
386.14	5631.33
386.34	5523.66
386.53	5394.93
386.72	4896.40
386.92	5104.71
387.11	5252.16
387.31	5490.90
387.50	5502.60
387.70	5165.56
387.89	5331.74
388.09	5280.25
388.28	5334.08
388.48	5350.46
388.67	5809.21
388.86	6480.94
389.06	6829.68
389.25	7332.90
389.45	7426.52
389.64	7091.82
389.84	7119.91
390.03	6974.80
390.22	7133.95
390.42	7248.64
390.61	7712.07
390.81	8280.82
391.00	8292.52
391.19	8306.56
391.39	7981.23
391.58	7499.08
391.78	7066.08
391.97	6862.45
392.16	6462.22
392.36	6033.90
392.55	4774.69
392.75	3777.62
392.94	3068.44
393.13	3070.78
393.33	3555.27
393.52	4505.53
393.71	5767.08
393.91	6303.06
394.10	6949.05
394.29	7758.88
394.49	8231.66
394.68	8910.42
394.88	8697.43
395.07	9249.80
395.26	9317.67
395.46	8819.14
395.65	8376.78
395.84	7206.51
396.04	6188.38
396.23	5060.24
396.42	4161.47
396.62	3925.08
396.81	4744.27
397.00	5792.83
397.19	7480.35
397.39	8816.80
397.58	9982.38
397.77	10567.52
397.97	11000.52
398.16	11007.54
398.35	11510.75
398.55	11779.92
398.74	12145.04
398.93	12528.89
399.12	12336.96
399.32	11995.25
399.51	12189.51
399.70	12929.12
399.90	12821.45
400.09	12814.43
400.28	12585.06
400.47	12926.78
400.67	13102.32
400.86	13926.19
401.05	13994.06
401.24	13965.98
401.44	14047.90
401.63	13865.33
401.82	14061.94
402.01	14073.64
402.21	14225.78
402.40	14054.92
402.59	14017.47
402.78	13305.95
402.97	12910.40
403.17	13607.87
403.36	14197.69
403.55	14712.61
403.74	15119.86
403.93	14303.01
404.13	13116.36
404.32	12830.82
404.51	13397.23
404.70	14499.62
404.89	14616.65
405.09	14359.19
405.28	13937.89
405.47	13937.89
405.66	14047.90
405.85	13528.30
406.05	13025.08
406.24	13245.09
406.43	13884.06
406.62	14747.72
406.81	14492.60
407.00	13935.55
407.20	13624.26
407.39	13788.10
407.58	14492.60
407.77	15161.99
407.96	15524.77
408.15	15585.63
408.34	15627.76
408.54	16439.92
408.73	16381.41
408.92	16168.42
409.11	15829.04
409.30	15007.52
409.49	14232.80
409.68	13249.77
409.87	12875.29
410.07	13600.85
410.26	14635.37
410.45	15239.23
410.64	16147.36
410.83	16643.55
411.02	16938.46
411.21	17542.32
411.40	17219.32
411.59	17949.57
411.78	17172.51
411.98	16973.56
412.17	17207.62
412.36	16856.54
412.55	16994.63
412.74	16702.06
412.93	16276.09
413.12	16273.74
413.31	18043.19
413.50	18300.65
413.69	18284.26
413.88	17818.50
414.07	17390.18
414.26	17844.24
414.45	18300.65
414.64	18057.23
414.83	18480.87
415.02	17867.65
415.22	18029.15
415.41	18349.80
415.60	19145.58
415.79	19845.40
415.98	20194.14
416.17	20074.77
416.36	19419.42
416.55	19255.59
416.74	18340.44
416.93	17977.65
417.12	17989.36
417.31	18286.61
417.50	18607.26
417.69	19227.50
417.88	19192.39
418.07	18689.18
418.26	18579.17
418.45	18799.18
418.64	19515.39
418.83	20327.55
419.02	19751.78
419.21	19744.76
419.39	19140.90
419.58	18192.98
419.77	17977.65
419.96	18827.27
420.15	20102.86
420.34	20498.41
420.53	21106.95
420.72	21287.17
420.91	21532.93
421.10	21029.71
421.29	21036.74
421.48	20198.82
421.67	21207.59
421.86	20765.23
422.05	19543.47
422.24	17090.59
422.43	17144.42
422.61	18890.46
422.80	20362.66
422.99	20727.78
423.18	19761.14
423.37	19456.87
423.56	19339.85
423.75	19754.12
423.94	20116.90
424.13	18740.67
424.32	19037.92
424.50	19136.22
424.69	18831.95
424.88	19232.18
425.07	19007.49
425.26	19094.09
425.45	18757.05
425.64	18530.02
425.83	18420.02
426.01	19524.75
426.20	19873.49
426.39	20208.19
426.58	18459.81
426.77	17041.44
426.96	16486.73
427.15	16950.16
427.33	18485.55
427.52	19150.26
427.71	19468.58
427.90	18941.96
428.09	18878.76
428.28	18321.71
428.46	17741.26
428.65	17671.04
428.84	18026.81
429.03	18441.08
429.22	17298.90
429.40	16477.37
429.59	14986.45
429.78	13202.96
429.97	13191.26
430.16	13324.67
430.34	13341.05
430.53	13343.39
430.72	13844.27
430.91	15023.90
431.10	18218.73
431.28	21118.65
431.47	22885.76
431.66	22852.99
431.85	21207.59
432.03	19438.15
432.22	18492.57
432.41	19161.97
432.60	21003.97
432.79	21986.99
432.97	22766.39
433.16	22146.15
433.35	20210.53
433.54	18216.39
433.72	16992.29
433.91	17614.87
434.10	19711.99
434.28	20971.20
434.47	21963.59
434.66	21656.98
434.85	20879.92
435.03	21216.96
435.22	21647.61
435.41	23260.24
435.59	23138.54
435.78	23129.17
435.97	23887.51
436.16	24077.09
436.34	23707.29
436.53	23314.08
436.72	23323.44
436.90	22026.78
437.09	21898.05
437.28	21324.62
437.46	22317.01
437.65	22258.49
437.84	21057.80
438.02	19089.41
438.21	18932.59
438.40	19953.07
438.58	21741.24
438.77	22237.43
438.96	22857.67
439.14	23524.72
439.33	24144.97
439.52	24484.34
439.70	23765.80
439.89	23192.37
440.08	22436.38
440.26	22466.80
440.45	23449.83
440.63	24500.73
440.82	26073.57
441.01	26132.08
441.19	25640.57
441.38	25689.72
441.57	26806.16
441.75	27255.54
441.94	27487.25
442.12	27281.28
442.31	27707.26
442.50	27522.36
442.68	27314.05
442.87	27215.75
443.05	26331.03
443.24	27302.35
443.43	27297.67
443.61	28142.60
443.80	28599.01
443.98	26679.77
444.17	26745.30
444.35	28489.00
444.54	28730.08
444.73	28638.80
444.91	27164.26
445.10	26199.96
445.28	24989.90
445.47	24760.53
445.65	24947.77
445.84	25539.93
446.02	26450.39
446.21	26579.12
446.39	26977.01
446.58	27477.89
446.77	27784.50
446.95	27938.97
447.14	28973.49
447.32	29535.22
447.51	28343.89
447.69	27613.64
447.88	27173.62
448.06	27475.55
448.25	28414.10
448.43	28566.24
448.62	27929.61
448.80	27496.61
448.99	27777.48
449.17	27718.96
449.36	28212.82
449.54	28748.80
449.73	29694.38
449.91	30064.18
450.10	31028.48
450.28	31056.57
450.46	30780.39
450.65	30981.67
450.83	30391.86
451.02	30033.75
451.20	29802.04
451.39	30008.01
451.57	29666.29
451.76	29647.57
451.94	29305.85
452.13	29102.22
452.31	27728.33
452.49	26462.10
452.68	26759.34
452.86	26981.70
453.05	27180.64
453.23	27985.79
453.42	28489.00
453.60	29347.98
453.78	29364.36
453.97	29289.46
454.15	29167.76
454.34	28669.22
454.52	28748.80
454.70	27913.23
454.89	28645.82
455.07	28638.80
455.26	28793.27
455.44	30064.18
455.62	30483.14
455.81	30768.68
455.99	30373.13
456.17	30110.99
456.36	30064.18
456.54	31042.53
456.73	30803.79
456.91	31442.76
457.09	31910.86
457.28	32318.12
457.46	31140.83
457.64	30714.85
457.83	29795.02
458.01	28940.72
458.19	29947.15
458.38	30183.55
458.56	31243.81
458.74	30796.77
458.93	30424.62
459.11	30752.30
459.29	30171.85
459.48	30089.93
459.66	30380.15
459.84	30569.74
460.03	30923.16
460.21	31140.83
460.39	31683.83
460.57	31983.42
460.76	32219.81
460.94	32177.68
461.12	31730.64
461.31	31473.18
461.49	31744.69
461.67	31814.90
461.85	32451.53
462.04	32414.08
462.22	33125.60
462.40	32299.39
462.59	32135.56
462.77	32500.68
462.95	32257.26
463.13	31971.72
463.32	31920.23
463.50	31927.25
463.68	31536.38
463.86	31967.04
464.05	30979.33
464.23	30665.70
464.41	30473.78
464.59	29893.32
464.78	31363.18
464.96	31094.02
465.14	30969.97
465.32	31793.84
465.50	32496.00
465.69	33132.62
465.87	32105.13
466.05	31482.55
466.23	29717.78
466.41	29149.03
466.60	29879.28
466.78	30136.74
466.96	30696.13
467.14	31070.61
467.32	31442.76
467.51	31512.97
467.69	30298.23
467.87	30745.28
468.05	31171.25
468.23	30984.01
468.41	31248.49
468.60	31304.67
468.78	31747.03
468.96	31555.10
469.14	31824.26
469.32	31461.48
469.50	30635.27
469.69	30548.67
469.87	30565.06
470.05	30148.44
470.23	30459.73
470.41	30314.62
470.59	30703.15
470.77	30902.09
470.95	31590.21
471.14	32027.89
471.32	32294.71
471.50	33949.47
471.68	33780.95
471.86	34220.97
472.04	34040.75
472.22	34431.62
472.40	32797.93
472.58	32121.51
472.77	32460.89
472.95	32870.48
473.13	33956.49
473.31	32720.69
473.49	32905.59
473.67	33717.76
473.85	33736.48
474.03	34583.76
474.21	34693.76
474.39	35215.70
474.57	35332.73
474.75	35182.93
474.93	34749.93
475.12	33897.98
475.30	33930.75
475.48	34153.10
475.66	34745.25
475.84	34267.78
476.02	33893.30
476.20	33291.78
476.38	33886.28
476.56	35187.61
476.74	35580.82
476.92	36053.61
477.10	36376.61
477.28	37263.67
477.46	37706.03
477.64	37736.46
477.82	37940.08
478.00	38443.30
478.18	37589.00
478.36	37539.85
478.54	37230.90
478.72	37481.34
478.90	38181.16
479.08	39636.97
479.26	40044.23
479.44	40179.98
479.62	39611.23
479.80	39302.28
479.98	40114.44
480.16	39985.71
480.34	39812.51
480.52	40219.77
480.70	40147.21
480.88	40334.45
481.06	41097.47
481.24	41221.52
481.41	42513.49
481.59	43040.11
481.77	42939.47
481.95	41825.37
482.13	41879.21
482.31	42199.86
482.49	42579.03
482.67	42337.95
482.85	42602.43
483.03	43096.28
483.21	43416.94
483.39	43597.16
483.57	43217.99
483.74	42595.41
483.92	43281.19
484.10	43489.49
484.28	44041.86
484.46	44399.96
484.64	44786.15
484.82	43882.70
485.00	43381.83
485.18	42604.77
485.35	41340.88
485.53	37883.91
485.71	35173.57
485.89	34410.56
486.07	36322.77
486.25	39086.95
486.43	41921.34
486.61	42438.59
486.78	41904.95
486.96	42033.68
487.14	44158.89
487.32	44858.71
487.50	46405.80
487.68	47260.10
487.85	47824.17
488.03	47601.82
488.21	46930.08
488.39	46323.88
488.57	45673.21
488.75	45230.85
488.92	46635.17
489.10	48870.39
489.28	50155.34
489.46	50988.57
489.64	50667.92
489.81	51363.06
489.99	50770.90
490.17	50684.30
490.35	51320.93
490.53	50667.92
490.70	50127.25
490.88	49977.46
491.06	51206.24
491.24	51037.72
491.41	50000.86
491.59	48048.86
491.77	47075.19
491.95	48776.76
492.13	50024.27
492.30	50754.52
492.48	52095.64
492.66	52683.12
492.84	52769.72
493.01	52605.88
493.19	51545.62
493.37	51309.22
493.54	51217.94
493.72	51805.42
493.90	53015.47
494.08	53586.57
494.25	53937.65
494.43	54136.59
494.61	54712.36
494.79	54798.96
494.96	54291.07
495.14	53820.62
495.32	52680.78
495.49	52105.01
495.67	53666.14
495.85	54541.50
496.02	55054.08
496.20	54883.22
496.38	54363.62
496.55	54410.43
496.73	54848.11
496.91	54969.82
497.09	55625.17
497.26	55702.41
497.44	55150.04
497.62	54782.58
497.79	53914.24
497.97	52442.04
498.14	52420.98
498.32	53925.94
498.50	54892.58
498.67	55407.50
498.85	55271.75
499.03	55217.92
499.20	55711.77
499.38	55664.96
499.56	55533.89
499.73	55215.58
499.91	54831.73
500.08	54110.85
500.26	53221.44
500.44	53979.78
500.61	54370.64
500.79	54482.99
500.97	54033.61
501.14	53829.98
501.32	53673.16
501.49	53453.15
501.67	53684.87
501.84	54602.36
502.02	54651.51
502.20	55133.66
502.37	55320.90
502.55	55121.96
502.72	55828.80
502.90	56002.00
503.07	55716.45
503.25	55632.19
503.43	54574.27
503.60	53764.45
503.78	53221.44
503.95	53815.94
504.13	55290.48
504.30	56172.86
504.48	55618.15
504.65	55732.84
504.83	55592.40
505.01	56182.22
505.18	56444.36
505.36	57078.64
505.53	57092.69
505.71	57258.87
505.88	57502.28
506.06	56837.57
506.23	56339.04
506.41	56011.36
506.58	56502.87
506.76	56257.12
506.93	56243.07
507.11	55877.95
507.28	56107.32
507.46	55690.71
507.63	55157.06
507.81	54995.57
507.98	55171.11
508.16	55866.25
508.33	56301.59
508.50	56631.60
508.68	56926.51
508.85	57577.18
509.03	57359.51
509.20	57333.76
509.38	56530.96
509.55	55906.04
509.73	55831.14
509.90	56371.80
510.08	56776.72
510.25	56711.18
510.42	56303.93
510.60	56374.14
510.77	56692.46
510.95	57247.16
511.12	57331.42
511.30	57546.75
511.47	57776.12
511.64	57844.00
511.82	57523.35
511.99	56673.73
512.17	56392.87
512.34	55955.19
512.51	56067.53
512.69	56491.17
512.86	56409.25
513.04	56779.06
513.21	56821.19
513.38	56727.56
513.56	56041.79
513.73	55220.26
513.90	55517.51
514.08	55533.89
514.25	55742.20
514.43	56207.97
514.60	56189.24
514.77	56329.67
514.95	56406.91
515.12	56439.68
515.29	56626.92
515.47	57116.09
515.64	57174.61
515.81	56956.94
515.99	56456.06
516.16	54761.51
516.33	52435.02
516.51	51009.64
516.68	49860.43
516.85	49006.14
517.03	49584.25
517.20	52669.08
517.37	55480.06
517.54	56212.65
517.72	55920.08
517.89	53521.03
518.06	50513.44
518.24	51246.03
518.41	53511.67
518.58	54873.86
518.75	55292.82
518.93	55503.46
519.10	55004.93
519.27	55587.72
519.45	56034.77
519.62	56645.65
519.79	57038.86
519.96	56928.85
520.14	56294.56
520.31	55447.29
520.48	55442.61
520.65	55896.67
520.83	56718.20
521.00	57120.77
521.17	56942.89
521.34	56399.89
521.52	56837.57
521.69	57373.55
521.86	57818.25
522.03	57364.19
522.20	56369.46
522.38	54944.08
522.55	55079.83
522.72	55370.05
522.89	55849.86
523.07	56119.02
523.24	56622.24
523.41	57181.63
523.58	57588.88
523.75	57982.09
523.92	57710.59
524.10	57586.54
524.27	57801.87
524.44	57738.68
524.61	57373.55
524.78	57268.23
524.96	57088.01
525.13	57118.43
525.30	57394.62
525.47	57684.84
525.64	57640.37
525.81	57050.56
525.98	55423.89
526.16	54005.52
526.33	53263.57
526.50	52947.60
526.67	52472.47
526.84	53237.83
527.01	54363.62
527.18	55058.76
527.36	56076.90
527.53	57066.94
527.70	56994.39
527.87	56795.44
528.04	56500.53
528.21	56779.06
528.38	57411.00
528.55	57914.22
528.72	58302.74
528.89	58384.66
529.07	58213.80
529.24	57558.45
529.41	56694.80
529.58	56212.65
529.75	56261.80
529.92	56622.24
530.09	57322.06
530.26	57703.57
530.43	58092.10
530.60	57907.19
530.77	58117.84
530.94	58394.03
531.11	57780.81
531.28	57382.91
531.46	57162.90
531.63	57331.42
531.80	57354.83
531.97	56968.64
532.14	55913.06
532.31	55054.08
532.48	54525.12
532.65	54621.08
532.82	55313.88
532.99	56502.87
533.16	56985.02
533.33	57600.58
533.50	57169.93
533.67	56512.23
533.84	56147.11
534.01	56268.82
534.18	56402.23
534.35	56809.48
534.52	56413.93
534.69	56828.21
534.86	57144.18
535.03	57308.02
535.20	57762.08
535.37	58209.12
535.54	58398.71
535.71	57946.98
535.88	57553.77
536.05	57003.75
536.22	56285.20
536.38	56154.13
536.55	55585.38
536.72	55213.24
536.89	54845.77
537.06	55910.72
537.23	56795.44
537.40	57155.88
537.57	56884.38
537.74	56687.78
537.91	56996.73
538.08	56687.78
538.25	56680.75
538.42	56987.36
538.59	56975.66
538.75	55948.17
538.92	55987.95
539.09	55676.66
539.26	55437.93
539.43	55412.18
539.60	55686.03
539.77	55501.12
539.94	55714.11
540.11	54703.00
540.28	54141.27
540.44	54059.35
540.61	54534.48
540.78	54691.30
540.95	55288.13
541.12	55671.98
541.29	55927.10
541.46	56186.90
541.62	56254.78
541.79	56175.20
541.96	55391.12
542.13	55351.33
542.30	55845.18
542.47	55945.83
542.63	55891.99
542.80	55161.75
542.97	55604.11
543.14	55229.62
543.31	55437.93
543.48	55842.84
543.64	56537.98
543.81	56961.62
543.98	56938.21
544.15	56231.37
544.32	55498.78
544.48	55538.57
544.65	55966.89
544.82	56545.00
544.99	55992.64
545.16	55777.31
545.32	55501.12
545.49	56474.79
545.66	56743.95
545.83	56360.10
546.00	56137.75
546.16	55648.58
546.33	55599.43
546.50	55547.93
546.67	56191.58
546.83	55767.94
547.00	55838.16
547.17	54862.16
547.34	54328.52
547.50	54354.26
547.67	55084.51
547.84	54986.21
548.00	55306.86
548.17	55805.39
548.34	55334.95
548.51	55599.43
548.67	55599.43
548.84	55695.39
549.01	55657.94
549.18	55583.04
549.34	55337.29
549.51	55554.96
549.68	55749.22
549.84	55236.64
550.01	54955.78
550.18	54695.98
550.34	55117.28
550.51	55077.49
550.68	55290.48
550.84	54759.17
551.01	55016.63
551.18	54611.72
551.34	55196.85
551.51	55419.20
551.68	55473.04
551.84	55618.15
552.01	55353.67
552.18	55414.52
552.34	54277.02
552.51	54092.12
552.68	53972.75
552.84	54574.27
553.01	54747.47
553.18	54782.58
553.34	55089.19
553.51	55028.34
553.67	55341.97
553.84	55255.37
554.01	55334.95
554.17	54920.67
554.34	55215.58
554.51	55372.39
554.67	55669.64
554.84	55217.92
555.00	54883.22
555.17	54653.85
555.33	54813.01
555.50	54639.81
555.67	54756.83
555.83	54588.31
556.00	54232.55
556.16	54155.32
556.33	53818.28
556.50	53794.87
556.66	53696.57
556.83	53336.13
556.99	53457.84
557.16	54017.22
557.32	53951.69
557.49	54087.44
557.65	54099.14
557.82	54127.23
557.98	54188.08
558.15	53092.71
558.32	52540.35
558.48	51959.89
558.65	51636.90
558.81	52247.78
558.98	52350.76
559.14	52928.87
559.31	52919.51
559.47	52823.55
559.64	52664.39
559.80	52313.31
559.97	52411.62
560.13	52643.33
560.30	53663.80
560.46	54288.73
560.63	54461.93
560.79	54611.72
560.96	54094.46
561.12	52395.23
561.29	51728.18
561.45	51917.76
561.61	52687.80
561.78	53097.39
561.94	52523.96
562.11	52856.32
562.27	52528.64
562.44	53104.41
562.60	53298.68
562.77	53640.40
562.93	53139.52
563.10	53221.44
563.26	52299.27
563.42	52835.25
563.59	52781.42
563.75	52568.43
563.92	52175.22
564.08	52666.73
564.24	52926.53
564.41	52619.92
564.57	52633.97
564.74	52310.97
564.90	52317.99
565.07	52109.69
565.23	51763.29
565.39	51140.71
565.56	50721.75
565.72	50728.77
565.88	51037.72
566.05	51098.58
566.21	51774.99
566.38	51309.22
566.54	51590.09
566.70	52247.78
566.87	52374.17
567.03	52257.14
567.19	52694.82
567.36	52168.20
567.52	51943.51
567.68	51702.43
567.85	51035.38
568.01	50679.62
568.17	50120.23
568.34	50167.04
568.50	50213.85
568.66	50480.67
568.83	50532.17
568.99	50707.71
569.15	50796.65
569.32	51391.14
569.48	50674.94
569.64	50466.63
569.81	50452.59
569.97	50237.26
570.13	49895.54
570.30	49427.43
570.46	48926.56
570.62	48303.98
570.78	47936.51
570.95	48432.71
571.11	49446.16
571.27	49481.27
571.43	49890.86
571.60	50160.02
571.76	50541.53
571.92	50796.65
572.09	50911.33
572.25	50859.84
572.41	50829.41
572.57	50745.15
572.74	50520.46
572.90	50284.07
573.06	49989.16
573.22	50529.83
573.38	50141.30
573.55	50131.93
573.71	50206.83
573.87	50220.87
574.03	49844.05
574.20	49984.48
574.36	49771.49
574.52	49462.54
574.68	49525.74
574.84	49064.65
575.01	48385.89
575.17	48069.92
575.33	48446.75
575.49	48575.48
575.65	48985.07
575.82	48531.01
575.98	48423.34
576.14	49006.14
576.30	49186.36
576.46	49048.27
576.62	49240.19
576.79	49008.48
576.95	48591.86
577.11	48301.64
577.27	48605.91
577.43	48596.54
577.59	48243.12
577.75	47915.45
577.92	46855.18
578.08	46660.92
578.24	46768.58
578.40	47437.98
578.56	47997.37
578.72	47737.57
578.88	47723.52
579.04	47863.96
579.21	48273.55
579.37	47973.96
579.53	48303.98
579.69	48350.79
579.85	48718.25
580.01	48053.54
580.17	47611.18
580.33	47718.84
580.49	47870.98
580.65	48067.58
580.82	48238.44
580.98	48172.91
581.14	48458.45
581.30	48065.24
581.46	47449.68
581.62	48727.61
581.78	48404.62
581.94	48521.65
582.10	48364.83
582.26	48451.43
582.42	48369.51
582.58	48341.42
582.74	48383.55
582.90	48336.74
583.06	48519.31
583.22	48025.45
583.38	47714.16
583.54	47955.24
583.70	48100.35
583.86	47990.34
584.02	47576.07
584.18	47908.43
584.34	47873.32
584.50	47695.44
584.66	47409.89
584.82	46997.96
584.98	47098.60
585.14	46291.12
585.30	45766.84
