SpectraSuite Data File
++++++++++++++++++++++++++++++++++++
Date: Mon Oct 07 14:53:07 GMT-05:00 2013
User: price-jones
Dark Spectrum Present: No
Reference Spectrum Present: No
Number of Sampled Component Spectra: 1
Spectrometers: USB2+H05261
Integration Time (usec): 100000 (USB2+H05261)
Spectra Averaged: 1 (USB2+H05261)
Boxcar Smoothing: 0 (USB2+H05261)
Correct for Electrical Dark: No (USB2+H05261)
Strobe/Lamp Enabled: No (USB2+H05261)
Correct for Detector Non-linearity: No (USB2+H05261)
Correct for Stray Light: No (USB2+H05261)
Number of Pixels in Processed Spectrum: 2048
>>>>>Begin Processed Spectral Data<<<<<
365.73	0.00
365.92	0.00
366.12	0.00
366.32	0.00
366.52	0.00
366.72	0.00
366.91	0.00
367.11	0.00
367.31	0.00
367.51	0.00
367.70	0.00
367.90	0.00
368.10	0.00
368.30	0.00
368.49	0.00
368.69	0.00
368.89	0.00
369.09	0.00
369.28	0.00
369.48	0.00
369.68	0.00
369.87	0.00
370.07	0.00
370.27	0.00
370.47	538.32
370.66	3080.14
370.86	3620.81
371.06	3929.76
371.25	3894.65
371.45	3641.87
371.65	3251.00
371.84	2932.69
372.04	3246.32
372.24	3510.80
372.44	3658.26
372.63	3513.14
372.83	3386.76
373.03	2918.65
373.22	2876.52
373.42	2953.76
373.62	3283.77
373.81	3520.17
374.01	3658.26
374.21	3363.35
374.40	3124.62
374.60	3194.83
374.79	3578.68
374.99	4212.96
375.19	4559.36
375.38	4498.51
375.58	4112.32
375.78	3962.53
375.97	4166.15
376.17	4432.97
376.37	4262.12
376.56	4428.29
376.76	4854.27
376.95	4983.00
377.15	5413.66
377.35	5699.20
377.54	5949.64
377.74	6059.65
377.93	6047.94
378.13	5764.74
378.33	5638.35
378.52	5090.67
378.72	4964.28
378.91	4805.12
379.11	4648.30
379.31	4472.76
379.50	4510.21
379.70	4847.25
379.89	5329.40
380.09	5682.82
380.28	6078.37
380.48	5937.94
380.68	5699.20
380.87	5724.95
381.07	5228.76
381.26	4847.25
381.46	4535.96
381.65	4386.16
381.85	4168.49
382.04	4023.38
382.24	3789.33
382.43	3651.24
382.63	3559.95
382.83	3595.06
383.02	3407.82
383.22	3623.15
383.41	3595.06
383.61	3864.22
383.80	4418.93
384.00	4966.62
384.19	5518.98
384.39	5879.43
384.58	5809.21
384.78	5724.95
384.97	5753.04
385.17	5324.72
385.36	5158.54
385.56	4858.95
385.75	5020.45
385.95	5621.97
386.14	5797.51
386.34	5874.74
386.53	5600.90
386.72	5313.02
386.92	5514.30
387.11	5570.48
387.31	5942.62
387.50	5975.39
387.70	5680.48
387.89	5657.07
388.09	5746.02
388.28	5699.20
388.48	5989.43
388.67	6349.87
388.86	6897.56
389.06	7234.60
389.25	7864.20
389.45	7974.21
389.64	7798.66
389.84	7679.30
390.03	7475.67
390.22	7632.49
390.42	7812.71
390.61	8182.51
390.81	8809.78
391.00	8961.91
391.19	9036.81
391.39	8617.85
391.58	8105.28
391.78	7782.28
391.97	7529.50
392.16	6974.80
392.36	6399.02
392.55	5093.01
392.75	4109.98
392.94	3351.65
393.13	3246.32
393.33	3988.27
393.52	5041.51
393.71	6136.88
393.91	7016.93
394.10	7485.03
394.29	8336.99
394.49	8620.19
394.68	9476.83
394.88	9401.93
395.07	9783.44
395.26	9624.28
395.46	9549.39
395.65	8748.92
395.84	7936.76
396.04	6537.12
396.23	5362.17
396.42	4428.29
396.62	4383.82
396.81	5221.74
397.00	6558.18
397.19	8102.93
397.39	9734.29
397.58	10675.18
397.77	11456.92
397.97	11946.09
398.16	11985.88
398.35	12367.39
398.55	12788.69
398.74	13509.57
398.93	13673.41
399.12	13324.67
399.32	12692.73
399.51	13305.95
399.70	13940.23
399.90	14019.81
400.09	13858.31
400.28	13682.77
400.47	14026.83
400.67	14604.94
400.86	15037.94
401.05	14977.09
401.24	14958.36
401.44	15180.71
401.63	15257.95
401.82	15513.07
402.01	15339.87
402.21	15704.99
402.40	15482.64
402.59	14862.40
402.78	14555.79
402.97	14204.71
403.17	14626.01
403.36	15435.83
403.55	16173.10
403.74	16240.98
403.93	15817.34
404.13	14380.25
404.32	14071.30
404.51	14817.93
404.70	16039.69
404.89	16070.12
405.09	15833.72
405.28	15286.04
405.47	15328.17
405.66	15377.32
405.85	14803.89
406.05	14747.72
406.24	14717.29
406.43	15187.74
406.62	15831.38
406.81	16081.82
407.00	15002.83
407.20	15138.58
407.39	15098.80
407.58	16030.33
407.77	16416.52
407.96	16877.60
408.15	17247.41
408.34	17341.03
408.54	18361.50
408.73	18082.98
408.92	17759.98
409.11	17415.93
409.30	16648.23
409.49	15452.22
409.68	14504.30
409.87	13970.66
410.07	14736.01
410.26	16072.46
410.45	17076.55
410.64	17488.48
410.83	18223.41
411.02	18335.76
411.21	19176.01
411.40	19096.43
411.59	19110.47
411.78	19136.22
411.98	19070.68
412.17	19087.07
412.36	18565.13
412.55	18857.70
412.74	18537.04
412.93	18136.81
413.12	18237.45
413.31	19913.28
413.50	20170.74
413.69	20376.70
413.88	19637.09
414.07	19171.33
414.26	19372.61
414.45	19974.13
414.64	20372.02
414.83	20269.04
415.02	19644.12
415.22	19922.64
415.41	20196.48
415.60	20893.96
415.79	21804.43
415.98	22286.58
416.17	22099.34
416.36	21490.80
416.55	21397.18
416.74	20465.64
416.93	20030.30
417.12	19716.67
417.31	20257.34
417.50	20807.36
417.69	21200.57
417.88	21120.99
418.07	21078.86
418.26	20922.05
418.45	20783.96
418.64	21937.84
418.83	22097.00
419.02	21888.69
419.21	22108.70
419.39	20875.24
419.58	19992.86
419.77	20070.09
419.96	20959.50
420.15	22331.05
420.34	22750.01
420.53	23613.66
420.72	23597.28
420.91	23578.56
421.10	23587.92
421.29	23084.70
421.48	22876.40
421.67	23831.33
421.86	22686.81
422.05	21322.28
422.24	19269.63
422.43	18906.85
422.61	21003.97
422.80	23056.62
422.99	22448.08
423.18	21998.70
423.37	21186.53
423.56	21605.49
423.75	21968.27
423.94	22122.74
424.13	21216.96
424.32	21312.92
424.50	21544.63
424.69	21170.15
424.88	21401.86
425.07	21209.93
425.26	21003.97
425.45	20812.04
425.64	20617.78
425.83	20503.09
426.01	21956.57
426.20	22075.93
426.39	22155.51
426.58	20269.04
426.77	18864.72
426.96	18263.20
427.15	18834.29
427.33	20482.03
427.52	21605.49
427.71	21621.87
427.90	21558.67
428.09	20709.06
428.28	20407.13
428.46	19850.08
428.65	19571.56
428.84	20332.23
429.03	20479.69
429.22	19330.48
429.40	18434.06
429.59	16264.38
429.78	14565.15
429.97	15030.92
430.16	14911.55
430.34	14853.04
430.53	14918.57
430.72	15447.54
430.91	16929.09
431.10	20322.87
431.28	23555.15
431.47	25099.90
431.66	25769.30
431.85	23618.35
432.03	21537.61
432.22	20655.23
432.41	21294.19
432.60	23859.42
432.79	24940.75
432.97	25577.37
433.16	24624.78
433.35	22441.06
433.54	20339.26
433.72	19178.35
433.91	20032.65
434.10	22148.49
434.28	23716.65
434.47	24863.51
434.66	24561.58
434.85	23807.93
435.03	23522.38
435.22	24589.67
435.41	25928.45
435.59	25671.00
435.78	26216.34
435.97	26925.52
436.16	27477.89
436.34	26579.12
436.53	25617.16
436.72	26113.36
436.90	25085.86
437.09	24556.90
437.28	24086.45
437.46	25228.63
437.65	24737.12
437.84	23321.10
438.02	21647.61
438.21	21495.48
438.40	22471.48
438.58	24318.17
438.77	24989.90
438.96	25443.96
439.14	26483.16
439.33	27014.46
439.52	27789.18
439.70	26616.57
439.89	26052.50
440.08	25408.86
440.26	25198.21
440.45	25937.82
440.63	27924.93
440.82	29638.20
441.01	29123.29
441.19	29029.66
441.38	29036.69
441.57	30150.78
441.75	30209.29
441.94	30834.22
442.12	30560.37
442.31	31042.53
442.50	31166.57
442.68	31007.42
442.87	30263.13
443.05	29888.64
443.24	30668.04
443.43	30944.22
443.61	31878.10
443.80	32266.63
443.98	30270.15
444.17	30300.58
444.35	31992.78
444.54	32645.79
444.73	32287.69
444.91	30904.43
445.10	29874.60
445.28	28432.83
445.47	28297.08
445.65	27882.80
445.84	28861.15
446.02	30103.97
446.21	30644.63
446.39	30520.59
446.58	31419.35
446.77	31288.28
446.95	31828.95
447.14	32109.81
447.32	32858.78
447.51	32397.70
447.69	31147.85
447.88	30539.31
448.06	31110.40
448.25	31960.02
448.43	32222.16
448.62	31592.55
448.80	31269.56
448.99	31601.91
449.17	31742.35
449.36	31976.40
449.54	33436.89
449.73	33607.75
449.91	34005.64
450.10	35108.04
450.28	35461.46
450.46	35395.92
450.65	35431.03
450.83	34834.19
451.02	34010.32
451.20	33888.62
451.39	33907.34
451.57	33919.04
451.76	33837.12
451.94	33656.90
452.13	33249.65
452.31	31417.01
452.49	30279.51
452.68	30377.81
452.86	30581.44
453.05	30726.55
453.23	31908.52
453.42	32945.38
453.60	33422.85
453.78	34192.89
453.97	33411.15
454.15	33268.37
454.34	32493.66
454.52	32732.39
454.70	32407.06
454.89	32493.66
455.07	32275.99
455.26	33226.24
455.44	34450.35
455.62	35182.93
455.81	35204.00
455.99	34876.32
456.17	34618.86
456.36	34876.32
456.54	35613.59
456.73	35367.84
456.91	36257.24
457.09	35981.06
457.28	36746.41
457.46	35604.23
457.64	35227.40
457.83	34096.92
458.01	33663.93
458.19	34373.11
458.38	34525.24
458.56	35566.78
458.74	35559.76
458.93	35119.74
459.11	34689.08
459.29	34639.93
459.48	35147.82
459.66	34705.46
459.84	35054.20
460.03	35756.36
460.21	35082.29
460.39	36416.40
460.57	36154.26
460.76	36718.32
460.94	36706.62
461.12	36818.97
461.31	36498.31
461.49	36346.18
461.67	36524.06
461.85	37610.07
462.04	37088.13
462.22	38249.03
462.40	37380.70
462.59	37104.51
462.77	37249.63
462.95	36926.63
463.13	36914.93
463.32	36545.12
463.50	36680.88
463.68	36421.08
463.86	36383.63
464.05	35875.73
464.23	35269.53
464.41	34831.85
464.59	34813.13
464.78	36292.35
464.96	36460.87
465.14	35976.37
465.32	36655.13
465.50	37759.86
465.69	37998.60
465.87	37120.90
466.05	35999.78
466.23	34602.48
466.41	33919.04
466.60	34307.57
466.78	35077.61
466.96	35611.25
467.14	36048.93
467.32	36271.28
467.51	36828.33
467.69	34991.01
467.87	35651.04
468.05	36198.73
468.23	36062.97
468.41	36510.02
468.60	36594.28
468.78	37027.28
468.96	36074.68
469.14	37125.58
469.32	36971.10
469.50	35587.85
469.69	35498.91
469.87	35051.86
470.05	35136.12
470.23	35241.45
470.41	35772.75
470.59	36053.61
470.77	36112.13
470.95	36285.33
471.14	37111.53
471.32	37422.83
471.50	39321.00
471.68	39688.46
471.86	39538.67
472.04	40013.80
472.22	39955.29
472.40	38335.63
472.58	37659.22
472.77	37696.67
472.95	38286.48
473.13	39093.97
473.31	37996.26
473.49	38469.04
473.67	39281.21
473.85	39447.39
474.03	40084.01
474.21	40189.34
474.39	40484.25
474.57	40594.25
474.75	40685.53
474.93	40243.17
475.12	40252.53
475.30	39768.04
475.48	39508.24
475.66	40505.31
475.84	40030.18
476.02	39718.89
476.20	38998.01
476.38	39686.12
476.56	41134.92
476.74	42073.47
476.92	41984.53
477.10	42635.20
477.28	43365.45
477.46	43650.99
477.64	43863.98
477.82	44069.95
478.00	44140.16
478.18	43360.76
478.36	43299.91
478.54	43330.34
478.72	43636.95
478.90	44456.14
479.08	45263.62
479.26	46387.08
479.44	46342.61
479.62	46295.80
479.80	45687.26
479.98	46351.97
480.16	46384.74
480.34	46106.21
480.52	45986.85
480.70	46494.74
480.88	46813.05
481.06	47213.29
481.24	48149.50
481.41	48568.46
481.59	49162.95
481.77	49013.16
481.95	48390.58
482.13	48247.80
482.31	48247.80
482.49	48769.74
482.67	48624.63
482.85	48898.47
483.03	49448.50
483.21	50270.03
483.39	49705.96
483.57	49399.35
483.74	48872.73
483.92	49595.95
484.10	49633.40
484.28	50274.71
484.46	50576.64
484.64	51051.76
484.82	50075.76
485.00	49598.29
485.18	48954.64
485.35	47749.27
485.53	44325.07
485.71	40575.53
485.89	40591.91
486.07	42920.74
486.25	46309.84
486.43	47978.64
486.61	48758.04
486.78	48760.38
486.96	48949.96
487.14	50536.85
487.32	51468.38
487.50	52360.12
487.68	53230.80
487.85	53474.22
488.03	53066.97
488.21	52963.98
488.39	52245.44
488.57	51664.99
488.75	51414.55
488.92	52442.04
489.10	54600.02
489.28	55737.52
489.46	56163.50
489.64	56179.88
489.81	56037.11
489.99	55725.81
490.17	55997.32
490.35	56292.22
490.53	55718.79
490.70	55447.29
490.88	55302.18
491.06	56193.92
491.24	56374.14
491.41	55241.32
491.59	53937.65
491.77	53052.92
491.95	54068.72
492.13	55494.10
492.30	56282.86
492.48	57179.29
492.66	57497.60
492.84	57691.86
493.01	57392.28
493.19	56701.82
493.37	56446.70
493.54	56360.10
493.72	57102.05
493.90	57726.97
494.08	58714.68
494.25	58784.90
494.43	58838.73
494.61	59135.98
494.79	59304.49
494.96	59133.63
495.14	58394.03
495.32	57680.16
495.49	57319.72
495.67	58183.38
495.85	59433.22
496.02	59913.03
496.20	59547.91
496.38	59063.42
496.55	59065.76
496.73	59313.86
496.91	59517.48
497.09	60278.16
497.26	60310.92
497.44	59681.32
497.62	59332.58
497.79	58735.74
497.97	57593.56
498.14	57773.78
498.32	58784.90
498.50	59524.50
498.67	60011.34
498.85	59847.50
499.03	60034.74
499.20	60168.15
499.38	60336.67
499.56	60109.64
499.73	59796.01
499.91	59348.96
500.08	58815.32
500.26	58305.09
500.44	58812.98
500.61	59590.04
500.79	58972.14
500.97	58845.75
501.14	58731.06
501.32	58585.95
501.49	58539.14
501.67	58731.06
501.84	59264.70
502.02	59655.57
502.20	59683.66
502.37	59950.48
502.55	59898.99
502.72	60423.27
502.90	60949.89
503.07	60596.47
503.25	60392.84
503.43	59323.22
503.60	58749.79
503.78	58178.70
503.95	58738.08
504.13	59767.92
504.30	60584.77
504.48	60654.98
504.65	60177.51
504.83	60449.02
505.01	60823.50
505.18	61151.18
505.36	61638.01
505.53	61670.78
505.71	61897.81
505.88	62075.69
506.06	61331.40
506.23	61109.05
506.41	60669.03
506.58	61050.53
506.76	60741.58
506.93	60788.39
507.11	60835.20
507.28	61092.66
507.46	60425.61
507.63	59891.97
507.81	60046.44
507.98	59938.78
508.16	60516.89
508.33	61127.77
508.50	61453.11
508.68	61572.47
508.85	62166.97
509.03	62131.86
509.20	61843.98
509.38	61436.72
509.55	60453.70
509.73	60748.60
509.90	61286.93
510.08	61563.11
510.25	61509.28
510.42	61343.10
510.60	61116.07
510.77	61640.35
510.95	62012.49
511.12	62066.33
511.30	62225.48
511.47	62457.20
511.64	62466.56
511.82	62049.94
511.99	61455.45
512.17	61146.50
512.34	60900.74
512.51	61010.74
512.69	61020.11
512.86	60989.68
513.04	61602.90
513.21	61619.28
513.38	61064.58
513.56	60673.71
513.73	60126.02
513.90	60397.52
514.08	60434.97
514.25	60835.20
514.43	61006.06
514.60	61015.43
514.77	61279.91
514.95	61289.27
515.12	61080.96
515.29	61488.21
515.47	61865.04
515.64	61989.09
515.81	61801.85
515.99	61219.05
516.16	59798.35
516.33	57853.36
516.51	56437.34
516.68	55810.07
516.85	55391.12
517.03	56226.69
517.20	58365.94
517.37	60537.96
517.54	61457.79
517.72	60823.50
517.89	58609.35
518.06	56549.68
518.24	57034.17
518.41	58969.80
518.58	60100.28
518.75	60205.60
518.93	60434.97
519.10	60348.37
519.27	60470.08
519.45	61076.28
519.62	61513.96
519.79	61986.75
519.96	61677.80
520.14	61380.55
520.31	60617.53
520.48	60493.49
520.65	60837.54
520.83	61923.55
521.00	62185.69
521.17	61792.48
521.34	61429.70
521.52	61776.10
521.69	62134.20
521.86	62658.48
522.03	61939.94
522.20	60963.93
522.38	60184.54
522.55	60360.08
522.72	60886.70
522.89	61022.45
523.07	60931.17
523.24	61427.36
523.41	62197.40
523.58	62529.75
523.75	62810.62
523.92	62871.47
524.10	62717.00
524.27	62630.40
524.44	62403.36
524.61	62431.45
524.78	62101.43
524.96	62152.93
525.13	62169.31
525.30	62419.75
525.47	62946.37
525.64	62719.34
525.81	62127.18
525.98	60779.03
526.16	59421.52
526.33	58862.13
526.50	58595.31
526.67	58377.64
526.84	59121.93
527.01	59873.24
527.18	60617.53
527.36	61366.51
527.53	62347.19
527.70	62258.25
527.87	61724.61
528.04	61359.48
528.21	61792.48
528.38	62394.00
528.55	63084.46
528.72	63063.39
528.89	63262.34
529.07	62890.19
529.24	62475.92
529.41	61759.72
529.58	61310.33
529.75	61654.39
529.92	61872.06
530.09	62237.19
530.26	62700.61
530.43	62864.45
530.60	63135.95
530.77	63231.91
530.94	63381.71
531.11	62808.28
531.28	62606.99
531.46	62602.31
531.63	62653.80
531.80	62284.00
531.97	61949.30
532.14	61375.87
532.31	60491.15
532.48	59861.54
532.65	60034.74
532.82	60692.43
532.99	61593.54
533.16	61958.66
533.33	62529.75
533.50	62305.06
533.67	61703.54
533.84	61462.47
534.01	61560.77
534.18	62003.13
534.35	61909.51
534.52	61876.74
534.69	62124.84
534.86	62220.80
535.03	62724.02
535.20	62988.50
535.37	63161.70
535.54	63456.60
535.71	63063.39
535.88	62513.37
536.05	62138.88
536.22	61675.46
536.38	61528.00
536.55	61013.08
536.72	60488.80
536.89	60530.93
537.06	61413.32
537.23	62340.17
537.40	62466.56
537.57	62487.62
537.74	61998.45
537.91	62061.64
538.08	61993.77
538.25	62148.24
538.42	62365.91
538.59	62047.60
538.75	61460.13
538.92	61387.57
539.09	61080.96
539.26	60837.54
539.43	60573.06
539.60	60945.21
539.77	61322.04
539.94	60776.69
540.11	60135.38
540.28	59800.69
540.44	59992.61
540.61	60214.96
540.78	60292.20
540.95	60762.65
541.12	61139.47
541.29	61333.74
541.46	61670.78
541.62	61736.31
541.79	61441.40
541.96	60711.16
542.13	61090.32
542.30	61366.51
542.47	61380.55
542.63	61235.44
542.80	60889.04
542.97	61034.15
543.14	60842.23
543.31	61116.07
543.48	61586.52
543.64	62164.63
543.81	62426.77
543.98	62202.08
544.15	61614.60
544.32	61216.71
544.48	61329.06
544.65	61712.91
544.82	61848.66
544.99	61584.18
545.16	61263.52
545.32	61315.01
545.49	61911.85
545.66	62291.02
545.83	61843.98
546.00	61481.19
546.16	61296.29
546.33	61134.79
546.50	61350.12
546.67	61701.20
546.83	61432.04
547.00	61151.18
547.17	60631.58
547.34	60233.69
547.50	60060.49
547.67	60687.75
547.84	60722.86
548.00	60966.27
548.17	61350.12
548.34	61279.91
548.51	61233.10
548.67	61513.96
548.84	61403.95
549.01	61354.80
549.18	61174.58
549.34	61207.35
549.51	61242.46
549.68	61160.54
549.84	60928.83
550.01	60816.48
550.18	60666.69
550.34	60905.42
550.51	61020.11
550.68	60985.00
550.84	60701.79
551.01	60842.23
551.18	60598.81
551.34	60764.99
551.51	61160.54
551.68	61347.78
551.84	61359.48
552.01	61120.75
552.18	60851.59
552.34	60170.49
552.51	59992.61
552.68	60093.25
552.84	60399.86
553.01	60617.53
553.18	60420.93
553.34	60622.22
553.51	60886.70
553.67	61151.18
553.84	61059.90
554.01	60905.42
554.17	60767.33
554.34	60856.27
554.51	60994.36
554.67	61310.33
554.84	61139.47
555.00	60858.61
555.17	60601.15
555.33	60664.35
555.50	60657.32
555.67	60491.15
555.83	60509.87
556.00	60184.54
556.16	60275.82
556.33	59833.46
556.50	59758.56
556.66	59695.36
556.83	59554.93
556.99	59653.23
557.16	59751.54
557.32	60093.25
557.49	60161.13
557.65	60360.08
557.82	60100.28
557.98	59938.78
558.15	59484.72
558.32	58906.60
558.48	58265.30
558.65	58592.97
558.81	58599.99
558.98	59054.06
559.14	59086.82
559.31	59159.38
559.47	59227.26
559.64	58829.37
559.80	58691.27
559.97	58843.41
560.13	59222.58
560.30	59742.17
560.46	60334.33
560.63	60523.91
560.79	60694.77
560.96	60238.37
561.12	59079.80
561.29	58614.04
561.45	58585.95
561.61	59124.27
561.78	59550.25
561.94	59311.52
562.11	59154.70
562.27	59058.74
562.44	59407.48
562.60	59571.32
562.77	59510.46
562.93	59559.61
563.10	59540.89
563.26	59051.72
563.42	59131.29
563.59	59075.12
563.75	58988.52
563.92	58974.48
564.08	58995.54
564.24	59164.06
564.41	59339.60
564.57	59084.48
564.74	58908.94
564.90	58941.71
565.07	58602.33
565.23	58473.60
565.39	58211.46
565.56	57666.12
565.72	57703.57
565.88	58019.54
566.05	58141.25
566.21	58115.50
566.38	58445.52
566.54	58443.18
566.70	58745.11
566.87	58773.19
567.03	59018.95
567.19	59124.27
567.36	58862.13
567.52	58628.08
567.68	58571.91
567.85	58038.26
568.01	57710.59
568.17	57221.42
568.34	57420.36
568.50	57331.42
568.66	57586.54
568.83	57939.96
568.99	57900.17
569.15	57897.83
569.32	58019.54
569.48	57900.17
569.64	57631.01
569.81	57439.09
569.97	57265.89
570.13	57265.89
570.30	56486.49
570.46	56430.32
570.62	55887.31
570.78	55679.00
570.95	56343.72
571.11	57006.09
571.27	56877.36
571.43	57062.26
571.60	57591.22
571.76	57743.36
571.92	57736.34
572.09	57923.58
572.25	58031.24
572.41	57874.43
572.57	57694.21
572.74	57474.20
572.90	57333.76
573.06	57235.46
573.22	57502.28
573.38	57399.30
573.55	57420.36
573.71	57450.79
573.87	57483.56
574.03	57223.76
574.20	57092.69
574.36	56898.42
574.52	57059.92
574.68	56783.74
574.84	56210.31
575.01	56177.54
575.17	55924.76
575.33	56376.48
575.49	56371.80
575.65	56582.45
575.82	56622.24
575.98	56095.62
576.14	56395.21
576.30	56825.87
576.46	57130.14
576.62	56776.72
576.79	56666.71
576.95	56500.53
577.11	56222.01
577.27	56495.85
577.43	56727.56
577.59	56076.90
577.75	55515.17
577.92	55339.63
578.08	55061.10
578.24	55344.31
578.40	55512.83
578.56	55760.92
578.72	55716.45
578.88	55767.94
579.04	56172.86
579.21	56278.18
579.37	55887.31
579.53	56226.69
579.69	56030.08
579.85	56364.78
580.01	56046.47
580.17	55681.34
580.33	55618.15
580.49	55704.75
580.65	56119.02
580.82	56313.29
580.98	56128.39
581.14	55985.61
581.30	56025.40
581.46	55894.33
581.62	56303.93
581.78	55920.08
581.94	56523.94
582.10	56086.26
582.26	56573.09
582.42	56339.04
582.58	56404.57
582.74	56523.94
582.90	56175.20
583.06	56413.93
583.22	56011.36
583.38	55800.71
583.54	55950.51
583.70	55859.23
583.86	55978.59
584.02	55774.97
584.18	55891.99
584.34	56011.36
584.50	55922.42
584.66	55578.36
584.82	55466.02
584.98	55276.43
585.14	54815.35
585.30	54370.64
