SpectraSuite Data File
++++++++++++++++++++++++++++++++++++
Date: Mon Oct 07 14:53:05 GMT-05:00 2013
User: price-jones
Dark Spectrum Present: No
Reference Spectrum Present: No
Number of Sampled Component Spectra: 1
Spectrometers: USB2+H05261
Integration Time (usec): 100000 (USB2+H05261)
Spectra Averaged: 1 (USB2+H05261)
Boxcar Smoothing: 0 (USB2+H05261)
Correct for Electrical Dark: No (USB2+H05261)
Strobe/Lamp Enabled: No (USB2+H05261)
Correct for Detector Non-linearity: No (USB2+H05261)
Correct for Stray Light: No (USB2+H05261)
Number of Pixels in Processed Spectrum: 2048
>>>>>Begin Processed Spectral Data<<<<<
365.73	0.00
365.92	0.00
366.12	0.00
366.32	0.00
366.52	0.00
366.72	0.00
366.91	0.00
367.11	0.00
367.31	0.00
367.51	0.00
367.70	0.00
367.90	0.00
368.10	0.00
368.30	0.00
368.49	0.00
368.69	0.00
368.89	0.00
369.09	0.00
369.28	0.00
369.48	0.00
369.68	0.00
369.87	0.00
370.07	0.00
370.27	0.00
370.47	430.66
370.66	2635.44
370.86	3084.83
371.06	3522.51
371.25	3679.32
371.45	3169.09
371.65	2995.89
371.84	2609.70
372.04	2729.06
372.24	3126.96
372.44	3417.18
372.63	3269.73
372.83	3021.63
373.03	2616.72
373.22	2506.71
373.42	2572.25
373.62	3038.02
373.81	3225.26
374.01	3173.77
374.21	2928.01
374.40	2745.45
374.60	2801.62
374.79	3229.94
374.99	3808.05
375.19	4053.81
375.38	4086.58
375.58	3655.92
375.78	3632.51
375.97	3763.58
376.17	3873.59
376.37	3868.91
376.56	4046.79
376.76	4285.52
376.95	4463.40
377.15	4840.23
377.35	5008.75
377.54	5160.88
377.74	5359.83
377.93	5294.29
378.13	5095.35
378.33	5055.56
378.52	4587.45
378.72	4386.16
378.91	4306.59
379.11	4229.35
379.31	3925.08
379.50	4086.58
379.70	4348.72
379.89	4877.68
380.09	5048.54
380.28	5425.36
380.48	5219.39
380.68	5043.85
380.87	5163.22
381.07	4662.35
381.26	4311.27
381.46	4056.15
381.65	3866.56
381.85	3892.31
382.04	3639.53
382.24	3475.70
382.43	3232.28
382.63	3098.87
382.83	3033.33
383.02	3222.92
383.22	3094.19
383.41	3129.30
383.61	3463.99
383.80	3967.21
384.00	4367.44
384.19	4912.78
384.39	5329.40
384.58	5284.93
384.78	5081.30
384.97	5050.88
385.17	4847.25
385.36	4620.22
385.56	4482.13
385.75	4491.49
385.95	4896.40
386.14	5352.81
386.34	5277.91
386.53	5130.45
386.72	4739.58
386.92	4922.15
387.11	5170.24
387.31	5289.61
387.50	5383.23
387.70	4966.62
387.89	5060.24
388.09	4985.34
388.28	5149.18
388.48	5018.11
388.67	5668.78
388.86	6106.46
389.06	6544.14
389.25	6995.86
389.45	7059.06
389.64	7049.69
389.84	6780.53
390.03	6876.49
390.22	6860.11
390.42	7176.08
390.61	7494.40
390.81	7859.52
391.00	8119.32
391.19	8084.21
391.39	7625.47
391.58	7089.48
391.78	6904.58
391.97	6693.93
392.16	6230.51
392.36	5748.36
392.55	4542.98
392.75	3665.28
392.94	2895.24
393.13	2991.20
393.33	3442.93
393.52	4538.30
393.71	5633.67
393.91	6370.94
394.10	6743.08
394.29	7405.46
394.49	7887.61
394.68	8552.32
394.88	8514.87
395.07	8659.98
395.26	8575.72
395.46	8301.88
395.65	7908.67
395.84	7023.95
396.04	5893.47
396.23	4793.42
396.42	4056.15
396.62	3857.20
396.81	4545.32
397.00	5757.72
397.19	7372.69
397.39	8748.92
397.58	9696.84
397.77	10237.50
397.97	10679.86
398.16	10654.12
398.35	11087.12
398.55	11396.07
398.74	11978.86
398.93	12058.44
399.12	11822.05
399.32	11426.50
399.51	11880.56
399.70	12418.88
399.90	12355.69
400.09	12641.23
400.28	12131.00
400.47	12283.13
400.67	12973.59
400.86	13387.86
401.05	13535.32
401.24	13434.68
401.44	13619.58
401.63	13650.00
401.82	13710.86
402.01	13668.73
402.21	14162.58
402.40	14015.13
402.59	13696.82
402.78	12884.65
402.97	12498.46
403.17	12985.29
403.36	14031.51
403.55	14728.99
403.74	14794.53
403.93	13926.19
404.13	12830.82
404.32	12666.98
404.51	13167.85
404.70	14333.44
404.89	14188.33
405.09	13989.38
405.28	13879.38
405.47	13640.64
405.66	13331.69
405.85	13249.77
406.05	12865.92
406.24	12992.31
406.43	13635.96
406.62	13996.40
406.81	14391.95
407.00	13926.19
407.20	13401.91
407.39	13544.68
407.58	14120.45
407.77	14408.34
407.96	15159.65
408.15	15171.35
408.34	15365.62
408.54	15943.73
408.73	15791.59
408.92	16053.73
409.11	15489.67
409.30	14860.06
409.49	13827.88
409.68	12992.31
409.87	12346.33
410.07	13432.33
410.26	14567.49
410.45	15454.56
410.64	15667.55
410.83	16030.33
411.02	16711.42
411.21	17224.00
411.40	17188.89
411.59	16786.32
411.78	16769.94
411.98	16465.67
412.17	17025.06
412.36	16947.82
412.55	16704.40
412.74	16259.70
412.93	15939.05
413.12	16465.67
413.31	17778.71
413.50	17584.44
413.69	18134.47
413.88	17366.78
414.07	16699.72
414.26	17352.73
414.45	17689.77
414.64	18235.11
414.83	18300.65
415.02	17436.99
415.22	17715.51
415.41	17970.63
415.60	18256.18
415.79	19367.93
415.98	19775.19
416.17	19831.36
416.36	18951.32
416.55	19087.07
416.74	18106.38
416.93	17706.15
417.12	17687.43
417.31	18101.70
417.50	18328.74
417.69	18925.57
417.88	18670.45
418.07	18703.22
418.26	18520.66
418.45	18373.21
418.64	19110.47
418.83	19807.95
419.02	19683.91
419.21	19508.37
419.39	18703.22
419.58	17591.47
419.77	17668.70
419.96	18609.60
420.15	19491.98
420.34	20135.63
420.53	20938.43
420.72	21102.27
420.91	21303.56
421.10	20760.55
421.29	20369.68
421.48	20032.65
421.67	20957.16
421.86	20390.75
422.05	18860.04
422.24	16807.39
422.43	16915.05
422.61	18927.91
422.80	20023.28
422.99	19908.60
423.18	19367.93
423.37	19103.45
423.56	18768.76
423.75	19566.88
423.94	19782.21
424.13	18991.11
424.32	18838.97
424.50	19206.44
424.69	18745.35
424.88	18904.51
425.07	18890.46
425.26	18675.13
425.45	18403.63
425.64	18335.76
425.83	18396.61
426.01	19775.19
426.20	19756.46
426.39	19489.64
426.58	18293.63
426.77	16751.21
426.96	16105.23
427.15	16821.43
427.33	18258.52
427.52	19283.67
427.71	19049.62
427.90	18684.50
428.09	18459.81
428.28	18202.35
428.46	17891.06
428.65	17420.61
428.84	17591.47
429.03	18202.35
429.22	17011.01
429.40	16074.80
429.59	14724.31
429.78	13081.25
429.97	13144.45
430.16	13514.25
430.34	13284.88
430.53	13242.75
430.72	13900.44
430.91	15199.44
431.10	17600.83
431.28	21041.42
431.47	22593.19
431.66	23077.68
431.85	20482.03
432.03	18712.58
432.22	18305.33
432.41	19204.10
432.60	20978.22
432.79	21790.39
432.97	22511.27
433.16	21968.27
433.35	19964.77
433.54	17579.76
433.72	16786.32
433.91	17525.93
434.10	19669.86
434.28	21069.50
434.47	22127.42
434.66	21685.06
434.85	21177.17
435.03	21137.38
435.22	21706.13
435.41	22890.44
435.59	22799.16
435.78	23133.86
435.97	23798.57
436.16	23674.52
436.34	23683.88
436.53	23087.04
436.72	23311.74
436.90	21905.07
437.09	21940.18
437.28	21383.13
437.46	22178.92
437.65	22150.83
437.84	20613.10
438.02	18707.90
438.21	18995.79
438.40	20189.46
438.58	21762.30
438.77	22120.40
438.96	22553.40
439.14	23611.32
439.33	23707.29
439.52	24400.08
439.70	23644.09
439.89	22899.80
440.08	22661.07
440.26	22845.97
440.45	23545.79
440.63	24886.92
440.82	25809.09
441.01	25659.29
441.19	25575.03
441.38	25666.31
441.57	26644.66
441.75	27402.99
441.94	27323.41
442.12	26869.35
442.31	27517.68
442.50	27407.67
442.68	27257.88
442.87	26881.05
443.05	26426.99
443.24	27021.48
443.43	27410.01
443.61	28123.88
443.80	28247.93
443.98	26927.86
444.17	27112.77
444.35	28301.76
444.54	28783.91
444.73	28196.43
444.91	27087.02
445.10	26506.57
445.28	25083.52
445.47	24805.00
445.65	24669.25
445.84	25289.49
446.02	26906.80
446.21	27019.14
446.39	26984.04
446.58	27182.98
446.77	28252.61
446.95	28072.39
447.14	28914.98
447.32	29221.59
447.51	28247.93
447.69	27419.38
447.88	27278.94
448.06	28063.02
448.25	28194.09
448.43	28294.74
448.62	27824.29
448.80	28074.73
448.99	27990.47
449.17	28112.17
449.36	28238.56
449.54	29369.04
449.73	29567.99
449.91	29968.22
450.10	30937.20
450.28	31363.18
450.46	31084.65
450.65	31108.06
450.83	30829.54
451.02	30122.69
451.20	29933.11
451.39	29759.91
451.57	29425.22
451.76	29982.26
451.94	29514.16
452.13	29230.95
452.31	27742.37
452.49	26742.96
452.68	26726.58
452.86	26757.00
453.05	27311.71
453.23	27997.49
453.42	28748.80
453.60	29277.76
453.78	29865.24
453.97	29493.09
454.15	28964.13
454.34	28739.44
454.52	28903.28
454.70	28732.42
454.89	28615.39
455.07	28704.33
455.26	29109.24
455.44	30010.35
455.62	30857.62
455.81	30906.77
455.99	30808.47
456.17	30817.83
456.36	30899.75
456.54	31580.85
456.73	31475.52
456.91	31732.98
457.09	32229.18
457.28	32535.79
457.46	31407.65
457.64	31236.79
457.83	30380.15
458.01	29677.99
458.19	30284.19
458.38	30387.18
458.56	31515.31
458.74	31108.06
458.93	30768.68
459.11	30518.25
459.29	30375.47
459.48	30726.55
459.66	30602.50
459.84	31164.23
460.03	31550.42
460.21	31047.21
460.39	32196.41
460.57	31976.40
460.76	32610.68
460.94	32477.27
461.12	31868.73
461.31	32240.88
461.49	31866.39
461.67	32395.35
461.85	33273.06
462.04	32788.56
462.22	33518.81
462.40	33181.77
462.59	32924.32
462.77	32989.85
462.95	33109.22
463.13	32624.73
463.32	32418.76
463.50	31983.42
463.68	32287.69
463.86	32470.25
464.05	31517.65
464.23	30796.77
464.41	30937.20
464.59	30333.34
464.78	31674.47
464.96	31426.37
465.14	31845.33
465.32	32301.73
465.50	33237.95
465.69	33282.42
465.87	32570.90
466.05	31587.87
466.23	30326.32
466.41	29591.39
466.60	30497.18
466.78	30895.07
466.96	31299.98
467.14	31665.11
467.32	32254.92
467.51	32194.07
467.69	30614.21
467.87	31339.77
468.05	32273.65
468.23	32278.33
468.41	31960.02
468.60	31974.06
468.78	32346.20
468.96	31498.93
469.14	33102.20
469.32	32430.46
469.50	31084.65
469.69	31779.79
469.87	30878.69
470.05	30981.67
470.23	30876.35
470.41	31110.40
470.59	31290.62
470.77	31625.32
470.95	32299.39
471.14	32849.42
471.32	32648.13
471.50	34309.91
471.68	34448.00
471.86	35363.15
472.04	35129.10
472.22	35227.40
472.40	33228.59
472.58	33329.23
472.77	32966.45
472.95	33343.27
473.13	34462.05
473.31	33340.93
473.49	33743.50
473.67	34120.33
473.85	34574.39
474.03	35566.78
474.21	35592.53
474.39	35908.50
474.57	35999.78
474.75	36561.51
474.93	35735.30
475.12	34927.81
475.30	34630.57
475.48	35211.02
475.66	35838.28
475.84	35480.18
476.02	35093.99
476.20	34590.78
476.38	35086.97
476.56	36631.72
476.74	36671.51
476.92	36903.23
477.10	37425.17
477.28	38249.03
477.46	38862.26
477.64	38696.08
477.82	38705.44
478.00	38927.79
478.18	38447.98
478.36	38087.54
478.54	38174.14
478.72	39009.71
478.90	39545.69
479.08	40383.60
479.26	41230.88
479.44	40781.49
479.62	40910.22
479.80	40601.27
479.98	40814.26
480.16	41310.46
480.34	40753.41
480.52	41270.67
480.70	41567.91
480.88	42314.55
481.06	42562.64
481.24	42682.01
481.41	43409.92
481.59	43686.10
481.77	43674.40
481.95	43037.77
482.13	43009.68
482.31	43456.73
482.49	43969.30
482.67	43728.23
482.85	43859.30
483.03	44701.89
483.21	44758.06
483.39	44844.66
483.57	44484.22
483.74	43449.70
483.92	44266.55
484.10	44406.98
484.28	44982.76
484.46	45354.90
484.64	46302.82
484.82	44921.90
485.00	44353.15
485.18	43856.96
485.35	42693.71
485.53	38965.24
485.71	35988.08
485.89	35842.96
486.07	37715.39
486.25	40999.16
486.43	42937.13
486.61	44013.77
486.78	43346.72
486.96	43688.44
487.14	45549.17
487.32	46389.42
487.50	47646.29
487.68	48336.74
487.85	48931.24
488.03	48973.37
488.21	48233.76
488.39	47398.19
488.57	47026.04
488.75	46920.72
488.92	48032.47
489.10	49961.08
489.28	51571.36
489.46	52254.80
489.64	52093.30
489.81	52388.21
489.99	51758.61
490.17	52018.41
490.35	52364.81
490.53	51842.87
490.70	51367.74
490.88	51452.00
491.06	52610.56
491.24	52334.38
491.41	50974.53
491.59	49270.62
491.77	48797.83
491.95	49902.56
492.13	51089.21
492.30	52758.02
492.48	53551.46
492.66	54042.97
492.84	53886.15
493.01	53710.61
493.19	52907.81
493.37	52535.66
493.54	52222.03
493.72	53209.74
493.90	54099.14
494.08	54976.84
494.25	55253.03
494.43	55405.16
494.61	55812.41
494.79	55936.46
494.96	55592.40
495.14	54948.76
495.32	54049.99
495.49	53205.06
495.67	54536.82
495.85	55971.57
496.02	56222.01
496.20	55955.19
496.38	55384.10
496.55	55693.05
496.73	56151.79
496.91	56332.01
497.09	56685.43
497.26	56985.02
497.44	56294.56
497.62	55657.94
497.79	54951.10
497.97	53851.05
498.14	53968.07
498.32	55128.98
498.50	56133.07
498.67	56914.81
498.85	56406.91
499.03	56694.80
499.20	56708.84
499.38	57034.17
499.56	56683.09
499.73	56259.46
499.91	55910.72
500.08	55489.42
500.26	54904.29
500.44	55131.32
500.61	55854.54
500.79	55650.92
500.97	55217.92
501.14	55194.51
501.32	55096.21
501.49	54817.69
501.67	55213.24
501.84	55868.59
502.02	55955.19
502.20	56619.90
502.37	56530.96
502.55	56767.35
502.72	57139.50
502.90	57432.07
503.07	57205.03
503.25	56828.21
503.43	56151.79
503.60	55346.65
503.78	54681.94
503.95	55370.05
504.13	56722.88
504.30	57401.64
504.48	57071.62
504.65	56783.74
504.83	57104.39
505.01	57602.92
505.18	57977.41
505.36	58576.59
505.53	58356.58
505.71	58649.14
505.88	58836.39
506.06	58056.99
506.23	57736.34
506.41	57558.45
506.58	57673.14
506.76	57560.79
506.93	57509.30
507.11	57432.07
507.28	57595.90
507.46	57132.48
507.63	56484.15
507.81	56222.01
507.98	56692.46
508.16	57183.97
508.33	57705.91
508.50	58241.89
508.68	58443.18
508.85	58955.75
509.03	58724.04
509.20	58642.12
509.38	58176.36
509.55	57413.34
509.73	57502.28
509.90	57881.45
510.08	58197.42
510.25	58003.16
510.42	57797.19
510.60	57961.03
510.77	58204.44
510.95	58623.40
511.12	58812.98
511.30	59096.19
511.47	59281.09
511.64	59168.74
511.82	58728.72
511.99	57984.43
512.17	57710.59
512.34	57446.11
512.51	57528.03
512.69	57584.20
512.86	57769.10
513.04	58197.42
513.21	58195.08
513.38	57876.77
513.56	57305.68
513.73	56652.67
513.90	56830.55
514.08	57031.83
514.25	57247.16
514.43	57696.55
514.60	57619.31
514.77	57712.93
514.95	58017.20
515.12	57946.98
515.29	58059.33
515.47	58527.44
515.64	58869.15
515.81	58391.68
515.99	57797.19
516.16	56493.51
516.33	53970.41
516.51	52622.26
516.68	51732.86
516.85	51086.87
517.03	52074.58
517.20	54630.44
517.37	57298.65
517.54	58031.24
517.72	57462.49
517.89	55110.25
518.06	52545.03
518.24	53146.54
518.41	55400.48
518.58	56559.05
518.75	56924.17
518.93	56949.92
519.10	56816.50
519.27	57322.06
519.45	57558.45
519.62	58206.78
519.79	58651.48
519.96	58398.71
520.14	57946.98
520.31	56893.74
520.48	56914.81
520.65	57460.15
520.83	58543.82
521.00	58719.36
521.17	58382.32
521.34	58054.65
521.52	58265.30
521.69	58885.54
521.86	59311.52
522.03	58841.07
522.20	57736.34
522.38	56647.99
522.55	56875.02
522.72	57677.82
522.89	57387.60
523.07	57766.76
523.24	58199.76
523.41	58901.92
523.58	59047.04
523.75	59409.82
523.92	59248.32
524.10	59402.80
524.27	59299.81
524.44	59063.42
524.61	59208.53
524.78	58859.79
524.96	58714.68
525.13	58855.11
525.30	59075.12
525.47	59695.36
525.64	59498.76
525.81	58595.31
525.98	57382.91
526.16	55693.05
526.33	55262.39
526.50	54974.50
526.67	54632.78
526.84	55126.64
527.01	56397.55
527.18	56963.96
527.36	57956.35
527.53	58922.99
527.70	58761.49
527.87	58454.88
528.04	58092.10
528.21	58436.16
528.38	59030.65
528.55	59700.04
528.72	60016.02
528.89	60170.49
529.07	59765.58
529.24	59152.36
529.41	58665.53
529.58	57902.51
529.75	58143.59
529.92	58361.26
530.09	59161.72
530.26	59454.29
530.43	59540.89
530.60	59664.94
530.77	59781.96
530.94	60154.11
531.11	59482.37
531.28	59419.18
531.46	59107.89
531.63	59274.07
531.80	59021.29
531.97	58621.06
532.14	57904.85
532.31	56823.53
532.48	56273.50
532.65	56360.10
532.82	57235.46
532.99	58309.77
533.16	58574.25
533.33	59084.48
533.50	59044.69
533.67	58169.33
533.84	57907.19
534.01	58211.46
534.18	58330.83
534.35	58349.56
534.52	58471.26
534.69	58693.61
534.86	58796.60
535.03	59173.42
535.20	59683.66
535.37	60116.66
535.54	60086.23
535.71	59796.01
535.88	59360.67
536.05	58719.36
536.22	58340.19
536.38	58045.29
536.55	57382.91
536.72	56994.39
536.89	57205.03
537.06	57860.38
537.23	58951.07
537.40	58955.75
537.57	59004.91
537.74	58621.06
537.91	58724.04
538.08	58670.21
538.25	58653.82
538.42	59004.91
538.59	58749.79
538.75	57869.75
538.92	57989.11
539.09	57790.17
539.26	57621.65
539.43	57427.38
539.60	57371.21
539.77	57785.49
539.94	57345.47
540.11	56673.73
540.28	56406.91
540.44	56505.21
540.61	56671.39
540.78	56844.59
540.95	57446.11
541.12	57675.48
541.29	57818.25
541.46	58061.67
541.62	58164.65
541.79	58108.48
541.96	57492.92
542.13	57785.49
542.30	57759.74
542.47	58031.24
542.63	57738.68
542.80	57567.82
542.97	57532.71
543.14	57523.35
543.31	57542.07
543.48	58211.46
543.64	58885.54
543.81	59040.01
543.98	58834.05
544.15	58176.36
544.32	57757.40
544.48	57684.84
544.65	58216.14
544.82	58574.25
544.99	58059.33
545.16	57890.81
545.32	57633.35
545.49	58475.94
545.66	58810.64
545.83	58295.72
546.00	57970.39
546.16	57687.18
546.33	57851.02
546.50	57989.11
546.67	58237.21
546.83	58040.60
547.00	57661.44
547.17	57160.56
547.34	56762.67
547.50	56720.54
547.67	57130.14
547.84	57057.58
548.00	57490.58
548.17	57986.77
548.34	57766.76
548.51	58019.54
548.67	57783.15
548.84	57968.05
549.01	57705.91
549.18	57937.62
549.34	57907.19
549.51	57918.90
549.68	57628.67
549.84	57584.20
550.01	57308.02
550.18	57034.17
550.34	57457.81
550.51	57366.53
550.68	57478.88
550.84	56989.70
551.01	57116.09
551.18	57186.31
551.34	57268.23
551.51	57771.44
551.68	57813.57
551.84	57928.26
552.01	57638.03
552.18	57457.81
552.34	56603.52
552.51	56488.83
552.68	56502.87
552.84	57001.41
553.01	56980.34
553.18	57256.53
553.34	57247.16
553.51	57380.57
553.67	57322.06
553.84	57652.08
554.01	57406.32
554.17	57319.72
554.34	57212.06
554.51	57476.54
554.67	58040.60
554.84	57710.59
555.00	57373.55
555.17	57270.57
555.33	57176.95
555.50	57261.21
555.67	57167.58
555.83	56924.17
556.00	56617.56
556.16	56765.01
556.33	56175.20
556.50	56156.47
556.66	56250.09
556.83	55847.52
556.99	55987.95
557.16	56353.08
557.32	56362.44
557.49	56528.62
557.65	56666.71
557.82	56587.13
557.98	56238.39
558.15	56041.79
558.32	55056.42
558.48	54377.67
558.65	54637.47
558.81	54880.88
558.98	55143.02
559.14	55444.95
559.31	55494.10
559.47	55363.03
559.64	55318.56
559.80	54974.50
559.97	55002.59
560.13	55547.93
560.30	56093.28
560.46	56746.29
560.63	57109.07
560.79	56741.61
560.96	56488.83
561.12	55449.63
561.29	54768.54
561.45	54506.40
561.61	55121.96
561.78	55845.18
561.94	55358.35
562.11	55414.52
562.27	55262.39
562.44	55884.97
562.60	55877.95
562.77	56142.43
562.93	55955.19
563.10	55875.61
563.26	55339.63
563.42	55426.23
563.59	55253.03
563.75	55515.17
563.92	55262.39
564.08	55430.91
564.24	55884.97
564.41	55473.04
564.57	55655.60
564.74	55269.41
564.90	54990.89
565.07	55091.53
565.23	54534.48
565.39	54190.42
565.56	54019.56
565.72	53769.13
565.88	53771.47
566.05	53991.48
566.21	54354.26
566.38	54403.41
566.54	54677.25
566.70	55072.81
566.87	55084.51
567.03	55234.30
567.19	55468.36
567.36	55222.60
567.52	55121.96
567.68	54721.72
567.85	53968.07
568.01	53872.11
568.17	53439.11
568.34	53481.24
568.50	53528.05
568.66	53553.80
568.83	53968.07
568.99	53818.28
569.15	54110.85
569.32	54384.69
569.48	53907.22
569.64	53598.27
569.81	53455.50
569.97	53600.61
570.13	53375.92
570.30	52715.89
570.46	52547.37
570.62	51980.96
570.78	51868.61
570.95	52086.28
571.11	53015.47
571.27	52919.51
571.43	53207.40
571.60	53436.77
571.76	53703.59
571.92	54014.88
572.09	53848.71
572.25	53991.48
572.41	54096.80
572.57	53876.79
572.74	53829.98
572.90	53366.55
573.06	53619.33
573.22	53595.93
573.38	53446.13
573.55	53387.62
573.71	53460.18
573.87	53174.63
574.03	53352.51
574.20	53289.32
574.36	53256.55
574.52	53050.58
574.68	52596.52
574.84	52030.11
575.01	51922.44
575.17	52086.28
575.33	52182.24
575.49	52608.22
575.65	52453.75
575.82	52065.22
575.98	51763.29
576.14	52271.18
576.30	52821.21
576.46	52502.90
576.62	52816.53
576.79	52493.54
576.95	52062.88
577.11	52041.81
577.27	52388.21
577.43	52498.22
577.59	51700.09
577.75	51199.22
577.92	50890.27
578.08	50529.83
578.24	50782.60
578.40	51014.32
578.56	51068.15
578.72	51442.63
578.88	51803.08
579.04	51859.25
579.21	52051.17
579.37	52076.92
579.53	51903.72
579.69	52088.62
579.85	52030.11
580.01	52135.43
580.17	51381.78
580.33	51449.66
580.49	51473.06
580.65	51716.48
580.82	52018.41
580.98	51987.98
581.14	51849.89
581.30	51859.25
581.46	51515.19
581.62	52093.30
581.78	51931.81
581.94	52086.28
582.10	52369.49
582.26	52320.34
582.42	52224.37
582.58	52348.42
582.74	52079.26
582.90	52034.79
583.06	52207.99
583.22	51962.23
583.38	51873.29
583.54	51753.93
583.70	51543.28
583.86	51987.98
584.02	51821.80
584.18	51882.66
584.34	51522.21
584.50	51723.50
584.66	51386.46
584.82	50759.20
584.98	50871.54
585.14	50471.31
585.30	49975.12
