SpectraSuite Data File
++++++++++++++++++++++++++++++++++++
Date: Mon Oct 07 14:52:57 GMT-05:00 2013
User: price-jones
Dark Spectrum Present: No
Reference Spectrum Present: No
Number of Sampled Component Spectra: 1
Spectrometers: USB2+H05261
Integration Time (usec): 100000 (USB2+H05261)
Spectra Averaged: 1 (USB2+H05261)
Boxcar Smoothing: 0 (USB2+H05261)
Correct for Electrical Dark: No (USB2+H05261)
Strobe/Lamp Enabled: No (USB2+H05261)
Correct for Detector Non-linearity: No (USB2+H05261)
Correct for Stray Light: No (USB2+H05261)
Number of Pixels in Processed Spectrum: 2048
>>>>>Begin Processed Spectral Data<<<<<
365.73	0.00
365.92	0.00
366.12	0.00
366.32	0.00
366.52	0.00
366.72	0.00
366.91	0.00
367.11	0.00
367.31	0.00
367.51	0.00
367.70	0.00
367.90	0.00
368.10	0.00
368.30	0.00
368.49	0.00
368.69	0.00
368.89	0.00
369.09	0.00
369.28	0.00
369.48	0.00
369.68	0.00
369.87	0.00
370.07	0.00
370.27	0.00
370.47	573.43
370.66	2565.23
370.86	3136.32
371.06	3485.06
371.25	3410.16
371.45	3138.66
371.65	2801.62
371.84	2602.68
372.04	2818.00
372.24	3096.53
372.44	3178.45
372.63	3166.74
372.83	2883.54
373.03	2614.38
373.22	2324.15
373.42	2551.18
373.62	2862.48
373.81	3052.06
374.01	3098.87
374.21	2796.94
374.40	2595.65
374.60	2853.11
374.79	2972.48
374.99	3672.30
375.19	3843.16
375.38	3854.86
375.58	3613.79
375.78	3667.62
375.97	3503.78
376.17	3920.40
376.37	3679.32
376.56	3957.85
376.76	4154.45
376.95	4351.06
377.15	4620.22
377.35	4765.33
377.54	5041.51
377.74	5146.84
377.93	5015.77
378.13	4903.42
378.33	4798.10
378.52	4414.25
378.72	4285.52
378.91	4135.73
379.11	4131.05
379.31	3906.35
379.50	3925.08
379.70	4194.24
379.89	4627.24
380.09	4858.95
380.28	5053.22
380.48	5032.15
380.68	4973.64
380.87	4898.74
381.07	4517.23
381.26	4100.62
381.46	3829.12
381.65	3674.64
381.85	3613.79
382.04	3466.33
382.24	3145.68
382.43	3243.98
382.63	2862.48
382.83	3047.38
383.02	2981.84
383.22	3077.80
383.41	3197.17
383.61	3328.24
383.80	3803.37
384.00	4374.46
384.19	4908.10
384.39	5048.54
384.58	5081.30
384.78	4908.10
384.97	4807.46
385.17	4730.22
385.36	4386.16
385.56	4299.56
385.75	4255.09
385.95	4873.00
386.14	5163.22
386.34	5200.67
386.53	5018.11
386.72	4777.03
386.92	4777.03
387.11	4947.89
387.31	5289.61
387.50	5226.42
387.70	4971.30
387.89	4758.31
388.09	4922.15
388.28	4994.70
388.48	5088.32
388.67	5224.08
388.86	5919.21
389.06	6520.73
389.25	6860.11
389.45	6780.53
389.64	6679.89
389.84	6569.88
390.03	6469.24
390.22	6785.21
390.42	6796.92
390.61	7377.37
390.81	7735.47
391.00	7852.50
391.19	7803.35
391.39	7494.40
391.58	6970.12
391.78	6712.66
391.97	6473.92
392.16	5909.85
392.36	5364.51
392.55	4311.27
392.75	3510.80
392.94	2799.28
393.13	2818.00
393.33	3449.95
393.52	4276.16
393.71	5270.89
393.91	5961.34
394.10	6363.92
394.29	7045.01
394.49	7522.48
394.68	8252.73
394.88	8215.28
395.07	8788.71
395.26	8388.48
395.46	8100.59
395.65	7810.37
395.84	6731.38
396.04	5750.70
396.23	4699.80
396.42	3845.50
396.62	3838.48
396.81	4519.57
397.00	5671.12
397.19	7009.90
397.39	8269.11
397.58	9373.85
397.77	10061.96
397.97	10214.10
398.16	10466.88
398.35	10665.82
398.55	10918.60
398.74	11367.98
398.93	11690.98
399.12	11562.25
399.32	11234.57
399.51	11517.78
399.70	12416.54
399.90	12077.16
400.09	11999.93
400.28	11967.16
400.47	11922.69
400.67	12681.02
400.86	12901.03
401.05	13027.42
401.24	13050.83
401.44	13067.21
401.63	13212.32
401.82	13282.54
402.01	12952.52
402.21	13275.52
402.40	13509.57
402.59	13090.62
402.78	12535.91
402.97	12381.43
403.17	12844.86
403.36	13282.54
403.55	13771.71
403.74	14228.12
403.93	13593.83
404.13	12662.30
404.32	12119.29
404.51	12807.41
404.70	13937.89
404.89	13767.03
405.09	13642.98
405.28	13205.30
405.47	12978.27
405.66	13317.65
405.85	12821.45
406.05	12496.12
406.24	12833.16
406.43	13053.17
406.62	13783.41
406.81	13694.47
407.00	13090.62
407.20	13088.28
407.39	13107.00
407.58	13731.92
407.77	14155.56
407.96	14773.46
408.15	14909.21
408.34	15023.90
408.54	15587.97
408.73	15925.00
408.92	15351.57
409.11	14995.81
409.30	14188.33
409.49	13483.83
409.68	12622.51
409.87	12341.64
410.07	13123.38
410.26	14038.53
410.45	14792.19
410.64	15393.70
410.83	15737.76
411.02	16170.76
411.21	16744.19
411.40	16491.41
411.59	16451.63
411.78	16519.50
411.98	16369.71
412.17	16531.20
412.36	16278.43
412.55	16140.33
412.74	15925.00
412.93	15253.27
413.12	15805.64
413.31	17219.32
413.50	17495.50
413.69	17387.84
413.88	17109.32
414.07	16578.01
414.26	16610.78
414.45	17256.77
414.64	17497.84
414.83	17322.30
415.02	17083.57
415.22	16936.12
415.41	17413.59
415.60	17972.97
415.79	18731.31
415.98	19016.85
416.17	19246.23
416.36	18841.31
416.55	18298.31
416.74	17525.93
416.93	17158.47
417.12	17163.15
417.31	17551.68
417.50	17521.25
417.69	18312.35
417.88	18295.97
418.07	18129.79
418.26	17722.54
418.45	17898.08
418.64	18686.84
418.83	19396.02
419.02	19070.68
419.21	18548.75
419.39	18043.19
419.58	17312.94
419.77	17483.80
419.96	17841.90
420.15	18881.10
420.34	19899.23
420.53	20180.10
420.72	20538.20
420.91	20266.70
421.10	19950.73
421.29	19880.51
421.48	19756.46
421.67	20219.89
421.86	19637.09
422.05	18171.92
422.24	16503.12
422.43	16442.26
422.61	18104.04
422.80	19403.04
422.99	19707.31
423.18	18927.91
423.37	18176.60
423.56	18434.06
423.75	18991.11
423.94	19452.19
424.13	18412.99
424.32	18356.82
424.50	18295.97
424.69	18050.21
424.88	18384.91
425.07	18249.16
425.26	18221.07
425.45	17961.27
425.64	17844.24
425.83	17820.84
426.01	18794.50
426.20	19152.60
426.39	19255.59
426.58	17617.21
426.77	16278.43
426.96	15695.63
427.15	16610.78
427.33	17694.45
427.52	18228.09
427.71	18310.01
427.90	18169.58
428.09	18342.78
428.28	17802.11
428.46	17212.30
428.65	17001.65
428.84	17240.39
429.03	17544.66
429.22	16994.63
429.40	15726.06
429.59	14331.10
429.78	12620.17
429.97	12760.60
430.16	12758.26
430.34	13060.19
430.53	12830.82
430.72	13329.35
430.91	15037.94
431.10	17481.46
431.28	20365.00
431.47	21961.25
431.66	22129.77
431.85	19843.06
432.03	18483.21
432.22	17788.07
432.41	18757.05
432.60	20643.52
432.79	21364.41
432.97	21818.47
433.16	21579.74
433.35	19342.19
433.54	17329.33
433.72	16470.35
433.91	17219.32
434.10	18897.49
434.28	20538.20
434.47	21525.91
434.66	21106.95
434.85	20849.49
435.03	20479.69
435.22	21006.31
435.41	22190.62
435.59	22246.79
435.78	22656.39
435.97	23435.78
436.16	23197.05
436.34	22738.30
436.53	22087.64
436.72	22860.01
436.90	21434.63
437.09	21308.24
437.28	20809.70
437.46	21610.17
437.65	21378.45
437.84	19882.85
438.02	18595.56
438.21	18469.17
438.40	19208.78
438.58	21263.77
438.77	21720.17
438.96	22204.66
439.14	22911.50
439.33	23061.30
439.52	23784.52
439.70	23150.24
439.89	22429.35
440.08	21919.12
440.26	21715.49
440.45	22948.95
440.63	24236.25
440.82	25205.23
441.01	25015.65
441.19	24938.41
441.38	25139.69
441.57	25986.97
441.75	26438.69
441.94	26682.11
442.12	26553.38
442.31	26782.75
442.50	26885.73
442.68	26560.40
442.87	26129.74
443.05	26071.23
443.24	26490.18
443.43	27089.36
443.61	27538.74
443.80	27885.14
443.98	26136.76
444.17	26197.62
444.35	27424.06
444.54	28224.52
444.73	27644.07
444.91	26773.39
445.10	25979.95
445.28	24500.73
445.47	24060.71
445.65	24470.30
445.84	24709.04
446.02	25855.90
446.21	26146.12
446.39	26295.92
446.58	26785.09
446.77	27192.34
446.95	27023.83
447.14	28451.55
447.32	28917.32
447.51	27587.89
447.69	26841.26
447.88	26665.72
448.06	27274.26
448.25	27857.06
448.43	27924.93
448.62	27388.95
448.80	27166.60
448.99	27218.09
449.17	27725.99
449.36	27534.06
449.54	28634.11
449.73	28950.09
449.91	29521.18
450.10	30342.70
450.28	30604.84
450.46	30527.61
450.65	30260.79
450.83	29780.98
451.02	29542.24
451.20	29434.58
451.39	29362.02
451.57	29507.13
451.76	29305.85
451.94	29062.43
452.13	28348.57
452.31	26991.06
452.49	26221.02
452.68	26281.88
452.86	26239.75
453.05	27040.21
453.23	27718.96
453.42	28201.11
453.60	28554.54
453.78	28950.09
453.97	28748.80
454.15	28966.47
454.34	28105.15
454.52	28123.88
454.70	27489.59
454.89	27772.80
455.07	28065.36
455.26	29130.31
455.44	30089.93
455.62	30349.73
455.81	30040.78
455.99	30136.74
456.17	29635.86
456.36	30108.65
456.54	30731.23
456.73	30441.01
456.91	31304.67
457.09	31459.14
457.28	31831.29
457.46	30689.10
457.64	30752.30
457.83	29455.64
458.01	28425.81
458.19	29551.60
458.38	29848.85
458.56	31075.29
458.74	30473.78
458.93	30349.73
459.11	29961.20
459.29	30003.33
459.48	29968.22
459.66	29788.00
459.84	30508.88
460.03	30485.48
460.21	30590.80
460.39	31197.00
460.57	31246.15
460.76	31470.84
460.94	31754.05
461.12	31358.50
461.31	31725.96
461.49	31473.18
461.67	31538.72
461.85	32261.94
462.04	32439.82
462.22	32650.47
462.40	32645.79
462.59	32226.84
462.77	32439.82
462.95	32346.20
463.13	31882.78
463.32	31718.94
463.50	31599.57
463.68	31740.00
463.86	31505.95
464.05	31016.78
464.23	30424.62
464.41	30586.12
464.59	29795.02
464.78	31693.19
464.96	30969.97
465.14	30850.60
465.32	31590.21
465.50	32175.34
465.69	32278.33
465.87	31442.76
466.05	30899.75
466.23	29914.39
466.41	29205.20
466.60	30169.51
466.78	30115.67
466.96	30567.40
467.14	31138.49
467.32	31538.72
467.51	31424.03
467.69	29993.97
467.87	30967.63
468.05	31164.23
468.23	31470.84
468.41	31461.48
468.60	31618.30
468.78	31702.56
468.96	31274.24
469.14	32039.59
469.32	32009.17
469.50	30490.16
469.69	30775.70
469.87	30490.16
470.05	30586.12
470.23	30529.95
470.41	30450.37
470.59	31337.43
470.77	31028.48
470.95	31473.18
471.14	32278.33
471.32	32273.65
471.50	33853.51
471.68	34518.22
471.86	34338.00
472.04	34782.70
472.22	34338.00
472.40	32460.89
472.58	32577.92
472.77	32236.20
472.95	32755.80
473.13	34024.37
473.31	33017.94
473.49	33219.22
473.67	33652.22
473.85	33694.35
474.03	35009.73
474.21	34974.63
474.39	35358.47
474.57	35526.99
474.75	35421.67
474.93	35236.77
475.12	34029.05
475.30	34094.58
475.48	34635.25
475.66	35201.66
475.84	34712.49
476.02	34199.91
476.20	33879.25
476.38	34579.07
476.56	35608.91
476.74	35857.01
476.92	36297.03
477.10	36400.01
477.28	38092.22
477.46	38139.03
477.64	38204.56
477.82	37759.86
478.00	38579.05
478.18	37581.98
478.36	37619.43
478.54	37783.27
478.72	38078.18
478.90	39178.23
479.08	39814.85
479.26	40378.92
479.44	40488.93
479.62	40165.93
479.80	39948.26
479.98	40222.11
480.16	40388.28
480.34	39784.43
480.52	40512.33
480.70	40917.25
480.88	40409.35
481.06	41696.64
481.24	42003.25
481.41	42937.13
481.59	43498.86
481.77	43063.52
481.95	42546.26
482.13	41659.20
482.31	41961.12
482.49	42885.64
482.67	42897.34
482.85	43365.45
483.03	44257.19
483.21	44116.76
483.39	44196.34
483.57	42880.95
483.74	43023.73
483.92	43707.16
484.10	43180.54
484.28	44165.91
484.46	45074.04
484.64	45118.51
484.82	44666.78
485.00	44229.10
485.18	43325.66
485.35	41539.83
485.53	38356.70
485.71	35173.57
485.89	35517.63
486.07	36926.63
486.25	40065.29
486.43	42316.89
486.61	43253.10
486.78	42792.01
486.96	43243.74
487.14	44877.43
487.32	45825.35
487.50	46939.44
487.68	47400.53
487.85	48505.26
488.03	48247.80
488.21	48018.43
488.39	47388.83
488.57	46309.84
488.75	46167.07
488.92	47594.79
489.10	49874.48
489.28	50932.40
489.46	51547.96
489.64	51447.32
489.81	51728.18
489.99	51435.61
490.17	51297.52
490.35	51894.36
490.53	51285.82
490.70	50564.93
490.88	50850.48
491.06	51955.21
491.24	51702.43
491.41	50487.70
491.59	48561.44
491.77	48112.05
491.95	49464.88
492.13	50712.39
492.30	51955.21
492.48	52971.00
492.66	53294.00
492.84	53284.64
493.01	52912.49
493.19	52828.23
493.37	51629.88
493.54	51917.76
493.72	52722.91
493.90	53694.23
494.08	54279.36
494.25	54733.43
494.43	54939.39
494.61	55180.47
494.79	55365.37
494.96	55171.11
495.14	54342.56
495.32	53249.53
495.49	52975.69
495.67	54075.74
495.85	55409.84
496.02	55767.94
496.20	55711.77
496.38	55178.13
496.55	54925.35
496.73	55847.52
496.91	55749.22
497.09	56100.30
497.26	56516.92
497.44	55803.05
497.62	55281.11
497.79	54585.97
497.97	53230.80
498.14	53773.81
498.32	54553.21
498.50	55709.43
498.67	56069.87
498.85	56184.56
499.03	56006.68
499.20	56383.51
499.38	56357.76
499.56	56219.67
499.73	55789.01
499.91	55061.10
500.08	54955.78
500.26	54176.38
500.44	54932.37
500.61	55374.73
500.79	55187.49
500.97	55023.65
501.14	54789.60
501.32	54752.15
501.49	54424.48
501.67	54691.30
501.84	55269.41
502.02	55386.44
502.20	56044.13
502.37	56243.07
502.55	56310.95
502.72	56537.98
502.90	57043.54
503.07	56566.07
503.25	56252.44
503.43	55234.30
503.60	54831.73
503.78	54141.27
503.95	54728.75
504.13	56193.92
504.30	56727.56
504.48	56750.97
504.65	56362.44
504.83	56376.48
505.01	56924.17
505.18	57338.44
505.36	58000.82
505.53	57794.85
505.71	58370.62
505.88	58190.40
506.06	57476.54
506.23	57301.00
506.41	57174.61
506.58	57090.35
506.76	57205.03
506.93	57148.86
507.11	57020.13
507.28	57073.96
507.46	56640.96
507.63	56168.18
507.81	55814.76
507.98	56163.50
508.16	56844.59
508.33	57387.60
508.50	57570.16
508.68	57815.91
508.85	58740.42
509.03	58305.09
509.20	58085.07
509.38	57322.06
509.55	56860.97
509.73	56949.92
509.90	57502.28
510.08	57687.18
510.25	57434.41
510.42	57563.14
510.60	57230.78
510.77	57726.97
510.95	58082.73
511.12	58230.19
511.30	58656.17
511.47	58855.11
511.64	58773.19
511.82	58389.34
511.99	57539.73
512.17	57226.10
512.34	56872.68
512.51	57095.03
512.69	57174.61
512.86	57172.27
513.04	57968.05
513.21	57848.68
513.38	57282.27
513.56	56793.10
513.73	56442.02
513.90	56575.43
514.08	56743.95
514.25	56935.87
514.43	57113.75
514.60	57212.06
514.77	57574.84
514.95	57357.17
515.12	57422.70
515.29	57773.78
515.47	57944.64
515.64	58255.93
515.81	57848.68
515.99	57305.68
516.16	55800.71
516.33	53418.05
516.51	52254.80
516.68	50869.20
516.85	50656.21
517.03	51660.30
517.20	54260.64
517.37	56512.23
517.54	57345.47
517.72	56662.03
517.89	54384.69
518.06	52002.02
518.24	52502.90
518.41	54686.62
518.58	56018.38
518.75	56322.65
518.93	56507.55
519.10	56219.67
519.27	57013.11
519.45	56893.74
519.62	57932.94
519.79	58241.89
519.96	57799.53
520.14	57277.59
520.31	56474.79
520.48	56711.18
520.65	56994.39
520.83	57886.13
521.00	58054.65
521.17	57951.66
521.34	57668.46
521.52	57942.30
521.69	58262.96
521.86	58768.51
522.03	58279.34
522.20	57125.46
522.38	56348.40
522.55	56385.85
522.72	56849.27
522.89	57006.09
523.07	57394.62
523.24	57506.96
523.41	58436.16
523.58	58569.57
523.75	59227.26
523.92	58990.86
524.10	58805.96
524.27	58969.80
524.44	58754.47
524.61	58525.10
524.78	58295.72
524.96	58532.12
525.13	58464.24
525.30	58583.61
525.47	59091.51
525.64	58904.26
525.81	58195.08
525.98	56732.25
526.16	55442.61
526.33	54569.59
526.50	54321.49
526.67	54094.46
526.84	54623.42
527.01	55772.63
527.18	56554.36
527.36	57588.88
527.53	58342.53
527.70	58494.67
527.87	58056.99
528.04	57434.41
528.21	58089.76
528.38	58850.43
528.55	59175.76
528.72	59482.37
528.89	59576.00
529.07	59393.43
529.24	58651.48
529.41	58061.67
529.58	57441.43
529.75	57588.88
529.92	58145.93
530.09	58499.35
530.26	59021.29
530.43	59203.85
530.60	59416.84
530.77	59402.80
530.94	59639.19
531.11	59072.78
531.28	58710.00
531.46	58532.12
531.63	58731.06
531.80	58412.75
531.97	58136.57
532.14	57432.07
532.31	56292.22
532.48	55770.28
532.65	55962.21
532.82	56549.68
532.99	57916.56
533.16	58092.10
533.33	58827.02
533.50	58607.01
533.67	57888.47
533.84	57298.65
534.01	57914.22
534.18	57691.86
534.35	57883.79
534.52	57904.85
534.69	58213.80
534.86	58401.05
535.03	58637.44
535.20	59150.02
535.37	59480.03
535.54	59571.32
535.71	59161.72
535.88	58665.53
536.05	58110.82
536.22	57907.19
536.38	57623.99
536.55	56980.34
536.72	56711.18
536.89	56580.11
537.06	57361.85
537.23	58525.10
537.40	58370.62
537.57	58452.54
537.74	58298.06
537.91	58162.31
538.08	58300.40
538.25	58293.38
538.42	58705.32
538.59	58127.20
538.75	57301.00
538.92	57305.68
539.09	57209.71
539.26	56996.73
539.43	56886.72
539.60	57148.86
539.77	57350.15
539.94	56982.68
540.11	56147.11
540.28	55552.62
540.44	55700.07
540.61	56128.39
540.78	56481.81
540.95	56985.02
541.12	57130.14
541.29	57490.58
541.46	57696.55
541.62	57939.96
541.79	57799.53
541.96	57080.98
542.13	57088.01
542.30	57485.90
542.47	57209.71
542.63	57544.41
542.80	57083.33
542.97	57373.55
543.14	57006.09
543.31	57010.77
543.48	57521.01
543.64	58387.00
543.81	58604.67
543.98	58356.58
544.15	57841.66
544.32	57181.63
544.48	57460.15
544.65	58014.86
544.82	58225.51
544.99	57776.12
545.16	57303.34
545.32	57347.81
545.49	58003.16
545.66	58255.93
545.83	57893.15
546.00	57633.35
546.16	57200.35
546.33	57289.29
546.50	57453.13
546.67	57595.90
546.83	57010.77
547.00	57088.01
547.17	56779.06
547.34	56350.74
547.50	56198.60
547.67	56451.38
547.84	56797.78
548.00	57181.63
548.17	57439.09
548.34	57471.85
548.51	57343.12
548.67	57537.39
548.84	57549.09
549.01	57247.16
549.18	57441.43
549.34	56968.64
549.51	57429.72
549.68	57256.53
549.84	56900.76
550.01	57104.39
550.18	56750.97
550.34	56865.66
550.51	56851.61
550.68	57080.98
550.84	56406.91
551.01	56549.68
551.18	56540.32
551.34	56870.34
551.51	57038.86
551.68	57347.81
551.84	57347.81
552.01	57172.27
552.18	56858.63
552.34	56460.74
552.51	56081.58
552.68	55796.03
552.84	56416.27
553.01	56816.50
553.18	56425.64
553.34	56727.56
553.51	56760.33
553.67	57125.46
553.84	57219.08
554.01	57008.43
554.17	56802.46
554.34	56875.02
554.51	57010.77
554.67	57476.54
554.84	57317.38
555.00	56823.53
555.17	56589.47
555.33	56732.25
555.50	56671.39
555.67	56528.62
555.83	56413.93
556.00	56018.38
556.16	56343.72
556.33	55683.69
556.50	55676.66
556.66	55831.14
556.83	55428.57
556.99	55831.14
557.16	55721.13
557.32	55938.80
557.49	56154.13
557.65	56109.66
557.82	56095.62
557.98	56055.83
558.15	55398.14
558.32	54452.56
558.48	53822.96
558.65	54197.44
558.81	54515.76
558.98	54960.46
559.14	54878.54
559.31	54953.44
559.47	55126.64
559.64	54752.15
559.80	54244.26
559.97	54525.12
560.13	54841.09
560.30	55758.58
560.46	56306.27
560.63	56322.65
560.79	56427.98
560.96	56051.15
561.12	55021.31
561.29	53689.55
561.45	54148.29
561.61	54813.01
561.78	55091.53
561.94	55016.63
562.11	54953.44
562.27	54724.07
562.44	54993.23
562.60	55356.01
562.77	55751.56
562.93	55351.33
563.10	55524.53
563.26	54822.37
563.42	54960.46
563.59	54845.77
563.75	54651.51
563.92	54923.01
564.08	54829.39
564.24	55070.46
564.41	55327.92
564.57	54890.24
564.74	54897.27
564.90	54754.49
565.07	54344.90
565.23	54021.90
565.39	53453.15
565.56	53455.50
565.72	53284.64
565.88	53675.51
566.05	53645.08
566.21	54160.00
566.38	54183.40
566.54	54314.47
566.70	54527.46
566.87	54679.60
567.03	54801.30
567.19	54887.90
567.36	54412.77
567.52	54703.00
567.68	54300.43
567.85	53750.40
568.01	53205.06
568.17	52729.93
568.34	52765.04
568.50	53045.90
568.66	53099.73
568.83	53226.12
568.99	53598.27
569.15	53682.53
569.32	53661.46
569.48	53380.60
569.64	53106.76
569.81	52795.46
569.97	52500.56
570.13	52870.36
570.30	52271.18
570.46	51749.24
570.62	51016.66
570.78	51217.94
570.95	51447.32
571.11	52065.22
571.27	52165.86
571.43	52743.97
571.60	52975.69
571.76	53235.48
571.92	53361.87
572.09	53750.40
572.25	53436.77
572.41	53698.91
572.57	53282.30
572.74	53031.86
572.90	53111.44
573.06	52856.32
573.22	52886.74
573.38	52601.20
573.55	53193.36
573.71	53223.78
573.87	52956.96
574.03	52938.24
574.20	52982.71
574.36	52545.03
574.52	52313.31
574.68	52210.33
574.84	51398.16
575.01	51182.84
575.17	51318.59
575.33	51292.84
575.49	51800.74
575.65	51819.46
575.82	51971.60
575.98	51173.47
576.14	51962.23
576.30	51927.13
576.46	52039.47
576.62	52137.77
576.79	52191.61
576.95	51746.90
577.11	51592.43
577.27	51477.74
577.43	51739.88
577.59	50958.14
577.75	50831.75
577.92	50681.96
578.08	49731.70
578.24	50220.87
578.40	50403.44
578.56	50705.37
578.72	51129.00
578.88	51248.37
579.04	51316.25
579.21	51358.38
579.37	51196.88
579.53	51412.21
579.69	51103.26
579.85	51810.10
580.01	51384.12
580.17	50738.13
580.33	50820.05
580.49	50939.42
580.65	50955.80
580.82	51358.38
580.98	51435.61
581.14	51084.53
581.30	51234.33
581.46	51229.65
581.62	51398.16
581.78	51152.41
581.94	51550.30
582.10	51407.53
582.26	51660.30
582.42	51096.24
582.58	51695.41
582.74	51540.94
582.90	51290.50
583.06	51192.20
583.22	51515.19
583.38	51091.55
583.54	51124.32
583.70	51037.72
583.86	51014.32
584.02	50930.06
584.18	51461.36
584.34	51011.98
584.50	50815.37
584.66	50993.25
584.82	50447.91
584.98	50513.44
585.14	49565.52
585.30	48987.41
