SpectraSuite Data File
++++++++++++++++++++++++++++++++++++
Date: Mon Oct 07 14:53:06 GMT-05:00 2013
User: price-jones
Dark Spectrum Present: No
Reference Spectrum Present: No
Number of Sampled Component Spectra: 1
Spectrometers: USB2+H05261
Integration Time (usec): 100000 (USB2+H05261)
Spectra Averaged: 1 (USB2+H05261)
Boxcar Smoothing: 0 (USB2+H05261)
Correct for Electrical Dark: No (USB2+H05261)
Strobe/Lamp Enabled: No (USB2+H05261)
Correct for Detector Non-linearity: No (USB2+H05261)
Correct for Stray Light: No (USB2+H05261)
Number of Pixels in Processed Spectrum: 2048
>>>>>Begin Processed Spectral Data<<<<<
365.73	0.00
365.92	0.00
366.12	0.00
366.32	0.00
366.52	0.00
366.72	0.00
366.91	0.00
367.11	0.00
367.31	0.00
367.51	0.00
367.70	0.00
367.90	0.00
368.10	0.00
368.30	0.00
368.49	0.00
368.69	0.00
368.89	0.00
369.09	0.00
369.28	0.00
369.48	0.00
369.68	0.00
369.87	0.00
370.07	0.00
370.27	0.00
370.47	568.75
370.66	3084.83
370.86	3660.60
371.06	3962.53
371.25	4004.66
371.45	3702.73
371.65	3246.32
371.84	3030.99
372.04	3201.85
372.24	3592.72
372.44	3737.84
372.63	3784.65
372.83	3541.23
373.03	2963.12
373.22	2860.13
373.42	2963.12
373.62	3396.12
373.81	3698.05
374.01	3726.13
374.21	3316.54
374.40	3089.51
374.60	3241.64
374.79	3681.66
374.99	4269.14
375.19	4564.04
375.38	4465.74
375.58	4353.40
375.78	4248.07
375.97	4173.18
376.17	4512.55
376.37	4311.27
376.56	4578.09
376.76	4746.61
376.95	5144.50
377.15	5626.65
377.35	5703.89
377.54	5893.47
377.74	6071.35
377.93	6186.04
378.13	5881.77
378.33	5713.25
378.52	5069.60
378.72	4908.10
378.91	4929.17
379.11	4706.82
379.31	4418.93
379.50	4550.00
379.70	4774.69
379.89	5423.02
380.09	5937.94
380.28	6012.84
380.48	5951.98
380.68	5926.24
380.87	5767.08
381.07	5277.91
381.26	4945.55
381.46	4599.15
381.65	4479.79
381.85	4344.03
382.04	4219.99
382.24	3871.25
382.43	3555.27
382.63	3461.65
382.83	3655.92
383.02	3646.55
383.22	3480.38
383.41	3637.19
383.61	3864.22
383.80	4573.41
384.00	5060.24
384.19	5668.78
384.39	5731.97
384.58	5877.09
384.78	5643.03
384.97	5696.86
385.17	5385.57
385.36	5107.05
385.56	5081.30
385.75	5135.14
385.95	5664.10
386.14	5973.05
386.34	5951.98
386.53	5612.60
386.72	5430.04
386.92	5696.86
387.11	5776.44
387.31	6047.94
387.50	6209.44
387.70	5797.51
387.89	5713.25
388.09	5762.40
388.28	5802.19
388.48	5879.43
388.67	6347.53
388.86	7002.88
389.06	7410.14
389.25	7880.58
389.45	8056.12
389.64	7911.01
389.84	7721.43
390.03	7501.42
390.22	7564.61
390.42	8079.53
390.61	8519.55
390.81	8950.21
391.00	9284.91
391.19	9139.79
391.39	8737.22
391.58	8255.07
391.78	7691.00
391.97	7606.74
392.16	7119.91
392.36	6422.43
392.55	5146.84
392.75	4201.26
392.94	3379.73
393.13	3281.43
393.33	3999.98
393.52	5104.71
393.71	6235.19
393.91	7059.06
394.10	7351.62
394.29	8292.52
394.49	8919.78
394.68	9551.73
394.88	9614.92
395.07	9949.62
395.26	9839.61
395.46	9488.53
395.65	9170.22
395.84	7808.03
396.04	6820.32
396.23	5458.13
396.42	4493.83
396.62	4318.29
396.81	5228.76
397.00	6696.27
397.19	8299.54
397.39	9795.14
397.58	10979.45
397.77	11789.28
397.97	11964.82
398.16	11847.79
398.35	12514.84
398.55	12849.54
398.74	13439.36
398.93	14108.75
399.12	13366.80
399.32	13081.25
399.51	13362.12
399.70	14270.25
399.90	14281.95
400.09	13862.99
400.28	13865.33
400.47	14052.58
400.67	14864.74
400.86	15197.10
401.05	15171.35
401.24	15470.94
401.44	15723.72
401.63	15613.71
401.82	15597.33
402.01	15709.68
402.21	15751.81
402.40	16102.89
402.59	15428.81
402.78	14834.32
402.97	14279.61
403.17	14775.80
403.36	15709.68
403.55	16460.99
403.74	16578.01
403.93	15571.58
404.13	14448.13
404.32	14394.29
404.51	15005.17
404.70	16166.08
404.89	16086.50
405.09	15803.30
405.28	15480.30
405.47	15503.71
405.66	15424.13
405.85	14745.38
406.05	14817.93
406.24	14960.70
406.43	15452.22
406.62	16037.35
406.81	16297.15
407.00	15463.92
407.20	15147.95
407.39	15482.64
407.58	15758.83
407.77	16690.36
407.96	17125.70
408.15	17427.63
408.34	17507.21
408.54	18157.88
408.73	17987.02
408.92	17996.38
409.11	17551.68
409.30	16521.84
409.49	15466.26
409.68	14436.42
409.87	14408.34
410.07	15206.46
410.26	16418.86
410.45	17305.92
410.64	18155.54
410.83	18188.30
411.02	18775.78
411.21	19646.46
411.40	19154.94
411.59	19311.76
411.78	19283.67
411.98	19122.18
412.17	19550.49
412.36	19412.40
412.55	19159.63
412.74	18981.74
412.93	18082.98
413.12	18630.66
413.31	20343.94
413.50	20273.72
413.69	20856.51
413.88	19917.96
414.07	19482.62
414.26	19461.55
414.45	20182.44
414.64	20318.19
414.83	20259.68
415.02	20105.20
415.22	20027.96
415.41	20428.20
415.60	21205.25
415.79	21738.90
415.98	22408.29
416.17	22164.87
416.36	21919.12
416.55	20945.45
416.74	20730.12
416.93	20184.78
417.12	20346.28
417.31	20739.49
417.50	20741.83
417.69	21523.57
417.88	21563.36
418.07	21291.85
418.26	21153.76
418.45	21338.66
418.64	21809.11
418.83	22794.48
419.02	22188.28
419.21	22260.84
419.39	20882.26
419.58	20013.92
419.77	20226.91
419.96	21397.18
420.15	22375.52
420.34	23302.37
420.53	23742.39
420.72	24177.73
420.91	23796.23
421.10	23817.29
421.29	23524.72
421.48	22462.12
421.67	23840.70
421.86	23323.44
422.05	21451.01
422.24	19183.03
422.43	19260.27
422.61	21003.97
422.80	23157.26
422.99	23241.52
423.18	22047.85
423.37	21708.47
423.56	22022.10
423.75	22178.92
423.94	22604.89
424.13	21294.19
424.32	21245.04
424.50	21668.68
424.69	21146.74
424.88	21589.10
425.07	21055.46
425.26	21469.73
425.45	20971.20
425.64	20482.03
425.83	20814.38
426.01	21961.25
426.20	22537.02
426.39	22394.25
426.58	20863.54
426.77	19417.08
426.96	18469.17
427.15	19255.59
427.33	21039.08
427.52	21565.70
427.71	21816.13
427.90	21451.01
428.09	21305.90
428.28	20737.15
428.46	20002.22
428.65	19747.10
428.84	20112.22
429.03	20575.65
429.22	19754.12
429.40	18450.44
429.59	17067.19
429.78	14876.44
429.97	14920.92
430.16	15173.69
430.34	15318.81
430.53	15089.43
430.72	15735.42
430.91	16996.97
431.10	20102.86
431.28	23747.08
431.47	25956.54
431.66	25825.47
431.85	23838.36
432.03	21699.11
432.22	20669.27
432.41	21888.69
432.60	24254.97
432.79	25135.01
432.97	25453.33
433.16	25062.46
433.35	23105.77
433.54	20273.72
433.72	19204.10
433.91	20257.34
434.10	22607.23
434.28	23875.80
434.47	25223.95
434.66	24650.52
434.85	24058.37
435.03	24030.28
435.22	24641.16
435.41	26506.57
435.59	25944.84
435.78	26717.22
435.97	27197.02
436.16	27257.88
436.34	27091.70
436.53	26300.60
436.72	26211.66
436.90	24828.40
437.09	24931.39
437.28	24669.25
437.46	25408.86
437.65	25120.97
437.84	23529.41
438.02	21488.46
438.21	21774.00
438.40	22764.05
438.58	24683.29
438.77	25191.19
438.96	25633.55
439.14	26792.11
439.33	27175.96
439.52	27613.64
439.70	27250.86
439.89	26389.54
440.08	25680.36
440.26	25802.07
440.45	26457.42
440.63	28327.50
440.82	29928.43
441.01	29371.38
441.19	29312.87
441.38	29614.80
441.57	31110.40
441.75	31342.11
441.94	31285.94
442.12	30670.38
442.31	31150.19
442.50	31000.40
442.68	31117.42
442.87	30733.57
443.05	30272.49
443.24	30717.19
443.43	31229.77
443.61	31976.40
443.80	32753.46
443.98	30785.07
444.17	30661.02
444.35	32381.31
444.54	33039.00
444.73	32444.51
444.91	31077.63
445.10	30167.16
445.28	28631.77
445.47	28449.21
445.65	28418.78
445.84	29350.32
446.02	30141.42
446.21	30969.97
446.39	31119.76
446.58	31323.39
446.77	32088.74
446.95	31857.03
447.14	33034.32
447.32	33603.07
447.51	32779.20
447.69	31192.32
447.88	30965.29
448.06	31807.88
448.25	31943.63
448.43	32503.02
448.62	31744.69
448.80	31784.48
448.99	31669.79
449.17	32252.58
449.36	31985.76
449.54	33228.59
449.73	33874.57
449.91	34382.47
450.10	34724.19
450.28	35285.92
450.46	35597.21
450.65	35864.03
450.83	34831.85
451.02	34635.25
451.20	34429.28
451.39	34157.78
451.57	33787.97
451.76	34050.11
451.94	33947.13
452.13	33123.26
452.31	31667.45
452.49	29919.07
452.68	30656.34
452.86	30960.61
453.05	31295.30
453.23	32154.28
453.42	33305.82
453.60	33198.16
453.78	34300.55
453.97	33582.01
454.15	33881.60
454.34	32638.77
454.52	33153.69
454.70	32425.78
454.89	32683.24
455.07	33062.41
455.26	33146.67
455.44	34848.24
455.62	35309.32
455.81	35482.52
455.99	35124.42
456.17	34644.61
456.36	35185.27
456.54	35519.97
456.73	35835.94
456.91	36414.05
457.09	36765.14
457.28	37137.28
457.46	35622.95
457.64	35929.56
457.83	34410.56
458.01	33642.86
458.19	34920.79
458.38	35152.51
458.56	35971.69
458.74	35594.87
458.93	35044.84
459.11	34771.00
459.29	34581.42
459.48	35005.05
459.66	34813.13
459.84	35367.84
460.03	35433.37
460.21	35817.22
460.39	36624.70
460.57	36580.23
460.76	36762.79
460.94	36891.52
461.12	36491.29
461.31	36975.78
461.49	36914.93
461.67	37001.53
461.85	37865.19
462.04	37474.32
462.22	37919.02
462.40	37607.73
462.59	37427.51
462.77	37675.60
462.95	37809.01
463.13	37343.25
463.32	36781.52
463.50	36605.98
463.68	36636.41
463.86	36772.16
464.05	36198.73
464.23	35690.83
464.41	35021.44
464.59	35196.98
464.78	36631.72
464.96	36156.60
465.14	35667.42
465.32	37111.53
465.50	37511.77
465.69	38731.18
465.87	37139.62
466.05	36091.06
466.23	35007.39
466.41	33975.22
466.60	35110.38
466.78	34635.25
466.96	35775.09
467.14	36346.18
467.32	36753.43
467.51	36748.75
467.69	35168.89
467.87	36137.87
468.05	36320.43
468.23	36280.64
468.41	36598.96
468.60	36514.70
468.78	36751.09
468.96	36320.43
469.14	37523.47
469.32	37247.29
469.50	36133.19
469.69	35931.90
469.87	35564.44
470.05	35615.93
470.23	35220.38
470.41	35140.80
470.59	35978.72
470.77	36629.38
470.95	37399.42
471.14	37699.01
471.32	37282.39
471.50	39194.61
471.68	39625.27
471.86	39910.82
472.04	40208.06
472.22	40039.54
472.40	38246.69
472.58	37968.17
472.77	37682.62
472.95	38916.09
473.13	39646.33
473.31	38157.75
473.49	38501.81
473.67	39122.05
473.85	39915.50
474.03	40690.21
474.21	40641.06
474.39	40856.39
474.57	40800.22
474.75	40713.62
474.93	40376.58
475.12	39772.72
475.30	39779.74
475.48	40259.55
475.66	40708.94
475.84	40355.52
476.02	39707.19
476.20	39178.23
476.38	39917.84
476.56	41659.20
476.74	41586.64
476.92	42096.88
477.10	42586.05
477.28	43934.20
477.46	43969.30
477.64	44233.78
477.82	43735.25
478.00	44554.44
478.18	43491.83
478.36	43655.67
478.54	43690.78
478.72	44196.34
478.90	45083.40
479.08	45895.56
479.26	47079.88
479.44	46485.38
479.62	45904.93
479.80	46141.32
479.98	46272.39
480.16	46824.76
480.34	46169.41
480.52	46405.80
480.70	46810.71
480.88	46810.71
481.06	47524.58
481.24	47976.30
481.41	48797.83
481.59	49357.22
481.77	48870.39
481.95	48488.88
482.13	48472.49
482.31	48116.73
482.49	49191.04
482.67	48954.64
482.85	49179.34
483.03	49724.68
483.21	49944.69
483.39	49925.97
483.57	49415.73
483.74	49123.16
483.92	49118.48
484.10	49436.80
484.28	50522.80
484.46	50766.22
484.64	51026.02
484.82	50143.64
485.00	49797.24
485.18	49226.15
485.35	47721.18
485.53	44896.16
485.71	40690.21
485.89	41048.32
486.07	42712.44
486.25	45979.82
486.43	48334.40
486.61	49088.06
486.78	48769.74
486.96	49160.61
487.14	50447.91
487.32	51475.40
487.50	52313.31
487.68	52999.09
487.85	53593.59
488.03	53418.05
488.21	53200.38
488.39	52268.84
488.57	51791.37
488.75	51683.71
488.92	53055.26
489.10	54735.77
489.28	55503.46
489.46	56460.74
489.64	56177.54
489.81	56212.65
489.99	55927.10
490.17	55920.08
490.35	56170.52
490.53	55838.16
490.70	55730.50
490.88	55592.40
491.06	56566.07
491.24	56388.19
491.41	55379.42
491.59	54092.12
491.77	53624.01
491.95	54237.23
492.13	55276.43
492.30	56472.45
492.48	57209.71
492.66	57724.63
492.84	57333.76
493.01	57317.38
493.19	56935.87
493.37	56753.31
493.54	56133.07
493.72	57045.88
493.90	57944.64
494.08	58569.57
494.25	58922.99
494.43	59065.76
494.61	59475.35
494.79	59288.11
494.96	59344.28
495.14	58618.72
495.32	57790.17
495.49	57464.83
495.67	58246.57
495.85	59344.28
496.02	59587.70
496.20	59714.09
496.38	59161.72
496.55	59023.63
496.73	59618.13
496.91	59744.51
497.09	60203.26
497.26	60367.10
497.44	59882.61
497.62	59550.25
497.79	58805.96
497.97	57572.50
498.14	58108.48
498.32	58885.54
498.50	59416.84
498.67	60198.58
498.85	60203.26
499.03	60158.79
499.20	60500.51
499.38	60383.48
499.56	60109.64
499.73	59704.73
499.91	59416.84
500.08	59182.79
500.26	58511.05
500.44	58967.46
500.61	59578.34
500.79	59377.05
500.97	58749.79
501.14	58892.56
501.32	58738.08
501.49	58735.74
501.67	58932.35
501.84	59248.32
502.02	59613.44
502.20	60104.96
502.37	60170.49
502.55	60168.15
502.72	60385.82
502.90	60858.61
503.07	60652.64
503.25	60200.92
503.43	59793.67
503.60	58850.43
503.78	58358.92
503.95	58798.94
504.13	60039.42
504.30	60830.52
504.48	60640.94
504.65	60268.79
504.83	60299.22
505.01	60954.57
505.18	61291.61
505.36	61647.37
505.53	61738.65
505.71	62103.77
505.88	62096.75
506.06	61415.66
506.23	61132.45
506.41	60905.42
506.58	61109.05
506.76	61179.26
506.93	60992.02
507.11	60821.16
507.28	61041.17
507.46	60582.43
507.63	59835.80
507.81	59695.36
507.98	60299.22
508.16	60804.78
508.33	61158.20
508.50	61539.71
508.68	61815.89
508.85	62047.60
509.03	62204.42
509.20	61982.07
509.38	61303.31
509.55	60697.11
509.73	60970.96
509.90	61387.57
510.08	61670.78
510.25	61626.31
510.42	61146.50
510.60	61212.03
510.77	61455.45
510.95	62033.56
511.12	62103.77
511.30	62410.38
511.47	62602.31
511.64	62618.69
511.82	62286.34
511.99	61336.08
512.17	61090.32
512.34	60839.89
512.51	61043.51
512.69	61268.20
512.86	61326.72
513.04	61806.53
513.21	61638.01
513.38	61289.27
513.56	60931.17
513.73	60374.12
513.90	60575.40
514.08	60690.09
514.25	60877.33
514.43	61125.43
514.60	61038.83
514.77	61195.65
514.95	61237.78
515.12	61256.50
515.29	61652.05
515.47	61872.06
515.64	61921.21
515.81	61862.70
515.99	61352.46
516.16	59910.69
516.33	58026.56
516.51	56783.74
516.68	55901.36
516.85	55388.78
517.03	56130.73
517.20	58335.51
517.37	60683.07
517.54	61607.58
517.72	60968.61
517.89	58731.06
518.06	56729.90
518.24	57179.29
518.41	59063.42
518.58	59945.80
518.75	60163.47
518.93	60582.43
519.10	60409.23
519.27	60701.79
519.45	60961.59
519.62	61787.80
519.79	61993.77
519.96	61815.89
520.14	61310.33
520.31	60484.12
520.48	60779.03
520.65	60977.98
520.83	62005.47
521.00	62068.67
521.17	61694.18
521.34	61530.34
521.52	61797.16
521.69	62328.47
521.86	62464.22
522.03	62253.57
522.20	61174.58
522.38	60416.25
522.55	60507.53
522.72	60919.46
522.89	60931.17
523.07	61282.25
523.24	61471.83
523.41	62269.95
523.58	62478.26
523.75	62876.15
523.92	62670.18
524.10	62836.36
524.27	62681.89
524.44	62478.26
524.61	62391.66
524.78	62131.86
524.96	62089.73
525.13	62108.46
525.30	62471.24
525.47	62892.54
525.64	62822.32
525.81	62082.71
525.98	60741.58
526.16	59561.95
526.33	59089.16
526.50	58745.11
526.67	58429.13
526.84	59042.35
527.01	59910.69
527.18	60378.80
527.36	61394.59
527.53	62094.41
527.70	62253.57
527.87	61659.07
528.04	61474.17
528.21	61843.98
528.38	62410.38
528.55	63049.35
528.72	63274.04
528.89	63316.17
529.07	63149.99
529.24	62349.53
529.41	61785.46
529.58	61322.04
529.75	61572.47
529.92	62082.71
530.09	62508.69
530.26	62827.00
530.43	63189.78
530.60	63051.69
530.77	63142.97
530.94	63358.30
531.11	63025.95
531.28	62440.81
531.46	62410.38
531.63	62466.56
531.80	62377.62
531.97	61921.21
532.14	61282.25
532.31	60460.72
532.48	59901.33
532.65	59962.18
532.82	60832.86
532.99	61638.01
533.16	61953.98
533.33	62686.57
533.50	62361.23
533.67	61797.16
533.84	61429.70
534.01	61600.56
534.18	61792.48
534.35	61862.70
534.52	61932.92
534.69	62295.70
534.86	62379.96
535.03	62642.10
535.20	63063.39
535.37	63283.40
535.54	63245.96
535.71	63070.42
535.88	62602.31
536.05	62192.72
536.22	61867.38
536.38	61464.81
536.55	61097.34
536.72	60643.28
536.89	60856.27
537.06	61336.08
537.23	62312.08
537.40	62499.33
537.57	62363.57
537.74	61970.36
537.91	62017.17
538.08	62120.16
538.25	62049.94
538.42	62337.83
538.59	62295.70
538.75	61460.13
538.92	61415.66
539.09	61371.19
539.26	61076.28
539.43	60598.81
539.60	60900.74
539.77	61268.20
539.94	61102.03
540.11	60327.31
540.28	59891.97
540.44	59840.48
540.61	60233.69
540.78	60404.55
540.95	60828.18
541.12	61359.48
541.29	61403.95
541.46	61663.75
541.62	61776.10
541.79	61684.82
541.96	60814.14
542.13	61045.85
542.30	61265.86
542.47	61535.02
542.63	61279.91
542.80	61038.83
542.97	61202.67
543.14	60910.10
543.31	61223.73
543.48	61645.03
543.64	62300.38
543.81	62637.42
543.98	62241.87
544.15	61652.05
544.32	61132.45
544.48	61174.58
544.65	61755.03
544.82	62045.26
544.99	61612.26
545.16	61343.10
545.32	61174.58
545.49	61881.42
545.66	62155.27
545.83	61616.94
546.00	61347.78
546.16	61406.30
546.33	61279.91
546.50	61286.93
546.67	61682.48
546.83	61394.59
547.00	61249.48
547.17	60779.03
547.34	60231.35
547.50	60247.73
547.67	60526.25
547.84	60839.89
548.00	60977.98
548.17	61464.81
548.34	61420.34
548.51	61347.78
548.67	61403.95
548.84	61593.54
549.01	61427.36
549.18	61216.71
549.34	61242.46
549.51	61249.48
549.68	61087.98
549.84	61162.88
550.01	61006.06
550.18	60708.82
550.34	60900.74
550.51	60893.72
550.68	60985.00
550.84	60388.16
551.01	60563.70
551.18	60580.09
551.34	60839.89
551.51	61233.10
551.68	61345.44
551.84	61502.26
552.01	61258.84
552.18	61205.01
552.34	60273.48
552.51	60088.57
552.68	59992.61
552.84	60493.49
553.01	60582.43
553.18	60631.58
553.34	60898.40
553.51	60750.94
553.67	60910.10
553.84	61153.52
554.01	61052.87
554.17	61071.60
554.34	60968.61
554.51	61153.52
554.67	61396.93
554.84	61158.20
555.00	60926.49
555.17	60748.60
555.33	60633.92
555.50	60596.47
555.67	60764.99
555.83	60594.13
556.00	60196.24
556.16	60362.42
556.33	59859.20
556.50	59723.45
556.66	59793.67
556.83	59442.59
556.99	59873.24
557.16	59884.95
557.32	60111.98
557.49	60390.50
557.65	60196.24
557.82	60175.17
557.98	59929.42
558.15	59704.73
558.32	59063.42
558.48	58232.53
558.65	58424.45
558.81	58777.87
558.98	59131.29
559.14	59234.28
559.31	59355.99
559.47	59220.23
559.64	59025.97
559.80	58487.65
559.97	58745.11
560.13	59070.44
560.30	59913.03
560.46	60310.92
560.63	60580.09
560.79	60507.53
560.96	60205.60
561.12	59079.80
561.29	58543.82
561.45	58492.33
561.61	59042.35
561.78	59391.09
561.94	59140.66
562.11	59267.05
562.27	58993.20
562.44	59451.95
562.60	59583.02
562.77	59693.02
562.93	59758.56
563.10	59587.70
563.26	58974.48
563.42	58990.86
563.59	59236.62
563.75	59011.93
563.92	58911.28
564.08	58908.94
564.24	59444.93
564.41	59316.20
564.57	59224.92
564.74	58810.64
564.90	59089.16
565.07	58775.53
565.23	58436.16
565.39	57993.79
565.56	57670.80
565.72	57687.18
565.88	57939.96
566.05	58237.21
566.21	58433.81
566.38	58471.26
566.54	58396.37
566.70	58834.05
566.87	59058.74
567.03	59110.23
567.19	59157.04
567.36	58958.09
567.52	58801.28
567.68	58471.26
567.85	58005.50
568.01	57684.84
568.17	57305.68
568.34	57467.17
568.50	57513.98
568.66	57392.28
568.83	57869.75
568.99	57799.53
569.15	57975.07
569.32	57982.09
569.48	57841.66
569.64	57577.18
569.81	57411.00
569.97	57104.39
570.13	57186.31
570.30	56924.17
570.46	56563.73
570.62	55969.23
570.78	55870.93
570.95	56114.34
571.11	56713.52
571.27	57219.08
571.43	57240.14
571.60	57420.36
571.76	57661.44
571.92	57989.11
572.09	58106.14
572.25	58262.96
572.41	57752.72
572.57	57846.34
572.74	57633.35
572.90	57453.13
573.06	57347.81
573.22	57642.71
573.38	57382.91
573.55	57467.17
573.71	57680.16
573.87	57336.10
574.03	57347.81
574.20	57427.38
574.36	56795.44
574.52	56947.57
574.68	56692.46
574.84	56224.35
575.01	55948.17
575.17	55826.46
575.33	56371.80
575.49	56537.98
575.65	56746.29
575.82	56528.62
575.98	56189.24
576.14	56568.41
576.30	56640.96
576.46	56882.04
576.62	56568.41
576.79	56699.48
576.95	56666.71
577.11	56343.72
577.27	56463.08
577.43	56547.34
577.59	56140.09
577.75	55803.05
577.92	54944.08
578.08	54981.52
578.24	55107.91
578.40	55238.98
578.56	55664.96
578.72	55583.04
578.88	55884.97
579.04	55906.04
579.21	55997.32
579.37	55903.70
579.53	56060.51
579.69	55641.56
579.85	56456.06
580.01	56090.94
580.17	55922.42
580.33	55491.76
580.49	55817.10
580.65	55931.78
580.82	56175.20
580.98	56062.85
581.14	55873.27
581.30	56048.81
581.46	55915.40
581.62	56093.28
581.78	56112.00
581.94	56353.08
582.10	56135.41
582.26	56435.00
582.42	56219.67
582.58	56313.29
582.74	56324.99
582.90	56275.84
583.06	56449.04
583.22	56069.87
583.38	56011.36
583.54	55971.57
583.70	55917.74
583.86	56072.21
584.02	55803.05
584.18	55863.91
584.34	55870.93
584.50	55765.60
584.66	55789.01
584.82	55121.96
584.98	55182.81
585.14	54684.28
585.30	54358.94
