SpectraSuite Data File
++++++++++++++++++++++++++++++++++++
Date: Mon Oct 07 14:53:44 GMT-05:00 2013
User: price-jones
Dark Spectrum Present: No
Reference Spectrum Present: No
Number of Sampled Component Spectra: 1
Spectrometers: USB2+H05261
Integration Time (usec): 100000 (USB2+H05261)
Spectra Averaged: 1 (USB2+H05261)
Boxcar Smoothing: 0 (USB2+H05261)
Correct for Electrical Dark: No (USB2+H05261)
Strobe/Lamp Enabled: No (USB2+H05261)
Correct for Detector Non-linearity: No (USB2+H05261)
Correct for Stray Light: No (USB2+H05261)
Number of Pixels in Processed Spectrum: 2048
>>>>>Begin Processed Spectral Data<<<<<
365.73	0.00
365.92	0.00
366.12	0.00
366.32	0.00
366.52	0.00
366.72	0.00
366.91	0.00
367.11	0.00
367.31	0.00
367.51	0.00
367.70	0.00
367.90	0.00
368.10	0.00
368.30	0.00
368.49	0.00
368.69	0.00
368.89	0.00
369.09	0.00
369.28	0.00
369.48	0.00
369.68	0.00
369.87	0.00
370.07	0.00
370.27	0.00
370.47	695.14
370.66	3328.24
370.86	3964.87
371.06	4386.16
371.25	4339.35
371.45	3885.29
371.65	3368.03
371.84	3424.20
372.04	3459.31
372.24	4114.66
372.44	4112.32
372.63	4187.22
372.83	3840.82
373.03	3295.47
373.22	3098.87
373.42	3166.74
373.62	3555.27
373.81	3997.64
374.01	3957.85
374.21	3667.62
374.40	3405.48
374.60	3442.93
374.79	3868.91
374.99	4692.77
375.19	5142.16
375.38	4910.44
375.58	4648.30
375.78	4517.23
375.97	4713.84
376.17	4901.08
376.37	4814.48
376.56	5074.28
376.76	5327.06
376.95	5624.31
377.15	5937.94
377.35	6319.45
377.54	6558.18
377.74	6476.26
377.93	6696.27
378.13	6558.18
378.33	6197.74
378.52	5799.85
378.72	5432.38
378.91	5336.42
379.11	5261.52
379.31	4964.28
379.50	5022.79
379.70	5259.18
379.89	5994.11
380.09	6441.15
380.28	6581.59
380.48	6633.08
380.68	6347.53
380.87	6246.89
381.07	5767.08
381.26	5355.15
381.46	4983.00
381.65	4847.25
381.85	4891.72
382.04	4568.73
382.24	4222.33
382.43	4037.42
382.63	4021.04
382.83	3988.27
383.02	3918.06
383.22	4014.02
383.41	4002.32
383.61	4386.16
383.80	4882.36
384.00	5406.64
384.19	6104.12
384.39	6633.08
384.58	6509.03
384.78	6366.26
384.97	6300.72
385.17	6045.60
385.36	5582.18
385.56	5518.98
385.75	5570.48
385.95	6153.27
386.14	6792.23
386.34	7056.72
386.53	6448.18
386.72	6071.35
386.92	6150.93
387.11	6537.12
387.31	6593.29
387.50	6619.04
387.70	6408.39
387.89	6232.85
388.09	6345.19
388.28	6434.13
388.48	6438.81
388.67	7054.37
388.86	7583.34
389.06	8332.31
389.25	8580.40
389.45	8760.63
389.64	8592.11
389.84	8524.23
390.03	8390.82
390.22	8451.67
390.42	8800.41
390.61	9310.65
390.81	9970.68
391.00	10223.46
391.19	10008.13
391.39	9748.33
391.58	9064.89
391.78	8463.38
391.97	8369.76
392.16	7805.69
392.36	7094.16
392.55	5734.31
392.75	4545.32
392.94	3733.15
393.13	3627.83
393.33	4203.60
393.52	5540.05
393.71	6857.77
393.91	7887.61
394.10	8248.05
394.29	9226.39
394.49	9720.24
394.68	10850.72
394.88	10422.41
395.07	11009.88
395.26	10963.07
395.46	10452.83
395.65	10026.86
395.84	8851.91
396.04	7625.47
396.23	6078.37
396.42	5022.79
396.62	4894.06
396.81	5640.69
397.00	7094.16
397.19	8835.52
397.39	10661.14
397.58	11936.73
397.77	12685.70
397.97	13359.78
398.16	13530.64
398.35	13980.02
398.55	14204.71
398.74	14773.46
398.93	15431.15
399.12	14820.27
399.32	14242.16
399.51	14782.82
399.70	15726.06
399.90	15573.92
400.09	15356.25
400.28	15517.75
400.47	15396.04
400.67	16552.27
400.86	16659.93
401.05	16470.35
401.24	16776.96
401.44	17291.88
401.63	16863.56
401.82	16996.97
402.01	17135.06
402.21	17385.50
402.40	17490.82
402.59	17001.65
402.78	16271.40
402.97	15515.41
403.17	16250.34
403.36	17380.82
403.55	17944.89
403.74	18527.68
403.93	17427.63
404.13	16215.23
404.32	15613.71
404.51	16255.02
404.70	17888.71
404.89	17912.12
405.09	17451.03
405.28	16996.97
405.47	17099.95
405.66	17022.72
405.85	16781.64
406.05	16292.47
406.24	16240.98
406.43	16994.63
406.62	17621.89
406.81	17841.90
407.00	17252.09
407.20	16807.39
407.39	17032.08
407.58	17291.88
407.77	18207.03
407.96	19026.21
408.15	18977.06
408.34	19044.94
408.54	20020.94
408.73	20262.02
408.92	19831.36
409.11	19372.61
409.30	18235.11
409.49	17205.28
409.68	16250.34
409.87	15735.42
410.07	16589.72
410.26	18015.10
410.45	18888.12
410.64	19709.65
410.83	20123.93
411.02	20641.18
411.21	21448.67
411.40	20882.26
411.59	21312.92
411.78	21113.97
411.98	20910.35
412.17	21226.32
412.36	20814.38
412.55	20865.88
412.74	20489.05
412.93	20252.66
413.12	20025.62
413.31	22026.78
413.50	21848.90
413.69	22745.33
413.88	22047.85
414.07	21193.55
414.26	21661.66
414.45	22349.78
414.64	22401.27
414.83	22382.54
415.02	22089.98
415.22	21841.88
415.41	22597.87
415.60	23037.89
415.79	24315.83
415.98	24664.57
416.17	24666.91
416.36	23943.68
416.55	23693.24
416.74	22916.19
416.93	22125.08
417.12	22228.07
417.31	22530.00
417.50	22909.16
417.69	23419.40
417.88	23414.72
418.07	23274.29
418.26	22768.73
418.45	23456.85
418.64	24041.98
418.83	25153.74
419.02	24489.03
419.21	24568.60
419.39	23110.45
419.58	21832.52
419.77	22260.84
419.96	23433.44
420.15	24657.54
420.34	25149.06
420.53	25851.22
420.72	26541.68
420.91	26511.25
421.10	25673.34
421.29	25523.54
421.48	24723.08
421.67	26354.43
421.86	25270.76
422.05	24011.56
422.24	21357.39
422.43	20875.24
422.61	22965.34
422.80	25039.05
422.99	25406.52
423.18	24315.83
423.37	23683.88
423.56	23618.35
423.75	24318.17
423.94	24643.50
424.13	23379.61
424.32	23314.08
424.50	24013.90
424.69	23473.23
424.88	23269.61
425.07	23889.85
425.26	23143.22
425.45	23248.54
425.64	22740.64
425.83	22700.86
426.01	24149.65
426.20	24535.84
426.39	24524.13
426.58	22710.22
426.77	21144.40
426.96	20112.22
427.15	21081.21
427.33	22558.08
427.52	23700.26
427.71	23557.49
427.90	23573.88
428.09	23143.22
428.28	22698.52
428.46	22155.51
428.65	21516.54
428.84	22380.20
429.03	22876.40
429.22	21497.82
429.40	20655.23
429.59	18567.47
429.78	16332.26
429.97	16032.67
430.16	16608.44
430.34	16725.47
430.53	16482.05
430.72	16879.94
430.91	18892.80
431.10	21774.00
431.28	25701.42
431.47	28121.54
431.66	28538.15
431.85	26085.27
432.03	24030.28
432.22	22869.37
432.41	23246.20
432.60	26162.51
432.79	27084.68
432.97	28063.02
433.16	27068.30
433.35	25039.05
433.54	22649.36
433.72	21317.60
433.91	21752.94
434.10	24416.47
434.28	26047.82
434.47	27101.06
434.66	26888.07
434.85	26450.39
435.03	25781.00
435.22	26525.29
435.41	28414.10
435.59	28458.57
435.78	29102.22
435.97	29518.84
436.16	29862.90
436.34	29015.62
436.53	28739.44
436.72	29076.48
436.90	27608.96
437.09	27276.60
437.28	26609.55
437.46	27346.82
437.65	27718.96
437.84	25750.57
438.02	23779.84
438.21	23328.12
438.40	24531.15
438.58	26843.60
438.77	27435.76
438.96	27969.40
439.14	28886.89
439.33	29577.35
439.52	30291.21
439.70	29446.28
439.89	28701.99
440.08	27889.82
440.26	27793.86
440.45	28521.77
440.63	30829.54
440.82	32299.39
441.01	32030.23
441.19	31812.56
441.38	31854.69
441.57	33111.56
441.75	33598.39
441.94	34103.95
442.12	33528.17
442.31	34410.56
442.50	34136.71
442.68	33900.32
442.87	33612.43
443.05	32868.14
443.24	33200.50
443.43	33954.15
443.61	34761.64
443.80	35040.16
443.98	33144.33
444.17	33289.44
444.35	35030.80
444.54	35658.06
444.73	35246.13
444.91	34050.11
445.10	32470.25
445.28	31311.69
445.47	30642.29
445.65	30848.26
445.84	31349.14
446.02	32816.65
446.21	33181.77
446.39	33123.26
446.58	34043.09
446.77	34602.48
446.95	34604.82
447.14	35995.10
447.32	36306.39
447.51	35374.86
447.69	33755.21
447.88	33530.51
448.06	34272.46
448.25	34792.06
448.43	35236.77
448.62	34625.89
448.80	34366.09
448.99	34609.50
449.17	34866.96
449.36	34906.75
449.54	36383.63
449.73	36634.06
449.91	36762.79
450.10	38000.94
450.28	38738.21
450.46	38087.54
450.65	38237.33
450.83	38225.63
451.02	37165.37
451.20	37270.69
451.39	36973.44
451.57	36718.32
451.76	36919.61
451.94	36552.15
452.13	36158.94
452.31	34497.16
452.49	32643.45
452.68	33303.48
452.86	33631.16
453.05	33813.72
453.23	34848.24
453.42	35316.34
453.60	35798.49
453.78	36907.91
453.97	36006.80
454.15	36395.33
454.34	35424.01
454.52	35901.48
454.70	35079.95
454.89	35569.12
455.07	35756.36
455.26	36479.59
455.44	37359.63
455.62	38415.21
455.81	38401.17
455.99	37984.55
456.17	37368.99
456.36	38096.90
456.54	38635.22
456.73	39028.43
456.91	39337.38
457.09	39475.48
457.28	40100.40
457.46	38871.62
457.64	38628.20
457.83	37530.49
458.01	36603.64
458.19	37361.97
458.38	37572.62
458.56	38789.70
458.74	38553.30
458.93	38000.94
459.11	38036.05
459.29	37507.08
459.48	38239.67
459.66	37574.96
459.84	38017.32
460.03	38644.59
460.21	38284.14
460.39	39281.21
460.57	39597.18
460.76	39913.16
460.94	40081.67
461.12	39573.78
461.31	39536.33
461.49	39526.97
461.67	39665.06
461.85	40804.90
462.04	40121.46
462.22	40390.62
462.40	40730.00
462.59	40676.17
462.77	40273.60
462.95	40664.47
463.13	39700.17
463.32	39814.85
463.50	39503.56
463.68	39405.26
463.86	39524.63
464.05	39115.03
464.23	38312.23
464.41	38279.46
464.59	37495.38
464.78	39358.45
464.96	38986.30
465.14	38909.07
465.32	39732.93
465.50	40807.24
465.69	40608.29
465.87	39842.94
466.05	39140.78
466.23	37359.63
466.41	36519.38
466.60	37631.13
466.78	37787.95
466.96	38281.80
467.14	39145.46
467.32	39564.42
467.51	39313.98
467.69	37727.10
467.87	38459.68
468.05	38946.51
468.23	39236.74
468.41	39374.83
468.60	39192.27
468.78	39629.95
468.96	38909.07
469.14	39737.62
469.32	39969.33
469.50	38653.95
469.69	38368.40
469.87	38139.03
470.05	37900.29
470.23	38316.91
470.41	37954.13
470.59	38672.67
470.77	38845.87
470.95	39543.35
471.14	40081.67
471.32	40329.77
471.50	42110.92
471.68	42522.85
471.86	42291.14
472.04	43033.09
472.22	42808.40
472.40	40598.93
472.58	40486.59
472.77	40357.86
472.95	40634.04
473.13	41897.93
473.31	41078.74
473.49	41291.73
473.67	42195.18
473.85	42066.45
474.03	42974.58
474.21	42787.33
474.39	43863.98
474.57	43337.36
474.75	43622.90
474.93	43683.76
475.12	42464.34
475.30	42658.60
475.48	42981.60
475.66	43496.52
475.84	43115.01
476.02	42766.27
476.20	41998.57
476.38	43068.20
476.56	43449.70
476.74	44481.88
476.92	44610.61
477.10	45649.81
477.28	46810.71
477.46	46319.20
477.64	47264.78
477.82	46934.76
478.00	47185.20
478.18	46412.82
478.36	46375.37
478.54	46625.81
478.72	46705.39
478.90	47711.82
479.08	48622.29
479.26	48835.28
479.44	48725.27
479.62	48725.27
479.80	48849.32
479.98	48942.94
480.16	49130.19
480.34	48924.22
480.52	49462.54
480.70	49532.76
480.88	49294.02
481.06	50101.51
481.24	50368.33
481.41	51157.09
481.59	51772.65
481.77	51592.43
481.95	50852.82
482.13	50951.12
482.31	50932.40
482.49	51269.43
482.67	51164.11
482.85	51793.71
483.03	51892.02
483.21	52444.38
483.39	52079.26
483.57	51426.25
483.74	51522.21
483.92	51807.76
484.10	51791.37
484.28	52793.12
484.46	52720.57
484.64	53141.86
484.82	52617.58
485.00	52140.11
485.18	51594.77
485.35	50752.18
485.53	47807.78
485.71	43889.73
485.89	42754.57
486.07	44802.53
486.25	48378.87
486.43	50632.81
486.61	51571.36
486.78	51519.87
486.96	51473.06
487.14	52921.85
487.32	53439.11
487.50	54705.34
487.68	54967.48
487.85	55337.29
488.03	55421.55
488.21	55105.57
488.39	54726.41
488.57	53829.98
488.75	53539.75
488.92	54466.61
489.10	56324.99
489.28	57504.62
489.46	58068.69
489.64	57750.38
489.81	58101.46
489.99	57645.05
490.17	57661.44
490.35	58143.59
490.53	57677.82
490.70	57193.33
490.88	57361.85
491.06	58054.65
491.24	57986.77
491.41	57378.23
491.59	55749.22
491.77	54965.14
491.95	56076.90
492.13	57085.67
492.30	58026.56
492.48	58815.32
492.66	59388.75
492.84	59224.92
493.01	58946.39
493.19	58543.82
493.37	58223.17
493.54	58150.61
493.72	58761.49
493.90	59611.10
494.08	60231.35
494.25	60257.09
494.43	60449.02
494.61	60989.68
494.79	60987.34
494.96	60863.29
495.14	59983.25
495.32	59683.66
495.49	58728.72
495.67	59821.75
495.85	60949.89
496.02	61401.61
496.20	61010.74
496.38	60949.89
496.55	60762.65
496.73	61338.42
496.91	61083.30
497.09	61733.97
497.26	61925.89
497.44	61441.40
497.62	61020.11
497.79	60229.01
497.97	59215.55
498.14	59409.82
498.32	60526.25
498.50	61104.37
498.67	61675.46
498.85	61544.39
499.03	61703.54
499.20	61860.36
499.38	61975.05
499.56	61759.72
499.73	61172.24
499.91	60898.40
500.08	60566.04
500.26	60058.15
500.44	60198.58
500.61	60872.65
500.79	60879.67
500.97	60549.66
501.14	60214.96
501.32	60020.70
501.49	60156.45
501.67	60301.56
501.84	60743.92
502.02	61080.96
502.20	61443.74
502.37	61429.70
502.55	61457.79
502.72	61989.09
502.90	62351.87
503.07	62129.52
503.25	61961.00
503.43	61010.74
503.60	60587.11
503.78	59971.55
503.95	60343.69
504.13	61513.96
504.30	62286.34
504.48	62007.81
504.65	61834.61
504.83	61780.78
505.01	62436.13
505.18	62574.22
505.36	63297.45
505.53	63173.40
505.71	63524.48
505.88	63540.86
506.06	63044.67
506.23	62576.56
506.41	62227.82
506.58	62637.42
506.76	62452.51
506.93	62513.37
507.11	62188.03
507.28	62227.82
507.46	61900.15
507.63	61406.30
507.81	61268.20
507.98	61361.82
508.16	62101.43
508.33	62518.05
508.50	62745.08
508.68	63028.29
508.85	63678.96
509.03	63552.57
509.20	63650.87
509.38	62986.16
509.55	62129.52
509.73	62166.97
509.90	62726.36
510.08	62852.75
510.25	62878.49
510.42	62763.81
510.60	62466.56
510.77	62897.22
510.95	63332.56
511.12	63292.77
511.30	63725.77
511.47	63840.45
511.64	63999.61
511.82	63601.72
511.99	62819.98
512.17	62770.83
512.34	62122.50
512.51	62431.45
512.69	62227.82
512.86	62611.67
513.04	62915.94
513.21	63004.88
513.38	62651.46
513.56	62234.84
513.73	61616.94
513.90	61968.02
514.08	61984.41
514.25	62061.64
514.43	62546.14
514.60	62335.49
514.77	62597.63
514.95	62829.34
515.12	62506.35
515.29	62712.31
515.47	63318.51
515.64	63304.47
515.81	63213.19
515.99	62475.92
516.16	61230.75
516.33	59344.28
516.51	58028.90
516.68	57387.60
516.85	57193.33
517.03	57256.53
517.20	59510.46
517.37	61893.13
517.54	62815.30
517.72	62370.60
517.89	60383.48
518.06	58166.99
518.24	58288.70
518.41	60156.45
518.58	61464.81
518.75	61717.59
518.93	61851.00
519.10	61689.50
519.27	62049.94
519.45	62197.40
519.62	62897.22
519.79	63274.04
519.96	63051.69
520.14	62614.01
520.31	61769.08
520.48	61825.25
520.65	62265.27
520.83	63028.29
521.00	63257.66
521.17	63161.70
521.34	62621.03
521.52	62955.73
521.69	63667.25
521.86	63955.14
522.03	63501.07
522.20	62555.50
522.38	61422.68
522.55	61530.34
522.72	61996.11
522.89	62234.84
523.07	62312.08
523.24	62602.31
523.41	63524.48
523.58	63664.91
523.75	64083.87
523.92	64090.89
524.10	63898.97
524.27	63978.54
524.44	63714.06
524.61	63653.21
524.78	63306.81
524.96	63281.06
525.13	63344.26
525.30	63636.83
525.47	64044.08
525.64	63929.39
525.81	63159.36
525.98	62071.01
526.16	60804.78
526.33	60196.24
526.50	59821.75
526.67	59601.74
526.84	60065.17
527.01	61013.08
527.18	61574.81
527.36	62464.22
527.53	63290.43
527.70	63501.07
527.87	63112.55
528.04	62426.77
528.21	63058.71
528.38	63634.48
528.55	64151.74
528.72	64537.93
528.89	64608.15
529.07	64228.98
529.24	63625.12
529.41	63215.53
529.58	62515.71
529.75	62726.36
529.92	63138.29
530.09	63634.48
530.26	63861.52
530.43	64203.24
530.60	64243.02
530.77	64346.01
530.94	64535.59
531.11	64030.04
531.28	63800.66
531.46	63592.36
531.63	63695.34
531.80	63353.62
531.97	63309.15
532.14	62581.24
532.31	61647.37
532.48	61043.51
532.65	61024.79
532.82	61778.44
532.99	62848.06
533.16	63089.14
533.33	63646.19
533.50	63540.86
533.67	62801.25
533.84	62372.94
534.01	62819.98
534.18	62993.18
534.35	63274.04
534.52	62904.24
534.69	63058.71
534.86	63524.48
535.03	63669.59
535.20	64030.04
535.37	64322.60
535.54	64427.93
535.71	64072.17
535.88	63840.45
536.05	63255.32
536.22	62976.79
536.38	62597.63
536.55	62330.81
536.72	61752.69
536.89	61698.86
537.06	62513.37
537.23	63213.19
537.40	63451.92
537.57	63435.54
537.74	63187.44
537.91	63051.69
538.08	63110.20
538.25	63133.61
538.42	63327.87
538.59	63283.40
538.75	62614.01
538.92	62562.52
539.09	62269.95
539.26	62312.08
539.43	61801.85
539.60	61946.96
539.77	62241.87
539.94	62122.50
540.11	61336.08
540.28	60846.91
540.44	61003.72
540.61	61427.36
540.78	61422.68
540.95	62028.88
541.12	62389.32
541.29	62370.60
541.46	62599.97
541.62	62724.02
541.79	62700.61
541.96	62038.24
542.13	61951.64
542.30	62145.90
542.47	62532.09
542.63	62213.78
542.80	62094.41
542.97	62197.40
543.14	62101.43
543.31	62021.86
543.48	62386.98
543.64	63075.10
543.81	63451.92
543.98	63149.99
544.15	62752.10
544.32	62265.27
544.48	62152.93
544.65	62550.82
544.82	62962.75
544.99	62733.38
545.16	62326.13
545.32	61984.41
545.49	62740.40
545.66	63079.78
545.83	62794.23
546.00	62536.77
546.16	62162.29
546.33	62244.21
546.50	62166.97
546.67	62852.75
546.83	62213.78
547.00	62485.28
547.17	61724.61
547.34	61256.50
547.50	61092.66
547.67	61731.63
547.84	61591.20
548.00	62007.81
548.17	62347.19
548.34	62480.60
548.51	62262.93
548.67	62216.12
548.84	62473.58
549.01	62443.15
549.18	62190.37
549.34	62349.53
549.51	62246.55
549.68	62314.42
549.84	61822.91
550.01	61895.47
550.18	61602.90
550.34	61766.74
550.51	61953.98
550.68	62092.07
550.84	61584.18
551.01	61591.20
551.18	61520.98
551.34	61682.48
551.51	62071.01
551.68	62286.34
551.84	62410.38
552.01	61998.45
552.18	62021.86
552.34	61331.40
552.51	61167.56
552.68	60860.95
552.84	61530.34
553.01	61663.75
553.18	61663.75
553.34	61574.81
553.51	61595.88
553.67	62138.88
553.84	62155.27
554.01	62059.30
554.17	61794.82
554.34	61755.03
554.51	61787.80
554.67	62389.32
554.84	62143.56
555.00	61923.55
555.17	61539.71
555.33	61572.47
555.50	61434.38
555.67	61656.73
555.83	61474.17
556.00	61130.11
556.16	61354.80
556.33	60727.54
556.50	60591.79
556.66	60816.48
556.83	60566.04
556.99	60647.96
557.16	60870.31
557.32	61254.16
557.49	61315.01
557.65	60832.86
557.82	60889.04
557.98	61020.11
558.15	60575.40
558.32	59929.42
558.48	58990.86
558.65	59260.02
558.81	59716.43
558.98	59833.46
559.14	59910.69
559.31	60367.10
559.47	60116.66
559.64	59906.01
559.80	59578.34
559.97	59578.34
560.13	59992.61
560.30	60596.47
560.46	61258.84
560.63	61371.19
560.79	61663.75
560.96	61139.47
561.12	60046.44
561.29	59409.82
561.45	59248.32
561.61	59835.80
561.78	60198.58
561.94	60203.26
562.11	59985.59
562.27	59891.97
562.44	60224.32
562.60	60444.33
562.77	60657.32
562.93	60650.30
563.10	60701.79
563.26	60011.34
563.42	60051.12
563.59	59681.32
563.75	59725.79
563.92	59908.35
564.08	59742.17
564.24	59987.93
564.41	60196.24
564.57	59990.27
564.74	59934.10
564.90	59985.59
565.07	59716.43
565.23	59210.87
565.39	59035.33
565.56	58824.68
565.72	58520.41
565.88	58848.09
566.05	58817.66
566.21	59189.81
566.38	59262.36
566.54	59128.95
566.70	59573.66
566.87	59945.80
567.03	59873.24
567.19	60058.15
567.36	59730.47
567.52	59744.51
567.68	59381.73
567.85	58887.88
568.01	58667.87
568.17	58075.71
568.34	58277.00
568.50	58197.42
568.66	58300.40
568.83	58707.66
568.99	58728.72
569.15	58805.96
569.32	58740.42
569.48	58602.33
569.64	58403.39
569.81	58281.68
569.97	58108.48
570.13	57998.48
570.30	57801.87
570.46	57542.07
570.62	56865.66
570.78	56889.06
570.95	56910.13
571.11	57710.59
571.27	57703.57
571.43	58033.58
571.60	58150.61
571.76	58391.68
571.92	58546.16
572.09	58726.38
572.25	58789.58
572.41	58803.62
572.57	58726.38
572.74	58667.87
572.90	58183.38
573.06	58094.44
573.22	58131.89
573.38	58443.18
573.55	58305.09
573.71	58443.18
573.87	58241.89
574.03	57844.00
574.20	58171.67
574.36	57900.17
574.52	57904.85
574.68	57497.60
574.84	57453.13
575.01	57038.86
575.17	56683.09
575.33	57097.37
575.49	57506.96
575.65	57406.32
575.82	57202.69
575.98	57174.61
576.14	57247.16
576.30	57483.56
576.46	57659.10
576.62	57474.20
576.79	57560.79
576.95	57310.36
577.11	57090.35
577.27	56999.07
577.43	57221.42
577.59	56842.25
577.75	56495.85
577.92	56060.51
578.08	55833.48
578.24	55971.57
578.40	56151.79
578.56	56530.96
578.72	56720.54
578.88	56596.49
579.04	56849.27
579.21	56914.81
579.37	56872.68
579.53	57024.81
579.69	56940.55
579.85	57013.11
580.01	56842.25
580.17	56416.27
580.33	56411.59
580.49	56706.50
580.65	56870.34
580.82	57036.51
580.98	56800.12
581.14	56708.84
581.30	56924.17
581.46	56577.77
581.62	56921.83
581.78	56959.28
581.94	57069.28
582.10	56779.06
582.26	57176.95
582.42	57099.71
582.58	57125.46
582.74	56985.02
582.90	56954.60
583.06	57015.45
583.22	56704.16
583.38	56631.60
583.54	56603.52
583.70	56610.54
583.86	56830.55
584.02	56701.82
584.18	56825.87
584.34	56605.86
584.50	56669.05
584.66	56287.54
584.82	56303.93
584.98	56079.24
585.14	55774.97
