SpectraSuite Data File
++++++++++++++++++++++++++++++++++++
Date: Mon Oct 07 14:54:59 GMT-05:00 2013
User: price-jones
Dark Spectrum Present: No
Reference Spectrum Present: No
Number of Sampled Component Spectra: 1
Spectrometers: USB2+H05261
Integration Time (usec): 10000 (USB2+H05261)
Spectra Averaged: 1 (USB2+H05261)
Boxcar Smoothing: 0 (USB2+H05261)
Correct for Electrical Dark: No (USB2+H05261)
Strobe/Lamp Enabled: No (USB2+H05261)
Correct for Detector Non-linearity: No (USB2+H05261)
Correct for Stray Light: No (USB2+H05261)
Number of Pixels in Processed Spectrum: 2048
>>>>>Begin Processed Spectral Data<<<<<
365.73	0.00
365.92	0.00
366.12	0.00
366.32	0.00
366.52	0.00
366.72	0.00
366.91	0.00
367.11	0.00
367.31	0.00
367.51	0.00
367.70	0.00
367.90	0.00
368.10	0.00
368.30	0.00
368.49	0.00
368.69	0.00
368.89	0.00
369.09	0.00
369.28	0.00
369.48	0.00
369.68	0.00
369.87	0.00
370.07	0.00
370.27	0.00
370.47	70.22
370.66	1188.99
370.86	1406.66
371.06	1497.94
371.25	1509.65
371.45	1359.85
371.65	1231.12
371.84	1165.59
372.04	1401.98
372.24	1472.20
372.44	1586.88
372.63	1502.62
372.83	1207.72
373.03	1130.48
373.22	1125.80
373.42	1188.99
373.62	1327.08
373.81	1427.73
374.01	1427.73
374.21	1345.81
374.40	1191.33
374.60	1355.17
374.79	1490.92
374.99	1849.02
375.19	1858.39
375.38	1783.49
375.58	1727.32
375.78	1802.21
375.97	1694.55
376.17	1783.49
376.37	1842.00
376.56	1851.36
376.76	2022.22
376.95	2118.18
377.15	2356.92
377.35	2452.88
377.54	2502.03
377.74	2452.88
377.93	2607.36
378.13	2450.54
378.33	2118.18
378.52	2073.71
378.72	1968.39
378.91	2087.76
379.11	1820.94
379.31	1914.56
379.50	1914.56
379.70	2010.52
379.89	2146.27
380.09	2499.69
380.28	2392.03
380.48	2530.12
380.68	2476.29
380.87	2263.30
381.07	2087.76
381.26	1914.56
381.46	1886.47
381.65	1781.15
381.85	1755.40
382.04	1504.96
382.24	1537.73
382.43	1472.20
382.63	1465.18
382.83	1397.30
383.02	1327.08
383.22	1467.52
383.41	1507.30
383.61	1511.99
383.80	1895.83
384.00	2200.10
384.19	2293.72
384.39	2495.01
384.58	2370.96
384.78	2335.85
384.97	2466.92
385.17	2169.68
385.36	2059.67
385.56	1954.35
385.75	2155.63
385.95	2373.30
386.14	2548.84
386.34	2483.31
386.53	2310.11
386.72	2253.94
386.92	2340.54
387.11	2502.03
387.31	2548.84
387.50	2399.05
387.70	2370.96
387.89	2293.72
388.09	2314.79
388.28	2382.67
388.48	2497.35
388.67	2745.45
388.86	3122.27
389.06	3194.83
389.25	3410.16
389.45	3438.25
389.64	3246.32
389.84	3232.28
390.03	3178.45
390.22	3304.84
390.42	3506.12
390.61	3672.30
390.81	3803.37
391.00	3819.75
391.19	3801.03
391.39	3648.90
391.58	3524.85
391.78	3234.62
391.97	3091.85
392.16	2841.41
392.36	2431.82
392.55	1984.77
392.75	1577.52
392.94	1289.64
393.13	1446.45
393.33	1706.25
393.52	2200.10
393.71	2562.89
393.91	2925.67
394.10	3288.45
394.29	3618.47
394.49	3833.80
394.68	4053.81
394.88	4191.90
395.07	4245.73
395.26	4142.75
395.46	3950.82
395.65	3602.08
395.84	3164.40
396.04	2663.53
396.23	2113.50
396.42	1867.75
396.62	1975.41
396.81	2232.87
397.00	3042.70
397.19	3604.42
397.39	4290.20
397.58	4606.17
397.77	5050.88
397.97	5284.93
398.16	5123.43
398.35	5418.34
398.55	5514.30
398.74	5689.84
398.93	5937.94
399.12	5874.74
399.32	5760.06
399.51	5795.17
399.70	6029.22
399.90	6129.86
400.09	6001.13
400.28	6001.13
400.47	6202.42
400.67	6406.05
400.86	6518.39
401.05	6532.44
401.24	6380.30
401.44	6731.38
401.63	6544.14
401.82	6616.69
402.01	6546.48
402.21	6541.80
402.40	6672.87
402.59	6544.14
402.78	6120.50
402.97	6183.70
403.17	6539.46
403.36	6906.92
403.55	6663.51
403.74	6813.30
403.93	6494.99
404.13	5928.58
404.32	6202.42
404.51	6689.25
404.70	6876.49
404.89	6715.00
405.09	6787.55
405.28	6509.03
405.47	6661.16
405.66	6539.46
405.85	6267.95
406.05	6169.65
406.24	6359.24
406.43	6663.51
406.62	6883.52
406.81	6780.53
407.00	6750.10
407.20	6450.52
407.39	6553.50
407.58	6967.77
407.77	7419.50
407.96	7339.92
408.15	7508.44
408.34	7515.46
408.54	7866.54
408.73	7728.45
408.92	7714.41
409.11	7573.97
409.30	6939.69
409.49	6483.28
409.68	6186.04
409.87	6340.51
410.07	6607.33
410.26	7096.50
410.45	7410.14
410.64	7513.12
410.83	8056.12
411.02	8046.76
411.21	8257.41
411.40	8156.77
411.59	8168.47
411.78	8290.18
411.98	8329.97
412.17	8332.31
412.36	8084.21
412.55	8156.77
412.74	7918.03
412.93	7599.72
413.12	7831.43
413.31	8641.26
413.50	8784.03
413.69	8435.29
413.88	8212.94
414.07	8266.77
414.26	8486.78
414.45	8615.51
414.64	8561.68
414.83	8723.18
415.02	8353.37
415.22	8603.81
415.41	8833.18
415.60	9341.08
415.79	9420.66
415.98	9490.87
416.17	9479.17
416.36	9184.26
416.55	9090.64
416.74	8683.39
416.93	8613.17
417.12	8613.17
417.31	8791.05
417.50	8964.25
417.69	9160.86
417.88	9249.80
418.07	8964.25
418.26	8947.87
418.45	9032.13
418.64	9341.08
418.83	9741.31
419.02	9315.33
419.21	9287.25
419.39	8938.51
419.58	8367.42
419.77	8723.18
419.96	9298.95
420.15	9479.17
420.34	9701.52
420.53	9935.57
420.72	10036.22
420.91	9998.77
421.10	9954.30
421.29	10108.77
421.48	9628.96
421.67	9963.66
421.86	9645.35
422.05	8676.37
422.24	8088.89
422.43	8198.90
422.61	9392.57
422.80	10083.03
422.99	9867.70
423.18	9441.72
423.37	9137.45
423.56	9275.54
423.75	9331.72
423.94	9750.67
424.13	9132.77
424.32	9174.90
424.50	9132.77
424.69	9315.33
424.88	9149.15
425.07	9116.39
425.26	9308.31
425.45	8884.67
425.64	8627.21
425.83	8952.55
426.01	9528.32
426.20	9589.17
426.39	9628.96
426.58	8781.69
426.77	8133.36
426.96	7592.70
427.15	8414.23
427.33	9165.54
427.52	9198.31
427.71	9350.44
427.90	8912.76
428.09	8809.78
428.28	8758.28
428.46	8362.73
428.65	8472.74
428.84	8727.86
429.03	8442.31
429.22	8084.21
429.40	7559.93
429.59	6738.40
429.78	6321.79
429.97	6296.04
430.16	6345.19
430.34	6525.41
430.53	6520.73
430.72	6782.87
430.91	7735.47
431.10	9200.65
431.28	10637.73
431.47	11133.93
431.66	10892.85
431.85	9706.20
432.03	9233.41
432.22	9151.49
432.41	9668.75
432.60	10401.34
432.79	10771.15
432.97	10993.50
433.16	10483.26
433.35	9226.39
433.54	8425.93
433.72	8252.73
433.91	8517.21
434.10	9605.56
434.28	9895.78
434.47	10696.25
434.66	10384.96
434.85	10073.67
435.03	10253.89
435.22	10441.13
435.41	11077.76
435.59	11152.65
435.78	11363.30
435.97	11669.91
436.16	11590.33
436.34	11157.33
436.53	11103.50
436.72	11229.89
436.90	10668.16
437.09	10654.12
437.28	10572.20
437.46	10815.62
437.65	10319.42
437.84	9804.50
438.02	9486.19
438.21	9240.44
438.40	9624.28
438.58	10511.35
438.77	10647.10
438.96	10864.77
439.14	11407.77
439.33	11510.75
439.52	11609.06
439.70	11531.82
439.89	11002.86
440.08	11028.60
440.26	10958.39
440.45	11353.94
440.63	11831.41
440.82	12739.54
441.01	12709.11
441.19	12372.07
441.38	12875.29
441.57	12886.99
441.75	12884.65
441.94	13071.89
442.12	13060.19
442.31	13614.90
442.50	13675.75
442.68	13228.71
442.87	12709.11
443.05	13046.15
443.24	13191.26
443.43	13460.42
443.61	13664.05
443.80	13851.29
443.98	13092.96
444.17	12908.05
444.35	13886.40
444.54	13874.70
444.73	13916.83
444.91	13076.57
445.10	12620.17
445.28	12147.38
445.47	11634.80
445.65	12248.02
445.84	12463.35
446.02	13151.47
446.21	13603.19
446.39	12982.95
446.58	13387.86
446.77	13888.74
446.95	13610.22
447.14	14244.50
447.32	14239.82
447.51	13734.26
447.69	13298.92
447.88	13282.54
448.06	13806.82
448.25	13689.79
448.43	13865.33
448.62	13820.86
448.80	13408.93
448.99	13572.77
449.17	13687.45
449.36	14031.51
449.54	14558.13
449.73	14354.51
449.91	14560.47
450.10	14946.66
450.28	15229.87
450.46	15297.74
450.65	15077.73
450.83	14733.67
451.02	14726.65
451.20	14595.58
451.39	14927.94
451.57	14586.22
451.76	14406.00
451.94	14143.86
452.13	13984.70
452.31	13273.18
452.49	12891.67
452.68	12992.31
452.86	12992.31
453.05	13172.54
453.23	13862.99
453.42	14225.78
453.60	14459.83
453.78	14387.27
453.97	14146.20
454.15	14075.98
454.34	13682.77
454.52	13956.61
454.70	13884.06
454.89	13926.19
455.07	13867.67
455.26	14274.93
455.44	14398.98
455.62	14834.32
455.81	15066.03
455.99	14953.68
456.17	14831.97
456.36	15033.26
456.54	15166.67
456.73	15346.89
456.91	15463.92
457.09	15562.22
457.28	15573.92
457.46	15091.77
457.64	15075.39
457.83	14740.69
458.01	14265.57
458.19	15286.04
458.38	14836.66
458.56	15262.63
458.74	15391.36
458.93	14951.34
459.11	14546.43
459.29	14677.50
459.48	14380.25
459.66	14422.38
459.84	15051.99
460.03	14951.34
460.21	14754.74
460.39	15445.20
460.57	15494.35
460.76	15667.55
460.94	15789.25
461.12	15503.71
461.31	15590.31
461.49	15672.23
461.67	15513.07
461.85	15950.75
462.04	15887.56
462.22	15768.19
462.40	15480.30
462.59	15906.28
462.77	15669.89
462.95	15625.42
463.13	15515.41
463.32	15508.39
463.50	15250.93
463.68	15662.86
463.86	15382.00
464.05	14965.39
464.23	14738.35
464.41	14532.39
464.59	14597.92
464.78	15372.64
464.96	15063.69
465.14	15173.69
465.32	15517.75
465.50	15681.59
465.69	16404.81
465.87	15646.48
466.05	15136.24
466.23	14457.49
466.41	14143.86
466.60	14939.64
466.78	14752.40
466.96	15122.20
467.14	14946.66
467.32	15126.88
467.51	15398.38
467.69	14361.53
467.87	14932.62
468.05	15398.38
468.23	15335.19
468.41	15632.44
468.60	15524.77
468.78	15742.44
468.96	15414.77
469.14	15372.64
469.32	15492.01
469.50	15007.52
469.69	14558.13
469.87	14726.65
470.05	14766.44
470.23	15197.10
470.41	15180.71
470.59	15075.39
470.77	15037.94
470.95	15578.61
471.14	15812.66
471.32	15662.86
471.50	16535.88
471.68	16610.78
471.86	16475.03
472.04	16477.37
472.22	16531.20
472.40	15641.80
472.58	15470.94
472.77	15618.39
472.95	15978.84
473.13	16540.57
473.31	16100.55
473.49	16482.05
473.67	16830.79
473.85	16666.95
474.03	17146.76
474.21	17109.32
474.39	16903.35
474.57	17165.49
474.75	17427.63
474.93	16732.49
475.12	16716.11
475.30	16779.30
475.48	16292.47
475.66	16535.88
475.84	16690.36
476.02	16343.96
476.20	15995.22
476.38	16915.05
476.56	17273.15
476.74	17626.57
476.92	17987.02
477.10	17759.98
477.28	18277.24
477.46	18118.09
477.64	18588.53
477.82	18871.74
478.00	18735.99
478.18	18129.79
478.36	18398.95
478.54	18644.71
478.72	18169.58
478.90	19103.45
479.08	19639.44
479.26	19653.48
479.44	19838.38
479.62	19672.20
479.80	19126.86
479.98	19304.74
480.16	19452.19
480.34	19623.05
480.52	19878.17
480.70	20428.20
480.88	19843.06
481.06	20056.05
481.24	20320.53
481.41	20526.50
481.59	20922.05
481.77	20861.19
481.95	20727.78
482.13	20610.76
482.31	20411.81
482.49	21013.33
482.67	21088.23
482.85	21083.55
483.03	21652.30
483.21	21694.43
483.39	21640.59
483.57	20940.77
483.74	21380.79
483.92	21455.69
484.10	21453.35
484.28	21954.22
484.46	21921.46
484.64	22630.64
484.82	21579.74
485.00	21010.99
485.18	20776.94
485.35	20011.58
485.53	17916.80
485.71	16608.44
485.89	17235.70
486.07	17848.93
486.25	19798.59
486.43	20798.00
486.61	20842.47
486.78	20751.19
486.96	20968.86
487.14	21994.01
487.32	22340.41
487.50	22984.06
487.68	23798.57
487.85	24177.73
488.03	23688.56
488.21	22881.08
488.39	22139.13
488.57	22403.61
488.75	22422.33
488.92	23482.59
489.10	25198.21
489.28	25191.19
489.46	25823.13
489.64	26307.62
489.81	25853.56
489.99	25825.47
490.17	25818.45
490.35	26696.15
490.53	26089.95
490.70	25532.90
490.88	25053.09
491.06	26663.38
491.24	26457.42
491.41	25584.40
491.59	24170.71
491.77	24088.79
491.95	24739.46
492.13	25661.63
492.30	26417.63
492.48	27131.49
492.66	27623.00
492.84	27335.12
493.01	27814.93
493.19	26934.88
493.37	26761.69
493.54	26511.25
493.72	27559.81
493.90	27538.74
494.08	27599.60
494.25	28898.59
494.43	28713.69
494.61	28898.59
494.79	29202.86
494.96	28556.88
495.14	28198.77
495.32	27503.64
495.49	27690.88
495.67	28465.60
495.85	29446.28
496.02	29699.06
496.20	29579.69
496.38	29333.93
496.55	29057.75
496.73	29467.34
496.91	29626.50
497.09	30637.61
497.26	31129.12
497.44	29984.60
497.62	29633.52
497.79	28900.94
497.97	27447.46
498.14	27917.91
498.32	29029.66
498.50	30096.95
498.67	30122.69
498.85	30595.48
499.03	30841.24
499.20	31119.76
499.38	30616.55
499.56	30157.80
499.73	29804.38
499.91	29202.86
500.08	28807.31
500.26	28493.68
500.44	28994.56
500.61	28978.17
500.79	28877.53
500.97	28835.40
501.14	28098.13
501.32	28013.87
501.49	28395.38
501.67	28261.97
501.84	28950.09
502.02	28753.48
502.20	29474.37
502.37	29450.96
502.55	29972.90
502.72	30094.61
502.90	31527.02
503.07	30394.20
503.25	29898.00
503.43	28837.74
503.60	28545.17
503.78	27456.82
503.95	28666.88
504.13	30773.36
504.30	31342.11
504.48	30185.89
504.65	30565.06
504.83	30450.37
505.01	30576.76
505.18	31070.61
505.36	32177.68
505.53	32163.64
505.71	32453.87
505.88	32308.76
506.06	31541.06
506.23	31601.91
506.41	31108.06
506.58	31749.37
506.76	30972.31
506.93	30808.47
507.11	29888.64
507.28	30410.58
507.46	30188.23
507.63	29399.47
507.81	29207.55
507.98	29497.77
508.16	30405.90
508.33	31585.53
508.50	31072.95
508.68	31342.11
508.85	33237.95
509.03	32692.60
509.20	32116.83
509.38	30579.10
509.55	30986.35
509.73	30937.20
509.90	31311.69
510.08	31005.08
510.25	31307.01
510.42	30857.62
510.60	31594.89
510.77	31651.06
510.95	32222.16
511.12	31728.30
511.30	32816.65
511.47	32886.87
511.64	32849.42
511.82	32343.86
511.99	31316.37
512.17	30972.31
512.34	30651.66
512.51	31501.27
512.69	31000.40
512.86	30726.55
513.04	31796.18
513.21	31515.31
513.38	30405.90
513.56	29970.56
513.73	28730.08
513.90	29427.56
514.08	29909.71
514.25	31009.76
514.43	31295.30
514.60	30752.30
514.77	31077.63
514.95	30665.70
515.12	30976.99
515.29	31351.48
515.47	31559.78
515.64	31351.48
515.81	31826.60
515.99	31447.44
516.16	28638.80
516.33	26670.40
516.51	25813.77
516.68	24716.06
516.85	24898.62
517.03	25738.87
517.20	28297.08
517.37	30382.49
517.54	31028.48
517.72	30022.05
517.89	26632.96
518.06	26515.93
518.24	27536.40
518.41	29034.35
518.58	29778.64
518.75	29336.27
518.93	29537.56
519.10	30401.22
519.27	29710.76
519.45	30906.77
519.62	31667.45
519.79	31384.24
519.96	31475.52
520.14	31115.08
520.31	29930.77
520.48	29839.49
520.65	29989.28
520.83	31632.34
521.00	31564.46
521.17	30775.70
521.34	30216.32
521.52	31634.68
521.69	31267.22
521.86	31796.18
522.03	31491.91
522.20	29635.86
522.38	29085.84
522.55	30071.20
522.72	30375.47
522.89	30532.29
523.07	31178.28
523.24	31391.26
523.41	31477.86
523.58	31826.60
523.75	32236.20
523.92	32872.82
524.10	32556.85
524.27	32341.52
524.44	31660.43
524.61	31529.36
524.78	31812.56
524.96	31089.34
525.13	31173.60
525.30	32070.02
525.47	31826.60
525.64	31267.22
525.81	31295.30
525.98	29706.08
526.16	28510.07
526.33	27838.33
526.50	26827.22
526.67	27321.07
526.84	27613.64
527.01	28622.41
527.18	30075.88
527.36	31384.24
527.53	31786.82
527.70	31000.40
527.87	30623.57
528.04	31718.94
528.21	30787.41
528.38	32144.92
528.55	33928.41
528.72	33596.05
528.89	32936.02
529.07	32355.57
529.24	30976.99
529.41	30574.42
529.58	31197.00
529.75	31702.56
529.92	31288.28
530.09	32154.28
530.26	32292.37
530.43	32006.83
530.60	31730.64
530.77	32496.00
530.94	32268.97
531.11	31941.29
531.28	31639.36
531.46	30934.86
531.63	31007.42
531.80	30625.91
531.97	29750.55
532.14	29659.27
532.31	28222.18
532.48	28753.48
532.65	28538.15
532.82	29149.03
532.99	31353.82
533.16	31662.77
533.33	31573.83
533.50	31065.93
533.67	30902.09
533.84	30820.17
534.01	30333.34
534.18	30398.88
534.35	31658.09
534.52	30806.13
534.69	31522.34
534.86	31309.35
535.03	31861.71
535.20	32535.79
535.37	33266.03
535.54	32648.13
535.71	31955.33
535.88	31934.27
536.05	30787.41
536.22	30672.72
536.38	29998.65
536.55	29472.03
536.72	29097.54
536.89	29631.18
537.06	30349.73
537.23	31941.29
537.40	30862.30
537.57	31094.02
537.74	31164.23
537.91	30850.60
538.08	30326.32
538.25	31604.25
538.42	31775.11
538.59	31271.90
538.75	30115.67
538.92	29734.17
539.09	29930.77
539.26	29715.44
539.43	29589.05
539.60	28994.56
539.77	29635.86
539.94	28727.74
540.11	28507.72
540.28	28505.38
540.44	28065.36
540.61	29347.98
540.78	30120.35
540.95	30005.67
541.12	29912.05
541.29	30150.78
541.46	30071.20
541.62	30199.93
541.79	30316.96
541.96	29771.61
542.13	29237.97
542.30	29305.85
542.47	29930.77
542.63	30331.00
542.80	29638.20
542.97	30108.65
543.14	29289.46
543.31	29013.28
543.48	29881.62
543.64	30485.48
543.81	30174.19
543.98	30630.59
544.15	29394.79
544.32	29235.63
544.48	29902.68
544.65	29844.17
544.82	30883.37
544.99	29996.31
545.16	29401.81
545.32	29699.06
545.49	30878.69
545.66	31199.34
545.83	30443.35
546.00	29390.11
546.16	30033.75
546.33	29757.57
546.50	29411.17
546.67	30183.55
546.83	29277.76
547.00	29254.36
547.17	29289.46
547.34	29017.96
547.50	27910.89
547.67	28706.67
547.84	29345.64
548.00	29284.78
548.17	28753.48
548.34	28933.70
548.51	29617.14
548.67	29359.68
548.84	29673.31
549.01	29813.74
549.18	30094.61
549.34	29479.05
549.51	29612.46
549.68	29720.12
549.84	29975.24
550.01	29359.68
550.18	30654.00
550.34	29191.16
550.51	29020.30
550.68	28505.38
550.84	28938.38
551.01	28474.96
551.18	28510.07
551.34	29874.60
551.51	28233.88
551.68	28900.94
551.84	29069.45
552.01	28844.76
552.18	27985.79
552.34	28503.04
552.51	28910.30
552.68	28767.52
552.84	28655.18
553.01	29041.37
553.18	29151.37
553.34	29008.60
553.51	29713.10
553.67	29067.11
553.84	28276.01
554.01	28603.69
554.17	28273.67
554.34	29177.12
554.51	28746.46
554.67	28643.48
554.84	29598.41
555.00	28650.50
555.17	28556.88
555.33	29064.77
555.50	29434.58
555.67	28830.72
555.83	28683.27
556.00	28037.28
556.16	28446.87
556.33	27587.89
556.50	28381.34
556.66	27456.82
556.83	26789.77
556.99	26958.29
557.16	27115.11
557.32	28079.41
557.49	28273.67
557.65	27826.63
557.82	27896.85
557.98	27693.22
558.15	27019.14
558.32	26745.30
558.48	26590.83
558.65	26307.62
558.81	25830.15
558.98	26305.28
559.14	26920.84
559.31	27985.79
559.47	27075.32
559.64	26082.93
559.80	25214.59
559.97	25401.83
560.13	26595.51
560.30	27178.30
560.46	28369.63
560.63	29706.08
560.79	29855.87
560.96	28322.82
561.12	26424.65
561.29	26574.44
561.45	26429.33
561.61	26398.90
561.78	26593.17
561.94	26391.88
562.11	26764.03
562.27	26792.11
562.44	27328.10
562.60	27468.53
562.77	27875.78
562.93	27564.49
563.10	27768.12
563.26	27309.37
563.42	26948.93
563.59	26808.50
563.75	25755.26
563.92	26022.08
564.08	26792.11
564.24	26286.56
564.41	26551.04
564.57	27190.00
564.74	27211.07
564.90	26246.77
565.07	24999.26
565.23	24980.54
565.39	25188.85
565.56	25745.89
565.72	25556.31
565.88	25053.09
566.05	25652.27
566.21	25589.08
566.38	24823.72
566.54	26181.23
566.70	26586.15
566.87	25631.21
567.03	26143.78
567.19	26703.17
567.36	25708.44
567.52	25422.90
567.68	25699.08
567.85	24552.22
568.01	24313.48
568.17	24086.45
568.34	24446.90
568.50	24718.40
568.66	25116.29
568.83	24261.99
568.99	24364.98
569.15	24765.21
569.32	25055.43
569.48	24369.66
569.64	24063.05
569.81	24472.64
569.97	24147.31
570.13	23459.19
570.30	23342.16
570.46	23508.34
570.62	22909.16
570.78	22670.43
570.95	23513.02
571.11	24081.77
571.27	24477.32
571.43	24254.97
571.60	24709.04
571.76	24788.61
571.92	25003.94
572.09	25408.86
572.25	24657.54
572.41	26129.74
572.57	26609.55
572.74	25795.04
572.90	24769.89
573.06	24425.83
573.22	24151.99
573.38	24353.27
573.55	23995.17
573.71	24032.62
573.87	24374.34
574.03	24929.05
574.20	24517.11
574.36	24400.08
574.52	24694.99
574.68	24709.04
574.84	23417.06
575.01	23014.49
575.17	22728.94
575.33	22881.08
575.49	22991.08
575.65	23749.42
575.82	23374.93
575.98	24231.57
576.14	23185.35
576.30	23314.08
576.46	23700.26
576.62	23735.37
576.79	23693.24
576.95	23777.50
577.11	23548.13
577.27	23440.47
577.43	23438.12
577.59	23637.07
577.75	23372.59
577.92	23042.57
578.08	22958.31
578.24	23054.28
578.40	23531.75
578.56	22918.53
578.72	23683.88
578.88	23321.10
579.04	23183.01
579.21	23690.90
579.37	23213.43
579.53	23576.22
579.69	23784.52
579.85	23271.95
580.01	22232.75
580.17	21675.70
580.33	23138.54
580.49	23229.82
580.65	22595.53
580.82	22356.80
580.98	22401.27
581.14	22347.44
581.30	21965.93
581.46	22207.00
581.62	22834.27
581.78	22810.86
581.94	22902.14
582.10	22773.41
582.26	22948.95
582.42	24226.89
582.58	23283.65
582.74	24130.92
582.90	23929.64
583.06	24851.81
583.22	24037.30
583.38	23309.40
583.54	23229.82
583.70	23321.10
583.86	22761.71
584.02	23323.44
584.18	23342.16
584.34	24287.74
584.50	23531.75
584.66	22972.36
584.82	22733.62
584.98	22029.12
585.14	21703.79
585.30	21874.65
585.46	21788.05
585.62	21603.14
585.78	21603.14
585.94	21834.86
586.10	21282.49
586.26	21315.26
586.42	21685.06
586.58	22026.78
586.74	22143.81
586.90	22031.46
587.06	21965.93
