SpectraSuite Data File
++++++++++++++++++++++++++++++++++++
Date: Mon Oct 07 14:54:55 GMT-05:00 2013
User: price-jones
Dark Spectrum Present: No
Reference Spectrum Present: No
Number of Sampled Component Spectra: 1
Spectrometers: USB2+H05261
Integration Time (usec): 10000 (USB2+H05261)
Spectra Averaged: 1 (USB2+H05261)
Boxcar Smoothing: 0 (USB2+H05261)
Correct for Electrical Dark: No (USB2+H05261)
Strobe/Lamp Enabled: No (USB2+H05261)
Correct for Detector Non-linearity: No (USB2+H05261)
Correct for Stray Light: No (USB2+H05261)
Number of Pixels in Processed Spectrum: 2048
>>>>>Begin Processed Spectral Data<<<<<
365.73	0.00
365.92	0.00
366.12	0.00
366.32	0.00
366.52	0.00
366.72	0.00
366.91	0.00
367.11	0.00
367.31	0.00
367.51	0.00
367.70	0.00
367.90	0.00
368.10	0.00
368.30	0.00
368.49	0.00
368.69	0.00
368.89	0.00
369.09	0.00
369.28	0.00
369.48	0.00
369.68	0.00
369.87	0.00
370.07	0.00
370.27	0.00
370.47	0.00
370.66	0.00
370.86	0.00
371.06	0.00
371.25	0.00
371.45	0.00
371.65	0.00
371.84	0.00
372.04	0.00
372.24	77.24
372.44	46.81
372.63	0.00
372.83	7.02
373.03	0.00
373.22	0.00
373.42	0.00
373.62	0.00
373.81	65.54
374.01	56.17
374.21	95.96
374.40	0.00
374.60	7.02
374.79	58.51
374.99	107.66
375.19	86.60
375.38	112.35
375.58	86.60
375.78	49.15
375.97	44.47
376.17	81.92
376.37	84.26
376.56	177.88
376.76	84.26
376.95	131.07
377.15	191.92
377.35	156.82
377.54	194.26
377.74	191.92
377.93	205.97
378.13	278.52
378.33	229.37
378.52	177.88
378.72	152.13
378.91	100.64
379.11	117.03
379.31	124.05
379.50	147.45
379.70	154.48
379.89	133.41
380.09	124.05
380.28	262.14
380.48	222.35
380.68	180.22
380.87	175.54
381.07	124.05
381.26	102.98
381.46	58.51
381.65	131.07
381.85	98.30
382.04	58.51
382.24	63.19
382.43	74.90
382.63	77.24
382.83	58.51
383.02	18.72
383.22	0.00
383.41	0.00
383.61	49.15
383.80	42.13
384.00	128.73
384.19	159.16
384.39	149.79
384.58	110.01
384.78	257.46
384.97	173.20
385.17	138.09
385.36	84.26
385.56	77.24
385.75	126.39
385.95	133.41
386.14	114.69
386.34	243.42
386.53	215.33
386.72	161.50
386.92	88.94
387.11	156.82
387.31	236.39
387.50	210.65
387.70	175.54
387.89	210.65
388.09	161.50
388.28	154.48
388.48	124.05
388.67	238.73
388.86	252.78
389.06	271.50
389.25	339.38
389.45	353.42
389.64	393.21
389.84	287.89
390.03	304.27
390.22	285.55
390.42	308.95
390.61	367.46
390.81	442.36
391.00	372.15
391.19	454.06
391.39	397.89
391.58	339.38
391.78	339.38
391.97	269.16
392.16	236.39
392.36	180.22
392.55	25.75
392.75	0.00
392.94	0.00
393.13	32.77
393.33	0.00
393.52	210.65
393.71	210.65
393.91	222.35
394.10	306.61
394.29	416.62
394.49	337.04
394.68	470.45
394.88	503.22
395.07	498.53
395.26	451.72
395.46	404.91
395.65	416.62
395.84	327.68
396.04	292.57
396.23	156.82
396.42	28.09
396.62	65.54
396.81	184.90
397.00	269.16
397.19	297.25
397.39	461.09
397.58	531.30
397.77	645.99
397.97	615.56
398.16	601.52
398.35	779.40
398.55	730.25
398.74	636.63
398.93	613.22
399.12	760.67
399.32	681.10
399.51	716.20
399.70	819.19
399.90	748.97
400.09	732.59
400.28	784.08
400.47	716.20
400.67	842.59
400.86	755.99
401.05	821.53
401.24	917.49
401.44	851.96
401.63	802.80
401.82	919.83
402.01	901.11
402.21	849.61
402.40	863.66
402.59	858.98
402.78	730.25
402.97	702.16
403.17	903.45
403.36	898.77
403.55	896.43
403.74	922.17
403.93	849.61
404.13	814.51
404.32	889.40
404.51	800.46
404.70	884.72
404.89	924.51
405.09	802.80
405.28	793.44
405.47	837.91
405.66	800.46
405.85	847.27
406.05	763.01
406.24	858.98
406.43	887.06
406.62	863.66
406.81	802.80
407.00	866.00
407.20	851.96
407.39	793.44
407.58	847.27
407.77	936.21
407.96	901.11
408.15	1039.20
408.34	938.55
408.54	1015.79
408.73	947.92
408.92	985.37
409.11	880.04
409.30	985.37
409.49	828.55
409.68	812.17
409.87	751.31
410.07	802.80
410.26	882.38
410.45	858.98
410.64	1027.50
410.83	1053.24
411.02	1001.75
411.21	1071.97
411.40	1097.71
411.59	1261.55
411.78	1184.31
411.98	1048.56
412.17	1036.86
412.36	1018.13
412.55	1111.75
412.74	961.96
412.93	1025.15
413.12	1018.13
413.31	1163.25
413.50	1177.29
413.69	1207.72
413.88	1163.25
414.07	1114.10
414.26	1090.69
414.45	1181.97
414.64	1137.50
414.83	1074.31
415.02	1104.73
415.22	1102.39
415.41	1144.52
415.60	1160.91
415.79	1315.38
415.98	1320.06
416.17	1275.59
416.36	1177.29
416.55	1350.49
416.74	1238.14
416.93	1128.14
417.12	1114.10
417.31	1219.42
417.50	1181.97
417.69	1179.63
417.88	1235.80
418.07	1151.54
418.26	1242.82
418.45	1219.42
418.64	1214.74
418.83	1366.87
419.02	1233.46
419.21	1308.36
419.39	1212.40
419.58	1116.44
419.77	1104.73
419.96	1174.95
420.15	1242.82
420.34	1320.06
420.53	1366.87
420.72	1406.66
420.91	1380.92
421.10	1451.13
421.29	1334.11
421.48	1149.20
421.67	1336.45
421.86	1308.36
422.05	1207.72
422.24	1027.50
422.43	1088.35
422.61	1139.84
422.80	1343.47
422.99	1348.15
423.18	1186.65
423.37	1268.57
423.56	1263.89
423.75	1235.80
423.94	1289.64
424.13	1217.08
424.32	1214.74
424.50	1167.93
424.69	1165.59
424.88	1196.01
425.07	1167.93
425.26	1249.85
425.45	1158.57
425.64	1203.04
425.83	1179.63
426.01	1224.10
426.20	1235.80
426.39	1320.06
426.58	1086.01
426.77	1095.37
426.96	997.07
427.15	980.68
427.33	1177.29
427.52	1186.65
427.71	1149.20
427.90	1203.04
428.09	1165.59
428.28	1100.05
428.46	1109.41
428.65	1100.05
428.84	1088.35
429.03	1188.99
429.22	1095.37
429.40	997.07
429.59	847.27
429.78	667.05
429.97	767.70
430.16	786.42
430.34	748.97
430.53	711.52
430.72	807.48
430.91	915.15
431.10	1050.90
431.28	1357.51
431.47	1451.13
431.66	1441.77
431.85	1275.59
432.03	1160.91
432.22	1121.12
432.41	1186.65
432.60	1352.83
432.79	1306.02
432.97	1430.07
433.16	1280.27
433.35	1322.40
433.54	1139.84
433.72	1097.71
433.91	1039.20
434.10	1130.48
434.28	1338.79
434.47	1514.33
434.66	1390.28
434.85	1366.87
435.03	1308.36
435.22	1343.47
435.41	1451.13
435.59	1476.88
435.78	1390.28
435.97	1586.88
436.16	1563.48
436.34	1544.75
436.53	1589.22
436.72	1460.49
436.90	1394.96
437.09	1406.66
437.28	1308.36
437.46	1383.26
437.65	1425.39
437.84	1261.55
438.02	1238.14
438.21	1207.72
438.40	1151.54
438.58	1439.43
438.77	1338.79
438.96	1584.54
439.14	1549.43
439.33	1570.50
439.52	1572.84
439.70	1519.01
439.89	1568.16
440.08	1481.56
440.26	1355.17
440.45	1537.73
440.63	1519.01
440.82	1741.36
441.01	1692.21
441.19	1563.48
441.38	1647.74
441.57	1692.21
441.75	1928.60
441.94	1771.79
442.12	1626.67
442.31	1774.13
442.50	1746.04
442.68	1816.26
442.87	1799.87
443.05	1652.42
443.24	1696.89
443.43	1799.87
443.61	1839.66
443.80	1863.07
443.98	1717.95
444.17	1785.83
444.35	1884.13
444.54	1842.00
444.73	1884.13
444.91	1877.11
445.10	1696.89
445.28	1619.65
445.47	1502.62
445.65	1437.09
445.84	1556.46
446.02	1605.61
446.21	1687.53
446.39	1694.55
446.58	1713.27
446.77	1762.42
446.95	1715.61
447.14	1858.39
447.32	1968.39
447.51	1823.28
447.69	1769.44
447.88	1729.66
448.06	1732.00
448.25	1678.16
448.43	1788.17
448.62	1870.09
448.80	1837.32
448.99	1636.03
449.17	1792.85
449.36	1902.86
449.54	1900.52
449.73	1858.39
449.91	1952.01
450.10	1937.96
450.28	2083.08
450.46	1991.80
450.65	1944.99
450.83	1956.69
451.02	1849.02
451.20	1895.83
451.39	1984.77
451.57	1933.28
451.76	1940.30
451.94	1849.02
452.13	1893.49
452.31	1827.96
452.49	1687.53
452.68	1666.46
452.86	1629.01
453.05	1692.21
453.23	1867.75
453.42	1713.27
453.60	1870.09
453.78	1933.28
453.97	1884.13
454.15	1907.54
454.34	1675.82
454.52	1774.13
454.70	1769.44
454.89	1816.26
455.07	1818.60
455.26	1799.87
455.44	1860.73
455.62	1963.71
455.81	1844.34
455.99	2050.31
456.17	1987.11
456.36	2008.18
456.54	1973.07
456.73	2062.01
456.91	2003.50
457.09	2043.29
457.28	2040.95
457.46	2015.20
457.64	1935.62
457.83	1926.26
458.01	1811.57
458.19	1919.24
458.38	1895.83
458.56	1921.58
458.74	1935.62
458.93	1926.26
459.11	1966.05
459.29	1916.90
459.48	1944.99
459.66	1844.34
459.84	1816.26
460.03	1893.49
460.21	1989.46
460.39	1998.82
460.57	1970.73
460.76	2029.24
460.94	2097.12
461.12	2010.52
461.31	2104.14
461.49	1989.46
461.67	2026.90
461.85	1980.09
462.04	1991.80
462.22	2148.61
462.40	2167.34
462.59	2071.37
462.77	2172.02
462.95	2017.54
463.13	1902.86
463.32	2017.54
463.50	2033.93
463.68	1937.96
463.86	2043.29
464.05	2045.63
464.23	1919.24
464.41	1816.26
464.59	1790.51
464.78	1874.77
464.96	1937.96
465.14	1842.00
465.32	1980.09
465.50	2064.35
465.69	2029.24
465.87	2010.52
466.05	2005.84
466.23	1842.00
466.41	1818.60
466.60	1849.02
466.78	1778.81
466.96	1853.70
467.14	2012.86
467.32	1975.41
467.51	1952.01
467.69	1895.83
467.87	1982.43
468.05	1970.73
468.23	1933.28
468.41	1998.82
468.60	1961.37
468.78	2064.35
468.96	1907.54
469.14	1935.62
469.32	1937.96
469.50	1879.45
469.69	1863.07
469.87	1851.36
470.05	1820.94
470.23	1842.00
470.41	1909.88
470.59	1984.77
470.77	1977.75
470.95	1975.41
471.14	1966.05
471.32	1942.64
471.50	2141.59
471.68	2003.50
471.86	2122.87
472.04	2069.03
472.22	2099.46
472.40	2033.93
472.58	2015.20
472.77	2099.46
472.95	2038.61
473.13	2176.70
473.31	2118.18
473.49	2092.44
473.67	2076.06
473.85	2026.90
474.03	2136.91
474.21	2015.20
474.39	2202.44
474.57	2314.79
474.75	2200.10
474.93	2186.06
475.12	2132.23
475.30	2062.01
475.48	2127.55
475.66	2211.81
475.84	2057.33
476.02	2134.57
476.20	2026.90
476.38	2111.16
476.56	2342.88
476.74	2354.58
476.92	2319.47
477.10	2258.62
477.28	2324.15
477.46	2417.77
477.64	2459.90
477.82	2361.60
478.00	2424.80
478.18	2289.04
478.36	2253.94
478.54	2345.22
478.72	2370.96
478.90	2492.67
479.08	2448.20
479.26	2492.67
479.44	2628.42
479.62	2534.80
479.80	2485.65
479.98	2417.77
480.16	2513.74
480.34	2516.08
480.52	2427.14
480.70	2562.89
480.88	2623.74
481.06	2581.61
481.24	2609.70
481.41	2719.70
481.59	2757.15
481.77	2757.15
481.95	2717.36
482.13	2607.36
482.31	2719.70
482.49	2696.30
482.67	2740.77
482.85	2696.30
483.03	2700.98
483.21	2860.13
483.39	2792.26
483.57	2820.35
483.74	2679.91
483.92	2843.75
484.10	2719.70
484.28	2761.83
484.46	2864.82
484.64	2799.28
484.82	2768.85
485.00	2700.98
485.18	2818.00
485.35	2647.15
485.53	2401.39
485.71	2232.87
485.89	2083.08
486.07	2333.51
486.25	2476.29
486.43	2642.46
486.61	2738.43
486.78	2581.61
486.96	2738.43
487.14	2827.37
487.32	2876.52
487.50	2993.55
487.68	2876.52
487.85	3077.80
488.03	3023.97
488.21	3002.91
488.39	2984.18
488.57	2913.97
488.75	3021.63
488.92	2981.84
489.10	3288.45
489.28	3370.37
489.46	3330.58
489.64	3400.80
489.81	3389.10
489.99	3459.31
490.17	3428.88
490.35	3496.76
490.53	3414.84
490.70	3358.67
490.88	3321.22
491.06	3407.82
491.24	3346.97
491.41	3218.24
491.59	3117.59
491.77	3047.38
491.95	3201.85
492.13	3293.13
492.30	3368.03
492.48	3578.68
492.66	3463.99
492.84	3524.85
493.01	3639.53
493.19	3421.86
493.37	3384.41
493.54	3473.36
493.72	3501.44
493.90	3611.45
494.08	3630.17
494.25	3805.71
494.43	3714.43
494.61	3843.16
494.79	3880.61
494.96	3843.16
495.14	3688.68
495.32	3499.10
495.49	3613.79
495.67	3648.90
495.85	3833.80
496.02	3847.84
496.20	3838.48
496.38	3826.78
496.55	3700.39
496.73	3911.04
496.91	3840.82
497.09	3939.12
497.26	3990.61
497.44	3885.29
497.62	3829.12
497.79	3749.54
497.97	3662.94
498.14	3545.91
498.32	3679.32
498.50	3850.18
498.67	3971.89
498.85	3707.41
499.03	3943.80
499.20	3899.33
499.38	3840.82
499.56	3887.63
499.73	3887.63
499.91	3911.04
500.08	3662.94
500.26	3784.65
500.44	3754.22
500.61	3784.65
500.79	3822.09
500.97	3653.58
501.14	3723.79
501.32	3552.93
501.49	3590.38
501.67	3620.81
501.84	3644.21
502.02	3775.28
502.20	3904.01
502.37	3824.44
502.55	3875.93
502.72	4002.32
502.90	3913.38
503.07	3838.48
503.25	3971.89
503.43	3899.33
503.60	3761.24
503.78	3679.32
503.95	3660.60
504.13	3857.20
504.30	4004.66
504.48	3971.89
504.65	3822.09
504.83	3801.03
505.01	3887.63
505.18	4037.42
505.36	4170.83
505.53	4173.18
505.71	4311.27
505.88	4184.88
506.06	4102.96
506.23	4086.58
506.41	3868.91
506.58	3911.04
506.76	4140.41
506.93	3854.86
507.11	3941.46
507.28	3964.87
507.46	3803.37
507.63	3896.99
507.81	3981.25
507.98	3868.91
508.16	3997.64
508.33	3915.72
508.50	3969.55
508.68	4189.56
508.85	4175.52
509.03	4168.49
509.20	4210.62
509.38	4042.11
509.55	3969.55
509.73	3941.46
509.90	4077.21
510.08	4023.38
510.25	4243.39
510.42	4030.40
510.60	3995.29
510.77	3908.69
510.95	4093.60
511.12	4149.77
511.30	4301.90
511.47	4337.01
511.64	4156.79
511.82	4203.60
511.99	4142.75
512.17	4074.87
512.34	3913.38
512.51	3976.57
512.69	3988.27
512.86	4032.74
513.04	4166.15
513.21	4180.20
513.38	3901.67
513.56	3995.29
513.73	3840.82
513.90	3747.20
514.08	3861.88
514.25	3920.40
514.43	3847.84
514.60	3913.38
514.77	4042.11
514.95	4135.73
515.12	3983.59
515.29	4060.83
515.47	4086.58
515.64	4060.83
515.81	4173.18
515.99	3925.08
516.16	3632.51
516.33	3473.36
516.51	3288.45
516.68	3145.68
516.85	3316.54
517.03	3208.87
517.20	3445.27
517.37	3798.69
517.54	3953.16
517.72	3852.52
517.89	3506.12
518.06	3286.11
518.24	3382.07
518.41	3602.08
518.58	3826.78
518.75	3782.31
518.93	3742.52
519.10	3733.15
519.27	3889.97
519.45	3985.93
519.62	4063.17
519.79	4074.87
519.96	3894.65
520.14	3981.25
520.31	3805.71
520.48	3911.04
520.65	3861.88
520.83	3875.93
521.00	4107.64
521.17	4051.47
521.34	3957.85
521.52	3948.48
521.69	4109.98
521.86	4131.05
522.03	4084.23
522.20	3824.44
522.38	3882.95
522.55	3747.20
522.72	3880.61
522.89	3864.22
523.07	3990.61
523.24	3824.44
523.41	4210.62
523.58	4100.62
523.75	4166.15
523.92	4124.02
524.10	4198.92
524.27	4119.34
524.44	4051.47
524.61	4004.66
524.78	4051.47
524.96	4124.02
525.13	4119.34
525.30	4166.15
525.47	4156.79
525.64	4044.45
525.81	4056.15
525.98	3878.27
526.16	3590.38
526.33	3552.93
526.50	3510.80
526.67	3515.48
526.84	3590.38
527.01	3510.80
527.18	3768.26
527.36	3995.29
527.53	3955.51
527.70	4056.15
527.87	3967.21
528.04	3805.71
528.21	4114.66
528.38	4117.00
528.55	4236.37
528.72	4191.90
528.89	4280.84
529.07	4175.52
529.24	4187.22
529.41	4072.53
529.58	3857.20
529.75	3927.42
529.92	3868.91
530.09	4086.58
530.26	4222.33
530.43	4177.86
530.60	4184.88
530.77	4259.78
530.94	4212.96
531.11	4227.01
531.28	4219.99
531.46	4191.90
531.63	3988.27
531.80	3983.59
531.97	3997.64
532.14	3786.99
532.31	3721.45
532.48	3684.00
532.65	3667.62
532.82	3660.60
532.99	3925.08
533.16	3873.59
533.33	4049.13
533.50	4018.70
533.67	3791.67
533.84	3904.01
534.01	3962.53
534.18	3908.69
534.35	4051.47
534.52	4044.45
534.69	4051.47
534.86	3995.29
535.03	4060.83
535.20	4292.54
535.37	4208.28
535.54	4147.43
535.71	4037.42
535.88	4011.68
536.05	3962.53
536.22	3920.40
536.38	3911.04
536.55	3915.72
536.72	3714.43
536.89	3679.32
537.06	3906.35
537.23	4070.19
537.40	4037.42
537.57	3971.89
537.74	3990.61
537.91	3974.23
538.08	4030.40
538.25	4023.38
538.42	4039.76
538.59	3927.42
538.75	3974.23
538.92	3714.43
539.09	3838.48
539.26	3880.61
539.43	3733.15
539.60	3742.52
539.77	3925.08
539.94	3801.03
540.11	3609.11
540.28	3595.06
540.44	3618.47
540.61	3627.83
540.78	3632.51
540.95	3695.71
541.12	3700.39
541.29	3737.84
541.46	3889.97
541.62	3955.51
541.79	3946.14
541.96	3712.09
542.13	3700.39
542.30	3702.73
542.47	3850.18
542.63	3737.84
542.80	3644.21
542.97	3779.97
543.14	3712.09
543.31	3791.67
543.48	3810.39
543.64	3906.35
543.81	3981.25
543.98	3754.22
544.15	3920.40
544.32	3698.05
544.48	3751.88
544.65	3756.56
544.82	3885.29
544.99	3758.90
545.16	3822.09
545.32	3798.69
545.49	3812.73
545.66	3953.16
545.83	3936.78
546.00	3901.67
546.16	3632.51
546.33	3716.77
546.50	3744.86
546.67	3674.64
546.83	3805.71
547.00	3794.01
547.17	3805.71
547.34	3559.95
547.50	3625.49
547.67	3686.34
547.84	3829.12
548.00	3749.54
548.17	3932.10
548.34	3761.24
548.51	3742.52
548.67	3754.22
548.84	3880.61
549.01	3756.56
549.18	3761.24
549.34	3737.84
549.51	3728.47
549.68	3686.34
549.84	3826.78
550.01	3765.92
550.18	3723.79
550.34	3730.81
550.51	3716.77
550.68	3719.11
550.84	3684.00
551.01	3590.38
551.18	3559.95
551.34	3772.94
551.51	3700.39
551.68	3716.77
551.84	3742.52
552.01	3742.52
552.18	3691.02
552.34	3602.08
552.51	3536.55
552.68	3541.23
552.84	3651.24
553.01	3669.96
553.18	3510.80
553.34	3522.51
553.51	3489.74
553.67	3609.11
553.84	3801.03
554.01	3698.05
554.17	3632.51
554.34	3679.32
554.51	3618.47
554.67	3709.75
554.84	3721.45
555.00	3632.51
555.17	3651.24
555.33	3728.47
555.50	3784.65
555.67	3559.95
555.83	3742.52
556.00	3482.72
556.16	3590.38
556.33	3655.92
556.50	3545.91
556.66	3489.74
556.83	3419.52
556.99	3524.85
557.16	3606.77
557.32	3513.14
557.49	3564.64
557.65	3583.36
557.82	3492.08
557.98	3508.46
558.15	3487.40
558.32	3279.09
558.48	3225.26
558.65	3229.94
558.81	3372.71
558.98	3361.01
559.14	3522.51
559.31	3391.44
559.47	3356.33
559.64	3393.78
559.80	3337.60
559.97	3246.32
560.13	3309.52
560.30	3508.46
560.46	3698.05
560.63	3564.64
560.79	3438.25
560.96	3590.38
561.12	3314.20
561.29	3346.97
561.45	3304.84
561.61	3180.79
561.78	3421.86
561.94	3440.59
562.11	3351.65
562.27	3283.77
562.44	3372.71
562.60	3426.54
562.77	3419.52
562.93	3368.03
563.10	3398.46
563.26	3218.24
563.42	3314.20
563.59	3499.10
563.75	3412.50
563.92	3148.02
564.08	3208.87
564.24	3293.13
564.41	3386.76
564.57	3302.50
564.74	3346.97
564.90	3166.74
565.07	3211.22
565.23	3227.60
565.39	3286.11
565.56	3159.72
565.72	3014.61
565.88	3136.32
566.05	3124.62
566.21	3162.06
566.38	3187.81
566.54	3094.19
566.70	3361.01
566.87	3346.97
567.03	3150.36
567.19	3396.12
567.36	3274.41
567.52	3396.12
567.68	3309.52
567.85	3229.94
568.01	3112.91
568.17	3000.57
568.34	3077.80
568.50	3155.04
568.66	3084.83
568.83	3199.51
568.99	3213.56
569.15	3112.91
569.32	3145.68
569.48	3171.43
569.64	3009.93
569.81	3087.17
569.97	3082.49
570.13	2988.86
570.30	3089.51
570.46	2892.90
570.62	2885.88
570.78	2909.29
570.95	2869.50
571.11	3052.06
571.27	3108.23
571.43	3084.83
571.60	3136.32
571.76	3157.38
571.92	3138.66
572.09	3183.13
572.25	3185.47
572.41	3173.77
572.57	3049.72
572.74	3157.38
572.90	3108.23
573.06	3087.17
573.22	3077.80
573.38	3112.91
573.55	2949.08
573.71	3119.93
573.87	3061.42
574.03	3038.02
574.20	2932.69
574.36	3117.59
574.52	2981.84
574.68	3000.57
574.84	3056.74
575.01	2916.31
575.17	2806.30
575.33	2829.71
575.49	2911.63
575.65	2878.86
575.82	3033.33
575.98	2897.58
576.14	2827.37
576.30	2953.76
576.46	3021.63
576.62	2965.46
576.79	3026.31
576.95	2916.31
577.11	2897.58
577.27	2946.73
577.43	2764.17
577.59	2909.29
577.75	2818.00
577.92	2759.49
578.08	2686.94
578.24	2855.45
578.40	2771.19
578.56	2928.01
578.72	2913.97
578.88	2843.75
579.04	2942.05
579.21	2909.29
579.37	2916.31
579.53	2928.01
579.69	2892.90
579.85	2925.67
580.01	2909.29
580.17	2785.24
580.33	2766.51
580.49	2986.52
580.65	2925.67
580.82	2871.84
580.98	2855.45
581.14	2895.24
581.30	2904.60
581.46	2932.69
581.62	2839.07
581.78	3000.57
581.94	2832.05
582.10	2839.07
582.26	2862.48
582.42	2836.73
582.58	2904.60
582.74	2832.05
582.90	2841.41
583.06	2775.88
583.22	2876.52
583.38	2918.65
583.54	2848.43
583.70	2895.24
583.86	2782.90
584.02	2803.96
584.18	2818.00
584.34	2855.45
584.50	2808.64
584.66	2759.49
584.82	2818.00
584.98	2810.98
585.14	2698.64
585.30	2682.25
585.46	2609.70
585.62	2607.36
585.78	2693.96
585.94	2651.83
586.10	2710.34
586.26	2700.98
586.42	2708.00
586.58	2705.66
586.74	2923.33
586.90	2731.41
587.06	2609.70
587.22	2602.68
587.38	2679.91
587.54	2708.00
587.70	2572.25
587.86	2647.15
588.02	2642.46
588.18	2553.52
588.34	2483.31
588.49	2366.28
588.65	2232.87
588.81	2209.47
588.97	2272.66
589.13	2221.17
589.29	2270.32
589.45	2385.01
589.61	2363.94
589.77	2361.60
589.93	2637.78
590.08	2434.16
590.24	2520.76
590.40	2693.96
590.56	2544.16
590.72	2574.59
590.88	2478.63
591.04	2499.69
591.20	2509.05
591.35	2548.84
591.51	2396.71
591.67	2464.58
591.83	2469.27
591.99	2490.33
592.15	2492.67
592.31	2490.33
592.46	2525.44
592.62	2555.86
592.78	2537.14
592.94	2457.56
593.10	2551.18
593.26	2583.95
593.41	2478.63
593.57	2574.59
593.73	2593.31
593.89	2443.52
594.05	2448.20
594.20	2361.60
594.36	2377.98
594.52	2396.71
594.68	2296.07
594.84	2349.90
594.99	2385.01
595.15	2413.09
595.31	2527.78
595.47	2532.46
595.62	2459.90
595.78	2462.24
595.94	2410.75
596.10	2583.95
596.25	2562.89
596.41	2399.05
596.57	2502.03
596.73	2361.60
596.88	2361.60
597.04	2466.92
597.20	2438.84
597.36	2452.88
597.51	2380.32
597.67	2424.80
597.83	2338.20
597.99	2300.75
598.14	2352.24
598.30	2485.65
598.46	2375.64
598.61	2499.69
598.77	2424.80
598.93	2450.54
599.09	2546.50
599.24	2415.43
599.40	2331.17
599.56	2385.01
