SpectraSuite Data File
++++++++++++++++++++++++++++++++++++
Date: Mon Oct 07 14:53:38 GMT-05:00 2013
User: price-jones
Dark Spectrum Present: No
Reference Spectrum Present: No
Number of Sampled Component Spectra: 1
Spectrometers: USB2+H05261
Integration Time (usec): 100000 (USB2+H05261)
Spectra Averaged: 1 (USB2+H05261)
Boxcar Smoothing: 0 (USB2+H05261)
Correct for Electrical Dark: No (USB2+H05261)
Strobe/Lamp Enabled: No (USB2+H05261)
Correct for Detector Non-linearity: No (USB2+H05261)
Correct for Stray Light: No (USB2+H05261)
Number of Pixels in Processed Spectrum: 2048
>>>>>Begin Processed Spectral Data<<<<<
365.73	0.00
365.92	0.00
366.12	0.00
366.32	0.00
366.52	0.00
366.72	0.00
366.91	0.00
367.11	0.00
367.31	0.00
367.51	0.00
367.70	0.00
367.90	0.00
368.10	0.00
368.30	0.00
368.49	0.00
368.69	0.00
368.89	0.00
369.09	0.00
369.28	0.00
369.48	0.00
369.68	0.00
369.87	0.00
370.07	0.00
370.27	0.00
370.47	505.56
370.66	2946.73
370.86	3482.72
371.06	3772.94
371.25	3847.84
371.45	3494.42
371.65	3138.66
371.84	2813.32
372.04	3045.04
372.24	3541.23
372.44	3499.10
372.63	3541.23
372.83	3325.90
373.03	2839.07
373.22	2628.42
373.42	2834.39
373.62	3426.54
373.81	3571.66
374.01	3524.85
374.21	3157.38
374.40	2878.86
374.60	2951.42
374.79	3496.76
374.99	4039.76
375.19	4329.99
375.38	4369.78
375.58	4077.21
375.78	4049.13
375.97	4210.62
376.17	4292.54
376.37	4203.60
376.56	4390.84
376.76	4664.69
376.95	4802.78
377.15	5235.78
377.35	5586.86
377.54	5643.03
377.74	5741.33
377.93	5893.47
378.13	6001.13
378.33	5296.63
378.52	5095.35
378.72	4638.94
378.91	4809.80
379.11	4542.98
379.31	4409.57
379.50	4332.33
379.70	4704.48
379.89	5308.34
380.09	5352.81
380.28	5748.36
380.48	5748.36
380.68	5586.86
380.87	5600.90
381.07	5104.71
381.26	4795.76
381.46	4355.74
381.65	4133.39
381.85	4044.45
382.04	4035.08
382.24	3857.20
382.43	3517.83
382.63	3459.31
382.83	3379.73
383.02	3375.05
383.22	3426.54
383.41	3447.61
383.61	3665.28
383.80	4269.14
384.00	4779.37
384.19	5336.42
384.39	5610.26
384.58	5755.38
384.78	5640.69
384.97	5586.86
385.17	5240.46
385.36	4952.57
385.56	4713.84
385.75	4774.69
385.95	5291.95
386.14	5921.56
386.34	5818.57
386.53	5589.20
386.72	5334.08
386.92	5256.84
387.11	5579.84
387.31	5710.91
387.50	5923.90
387.70	5568.13
387.89	5612.60
388.09	5678.14
388.28	5453.45
388.48	5448.77
388.67	6045.60
388.86	6633.08
389.06	7323.54
389.25	7534.18
389.45	7709.72
389.64	7452.27
389.84	7674.62
390.03	7339.92
390.22	7485.03
390.42	7691.00
390.61	8194.22
390.81	8758.28
391.00	8854.25
391.19	8788.71
391.39	8739.56
391.58	8028.04
391.78	7466.31
391.97	7293.11
392.16	6738.40
392.36	6244.55
392.55	5193.65
392.75	3988.27
392.94	3248.66
393.13	3325.90
393.33	3714.43
393.52	4936.19
393.71	5935.60
393.91	6637.76
394.10	7246.30
394.29	8070.17
394.49	8533.59
394.68	9329.38
394.88	9362.14
395.07	9802.16
395.26	9628.96
395.46	9247.46
395.65	8582.74
395.84	7660.57
396.04	6600.31
396.23	5268.55
396.42	4449.36
396.62	4119.34
396.81	4870.65
397.00	6319.45
397.19	7889.95
397.39	9158.52
397.58	10736.04
397.77	11145.63
397.97	11686.29
398.16	11646.51
398.35	12116.95
398.55	12336.96
398.74	12943.16
398.93	13385.52
399.12	13200.62
399.32	12755.92
399.51	13055.51
399.70	13881.72
399.90	13474.46
400.09	13530.64
400.28	13549.36
400.47	13661.71
400.67	14464.51
400.86	14834.32
401.05	14752.40
401.24	14686.86
401.44	14906.87
401.63	15105.82
401.82	15119.86
402.01	14930.28
402.21	15002.83
402.40	15562.22
402.59	14775.80
402.78	14396.64
402.97	13912.14
403.17	14434.08
403.36	15009.86
403.55	15925.00
403.74	16133.31
403.93	15208.80
404.13	14279.61
404.32	14143.86
404.51	14387.27
404.70	15772.87
404.89	15927.35
405.09	15332.85
405.28	14747.72
405.47	14885.81
405.66	14848.36
405.85	14431.74
406.05	14183.65
406.24	14384.93
406.43	15094.11
406.62	15456.90
406.81	15721.38
407.00	14897.51
407.20	14661.12
407.39	14675.16
407.58	15473.28
407.77	16027.99
407.96	16423.54
408.15	16692.70
408.34	16973.56
408.54	17635.94
408.73	18260.86
408.92	17289.54
409.11	16830.79
409.30	16250.34
409.49	15583.29
409.68	14469.19
409.87	13598.51
410.07	14572.18
410.26	15784.57
410.45	16734.83
410.64	17308.26
410.83	17596.15
411.02	18209.37
411.21	18941.96
411.40	18642.37
411.59	18838.97
411.78	18824.93
411.98	18436.40
412.17	19061.32
412.36	18455.12
412.55	18735.99
412.74	17987.02
412.93	17785.73
413.12	17664.02
413.31	19300.06
413.50	19807.95
413.69	20114.56
413.88	19407.72
414.07	18785.14
414.26	18841.31
414.45	19597.31
414.64	19632.41
414.83	19559.86
415.02	19442.83
415.22	19288.35
415.41	19939.02
415.60	20451.60
415.79	21029.71
415.98	21488.46
416.17	21635.91
416.36	21317.60
416.55	20563.95
416.74	20365.00
416.93	19627.73
417.12	19726.04
417.31	19772.85
417.50	19948.39
417.69	20943.11
417.88	20606.08
418.07	20467.98
418.26	19988.18
418.45	20460.96
418.64	21092.91
418.83	21708.47
419.02	21614.85
419.21	21266.11
419.39	20430.54
419.58	19286.01
419.77	19358.57
419.96	20320.53
420.15	21350.37
420.34	22239.77
420.53	22789.80
420.72	23473.23
420.91	23080.02
421.10	22937.25
421.29	22817.88
421.48	21750.60
421.67	23206.41
421.86	22419.99
422.05	20922.05
422.24	18721.95
422.43	18480.87
422.61	20730.12
422.80	22031.46
422.99	22352.12
423.18	21436.97
423.37	21137.38
423.56	21067.16
423.75	21357.39
423.94	22143.81
424.13	20322.87
424.32	20788.64
424.50	20966.52
424.69	20568.63
424.88	20872.90
425.07	20723.10
425.26	20486.71
425.45	20580.33
425.64	20034.99
425.83	20372.02
426.01	21315.26
426.20	21923.80
426.39	21561.02
426.58	20130.95
426.77	18321.71
426.96	17975.31
427.15	18735.99
427.33	20194.14
427.52	21003.97
427.71	20842.47
427.90	20875.24
428.09	20650.55
428.28	20044.35
428.46	19660.50
428.65	19246.23
428.84	19538.79
429.03	19761.14
429.22	18717.26
429.40	18008.08
429.59	16271.40
429.78	14485.58
429.97	14157.90
430.16	14635.37
430.34	14586.22
430.53	14597.92
430.72	14857.72
430.91	16634.19
431.10	19335.17
431.28	22841.29
431.47	24947.77
431.66	25209.91
431.85	23019.17
432.03	21212.28
432.22	20093.50
432.41	20608.42
432.60	23241.52
432.79	23796.23
432.97	24730.10
433.16	24594.35
433.35	22125.08
433.54	20142.65
433.72	18277.24
433.91	19332.82
434.10	21523.57
434.28	23147.90
434.47	24390.72
434.66	23744.73
434.85	23215.77
435.03	23278.97
435.22	23426.42
435.41	24943.09
435.59	25280.13
435.78	25420.56
435.97	26256.13
436.16	26417.63
436.34	25993.99
436.53	25418.22
436.72	25624.18
436.90	23974.11
437.09	24355.61
437.28	23480.25
437.46	24608.39
437.65	24325.19
437.84	22745.33
438.02	20608.42
438.21	20828.43
438.40	21748.26
438.58	23894.53
438.77	24524.13
438.96	24610.73
439.14	26019.74
439.33	26319.32
439.52	26794.45
439.70	25982.29
439.89	25914.41
440.08	24861.17
440.26	24823.72
440.45	25479.07
440.63	26740.62
440.82	28648.16
441.01	28451.55
441.19	28084.09
441.38	28538.15
441.57	29177.12
441.75	30171.85
441.94	30087.59
442.12	29813.74
442.31	30466.75
442.50	30132.06
442.68	29841.83
442.87	29975.24
443.05	29280.10
443.24	29886.30
443.43	30534.63
443.61	30878.69
443.80	31445.10
443.98	29259.04
444.17	29228.61
444.35	31363.18
444.54	31721.28
444.73	31189.98
444.91	29883.96
445.10	29113.92
445.28	27751.73
445.47	27150.21
445.65	27498.95
445.84	28320.48
446.02	29186.48
446.21	29797.36
446.39	29827.79
446.58	30012.69
446.77	30483.14
446.95	30380.15
447.14	31779.79
447.32	32355.57
447.51	31379.56
447.69	30459.73
447.88	29851.19
448.06	30302.92
448.25	30834.22
448.43	31321.05
448.62	30562.72
448.80	30700.81
448.99	30611.87
449.17	30960.61
449.36	31000.40
449.54	32002.14
449.73	32697.28
449.91	33036.66
450.10	33886.28
450.28	34363.75
450.46	34045.43
450.65	33984.58
450.83	34050.11
451.02	33233.27
451.20	32994.53
451.39	33041.34
451.57	32643.45
451.76	33158.37
451.94	32685.58
452.13	32109.81
452.31	30761.66
452.49	29324.57
452.68	29137.33
452.86	29242.65
453.05	29736.51
453.23	30600.16
453.42	31536.38
453.60	32451.53
453.78	32601.32
453.97	32498.34
454.15	32584.94
454.34	31725.96
454.52	31800.86
454.70	31658.09
454.89	31850.01
455.07	31800.86
455.26	31941.29
455.44	32884.53
455.62	33900.32
455.81	34143.74
455.99	33706.05
456.17	33654.56
456.36	33446.26
456.54	34223.31
456.73	34448.00
456.91	34593.12
457.09	34866.96
457.28	35969.35
457.46	34419.92
457.64	34293.53
457.83	33574.98
458.01	32198.75
458.19	33326.89
458.38	33839.47
458.56	35047.18
458.74	34272.46
458.93	33528.17
459.11	33607.75
459.29	33607.75
459.48	33860.53
459.66	33553.92
459.84	34125.01
460.03	34469.07
460.21	34440.98
460.39	35119.74
460.57	35164.21
460.76	35800.83
460.94	35580.82
461.12	35178.25
461.31	35491.88
461.49	35377.20
461.67	35201.66
461.85	36453.84
462.04	36067.66
462.22	36180.00
462.40	36470.23
462.59	35976.37
462.77	36194.04
462.95	36032.55
463.13	35828.92
463.32	35667.42
463.50	35349.11
463.68	35220.38
463.86	35157.19
464.05	34419.92
464.23	34312.25
464.41	33766.91
464.59	33109.22
464.78	35019.10
464.96	35129.10
465.14	34473.75
465.32	35311.66
465.50	36198.73
465.69	36954.72
465.87	35749.34
466.05	34958.24
466.23	33326.89
466.41	32554.51
466.60	33586.69
466.78	33357.32
466.96	34185.86
467.14	34649.29
467.32	35260.17
467.51	35377.20
467.69	33909.68
467.87	34529.92
468.05	34937.18
468.23	34995.69
468.41	35267.19
468.60	35199.32
468.78	35101.01
468.96	34717.17
469.14	35969.35
469.32	35887.43
469.50	34586.10
469.69	34419.92
469.87	34146.08
470.05	34181.18
470.23	33993.94
470.41	33961.17
470.59	34394.17
470.77	34576.73
470.95	35372.52
471.14	35552.74
471.32	36161.28
471.50	37862.85
471.68	37830.08
471.86	38286.48
472.04	38157.75
472.22	38202.22
472.40	36891.52
472.58	36390.65
472.77	35644.02
472.95	36762.79
473.13	37659.22
473.31	36959.40
473.49	36999.19
473.67	38012.64
473.85	37490.70
474.03	38333.29
474.21	38602.46
474.39	38993.32
474.57	39515.26
474.75	39363.13
474.93	39009.71
475.12	38059.45
475.30	38246.69
475.48	38459.68
475.66	39208.65
475.84	38347.34
476.02	38473.73
476.20	37624.11
476.38	38370.74
476.56	39384.19
476.74	40151.89
476.92	40301.68
477.10	40486.59
477.28	42267.73
477.46	42143.69
477.64	42454.98
477.82	42632.86
478.00	42895.00
478.18	42019.64
478.36	42796.70
478.54	41722.39
478.72	42569.66
478.90	43253.10
479.08	43826.53
479.26	44507.63
479.44	44926.58
479.62	44233.78
479.80	44495.92
479.98	44622.31
480.16	45179.36
480.34	44072.29
480.52	44638.70
480.70	44889.13
480.88	45078.72
481.06	46024.29
481.24	45928.33
481.41	47166.48
481.59	47751.61
481.77	47480.11
481.95	47019.02
482.13	46417.50
482.31	46738.16
482.49	47508.19
482.67	47356.06
482.85	47250.74
483.03	47870.98
483.21	48346.11
483.39	48528.67
483.57	47962.26
483.74	47304.57
483.92	47353.72
484.10	47192.22
484.28	49198.06
484.46	49062.31
484.64	49535.10
484.82	48783.79
485.00	48577.82
485.18	47700.12
485.35	46213.88
485.53	43288.21
485.71	39660.38
485.89	38679.69
486.07	40809.58
486.25	44060.58
486.43	46637.51
486.61	47435.64
486.78	47054.13
486.96	47131.37
487.14	48973.37
487.32	49844.05
487.50	50728.77
487.68	51597.11
487.85	51800.74
488.03	52222.03
488.21	51690.73
488.39	51061.13
488.57	50625.79
488.75	50014.91
488.92	51199.22
489.10	52910.15
489.28	54085.10
489.46	55128.98
489.64	54522.78
489.81	55011.95
489.99	54703.00
490.17	54595.34
490.35	54817.69
490.53	54628.10
490.70	54248.94
490.88	53930.62
491.06	54967.48
491.24	54913.65
491.41	54164.68
491.59	52673.76
491.77	51995.00
491.95	52783.76
492.13	53972.75
492.30	55042.38
492.48	55987.95
492.66	56484.15
492.84	56261.80
493.01	56378.82
493.19	55711.77
493.37	55384.10
493.54	54911.31
493.72	55557.30
493.90	56404.57
494.08	57406.32
494.25	57661.44
494.43	57834.64
494.61	57986.77
494.79	58286.36
494.96	57963.37
495.14	57546.75
495.32	56512.23
495.49	55962.21
495.67	56800.12
495.85	58136.57
496.02	58520.41
496.20	58459.56
496.38	57883.79
496.55	57893.15
496.73	58433.81
496.91	58398.71
497.09	59056.40
497.26	59152.36
497.44	58702.98
497.62	58178.70
497.79	57425.04
497.97	56416.27
498.14	56526.28
498.32	57359.51
498.50	58300.40
498.67	59004.91
498.85	58862.13
499.03	58817.66
499.20	59344.28
499.38	59107.89
499.56	58822.34
499.73	58560.20
499.91	58258.27
500.08	57911.88
500.26	57015.45
500.44	57389.94
500.61	58262.96
500.79	57876.77
500.97	57687.18
501.14	57432.07
501.32	57399.30
501.49	57291.63
501.67	57471.85
501.84	57935.28
502.02	58342.53
502.20	58740.42
502.37	58571.91
502.55	58789.58
502.72	59316.20
502.90	59929.42
503.07	59669.62
503.25	59182.79
503.43	58314.45
503.60	57584.20
503.78	57017.79
503.95	57478.88
504.13	58728.72
504.30	59480.03
504.48	59346.62
504.65	58979.16
504.83	59199.17
505.01	59660.26
505.18	59770.26
505.36	60683.07
505.53	60491.15
505.71	60694.77
505.88	61013.08
506.06	60172.83
506.23	59920.05
506.41	59599.40
506.58	59742.17
506.76	59934.10
506.93	59796.01
507.11	59435.56
507.28	59728.13
507.46	59098.53
507.63	58763.83
507.81	58485.31
507.98	58569.57
508.16	59260.02
508.33	59833.46
508.50	60170.49
508.68	60399.86
508.85	61013.08
509.03	60898.40
509.20	60938.19
509.38	60149.43
509.55	59468.33
509.73	59414.50
509.90	59990.27
510.08	60434.97
510.25	60023.04
510.42	59997.29
510.60	59891.97
510.77	60147.09
510.95	60542.64
511.12	60832.86
511.30	61080.96
511.47	61254.16
511.64	61469.49
511.82	61055.21
511.99	60210.28
512.17	59950.48
512.34	59494.08
512.51	59487.06
512.69	60027.72
512.86	60037.08
513.04	60355.39
513.21	60236.03
513.38	60100.28
513.56	59351.30
513.73	59011.93
513.90	59327.90
514.08	59150.02
514.25	59531.53
514.43	59838.14
514.60	59838.14
514.77	60090.91
514.95	60016.02
515.12	59985.59
515.29	60044.10
515.47	60516.89
515.64	60985.00
515.81	60507.53
515.99	59693.02
516.16	58691.27
516.33	56530.96
516.51	54969.82
516.68	54419.80
516.85	54101.48
517.03	54291.07
517.20	56837.57
517.37	59105.55
517.54	60140.07
517.72	59543.23
517.89	57591.22
518.06	55238.98
518.24	55016.63
518.41	57511.64
518.58	58646.80
518.75	58869.15
518.93	59243.64
519.10	58944.05
519.27	59384.07
519.45	59587.70
519.62	60254.75
519.79	60692.43
519.96	60331.99
520.14	60191.56
520.31	59355.99
520.48	59372.37
520.65	59547.91
520.83	60437.31
521.00	60755.63
521.17	60451.36
521.34	59980.91
521.52	60453.70
521.69	60889.04
521.86	61293.95
522.03	61106.71
522.20	59943.46
522.38	58983.84
522.55	58852.77
522.72	59643.87
522.89	59561.95
523.07	59758.56
523.24	60294.54
523.41	60830.52
523.58	61179.26
523.75	61621.62
523.92	61418.00
524.10	61322.04
524.27	61317.35
524.44	61111.39
524.61	61092.66
524.78	60924.14
524.96	60882.02
525.13	60931.17
525.30	60968.61
525.47	61373.53
525.64	61422.68
525.81	60570.72
525.98	59629.83
526.16	58012.52
526.33	57635.69
526.50	57148.86
526.67	56699.48
526.84	57216.74
527.01	58342.53
527.18	59096.19
527.36	59664.94
527.53	60666.69
527.70	61066.92
527.87	60406.89
528.04	59927.08
528.21	60430.29
528.38	60954.57
528.55	61640.35
528.72	61776.10
528.89	62066.33
529.07	61659.07
529.24	61219.05
529.41	60481.78
529.58	59955.16
529.75	60123.68
529.92	60502.85
530.09	60973.30
530.26	61312.67
530.43	61528.00
530.60	61600.56
530.77	61897.81
530.94	61820.57
531.11	61410.98
531.28	61092.66
531.46	61085.64
531.63	61097.34
531.80	61176.92
531.97	60610.51
532.14	59924.74
532.31	59063.42
532.48	58468.92
532.65	58220.83
532.82	59173.42
532.99	60376.46
533.16	60559.02
533.33	61244.80
533.50	61024.79
533.67	60383.48
533.84	59877.93
534.01	60137.72
534.18	60212.62
534.35	60633.92
534.52	60575.40
534.69	60711.16
534.86	61001.38
535.03	60963.93
535.20	61542.05
535.37	62012.49
535.54	62026.54
535.71	61600.56
535.88	61410.98
536.05	60547.32
536.22	60357.74
536.38	60240.71
536.55	59648.55
536.72	59086.82
536.89	59096.19
537.06	59931.76
537.23	60851.59
537.40	60907.76
537.57	60837.54
537.74	60640.94
537.91	60659.66
538.08	60647.96
538.25	60673.71
538.42	60830.52
538.59	60692.43
538.75	60114.32
538.92	59751.54
539.09	59639.19
539.26	59576.00
539.43	59206.19
539.60	59433.22
539.77	59583.02
539.94	59540.89
540.11	58890.22
540.28	58298.06
540.44	58365.94
540.61	58497.01
540.78	58702.98
540.95	59283.43
541.12	59503.44
541.29	59971.55
541.46	60170.49
541.62	60149.43
541.79	59964.52
541.96	59323.22
542.13	59299.81
542.30	59728.13
542.47	60004.31
542.63	59550.25
542.80	59379.39
542.97	59788.98
543.14	59508.12
543.31	59370.03
543.48	59999.63
543.64	60685.41
543.81	61062.24
543.98	60725.20
544.15	60102.62
544.32	59536.21
544.48	59681.32
544.65	60076.87
544.82	60411.57
544.99	60252.41
545.16	59779.62
545.32	59444.93
545.49	60303.90
545.66	60690.09
545.83	60303.90
546.00	60013.68
546.16	59634.51
546.33	59725.79
546.50	59854.52
546.67	60306.24
546.83	59732.81
547.00	59938.78
547.17	59133.63
547.34	58602.33
547.50	58728.72
547.67	59025.97
547.84	59058.74
548.00	59351.30
548.17	59927.08
548.34	59636.85
548.51	59793.67
548.67	59882.61
548.84	59826.43
549.01	59777.28
549.18	59868.56
549.34	59695.36
549.51	59618.13
549.68	59545.57
549.84	59561.95
550.01	59227.26
550.18	59182.79
550.34	59274.07
550.51	59648.55
550.68	59538.55
550.84	59147.68
551.01	59245.98
551.18	58951.07
551.34	59398.12
551.51	59426.20
551.68	60018.36
551.84	59786.64
552.01	59639.19
552.18	59723.45
552.34	58983.84
552.51	58445.52
552.68	58220.83
552.84	58908.94
553.01	59229.60
553.18	59131.29
553.34	58922.99
553.51	59253.00
553.67	59419.18
553.84	59688.34
554.01	59468.33
554.17	59236.62
554.34	59496.42
554.51	59222.58
554.67	59725.79
554.84	59700.04
555.00	59384.07
555.17	58953.41
555.33	58932.35
555.50	58930.01
555.67	59096.19
555.83	58857.45
556.00	58468.92
556.16	58443.18
556.33	58166.99
556.50	58417.43
556.66	58368.28
556.83	57846.34
556.99	57963.37
557.16	58234.87
557.32	58471.26
557.49	58878.52
557.65	58529.78
557.82	58487.65
557.98	58351.90
558.15	58019.54
558.32	57151.20
558.48	56285.20
558.65	56575.43
558.81	56893.74
558.98	57190.99
559.14	57724.63
559.31	57532.71
559.47	57645.05
559.64	57317.38
559.80	57134.82
559.97	56846.93
560.13	57272.91
560.30	58234.87
560.46	58609.35
560.63	58976.82
560.79	58951.07
560.96	58513.39
561.12	57712.93
561.29	56818.84
561.45	56762.67
561.61	57188.65
561.78	57614.63
561.94	57609.95
562.11	57631.01
562.27	57289.29
562.44	57642.71
562.60	58085.07
562.77	58014.86
562.93	58120.18
563.10	57998.48
563.26	57322.06
563.42	57483.56
563.59	57064.60
563.75	57134.82
563.92	57387.60
564.08	57172.27
564.24	57460.15
564.41	57488.24
564.57	57340.78
564.74	57448.45
564.90	57195.67
565.07	57146.52
565.23	56535.64
565.39	56226.69
565.56	56161.15
565.72	55667.30
565.88	56156.47
566.05	55962.21
566.21	56299.25
566.38	56584.79
566.54	56587.13
566.70	56933.53
566.87	57186.31
567.03	57256.53
567.19	57408.66
567.36	57219.08
567.52	57059.92
567.68	56879.70
567.85	56320.31
568.01	56093.28
568.17	55608.79
568.34	55536.23
568.50	55367.71
568.66	55587.72
568.83	55915.40
568.99	55931.78
569.15	56006.68
569.32	56151.79
569.48	56074.55
569.64	55763.26
569.81	55405.16
569.97	55508.14
570.13	55356.01
570.30	54651.51
570.46	54557.89
570.62	53862.75
570.78	53996.16
570.95	54307.45
571.11	55133.66
571.27	55150.04
571.43	55264.73
571.60	55674.32
571.76	55842.84
571.92	55922.42
572.09	56116.68
572.25	55941.14
572.41	55938.80
572.57	55791.35
572.74	55929.44
572.90	55473.04
573.06	55498.78
573.22	55475.38
573.38	55716.45
573.55	55625.17
573.71	55955.19
573.87	55608.79
574.03	55353.67
574.20	55519.85
574.36	55058.76
574.52	55084.51
574.68	54904.29
574.84	54738.11
575.01	54054.67
575.17	54045.31
575.33	54288.73
575.49	54293.41
575.65	54960.46
575.82	54321.49
575.98	54323.83
576.14	54492.35
576.30	54747.47
576.46	54918.33
576.62	54866.84
576.79	54695.98
576.95	54337.88
577.11	54382.35
577.27	54368.30
577.43	54482.99
577.59	54127.23
577.75	53886.15
577.92	53244.85
578.08	53003.77
578.24	53066.97
578.40	53668.48
578.56	53535.07
578.72	53591.25
578.88	54031.27
579.04	54073.40
579.21	53928.28
579.37	54272.34
579.53	54101.48
579.69	54129.57
579.85	54363.62
580.01	54295.75
580.17	53804.24
580.33	53457.84
580.49	53996.16
580.65	54047.65
580.82	54129.57
580.98	54204.47
581.14	53977.43
581.30	54120.21
581.46	54068.72
581.62	54155.32
581.78	54059.35
581.94	54295.75
582.10	54106.16
582.26	54440.86
582.42	54293.41
582.58	54382.35
582.74	54192.76
582.90	54405.75
583.06	54164.68
583.22	54068.72
583.38	53921.26
583.54	53818.28
583.70	53900.20
583.86	53712.95
584.02	53900.20
584.18	53914.24
584.34	53780.83
584.50	53408.68
584.66	53443.79
584.82	53055.26
584.98	53043.56
585.14	52699.50
585.30	51868.61
