SpectraSuite Data File
++++++++++++++++++++++++++++++++++++
Date: Mon Oct 07 14:52:58 GMT-05:00 2013
User: price-jones
Dark Spectrum Present: No
Reference Spectrum Present: No
Number of Sampled Component Spectra: 1
Spectrometers: USB2+H05261
Integration Time (usec): 100000 (USB2+H05261)
Spectra Averaged: 1 (USB2+H05261)
Boxcar Smoothing: 0 (USB2+H05261)
Correct for Electrical Dark: No (USB2+H05261)
Strobe/Lamp Enabled: No (USB2+H05261)
Correct for Detector Non-linearity: No (USB2+H05261)
Correct for Stray Light: No (USB2+H05261)
Number of Pixels in Processed Spectrum: 2048
>>>>>Begin Processed Spectral Data<<<<<
365.73	0.00
365.92	0.00
366.12	0.00
366.32	0.00
366.52	0.00
366.72	0.00
366.91	0.00
367.11	0.00
367.31	0.00
367.51	0.00
367.70	0.00
367.90	0.00
368.10	0.00
368.30	0.00
368.49	0.00
368.69	0.00
368.89	0.00
369.09	0.00
369.28	0.00
369.48	0.00
369.68	0.00
369.87	0.00
370.07	0.00
370.27	0.00
370.47	582.79
370.66	2621.40
370.86	3204.19
371.06	3384.41
371.25	3506.12
371.45	3070.78
371.65	2977.16
371.84	2682.25
372.04	2815.66
372.24	3159.72
372.44	3288.45
372.63	3164.40
372.83	2902.26
373.03	2712.68
373.22	2471.61
373.42	2668.21
373.62	2986.52
373.81	3103.55
374.01	3194.83
374.21	2906.95
374.40	2647.15
374.60	2738.43
374.79	3232.28
374.99	3847.84
375.19	3868.91
375.38	3871.25
375.58	3805.71
375.78	3634.85
375.97	3730.81
376.17	3758.90
376.37	3796.35
376.56	4121.68
376.76	4196.58
376.95	4524.26
377.15	4858.95
377.35	4896.40
377.54	5114.07
377.74	5233.44
377.93	5345.78
378.13	5139.82
378.33	4983.00
378.52	4622.56
378.72	4535.96
378.91	4285.52
379.11	4170.83
379.31	4109.98
379.50	3957.85
379.70	4301.90
379.89	4655.33
380.09	5067.26
380.28	5139.82
380.48	5057.90
380.68	5116.41
380.87	4837.89
381.07	4402.55
381.26	4077.21
381.46	3971.89
381.65	3861.88
381.85	3925.08
382.04	3471.01
382.24	3389.10
382.43	3169.09
382.63	3094.19
382.83	3108.23
383.02	3131.64
383.22	3227.60
383.41	3124.62
383.61	3311.86
383.80	3904.01
384.00	4440.00
384.19	4926.83
384.39	5118.75
384.58	5088.32
384.78	5093.01
384.97	5142.16
385.17	4751.29
385.36	4475.10
385.56	4353.40
385.75	4418.93
385.95	4971.30
386.14	5275.57
386.34	5329.40
386.53	5125.77
386.72	4671.71
386.92	4723.20
387.11	5036.83
387.31	5394.93
387.50	5184.29
387.70	4987.68
387.89	5118.75
388.09	5027.47
388.28	5116.41
388.48	5273.23
388.67	5551.75
388.86	6104.12
389.06	6438.81
389.25	6799.26
389.45	7035.65
389.64	6789.89
389.84	6841.39
390.03	6752.45
390.22	6801.60
390.42	6981.82
390.61	7623.12
390.81	7929.74
391.00	7779.94
391.19	7953.14
391.39	7499.08
391.58	7213.53
391.78	6738.40
391.97	6740.74
392.16	6155.61
392.36	5591.54
392.55	4381.48
392.75	3585.70
392.94	2818.00
393.13	2818.00
393.33	3368.03
393.52	4521.92
393.71	5406.64
393.91	6101.78
394.10	6502.01
394.29	7325.88
394.49	7805.69
394.68	8531.25
394.88	8531.25
395.07	8758.28
395.26	8526.57
395.46	8315.92
395.65	7812.71
395.84	6911.60
396.04	5884.11
396.23	4737.24
396.42	3946.14
396.62	3840.82
396.81	4470.42
397.00	5731.97
397.19	7124.59
397.39	8381.46
397.58	9598.54
397.77	10141.54
397.97	10504.32
398.16	10721.99
398.35	10998.18
398.55	11487.35
398.74	11712.04
398.93	12152.06
399.12	11754.17
399.32	11487.35
399.51	11782.26
399.70	12453.99
399.90	12095.89
400.09	12461.01
400.28	12219.94
400.47	12601.44
400.67	12978.27
400.86	13345.73
401.05	13256.79
401.24	13198.28
401.44	13486.17
401.63	13542.34
401.82	13806.82
402.01	13654.69
402.21	13877.04
402.40	13717.88
402.59	13352.76
402.78	12865.92
402.97	12505.48
403.17	12933.80
403.36	13844.27
403.55	14127.47
403.74	14726.65
403.93	13823.20
404.13	12652.94
404.32	12437.61
404.51	13221.69
404.70	14183.65
404.89	14153.22
405.09	13757.67
405.28	13376.16
405.47	13373.82
405.66	13579.79
405.85	12865.92
406.05	12688.04
406.24	12835.50
406.43	13582.13
406.62	13895.76
406.81	14104.07
407.00	13327.01
407.20	13357.44
407.39	13338.71
407.58	13961.30
407.77	14340.46
407.96	15068.37
408.15	15274.34
408.34	15208.80
408.54	15908.62
408.73	15775.21
408.92	15644.14
409.11	15569.24
409.30	14630.69
409.49	13394.89
409.68	12788.69
409.87	12400.16
410.07	13116.36
410.26	14183.65
410.45	14927.94
410.64	15267.31
410.83	15917.98
411.02	16554.61
411.21	16882.28
411.40	16767.60
411.59	16613.12
411.78	16690.36
411.98	16570.99
412.17	17011.01
412.36	16121.61
412.55	16554.61
412.74	16074.80
412.93	15960.11
413.12	16074.80
413.31	17399.54
413.50	17326.99
413.69	17717.86
413.88	16954.84
414.07	16896.33
414.26	17090.59
414.45	17474.44
414.64	17460.40
414.83	17869.99
415.02	17383.16
415.22	17355.07
415.41	17802.11
415.60	18401.29
415.79	19204.10
415.98	19307.08
416.17	19648.80
416.36	19267.29
416.55	18806.20
416.74	18087.66
416.93	17488.48
417.12	17652.32
417.31	17951.91
417.50	18015.10
417.69	18771.10
417.88	18808.54
418.07	18621.30
418.26	18410.65
418.45	18265.54
418.64	18876.42
418.83	19768.16
419.02	19145.58
419.21	19377.30
419.39	18576.83
419.58	17696.79
419.77	17394.86
419.96	18279.58
420.15	19646.46
420.34	19929.66
420.53	20737.15
420.72	21228.66
420.91	20863.54
421.10	20467.98
421.29	20400.11
421.48	19768.16
421.67	21198.23
421.86	20018.60
422.05	18672.79
422.24	16507.80
422.43	16681.00
422.61	18764.07
422.80	19999.88
422.99	20247.97
423.18	19187.71
423.37	18944.30
423.56	18759.39
423.75	19311.76
423.94	19747.10
424.13	18602.58
424.32	18778.12
424.50	19073.03
424.69	18424.70
424.88	18544.06
425.07	18541.72
425.26	18523.00
425.45	18637.69
425.64	17872.33
425.83	18476.19
426.01	19377.30
426.20	19419.42
426.39	19403.04
426.58	17984.68
426.77	16762.92
426.96	16243.32
427.15	16627.17
427.33	18113.41
427.52	19012.17
427.71	19236.86
427.90	18537.04
428.09	18618.96
428.28	18164.90
428.46	17523.59
428.65	17111.66
428.84	17947.23
429.03	18183.62
429.22	17008.67
429.40	16388.43
429.59	14817.93
429.78	13116.36
429.97	13167.85
430.16	13383.18
430.34	13217.01
430.53	13111.68
430.72	13584.47
430.91	15066.03
431.10	17584.44
431.28	20779.28
431.47	22298.28
431.66	22789.80
431.85	20423.51
432.03	18834.29
432.22	18197.67
432.41	18958.34
432.60	21123.33
432.79	21570.38
432.97	21984.65
433.16	21642.93
433.35	19374.95
433.54	17862.97
433.72	16973.56
433.91	17668.70
434.10	19690.93
434.28	20723.10
434.47	22036.14
434.66	21687.40
434.85	21025.03
435.03	20919.71
435.22	21673.36
435.41	22782.77
435.59	22817.88
435.78	23185.35
435.97	23601.96
436.16	23882.83
436.34	23424.08
436.53	23108.11
436.72	23197.05
436.90	22045.51
437.09	21673.36
437.28	21446.33
437.46	22101.68
437.65	22019.76
437.84	20418.83
438.02	18965.36
438.21	19007.49
438.40	20093.50
438.58	21617.19
438.77	22108.70
438.96	22452.76
439.14	23407.70
439.33	23910.91
439.52	24276.04
439.70	23821.97
439.89	23014.49
440.08	22356.80
440.26	22288.92
440.45	23201.73
440.63	24549.88
440.82	25951.86
441.01	25649.93
441.19	25284.81
441.38	26031.44
441.57	26654.02
441.75	27384.27
441.94	27342.14
442.12	27040.21
442.31	27655.77
442.50	27660.45
442.68	27054.25
442.87	26546.36
443.05	26513.59
443.24	27040.21
443.43	27325.75
443.61	27934.29
443.80	28261.97
443.98	26609.55
444.17	26663.38
444.35	28636.45
444.54	28830.72
444.73	28034.94
444.91	27049.57
445.10	25764.62
445.28	25055.43
445.47	24573.28
445.65	24994.58
445.84	25743.55
446.02	25972.92
446.21	27356.18
446.39	27047.23
446.58	27161.92
446.77	27838.33
446.95	27873.44
447.14	28769.86
447.32	29558.63
447.51	28149.62
447.69	27466.19
447.88	27379.59
448.06	27548.11
448.25	28013.87
448.43	28362.61
448.62	27866.42
448.80	28032.60
448.99	28137.92
449.17	28341.55
449.36	27889.82
449.54	29200.52
449.73	29687.36
449.91	30342.70
450.10	30934.86
450.28	30909.11
450.46	30745.28
450.65	30719.53
450.83	30869.33
451.02	30045.46
451.20	30045.46
451.39	30003.33
451.57	29790.34
451.76	29921.41
451.94	29638.20
452.13	29273.08
452.31	27875.78
452.49	26560.40
452.68	26864.67
452.86	26850.63
453.05	27054.25
453.23	28037.28
453.42	29186.48
453.60	29469.69
453.78	29481.39
453.97	29230.95
454.15	29535.22
454.34	28936.04
454.52	28737.10
454.70	28276.01
454.89	28545.17
455.07	29053.07
455.26	29472.03
455.44	30178.87
455.62	30738.26
455.81	30920.82
455.99	30522.93
456.17	30445.69
456.36	30195.25
456.54	31524.68
456.73	31342.11
456.91	31950.65
457.09	31613.62
457.28	32657.49
457.46	31517.65
457.64	31189.98
457.83	30043.12
458.01	29453.30
458.19	30113.33
458.38	30328.66
458.56	31779.79
458.74	31009.76
458.93	30932.52
459.11	30693.79
459.29	30340.36
459.48	30490.16
459.66	30551.01
459.84	30841.24
460.03	31185.30
460.21	31129.12
460.39	31948.31
460.57	31859.37
460.76	32245.56
460.94	32568.55
461.12	32100.45
461.31	32208.11
461.49	32503.02
461.67	31934.27
461.85	33654.56
462.04	33329.23
462.22	33436.89
462.40	33006.23
462.59	33251.99
462.77	33308.16
462.95	33123.26
463.13	32170.66
463.32	32144.92
463.50	31779.79
463.68	32034.91
463.86	32245.56
464.05	31585.53
464.23	31185.30
464.41	31096.36
464.59	30494.84
464.78	31945.97
464.96	31885.12
465.14	31573.83
465.32	32041.93
465.50	33181.77
465.69	33242.63
465.87	32779.20
466.05	31768.09
466.23	30539.31
466.41	29818.42
466.60	30628.25
466.78	30576.76
466.96	31302.32
467.14	31655.75
467.32	32170.66
467.51	32400.04
467.69	30888.05
467.87	31613.62
468.05	31854.69
468.23	31892.14
468.41	32053.64
468.60	32053.64
468.78	32381.31
468.96	31901.50
469.14	32933.68
469.32	32641.11
469.50	30991.03
469.69	31321.05
469.87	30958.27
470.05	30859.96
470.23	30766.34
470.41	31082.31
470.59	32091.09
470.77	32231.52
470.95	32215.13
471.14	32620.05
471.32	32701.96
471.50	34335.66
471.68	34408.22
471.86	34550.99
472.04	35105.70
472.22	35079.95
472.40	33322.21
472.58	32957.08
472.77	32957.08
472.95	33598.39
473.13	34375.45
473.31	33858.19
473.49	33895.64
473.67	34607.16
473.85	34555.67
474.03	35264.85
474.21	35732.96
474.39	35578.48
474.57	36088.72
474.75	36070.00
474.93	35470.82
475.12	35325.71
475.30	35005.05
475.48	35276.55
475.66	35365.49
475.84	35384.22
476.02	34948.88
476.20	34656.31
476.38	35285.92
476.56	36154.26
476.74	36898.55
476.92	36950.04
477.10	37046.00
477.28	38342.66
477.46	38597.77
477.64	38906.73
477.82	38969.92
478.00	38754.59
478.18	38370.74
478.36	37823.06
478.54	38609.48
478.72	39187.59
478.90	39777.40
479.08	40240.83
479.26	41186.41
479.44	40748.73
479.62	40715.96
479.80	40772.13
479.98	40900.86
480.16	41254.28
480.34	40744.05
480.52	41392.37
480.70	41361.95
480.88	41668.56
481.06	42628.18
481.24	42951.17
481.41	43519.92
481.59	44294.64
481.77	43725.89
481.95	43440.34
482.13	42836.48
482.31	43185.22
482.49	43564.39
482.67	43714.19
482.85	44163.57
483.03	44512.31
483.21	44762.75
483.39	44657.42
483.57	43800.79
483.74	43768.02
483.92	43971.64
484.10	44444.43
484.28	45282.34
484.46	45720.02
484.64	45869.82
484.82	45317.45
485.00	44678.49
485.18	43840.57
485.35	42256.03
485.53	39033.11
485.71	36409.37
485.89	35718.92
486.07	37926.04
486.25	40807.24
486.43	43220.33
486.61	44156.55
486.78	43791.42
486.96	44027.82
487.14	45794.92
487.32	46824.76
487.50	47496.49
487.68	48416.32
487.85	48678.46
488.03	48641.01
488.21	48575.48
488.39	47416.91
488.57	47199.24
488.75	46731.14
488.92	48193.97
489.10	50497.06
489.28	51849.89
489.46	52369.49
489.64	52140.11
489.81	52474.81
489.99	52011.38
490.17	51987.98
490.35	52397.57
490.53	51791.37
490.70	51732.86
490.88	51391.14
491.06	52512.26
491.24	52130.75
491.41	51217.94
491.59	49570.21
491.77	48816.55
491.95	49839.37
492.13	51552.64
492.30	52594.18
492.48	53621.67
492.66	53911.90
492.84	53783.17
493.01	53619.33
493.19	53045.90
493.37	52643.33
493.54	52416.30
493.72	53174.63
493.90	54218.51
494.08	54908.97
494.25	55297.50
494.43	55494.10
494.61	55835.82
494.79	55948.17
494.96	55648.58
495.14	55199.19
495.32	54038.29
495.49	53757.42
495.67	54504.06
495.85	55957.53
496.02	56317.97
496.20	56023.06
496.38	55796.03
496.55	55400.48
496.73	56067.53
496.91	56350.74
497.09	56507.55
497.26	56875.02
497.44	56554.36
497.62	55852.20
497.79	54969.82
497.97	53752.74
498.14	54073.40
498.32	55395.80
498.50	56130.73
498.67	56760.33
498.85	56662.03
499.03	56825.87
499.20	56865.66
499.38	56875.02
499.56	56743.95
499.73	56060.51
499.91	55758.58
500.08	55463.67
500.26	54880.88
500.44	55299.84
500.61	55999.66
500.79	55725.81
500.97	55365.37
501.14	54995.57
501.32	55171.11
501.49	55302.18
501.67	55168.77
501.84	55920.08
502.02	55856.88
502.20	56481.81
502.37	56652.67
502.55	56769.69
502.72	57277.59
502.90	57640.37
503.07	57090.35
503.25	56868.00
503.43	55938.80
503.60	55196.85
503.78	54623.42
503.95	55192.17
504.13	56816.50
504.30	57446.11
504.48	57130.14
504.65	56940.55
504.83	57160.56
505.01	57382.91
505.18	57902.51
505.36	58475.94
505.53	58344.87
505.71	58672.55
505.88	58829.37
506.06	58113.16
506.23	57925.92
506.41	57401.64
506.58	57696.55
506.76	57607.61
506.93	57626.33
507.11	57216.74
507.28	57549.09
507.46	56978.00
507.63	56465.42
507.81	56360.10
507.98	56615.22
508.16	57139.50
508.33	57984.43
508.50	58192.74
508.68	58377.64
508.85	58920.65
509.03	58836.39
509.20	58604.67
509.38	58073.37
509.55	57392.28
509.73	57502.28
509.90	57783.15
510.08	58209.12
510.25	58113.16
510.42	58010.18
510.60	57860.38
510.77	58150.61
510.95	58742.77
511.12	58754.47
511.30	58913.62
511.47	59386.41
511.64	59213.21
511.82	58782.55
511.99	58218.49
512.17	57902.51
512.34	57436.75
512.51	57378.23
512.69	57865.06
512.86	57888.47
513.04	58047.63
513.21	58225.51
513.38	57858.04
513.56	57422.70
513.73	56839.91
513.90	57001.41
514.08	57212.06
514.25	57272.91
514.43	57712.93
514.60	57804.21
514.77	57598.24
514.95	57895.49
515.12	57916.56
515.29	57874.43
515.47	58497.01
515.64	58864.47
515.81	58213.80
515.99	57675.48
516.16	56203.28
516.33	53818.28
516.51	52673.76
516.68	52048.83
516.85	51524.55
517.03	51889.68
517.20	54602.36
517.37	57003.75
517.54	58080.39
517.72	57130.14
517.89	54607.04
518.06	52631.63
518.24	53092.71
518.41	55515.17
518.58	56413.93
518.75	56961.62
518.93	56940.55
519.10	57144.18
519.27	57368.87
519.45	57640.37
519.62	58225.51
519.79	58621.06
519.96	58464.24
520.14	57986.77
520.31	57078.64
520.48	57160.56
520.65	57668.46
520.83	58454.88
521.00	58543.82
521.17	58192.74
521.34	58042.95
521.52	58522.76
521.69	58901.92
521.86	59302.15
522.03	58955.75
522.20	57691.86
522.38	56807.14
522.55	56891.40
522.72	57492.92
522.89	57429.72
523.07	57883.79
523.24	58052.31
523.41	58859.79
523.58	59086.82
523.75	59650.89
523.92	59444.93
524.10	59414.50
524.27	59557.27
524.44	59274.07
524.61	59054.06
524.78	58920.65
524.96	58852.77
525.13	59089.16
525.30	59091.51
525.47	59449.61
525.64	59348.96
525.81	58789.58
525.98	57263.55
526.16	55770.28
526.33	55182.81
526.50	55011.95
526.67	54731.09
526.84	55447.29
527.01	56306.27
527.18	57001.41
527.36	58024.22
527.53	58913.62
527.70	59068.10
527.87	58492.33
528.04	58143.59
528.21	58621.06
528.38	59199.17
528.55	59700.04
528.72	59922.40
528.89	60156.45
529.07	59749.20
529.24	59061.08
529.41	58513.39
529.58	57958.69
529.75	58007.84
529.92	58515.73
530.09	59072.78
530.26	59458.97
530.43	59465.99
530.60	59580.68
530.77	60013.68
530.94	60168.15
531.11	59489.40
531.28	59337.26
531.46	58894.90
531.63	59323.22
531.80	58953.41
531.97	58698.30
532.14	58000.82
532.31	57010.77
532.48	56238.39
532.65	56479.47
532.82	57207.37
532.99	58307.43
533.16	58691.27
533.33	58988.52
533.50	59192.15
533.67	58466.58
533.84	58298.06
534.01	58307.43
534.18	58309.77
534.35	58614.04
534.52	58145.93
534.69	58770.85
534.86	58777.87
535.03	59260.02
535.20	59683.66
535.37	59927.08
535.54	59957.50
535.71	59676.64
535.88	59407.48
536.05	58733.40
536.22	58387.00
536.38	58305.09
536.55	57516.32
536.72	56919.49
536.89	57230.78
537.06	57951.66
537.23	58864.47
537.40	58979.16
537.57	59047.04
537.74	58808.30
537.91	58649.14
538.08	58714.68
538.25	58791.92
538.42	59018.95
538.59	58754.47
538.75	57949.32
538.92	58021.88
539.09	57691.86
539.26	57385.25
539.43	57329.08
539.60	57528.03
539.77	57464.83
539.94	57544.41
540.11	56741.61
540.28	56210.31
540.44	56275.84
540.61	56666.71
540.78	56935.87
540.95	57340.78
541.12	57673.14
541.29	57982.09
541.46	58295.72
541.62	58314.45
541.79	58206.78
541.96	57322.06
542.13	57361.85
542.30	57799.53
542.47	58033.58
542.63	57872.09
542.80	57429.72
542.97	57659.10
543.14	57464.83
543.31	57308.02
543.48	57979.75
543.64	58934.69
543.81	59327.90
543.98	58691.27
544.15	58326.15
544.32	57773.78
544.48	57986.77
544.65	58216.14
544.82	58653.82
544.99	58066.35
545.16	57872.09
545.32	57794.85
545.49	58560.20
545.66	58805.96
545.83	58548.50
546.00	58085.07
546.16	57942.30
546.33	57879.11
546.50	57982.09
546.67	58218.49
546.83	57794.85
547.00	57741.02
547.17	57155.88
547.34	56797.78
547.50	56828.21
547.67	57116.09
547.84	57024.81
548.00	57638.03
548.17	58033.58
548.34	57846.34
548.51	57844.00
548.67	57806.55
548.84	57958.69
549.01	57790.17
549.18	57495.26
549.34	57811.23
549.51	57825.28
549.68	57829.96
549.84	57308.02
550.01	57570.16
550.18	57228.44
550.34	57448.45
550.51	57757.40
550.68	57308.02
550.84	57020.13
551.01	57303.34
551.18	56835.23
551.34	57251.84
551.51	57411.00
551.68	58157.63
551.84	57886.13
552.01	57715.27
552.18	57492.92
552.34	56636.28
552.51	56500.53
552.68	56477.13
552.84	56912.47
553.01	57190.99
553.18	57066.94
553.34	57104.39
553.51	57357.17
553.67	57726.97
553.84	57867.40
554.01	57523.35
554.17	57347.81
554.34	57567.82
554.51	57394.62
554.67	57956.35
554.84	57792.51
555.00	57214.40
555.17	57017.79
555.33	57179.29
555.50	57193.33
555.67	57303.34
555.83	56963.96
556.00	56488.83
556.16	56563.73
556.33	56231.37
556.50	56425.64
556.66	56280.52
556.83	56009.02
556.99	56317.97
557.16	56205.62
557.32	56739.27
557.49	56587.13
557.65	56779.06
557.82	56720.54
557.98	56474.79
558.15	55945.83
558.32	55206.22
558.48	54372.99
558.65	54803.64
558.81	54794.28
558.98	55161.75
559.14	55449.63
559.31	55648.58
559.47	55496.44
559.64	55262.39
559.80	54876.20
559.97	55082.17
560.13	55557.30
560.30	56214.99
560.46	56863.32
560.63	56996.73
560.79	56860.97
560.96	56535.64
561.12	55739.86
561.29	54475.97
561.45	54885.56
561.61	55227.28
561.78	55962.21
561.94	55749.22
562.11	55381.76
562.27	55597.09
562.44	55559.64
562.60	55999.66
562.77	56039.45
562.93	56004.34
563.10	55978.59
563.26	55337.29
563.42	55145.36
563.59	55140.68
563.75	55292.82
563.92	55449.63
564.08	55435.59
564.24	55536.23
564.41	55924.76
564.57	55344.31
564.74	55311.54
564.90	55290.48
565.07	55056.42
565.23	54576.61
565.39	54021.90
565.56	54003.18
565.72	53727.00
565.88	54255.96
566.05	54232.55
566.21	54443.20
566.38	54974.50
566.54	54831.73
566.70	54918.33
566.87	55723.47
567.03	55440.27
567.19	55634.53
567.36	55028.34
567.52	55189.83
567.68	54578.95
567.85	54419.80
568.01	53729.34
568.17	53469.54
568.34	53453.15
568.50	53336.13
568.66	53427.41
568.83	53935.30
568.99	53794.87
569.15	54274.68
569.32	54354.26
569.48	53862.75
569.64	54054.67
569.81	53380.60
569.97	53340.81
570.13	53209.74
570.30	52514.60
570.46	52222.03
570.62	51770.31
570.78	51526.89
570.95	51948.19
571.11	52985.05
571.27	52886.74
571.43	53427.41
571.60	53511.67
571.76	53907.22
571.92	54052.33
572.09	54227.87
572.25	54071.06
572.41	54026.59
572.57	54080.42
572.74	53829.98
572.90	53471.88
573.06	53694.23
573.22	53727.00
573.38	53542.10
573.55	53450.81
573.71	53752.74
573.87	53762.11
574.03	53649.76
574.20	53457.84
574.36	53146.54
574.52	52882.06
574.68	52388.21
574.84	52044.15
575.01	51929.47
575.17	51929.47
575.33	52287.57
575.49	52332.04
575.65	52582.48
575.82	52243.10
575.98	52172.88
576.14	52362.46
576.30	52608.22
576.46	52821.21
576.62	52477.15
576.79	52800.15
576.95	52271.18
577.11	52470.13
577.27	52435.02
577.43	52404.59
577.59	51894.36
577.75	51358.38
577.92	51019.00
578.08	50703.03
578.24	50696.00
578.40	51145.39
578.56	51316.25
578.72	51363.06
578.88	51529.23
579.04	52016.07
579.21	51742.22
579.37	51955.21
579.53	51859.25
579.69	52053.51
579.85	52327.36
580.01	51760.95
580.17	51274.12
580.33	51114.96
580.49	51510.51
580.65	52072.24
580.82	51681.37
580.98	51765.63
581.14	51807.76
581.30	52130.75
581.46	51870.95
581.62	51646.26
581.78	52002.02
581.94	52467.79
582.10	52123.73
582.26	51987.98
582.42	52142.45
582.58	52385.87
582.74	52147.14
582.90	52133.09
583.06	52097.98
583.22	51704.77
583.38	51922.44
583.54	51859.25
583.70	51629.88
583.86	51908.40
584.02	51831.16
584.18	51831.16
584.34	51807.76
584.50	51412.21
584.66	51227.31
584.82	50775.58
584.98	50838.78
585.14	50520.46
585.30	49830.01
