SpectraSuite Data File
++++++++++++++++++++++++++++++++++++
Date: Mon Oct 07 14:55:00 GMT-05:00 2013
User: price-jones
Dark Spectrum Present: No
Reference Spectrum Present: No
Number of Sampled Component Spectra: 1
Spectrometers: USB2+H05261
Integration Time (usec): 10000 (USB2+H05261)
Spectra Averaged: 1 (USB2+H05261)
Boxcar Smoothing: 0 (USB2+H05261)
Correct for Electrical Dark: No (USB2+H05261)
Strobe/Lamp Enabled: No (USB2+H05261)
Correct for Detector Non-linearity: No (USB2+H05261)
Correct for Stray Light: No (USB2+H05261)
Number of Pixels in Processed Spectrum: 2048
>>>>>Begin Processed Spectral Data<<<<<
365.73	0.00
365.92	0.00
366.12	0.00
366.32	0.00
366.52	0.00
366.72	0.00
366.91	0.00
367.11	0.00
367.31	0.00
367.51	0.00
367.70	0.00
367.90	0.00
368.10	0.00
368.30	0.00
368.49	0.00
368.69	0.00
368.89	0.00
369.09	0.00
369.28	0.00
369.48	0.00
369.68	0.00
369.87	0.00
370.07	0.00
370.27	0.00
370.47	299.59
370.66	2256.28
370.86	2581.61
371.06	2820.35
371.25	2761.83
371.45	2504.37
371.65	2221.17
371.84	2146.27
372.04	2335.85
372.24	2555.86
372.44	2766.51
372.63	2654.17
372.83	2375.64
373.03	2167.34
373.22	1998.82
373.42	2235.21
373.62	2553.52
373.81	2560.55
374.01	2466.92
374.21	2293.72
374.40	2167.34
374.60	2413.09
374.79	2773.53
374.99	3070.78
375.19	3117.59
375.38	3220.58
375.58	3075.46
375.78	2979.50
375.97	3040.36
376.17	3150.36
376.37	3080.14
376.56	3302.50
376.76	3627.83
376.95	3810.39
377.15	3929.76
377.35	4222.33
377.54	4250.41
377.74	4451.70
377.93	4404.89
378.13	4049.13
378.33	4030.40
378.52	3777.62
378.72	3536.55
378.91	3674.64
379.11	3393.78
379.31	3353.99
379.50	3407.82
379.70	3618.47
379.89	4039.76
380.09	4189.56
380.28	4491.49
380.48	4329.99
380.68	4290.20
380.87	4107.64
381.07	3801.03
381.26	3574.00
381.46	3353.99
381.65	3243.98
381.85	3342.28
382.04	2906.95
382.24	2771.19
382.43	2626.08
382.63	2647.15
382.83	2670.55
383.02	2546.50
383.22	2572.25
383.41	2637.78
383.61	2972.48
383.80	3503.78
384.00	3726.13
384.19	4133.39
384.39	4423.61
384.58	4461.06
384.78	4299.56
384.97	4077.21
385.17	4028.06
385.36	3803.37
385.56	3723.79
385.75	3927.42
385.95	4280.84
386.14	4634.26
386.34	4489.15
386.53	4329.99
386.72	4053.81
386.92	4187.22
387.11	4440.00
387.31	4608.51
387.50	4425.95
387.70	4430.63
387.89	4177.86
388.09	4390.84
388.28	4400.21
388.48	4472.76
388.67	4868.31
388.86	5376.21
389.06	5664.10
389.25	6146.25
389.45	5951.98
389.64	5956.66
389.84	5900.49
390.03	5856.02
390.22	5755.38
390.42	6115.82
390.61	6487.96
390.81	6909.26
391.00	6885.86
391.19	6738.40
391.39	6745.42
391.58	6153.27
391.78	5804.53
391.97	5678.14
392.16	5390.25
392.36	4535.96
392.55	3517.83
392.75	2867.16
392.94	2443.52
393.13	2654.17
393.33	3117.59
393.52	4091.26
393.71	4681.07
393.91	5551.75
394.10	5769.42
394.29	6438.81
394.49	7208.85
394.68	7503.76
394.88	7499.08
395.07	7555.25
395.26	7473.33
395.46	7089.48
395.65	6670.53
395.84	6017.52
396.04	4877.68
396.23	4021.04
396.42	3325.90
396.62	3417.18
396.81	4227.01
397.00	5331.74
397.19	6485.62
397.39	7772.92
397.58	8573.38
397.77	9001.70
397.97	9408.95
398.16	9547.05
398.35	10029.20
398.55	10209.42
398.74	10284.31
398.93	10721.99
399.12	10523.05
399.32	10307.72
399.51	10492.62
399.70	11173.72
399.90	10958.39
400.09	11073.07
400.28	10918.60
400.47	11016.90
400.67	11625.44
400.86	11826.73
401.05	11639.48
401.24	11875.88
401.44	12112.27
401.63	12306.54
401.82	12329.94
402.01	12456.33
402.21	12393.14
402.40	12229.30
402.59	11707.36
402.78	11047.33
402.97	10934.98
403.17	11702.68
403.36	12496.12
403.55	12919.76
403.74	12809.75
403.93	12166.10
404.13	11166.70
404.32	11276.70
404.51	11896.94
404.70	12774.64
404.89	12709.11
405.09	12383.77
405.28	11990.56
405.47	11925.03
405.66	12353.35
405.85	11676.93
406.05	11272.02
406.24	11817.36
406.43	12411.86
406.62	12540.59
406.81	12844.86
407.00	12229.30
407.20	11906.31
407.39	12180.15
407.58	12863.58
407.77	13350.42
407.96	13589.15
408.15	13727.24
408.34	14073.64
408.54	14700.90
408.73	14462.17
408.92	14487.92
409.11	13565.74
409.30	12966.57
409.49	12105.25
409.68	11501.39
409.87	11475.65
410.07	12491.44
410.26	13217.01
410.45	13825.54
410.64	14153.22
410.83	14768.78
411.02	15227.53
411.21	15569.24
411.40	15356.25
411.59	15473.28
411.78	15534.14
411.98	15225.18
412.17	15784.57
412.36	14934.96
412.55	15150.29
412.74	14616.65
412.93	14518.34
413.12	14853.04
413.31	16233.96
413.50	16259.70
413.69	16573.33
413.88	15295.40
414.07	15325.83
414.26	15555.20
414.45	16196.51
414.64	16191.83
414.83	16271.40
415.02	16074.80
415.22	16147.36
415.41	16517.16
415.60	17029.74
415.79	17586.79
415.98	17984.68
416.17	18050.21
416.36	17593.81
416.55	17603.17
416.74	16917.39
416.93	16439.92
417.12	16383.75
417.31	16578.01
417.50	16695.04
417.69	17371.46
417.88	17238.05
418.07	17441.67
418.26	16999.31
418.45	16840.15
418.64	17998.72
418.83	18480.87
419.02	18113.41
419.21	18045.53
419.39	16882.28
419.58	15976.50
419.77	16402.47
419.96	17378.48
420.15	17909.78
420.34	18665.77
420.53	19351.55
420.72	19765.82
420.91	19286.01
421.10	18838.97
421.29	19087.07
421.48	18389.59
421.67	19206.44
421.86	18431.72
422.05	17020.38
422.24	15562.22
422.43	15644.14
422.61	17818.50
422.80	18686.84
422.99	18583.85
423.18	17554.02
423.37	17343.37
423.56	17848.93
423.75	18050.21
423.94	18574.49
424.13	17708.49
424.32	17530.61
424.50	18143.83
424.69	17652.32
424.88	17666.36
425.07	17624.23
425.26	17565.72
425.45	17193.58
425.64	16842.50
425.83	17235.70
426.01	18321.71
426.20	18778.12
426.39	18263.20
426.58	17064.85
426.77	15452.22
426.96	15473.28
427.15	16065.44
427.33	17392.52
427.52	17715.51
427.71	17537.63
427.90	17750.62
428.09	17448.69
428.28	16973.56
428.46	16503.12
428.65	16631.85
428.84	17114.00
429.03	16882.28
429.22	16027.99
429.40	14654.09
429.59	13233.39
429.78	12037.38
429.97	12351.01
430.16	12287.81
430.34	12533.57
430.53	12709.11
430.72	13352.76
430.91	14920.92
431.10	17689.77
431.28	19786.89
431.47	21671.02
431.66	21071.84
431.85	18782.80
432.03	17589.13
432.22	17355.07
432.41	18616.62
432.60	20348.62
432.79	21249.72
432.97	21003.97
433.16	20601.40
433.35	18661.09
433.54	16987.61
433.72	16056.08
433.91	17139.74
434.10	19211.12
434.28	20514.80
434.47	21231.00
434.66	20400.11
434.85	20130.95
435.03	20313.51
435.22	20554.58
435.41	21724.85
435.59	21661.66
435.78	22216.36
435.97	22527.66
436.16	22925.55
436.34	22288.92
436.53	21825.50
436.72	21853.58
436.90	20950.14
437.09	20765.23
437.28	20641.18
437.46	21174.83
437.65	20830.77
437.84	19346.87
438.02	18082.98
438.21	18815.57
438.40	19496.66
438.58	20608.42
438.77	21071.84
438.96	21553.99
439.14	22155.51
439.33	23094.07
439.52	22974.70
439.70	22750.01
439.89	22029.12
440.08	21598.46
440.26	21797.41
440.45	22705.54
440.63	24077.09
440.82	25027.35
441.01	24582.65
441.19	24374.34
441.38	25006.28
441.57	25940.16
441.75	26244.43
441.94	26490.18
442.12	26366.13
442.31	27199.37
442.50	26916.16
442.68	26349.75
442.87	25848.88
443.05	25195.87
443.24	26450.39
443.43	26731.26
443.61	27080.00
443.80	26890.41
443.98	26171.87
444.17	26476.14
444.35	27419.38
444.54	27889.82
444.73	27407.67
444.91	26366.13
445.10	25226.29
445.28	23885.17
445.47	24224.54
445.65	24025.60
445.84	24973.52
446.02	26059.52
446.21	26492.52
446.39	25823.13
446.58	26448.05
446.77	27346.82
446.95	27290.65
447.14	28004.51
447.32	28847.10
447.51	27896.85
447.69	27005.10
447.88	26988.72
448.06	27718.96
448.25	27571.51
448.43	27784.50
448.62	27438.10
448.80	27405.33
448.99	27339.80
449.17	27740.03
449.36	27618.32
449.54	28425.81
449.73	29174.78
449.91	29745.87
450.10	30450.37
450.28	30700.81
450.46	30408.24
450.65	30221.00
450.83	30284.19
451.02	29890.98
451.20	29923.75
451.39	29317.55
451.57	28479.64
451.76	28861.15
451.94	28570.92
452.13	27999.83
452.31	26073.57
452.49	25392.47
452.68	26508.91
452.86	26539.33
453.05	26480.82
453.23	28011.53
453.42	28510.07
453.60	28573.26
453.78	29483.73
453.97	29509.47
454.15	28762.84
454.34	28458.57
454.52	28428.15
454.70	27843.01
454.89	27850.03
455.07	28425.81
455.26	29046.05
455.44	29701.40
455.62	30782.73
455.81	30139.08
455.99	29869.92
456.17	29977.58
456.36	30389.52
456.54	30548.67
456.73	31068.27
456.91	31314.03
457.09	31756.39
457.28	32105.13
457.46	30328.66
457.64	29729.48
457.83	28797.95
458.01	28641.14
458.19	30274.83
458.38	30038.44
458.56	30569.74
458.74	30457.39
458.93	30092.27
459.11	30405.90
459.29	30071.20
459.48	29881.62
459.66	30033.75
459.84	30607.19
460.03	30679.74
460.21	30881.03
460.39	31400.63
460.57	32025.55
460.76	31906.18
460.94	31850.01
461.12	31857.03
461.31	31494.25
461.49	31910.86
461.67	32257.26
461.85	32198.75
462.04	32318.12
462.22	32828.35
462.40	32636.43
462.59	32774.52
462.77	32779.20
462.95	32275.99
463.13	32245.56
463.32	31873.42
463.50	32182.37
463.68	32053.64
463.86	31707.24
464.05	31344.45
464.23	30459.73
464.41	30625.91
464.59	30628.25
464.78	32128.53
464.96	31431.05
465.14	31255.51
465.32	32650.47
465.50	33029.64
465.69	33212.20
465.87	31920.23
466.05	31019.12
466.23	29537.56
466.41	29123.29
466.60	30529.95
466.78	30480.80
466.96	30969.97
467.14	31330.41
467.32	32133.21
467.51	31901.50
467.69	30497.18
467.87	31475.52
468.05	31955.33
468.23	31768.09
468.41	31494.25
468.60	31711.92
468.78	32292.37
468.96	32046.62
469.14	33069.43
469.32	32613.02
469.50	31283.60
469.69	31178.28
469.87	30593.14
470.05	30452.71
470.23	31517.65
470.41	31246.15
470.59	31674.47
470.77	30958.27
470.95	32018.53
471.14	32510.04
471.32	33273.06
471.50	34508.86
471.68	34115.65
471.86	34480.77
472.04	34459.71
472.22	34848.24
472.40	33446.26
472.58	33031.98
472.77	33240.29
472.95	33050.70
473.13	34129.69
473.31	33525.83
473.49	33500.09
473.67	34328.64
473.85	34658.65
474.03	34948.88
474.21	35945.95
474.39	35709.55
474.57	35557.42
474.75	35660.40
474.93	34909.09
475.12	34513.54
475.30	35728.28
475.48	35213.36
475.66	36212.77
475.84	35367.84
476.02	35201.66
476.20	34696.10
476.38	35405.28
476.56	36624.70
476.74	36498.31
476.92	37368.99
477.10	37324.52
477.28	38110.94
477.46	37830.08
477.64	38504.15
477.82	38616.50
478.00	38281.80
478.18	37909.66
478.36	37598.37
478.54	37825.40
478.72	38478.41
478.90	40074.65
479.08	40720.64
479.26	40388.28
479.44	40856.39
479.62	40886.82
479.80	41148.96
479.98	40971.08
480.16	41036.61
480.34	40818.94
480.52	42174.11
480.70	41841.76
480.88	41902.61
481.06	42141.35
481.24	42562.64
481.41	43012.02
481.59	43730.57
481.77	43196.93
481.95	43063.52
482.13	43243.74
482.31	43021.39
482.49	44236.12
482.67	44037.18
482.85	42974.58
483.03	43564.39
483.21	44940.63
483.39	45029.57
483.57	44236.12
483.74	44194.00
483.92	44477.20
484.10	44793.17
484.28	45380.65
484.46	45797.26
484.64	46480.70
484.82	45752.79
485.00	45172.34
485.18	43580.78
485.35	41586.64
485.53	37694.33
485.71	35234.42
485.89	35278.89
486.07	37989.24
486.25	40797.88
486.43	43433.32
486.61	44067.61
486.78	44285.28
486.96	44603.59
487.14	46138.98
487.32	46600.07
487.50	47772.67
487.68	48435.05
487.85	48650.38
488.03	48734.63
488.21	47892.04
488.39	47842.89
488.57	46405.80
488.75	46698.37
488.92	48151.84
489.10	50712.39
489.28	50925.38
489.46	52259.48
489.64	52149.48
489.81	52280.55
489.99	52219.69
490.17	52320.34
490.35	52505.24
490.53	51875.63
490.70	51540.94
490.88	51997.34
491.06	53347.83
491.24	52514.60
491.41	50564.93
491.59	49427.43
491.77	49617.02
491.95	50724.09
492.13	52100.32
492.30	52577.79
492.48	54120.21
492.66	54724.07
492.84	53432.09
493.01	53783.17
493.19	53488.26
493.37	52687.80
493.54	52273.52
493.72	53523.37
493.90	54637.47
494.08	55444.95
494.25	56240.73
494.43	55679.00
494.61	56210.31
494.79	55756.24
494.96	55889.65
495.14	55309.20
495.32	53785.51
495.49	53914.24
495.67	55051.74
495.85	55955.19
496.02	56488.83
496.20	56844.59
496.38	55962.21
496.55	56226.69
496.73	56559.05
496.91	56505.21
497.09	56802.46
497.26	57219.08
497.44	56844.59
497.62	55669.64
497.79	54836.41
497.97	54265.32
498.14	55229.62
498.32	56381.16
498.50	56774.37
498.67	57251.84
498.85	57071.62
499.03	57268.23
499.20	57254.18
499.38	56926.51
499.56	56552.02
499.73	56222.01
499.91	55922.42
500.08	55697.73
500.26	55655.60
500.44	56144.77
500.61	55817.10
500.79	56009.02
500.97	55955.19
501.14	55704.75
501.32	54695.98
501.49	55121.96
501.67	55791.35
501.84	56006.68
502.02	56601.18
502.20	56704.16
502.37	56975.66
502.55	57045.88
502.72	57895.49
502.90	58092.10
503.07	57418.02
503.25	56629.26
503.43	55758.58
503.60	55625.17
503.78	55641.56
503.95	56369.46
504.13	57422.70
504.30	57902.51
504.48	56966.30
504.65	57167.58
504.83	57350.15
505.01	57661.44
505.18	58080.39
505.36	59025.97
505.53	58834.05
505.71	59344.28
505.88	59323.22
506.06	58504.03
506.23	58335.51
506.41	57528.03
506.58	57368.87
506.76	58101.46
506.93	57944.64
507.11	57790.17
507.28	57528.03
507.46	56849.27
507.63	56647.99
507.81	57123.11
507.98	57188.65
508.16	57733.99
508.33	57647.39
508.50	58922.99
508.68	59011.93
508.85	59856.86
509.03	59678.98
509.20	59178.10
509.38	58330.83
509.55	57235.46
509.73	57808.89
509.90	58396.37
510.08	58433.81
510.25	58379.98
510.42	57684.84
510.60	57614.63
510.77	58169.33
510.95	59030.65
511.12	58656.17
511.30	59388.75
511.47	59866.22
511.64	59433.22
511.82	59714.09
511.99	58499.35
512.17	57904.85
512.34	57633.35
512.51	58134.23
512.69	58056.99
512.86	57822.93
513.04	58543.82
513.21	58150.61
513.38	57181.63
513.56	56896.08
513.73	57249.50
513.90	56914.81
514.08	57499.94
514.25	58012.52
514.43	58129.54
514.60	57591.22
514.77	58300.40
514.95	58972.14
515.12	59311.52
515.29	59702.38
515.47	59250.66
515.64	59299.81
515.81	58859.79
515.99	57792.51
516.16	56011.36
516.33	54349.58
516.51	53146.54
516.68	51812.44
516.85	50798.99
517.03	52659.71
517.20	55522.19
517.37	57851.02
517.54	58473.60
517.72	57411.00
517.89	54485.33
518.06	53457.84
518.24	54773.22
518.41	56610.54
518.58	57722.29
518.75	57181.63
518.93	57244.82
519.10	56596.49
519.27	57347.81
519.45	57942.30
519.62	58735.74
519.79	58288.70
519.96	58096.78
520.14	58033.58
520.31	57247.16
520.48	57537.39
520.65	57633.35
520.83	58344.87
521.00	58288.70
521.17	58115.50
521.34	58314.45
521.52	58997.88
521.69	59290.45
521.86	59948.14
522.03	59339.60
522.20	57586.54
522.38	57181.63
522.55	57343.12
522.72	57427.38
522.89	58078.05
523.07	58431.47
523.24	58328.49
523.41	58997.88
523.58	60009.00
523.75	59821.75
523.92	59660.26
524.10	60062.83
524.27	60207.94
524.44	59201.51
524.61	59096.19
524.78	59374.71
524.96	59533.87
525.13	59777.28
525.30	60116.66
525.47	60563.70
525.64	60226.66
525.81	59358.33
525.98	57846.34
526.16	56030.08
526.33	55826.46
526.50	55016.63
526.67	55323.24
526.84	55971.57
527.01	56652.67
527.18	57120.77
527.36	58735.74
527.53	59299.81
527.70	59220.23
527.87	58536.80
528.04	58611.70
528.21	59470.67
528.38	59686.00
528.55	60067.51
528.72	60507.53
528.89	60818.82
529.07	60273.48
529.24	59391.09
529.41	58920.65
529.58	58834.05
529.75	58976.82
529.92	59568.97
530.09	59540.89
530.26	59161.72
530.43	59337.26
530.60	60177.51
530.77	59721.11
530.94	59402.80
531.11	59231.94
531.28	59161.72
531.46	59657.91
531.63	59997.29
531.80	59058.74
531.97	58670.21
532.14	58052.31
532.31	57125.46
532.48	56570.75
532.65	57139.50
532.82	57528.03
532.99	59250.66
533.16	59613.44
533.33	59236.62
533.50	59686.00
533.67	58967.46
533.84	58569.57
534.01	58628.08
534.18	58887.88
534.35	58885.54
534.52	58279.34
534.69	59054.06
534.86	59224.92
535.03	59475.35
535.20	60156.45
535.37	60130.70
535.54	60725.20
535.71	60285.18
535.88	59863.88
536.05	58930.01
536.22	58401.05
536.38	58592.97
536.55	57565.48
536.72	57631.01
536.89	57607.61
537.06	58810.64
537.23	59299.81
537.40	59664.94
537.57	60388.16
537.74	59627.49
537.91	59023.63
538.08	59529.19
538.25	59803.03
538.42	59288.11
538.59	59007.25
538.75	58543.82
538.92	58319.13
539.09	58475.94
539.26	58262.96
539.43	58546.16
539.60	57996.13
539.77	58864.47
539.94	57853.36
540.11	56919.49
540.28	56435.00
540.44	56823.53
540.61	58216.14
540.78	57745.70
540.95	57808.89
541.12	57303.34
541.29	58513.39
541.46	58623.40
541.62	59025.97
541.79	57790.17
541.96	57270.57
542.13	57970.39
542.30	58805.96
542.47	58312.11
542.63	58394.03
542.80	58138.91
542.97	58321.47
543.14	57902.51
543.31	58054.65
543.48	59079.80
543.64	59409.82
543.81	59643.87
543.98	59760.90
544.15	58653.82
544.32	58284.02
544.48	58649.14
544.65	59194.49
544.82	59405.14
544.99	58543.82
545.16	58389.34
545.32	58092.10
545.49	58944.05
545.66	58728.72
545.83	58693.61
546.00	58749.79
546.16	58515.73
546.33	58691.27
546.50	57865.06
546.67	58564.88
546.83	58976.82
547.00	58850.43
547.17	57254.18
547.34	57160.56
547.50	56765.01
547.67	57446.11
547.84	57769.10
548.00	58623.40
548.17	58230.19
548.34	58487.65
548.51	59035.33
548.67	58480.63
548.84	58595.31
549.01	58213.80
549.18	58204.44
549.34	58099.12
549.51	58501.69
549.68	57593.56
549.84	57560.79
550.01	57120.77
550.18	57207.37
550.34	57921.24
550.51	58305.09
550.68	57722.29
550.84	57528.03
551.01	58489.99
551.18	57776.12
551.34	58131.89
551.51	58220.83
551.68	57733.99
551.84	58033.58
552.01	57921.24
552.18	57256.53
552.34	57045.88
552.51	57195.67
552.68	57556.11
552.84	57251.84
553.01	57694.21
553.18	56603.52
553.34	57289.29
553.51	57483.56
553.67	57425.04
553.84	57776.12
554.01	58103.80
554.17	57134.82
554.34	57015.45
554.51	57310.36
554.67	57357.17
554.84	57312.70
555.00	57254.18
555.17	57219.08
555.33	57139.50
555.50	57116.09
555.67	58075.71
555.83	57556.11
556.00	57045.88
556.16	56800.12
556.33	56933.53
556.50	56680.75
556.66	57062.26
556.83	56989.70
556.99	57263.55
557.16	56825.87
557.32	57345.47
557.49	57272.91
557.65	57282.27
557.82	57804.21
557.98	57242.48
558.15	56760.33
558.32	56048.81
558.48	55402.82
558.65	55398.14
558.81	55468.36
558.98	55306.86
559.14	55007.27
559.31	55435.59
559.47	56142.43
559.64	55091.53
559.80	54838.75
559.97	55330.26
560.13	56212.65
560.30	56713.52
560.46	57731.65
560.63	58129.54
560.79	58915.96
560.96	57017.79
561.12	56671.39
561.29	55957.53
561.45	55243.66
561.61	56708.84
561.78	56725.22
561.94	56406.91
562.11	55723.47
562.27	55231.96
562.44	55950.51
562.60	55999.66
562.77	56121.37
562.93	56079.24
563.10	56062.85
563.26	56317.97
563.42	56301.59
563.59	56006.68
563.75	55812.41
563.92	56278.18
564.08	56416.27
564.24	56416.27
564.41	55772.63
564.57	56104.98
564.74	55510.49
564.90	55767.94
565.07	55580.70
565.23	55217.92
565.39	54698.32
565.56	54796.62
565.72	54557.89
565.88	54291.07
566.05	55884.97
566.21	54681.94
566.38	54607.04
566.54	55337.29
566.70	55011.95
566.87	55543.25
567.03	55831.14
567.19	55758.58
567.36	55891.99
567.52	55484.74
567.68	55468.36
567.85	54803.64
568.01	54644.49
568.17	54564.91
568.34	54475.97
568.50	54391.71
568.66	53212.08
568.83	53855.73
568.99	53937.65
569.15	54653.85
569.32	55004.93
569.48	54403.41
569.64	54267.66
569.81	54724.07
569.97	54181.06
570.13	53155.91
570.30	53172.29
570.46	52711.20
570.62	51657.96
570.78	52598.86
570.95	53312.72
571.11	53581.88
571.27	53478.90
571.43	53827.64
571.60	54347.24
571.76	53907.22
571.92	55002.59
572.09	54553.21
572.25	54513.42
572.41	54913.65
572.57	54876.20
572.74	54960.46
572.90	53750.40
573.06	54548.53
573.22	54433.84
573.38	54295.75
573.55	54803.64
573.71	54330.86
573.87	54429.16
574.03	54672.57
574.20	54555.55
574.36	53715.29
574.52	53488.26
574.68	52729.93
574.84	52460.77
575.01	52301.61
575.17	53464.86
575.33	53106.76
575.49	54162.34
575.65	54220.85
575.82	53340.81
575.98	52432.68
576.14	53862.75
576.30	53874.45
576.46	54195.10
576.62	53340.81
576.79	52924.19
576.95	52917.17
577.11	52329.70
577.27	52896.11
577.43	52690.14
577.59	53188.67
577.75	53179.31
577.92	52081.60
578.08	51650.94
578.24	51693.07
578.40	52067.56
578.56	51765.63
578.72	52229.05
578.88	52437.36
579.04	52896.11
579.21	52629.29
579.37	52037.13
579.53	51730.52
579.69	52140.11
579.85	52624.60
580.01	52037.13
580.17	52032.45
580.33	52917.17
580.49	52985.05
580.65	52369.49
580.82	52933.56
580.98	52807.17
581.14	52037.13
581.30	52648.01
581.46	52786.10
581.62	52655.03
581.78	53073.99
581.94	52996.75
582.10	52460.77
582.26	52037.13
582.42	52126.07
582.58	52942.92
582.74	52495.88
582.90	52112.03
583.06	53640.40
583.22	52793.12
583.38	52741.63
583.54	52676.10
583.70	52631.63
583.86	52435.02
584.02	52339.06
584.18	52624.60
584.34	52158.84
584.50	52378.85
584.66	52701.84
584.82	51913.08
584.98	52315.65
585.14	51700.09
585.30	50871.54
