SpectraSuite Data File
++++++++++++++++++++++++++++++++++++
Date: Mon Oct 07 14:53:05 GMT-05:00 2013
User: price-jones
Dark Spectrum Present: No
Reference Spectrum Present: No
Number of Sampled Component Spectra: 1
Spectrometers: USB2+H05261
Integration Time (usec): 100000 (USB2+H05261)
Spectra Averaged: 1 (USB2+H05261)
Boxcar Smoothing: 0 (USB2+H05261)
Correct for Electrical Dark: No (USB2+H05261)
Strobe/Lamp Enabled: No (USB2+H05261)
Correct for Detector Non-linearity: No (USB2+H05261)
Correct for Stray Light: No (USB2+H05261)
Number of Pixels in Processed Spectrum: 2048
>>>>>Begin Processed Spectral Data<<<<<
365.73	0.00
365.92	0.00
366.12	0.00
366.32	0.00
366.52	0.00
366.72	0.00
366.91	0.00
367.11	0.00
367.31	0.00
367.51	0.00
367.70	0.00
367.90	0.00
368.10	0.00
368.30	0.00
368.49	0.00
368.69	0.00
368.89	0.00
369.09	0.00
369.28	0.00
369.48	0.00
369.68	0.00
369.87	0.00
370.07	0.00
370.27	0.00
370.47	615.56
370.66	2806.30
370.86	3468.67
371.06	3655.92
371.25	3658.26
371.45	3410.16
371.65	3038.02
371.84	2698.64
372.04	2878.86
372.24	3307.18
372.44	3609.11
372.63	3524.85
372.83	3201.85
373.03	2855.45
373.22	2661.19
373.42	2754.81
373.62	3204.19
373.81	3463.99
374.01	3428.88
374.21	3000.57
374.40	2729.06
374.60	3129.30
374.79	3410.16
374.99	3960.19
375.19	4077.21
375.38	4159.13
375.58	3920.40
375.78	3896.99
375.97	4109.98
376.17	4098.28
376.37	4180.20
376.56	4173.18
376.76	4547.66
376.95	4671.71
377.15	5130.45
377.35	5282.59
377.54	5565.79
377.74	5617.29
377.93	5596.22
378.13	5451.11
378.33	5163.22
378.52	4781.71
378.72	4709.16
378.91	4456.38
379.11	4245.73
379.31	4051.47
379.50	4196.58
379.70	4716.18
379.89	4952.57
380.09	5350.46
380.28	5664.10
380.48	5483.88
380.68	5406.64
380.87	5118.75
381.07	4910.44
381.26	4615.54
381.46	4227.01
381.65	4170.83
381.85	3953.16
382.04	3819.75
382.24	3459.31
382.43	3442.93
382.63	3300.16
382.83	3433.57
383.02	3379.73
383.22	3496.76
383.41	3461.65
383.61	3522.51
383.80	4093.60
384.00	4681.07
384.19	5317.70
384.39	5605.58
384.58	5607.92
384.78	5373.87
384.97	5266.21
385.17	5107.05
385.36	4767.67
385.56	4669.37
385.75	4779.37
385.95	5158.54
386.14	5713.25
386.34	5731.97
386.53	5385.57
386.72	5041.51
386.92	5268.55
387.11	5483.88
387.31	5607.92
387.50	5727.29
387.70	5490.90
387.89	5427.70
388.09	5387.91
388.28	5373.87
388.48	5392.59
388.67	6005.81
388.86	6604.99
389.06	7014.59
389.25	7372.69
389.45	7400.77
389.64	7407.80
389.84	7328.22
390.03	7101.19
390.22	7225.23
390.42	7370.35
390.61	7978.89
390.81	8425.93
391.00	8709.13
391.19	8402.52
391.39	8304.22
391.58	7775.26
391.78	7323.54
391.97	7061.40
392.16	6399.02
392.36	5980.07
392.55	4774.69
392.75	3758.90
392.94	3035.67
393.13	3248.66
393.33	3632.51
393.52	4772.35
393.71	5816.23
393.91	6539.46
394.10	6988.84
394.29	7726.11
394.49	8449.33
394.68	8952.55
394.88	8879.99
395.07	9184.26
395.26	9357.46
395.46	8908.08
395.65	8381.46
395.84	7204.17
396.04	6174.33
396.23	5085.98
396.42	4320.63
396.62	4117.00
396.81	4835.55
397.00	6146.25
397.19	7854.84
397.39	8901.06
397.58	10099.41
397.77	10675.18
397.97	11262.66
398.16	11215.85
398.35	11705.02
398.55	11997.59
398.74	12765.28
398.93	12877.63
399.12	12793.37
399.32	12233.98
399.51	12648.26
399.70	13074.23
399.90	13071.89
400.09	13193.60
400.28	13025.08
400.47	13259.13
400.67	13905.12
400.86	14462.17
401.05	13989.38
401.24	14087.68
401.44	14326.42
401.63	14431.74
401.82	14544.09
402.01	14567.49
402.21	14946.66
402.40	14750.06
402.59	14366.21
402.78	13551.70
402.97	13076.57
403.17	13933.21
403.36	14623.67
403.55	14998.15
403.74	15389.02
403.93	14782.82
404.13	13392.55
404.32	13193.60
404.51	14054.92
404.70	14888.15
404.89	14874.10
405.09	14675.16
405.28	14314.72
405.47	14455.15
405.66	14155.56
405.85	13799.80
406.05	13614.90
406.24	13783.41
406.43	14424.72
406.62	14890.49
406.81	15124.54
407.00	14583.88
407.20	13970.66
407.39	14445.79
407.58	14946.66
407.77	15616.05
407.96	15889.90
408.15	16170.76
408.34	16285.45
408.54	17029.74
408.73	17095.27
408.92	16959.52
409.11	16297.15
409.30	15426.47
409.49	14576.86
409.68	13603.19
409.87	13481.49
410.07	14017.47
410.26	15176.03
410.45	16231.62
410.64	16540.57
410.83	17263.79
411.02	17509.55
411.21	18010.42
411.40	17561.04
411.59	18181.28
411.78	17769.35
411.98	17610.19
412.17	17923.82
412.36	17682.75
412.55	17589.13
412.74	17289.54
412.93	16968.88
413.12	17193.58
413.31	18714.92
413.50	18663.43
413.69	19330.48
413.88	18352.14
414.07	17879.35
414.26	18228.09
414.45	19119.84
414.64	18967.70
414.83	18537.04
415.02	18256.18
415.22	18630.66
415.41	19040.26
415.60	19566.88
415.79	20219.89
415.98	20823.75
416.17	20760.55
416.36	20547.56
416.55	19927.32
416.74	19466.24
416.93	19047.28
417.12	18689.18
417.31	19185.37
417.50	19543.47
417.69	19576.24
417.88	19700.29
418.07	19882.85
418.26	19655.82
418.45	19531.77
418.64	20088.82
418.83	20954.82
419.02	21027.37
419.21	20753.53
419.39	19461.55
419.58	18581.51
419.77	19040.26
419.96	19543.47
420.15	20933.75
420.34	21252.06
420.53	22408.29
420.72	22066.57
420.91	22274.88
421.10	21963.59
421.29	21982.31
421.48	21048.44
421.67	22274.88
421.86	21738.90
422.05	20116.90
422.24	17858.29
422.43	17741.26
422.61	19756.46
422.80	21411.22
422.99	21277.81
423.18	20854.17
423.37	19985.83
423.56	20311.17
423.75	20659.91
423.94	20971.20
424.13	20170.74
424.32	20032.65
424.50	20390.75
424.69	20175.42
424.88	19648.80
425.07	19983.49
425.26	19782.21
425.45	19653.48
425.64	19328.14
425.83	19150.26
426.01	20388.41
426.20	20957.16
426.39	20706.72
426.58	19030.90
426.77	17898.08
426.96	17121.02
427.15	18211.71
427.33	19461.55
427.52	19974.13
427.71	19936.68
427.90	19772.85
428.09	19997.54
428.28	19286.01
428.46	18740.67
428.65	18321.71
428.84	18967.70
429.03	19307.08
429.22	18178.94
429.40	17212.30
429.59	15459.24
429.78	13891.08
429.97	14150.88
430.16	14183.65
430.34	14094.71
430.53	14183.65
430.72	14532.39
430.91	15922.66
431.10	18988.77
431.28	22223.39
431.47	23784.52
431.66	24126.24
431.85	21731.87
432.03	20044.35
432.22	19323.46
432.41	20133.29
432.60	22139.13
432.79	23353.87
432.97	23601.96
433.16	22993.42
433.35	21025.03
433.54	19180.69
433.72	17975.31
433.91	18576.83
434.10	20711.40
434.28	22057.21
434.47	23154.92
434.66	22558.08
434.85	22373.18
435.03	22108.70
435.22	23094.07
435.41	24273.70
435.59	24119.22
435.78	24549.88
435.97	25167.78
436.16	25387.79
436.34	25003.94
436.53	24423.49
436.72	24219.86
436.90	23051.94
437.09	23314.08
437.28	22609.58
437.46	23810.27
437.65	23175.98
437.84	21872.31
438.02	20098.18
438.21	20016.26
438.40	21479.10
438.58	22679.79
438.77	23314.08
438.96	23854.74
439.14	24929.05
439.33	25392.47
439.52	25579.71
439.70	25329.28
439.89	24627.12
440.08	23704.95
440.26	23833.68
440.45	24760.53
440.63	26494.86
440.82	27953.02
441.01	26984.04
441.19	27082.34
441.38	27278.94
441.57	28636.45
441.75	28460.91
441.94	28851.78
442.12	28556.88
442.31	29472.03
442.50	29455.64
442.68	28879.87
442.87	28643.48
443.05	28149.62
443.24	28491.34
443.43	28950.09
443.61	29837.15
443.80	29689.70
443.98	28538.15
444.17	28474.96
444.35	30106.31
444.54	30707.83
444.73	30225.68
444.91	28849.44
445.10	27630.02
445.28	26911.48
445.47	26307.62
445.65	26799.13
445.84	27559.81
446.02	28215.16
446.21	28507.72
446.39	28322.82
446.58	29076.48
446.77	29490.75
446.95	29633.52
447.14	30808.47
447.32	31065.93
447.51	30417.60
447.69	28919.66
447.88	28776.89
448.06	29277.76
448.25	30223.34
448.43	30178.87
448.62	29778.64
448.80	29415.85
448.99	29642.88
449.17	30075.88
449.36	30249.08
449.54	30768.68
449.73	31250.83
449.91	31740.00
450.10	32687.92
450.28	32943.04
450.46	32685.58
450.65	33027.30
450.83	33067.09
451.02	32044.27
451.20	32037.25
451.39	32053.64
451.57	31625.32
451.76	31997.46
451.94	31182.96
452.13	31171.25
452.31	29656.93
452.49	28177.71
452.68	28334.53
452.86	28552.20
453.05	28922.00
453.23	29701.40
453.42	30960.61
453.60	31281.26
453.78	31524.68
453.97	31131.47
454.15	31023.80
454.34	30293.55
454.52	30396.54
454.70	29823.11
454.89	30422.28
455.07	30768.68
455.26	31068.27
455.44	32219.81
455.62	32708.99
455.81	32865.80
455.99	32634.09
456.17	31854.69
456.36	32479.61
456.54	33113.90
456.73	32968.79
456.91	34134.37
457.09	33982.24
457.28	34251.40
457.46	32957.08
457.64	32760.48
457.83	32011.51
458.01	31304.67
458.19	32332.16
458.38	32545.15
458.56	33008.58
458.74	33219.22
458.93	33081.13
459.11	32460.89
459.29	32622.39
459.48	32568.55
459.66	32472.59
459.84	32800.27
460.03	33106.88
460.21	32886.87
460.39	33865.21
460.57	33481.36
460.76	34169.48
460.94	34295.87
461.12	34031.39
461.31	34078.20
461.49	33933.09
461.67	33970.54
461.85	35629.98
462.04	35124.42
462.22	35358.47
462.40	35005.05
462.59	34522.90
462.77	35047.18
462.95	34878.66
463.13	34405.88
463.32	34171.82
463.50	33893.30
463.68	34342.68
463.86	34085.22
464.05	33532.86
464.23	32945.38
464.41	32992.19
464.59	32531.11
464.78	34139.05
464.96	33909.68
465.14	33624.14
465.32	34054.79
465.50	35021.44
465.69	35662.74
465.87	34593.12
466.05	33823.08
466.23	32147.26
466.41	31690.85
466.60	32732.39
466.78	32589.62
466.96	32793.25
467.14	33762.23
467.32	33970.54
467.51	33912.02
467.69	32734.73
467.87	33413.49
468.05	33413.49
468.23	33860.53
468.41	33759.89
468.60	34038.41
468.78	34284.17
468.96	33799.68
469.14	34759.30
469.32	34541.63
469.50	33123.26
469.69	33366.68
469.87	32999.21
470.05	33069.43
470.23	32786.22
470.41	33120.92
470.59	33567.96
470.77	33851.17
470.95	34445.66
471.14	34829.51
471.32	34902.07
471.50	36914.93
471.68	37006.21
471.86	37085.79
472.04	37228.56
472.22	37207.50
472.40	35508.27
472.58	34913.77
472.77	34375.45
472.95	35550.40
473.13	36610.66
473.31	35086.97
473.49	35262.51
473.67	36854.08
473.85	36989.83
474.03	37333.89
474.21	37851.14
474.39	37921.36
474.57	38356.70
474.75	37914.34
474.93	37687.31
475.12	36889.18
475.30	37432.19
475.48	37406.44
475.66	38036.05
475.84	37818.38
476.02	37120.90
476.20	36961.74
476.38	37523.47
476.56	38340.32
476.74	38916.09
476.92	38960.56
477.10	39693.15
477.28	40746.39
477.46	41008.53
477.64	41170.02
477.82	40877.46
478.00	41305.77
478.18	40800.22
478.36	40823.62
478.54	40678.51
478.72	40629.36
478.90	41743.45
479.08	42981.60
479.26	43328.00
479.44	43353.74
479.62	43189.91
479.80	42946.49
479.98	43136.07
480.16	43569.07
480.34	42939.47
480.52	43440.34
480.70	43833.55
480.88	44226.76
481.06	44847.00
481.24	45130.21
481.41	45715.34
481.59	46499.42
481.77	45998.55
481.95	45591.30
482.13	45350.22
482.31	45588.95
482.49	46131.96
482.67	45893.22
482.85	46522.83
483.03	46770.93
483.21	47166.48
483.39	47679.05
483.57	46333.24
483.74	46113.23
483.92	46574.32
484.10	46459.63
484.28	47597.13
484.46	48046.52
484.64	48144.82
484.82	47615.86
485.00	46873.91
485.18	46520.49
485.35	44910.20
485.53	41544.51
485.71	38157.75
485.89	37965.83
486.07	40100.40
486.25	43311.61
486.43	45289.37
486.61	45975.14
486.78	45909.61
486.96	46148.34
487.14	47861.61
487.32	48802.51
487.50	49771.49
487.68	50373.01
487.85	50923.04
488.03	51002.61
488.21	50681.96
488.39	49837.03
488.57	49308.07
488.75	49083.37
488.92	50363.65
489.10	52430.34
489.28	53862.75
489.46	54080.42
489.64	54024.25
489.81	54047.65
489.99	53813.60
490.17	53827.64
490.35	54223.19
490.53	53680.19
490.70	53736.36
490.88	53329.11
491.06	54244.26
491.24	53991.48
491.41	53148.88
491.59	51707.12
491.77	50667.92
491.95	51978.62
492.13	53235.48
492.30	54625.76
492.48	55089.19
492.66	55526.87
492.84	55566.66
493.01	55253.03
493.19	54658.53
493.37	54513.42
493.54	54518.10
493.72	54981.52
493.90	55749.22
494.08	56502.87
494.25	56961.62
494.43	56947.57
494.61	57359.51
494.79	57422.70
494.96	57113.75
495.14	56575.43
495.32	55629.85
495.49	55227.28
495.67	56224.35
495.85	57340.78
496.02	57979.75
496.20	57804.21
496.38	57148.86
496.55	57212.06
496.73	57598.24
496.91	57818.25
497.09	58361.26
497.26	58508.71
497.44	58071.03
497.62	57485.90
497.79	56722.88
497.97	55517.51
498.14	55819.44
498.32	56982.68
498.50	57633.35
498.67	58251.25
498.85	58122.52
499.03	58183.38
499.20	58513.39
499.38	58473.60
499.56	58408.07
499.73	57652.08
499.91	57298.65
500.08	57132.48
500.26	56320.31
500.44	56722.88
500.61	57757.40
500.79	57284.61
500.97	56921.83
501.14	56804.80
501.32	56451.38
501.49	56697.14
501.67	56811.82
501.84	57420.36
502.02	57661.44
502.20	58141.25
502.37	57916.56
502.55	58370.62
502.72	58387.00
502.90	58976.82
503.07	58684.25
503.25	58438.50
503.43	57382.91
503.60	56879.70
503.78	56317.97
503.95	56896.08
504.13	58155.29
504.30	58820.00
504.48	58602.33
504.65	58543.82
504.83	58506.37
505.01	58981.50
505.18	59536.21
505.36	59931.76
505.53	59861.54
505.71	60147.09
505.88	60044.10
506.06	59561.95
506.23	59510.46
506.41	58735.74
506.58	59068.10
506.76	59112.57
506.93	59021.29
507.11	58871.49
507.28	58941.71
507.46	58550.84
507.63	57909.53
507.81	58059.33
507.98	58113.16
508.16	58822.34
508.33	59224.92
508.50	59409.82
508.68	59955.16
508.85	60523.91
509.03	60013.68
509.20	60083.89
509.38	59620.47
509.55	58719.36
509.73	58857.45
509.90	59552.59
510.08	59779.62
510.25	59543.23
510.42	59416.84
510.60	59311.52
510.77	59522.16
510.95	60217.30
511.12	60236.03
511.30	60589.45
511.47	60821.16
511.64	60678.39
511.82	60296.88
511.99	59526.84
512.17	59173.42
512.34	59061.08
512.51	59072.78
512.69	59196.83
512.86	59391.09
513.04	59774.94
513.21	59693.02
513.38	59253.00
513.56	58883.20
513.73	58127.20
513.90	58623.40
514.08	58721.70
514.25	59152.36
514.43	59194.49
514.60	59395.77
514.77	59245.98
514.95	59320.88
515.12	59344.28
515.29	59669.62
515.47	60116.66
515.64	60144.75
515.81	59856.86
515.99	59295.13
516.16	57867.40
516.33	55906.04
516.51	54391.71
516.68	53832.32
516.85	53212.08
517.03	54005.52
517.20	56615.22
517.37	58738.08
517.54	59323.22
517.72	59278.75
517.89	56666.71
518.06	54415.11
518.24	54761.51
518.41	56975.66
518.58	57979.75
518.75	58384.66
518.93	58543.82
519.10	58356.58
519.27	58824.68
519.45	59124.27
519.62	59784.30
519.79	60149.43
519.96	59835.80
520.14	59407.48
520.31	58597.65
520.48	58546.16
520.65	58937.03
520.83	59920.05
521.00	60280.50
521.17	59777.28
521.34	59538.55
521.52	59870.90
521.69	60406.89
521.86	60891.38
522.03	60341.35
522.20	59241.30
522.38	58482.97
522.55	58293.38
522.72	59086.82
522.89	59025.97
523.07	59164.06
523.24	59622.81
523.41	60416.25
523.58	60603.49
523.75	61169.90
523.92	60917.12
524.10	60907.76
524.27	60764.99
524.44	60690.09
524.61	60563.70
524.78	60434.97
524.96	60261.77
525.13	60245.39
525.30	60364.76
525.47	61055.21
525.64	60860.95
525.81	60282.84
525.98	58457.22
526.16	57511.64
526.33	56926.51
526.50	56687.78
526.67	56240.73
526.84	56722.88
527.01	57879.11
527.18	58447.86
527.36	59524.50
527.53	60341.35
527.70	60329.65
527.87	60030.06
528.04	59611.10
528.21	60182.19
528.38	60463.06
528.55	61188.63
528.72	61382.89
528.89	61553.75
529.07	61095.00
529.24	60652.64
529.41	59952.82
529.58	59515.14
529.75	59573.66
529.92	60072.19
530.09	60427.95
530.26	61006.06
530.43	61078.62
530.60	61059.90
530.77	61319.70
530.94	61450.77
531.11	61041.17
531.28	60802.44
531.46	60664.35
531.63	60720.52
531.80	60486.46
531.97	60102.62
532.14	59498.76
532.31	58473.60
532.48	58056.99
532.65	58010.18
532.82	58803.62
532.99	59838.14
533.16	60177.51
533.33	60718.18
533.50	60360.08
533.67	59817.07
533.84	59377.05
534.01	59730.47
534.18	59894.31
534.35	60055.81
534.52	59859.20
534.69	60350.71
534.86	60470.08
535.03	60867.97
535.20	61300.97
535.37	61446.08
535.54	61427.36
535.71	61076.28
535.88	60849.25
536.05	60135.38
536.22	59812.39
536.38	59494.08
536.55	59089.16
536.72	58850.43
536.89	58651.48
537.06	59447.27
537.23	60252.41
537.40	60296.88
537.57	60367.10
537.74	60151.77
537.91	60065.17
538.08	60175.17
538.25	60259.43
538.42	60266.45
538.59	60266.45
538.75	59451.95
538.92	59496.42
539.09	59313.86
539.26	59126.61
539.43	58871.49
539.60	59150.02
539.77	59381.73
539.94	59327.90
540.11	58288.70
540.28	57874.43
540.44	58110.82
540.61	58269.98
540.78	58403.39
540.95	58843.41
541.12	59234.28
541.29	59501.10
541.46	59767.92
541.62	59831.11
541.79	59583.02
541.96	59065.76
542.13	59171.08
542.30	59384.07
542.47	59426.20
542.63	59372.37
542.80	58995.54
542.97	59150.02
543.14	59028.31
543.31	59222.58
543.48	59697.70
543.64	60500.51
543.81	60697.11
543.98	60463.06
544.15	59634.51
544.32	59166.40
544.48	59276.41
544.65	59646.21
544.82	60034.74
544.99	59639.19
545.16	59360.67
545.32	59166.40
545.49	60016.02
545.66	60207.94
545.83	59929.42
546.00	59655.57
546.16	59227.26
546.33	59426.20
546.50	59597.06
546.67	59908.35
546.83	59496.42
547.00	59475.35
547.17	58773.19
547.34	58234.87
547.50	58412.75
547.67	58773.19
547.84	58557.86
548.00	58932.35
548.17	59634.51
548.34	59456.63
548.51	59267.05
548.67	59454.29
548.84	59423.86
549.01	59344.28
549.18	59409.82
549.34	59192.15
549.51	59334.92
549.68	59171.08
549.84	58925.33
550.01	58976.82
550.18	58721.70
550.34	58759.15
550.51	59110.23
550.68	59292.79
550.84	58567.23
551.01	58571.91
551.18	58574.25
551.34	58908.94
551.51	59091.51
551.68	59547.91
551.84	59564.29
552.01	59206.19
552.18	59234.28
552.34	58248.91
552.51	58120.18
552.68	58220.83
552.84	58447.86
553.01	58705.32
553.18	58649.14
553.34	58869.15
553.51	59007.25
553.67	59271.73
553.84	58988.52
554.01	58965.12
554.17	58922.99
554.34	59128.95
554.51	59166.40
554.67	59503.44
554.84	59330.24
555.00	58848.09
555.17	58693.61
555.33	58665.53
555.50	58733.40
555.67	58915.96
555.83	58482.97
556.00	58337.85
556.16	58347.21
556.33	57764.42
556.50	57710.59
556.66	57736.34
556.83	57586.54
556.99	57645.05
557.16	57867.40
557.32	57954.00
557.49	58262.96
557.65	58204.44
557.82	58162.31
557.98	57963.37
558.15	57490.58
558.32	56931.19
558.48	56250.09
558.65	56261.80
558.81	56662.03
558.98	57118.43
559.14	57319.72
559.31	57102.05
559.47	57286.95
559.64	56968.64
559.80	56605.86
559.97	56790.76
560.13	57151.20
560.30	57911.88
560.46	58375.30
560.63	58459.56
560.79	58438.50
560.96	58412.75
561.12	56949.92
561.29	56416.27
561.45	56481.81
561.61	57038.86
561.78	57427.38
561.94	57235.46
562.11	57008.43
562.27	57137.16
562.44	57329.08
562.60	57780.81
562.77	57888.47
562.93	57785.49
563.10	57413.34
563.26	57120.77
563.42	57024.81
563.59	56687.78
563.75	57027.15
563.92	57153.54
564.08	56851.61
564.24	57097.37
564.41	57148.86
564.57	57148.86
564.74	57111.41
564.90	56912.47
565.07	56783.74
565.23	56418.61
565.39	56023.06
565.56	55573.68
565.72	55290.48
565.88	55924.76
566.05	55842.84
566.21	55915.40
566.38	56287.54
566.54	56442.02
566.70	56734.59
566.87	56914.81
567.03	57041.20
567.19	57024.81
567.36	56933.53
567.52	56652.67
567.68	56357.76
567.85	55793.69
568.01	55421.55
568.17	55189.83
568.34	55278.77
568.50	55250.69
568.66	55269.41
568.83	55751.56
568.99	55723.47
569.15	56027.74
569.32	55774.97
569.48	55569.00
569.64	55451.97
569.81	55332.60
569.97	55189.83
570.13	55119.62
570.30	54614.06
570.46	54291.07
570.62	53942.33
570.78	53715.29
570.95	53986.80
571.11	54855.14
571.27	54658.53
571.43	55082.17
571.60	55409.84
571.76	55274.09
571.92	55604.11
572.09	55807.73
572.25	55564.32
572.41	55529.21
572.57	55662.62
572.74	55688.37
572.90	55264.73
573.06	55344.31
573.22	55323.24
573.38	55271.75
573.55	54939.39
573.71	55381.76
573.87	55283.45
574.03	55238.98
574.20	55161.75
574.36	54593.00
574.52	54815.35
574.68	54721.72
574.84	54143.61
575.01	53806.58
575.17	54010.20
575.33	54026.59
575.49	54363.62
575.65	54319.15
575.82	54078.08
575.98	54092.12
576.14	54211.49
576.30	54660.87
576.46	54609.38
576.62	54511.08
576.79	54422.14
576.95	54038.29
577.11	53979.78
577.27	54356.60
577.43	54337.88
577.59	53595.93
577.75	53462.52
577.92	52931.22
578.08	52935.90
578.24	52818.87
578.40	53251.87
578.56	53457.84
578.72	53207.40
578.88	53586.57
579.04	53757.42
579.21	53806.58
579.37	53684.87
579.53	53790.19
579.69	53762.11
579.85	54124.89
580.01	53958.71
580.17	53542.10
580.33	53270.59
580.49	53441.45
580.65	53682.53
580.82	53895.52
580.98	53572.52
581.14	53549.12
581.30	53832.32
581.46	53858.07
581.62	53801.89
581.78	53862.75
581.94	54010.20
582.10	54057.01
582.26	53876.79
582.42	53951.69
582.58	53942.33
582.74	53806.58
582.90	53808.92
583.06	54075.74
583.22	53783.17
583.38	53839.34
583.54	53687.21
583.70	53727.00
583.86	53703.59
584.02	53385.28
584.18	53701.25
584.34	53698.91
584.50	53514.01
584.66	53476.56
584.82	53144.20
584.98	52910.15
585.14	52355.44
585.30	51807.76
