SpectraSuite Data File
++++++++++++++++++++++++++++++++++++
Date: Mon Oct 07 14:52:54 GMT-05:00 2013
User: price-jones
Dark Spectrum Present: No
Reference Spectrum Present: No
Number of Sampled Component Spectra: 1
Spectrometers: USB2+H05261
Integration Time (usec): 100000 (USB2+H05261)
Spectra Averaged: 1 (USB2+H05261)
Boxcar Smoothing: 0 (USB2+H05261)
Correct for Electrical Dark: No (USB2+H05261)
Strobe/Lamp Enabled: No (USB2+H05261)
Correct for Detector Non-linearity: No (USB2+H05261)
Correct for Stray Light: No (USB2+H05261)
Number of Pixels in Processed Spectrum: 2048
>>>>>Begin Processed Spectral Data<<<<<
365.73	0.00
365.92	0.00
366.12	0.00
366.32	0.00
366.52	0.00
366.72	0.00
366.91	0.00
367.11	0.00
367.31	0.00
367.51	0.00
367.70	0.00
367.90	0.00
368.10	0.00
368.30	0.00
368.49	0.00
368.69	0.00
368.89	0.00
369.09	0.00
369.28	0.00
369.48	0.00
369.68	0.00
369.87	0.00
370.07	0.00
370.27	0.00
370.47	966.64
370.66	4573.41
370.86	5350.46
371.06	5645.37
371.25	5668.78
371.45	5242.80
371.65	4620.22
371.84	4292.54
372.04	4634.26
372.24	4952.57
372.44	5273.23
372.63	5203.01
372.83	4865.97
373.03	4386.16
373.22	4049.13
373.42	4266.80
373.62	4870.65
373.81	5275.57
374.01	5200.67
374.21	4606.17
374.40	4341.69
374.60	4470.42
374.79	5228.76
374.99	5879.43
375.19	6319.45
375.38	6211.78
375.58	5914.53
375.78	5916.87
375.97	5942.62
376.17	6232.85
376.37	6197.74
376.56	6445.84
376.76	6604.99
376.95	7152.68
377.15	7552.91
377.35	7887.61
377.54	8306.56
377.74	8318.26
377.93	8339.33
378.13	8095.91
378.33	7599.72
378.52	7045.01
378.72	6876.49
378.91	6916.28
379.11	6513.71
379.31	6279.66
379.50	6441.15
379.70	6813.30
379.89	7527.16
380.09	7948.46
380.28	8222.30
380.48	8336.99
380.68	7988.25
380.87	7702.70
381.07	7227.57
381.26	6686.91
381.46	6392.00
381.65	6050.28
381.85	5898.15
382.04	5638.35
382.24	5177.26
382.43	4954.91
382.63	4997.04
382.83	4997.04
383.02	4924.49
383.22	4894.06
383.41	4910.44
383.61	5181.95
383.80	6263.27
384.00	6878.83
384.19	7679.30
384.39	8107.62
384.58	8255.07
384.78	7791.64
384.97	7742.49
385.17	7513.12
385.36	6890.54
385.56	6607.33
385.75	6918.62
385.95	7765.90
386.14	8407.20
386.34	8231.66
386.53	7730.79
386.72	7265.02
386.92	7468.65
387.11	7779.94
387.31	8329.97
387.50	8086.55
387.70	7857.18
387.89	7655.89
388.09	7691.00
388.28	8016.33
388.48	8016.33
388.67	8650.62
388.86	9357.46
389.06	10171.97
389.25	10785.19
389.45	10724.33
389.64	10462.19
389.84	10499.64
390.03	10221.12
390.22	10279.63
390.42	10867.11
390.61	11461.60
390.81	12152.06
391.00	12255.04
391.19	12271.43
391.39	11854.81
391.58	11068.39
391.78	10478.58
391.97	10157.92
392.16	9352.78
392.36	8358.05
392.55	6703.29
392.75	5439.40
392.94	4526.60
393.13	4451.70
393.33	5338.76
393.52	6839.05
393.71	8276.13
393.91	9259.16
394.10	10038.56
394.29	11318.83
394.49	12053.76
394.68	12762.94
394.88	12994.65
395.07	13355.10
395.26	13142.11
395.46	12725.49
395.65	12049.08
395.84	10303.04
396.04	8547.64
396.23	7066.08
396.42	6029.22
396.62	6010.50
396.81	6986.50
397.00	8802.75
397.19	11157.33
397.39	13022.74
397.58	14581.54
397.77	15737.76
397.97	16112.25
398.16	15964.79
398.35	16816.75
398.55	17202.94
398.74	17970.63
398.93	18235.11
399.12	18087.66
399.32	17507.21
399.51	17617.21
399.70	18595.56
399.90	18532.36
400.09	19037.92
400.28	18412.99
400.47	18686.84
400.67	19667.52
400.86	19941.36
401.05	20152.01
401.24	20114.56
401.44	20446.92
401.63	20299.47
401.82	20519.48
402.01	20844.81
402.21	20505.43
402.40	20720.76
402.59	20098.18
402.78	19466.24
402.97	19019.19
403.17	19807.95
403.36	20816.72
403.55	21561.02
403.74	22043.17
403.93	20746.51
404.13	19330.48
404.32	18977.06
404.51	19819.66
404.70	21181.85
404.89	21287.17
405.09	21022.69
405.28	20407.13
405.47	20444.58
405.66	20184.78
405.85	19765.82
406.05	19140.90
406.24	19749.44
406.43	20620.12
406.62	21111.63
406.81	21046.10
407.00	20114.56
407.20	20287.76
407.39	20079.46
407.58	21359.73
407.77	21659.32
407.96	22314.67
408.15	22693.83
408.34	23030.87
408.54	24154.33
408.73	23824.31
408.92	23639.41
409.11	23154.92
409.30	21909.75
409.49	20563.95
409.68	19321.12
409.87	18775.78
410.07	19798.59
410.26	21500.16
410.45	22691.49
410.64	23248.54
410.83	24175.39
411.02	24606.05
411.21	25504.82
411.40	25238.00
411.59	25277.79
411.78	25259.06
411.98	24762.87
412.17	25200.55
412.36	24877.55
412.55	24748.82
412.74	24432.85
412.93	23709.63
413.12	23997.51
413.31	26675.09
413.50	26298.26
413.69	26932.54
413.88	25553.97
414.07	25090.54
414.26	25532.90
414.45	26324.01
414.64	26497.20
414.83	26426.99
415.02	26298.26
415.22	26232.72
415.41	26464.44
415.60	27332.78
415.79	28762.84
415.98	28966.47
416.17	28980.51
416.36	28257.29
416.55	28144.94
416.74	26920.84
416.93	26125.06
417.12	26328.69
417.31	27133.83
417.50	27103.40
417.69	28184.73
417.88	28470.28
418.07	27288.31
418.26	27070.64
418.45	27674.49
418.64	28278.35
418.83	29088.18
419.02	29010.94
419.21	28765.18
419.39	27410.01
419.58	26223.36
419.77	26501.89
419.96	27580.87
420.15	29158.39
420.34	30029.07
420.53	31061.25
420.72	31159.55
420.91	30890.39
421.10	30679.74
421.29	30370.79
421.48	29530.54
421.67	30686.76
421.86	29860.55
422.05	27988.13
422.24	24889.26
422.43	24933.73
422.61	27707.26
422.80	29668.63
422.99	29773.95
423.18	28638.80
423.37	28166.01
423.56	28320.48
423.75	28900.94
423.94	29455.64
424.13	27737.69
424.32	27962.38
424.50	28077.07
424.69	27751.73
424.88	28018.55
425.07	27903.87
425.26	27946.00
425.45	27456.82
425.64	27213.41
425.83	26824.88
426.01	28521.77
426.20	29563.31
426.39	28858.81
426.58	26712.53
426.77	24971.18
426.96	23917.93
427.15	24868.19
427.33	26962.97
427.52	27845.35
427.71	28044.30
427.90	28006.85
428.09	27477.89
428.28	27054.25
428.46	26139.10
428.65	25961.22
428.84	26153.15
429.03	26766.37
429.22	24910.32
429.40	23653.45
429.59	21568.04
429.78	19178.35
429.97	19274.31
430.16	19541.13
430.34	20142.65
430.53	19522.41
430.72	20533.52
430.91	22733.62
431.10	26628.27
431.28	30979.33
431.47	33432.21
431.66	33457.96
431.85	30225.68
432.03	27903.87
432.22	27175.96
432.41	28107.49
432.60	30981.67
432.79	32004.49
432.97	32985.17
433.16	32114.49
433.35	29160.73
433.54	26593.17
433.72	25245.02
433.91	26111.02
434.10	28959.45
434.28	30976.99
434.47	32423.44
434.66	31810.22
434.85	30892.73
435.03	31281.26
435.22	31690.85
435.41	33675.63
435.59	33408.81
435.78	34059.48
435.97	34850.58
436.16	34916.11
436.34	34424.60
436.53	33741.16
436.72	33897.98
436.90	32063.00
437.09	32348.54
437.28	31871.07
437.46	32591.96
437.65	32435.14
437.84	30520.59
438.02	28315.80
438.21	28077.07
438.40	29909.71
438.58	31990.44
438.77	32547.49
438.96	33069.43
439.14	34342.68
439.33	35005.05
439.52	35491.88
439.70	35042.50
439.89	34220.97
440.08	33226.24
440.26	33191.14
440.45	34527.58
440.63	36608.32
440.82	38279.46
441.01	38094.56
441.19	37537.51
441.38	38052.43
441.57	39313.98
441.75	39548.03
441.94	39880.39
442.12	39494.20
442.31	40533.40
442.50	40854.05
442.68	40041.88
442.87	39552.71
443.05	38770.97
443.24	39744.64
443.43	40332.11
443.61	40840.01
443.80	41462.59
443.98	39739.96
444.17	39508.24
444.35	41846.44
444.54	41769.20
444.73	41715.37
444.91	39770.38
445.10	38937.15
445.28	36786.20
445.47	36334.48
445.65	36912.59
445.84	38003.28
446.02	39260.15
446.21	39824.22
446.39	39501.22
446.58	40615.32
446.77	40994.48
446.95	41390.03
447.14	42024.32
447.32	42665.63
447.51	41944.74
447.69	40648.08
447.88	40051.25
448.06	40620.00
448.25	41137.26
448.43	41989.21
448.62	40832.99
448.80	40098.06
448.99	40582.55
449.17	41787.92
449.36	41275.35
449.54	42564.98
449.73	43625.25
449.91	43634.61
450.10	44938.29
450.28	44910.20
450.46	45069.36
450.65	45277.66
450.83	44514.65
451.02	44168.25
451.20	43756.32
451.39	43496.52
451.57	43732.91
451.76	43887.39
451.94	43461.41
452.13	42323.91
452.31	40615.32
452.49	38745.23
452.68	39267.17
452.86	39269.51
453.05	39896.77
453.23	41422.80
453.42	42131.98
453.60	43133.73
453.78	43065.86
453.97	42824.78
454.15	42770.95
454.34	42092.19
454.52	42363.70
454.70	41727.07
454.89	41808.99
455.07	42183.48
455.26	42836.48
455.44	44093.35
455.62	45057.65
455.81	44928.92
455.99	44453.79
456.17	44399.96
456.36	44053.56
456.54	45397.03
456.73	45640.45
456.91	46288.77
457.09	46354.31
457.28	47161.79
457.46	45375.97
457.64	45010.84
457.83	43718.87
458.01	43164.16
458.19	44325.07
458.38	44502.95
458.56	45544.48
458.74	45588.95
458.93	44704.23
459.11	44453.79
459.29	44552.10
459.48	44837.64
459.66	44720.62
459.84	44896.16
460.03	45268.30
460.21	45233.19
460.39	46843.48
460.57	46377.72
460.76	47206.26
460.94	47033.07
461.12	46377.72
461.31	46824.76
461.49	46724.11
461.67	46120.26
461.85	47714.16
462.04	47208.61
462.22	47660.33
462.40	47489.47
462.59	47421.59
462.77	47767.99
462.95	47718.84
463.13	46885.61
463.32	46553.26
463.50	46494.74
463.68	46623.47
463.86	46237.28
464.05	46185.79
464.23	45052.97
464.41	44938.29
464.59	44732.32
464.78	46553.26
464.96	46197.49
465.14	45462.57
465.32	46663.26
465.50	47639.26
465.69	48250.14
465.87	47049.45
466.05	46251.33
466.23	44533.37
466.41	43306.93
466.60	45160.64
466.78	44992.12
466.96	45553.85
467.14	46024.29
467.32	46686.67
467.51	46319.20
467.69	44559.12
467.87	45883.86
468.05	46148.34
468.23	46202.18
468.41	46307.50
468.60	46279.41
468.78	46843.48
468.96	46050.04
469.14	47016.68
469.32	47196.90
469.50	45539.80
469.69	45331.50
469.87	45013.18
470.05	44711.25
470.23	44835.30
470.41	44938.29
470.59	45727.05
470.77	46085.15
470.95	46763.90
471.14	47129.03
471.32	46686.67
471.50	49279.98
471.68	49666.17
471.86	49605.31
472.04	49815.96
472.22	50017.25
472.40	47826.51
472.58	47463.72
472.77	47454.36
472.95	47973.96
473.13	49137.21
473.31	48158.86
473.49	48463.13
473.67	48783.79
473.85	49336.15
474.03	50136.62
474.21	50461.95
474.39	50532.17
474.57	50787.28
474.75	50541.53
474.93	50288.75
475.12	49846.39
475.30	49914.26
475.48	50096.83
475.66	50721.75
475.84	49925.97
476.02	49759.79
476.20	48964.01
476.38	49979.80
476.56	50981.55
476.74	51428.59
476.92	51718.82
477.10	52142.45
477.28	52858.66
477.46	53010.79
477.64	53172.29
477.82	53022.50
478.00	53509.33
478.18	52842.27
478.36	52800.15
478.54	52814.19
478.72	53251.87
478.90	53722.32
479.08	54628.10
479.26	54934.71
479.44	55018.97
479.62	54522.78
479.80	54670.23
479.98	54693.64
480.16	55089.19
480.34	54686.62
480.52	54937.05
480.70	55283.45
480.88	55426.23
481.06	55985.61
481.24	56112.00
481.41	56568.41
481.59	56865.66
481.77	56746.29
481.95	56371.80
482.13	56214.99
482.31	56236.05
482.49	56898.42
482.67	56816.50
482.85	56982.68
483.03	57293.97
483.21	57609.95
483.39	57614.63
483.57	57071.62
483.74	56624.58
483.92	57088.01
484.10	57186.31
484.28	57862.72
484.46	57986.77
484.64	58305.09
484.82	57481.22
485.00	57226.10
485.18	56673.73
485.35	56044.13
485.53	53193.36
485.71	50515.78
485.89	50288.75
486.07	52573.11
486.25	54789.60
486.43	56203.28
486.61	56800.12
486.78	56708.84
486.96	56844.59
487.14	57846.34
487.32	58599.99
487.50	59377.05
487.68	59887.29
487.85	59929.42
488.03	59992.61
488.21	59618.13
488.39	59393.43
488.57	58787.24
488.75	58702.98
488.92	59702.38
489.10	61193.31
489.28	61923.55
489.46	62562.52
489.64	62279.31
489.81	62578.90
489.99	62129.52
490.17	62274.63
490.35	62532.09
490.53	62316.76
490.70	62000.79
490.88	61911.85
491.06	62466.56
491.24	62412.73
491.41	61792.48
491.59	60200.92
491.77	60198.58
491.95	61188.63
492.13	61909.51
492.30	62885.51
492.48	63306.81
492.66	63807.68
492.84	63901.31
493.01	63435.54
493.19	63077.44
493.37	62770.83
493.54	62571.88
493.72	63297.45
493.90	64126.00
494.08	64453.67
494.25	64884.33
494.43	64863.27
494.61	65165.20
494.79	65403.93
494.96	65176.90
495.14	64638.57
495.32	63723.43
495.49	63472.99
495.67	64336.65
495.85	65523.30
496.02	65535.00
496.20	65478.83
496.38	65141.79
496.55	65146.47
496.73	65530.32
496.91	65535.00
497.09	65535.00
497.26	65535.00
497.44	65535.00
497.62	65387.55
497.79	64472.40
497.97	63723.43
498.14	63765.56
498.32	64830.50
498.50	65523.30
498.67	65535.00
498.85	65535.00
499.03	65535.00
499.20	65535.00
499.38	65535.00
499.56	65535.00
499.73	65535.00
499.91	65307.97
500.08	64891.35
500.26	64413.88
500.44	64905.40
500.61	65394.57
500.79	65102.00
500.97	64830.50
501.14	64743.90
501.32	64739.22
501.49	64769.64
501.67	64790.71
501.84	65284.56
502.02	65436.70
502.20	65535.00
502.37	65535.00
502.55	65535.00
502.72	65535.00
502.90	65535.00
503.07	65535.00
503.25	65535.00
503.43	65448.40
503.60	64779.01
503.78	64250.05
503.95	64750.92
504.13	65535.00
504.30	65535.00
504.48	65535.00
504.65	65535.00
504.83	65535.00
505.01	65535.00
505.18	65535.00
505.36	65535.00
505.53	65535.00
505.71	65535.00
505.88	65535.00
506.06	65535.00
506.23	65535.00
506.41	65535.00
506.58	65535.00
506.76	65535.00
506.93	65535.00
507.11	65535.00
507.28	65535.00
507.46	65535.00
507.63	65535.00
507.81	65535.00
507.98	65535.00
508.16	65535.00
508.33	65535.00
508.50	65535.00
508.68	65535.00
508.85	65535.00
509.03	65535.00
509.20	65535.00
509.38	65535.00
509.55	65535.00
509.73	65535.00
509.90	65535.00
510.08	65535.00
510.25	65535.00
510.42	65535.00
510.60	65535.00
510.77	65535.00
510.95	65535.00
511.12	65535.00
511.30	65535.00
511.47	65535.00
511.64	65535.00
511.82	65535.00
511.99	65535.00
512.17	65535.00
512.34	65535.00
512.51	65535.00
512.69	65535.00
512.86	65535.00
513.04	65535.00
513.21	65535.00
513.38	65535.00
513.56	65535.00
513.73	65535.00
513.90	65535.00
514.08	65535.00
514.25	65535.00
514.43	65535.00
514.60	65535.00
514.77	65535.00
514.95	65535.00
515.12	65535.00
515.29	65535.00
515.47	65535.00
515.64	65535.00
515.81	65535.00
515.99	65535.00
516.16	65535.00
516.33	64521.55
516.51	62939.35
516.68	62209.10
516.85	61869.72
517.03	62424.43
517.20	64638.57
517.37	65535.00
517.54	65535.00
517.72	65535.00
517.89	64933.48
518.06	62864.45
518.24	63381.71
518.41	65010.72
518.58	65535.00
518.75	65535.00
518.93	65535.00
519.10	65535.00
519.27	65535.00
519.45	65535.00
519.62	65535.00
519.79	65535.00
519.96	65535.00
520.14	65535.00
520.31	65535.00
520.48	65535.00
520.65	65535.00
520.83	65535.00
521.00	65535.00
521.17	65535.00
521.34	65535.00
521.52	65535.00
521.69	65535.00
521.86	65535.00
522.03	65535.00
522.20	65535.00
522.38	65535.00
522.55	65535.00
522.72	65535.00
522.89	65535.00
523.07	65535.00
523.24	65535.00
523.41	65535.00
523.58	65535.00
523.75	65535.00
523.92	65535.00
524.10	65535.00
524.27	65535.00
524.44	65535.00
524.61	65535.00
524.78	65535.00
524.96	65535.00
525.13	65535.00
525.30	65535.00
525.47	65535.00
525.64	65535.00
525.81	65535.00
525.98	65535.00
526.16	65535.00
526.33	65233.07
526.50	64626.87
526.67	64542.61
526.84	65062.21
527.01	65535.00
527.18	65535.00
527.36	65535.00
527.53	65535.00
527.70	65535.00
527.87	65535.00
528.04	65535.00
528.21	65535.00
528.38	65535.00
528.55	65535.00
528.72	65535.00
528.89	65535.00
529.07	65535.00
529.24	65535.00
529.41	65535.00
529.58	65535.00
529.75	65535.00
529.92	65535.00
530.09	65535.00
530.26	65535.00
530.43	65535.00
530.60	65535.00
530.77	65535.00
530.94	65535.00
531.11	65535.00
531.28	65535.00
531.46	65535.00
531.63	65535.00
531.80	65535.00
531.97	65535.00
532.14	65535.00
532.31	65535.00
532.48	65535.00
532.65	65535.00
532.82	65535.00
532.99	65535.00
533.16	65535.00
533.33	65535.00
533.50	65535.00
533.67	65535.00
533.84	65535.00
534.01	65535.00
534.18	65535.00
534.35	65535.00
534.52	65535.00
534.69	65535.00
534.86	65535.00
535.03	65535.00
535.20	65535.00
535.37	65535.00
535.54	65535.00
535.71	65535.00
535.88	65535.00
536.05	65535.00
536.22	65535.00
536.38	65535.00
536.55	65535.00
536.72	65535.00
536.89	65535.00
537.06	65535.00
537.23	65535.00
537.40	65535.00
537.57	65535.00
537.74	65535.00
537.91	65535.00
538.08	65535.00
538.25	65535.00
538.42	65535.00
538.59	65535.00
538.75	65535.00
538.92	65535.00
539.09	65535.00
539.26	65535.00
539.43	65535.00
539.60	65535.00
539.77	65535.00
539.94	65535.00
540.11	65535.00
540.28	65535.00
540.44	65535.00
540.61	65535.00
540.78	65535.00
540.95	65535.00
541.12	65535.00
541.29	65535.00
541.46	65535.00
541.62	65535.00
541.79	65535.00
541.96	65535.00
542.13	65535.00
542.30	65535.00
542.47	65535.00
542.63	65535.00
542.80	65535.00
542.97	65535.00
543.14	65535.00
543.31	65535.00
543.48	65535.00
543.64	65535.00
543.81	65535.00
543.98	65535.00
544.15	65535.00
544.32	65535.00
544.48	65535.00
544.65	65535.00
544.82	65535.00
544.99	65535.00
545.16	65535.00
545.32	65535.00
545.49	65535.00
545.66	65535.00
545.83	65535.00
546.00	65535.00
546.16	65535.00
546.33	65535.00
546.50	65535.00
546.67	65535.00
546.83	65535.00
547.00	65535.00
547.17	65535.00
547.34	65535.00
547.50	65535.00
547.67	65535.00
547.84	65535.00
548.00	65535.00
548.17	65535.00
548.34	65535.00
548.51	65535.00
548.67	65535.00
548.84	65535.00
549.01	65535.00
549.18	65535.00
549.34	65535.00
549.51	65535.00
549.68	65535.00
549.84	65535.00
550.01	65535.00
550.18	65535.00
550.34	65535.00
550.51	65535.00
550.68	65535.00
550.84	65535.00
551.01	65535.00
551.18	65535.00
551.34	65535.00
551.51	65535.00
551.68	65535.00
551.84	65535.00
552.01	65535.00
552.18	65535.00
552.34	65535.00
552.51	65535.00
552.68	65535.00
552.84	65535.00
553.01	65535.00
553.18	65535.00
553.34	65535.00
553.51	65535.00
553.67	65535.00
553.84	65535.00
554.01	65535.00
554.17	65535.00
554.34	65535.00
554.51	65535.00
554.67	65535.00
554.84	65535.00
555.00	65535.00
555.17	65535.00
555.33	65535.00
555.50	65535.00
555.67	65535.00
555.83	65535.00
556.00	65535.00
556.16	65535.00
556.33	65535.00
556.50	65535.00
556.66	65535.00
556.83	65385.21
556.99	65469.46
557.16	65535.00
557.32	65535.00
557.49	65535.00
557.65	65535.00
557.82	65535.00
557.98	65535.00
558.15	65406.27
558.32	64774.33
558.48	64268.77
558.65	64411.54
558.81	64551.98
558.98	64924.12
559.14	65120.73
559.31	65066.89
559.47	65080.94
559.64	64750.92
559.80	64605.81
559.97	64881.99
560.13	65092.64
560.30	65535.00
560.46	65535.00
560.63	65535.00
560.79	65535.00
560.96	65535.00
561.12	65139.45
561.29	64367.07
561.45	64416.22
561.61	64935.82
561.78	65204.98
561.94	65137.11
562.11	65127.75
562.27	65097.32
562.44	65389.89
562.60	65520.96
562.77	65535.00
562.93	65471.81
563.10	65462.44
563.26	65080.94
563.42	65034.13
563.59	64800.07
563.75	64914.76
563.92	65099.66
564.08	64846.88
564.24	65027.10
564.41	65111.36
564.57	65057.53
564.74	64830.50
564.90	64872.63
565.07	64544.95
565.23	64376.43
565.39	63866.20
565.56	63721.08
565.72	63622.78
565.88	63990.25
566.05	64140.04
566.21	64334.31
566.38	64182.17
566.54	64158.76
566.70	64551.98
566.87	64598.79
567.03	64807.09
567.19	64942.84
567.36	64802.41
567.52	64559.00
567.68	64210.26
567.85	63955.14
568.01	63648.53
568.17	63388.73
568.34	63412.13
568.50	63243.62
568.66	63360.64
568.83	63943.44
568.99	63756.19
569.15	63920.03
569.32	64018.33
569.48	63994.93
569.64	63676.61
569.81	63482.35
569.97	63288.09
570.13	63388.73
570.30	62869.13
570.46	62471.24
570.62	62038.24
570.78	62068.67
570.95	62234.84
571.11	63004.88
571.27	63180.42
571.43	63327.87
571.60	63599.38
571.76	63709.38
571.92	63962.16
572.09	64032.38
572.25	64015.99
572.41	63973.86
572.57	63629.80
572.74	63819.39
572.90	63557.25
573.06	63262.34
573.22	63449.58
573.38	63402.77
573.55	63423.84
573.71	63763.21
573.87	63545.54
574.03	63313.83
574.20	63295.11
574.36	63180.42
574.52	63037.65
574.68	63056.37
574.84	62494.64
575.01	62232.50
575.17	62227.82
575.33	62522.73
575.49	62812.96
575.65	62803.59
575.82	62520.39
575.98	62279.31
576.14	62326.13
576.30	62717.00
576.46	62948.71
576.62	62756.78
576.79	62944.03
576.95	62494.64
577.11	62520.39
577.27	62740.40
577.43	62534.43
577.59	62103.77
577.75	62000.79
577.92	61350.12
578.08	61406.30
578.24	61520.98
578.40	61523.32
578.56	61886.10
578.72	61815.89
578.88	62234.84
579.04	62209.10
579.21	62372.94
579.37	62148.24
579.53	62291.02
579.69	62333.15
579.85	62342.51
580.01	62136.54
580.17	61684.82
580.33	61834.61
580.49	61832.27
580.65	61970.36
580.82	62162.29
580.98	62148.24
581.14	62218.46
581.30	62239.53
581.46	62253.57
581.62	62255.91
581.78	62300.38
581.94	62330.81
582.10	62574.22
582.26	62677.21
582.42	62632.74
582.58	62576.56
582.74	62623.37
582.90	62518.05
583.06	62440.81
583.22	62288.68
583.38	62010.15
583.54	62237.19
583.70	62162.29
583.86	62262.93
584.02	62078.03
584.18	61961.00
584.34	62035.90
584.50	61890.79
584.66	62021.86
584.82	61605.24
584.98	61415.66
