SpectraSuite Data File
++++++++++++++++++++++++++++++++++++
Date: Mon Oct 07 14:53:18 GMT-05:00 2013
User: price-jones
Dark Spectrum Present: No
Reference Spectrum Present: No
Number of Sampled Component Spectra: 1
Spectrometers: USB2+H05261
Integration Time (usec): 100000 (USB2+H05261)
Spectra Averaged: 1 (USB2+H05261)
Boxcar Smoothing: 0 (USB2+H05261)
Correct for Electrical Dark: No (USB2+H05261)
Strobe/Lamp Enabled: No (USB2+H05261)
Correct for Detector Non-linearity: No (USB2+H05261)
Correct for Stray Light: No (USB2+H05261)
Number of Pixels in Processed Spectrum: 2048
>>>>>Begin Processed Spectral Data<<<<<
365.73	0.00
365.92	0.00
366.12	0.00
366.32	0.00
366.52	0.00
366.72	0.00
366.91	0.00
367.11	0.00
367.31	0.00
367.51	0.00
367.70	0.00
367.90	0.00
368.10	0.00
368.30	0.00
368.49	0.00
368.69	0.00
368.89	0.00
369.09	0.00
369.28	0.00
369.48	0.00
369.68	0.00
369.87	0.00
370.07	0.00
370.27	0.00
370.47	997.07
370.66	4924.49
370.86	5572.82
371.06	6207.10
371.25	5928.58
371.45	5490.90
371.65	4999.38
371.84	4730.22
372.04	4947.89
372.24	5460.47
372.44	5685.16
372.63	5296.63
372.83	5156.20
373.03	4657.67
373.22	4372.12
373.42	4606.17
373.62	5125.77
373.81	5434.72
374.01	5568.13
374.21	4952.57
374.40	4547.66
374.60	4765.33
374.79	5600.90
374.99	6523.07
375.19	6829.68
375.38	6925.65
375.58	6069.01
375.78	6221.14
375.97	6333.49
376.17	6485.62
376.37	6607.33
376.56	6691.59
376.76	7250.98
376.95	7541.21
377.15	8023.36
377.35	8421.25
377.54	8659.98
377.74	9029.79
377.93	8884.67
378.13	8505.51
378.33	8231.66
378.52	7644.19
378.72	7344.60
378.91	7136.29
379.11	6974.80
379.31	6693.93
379.50	6628.40
379.70	7234.60
379.89	7943.78
380.09	8571.04
380.28	8624.87
380.48	8561.68
380.68	8348.69
380.87	8306.56
381.07	7723.77
381.26	7005.22
381.46	6722.02
381.65	6422.43
381.85	6244.55
382.04	5893.47
382.24	5605.58
382.43	5228.76
382.63	5071.94
382.83	5270.89
383.02	5205.35
383.22	5282.59
383.41	5369.19
383.61	5696.86
383.80	6527.75
384.00	7316.51
384.19	8154.43
384.39	8549.98
384.58	8432.95
384.78	8327.63
384.97	8273.79
385.17	7775.26
385.36	7534.18
385.56	7178.42
385.75	7400.77
385.95	8187.19
386.14	8589.77
386.34	8613.17
386.53	8245.71
386.72	7838.45
386.92	8011.65
387.11	8269.11
387.31	8636.58
387.50	8648.28
387.70	8299.54
387.89	8114.64
388.09	8411.89
388.28	8109.96
388.48	8372.10
388.67	8968.93
388.86	10157.92
389.06	10511.35
389.25	11211.17
389.45	11260.32
389.64	10984.13
389.84	11056.69
390.03	10810.93
390.22	10977.11
390.42	11295.43
390.61	11889.92
390.81	12833.16
391.00	13013.38
391.19	12809.75
391.39	12269.09
391.58	11616.08
391.78	10860.09
391.97	10413.04
392.16	10066.64
392.36	9055.53
392.55	7117.57
392.75	5710.91
392.94	4669.37
393.13	4713.84
393.33	5687.50
393.52	7250.98
393.71	8964.25
393.91	10108.77
394.10	10743.06
394.29	11840.77
394.49	12512.50
394.68	13448.72
394.88	13441.70
395.07	14057.26
395.26	13987.04
395.46	13603.19
395.65	12725.49
395.84	10843.70
396.04	9043.83
396.23	7576.31
396.42	6345.19
396.62	6265.61
396.81	7351.62
397.00	9298.95
397.19	11604.38
397.39	13813.84
397.58	15585.63
397.77	16538.23
397.97	16922.07
398.16	17153.79
398.35	17750.62
398.55	18118.09
398.74	18871.74
398.93	19168.99
399.12	18899.83
399.32	18445.76
399.51	18712.58
399.70	20065.41
399.90	19873.49
400.09	19735.40
400.28	19541.13
400.47	19693.27
400.67	20783.96
400.86	21057.80
401.05	20819.07
401.24	21111.63
401.44	21664.00
401.63	21759.96
401.82	21720.17
402.01	21715.49
402.21	21553.99
402.40	21858.26
402.59	21151.42
402.78	20666.93
402.97	19707.31
403.17	20755.87
403.36	21804.43
403.55	22771.07
403.74	23264.92
403.93	21907.41
404.13	20315.85
404.32	20112.22
404.51	21216.96
404.70	22504.25
404.89	22485.53
405.09	22148.49
405.28	21427.60
405.47	21635.91
405.66	21682.72
405.85	21085.89
406.05	20020.94
406.24	20542.88
406.43	21682.72
406.62	22169.55
406.81	22553.40
407.00	21514.20
407.20	20844.81
407.39	21383.13
407.58	22452.76
407.77	23173.64
407.96	23941.34
408.15	24025.60
408.34	24439.87
408.54	25434.60
408.73	25340.98
408.92	24987.56
409.11	24472.64
409.30	23056.62
409.49	21575.06
409.68	20177.76
409.87	19784.55
410.07	21062.48
410.26	22923.21
410.45	24189.44
410.64	24666.91
410.83	25537.59
411.02	25979.95
411.21	27012.12
411.40	26731.26
411.59	26518.27
411.78	26829.56
411.98	26232.72
412.17	26689.13
412.36	26218.68
412.55	26024.42
412.74	25933.14
412.93	25275.45
413.12	25144.38
413.31	27833.65
413.50	28067.70
413.69	28224.52
413.88	27679.18
414.07	26230.38
414.26	27042.55
414.45	27651.09
414.64	27899.19
414.83	28297.08
415.02	27861.74
415.22	28137.92
415.41	27971.74
415.60	29043.71
415.79	30012.69
415.98	30684.42
416.17	30682.08
416.36	29844.17
416.55	29483.73
416.74	28662.20
416.93	28004.51
417.12	27473.21
417.31	28634.11
417.50	28629.43
417.69	29493.09
417.88	29647.57
418.07	29055.41
418.26	28769.86
418.45	28966.47
418.64	30169.51
418.83	31180.62
419.02	30412.92
419.21	30520.59
419.39	28807.31
419.58	27899.19
419.77	27573.85
419.96	29249.67
420.15	30941.88
420.34	31484.89
420.53	32435.14
420.72	33188.80
420.91	32840.06
421.10	32369.61
421.29	32261.94
421.48	31002.74
421.67	32297.05
421.86	31754.05
422.05	29359.68
422.24	26611.89
422.43	26394.22
422.61	29254.36
422.80	31683.83
422.99	31756.39
423.18	30459.73
423.37	29755.23
423.56	29694.38
423.75	30485.48
423.94	30888.05
424.13	29551.60
424.32	29570.33
424.50	29628.84
424.69	29390.11
424.88	29666.29
425.07	29170.10
425.26	28999.24
425.45	29137.33
425.64	28341.55
425.83	28458.57
426.01	29860.55
426.20	30602.50
426.39	30642.29
426.58	28467.94
426.77	26478.48
426.96	25315.23
427.15	26075.91
427.33	29008.60
427.52	29823.11
427.71	29785.66
427.90	29425.22
428.09	29191.16
428.28	28678.58
428.46	27718.96
428.65	27089.36
428.84	28091.11
429.03	28142.60
429.22	26466.78
429.40	25331.62
429.59	22925.55
429.78	20325.21
429.97	20446.92
430.16	20585.01
430.34	20856.51
430.53	20762.89
430.72	21336.32
430.91	23840.70
431.10	27800.88
431.28	32437.48
431.47	34803.77
431.66	35232.08
431.85	32201.09
432.03	29582.03
432.22	28568.58
432.41	29617.14
432.60	33024.96
432.79	34167.14
432.97	34937.18
433.16	33956.49
433.35	31442.76
433.54	28191.75
433.72	26188.25
433.91	27517.68
434.10	30714.85
434.28	32357.91
434.47	34022.03
434.66	33991.60
434.85	32720.69
435.03	32730.05
435.22	33322.21
435.41	35515.29
435.59	35086.97
435.78	35683.81
435.97	36629.38
436.16	37038.98
436.34	36348.52
436.53	35873.39
436.72	36072.34
436.90	34202.25
437.09	33986.92
437.28	33383.06
437.46	34539.29
437.65	34389.49
437.84	31779.79
438.02	29853.53
438.21	29352.66
438.40	31044.87
438.58	33642.86
438.77	34595.46
438.96	35178.25
439.14	36126.17
439.33	36980.46
439.52	37392.40
439.70	36905.57
439.89	36198.73
440.08	35211.02
440.26	34974.63
440.45	36058.29
440.63	38527.56
440.82	39974.01
441.01	39791.45
441.19	39285.89
441.38	40046.57
441.57	41287.05
441.75	41619.41
441.94	42031.34
442.12	41823.03
442.31	42670.31
442.50	42134.32
442.68	42092.19
442.87	41656.85
443.05	40900.86
443.24	41539.83
443.43	42644.56
443.61	42944.15
443.80	43763.34
443.98	41186.41
444.17	40933.63
444.35	42862.23
444.54	43693.12
444.73	43498.86
444.91	41902.61
445.10	40437.44
445.28	38937.15
445.47	38452.66
445.65	38557.99
445.84	40030.18
446.02	40694.89
446.21	41434.50
446.39	41663.88
446.58	41806.65
446.77	42848.19
446.95	43007.34
447.14	44362.51
447.32	44608.27
447.51	43718.87
447.69	41895.59
447.88	41869.84
448.06	42499.45
448.25	43494.18
448.43	43175.86
448.62	42770.95
448.80	42878.61
448.99	42834.14
449.17	43239.06
449.36	43136.07
449.54	44439.75
449.73	45333.84
449.91	45736.41
450.10	46958.17
450.28	47330.31
450.46	47283.50
450.65	47093.92
450.83	47107.96
451.02	45755.13
451.20	45490.65
451.39	45612.36
451.57	45925.99
451.76	45450.86
451.94	45303.41
452.13	44547.42
452.31	42628.18
452.49	40575.53
452.68	41324.50
452.86	41165.34
453.05	42007.94
453.23	43217.99
453.42	44327.41
453.60	44587.21
453.78	45212.13
453.97	44598.91
454.15	45010.84
454.34	43793.76
454.52	44266.55
454.70	43299.91
454.89	43580.78
455.07	44271.23
455.26	44802.53
455.44	46057.06
455.62	46642.20
455.81	47089.24
455.99	46454.95
456.17	46394.10
456.36	46443.25
456.54	47688.42
456.73	47339.68
456.91	48215.04
457.09	48107.37
457.28	49219.13
457.46	47224.99
457.64	47014.34
457.83	46239.62
458.01	44928.92
458.19	45996.21
458.38	46384.74
458.56	47466.06
458.74	47189.88
458.93	46827.10
459.11	46581.34
459.29	46305.16
459.48	46618.79
459.66	46227.92
459.84	46993.28
460.03	47709.48
460.21	47311.59
460.39	47767.99
460.57	48481.86
460.76	48734.63
460.94	48816.55
461.12	48453.77
461.31	48526.33
461.49	48413.98
461.67	48519.31
461.85	49469.56
462.04	49289.34
462.22	49965.76
462.40	49207.42
462.59	49151.25
462.77	49137.21
462.95	49010.82
463.13	48762.72
463.32	48428.02
463.50	48285.25
463.68	48184.61
463.86	48060.56
464.05	48023.11
464.23	46850.50
464.41	46990.94
464.59	46286.43
464.78	48236.10
464.96	47824.17
465.14	47257.76
465.32	48488.88
465.50	49626.38
465.69	49715.32
465.87	48828.26
466.05	47992.68
466.23	45895.56
466.41	45413.41
466.60	46588.36
466.78	46569.64
466.96	47201.58
467.14	47723.52
467.32	48430.36
467.51	48303.98
467.69	46520.49
467.87	47641.60
468.05	48140.14
468.23	48086.31
468.41	47674.37
468.60	48229.08
468.78	48421.00
468.96	48266.53
469.14	49134.87
469.32	48994.43
469.50	47297.55
469.69	47632.24
469.87	46909.02
470.05	46948.81
470.23	47082.22
470.41	47152.43
470.59	47587.77
470.77	47899.06
470.95	48257.17
471.14	49090.40
471.32	48823.58
471.50	50892.61
471.68	50899.63
471.86	51325.61
472.04	51262.41
472.22	51377.10
472.40	49619.36
472.58	49581.91
472.77	48938.26
472.95	50293.43
473.13	50763.88
473.31	49759.79
473.49	49958.73
473.67	50752.18
473.85	51119.64
474.03	51667.33
474.21	51833.50
474.39	52105.01
474.57	52247.78
474.75	52186.92
474.93	52161.18
475.12	51393.48
475.30	51297.52
475.48	51725.84
475.66	52079.26
475.84	51412.21
476.02	51222.62
476.20	50897.29
476.38	51674.35
476.56	52648.01
476.74	52999.09
476.92	53179.31
477.10	53619.33
477.28	54602.36
477.46	54391.71
477.64	54597.68
477.82	54717.04
478.00	54796.62
478.18	54412.77
478.36	54319.15
478.54	54284.04
478.72	54529.80
478.90	55292.82
479.08	55772.63
479.26	56116.68
479.44	56200.94
479.62	56161.15
479.80	55924.76
479.98	56210.31
480.16	56360.10
480.34	56018.38
480.52	56432.66
480.70	56456.06
480.88	56437.34
481.06	56889.06
481.24	57251.84
481.41	57642.71
481.59	58330.83
481.77	58141.25
481.95	57432.07
482.13	57506.96
482.31	57867.40
482.49	58188.06
482.67	57858.04
482.85	58028.90
483.03	58504.03
483.21	58599.99
483.39	58630.42
483.57	58274.66
483.74	58035.92
483.92	58202.10
484.10	58363.60
484.28	59075.12
484.46	59234.28
484.64	59496.42
484.82	58852.77
485.00	58562.54
485.18	58101.46
485.35	57219.08
485.53	55009.61
485.71	52217.35
485.89	51987.98
486.07	53436.77
486.25	56109.66
486.43	57518.67
486.61	57790.17
486.78	57958.69
486.96	57832.30
487.14	58969.80
487.32	59540.89
487.50	60500.51
487.68	60907.76
487.85	61111.39
488.03	61179.26
488.21	60987.34
488.39	60343.69
488.57	59723.45
488.75	59812.39
488.92	60544.98
489.10	62192.72
489.28	63187.44
489.46	63400.43
489.64	63365.32
489.81	63578.31
489.99	63201.49
490.17	63215.53
490.35	63629.80
490.53	63117.23
490.70	62913.60
490.88	62979.14
491.06	63751.51
491.24	63538.52
491.41	62852.75
491.59	61544.39
491.77	61193.31
491.95	62073.35
492.13	62733.38
492.30	63824.07
492.48	64371.75
492.66	64739.22
492.84	64757.94
493.01	64383.46
493.19	64008.97
493.37	63842.79
493.54	63580.65
493.72	64198.55
493.90	64931.14
494.08	65535.00
494.25	65535.00
494.43	65535.00
494.61	65535.00
494.79	65535.00
494.96	65535.00
495.14	65535.00
495.32	65034.13
495.49	64451.33
495.67	65413.29
495.85	65535.00
496.02	65535.00
496.20	65535.00
496.38	65535.00
496.55	65535.00
496.73	65535.00
496.91	65535.00
497.09	65535.00
497.26	65535.00
497.44	65535.00
497.62	65535.00
497.79	65535.00
497.97	64694.75
498.14	65003.70
498.32	65535.00
498.50	65535.00
498.67	65535.00
498.85	65535.00
499.03	65535.00
499.20	65535.00
499.38	65535.00
499.56	65535.00
499.73	65535.00
499.91	65535.00
500.08	65535.00
500.26	65354.78
500.44	65535.00
500.61	65535.00
500.79	65535.00
500.97	65535.00
501.14	65535.00
501.32	65535.00
501.49	65535.00
501.67	65535.00
501.84	65535.00
502.02	65535.00
502.20	65535.00
502.37	65535.00
502.55	65535.00
502.72	65535.00
502.90	65535.00
503.07	65535.00
503.25	65535.00
503.43	65535.00
503.60	65535.00
503.78	65535.00
503.95	65535.00
504.13	65535.00
504.30	65535.00
504.48	65535.00
504.65	65535.00
504.83	65535.00
505.01	65535.00
505.18	65535.00
505.36	65535.00
505.53	65535.00
505.71	65535.00
505.88	65535.00
506.06	65535.00
506.23	65535.00
506.41	65535.00
506.58	65535.00
506.76	65535.00
506.93	65535.00
507.11	65535.00
507.28	65535.00
507.46	65535.00
507.63	65535.00
507.81	65535.00
507.98	65535.00
508.16	65535.00
508.33	65535.00
508.50	65535.00
508.68	65535.00
508.85	65535.00
509.03	65535.00
509.20	65535.00
509.38	65535.00
509.55	65535.00
509.73	65535.00
509.90	65535.00
510.08	65535.00
510.25	65535.00
510.42	65535.00
510.60	65535.00
510.77	65535.00
510.95	65535.00
511.12	65535.00
511.30	65535.00
511.47	65535.00
511.64	65535.00
511.82	65535.00
511.99	65535.00
512.17	65535.00
512.34	65535.00
512.51	65535.00
512.69	65535.00
512.86	65535.00
513.04	65535.00
513.21	65535.00
513.38	65535.00
513.56	65535.00
513.73	65535.00
513.90	65535.00
514.08	65535.00
514.25	65535.00
514.43	65535.00
514.60	65535.00
514.77	65535.00
514.95	65535.00
515.12	65535.00
515.29	65535.00
515.47	65535.00
515.64	65535.00
515.81	65535.00
515.99	65535.00
516.16	65535.00
516.33	65535.00
516.51	64104.93
516.68	63105.52
516.85	62906.58
517.03	63276.38
517.20	65535.00
517.37	65535.00
517.54	65535.00
517.72	65535.00
517.89	65535.00
518.06	64238.34
518.24	64238.34
518.41	65535.00
518.58	65535.00
518.75	65535.00
518.93	65535.00
519.10	65535.00
519.27	65535.00
519.45	65535.00
519.62	65535.00
519.79	65535.00
519.96	65535.00
520.14	65535.00
520.31	65535.00
520.48	65535.00
520.65	65535.00
520.83	65535.00
521.00	65535.00
521.17	65535.00
521.34	65535.00
521.52	65535.00
521.69	65535.00
521.86	65535.00
522.03	65535.00
522.20	65535.00
522.38	65535.00
522.55	65535.00
522.72	65535.00
522.89	65535.00
523.07	65535.00
523.24	65535.00
523.41	65535.00
523.58	65535.00
523.75	65535.00
523.92	65535.00
524.10	65535.00
524.27	65535.00
524.44	65535.00
524.61	65535.00
524.78	65535.00
524.96	65535.00
525.13	65535.00
525.30	65535.00
525.47	65535.00
525.64	65535.00
525.81	65535.00
525.98	65535.00
526.16	65535.00
526.33	65535.00
526.50	65535.00
526.67	65317.33
526.84	65535.00
527.01	65535.00
527.18	65535.00
527.36	65535.00
527.53	65535.00
527.70	65535.00
527.87	65535.00
528.04	65535.00
528.21	65535.00
528.38	65535.00
528.55	65535.00
528.72	65535.00
528.89	65535.00
529.07	65535.00
529.24	65535.00
529.41	65535.00
529.58	65535.00
529.75	65535.00
529.92	65535.00
530.09	65535.00
530.26	65535.00
530.43	65535.00
530.60	65535.00
530.77	65535.00
530.94	65535.00
531.11	65535.00
531.28	65535.00
531.46	65535.00
531.63	65535.00
531.80	65535.00
531.97	65535.00
532.14	65535.00
532.31	65535.00
532.48	65535.00
532.65	65535.00
532.82	65535.00
532.99	65535.00
533.16	65535.00
533.33	65535.00
533.50	65535.00
533.67	65535.00
533.84	65535.00
534.01	65535.00
534.18	65535.00
534.35	65535.00
534.52	65535.00
534.69	65535.00
534.86	65535.00
535.03	65535.00
535.20	65535.00
535.37	65535.00
535.54	65535.00
535.71	65535.00
535.88	65535.00
536.05	65535.00
536.22	65535.00
536.38	65535.00
536.55	65535.00
536.72	65535.00
536.89	65535.00
537.06	65535.00
537.23	65535.00
537.40	65535.00
537.57	65535.00
537.74	65535.00
537.91	65535.00
538.08	65535.00
538.25	65535.00
538.42	65535.00
538.59	65535.00
538.75	65535.00
538.92	65535.00
539.09	65535.00
539.26	65535.00
539.43	65535.00
539.60	65535.00
539.77	65535.00
539.94	65535.00
540.11	65535.00
540.28	65535.00
540.44	65535.00
540.61	65535.00
540.78	65535.00
540.95	65535.00
541.12	65535.00
541.29	65535.00
541.46	65535.00
541.62	65535.00
541.79	65535.00
541.96	65535.00
542.13	65535.00
542.30	65535.00
542.47	65535.00
542.63	65535.00
542.80	65535.00
542.97	65535.00
543.14	65535.00
543.31	65535.00
543.48	65535.00
543.64	65535.00
543.81	65535.00
543.98	65535.00
544.15	65535.00
544.32	65535.00
544.48	65535.00
544.65	65535.00
544.82	65535.00
544.99	65535.00
545.16	65535.00
545.32	65535.00
545.49	65535.00
545.66	65535.00
545.83	65535.00
546.00	65535.00
546.16	65535.00
546.33	65535.00
546.50	65535.00
546.67	65535.00
546.83	65535.00
547.00	65535.00
547.17	65535.00
547.34	65535.00
547.50	65535.00
547.67	65535.00
547.84	65535.00
548.00	65535.00
548.17	65535.00
548.34	65535.00
548.51	65535.00
548.67	65535.00
548.84	65535.00
549.01	65535.00
549.18	65535.00
549.34	65535.00
549.51	65535.00
549.68	65535.00
549.84	65535.00
550.01	65535.00
550.18	65535.00
550.34	65535.00
550.51	65535.00
550.68	65535.00
550.84	65535.00
551.01	65535.00
551.18	65535.00
551.34	65535.00
551.51	65535.00
551.68	65535.00
551.84	65535.00
552.01	65535.00
552.18	65535.00
552.34	65535.00
552.51	65535.00
552.68	65535.00
552.84	65535.00
553.01	65535.00
553.18	65535.00
553.34	65535.00
553.51	65535.00
553.67	65535.00
553.84	65535.00
554.01	65535.00
554.17	65535.00
554.34	65535.00
554.51	65535.00
554.67	65535.00
554.84	65535.00
555.00	65535.00
555.17	65535.00
555.33	65535.00
555.50	65535.00
555.67	65535.00
555.83	65535.00
556.00	65535.00
556.16	65535.00
556.33	65535.00
556.50	65535.00
556.66	65535.00
556.83	65535.00
556.99	65535.00
557.16	65535.00
557.32	65535.00
557.49	65535.00
557.65	65535.00
557.82	65535.00
557.98	65535.00
558.15	65535.00
558.32	65535.00
558.48	65109.02
558.65	65258.82
558.81	65389.89
558.98	65535.00
559.14	65535.00
559.31	65535.00
559.47	65535.00
559.64	65535.00
559.80	65387.55
559.97	65535.00
560.13	65535.00
560.30	65535.00
560.46	65535.00
560.63	65535.00
560.79	65535.00
560.96	65535.00
561.12	65535.00
561.29	65291.58
561.45	65204.98
561.61	65535.00
561.78	65535.00
561.94	65535.00
562.11	65535.00
562.27	65535.00
562.44	65535.00
562.60	65535.00
562.77	65535.00
562.93	65535.00
563.10	65535.00
563.26	65535.00
563.42	65535.00
563.59	65535.00
563.75	65535.00
563.92	65535.00
564.08	65535.00
564.24	65535.00
564.41	65535.00
564.57	65535.00
564.74	65535.00
564.90	65535.00
565.07	65535.00
565.23	65221.37
565.39	64821.14
565.56	64683.04
565.72	64472.40
565.88	64900.71
566.05	64889.01
566.21	65013.06
566.38	65127.75
566.54	65125.41
566.70	65483.51
566.87	65535.00
567.03	65535.00
567.19	65535.00
567.36	65535.00
567.52	65488.19
567.68	65291.58
567.85	64809.43
568.01	64460.69
568.17	64245.36
568.34	64233.66
568.50	64338.99
568.66	64282.81
568.83	64601.13
568.99	64699.43
569.15	64804.75
569.32	64963.91
569.48	64802.41
569.64	64631.55
569.81	64191.53
569.97	64212.60
570.13	64282.81
570.30	63788.96
570.46	63489.37
570.62	62969.77
570.78	63135.95
570.95	63145.31
571.11	63594.70
571.27	63856.84
571.43	64261.75
571.60	64390.48
571.76	64591.76
571.92	64708.79
572.09	64874.97
572.25	64910.08
572.41	64863.27
572.57	64697.09
572.74	64692.41
572.90	64203.24
573.06	64301.54
573.22	64210.26
573.38	64299.20
573.55	64355.37
573.71	64542.61
573.87	64144.72
574.03	64362.39
574.20	64268.77
574.36	64088.55
574.52	63948.12
574.68	63601.72
574.84	63334.90
575.01	63023.61
575.17	63114.89
575.33	63407.45
575.49	63578.31
575.65	63599.38
575.82	63463.63
575.98	63030.63
576.14	63288.09
576.30	63643.85
576.46	63721.08
576.62	63618.10
576.79	63700.02
576.95	63236.59
577.11	63339.58
577.27	63346.60
577.43	63309.15
577.59	63056.37
577.75	62798.91
577.92	62361.23
578.08	62286.34
578.24	62157.61
578.40	62590.61
578.56	62761.47
578.72	62649.12
578.88	62983.82
579.04	63042.33
579.21	62927.64
579.37	62995.52
579.53	63224.89
579.69	63072.76
579.85	63290.43
580.01	62922.96
580.17	62702.95
580.33	62735.72
580.49	62901.90
580.65	63140.63
580.82	63173.40
580.98	63072.76
581.14	62981.48
581.30	63173.40
581.46	62948.71
581.62	63124.25
581.78	63231.91
581.94	63234.25
582.10	63456.60
582.26	63367.66
582.42	63388.73
582.58	63276.38
582.74	63245.96
582.90	63248.30
583.06	63164.04
583.22	62986.16
583.38	63035.31
583.54	62972.11
583.70	62927.64
583.86	62965.09
584.02	63032.97
584.18	63173.40
584.34	62997.86
584.50	62773.17
584.66	62705.29
584.82	62321.44
584.98	62330.81
