SpectraSuite Data File
++++++++++++++++++++++++++++++++++++
Date: Mon Oct 07 14:54:58 GMT-05:00 2013
User: price-jones
Dark Spectrum Present: No
Reference Spectrum Present: No
Number of Sampled Component Spectra: 1
Spectrometers: USB2+H05261
Integration Time (usec): 10000 (USB2+H05261)
Spectra Averaged: 1 (USB2+H05261)
Boxcar Smoothing: 0 (USB2+H05261)
Correct for Electrical Dark: No (USB2+H05261)
Strobe/Lamp Enabled: No (USB2+H05261)
Correct for Detector Non-linearity: No (USB2+H05261)
Correct for Stray Light: No (USB2+H05261)
Number of Pixels in Processed Spectrum: 2048
>>>>>Begin Processed Spectral Data<<<<<
365.73	0.00
365.92	0.00
366.12	0.00
366.32	0.00
366.52	0.00
366.72	0.00
366.91	0.00
367.11	0.00
367.31	0.00
367.51	0.00
367.70	0.00
367.90	0.00
368.10	0.00
368.30	0.00
368.49	0.00
368.69	0.00
368.89	0.00
369.09	0.00
369.28	0.00
369.48	0.00
369.68	0.00
369.87	0.00
370.07	0.00
370.27	0.00
370.47	0.00
370.66	648.33
370.86	828.55
371.06	968.98
371.25	915.15
371.45	786.42
371.65	709.18
371.84	727.91
372.04	690.46
372.24	882.38
372.44	851.96
372.63	819.19
372.83	711.52
373.03	578.11
373.22	552.37
373.42	648.33
373.62	814.51
373.81	795.78
374.01	884.72
374.21	770.04
374.40	779.40
374.60	711.52
374.79	858.98
374.99	1086.01
375.19	1128.14
375.38	1083.67
375.58	973.66
375.78	964.30
375.97	999.41
376.17	1064.94
376.37	1036.86
376.56	1076.65
376.76	1158.57
376.95	1313.04
377.15	1411.34
377.35	1392.62
377.54	1502.62
377.74	1497.94
377.93	1500.28
378.13	1425.39
378.33	1324.74
378.52	1291.98
378.72	1188.99
378.91	1167.93
379.11	1158.57
379.31	1043.88
379.50	1100.05
379.70	1261.55
379.89	1439.43
380.09	1448.79
380.28	1568.16
380.48	1472.20
380.68	1336.45
380.87	1371.55
381.07	1240.48
381.26	1163.25
381.46	1011.11
381.65	992.39
381.85	898.77
382.04	966.64
382.24	847.27
382.43	781.74
382.63	807.48
382.83	837.91
383.02	746.63
383.22	774.72
383.41	770.04
383.61	856.64
383.80	1156.22
384.00	1188.99
384.19	1345.81
384.39	1413.68
384.58	1406.66
384.78	1404.32
384.97	1331.76
385.17	1184.31
385.36	1114.10
385.56	1114.10
385.75	1221.76
385.95	1294.32
386.14	1430.07
386.34	1425.39
386.53	1362.19
386.72	1158.57
386.92	1277.93
387.11	1453.47
387.31	1460.49
387.50	1460.49
387.70	1254.53
387.89	1315.38
388.09	1336.45
388.28	1371.55
388.48	1451.13
388.67	1631.35
388.86	1689.87
389.06	1851.36
389.25	1968.39
389.45	1947.33
389.64	1930.94
389.84	1966.05
390.03	1816.26
390.22	1872.43
390.42	1998.82
390.61	2235.21
390.81	2214.15
391.00	2244.57
391.19	2228.19
391.39	2129.89
391.58	1963.71
391.78	1783.49
391.97	1830.30
392.16	1680.50
392.36	1336.45
392.55	1034.52
392.75	784.08
392.94	690.46
393.13	566.41
393.33	901.11
393.52	1240.48
393.71	1453.47
393.91	1696.89
394.10	1820.94
394.29	1963.71
394.49	2244.57
394.68	2296.07
394.88	2356.92
395.07	2385.01
395.26	2321.81
395.46	2148.61
395.65	2047.97
395.84	1844.34
396.04	1467.52
396.23	1186.65
396.42	950.26
396.62	919.83
396.81	1254.53
397.00	1643.06
397.19	2099.46
397.39	2389.69
397.58	2614.38
397.77	2829.71
397.97	2920.99
398.16	2981.84
398.35	3033.33
398.55	3204.19
398.74	3265.05
398.93	3246.32
399.12	3281.43
399.32	3155.04
399.51	3253.34
399.70	3368.03
399.90	3316.54
400.09	3447.61
400.28	3370.37
400.47	3456.97
400.67	3468.67
400.86	3543.57
401.05	3644.21
401.24	3646.55
401.44	3648.90
401.63	3662.94
401.82	3646.55
402.01	3721.45
402.21	3590.38
402.40	3637.19
402.59	3627.83
402.78	3353.99
402.97	3445.27
403.17	3485.06
403.36	3644.21
403.55	3791.67
403.74	3913.38
403.93	3747.20
404.13	3358.67
404.32	3363.35
404.51	3679.32
404.70	3854.86
404.89	3588.04
405.09	3758.90
405.28	3653.58
405.47	3665.28
405.66	3545.91
405.85	3396.12
406.05	3440.59
406.24	3391.44
406.43	3508.46
406.62	3688.68
406.81	3761.24
407.00	3538.89
407.20	3459.31
407.39	3524.85
407.58	3786.99
407.77	3875.93
407.96	3941.46
408.15	3836.14
408.34	4086.58
408.54	4142.75
408.73	4227.01
408.92	4156.79
409.11	4032.74
409.30	3749.54
409.49	3440.59
409.68	3318.88
409.87	3328.24
410.07	3585.70
410.26	3873.59
410.45	3880.61
410.64	4098.28
410.83	4311.27
411.02	4278.50
411.21	4547.66
411.40	4327.65
411.59	4559.36
411.78	4344.03
411.98	4430.63
412.17	4360.42
412.36	4154.45
412.55	4264.46
412.74	4007.00
412.93	4280.84
413.12	4203.60
413.31	4552.34
413.50	4437.66
413.69	4521.92
413.88	4414.25
414.07	4269.14
414.26	4400.21
414.45	4538.30
414.64	4404.89
414.83	4578.09
415.02	4383.82
415.22	4496.17
415.41	4465.74
415.60	4760.65
415.79	4901.08
415.98	5076.62
416.17	5107.05
416.36	4891.72
416.55	4772.35
416.74	4669.37
416.93	4416.59
417.12	4456.38
417.31	4578.09
417.50	4493.83
417.69	4716.18
417.88	4685.75
418.07	4645.96
418.26	4629.58
418.45	4643.62
418.64	4980.66
418.83	5027.47
419.02	4786.40
419.21	4744.27
419.39	4557.02
419.58	4341.69
419.77	4447.02
419.96	4585.11
420.15	4826.18
420.34	5160.88
420.53	5221.74
420.72	5284.93
420.91	5163.22
421.10	5093.01
421.29	5217.05
421.48	4915.12
421.67	5177.26
421.86	4978.32
422.05	4381.48
422.24	4234.03
422.43	4030.40
422.61	4681.07
422.80	4861.29
422.99	4973.64
423.18	4695.11
423.37	4573.41
423.56	4711.50
423.75	4751.29
423.94	4765.33
424.13	4505.53
424.32	4678.73
424.50	4767.67
424.69	4643.62
424.88	4542.98
425.07	4606.17
425.26	4404.89
425.45	4227.01
425.64	4582.77
425.83	4685.75
426.01	4734.90
426.20	4580.43
426.39	4674.05
426.58	4283.18
426.77	3850.18
426.96	3889.97
427.15	3995.29
427.33	4170.83
427.52	4344.03
427.71	4510.21
427.90	4404.89
428.09	4400.21
428.28	4297.22
428.46	4102.96
428.65	3985.93
428.84	4163.81
429.03	4147.43
429.22	3953.16
429.40	3611.45
429.59	3522.51
429.78	3110.57
429.97	2960.78
430.16	2977.16
430.34	2951.42
430.53	3002.91
430.72	3297.81
430.91	3569.32
431.10	4147.43
431.28	4772.35
431.47	5174.92
431.66	5186.63
431.85	4545.32
432.03	4294.88
432.22	4198.92
432.41	4475.10
432.60	4943.21
432.79	5137.48
432.97	5153.86
433.16	4933.85
433.35	4442.34
433.54	4093.60
433.72	3845.50
433.91	4131.05
434.10	4367.44
434.28	4758.31
434.47	5095.35
434.66	4739.58
434.85	4716.18
435.03	4746.61
435.22	4950.23
435.41	5205.35
435.59	5313.02
435.78	5320.04
435.97	5467.49
436.16	5298.97
436.34	5430.04
436.53	5090.67
436.72	5111.73
436.90	4835.55
437.09	4933.85
437.28	4835.55
437.46	5123.43
437.65	4816.82
437.84	4372.12
438.02	4231.69
438.21	4205.94
438.40	4493.83
438.58	4812.14
438.77	4830.87
438.96	4966.62
439.14	5172.58
439.33	5224.08
439.52	5249.82
439.70	5224.08
439.89	5008.75
440.08	4889.38
440.26	5034.49
440.45	5135.14
440.63	5465.15
440.82	5888.79
441.01	5598.56
441.19	5535.37
441.38	5671.12
441.57	5933.26
441.75	5764.74
441.94	6118.16
442.12	5900.49
442.31	6080.71
442.50	6113.48
442.68	5888.79
442.87	5703.89
443.05	5668.78
443.24	5776.44
443.43	5820.91
443.61	5954.32
443.80	6132.20
443.98	5893.47
444.17	5858.36
444.35	6286.68
444.54	6249.23
444.73	6015.18
444.91	5743.67
445.10	5626.65
445.28	5336.42
445.47	5357.49
445.65	5289.61
445.84	5441.75
446.02	5666.44
446.21	5764.74
446.39	5680.48
446.58	5834.96
446.77	5699.20
446.95	6080.71
447.14	6146.25
447.32	6202.42
447.51	5944.96
447.69	5675.80
447.88	5757.72
448.06	5638.35
448.25	5837.30
448.43	5809.21
448.62	5858.36
448.80	5734.31
448.99	5919.21
449.17	5935.60
449.36	5923.90
449.54	6094.76
449.73	6127.52
449.91	6251.57
450.10	6523.07
450.28	6487.96
450.46	6523.07
450.65	6469.24
450.83	6415.41
451.02	6263.27
451.20	6078.37
451.39	6022.20
451.57	5940.28
451.76	6052.63
451.94	6160.29
452.13	5942.62
452.31	5724.95
452.49	5444.09
452.68	5401.96
452.86	5425.36
453.05	5547.07
453.23	5804.53
453.42	6003.47
453.60	6031.56
453.78	5966.03
453.97	5823.25
454.15	5738.99
454.34	5561.11
454.52	5713.25
454.70	5722.61
454.89	5769.42
455.07	5802.19
455.26	5947.30
455.44	6024.54
455.62	6305.40
455.81	6101.78
455.99	6043.26
456.17	5870.06
456.36	6040.92
456.54	6263.27
456.73	6054.97
456.91	6338.17
457.09	6354.55
457.28	6576.91
457.46	6078.37
457.64	6136.88
457.83	5867.72
458.01	5731.97
458.19	5909.85
458.38	6012.84
458.56	6106.46
458.74	5984.75
458.93	6012.84
459.11	5902.83
459.29	6090.07
459.48	6012.84
459.66	5753.04
459.84	6106.46
460.03	6090.07
460.21	5905.17
460.39	6010.50
460.57	6265.61
460.76	6190.72
460.94	6483.28
461.12	6258.59
461.31	6186.04
461.49	6310.08
461.67	6193.06
461.85	6349.87
462.04	6410.73
462.22	6207.10
462.40	6324.13
462.59	6108.80
462.77	6150.93
462.95	6300.72
463.13	6293.70
463.32	5977.73
463.50	6101.78
463.68	5933.26
463.86	6076.03
464.05	5994.11
464.23	5830.27
464.41	5870.06
464.59	5919.21
464.78	6104.12
464.96	5905.17
465.14	5881.77
465.32	6019.86
465.50	6204.76
465.69	6204.76
465.87	5991.77
466.05	5837.30
466.23	5678.14
466.41	5392.59
466.60	5806.87
466.78	6008.16
466.96	5715.59
467.14	5769.42
467.32	5973.05
467.51	5956.66
467.69	5631.33
467.87	5685.16
468.05	5710.91
468.23	5851.34
468.41	5764.74
468.60	5837.30
468.78	5867.72
468.96	5722.61
469.14	5956.66
469.32	5865.38
469.50	5727.29
469.69	5823.25
469.87	5647.71
470.05	5783.46
470.23	5497.92
470.41	5582.18
470.59	5767.08
470.77	5685.16
470.95	5846.66
471.14	5935.60
471.32	6022.20
471.50	6326.47
471.68	6155.61
471.86	6296.04
472.04	6249.23
472.22	6401.37
472.40	5963.68
472.58	5820.91
472.77	5923.90
472.95	6043.26
473.13	6113.48
473.31	5806.87
473.49	6038.58
473.67	5987.09
473.85	6047.94
474.03	6314.77
474.21	6228.17
474.39	6370.94
474.57	6415.41
474.75	6228.17
474.93	6246.89
475.12	6251.57
475.30	6113.48
475.48	6225.82
475.66	6071.35
475.84	6216.46
476.02	6237.53
476.20	6057.31
476.38	6134.54
476.56	6282.00
476.74	6363.92
476.92	6331.15
477.10	6684.57
477.28	6562.86
477.46	6705.63
477.64	6815.64
477.82	6722.02
478.00	6752.45
478.18	6628.40
478.36	6682.23
478.54	6583.93
478.72	6738.40
478.90	7066.08
479.08	7016.93
479.26	7112.89
479.44	6979.48
479.62	6981.82
479.80	7030.97
479.98	7061.40
480.16	7026.29
480.34	6864.79
480.52	6841.39
480.70	6986.50
480.88	7007.56
481.06	7243.96
481.24	7176.08
481.41	7611.42
481.59	7459.29
481.77	7431.20
481.95	7290.77
482.13	7274.38
482.31	7403.11
482.49	7456.95
482.67	7548.23
482.85	7529.50
483.03	7583.34
483.21	7667.60
483.39	7431.20
483.57	7344.60
483.74	7309.49
483.92	7389.07
484.10	7279.07
484.28	7644.19
484.46	7597.38
484.64	7740.15
484.82	7393.75
485.00	7588.02
485.18	7414.82
485.35	7089.48
485.53	6160.29
485.71	5722.61
485.89	5966.03
486.07	6127.52
486.25	6750.10
486.43	7115.23
486.61	7152.68
486.78	6995.86
486.96	7316.51
487.14	7531.84
487.32	7658.23
487.50	7829.09
487.68	8241.03
487.85	8203.58
488.03	7932.08
488.21	8114.64
488.39	7878.24
488.57	7903.99
488.75	7639.51
488.92	7997.61
489.10	8681.05
489.28	8732.54
489.46	9062.55
489.64	8856.59
489.81	9067.24
489.99	8919.78
490.17	8812.12
490.35	9041.49
490.53	8959.57
490.70	8800.41
490.88	8779.35
491.06	8943.19
491.24	8648.28
491.41	8468.06
491.59	8168.47
491.77	8079.53
491.95	8131.02
492.13	8641.26
492.30	8933.82
492.48	9476.83
492.66	9294.27
492.84	9144.47
493.01	9160.86
493.19	9167.88
493.37	8887.01
493.54	8854.25
493.72	9153.84
493.90	9305.97
494.08	9263.84
494.25	9701.52
494.43	9767.06
494.61	10078.35
494.79	9762.37
494.96	9734.29
495.14	9451.08
495.32	9247.46
495.49	9130.43
495.67	9394.91
495.85	9905.15
496.02	9816.21
496.20	9776.42
496.38	9748.33
496.55	9383.21
496.73	9980.04
496.91	10057.28
497.09	9799.82
497.26	10120.48
497.44	9767.06
497.62	9750.67
497.79	9408.95
497.97	9172.56
498.14	9277.88
498.32	9694.50
498.50	9570.45
498.67	10146.22
498.85	10094.73
499.03	9954.30
499.20	10328.78
499.38	9982.38
499.56	9895.78
499.73	9722.59
499.91	9549.39
500.08	9563.43
500.26	9039.15
500.44	9348.10
500.61	9448.74
500.79	9586.83
500.97	9305.97
501.14	9444.06
501.32	9329.38
501.49	9533.00
501.67	9392.57
501.84	9626.62
502.02	9628.96
502.20	9778.76
502.37	9853.66
502.55	9577.47
502.72	9748.33
502.90	10092.39
503.07	9834.93
503.25	9643.01
503.43	9324.69
503.60	9212.35
503.78	8985.32
503.95	9210.01
504.13	9387.89
504.30	9991.75
504.48	9963.66
504.65	9612.58
504.83	9731.95
505.01	9856.00
505.18	10146.22
505.36	10164.95
505.53	10567.52
505.71	10401.34
505.88	10424.75
506.06	10207.08
506.23	9837.27
506.41	9984.73
506.58	10071.33
506.76	10059.62
506.93	10101.75
507.11	9841.95
507.28	9853.66
507.46	9638.33
507.63	9451.08
507.81	9446.40
507.98	9420.66
508.16	9905.15
508.33	9715.56
508.50	9916.85
508.68	10017.49
508.85	10373.25
509.03	10068.98
509.20	10202.40
509.38	9865.36
509.55	9886.42
509.73	9493.21
509.90	9809.19
510.08	9991.75
510.25	9837.27
510.42	9561.09
510.60	9912.17
510.77	9919.19
510.95	10211.76
511.12	10059.62
511.30	10244.52
511.47	10480.92
511.64	10286.65
511.82	10136.86
511.99	9884.08
512.17	9687.48
512.34	9500.23
512.51	9579.81
512.69	9687.48
512.86	9804.50
513.04	9879.40
513.21	9900.47
513.38	9907.49
513.56	9603.22
513.73	9348.10
513.90	9200.65
514.08	9200.65
514.25	9509.60
514.43	9654.71
514.60	9460.45
514.77	9607.90
514.95	9570.45
515.12	9729.61
515.29	9607.90
515.47	9860.68
515.64	10263.25
515.81	10071.33
515.99	9645.35
516.16	8861.27
516.33	8381.46
516.51	7936.76
516.68	7712.07
516.85	7435.88
517.03	7648.87
517.20	8334.65
517.37	9177.24
517.54	9460.45
517.72	9149.15
517.89	8482.10
518.06	8046.76
518.24	7967.18
518.41	8601.47
518.58	9067.24
518.75	9104.68
518.93	9001.70
519.10	8982.98
519.27	9179.58
519.45	9200.65
519.62	9619.60
519.79	9713.22
519.96	9441.72
520.14	9577.47
520.31	9025.11
520.48	9210.01
520.65	9277.88
520.83	9469.81
521.00	9799.82
521.17	9481.51
521.34	9289.59
521.52	9540.02
521.69	9748.33
521.86	10024.51
522.03	9507.26
522.20	9153.84
522.38	8905.74
522.55	8896.38
522.72	9210.01
522.89	9100.00
523.07	9303.63
523.24	9385.55
523.41	9631.30
523.58	9760.03
523.75	9673.43
523.92	9923.87
524.10	9617.26
524.27	9640.67
524.44	9525.98
524.61	9542.36
524.78	9490.87
524.96	9511.94
525.13	9387.89
525.30	9769.40
525.47	9799.82
525.64	9783.44
525.81	9467.47
525.98	8931.48
526.16	8510.19
526.33	8124.00
526.50	8114.64
526.67	8180.17
526.84	8196.56
527.01	8613.17
527.18	8896.38
527.36	9345.76
527.53	9467.47
527.70	9390.23
527.87	9322.35
528.04	9181.92
528.21	9228.73
528.38	9540.02
528.55	9685.14
528.72	9582.15
528.89	9811.53
529.07	9848.97
529.24	9474.49
529.41	9397.25
529.58	9139.79
529.75	8957.23
529.92	9329.38
530.09	9624.28
530.26	9465.13
530.43	9511.94
530.60	9708.54
530.77	9701.52
530.94	9743.65
531.11	9493.21
531.28	9404.27
531.46	9362.14
531.63	9296.61
531.80	9371.50
531.97	9081.28
532.14	8854.25
532.31	8669.34
532.48	8301.88
532.65	8475.08
532.82	8645.94
532.99	8954.89
533.16	9329.38
533.33	9507.26
533.50	9202.99
533.67	9163.20
533.84	8737.22
534.01	8812.12
534.18	8973.61
534.35	9181.92
534.52	9027.45
534.69	9151.49
534.86	9418.32
535.03	9345.76
535.20	9577.47
535.37	9514.28
535.54	9364.48
535.71	9139.79
535.88	9455.76
536.05	9217.03
536.22	9004.04
536.38	9027.45
536.55	8947.87
536.72	8678.71
536.89	8552.32
537.06	8645.94
537.23	8870.63
537.40	8926.80
537.57	9153.84
537.74	9107.02
537.91	8835.52
538.08	8915.10
538.25	9046.17
538.42	9041.49
538.59	8945.53
538.75	8617.85
538.92	8655.30
539.09	8475.08
539.26	8582.74
539.43	8486.78
539.60	8376.78
539.77	8395.50
539.94	8250.39
540.11	8222.30
540.28	8133.36
540.44	7978.89
540.61	8168.47
540.78	8301.88
540.95	8430.61
541.12	8374.44
541.29	8901.06
541.46	8631.90
541.62	8554.66
541.79	8566.36
541.96	8524.23
542.13	8554.66
542.30	8549.98
542.47	8601.47
542.63	8423.59
542.80	8315.92
542.97	8531.25
543.14	8414.23
543.31	8381.46
543.48	8465.72
543.64	8901.06
543.81	8926.80
543.98	8910.42
544.15	8802.75
544.32	8404.86
544.48	8589.77
544.65	8582.74
544.82	8861.27
544.99	8521.89
545.16	8456.36
545.32	8355.71
545.49	8641.26
545.66	8753.60
545.83	8594.45
546.00	8458.70
546.16	8451.67
546.33	8390.82
546.50	8484.44
546.67	8683.39
546.83	8781.69
547.00	8437.63
547.17	8442.31
547.34	8194.22
547.50	8023.36
547.67	8315.92
547.84	8079.53
548.00	8138.04
548.17	8365.07
548.34	8397.84
548.51	8507.85
548.67	8648.28
548.84	8557.00
549.01	8365.07
549.18	8430.61
549.34	8512.53
549.51	8437.63
549.68	8088.89
549.84	8346.35
550.01	8252.73
550.18	8140.38
550.34	8175.49
550.51	8009.31
550.68	8196.56
550.84	8135.70
551.01	7929.74
551.18	7899.31
551.34	7971.86
551.51	8252.73
551.68	8463.38
551.84	8290.18
552.01	8255.07
552.18	8128.68
552.34	7824.41
552.51	7646.53
552.68	7805.69
552.84	7957.82
553.01	8046.76
553.18	7824.41
553.34	7747.17
553.51	7808.03
553.67	7941.44
553.84	8290.18
554.01	8196.56
554.17	8028.04
554.34	8402.52
554.51	8109.96
554.67	8259.75
554.84	8025.70
555.00	8212.94
555.17	8030.38
555.33	8058.46
555.50	8044.42
555.67	7866.54
555.83	7873.56
556.00	7969.52
556.16	7857.18
556.33	7740.15
556.50	7595.04
556.66	7506.10
556.83	7501.42
556.99	7508.44
557.16	7679.30
557.32	7681.64
557.49	7925.05
557.65	7847.82
557.82	7550.57
557.98	7730.79
558.15	7679.30
558.32	7377.37
558.48	7293.11
558.65	7225.23
558.81	7201.83
558.98	7307.15
559.14	7297.79
559.31	7365.67
559.47	7297.79
559.64	7351.62
559.80	7300.13
559.97	7293.11
560.13	7676.96
560.30	7590.36
560.46	7740.15
560.63	7833.77
560.79	7709.72
560.96	7728.45
561.12	7538.87
561.29	7258.00
561.45	7194.81
561.61	7274.38
561.78	7229.91
561.94	7265.02
562.11	7393.75
562.27	7169.06
562.44	7410.14
562.60	7527.16
562.77	7868.88
562.93	7695.68
563.10	7470.99
563.26	7426.52
563.42	7414.82
563.59	7218.21
563.75	7103.53
563.92	7325.88
564.08	7300.13
564.24	7499.08
564.41	7358.64
564.57	7396.09
564.74	7295.45
564.90	7276.73
565.07	7152.68
565.23	6902.24
565.39	7073.10
565.56	6995.86
565.72	7040.33
565.88	6960.75
566.05	7119.91
566.21	7119.91
566.38	7028.63
566.54	6942.03
566.70	7248.64
566.87	7248.64
567.03	7185.44
567.19	7503.76
567.36	7098.84
567.52	7070.76
567.68	7201.83
567.85	6853.09
568.01	6820.32
568.17	6775.85
568.34	6757.13
568.50	6719.68
568.66	6813.30
568.83	6883.52
568.99	6820.32
569.15	6808.62
569.32	6731.38
569.48	7000.54
569.64	6815.64
569.81	6729.04
569.97	6628.40
570.13	6691.59
570.30	6729.04
570.46	6487.96
570.62	6396.68
570.78	6333.49
570.95	6424.77
571.11	6567.54
571.27	6670.53
571.43	6679.89
571.60	6693.93
571.76	6761.81
571.92	6834.36
572.09	6785.21
572.25	6675.21
572.41	7045.01
572.57	6796.92
572.74	6911.60
572.90	6782.87
573.06	6677.55
573.22	6633.08
573.38	6752.45
573.55	6677.55
573.71	6593.29
573.87	6810.96
574.03	6890.54
574.20	6626.06
574.36	6574.56
574.52	6656.48
574.68	6455.20
574.84	6452.86
575.01	6333.49
575.17	6492.65
575.33	6200.08
575.49	6249.23
575.65	6361.58
575.82	6324.13
575.98	6338.17
576.14	6272.64
576.30	6401.37
576.46	6459.88
576.62	6291.36
576.79	6188.38
576.95	6399.02
577.11	6363.92
577.27	6392.00
577.43	6394.34
577.59	6377.96
577.75	6253.91
577.92	6143.91
578.08	6225.82
578.24	6059.65
578.40	6036.24
578.56	6118.16
578.72	6061.99
578.88	5994.11
579.04	6333.49
579.21	6235.19
579.37	6113.48
579.53	6174.33
579.69	6146.25
579.85	6134.54
580.01	6150.93
580.17	6033.90
580.33	6197.74
580.49	6125.18
580.65	6047.94
580.82	6054.97
580.98	6164.97
581.14	6085.39
581.30	6359.24
581.46	6230.51
581.62	6200.08
581.78	6272.64
581.94	6312.42
582.10	6263.27
582.26	6132.20
582.42	6256.25
582.58	6169.65
582.74	6111.14
582.90	6207.10
583.06	6298.38
583.22	6368.60
583.38	6263.27
583.54	6045.60
583.70	6190.72
583.86	6171.99
584.02	6237.53
584.18	6139.23
584.34	6239.87
584.50	6179.01
584.66	6260.93
584.82	5963.68
584.98	5966.03
585.14	5851.34
585.30	5664.10
585.46	5668.78
585.62	5818.57
585.78	6022.20
585.94	5902.83
586.10	5928.58
586.26	6094.76
586.42	6017.52
586.58	5909.85
586.74	5799.85
586.90	5935.60
587.06	5900.49
587.22	5645.37
587.38	5746.02
587.54	5849.00
587.70	5746.02
587.86	5767.08
588.02	5493.24
588.18	5460.47
588.34	5423.02
588.49	5153.86
588.65	4833.21
588.81	4716.18
588.97	4950.23
589.13	4699.80
589.29	4561.70
589.45	4929.17
589.61	5018.11
589.77	5373.87
589.93	5462.81
590.08	5479.19
590.24	5556.43
590.40	5528.35
590.56	5816.23
590.72	5455.79
590.88	5577.50
591.04	5345.78
591.20	5423.02
591.35	5247.48
591.51	5322.38
591.67	5455.79
591.83	5350.46
591.99	5408.98
592.15	5528.35
592.31	5469.83
592.46	5448.77
592.62	5465.15
592.78	5554.09
592.94	5427.70
593.10	5359.83
593.26	5528.35
593.41	5404.30
593.57	5432.38
593.73	5451.11
593.89	5334.08
594.05	5380.89
594.20	5181.95
594.36	5144.50
594.52	5116.41
594.68	5132.79
594.84	5104.71
594.99	5247.48
595.15	5163.22
595.31	5320.04
595.47	5181.95
595.62	5294.29
595.78	5303.65
595.94	5313.02
596.10	5380.89
596.25	5238.12
596.41	5434.72
596.57	5184.29
