SpectraSuite Data File
++++++++++++++++++++++++++++++++++++
Date: Mon Oct 07 14:53:11 GMT-05:00 2013
User: price-jones
Dark Spectrum Present: No
Reference Spectrum Present: No
Number of Sampled Component Spectra: 1
Spectrometers: USB2+H05261
Integration Time (usec): 100000 (USB2+H05261)
Spectra Averaged: 1 (USB2+H05261)
Boxcar Smoothing: 0 (USB2+H05261)
Correct for Electrical Dark: No (USB2+H05261)
Strobe/Lamp Enabled: No (USB2+H05261)
Correct for Detector Non-linearity: No (USB2+H05261)
Correct for Stray Light: No (USB2+H05261)
Number of Pixels in Processed Spectrum: 2048
>>>>>Begin Processed Spectral Data<<<<<
365.73	0.00
365.92	0.00
366.12	0.00
366.32	0.00
366.52	0.00
366.72	0.00
366.91	0.00
367.11	0.00
367.31	0.00
367.51	0.00
367.70	0.00
367.90	0.00
368.10	0.00
368.30	0.00
368.49	0.00
368.69	0.00
368.89	0.00
369.09	0.00
369.28	0.00
369.48	0.00
369.68	0.00
369.87	0.00
370.07	0.00
370.27	0.00
370.47	1095.37
370.66	4777.03
370.86	5483.88
371.06	5834.96
371.25	5755.38
371.45	5083.64
371.65	4833.21
371.84	4449.36
372.04	4809.80
372.24	5392.59
372.44	5348.12
372.63	5348.12
372.83	4933.85
373.03	4329.99
373.22	4198.92
373.42	4505.53
373.62	4961.94
373.81	5376.21
374.01	5200.67
374.21	4690.43
374.40	4402.55
374.60	4746.61
374.79	5355.15
374.99	6122.84
375.19	6506.69
375.38	6457.54
375.58	6136.88
375.78	6080.71
375.97	6040.92
376.17	6349.87
376.37	6399.02
376.56	6509.03
376.76	6981.82
376.95	7337.58
377.15	7796.32
377.35	8126.34
377.54	8446.99
377.74	8533.59
377.93	8627.21
378.13	8273.79
378.33	7871.22
378.52	7243.96
378.72	7220.55
378.91	6977.14
379.11	6626.06
379.31	6644.78
379.50	6586.27
379.70	7173.74
379.89	7770.58
380.09	8138.04
380.28	8491.46
380.48	8297.20
380.68	8283.16
380.87	8135.70
381.07	7461.63
381.26	6911.60
381.46	6394.34
381.65	6148.59
381.85	6012.84
382.04	5816.23
382.24	5453.45
382.43	5081.30
382.63	4945.55
382.83	5036.83
383.02	5100.03
383.22	5104.71
383.41	5057.90
383.61	5523.66
383.80	6265.61
384.00	7077.78
384.19	7733.13
384.39	8252.73
384.58	8304.22
384.78	8219.96
384.97	7934.42
385.17	7412.48
385.36	7080.12
385.56	6998.20
385.75	7260.34
385.95	7903.99
386.14	8482.10
386.34	8594.45
386.53	8189.53
386.72	7761.22
386.92	7569.29
387.11	8077.19
387.31	8505.51
387.50	8580.40
387.70	7889.95
387.89	8049.10
388.09	8131.02
388.28	8257.41
388.48	8138.04
388.67	8879.99
388.86	9848.97
389.06	10265.59
389.25	10902.22
389.45	11183.08
389.64	10644.76
389.84	10773.49
390.03	10649.44
390.22	10693.91
390.42	11229.89
390.61	11714.38
390.81	12388.46
391.00	12479.74
391.19	12477.40
391.39	12051.42
391.58	11520.12
391.78	10794.55
391.97	10499.64
392.16	9628.96
392.36	8613.17
392.55	7035.65
392.75	5577.50
392.94	4475.10
393.13	4692.77
393.33	5685.16
393.52	6970.12
393.71	8748.92
393.91	9600.88
394.10	10267.93
394.29	11503.73
394.49	12215.26
394.68	13308.29
394.88	13156.15
395.07	13795.12
395.26	13572.77
395.46	13085.94
395.65	12269.09
395.84	10672.84
396.04	9107.02
396.23	7318.86
396.42	6134.54
396.62	6036.24
396.81	7269.70
397.00	8938.51
397.19	11391.39
397.39	13429.99
397.58	15105.82
397.77	16133.31
397.97	16325.24
398.16	16533.54
398.35	17420.61
398.55	17774.03
398.74	18558.11
398.93	18874.08
399.12	18298.31
399.32	17930.84
399.51	18192.98
399.70	19822.00
399.90	19133.88
400.09	19225.16
400.28	18642.37
400.47	19274.31
400.67	20322.87
400.86	20332.23
401.05	20556.93
401.24	20556.93
401.44	21163.12
401.63	21008.65
401.82	21219.30
402.01	20922.05
402.21	21535.27
402.40	21832.52
402.59	20908.01
402.78	19922.64
402.97	19616.03
403.17	20334.57
403.36	21476.76
403.55	22464.46
403.74	22579.15
403.93	21443.99
404.13	19786.89
404.32	19793.91
404.51	20760.55
404.70	21986.99
404.89	21701.45
405.09	21333.98
405.28	20613.10
405.47	21053.12
405.66	20982.90
405.85	20346.28
406.05	19817.32
406.24	20063.07
406.43	21167.80
406.62	21694.43
406.81	21902.73
407.00	21296.53
407.20	20283.08
407.39	20678.63
407.58	21675.70
407.77	22530.00
407.96	23168.96
408.15	23405.36
408.34	23552.81
408.54	24741.80
408.73	24671.59
408.92	24381.36
409.11	23257.90
409.30	22101.68
409.49	20975.88
409.68	19786.89
409.87	19147.92
410.07	20765.23
410.26	21963.59
410.45	23744.73
410.64	24128.58
410.83	24858.83
411.02	25399.49
411.21	26111.02
411.40	25823.13
411.59	26078.25
411.78	25699.08
411.98	25659.29
412.17	26054.84
412.36	25483.75
412.55	25294.17
412.74	24889.26
412.93	24482.00
413.12	24837.76
413.31	26981.70
413.50	27372.57
413.69	27569.17
413.88	26471.46
414.07	26008.03
414.26	26630.62
414.45	27295.33
414.64	27227.45
414.83	27065.96
415.02	26859.99
415.22	26504.23
415.41	27599.60
415.60	28245.58
415.79	29514.16
415.98	30185.89
416.17	29617.14
416.36	28985.19
416.55	28622.41
416.74	27587.89
416.93	26457.42
417.12	26534.65
417.31	27410.01
417.50	27477.89
417.69	28692.63
417.88	28395.38
418.07	28034.94
418.26	27665.13
418.45	28318.14
418.64	29415.85
418.83	30000.99
419.02	29867.58
419.21	29404.15
419.39	28215.16
419.58	26913.82
419.77	27080.00
419.96	28166.01
420.15	29858.21
420.34	30726.55
420.53	31873.42
420.72	32126.19
420.91	31622.98
421.10	31192.32
421.29	31152.53
421.48	30181.21
421.67	31758.73
421.86	30300.58
422.05	28505.38
422.24	25759.94
422.43	25706.10
422.61	28397.72
422.80	30857.62
422.99	30471.43
423.18	29364.36
423.37	28727.74
423.56	28800.29
423.75	29443.94
423.94	30354.41
424.13	28205.80
424.32	28807.31
424.50	29102.22
424.69	28554.54
424.88	28858.81
425.07	28467.94
425.26	28362.61
425.45	27901.53
425.64	27850.03
425.83	27613.64
426.01	29244.99
426.20	29788.00
426.39	29926.09
426.58	27395.97
426.77	25425.24
426.96	24631.80
427.15	25731.85
427.33	27559.81
427.52	28900.94
427.71	29116.26
427.90	28400.06
428.09	28130.90
428.28	27927.27
428.46	26836.58
428.65	26101.65
428.84	27260.22
429.03	27531.72
429.22	25603.12
429.40	24444.56
429.59	22354.46
429.78	19864.13
429.97	20180.10
430.16	20006.90
430.34	20208.19
430.53	19922.64
430.72	20891.62
430.91	23119.81
431.10	27328.10
431.28	31889.80
431.47	34000.96
431.66	33820.74
431.85	31215.72
432.03	28367.29
432.22	27831.31
432.41	29130.31
432.60	31805.54
432.79	33312.84
432.97	33757.55
433.16	32814.31
433.35	29874.60
433.54	26916.16
433.72	25635.89
433.91	27096.38
434.10	29773.95
434.28	31683.83
434.47	33556.26
434.66	32198.75
434.85	31857.03
435.03	31632.34
435.22	32638.77
435.41	34845.90
435.59	34244.38
435.78	35049.52
435.97	35997.44
436.16	35885.09
436.34	35484.86
436.53	34490.13
436.72	34429.28
436.90	32861.12
437.09	33226.24
437.28	32346.20
437.46	33635.84
437.65	32992.19
437.84	30426.96
438.02	28821.36
438.21	28680.92
438.40	29986.94
438.58	32861.12
438.77	33514.13
438.96	33825.42
439.14	35194.64
439.33	35700.19
439.52	36165.96
439.70	35477.84
439.89	34628.23
440.08	33905.00
440.26	33598.39
440.45	35302.30
440.63	37181.75
440.82	39262.49
441.01	38337.98
441.19	38513.52
441.38	38642.24
441.57	40477.22
441.75	40549.78
441.94	40928.95
442.12	40381.26
442.31	41223.86
442.50	40907.88
442.68	41354.93
442.87	40191.68
443.05	39622.93
443.24	40306.37
443.43	41478.97
443.61	41666.22
443.80	42356.67
443.98	40348.50
444.17	40463.18
444.35	41666.22
444.54	42431.57
444.73	42024.32
444.91	40521.69
445.10	39091.63
445.28	37865.19
445.47	37010.89
445.65	37202.82
445.84	38550.96
446.02	39955.29
446.21	40280.62
446.39	40203.38
446.58	40809.58
446.77	41640.47
446.95	41909.63
447.14	42838.83
447.32	43402.89
447.51	42789.67
447.69	40456.16
447.88	40329.77
448.06	41448.55
448.25	42031.34
448.43	42520.51
448.62	41654.51
448.80	41495.36
448.99	41553.87
449.17	42071.13
449.36	42146.03
449.54	43365.45
449.73	44463.16
449.91	44521.67
450.10	45624.06
450.28	46232.60
450.46	45947.06
450.65	45591.30
450.83	45296.39
451.02	44858.71
451.20	44641.04
451.39	44687.85
451.57	44465.50
451.76	44369.54
451.94	43779.72
452.13	42895.00
452.31	41226.20
452.49	39875.71
452.68	40196.36
452.86	40411.69
453.05	40463.18
453.23	42021.98
453.42	42930.11
453.60	43976.33
453.78	44203.36
453.97	43636.95
454.15	43725.89
454.34	43058.84
454.52	43072.88
454.70	42036.02
454.89	42817.76
455.07	42944.15
455.26	43744.61
455.44	45130.21
455.62	45663.85
455.81	45720.02
455.99	45476.61
456.17	45158.30
456.36	45682.58
456.54	46061.74
456.73	46134.30
456.91	47143.07
457.09	47344.36
457.28	47693.10
457.46	46157.70
457.64	45530.44
457.83	44722.96
458.01	44147.18
458.19	45055.31
458.38	45359.58
458.56	46007.91
458.74	46548.57
458.93	45350.22
459.11	45647.47
459.29	45172.34
459.48	45008.50
459.66	45502.35
459.84	45322.13
460.03	46080.47
460.21	46103.87
460.39	47105.62
460.57	47468.40
460.76	47365.42
460.94	47641.60
461.12	47234.35
461.31	47442.66
461.49	47313.93
461.67	47007.32
461.85	48299.30
462.04	47861.61
462.22	48090.99
462.40	48217.38
462.59	48072.26
462.77	48018.43
462.95	48240.78
463.13	47976.30
463.32	47068.17
463.50	46700.71
463.68	46878.59
463.86	47063.49
464.05	46796.67
464.23	46026.63
464.41	45441.50
464.59	45146.59
464.78	47330.31
464.96	46590.70
465.14	46461.97
465.32	47372.44
465.50	48154.18
465.69	48793.15
465.87	47599.47
466.05	46850.50
466.23	44835.30
466.41	44046.54
466.60	45361.92
466.78	45633.42
466.96	46153.02
467.14	46749.86
467.32	47208.61
467.51	47466.06
467.69	45450.86
467.87	45996.21
468.05	46988.60
468.23	46684.33
468.41	47150.09
468.60	47203.92
468.78	47222.65
468.96	46185.79
469.14	47426.28
469.32	47943.53
469.50	46099.19
469.69	46195.15
469.87	45439.16
470.05	45492.99
470.23	45951.74
470.41	45790.24
470.59	46635.17
470.77	47049.45
470.95	47140.73
471.14	48079.28
471.32	47927.15
471.50	49588.93
471.68	50190.45
471.86	50520.46
472.04	49893.20
472.22	50021.93
472.40	48601.22
472.58	48320.36
472.77	47943.53
472.95	48846.98
473.13	49813.62
473.31	48797.83
473.49	48818.89
473.67	49429.77
473.85	49900.22
474.03	50759.20
474.21	50894.95
474.39	51239.01
474.57	51346.67
474.75	51255.39
474.93	50958.14
475.12	49991.50
475.30	50433.86
475.48	50356.63
475.66	50813.03
475.84	50403.44
476.02	50248.96
476.20	49516.37
476.38	50405.78
476.56	51243.69
476.74	52285.23
476.92	51838.18
477.10	52451.41
477.28	53256.55
477.46	53514.01
477.64	53827.64
477.82	53729.34
478.00	53865.09
478.18	53399.32
478.36	53141.86
478.54	53572.52
478.72	53532.73
478.90	54408.09
479.08	55000.25
479.26	55461.33
479.44	55150.04
479.62	55016.63
479.80	54894.92
479.98	55426.23
480.16	55285.79
480.34	54864.50
480.52	55269.41
480.70	55571.34
480.88	55683.69
481.06	56128.39
481.24	56109.66
481.41	56755.65
481.59	57539.73
481.77	57193.33
481.95	56685.43
482.13	56748.63
482.31	56839.91
482.49	57027.15
482.67	57151.20
482.85	57247.16
483.03	57499.94
483.21	58017.20
483.39	57874.43
483.57	57169.93
483.74	57345.47
483.92	57446.11
484.10	57593.56
484.28	58152.95
484.46	58415.09
484.64	58780.21
484.82	58092.10
485.00	57631.01
485.18	57186.31
485.35	56334.35
485.53	53956.37
485.71	51255.39
485.89	50941.76
486.07	52753.33
486.25	55344.31
486.43	56601.18
486.61	57120.77
486.78	56963.96
486.96	57322.06
487.14	58169.33
487.32	58805.96
487.50	59639.19
487.68	60126.02
487.85	60477.10
488.03	60404.55
488.21	60196.24
488.39	59620.47
488.57	59147.68
488.75	59107.89
488.92	59625.15
489.10	61591.20
489.28	62335.49
489.46	62714.65
489.64	62539.11
489.81	62766.15
489.99	62183.35
490.17	62660.82
490.35	63196.80
490.53	62461.88
490.70	62134.20
490.88	62309.74
491.06	62836.36
491.24	62878.49
491.41	62005.47
491.59	60935.85
491.77	60453.70
491.95	61085.64
492.13	62218.46
492.30	62995.52
492.48	63800.66
492.66	63894.28
492.84	63931.73
493.01	63678.96
493.19	63444.90
493.37	63227.23
493.54	63241.28
493.72	63744.49
493.90	64341.33
494.08	64839.86
494.25	65207.32
494.43	65357.12
494.61	65530.32
494.79	65535.00
494.96	65448.40
495.14	64631.55
495.32	64121.32
495.49	63693.00
495.67	64851.56
495.85	65535.00
496.02	65535.00
496.20	65535.00
496.38	65424.99
496.55	65443.72
496.73	65535.00
496.91	65535.00
497.09	65535.00
497.26	65535.00
497.44	65535.00
497.62	65535.00
497.79	64849.22
497.97	63959.82
498.14	64004.29
498.32	65137.11
498.50	65535.00
498.67	65535.00
498.85	65535.00
499.03	65535.00
499.20	65535.00
499.38	65535.00
499.56	65535.00
499.73	65535.00
499.91	65535.00
500.08	65279.88
500.26	64814.12
500.44	65078.60
500.61	65535.00
500.79	65354.78
500.97	65059.87
501.14	64973.27
501.32	64638.57
501.49	64935.82
501.67	65130.09
501.84	65535.00
502.02	65535.00
502.20	65535.00
502.37	65535.00
502.55	65535.00
502.72	65535.00
502.90	65535.00
503.07	65535.00
503.25	65535.00
503.43	65535.00
503.60	65193.28
503.78	64584.74
503.95	64877.31
504.13	65535.00
504.30	65535.00
504.48	65535.00
504.65	65535.00
504.83	65535.00
505.01	65535.00
505.18	65535.00
505.36	65535.00
505.53	65535.00
505.71	65535.00
505.88	65535.00
506.06	65535.00
506.23	65535.00
506.41	65535.00
506.58	65535.00
506.76	65535.00
506.93	65535.00
507.11	65535.00
507.28	65535.00
507.46	65535.00
507.63	65535.00
507.81	65535.00
507.98	65535.00
508.16	65535.00
508.33	65535.00
508.50	65535.00
508.68	65535.00
508.85	65535.00
509.03	65535.00
509.20	65535.00
509.38	65535.00
509.55	65535.00
509.73	65535.00
509.90	65535.00
510.08	65535.00
510.25	65535.00
510.42	65535.00
510.60	65535.00
510.77	65535.00
510.95	65535.00
511.12	65535.00
511.30	65535.00
511.47	65535.00
511.64	65535.00
511.82	65535.00
511.99	65535.00
512.17	65535.00
512.34	65535.00
512.51	65535.00
512.69	65535.00
512.86	65535.00
513.04	65535.00
513.21	65535.00
513.38	65535.00
513.56	65535.00
513.73	65535.00
513.90	65535.00
514.08	65535.00
514.25	65535.00
514.43	65535.00
514.60	65535.00
514.77	65535.00
514.95	65535.00
515.12	65535.00
515.29	65535.00
515.47	65535.00
515.64	65535.00
515.81	65535.00
515.99	65535.00
516.16	65535.00
516.33	65333.71
516.51	63082.12
516.68	62232.50
516.85	62052.28
517.03	62824.66
517.20	64636.23
517.37	65535.00
517.54	65535.00
517.72	65535.00
517.89	65228.39
518.06	62871.47
518.24	63746.83
518.41	65427.34
518.58	65535.00
518.75	65535.00
518.93	65535.00
519.10	65535.00
519.27	65535.00
519.45	65535.00
519.62	65535.00
519.79	65535.00
519.96	65535.00
520.14	65535.00
520.31	65535.00
520.48	65535.00
520.65	65535.00
520.83	65535.00
521.00	65535.00
521.17	65535.00
521.34	65535.00
521.52	65535.00
521.69	65535.00
521.86	65535.00
522.03	65535.00
522.20	65535.00
522.38	65535.00
522.55	65535.00
522.72	65535.00
522.89	65535.00
523.07	65535.00
523.24	65535.00
523.41	65535.00
523.58	65535.00
523.75	65535.00
523.92	65535.00
524.10	65535.00
524.27	65535.00
524.44	65535.00
524.61	65535.00
524.78	65535.00
524.96	65535.00
525.13	65535.00
525.30	65535.00
525.47	65535.00
525.64	65535.00
525.81	65535.00
525.98	65535.00
526.16	65535.00
526.33	65535.00
526.50	64734.54
526.67	64526.23
526.84	65062.21
527.01	65535.00
527.18	65535.00
527.36	65535.00
527.53	65535.00
527.70	65535.00
527.87	65535.00
528.04	65535.00
528.21	65535.00
528.38	65535.00
528.55	65535.00
528.72	65535.00
528.89	65535.00
529.07	65535.00
529.24	65535.00
529.41	65535.00
529.58	65535.00
529.75	65535.00
529.92	65535.00
530.09	65535.00
530.26	65535.00
530.43	65535.00
530.60	65535.00
530.77	65535.00
530.94	65535.00
531.11	65535.00
531.28	65535.00
531.46	65535.00
531.63	65535.00
531.80	65535.00
531.97	65535.00
532.14	65535.00
532.31	65535.00
532.48	65535.00
532.65	65535.00
532.82	65535.00
532.99	65535.00
533.16	65535.00
533.33	65535.00
533.50	65535.00
533.67	65535.00
533.84	65535.00
534.01	65535.00
534.18	65535.00
534.35	65535.00
534.52	65535.00
534.69	65535.00
534.86	65535.00
535.03	65535.00
535.20	65535.00
535.37	65535.00
535.54	65535.00
535.71	65535.00
535.88	65535.00
536.05	65535.00
536.22	65535.00
536.38	65535.00
536.55	65535.00
536.72	65535.00
536.89	65535.00
537.06	65535.00
537.23	65535.00
537.40	65535.00
537.57	65535.00
537.74	65535.00
537.91	65535.00
538.08	65535.00
538.25	65535.00
538.42	65535.00
538.59	65535.00
538.75	65535.00
538.92	65535.00
539.09	65535.00
539.26	65535.00
539.43	65535.00
539.60	65535.00
539.77	65535.00
539.94	65535.00
540.11	65535.00
540.28	65535.00
540.44	65535.00
540.61	65535.00
540.78	65535.00
540.95	65535.00
541.12	65535.00
541.29	65535.00
541.46	65535.00
541.62	65535.00
541.79	65535.00
541.96	65535.00
542.13	65535.00
542.30	65535.00
542.47	65535.00
542.63	65535.00
542.80	65535.00
542.97	65535.00
543.14	65535.00
543.31	65535.00
543.48	65535.00
543.64	65535.00
543.81	65535.00
543.98	65535.00
544.15	65535.00
544.32	65535.00
544.48	65535.00
544.65	65535.00
544.82	65535.00
544.99	65535.00
545.16	65535.00
545.32	65535.00
545.49	65535.00
545.66	65535.00
545.83	65535.00
546.00	65535.00
546.16	65535.00
546.33	65535.00
546.50	65535.00
546.67	65535.00
546.83	65535.00
547.00	65535.00
547.17	65535.00
547.34	65535.00
547.50	65535.00
547.67	65535.00
547.84	65535.00
548.00	65535.00
548.17	65535.00
548.34	65535.00
548.51	65535.00
548.67	65535.00
548.84	65535.00
549.01	65535.00
549.18	65535.00
549.34	65535.00
549.51	65535.00
549.68	65535.00
549.84	65535.00
550.01	65535.00
550.18	65535.00
550.34	65535.00
550.51	65535.00
550.68	65535.00
550.84	65535.00
551.01	65535.00
551.18	65535.00
551.34	65535.00
551.51	65535.00
551.68	65535.00
551.84	65535.00
552.01	65535.00
552.18	65535.00
552.34	65535.00
552.51	65535.00
552.68	65535.00
552.84	65535.00
553.01	65535.00
553.18	65535.00
553.34	65535.00
553.51	65535.00
553.67	65535.00
553.84	65535.00
554.01	65535.00
554.17	65535.00
554.34	65535.00
554.51	65535.00
554.67	65535.00
554.84	65535.00
555.00	65535.00
555.17	65535.00
555.33	65535.00
555.50	65535.00
555.67	65535.00
555.83	65535.00
556.00	65535.00
556.16	65535.00
556.33	65535.00
556.50	65535.00
556.66	65535.00
556.83	65535.00
556.99	65535.00
557.16	65535.00
557.32	65535.00
557.49	65535.00
557.65	65535.00
557.82	65535.00
557.98	65535.00
558.15	65535.00
558.32	64968.59
558.48	64236.00
558.65	64629.21
558.81	64973.27
558.98	64970.93
559.14	65127.75
559.31	65434.36
559.47	65378.18
559.64	65062.21
559.80	64788.37
559.97	64961.57
560.13	65209.67
560.30	65535.00
560.46	65535.00
560.63	65535.00
560.79	65535.00
560.96	65535.00
561.12	65350.10
561.29	64463.03
561.45	64832.84
561.61	65162.85
561.78	65535.00
561.94	65247.11
562.11	65200.30
562.27	65153.49
562.44	65450.74
562.60	65535.00
562.77	65535.00
562.93	65535.00
563.10	65535.00
563.26	65254.14
563.42	65251.80
563.59	65406.27
563.75	65099.66
563.92	65298.61
564.08	65085.62
564.24	65535.00
564.41	65324.35
564.57	65366.48
564.74	65071.57
564.90	64996.68
565.07	64835.18
565.23	64750.92
565.39	64224.30
565.56	64123.66
565.72	63700.02
565.88	64191.53
566.05	64360.05
566.21	64198.55
566.38	64575.38
566.54	64811.77
566.70	64783.69
566.87	65125.41
567.03	64935.82
567.19	65130.09
567.36	65041.15
567.52	64865.61
567.68	64456.01
567.85	64037.06
568.01	63943.44
568.17	63615.76
568.34	63690.66
568.50	63550.23
568.66	63676.61
568.83	64008.97
568.99	63929.39
569.15	64175.15
569.32	64243.02
569.48	64212.60
569.64	63898.97
569.81	63646.19
569.97	63732.79
570.13	63627.46
570.30	63194.46
570.46	62754.44
570.62	62513.37
570.78	62379.96
570.95	62532.09
571.11	63072.76
571.27	63351.28
571.43	63669.59
571.60	63903.65
571.76	63763.21
571.92	64224.30
572.09	64285.15
572.25	64212.60
572.41	64079.19
572.57	63994.93
572.74	64011.31
572.90	63674.27
573.06	63564.27
573.22	63835.77
573.38	63777.26
573.55	63730.45
573.71	63763.21
573.87	63791.30
574.03	63578.31
574.20	63653.21
574.36	63341.92
574.52	63290.43
574.68	63234.25
574.84	62679.55
575.01	62351.87
575.17	62375.28
575.33	62721.68
575.49	63047.01
575.65	63079.78
575.82	62770.83
575.98	62447.83
576.14	62677.21
576.30	63201.49
576.46	63149.99
576.62	63023.61
576.79	63208.51
576.95	62887.85
577.11	62819.98
577.27	62754.44
577.43	62925.30
577.59	62358.89
577.75	62063.99
577.92	61528.00
578.08	61361.82
578.24	61680.14
578.40	61755.03
578.56	61956.32
578.72	62031.22
578.88	62239.53
579.04	62288.68
579.21	62468.90
579.37	62330.81
579.53	62489.96
579.69	62548.48
579.85	62632.74
580.01	62232.50
580.17	62085.05
580.33	61956.32
580.49	62003.13
580.65	62459.54
580.82	62326.13
580.98	62536.77
581.14	62274.63
581.30	62370.60
581.46	62417.41
581.62	62578.90
581.78	62614.01
581.94	62560.18
582.10	62738.06
582.26	62651.46
582.42	62609.33
582.58	62763.81
582.74	62621.03
582.90	62714.65
583.06	62583.58
583.22	62375.28
583.38	62382.30
583.54	62480.60
583.70	62241.87
583.86	62389.32
584.02	62302.72
584.18	62335.49
584.34	62211.44
584.50	62286.34
584.66	62124.84
584.82	61748.01
584.98	61680.14
