SpectraSuite Data File
++++++++++++++++++++++++++++++++++++
Date: Mon Oct 07 14:54:02 GMT-05:00 2013
User: price-jones
Dark Spectrum Present: No
Reference Spectrum Present: No
Number of Sampled Component Spectra: 1
Spectrometers: USB2+H05261
Integration Time (usec): 100000 (USB2+H05261)
Spectra Averaged: 1 (USB2+H05261)
Boxcar Smoothing: 0 (USB2+H05261)
Correct for Electrical Dark: No (USB2+H05261)
Strobe/Lamp Enabled: No (USB2+H05261)
Correct for Detector Non-linearity: No (USB2+H05261)
Correct for Stray Light: No (USB2+H05261)
Number of Pixels in Processed Spectrum: 2048
>>>>>Begin Processed Spectral Data<<<<<
365.73	0.00
365.92	0.00
366.12	0.00
366.32	0.00
366.52	0.00
366.72	0.00
366.91	0.00
367.11	0.00
367.31	0.00
367.51	0.00
367.70	0.00
367.90	0.00
368.10	0.00
368.30	0.00
368.49	0.00
368.69	0.00
368.89	0.00
369.09	0.00
369.28	0.00
369.48	0.00
369.68	0.00
369.87	0.00
370.07	0.00
370.27	0.00
370.47	770.04
370.66	3503.78
370.86	3915.72
371.06	4379.14
371.25	4409.57
371.45	3911.04
371.65	3588.04
371.84	3391.44
372.04	3482.72
372.24	3990.61
372.44	4344.03
372.63	4056.15
372.83	3803.37
373.03	3379.73
373.22	3148.02
373.42	3311.86
373.62	3616.13
373.81	4109.98
374.01	4007.00
374.21	3693.37
374.40	3309.52
374.60	3466.33
374.79	3817.41
374.99	4524.26
375.19	4851.93
375.38	4990.02
375.58	4704.48
375.78	4531.28
375.97	4561.70
376.17	4828.53
376.37	4730.22
376.56	4875.34
376.76	5228.76
376.95	5369.19
377.15	5951.98
377.35	6015.18
377.54	6293.70
377.74	6574.56
377.93	6579.25
378.13	6347.53
378.33	6120.50
378.52	5568.13
378.72	5418.34
378.91	5214.71
379.11	5111.73
379.31	4983.00
379.50	4980.66
379.70	5350.46
379.89	5792.83
380.09	6211.78
380.28	6548.82
380.48	6373.28
380.68	6483.28
380.87	6190.72
381.07	5659.42
381.26	5242.80
381.46	4985.34
381.65	4819.16
381.85	4601.49
382.04	4451.70
382.24	4109.98
382.43	3983.59
382.63	3822.09
382.83	3932.10
383.02	3920.40
383.22	3885.29
383.41	3936.78
383.61	4227.01
383.80	4779.37
384.00	5465.15
384.19	6136.88
384.39	6324.13
384.58	6506.69
384.78	6162.63
384.97	6298.38
385.17	5954.32
385.36	5666.44
385.56	5310.68
385.75	5563.45
385.95	5970.71
386.14	6518.39
386.34	6555.84
386.53	6314.77
386.72	5877.09
386.92	6143.91
387.11	6333.49
387.31	6665.85
387.50	6406.05
387.70	6228.17
387.89	6059.65
388.09	5991.77
388.28	6223.48
388.48	6279.66
388.67	6707.98
388.86	7531.84
389.06	7992.93
389.25	8304.22
389.45	8531.25
389.64	8456.36
389.84	8444.65
390.03	8060.80
390.22	8229.32
390.42	8578.06
390.61	9004.04
390.81	9675.77
391.00	10043.24
391.19	9956.64
391.39	9397.25
391.58	9104.68
391.78	8163.79
391.97	7988.25
392.16	7494.40
392.36	6771.17
392.55	5526.00
392.75	4437.66
392.94	3466.33
393.13	3646.55
393.33	4215.30
393.52	5404.30
393.71	6576.91
393.91	7468.65
394.10	8065.49
394.29	8800.41
394.49	9448.74
394.68	10345.17
394.88	10312.40
395.07	10387.30
395.26	10441.13
395.46	10380.28
395.65	9568.11
395.84	8564.02
396.04	6988.84
396.23	5734.31
396.42	5013.43
396.62	4697.46
396.81	5547.07
397.00	7070.76
397.19	8884.67
397.39	10188.35
397.58	11644.17
397.77	12322.92
397.97	12760.60
398.16	12805.07
398.35	13209.98
398.55	13785.76
398.74	14249.18
398.93	14621.33
399.12	14333.44
399.32	13659.37
399.51	14452.81
399.70	15339.87
399.90	14817.93
400.09	15051.99
400.28	15009.86
400.47	15068.37
400.67	15803.30
400.86	16009.26
401.05	16044.37
401.24	16329.92
401.44	16407.16
401.63	16299.49
401.82	16533.54
402.01	16388.43
402.21	16767.60
402.40	16685.68
402.59	16325.24
402.78	15927.35
402.97	15096.46
403.17	15660.52
403.36	16496.10
403.55	17088.25
403.74	17806.80
403.93	16589.72
404.13	15356.25
404.32	15183.06
404.51	15885.22
404.70	16922.07
404.89	17088.25
405.09	16739.51
405.28	16051.39
405.47	16283.11
405.66	16594.40
405.85	15735.42
406.05	15197.10
406.24	15704.99
406.43	15798.62
406.62	16978.25
406.81	17118.68
407.00	16428.22
407.20	15962.45
407.39	16159.06
407.58	16898.67
407.77	17291.88
407.96	17937.87
408.15	18192.98
408.34	18237.45
408.54	18934.93
408.73	19164.31
408.92	19058.98
409.11	18462.15
409.30	17507.21
409.49	16407.16
409.68	15557.54
409.87	15068.37
410.07	15602.01
410.26	17254.43
410.45	18066.60
410.64	18569.81
410.83	19019.19
411.02	19686.25
411.21	20229.25
411.40	20058.39
411.59	20262.02
411.78	20130.95
411.98	19641.78
412.17	19932.00
412.36	19681.56
412.55	19985.83
412.74	19499.00
412.93	18909.19
413.12	19080.05
413.31	20730.12
413.50	21027.37
413.69	21785.71
413.88	20931.41
414.07	19971.79
414.26	20657.57
414.45	21043.76
414.64	21275.47
414.83	20936.09
415.02	20755.87
415.22	20634.16
415.41	21191.21
415.60	21937.84
415.79	22604.89
415.98	23105.77
416.17	23379.61
416.36	22958.31
416.55	22604.89
416.74	21577.40
416.93	20695.02
417.12	20908.01
417.31	21109.29
417.50	21633.57
417.69	22190.62
417.88	22164.87
418.07	21982.31
418.26	21378.45
418.45	21837.20
418.64	22764.05
418.83	23194.71
419.02	23190.03
419.21	23058.96
419.39	21905.07
419.58	20769.91
419.77	20807.36
419.96	21891.03
420.15	23051.94
420.34	23864.10
420.53	24526.47
420.72	25081.18
420.91	24786.27
421.10	24666.91
421.29	24348.59
421.48	23693.24
421.67	24631.80
421.86	23941.34
422.05	22459.78
422.24	20058.39
422.43	19896.89
422.61	21729.53
422.80	24109.86
422.99	23866.44
423.18	22944.27
423.37	22347.44
423.56	22565.10
423.75	22569.79
423.94	23264.92
424.13	22038.48
424.32	22352.12
424.50	22340.41
424.69	21912.10
424.88	22305.31
425.07	22106.36
425.26	21944.86
425.45	21731.87
425.64	21671.02
425.83	20966.52
426.01	22827.24
426.20	23384.29
426.39	22906.82
426.58	21385.47
426.77	19854.76
426.96	19042.60
427.15	19782.21
427.33	21247.38
427.52	22281.90
427.71	22169.55
427.90	22038.48
428.09	21891.03
428.28	21172.49
428.46	20844.81
428.65	20175.42
428.84	20730.12
429.03	21383.13
429.22	20058.39
429.40	19220.48
429.59	17366.78
429.78	14890.49
429.97	15222.84
430.16	15480.30
430.34	15627.76
430.53	15492.01
430.72	15852.45
430.91	17598.49
431.10	20280.74
431.28	24191.78
431.47	26066.55
431.66	26214.00
431.85	24142.63
432.03	22649.36
432.22	21216.96
432.41	21830.18
432.60	24465.62
432.79	25514.18
432.97	25757.60
433.16	25467.37
433.35	23381.95
433.54	20798.00
433.72	19522.41
433.91	20233.93
434.10	22530.00
434.28	24154.33
434.47	25605.46
434.66	25127.99
434.85	24435.19
435.03	24196.46
435.22	25092.88
435.41	26679.77
435.59	26642.32
435.78	26445.71
435.97	27571.51
436.16	27824.29
436.34	27583.21
436.53	26824.88
436.72	26658.70
436.90	25177.14
437.09	25106.93
437.28	24570.94
437.46	25996.33
437.65	25694.40
437.84	23704.95
438.02	21809.11
438.21	22015.08
438.40	22955.97
438.58	24875.21
438.77	25717.81
438.96	25806.75
439.14	26869.35
439.33	27208.73
439.52	28142.60
439.70	27407.67
439.89	26951.27
440.08	26129.74
440.26	26038.46
440.45	26632.96
440.63	28430.49
440.82	30476.12
441.01	29764.59
441.19	29303.51
441.38	29816.08
441.57	30469.09
441.75	31299.98
441.94	31559.78
442.12	31395.95
442.31	31828.95
442.50	31505.95
442.68	31257.85
442.87	31077.63
443.05	30756.98
443.24	30752.30
443.43	31531.70
443.61	31952.99
443.80	32746.44
443.98	30574.42
444.17	30649.32
444.35	32325.14
444.54	33223.90
444.73	32917.29
444.91	31180.62
445.10	29937.79
445.28	28957.11
445.47	28154.30
445.65	28650.50
445.84	29191.16
446.02	30279.51
446.21	30263.13
446.39	30862.30
446.58	31084.65
446.77	31632.34
446.95	32400.04
447.14	32921.98
447.32	33687.33
447.51	32566.21
447.69	31323.39
447.88	31145.51
448.06	31681.49
448.25	32055.98
448.43	32634.09
448.62	31983.42
448.80	31702.56
448.99	31861.71
449.17	32362.59
449.36	31969.38
449.54	33596.05
449.73	33773.93
449.91	34209.27
450.10	35477.84
450.28	35707.21
450.46	35833.60
450.65	35400.60
450.83	35330.39
451.02	34277.15
451.20	34298.21
451.39	34057.14
451.57	34047.77
451.76	33844.15
451.94	33961.17
452.13	33010.92
452.31	31552.76
452.49	29979.92
452.68	30646.97
452.86	30764.00
453.05	31480.21
453.23	32339.18
453.42	32610.68
453.60	33319.87
453.78	33729.46
453.97	33233.27
454.15	33631.16
454.34	32739.41
454.52	32617.71
454.70	32091.09
454.89	32463.23
455.07	32755.80
455.26	33504.77
455.44	34330.98
455.62	34892.71
455.81	34855.26
455.99	35126.76
456.17	34363.75
456.36	34319.28
456.54	35662.74
456.73	36072.34
456.91	35854.67
457.09	36428.10
457.28	36954.72
457.46	35718.92
457.64	35339.75
457.83	34155.44
458.01	33542.22
458.19	34242.04
458.38	34370.77
458.56	35690.83
458.74	35922.54
458.93	34450.35
459.11	34761.64
459.29	34230.33
459.48	34806.11
459.66	34368.43
459.84	34539.29
460.03	35339.75
460.21	35129.10
460.39	36292.35
460.57	36528.74
460.76	36692.58
460.94	36854.08
461.12	35873.39
461.31	36215.11
461.49	36034.89
461.67	35983.40
461.85	37347.93
462.04	37111.53
462.22	37521.13
462.40	37303.46
462.59	36519.38
462.77	37195.79
462.95	36746.41
463.13	36573.21
463.32	36144.89
463.50	36172.98
463.68	35817.22
463.86	36385.97
464.05	35580.82
464.23	34579.07
464.41	34558.01
464.59	34239.70
464.78	35791.47
464.96	35695.51
465.14	35072.93
465.32	35826.58
465.50	36811.95
465.69	37113.87
465.87	36610.66
466.05	35714.23
466.23	34057.14
466.41	33067.09
466.60	34220.97
466.78	34235.02
466.96	34967.60
467.14	35353.79
467.32	35931.90
467.51	36048.93
467.69	34136.71
467.87	35040.16
468.05	35379.54
468.23	35414.65
468.41	35995.10
468.60	35871.05
468.78	35686.15
468.96	35505.93
469.14	36538.10
469.32	36395.33
469.50	34827.17
469.69	35393.58
469.87	35058.88
470.05	34176.50
470.23	34562.69
470.41	34417.58
470.59	35150.17
470.77	35215.70
470.95	35559.76
471.14	36402.35
471.32	36144.89
471.50	38646.93
471.68	38396.49
471.86	38773.31
472.04	39054.18
472.22	39185.25
472.40	36980.46
472.58	37214.52
472.77	36381.29
472.95	36800.24
473.13	38174.14
473.31	37368.99
473.49	37518.79
473.67	38188.18
473.85	38272.44
474.03	39061.20
474.21	39423.98
474.39	39590.16
474.57	39871.03
474.75	39974.01
474.93	39674.42
475.12	38796.72
475.30	38272.44
475.48	38890.34
475.66	39559.73
475.84	39159.50
476.02	38740.55
476.20	38176.48
476.38	38583.73
476.56	39929.54
476.74	40367.22
476.92	40318.07
477.10	41296.41
477.28	41918.99
477.46	42286.46
477.64	42904.36
477.82	42983.94
478.00	42866.91
478.18	42426.89
478.36	42225.60
478.54	42071.13
478.72	42241.99
478.90	43571.41
479.08	44266.55
479.26	45464.91
479.44	45249.58
479.62	44540.39
479.80	44641.04
479.98	45263.62
480.16	45071.70
480.34	44364.85
480.52	45544.48
480.70	45350.22
480.88	45223.83
481.06	45916.63
481.24	46438.57
481.41	47257.76
481.59	48034.81
481.77	47789.06
481.95	46852.84
482.13	47122.01
482.31	46656.24
482.49	47674.37
482.67	47288.18
482.85	48224.40
483.03	48411.64
483.21	48591.86
483.39	48580.16
483.57	47627.56
483.74	47555.00
483.92	47999.71
484.10	47686.07
484.28	49202.74
484.46	49141.89
484.64	49563.18
484.82	48758.04
485.00	48252.48
485.18	47482.45
485.35	46351.97
485.53	43641.63
485.71	39473.13
485.89	38141.37
486.07	40664.47
486.25	44313.36
486.43	46799.01
486.61	47278.82
486.78	47173.50
486.96	48060.56
487.14	48893.79
487.32	49705.96
487.50	50794.31
487.68	51494.13
487.85	52336.72
488.03	52317.99
488.21	51714.14
488.39	50621.11
488.57	50590.68
488.75	50040.65
488.92	51056.45
489.10	53242.51
489.28	54590.66
489.46	54890.24
489.64	55002.59
489.81	54937.05
489.99	54571.93
490.17	54639.81
490.35	54810.67
490.53	54508.74
490.70	54461.93
490.88	53998.50
491.06	55058.76
491.24	55014.29
491.41	54225.53
491.59	52273.52
491.77	51686.05
491.95	52610.56
492.13	53947.01
492.30	54939.39
492.48	55882.63
492.66	56285.20
492.84	56362.44
493.01	56093.28
493.19	55580.70
493.37	55260.05
493.54	54997.91
493.72	55688.37
493.90	56474.79
494.08	57097.37
494.25	57499.94
494.43	57516.32
494.61	58056.99
494.79	58021.88
494.96	57839.32
495.14	57172.27
495.32	56374.14
495.49	55849.86
495.67	56694.80
495.85	58159.97
496.02	58546.16
496.20	58403.39
496.38	57876.77
496.55	57799.53
496.73	58354.24
496.91	58127.20
497.09	58995.54
497.26	58904.26
497.44	58504.03
497.62	57984.43
497.79	57326.74
497.97	56285.20
498.14	56086.26
498.32	57003.75
498.50	58021.88
498.67	58782.55
498.85	58459.56
499.03	58829.37
499.20	59140.66
499.38	58878.52
499.56	58768.51
499.73	58396.37
499.91	57874.43
500.08	57675.48
500.26	56647.99
500.44	57221.42
500.61	57989.11
500.79	57780.81
500.97	57340.78
501.14	57076.30
501.32	57130.14
501.49	56973.32
501.67	57200.35
501.84	57797.19
502.02	58150.61
502.20	58274.66
502.37	58405.73
502.55	58272.32
502.72	58930.01
502.90	59355.99
503.07	59208.53
503.25	58721.70
503.43	58115.50
503.60	57530.37
503.78	56830.55
503.95	57221.42
504.13	58424.45
504.30	59086.82
504.48	59044.69
504.65	58649.14
504.83	58525.10
505.01	59173.42
505.18	59437.90
505.36	60306.24
505.53	60238.37
505.71	60598.81
505.88	60610.51
506.06	59840.48
506.23	59568.97
506.41	59072.78
506.58	59250.66
506.76	59260.02
506.93	59428.54
507.11	59000.22
507.28	59196.83
507.46	58930.01
507.63	58356.58
507.81	58035.92
507.98	58323.81
508.16	59018.95
508.33	59465.99
508.50	59828.77
508.68	59990.27
508.85	60465.40
509.03	60444.33
509.20	60465.40
509.38	59583.02
509.55	58913.62
509.73	59021.29
509.90	59613.44
510.08	59868.56
510.25	59564.29
510.42	59664.94
510.60	59351.30
510.77	59636.85
510.95	60350.71
511.12	60446.68
511.30	60760.31
511.47	60912.44
511.64	60910.10
511.82	60552.00
511.99	59870.90
512.17	59299.81
512.34	59021.29
512.51	59182.79
512.69	59379.39
512.86	59236.62
513.04	59737.49
513.21	59845.16
513.38	59559.61
513.56	58930.01
513.73	58539.14
513.90	58674.89
514.08	58681.91
514.25	59196.83
514.43	59416.84
514.60	59274.07
514.77	59299.81
514.95	59568.97
515.12	59370.03
515.29	59590.04
515.47	60107.30
515.64	60371.78
515.81	59856.86
515.99	59245.98
516.16	58007.84
516.33	55744.54
516.51	54621.08
516.68	53434.43
516.85	53291.66
517.03	53544.44
517.20	56362.44
517.37	58277.00
517.54	59524.50
517.72	58969.80
517.89	57031.83
518.06	54251.28
518.24	54691.30
518.41	56832.89
518.58	58141.25
518.75	58199.76
518.93	58557.86
519.10	58445.52
519.27	58726.38
519.45	59187.47
519.62	59667.28
519.79	59969.21
519.96	59873.24
520.14	59302.15
520.31	58569.57
520.48	58761.49
520.65	58908.94
520.83	59770.26
521.00	60074.53
521.17	59767.92
521.34	59458.97
521.52	59803.03
521.69	60130.70
521.86	60596.47
522.03	60151.77
522.20	59215.55
522.38	58145.93
522.55	58342.53
522.72	58571.91
522.89	58887.88
523.07	59257.68
523.24	59419.18
523.41	60149.43
523.58	60535.62
523.75	60842.23
523.92	60772.01
524.10	60638.60
524.27	60732.22
524.44	60596.47
524.61	60329.65
524.78	60119.00
524.96	59969.21
525.13	60137.72
525.30	60577.75
525.47	60666.69
525.64	60505.19
525.81	59920.05
525.98	58532.12
526.16	57399.30
526.33	56573.09
526.50	56275.84
526.67	55772.63
526.84	56537.98
527.01	57162.90
527.18	58078.05
527.36	59143.00
527.53	59943.46
527.70	60149.43
527.87	59643.87
528.04	59159.38
528.21	59667.28
528.38	60336.67
528.55	60708.82
528.72	60928.83
528.89	61322.04
529.07	60940.53
529.24	60346.03
529.41	59515.14
529.58	59231.94
529.75	59334.92
529.92	59784.30
530.09	60093.25
530.26	60521.57
530.43	60921.80
530.60	60893.72
530.77	61104.37
530.94	61169.90
531.11	60673.71
531.28	60287.52
531.46	60310.92
531.63	60341.35
531.80	60320.29
531.97	59728.13
532.14	59234.28
532.31	58024.22
532.48	57621.65
532.65	57354.83
532.82	58454.88
532.99	59320.88
533.16	59669.62
533.33	60144.75
533.50	60128.36
533.67	59400.46
533.84	59044.69
534.01	59182.79
534.18	59629.83
534.35	59793.67
534.52	59409.82
534.69	59529.19
534.86	59924.74
535.03	60165.81
535.20	60706.47
535.37	61015.43
535.54	60914.78
535.71	60713.50
535.88	60470.08
536.05	59728.13
536.22	59615.79
536.38	59065.76
536.55	58447.86
536.72	58237.21
536.89	58216.14
537.06	58941.71
537.23	59686.00
537.40	59819.41
537.57	59966.87
537.74	59533.87
537.91	59877.93
538.08	59421.52
538.25	59693.02
538.42	59772.60
538.59	59681.32
538.75	59199.17
538.92	58969.80
539.09	58815.32
539.26	58394.03
539.43	58398.71
539.60	58337.85
539.77	58794.26
539.94	58459.56
540.11	57785.49
540.28	57373.55
540.44	57357.17
540.61	57415.68
540.78	57586.54
540.95	58384.66
541.12	58417.43
541.29	58763.83
541.46	59236.62
541.62	59220.23
541.79	59185.13
541.96	58211.46
542.13	58548.50
542.30	58658.51
542.47	58862.13
542.63	58403.39
542.80	58445.52
542.97	58403.39
543.14	58447.86
543.31	58239.55
543.48	58827.02
543.64	59536.21
543.81	60051.12
543.98	59547.91
544.15	59175.76
544.32	58541.48
544.48	58422.11
544.65	58922.99
544.82	59093.85
544.99	58906.60
545.16	58562.54
545.32	58447.86
545.49	59143.00
545.66	59456.63
545.83	59346.62
546.00	58885.54
546.16	58625.74
546.33	58862.13
546.50	58515.73
546.67	58948.73
546.83	58520.41
547.00	58489.99
547.17	58059.33
547.34	57403.98
547.50	57200.35
547.67	57996.13
547.84	57904.85
548.00	58260.62
548.17	58850.43
548.34	58492.33
548.51	58644.46
548.67	58782.55
548.84	58766.17
549.01	58766.17
549.18	58541.48
549.34	58368.28
549.51	58422.11
549.68	58370.62
549.84	58272.32
550.01	58211.46
550.18	57869.75
550.34	57862.72
550.51	57968.05
550.68	58204.44
550.84	57593.56
551.01	57855.70
551.18	57673.14
551.34	57946.98
551.51	58286.36
551.68	58574.25
551.84	58688.93
552.01	58497.01
552.18	58319.13
552.34	57422.70
552.51	57013.11
552.68	56942.89
552.84	57446.11
553.01	57904.85
553.18	57656.76
553.34	57813.57
553.51	57867.40
553.67	58218.49
553.84	58277.00
554.01	58171.67
554.17	57998.48
554.34	57900.17
554.51	58174.02
554.67	58717.02
554.84	58188.06
555.00	57815.91
555.17	57621.65
555.33	57490.58
555.50	57567.82
555.67	57553.77
555.83	57549.09
556.00	57104.39
556.16	57251.84
556.33	56713.52
556.50	56622.24
556.66	56858.63
556.83	56243.07
556.99	56516.92
557.16	56877.36
557.32	56952.26
557.49	57240.14
557.65	57088.01
557.82	57146.52
557.98	56886.72
558.15	56292.22
558.32	55913.06
558.48	54855.14
558.65	54939.39
558.81	55667.30
558.98	55770.28
559.14	55950.51
559.31	56027.74
559.47	55868.59
559.64	55866.25
559.80	55531.55
559.97	55426.23
560.13	55772.63
560.30	56638.62
560.46	57226.10
560.63	57132.48
560.79	57453.13
560.96	57134.82
561.12	55604.11
561.29	55262.39
561.45	55110.25
561.61	55840.50
561.78	56142.43
561.94	55751.56
562.11	55655.60
562.27	55531.55
562.44	55718.79
562.60	56130.73
562.77	56355.42
562.93	56463.08
563.10	56299.25
563.26	55723.47
563.42	55863.91
563.59	55505.80
563.75	55519.85
563.92	55660.28
564.08	55718.79
564.24	55978.59
564.41	55856.88
564.57	55835.82
564.74	55704.75
564.90	55580.70
565.07	55150.04
565.23	54724.07
565.39	54305.11
565.56	54277.02
565.72	53888.49
565.88	54461.93
566.05	54375.33
566.21	54621.08
566.38	54972.16
566.54	54993.23
566.70	55353.67
566.87	55655.60
567.03	55449.63
567.19	55873.27
567.36	55585.38
567.52	55246.00
567.68	55133.66
567.85	54611.72
568.01	54019.56
568.17	53673.16
568.34	53853.39
568.50	53511.67
568.66	53745.72
568.83	54284.04
568.99	54216.17
569.15	54230.21
569.32	54625.76
569.48	53729.34
569.64	53829.98
569.81	53467.20
569.97	53371.24
570.13	53537.41
570.30	53073.99
570.46	52708.86
570.62	52020.75
570.78	51774.99
570.95	51959.89
571.11	52734.61
571.27	53183.99
571.43	53514.01
571.60	53483.58
571.76	53570.18
571.92	54162.34
572.09	54234.89
572.25	54319.15
572.41	54035.95
572.57	53970.41
572.74	54195.10
572.90	53495.28
573.06	53663.80
573.22	53696.57
573.38	53528.05
573.55	53434.43
573.71	53436.77
573.87	53602.95
574.03	53247.19
574.20	53347.83
574.36	53020.16
574.52	53120.80
574.68	52610.56
574.84	52533.32
575.01	51854.57
575.17	51634.56
575.33	52037.13
575.49	52355.44
575.65	52706.52
575.82	52383.53
575.98	52170.54
576.14	52315.65
576.30	52725.25
576.46	52795.46
576.62	52622.26
576.79	52605.88
576.95	52292.25
577.11	51657.96
577.27	52254.80
577.43	52385.87
577.59	52430.34
577.75	51906.06
577.92	50728.77
578.08	50892.61
578.24	50459.61
578.40	50810.69
578.56	51569.02
578.72	51346.67
578.88	51363.06
579.04	51454.34
579.21	51777.33
579.37	51814.78
579.53	51831.16
579.69	51934.15
579.85	52210.33
580.01	52041.81
580.17	51304.54
580.33	51590.09
580.49	51391.14
580.65	51515.19
580.82	51964.57
580.98	51913.08
581.14	51545.62
581.30	51798.40
581.46	51466.04
581.62	51639.24
581.78	51798.40
581.94	52097.98
582.10	52299.27
582.26	51791.37
582.42	51784.35
582.58	52090.96
582.74	51833.50
582.90	51653.28
583.06	51835.84
583.22	51489.45
583.38	51339.65
583.54	51646.26
583.70	51536.26
583.86	51536.26
584.02	51227.31
584.18	51477.74
584.34	51744.56
584.50	50997.93
584.66	50911.33
584.82	50588.34
584.98	50857.50
585.14	50433.86
