SpectraSuite Data File
++++++++++++++++++++++++++++++++++++
Date: Mon Oct 07 14:53:51 GMT-05:00 2013
User: price-jones
Dark Spectrum Present: No
Reference Spectrum Present: No
Number of Sampled Component Spectra: 1
Spectrometers: USB2+H05261
Integration Time (usec): 100000 (USB2+H05261)
Spectra Averaged: 1 (USB2+H05261)
Boxcar Smoothing: 0 (USB2+H05261)
Correct for Electrical Dark: No (USB2+H05261)
Strobe/Lamp Enabled: No (USB2+H05261)
Correct for Detector Non-linearity: No (USB2+H05261)
Correct for Stray Light: No (USB2+H05261)
Number of Pixels in Processed Spectrum: 2048
>>>>>Begin Processed Spectral Data<<<<<
365.73	0.00
365.92	0.00
366.12	0.00
366.32	0.00
366.52	0.00
366.72	0.00
366.91	0.00
367.11	0.00
367.31	0.00
367.51	0.00
367.70	0.00
367.90	0.00
368.10	0.00
368.30	0.00
368.49	0.00
368.69	0.00
368.89	0.00
369.09	0.00
369.28	0.00
369.48	0.00
369.68	0.00
369.87	0.00
370.07	0.00
370.27	0.00
370.47	594.50
370.66	2869.50
370.86	3482.72
371.06	3801.03
371.25	3737.84
371.45	3494.42
371.65	3082.49
371.84	2785.24
372.04	3084.83
372.24	3356.33
372.44	3613.79
372.63	3566.98
372.83	3225.26
373.03	2862.48
373.22	2651.83
373.42	2892.90
373.62	3227.60
373.81	3651.24
374.01	3459.31
374.21	3180.79
374.40	2846.09
374.60	2972.48
374.79	3391.44
374.99	4030.40
375.19	4322.97
375.38	4374.46
375.58	4098.28
375.78	4002.32
375.97	4093.60
376.17	4194.24
376.37	4163.81
376.56	4308.93
376.76	4432.97
376.95	4718.52
377.15	5123.43
377.35	5411.32
377.54	5575.16
377.74	5792.83
377.93	5802.19
378.13	5708.57
378.33	5401.96
378.52	4847.25
378.72	4765.33
378.91	4559.36
379.11	4545.32
379.31	4294.88
379.50	4432.97
379.70	4765.33
379.89	5242.80
380.09	5493.24
380.28	5731.97
380.48	5795.17
380.68	5521.32
380.87	5425.36
381.07	5078.96
381.26	4645.96
381.46	4430.63
381.65	4297.22
381.85	4205.94
382.04	4004.66
382.24	3735.50
382.43	3552.93
382.63	3412.50
382.83	3361.01
383.02	3386.76
383.22	3428.88
383.41	3389.10
383.61	3688.68
383.80	4128.70
384.00	4730.22
384.19	5284.93
384.39	5680.48
384.58	5757.72
384.78	5486.22
384.97	5530.69
385.17	5160.88
385.36	5163.22
385.56	4652.98
385.75	4812.14
385.95	5467.49
386.14	5830.27
386.34	5860.70
386.53	5530.69
386.72	5231.10
386.92	5397.28
387.11	5500.26
387.31	5930.92
387.50	5858.36
387.70	5486.22
387.89	5526.00
388.09	5652.39
388.28	5640.69
388.48	5561.11
388.67	6155.61
388.86	6670.53
389.06	7005.22
389.25	7356.30
389.45	7770.58
389.64	7442.90
389.84	7470.99
390.03	7304.81
390.22	7260.34
390.42	7588.02
390.61	8142.72
390.81	8624.87
391.00	8606.15
391.19	8655.30
391.39	8318.26
391.58	7901.65
391.78	7552.91
391.97	7115.23
392.16	6668.19
392.36	6160.29
392.55	5018.11
392.75	3997.64
392.94	3206.53
393.13	3136.32
393.33	3714.43
393.52	4739.58
393.71	5921.56
393.91	6789.89
394.10	7112.89
394.29	7660.57
394.49	8379.12
394.68	9376.19
394.88	9270.86
395.07	9570.45
395.26	9350.44
395.46	9074.26
395.65	8739.56
395.84	7461.63
396.04	6272.64
396.23	5078.96
396.42	4367.44
396.62	4063.17
396.81	4851.93
397.00	6253.91
397.19	7817.39
397.39	9238.09
397.58	10448.15
397.77	10951.37
397.97	11452.24
398.16	11597.35
398.35	11906.31
398.55	12025.67
398.74	12720.81
398.93	13170.19
399.12	12711.45
399.32	12599.10
399.51	12538.25
399.70	13439.36
399.90	13109.34
400.09	13530.64
400.28	13238.07
400.47	13455.74
400.67	13874.70
400.86	14471.53
401.05	14366.21
401.24	14111.09
401.44	14576.86
401.63	14712.61
401.82	14750.06
402.01	14728.99
402.21	15082.41
402.40	14984.11
402.59	14696.22
402.78	13877.04
402.97	13319.99
403.17	14080.66
403.36	15047.30
403.55	15618.39
403.74	15976.50
403.93	15009.86
404.13	13607.87
404.32	13247.43
404.51	14097.05
404.70	15206.46
404.89	15236.89
405.09	15021.56
405.28	14534.73
405.47	14696.22
405.66	14548.77
405.85	14099.39
406.05	13954.27
406.24	14087.68
406.43	14623.67
406.62	15386.68
406.81	15363.28
407.00	14562.81
407.20	14380.25
407.39	14630.69
407.58	15225.18
407.77	15644.14
407.96	16053.73
408.15	16641.21
408.34	16294.81
408.54	17291.88
408.73	17172.51
408.92	16807.39
409.11	16793.34
409.30	16032.67
409.49	14630.69
409.68	13589.15
409.87	13610.22
410.07	14235.14
410.26	15414.77
410.45	16545.25
410.64	16718.45
410.83	17336.35
411.02	17710.83
411.21	18691.52
411.40	17645.30
411.59	18345.12
411.78	18019.78
411.98	17514.23
412.17	18221.07
412.36	17710.83
412.55	18029.15
412.74	17568.06
412.93	17142.08
413.12	17160.81
413.31	19124.52
413.50	18869.40
413.69	19499.00
413.88	18572.15
414.07	17888.71
414.26	18380.23
414.45	18843.65
414.64	18958.34
414.83	19117.50
415.02	18539.38
415.22	18621.30
415.41	19105.79
415.60	19580.92
415.79	20397.77
415.98	21207.59
416.17	20938.43
416.36	20456.28
416.55	20184.78
416.74	19426.45
416.93	18941.96
417.12	18801.52
417.31	19033.24
417.50	19597.31
417.69	20133.29
417.88	19988.18
418.07	19576.24
418.26	19580.92
418.45	19665.18
418.64	20339.26
418.83	20950.14
419.02	20814.38
419.21	20582.67
419.39	19597.31
419.58	19278.99
419.77	18888.12
419.96	19969.45
420.15	20891.62
420.34	21678.04
420.53	22221.05
420.72	22576.81
420.91	22443.40
421.10	21947.20
421.29	21738.90
421.48	20940.77
421.67	22197.64
421.86	21584.42
422.05	20173.08
422.24	17841.90
422.43	17928.50
422.61	19814.98
422.80	21158.44
422.99	21607.83
423.18	20954.82
423.37	20451.60
423.56	20269.04
423.75	20446.92
423.94	20812.04
424.13	19950.73
424.32	20032.65
424.50	20004.56
424.69	19878.17
424.88	20037.33
425.07	19822.00
425.26	19946.05
425.45	19723.69
425.64	19133.88
425.83	19389.00
426.01	20451.60
426.20	21060.14
426.39	20870.56
426.58	19274.31
426.77	17762.33
426.96	17233.36
427.15	17961.27
427.33	19604.33
427.52	20196.48
427.71	20498.41
427.90	19967.11
428.09	19782.21
428.28	19140.90
428.46	18679.82
428.65	18288.95
428.84	18948.98
429.03	19332.82
429.22	18478.53
429.40	17446.35
429.59	15833.72
429.78	13598.51
429.97	13942.57
430.16	13980.02
430.34	14263.22
430.53	14054.92
430.72	14347.48
430.91	15735.42
431.10	18719.60
431.28	22005.72
431.47	23616.01
431.66	23960.06
431.85	21956.57
432.03	20353.30
432.22	19143.24
432.41	20119.24
432.60	22265.52
432.79	23103.43
432.97	23440.47
433.16	23484.94
433.35	21458.03
433.54	18810.89
433.72	17692.11
433.91	18200.01
434.10	20652.89
434.28	21858.26
434.47	23084.70
434.66	22785.12
434.85	22164.87
435.03	22281.90
435.22	22773.41
435.41	24009.22
435.59	24032.62
435.78	24531.15
435.97	25174.80
436.16	25158.42
436.34	25062.46
436.53	24395.40
436.72	24093.47
436.90	23173.64
437.09	22792.14
437.28	22267.86
437.46	23061.30
437.65	23178.33
437.84	21884.01
438.02	19562.20
438.21	19714.33
438.40	20629.48
438.58	22462.12
438.77	23349.18
438.96	23726.01
439.14	24521.79
439.33	25242.68
439.52	25483.75
439.70	24856.49
439.89	24535.84
440.08	23693.24
440.26	23536.43
440.45	24559.24
440.63	26246.77
440.82	27534.06
441.01	27222.77
441.19	26773.39
441.38	27065.96
441.57	28006.85
441.75	28379.00
441.94	28664.54
442.12	28594.32
442.31	28907.96
442.50	28685.61
442.68	28723.05
442.87	28163.67
443.05	27594.92
443.24	28168.35
443.43	28819.02
443.61	29692.04
443.80	29771.61
443.98	28533.47
444.17	28086.43
444.35	29593.73
444.54	29773.95
444.73	29565.65
444.91	28449.21
445.10	27157.24
445.28	26504.23
445.47	25970.58
445.65	26373.16
445.84	26703.17
446.02	27381.93
446.21	28158.99
446.39	28121.54
446.58	28692.63
446.77	28966.47
446.95	29373.72
447.14	30045.46
447.32	30164.82
447.51	29727.14
447.69	28552.20
447.88	28526.45
448.06	28769.86
448.25	29544.58
448.43	29783.32
448.62	29062.43
448.80	28634.11
448.99	28760.50
449.17	29549.26
449.36	29516.50
449.54	30642.29
449.73	30815.49
449.91	30773.36
450.10	32444.51
450.28	32418.76
450.46	32105.13
450.65	32453.87
450.83	32114.49
451.02	31253.17
451.20	31407.65
451.39	31307.01
451.57	30799.11
451.76	30766.34
451.94	31058.91
452.13	30071.20
452.31	29142.01
452.49	27555.13
452.68	27850.03
452.86	27674.49
453.05	28348.57
453.23	29312.87
453.42	29926.09
453.60	30808.47
453.78	30616.55
453.97	30679.74
454.15	30576.76
454.34	29598.41
454.52	30183.55
454.70	29535.22
454.89	29879.28
455.07	29757.57
455.26	30305.26
455.44	31749.37
455.62	32355.57
455.81	32493.66
455.99	31819.58
456.17	31615.96
456.36	31527.02
456.54	32479.61
456.73	32547.49
456.91	33099.86
457.09	33081.13
457.28	33795.00
457.46	32505.36
457.64	32261.94
457.83	31255.51
458.01	30136.74
458.19	31395.95
458.38	31402.97
458.56	32641.11
458.74	32306.41
458.93	32100.45
459.11	31803.20
459.29	31342.11
459.48	31812.56
459.66	31386.58
459.84	32121.51
460.03	32491.32
460.21	32009.17
460.39	32994.53
460.57	33310.50
460.76	33432.21
460.94	33474.34
461.12	33244.97
461.31	32971.13
461.49	33046.02
461.67	33574.98
461.85	33949.47
462.04	34024.37
462.22	34211.61
462.40	34244.38
462.59	33830.10
462.77	34127.35
462.95	33839.47
463.13	33296.46
463.32	33235.61
463.50	33186.46
463.68	32943.04
463.86	33324.55
464.05	32910.27
464.23	31924.91
464.41	31971.72
464.59	31580.85
464.78	32830.69
464.96	32435.14
465.14	32393.01
465.32	33104.54
465.50	33907.34
465.69	34174.16
465.87	33958.83
466.05	32907.93
466.23	31143.17
466.41	30712.51
466.60	31559.78
466.78	31611.28
466.96	32484.30
467.14	32947.72
467.32	32718.35
467.51	33270.72
467.69	31524.68
467.87	32404.72
468.05	32755.80
468.23	32933.68
468.41	32776.86
468.60	32964.10
468.78	33336.25
468.96	32613.02
469.14	33322.21
469.32	33759.89
469.50	32081.72
469.69	32346.20
469.87	31885.12
470.05	31648.72
470.23	31725.96
470.41	32016.19
470.59	32374.29
470.77	32488.98
470.95	32966.45
471.14	34015.01
471.32	33469.66
471.50	35070.59
471.68	35480.18
471.86	36189.36
472.04	35765.73
472.22	35964.67
472.40	34513.54
472.58	34181.18
472.77	33322.21
472.95	34157.78
473.13	35498.91
473.31	33921.38
473.49	34558.01
473.67	35037.82
473.85	35632.32
474.03	36273.62
474.21	36439.80
474.39	37088.13
474.57	36919.61
474.75	37132.60
474.93	36409.37
475.12	35604.23
475.30	35868.71
475.48	35852.33
475.66	36570.87
475.84	36334.48
476.02	36051.27
476.20	34843.56
476.38	36133.19
476.56	37170.05
476.74	37301.12
476.92	37408.78
477.10	37890.93
477.28	39000.35
477.46	38866.94
477.64	39466.11
477.82	40315.73
478.00	40231.47
478.18	39463.77
478.36	39323.34
478.54	39007.37
478.72	39110.35
478.90	40935.97
479.08	41357.27
479.26	41930.70
479.44	41411.10
479.62	41364.29
479.80	41617.07
479.98	41706.01
480.16	41888.57
480.34	41237.90
480.52	41979.85
480.70	42220.92
480.88	42171.77
481.06	43136.07
481.24	43019.05
481.41	43976.33
481.59	44942.97
481.77	44271.23
481.95	43863.98
482.13	43419.28
482.31	43775.04
482.49	44481.88
482.67	44093.35
482.85	44587.21
483.03	45399.37
483.21	45713.00
483.39	45474.27
483.57	44392.94
483.74	44350.81
483.92	44933.60
484.10	44882.11
484.28	45820.67
484.46	46244.30
484.64	46768.58
484.82	45565.55
485.00	45336.18
485.18	44339.11
485.35	43180.54
485.53	40156.57
485.71	36814.29
485.89	36142.55
486.07	38129.67
486.25	41305.77
486.43	43557.37
486.61	44191.65
486.78	44081.65
486.96	44561.46
487.14	46050.04
487.32	46857.52
487.50	48081.63
487.68	48657.40
487.85	49340.83
488.03	49404.03
488.21	48971.03
488.39	48292.27
488.57	47613.52
488.75	46803.69
488.92	47988.00
489.10	50806.01
489.28	52037.13
489.46	52568.43
489.64	52327.36
489.81	52404.59
489.99	52165.86
490.17	52076.92
490.35	53186.33
490.53	52404.59
490.70	51887.34
490.88	51477.74
491.06	52601.20
491.24	52746.31
491.41	51681.37
491.59	50157.68
491.77	48945.28
491.95	50033.63
492.13	51391.14
492.30	52601.20
492.48	53642.74
492.66	53965.73
492.84	54307.45
493.01	53949.35
493.19	53401.66
493.37	53181.65
493.54	52736.95
493.72	53396.98
493.90	54438.52
494.08	54871.52
494.25	55388.78
494.43	55618.15
494.61	55887.31
494.79	55978.59
494.96	55779.65
495.14	55206.22
495.32	54253.62
495.49	53731.68
495.67	54571.93
495.85	56065.19
496.02	56734.59
496.20	56182.22
496.38	55756.24
496.55	55786.67
496.73	56313.29
496.91	56371.80
497.09	56849.27
497.26	57214.40
497.44	56479.47
497.62	56126.05
497.79	55430.91
497.97	54162.34
498.14	54206.81
498.32	55276.43
498.50	55948.17
498.67	56821.19
498.85	56591.81
499.03	56739.27
499.20	56954.60
499.38	57076.30
499.56	56727.56
499.73	56224.35
499.91	55767.94
500.08	55540.91
500.26	54908.97
500.44	55281.11
500.61	55899.01
500.79	55880.29
500.97	55320.90
501.14	55297.50
501.32	54845.77
501.49	55131.32
501.67	55295.16
501.84	55667.30
502.02	56072.21
502.20	56446.70
502.37	56542.66
502.55	56633.94
502.72	56844.59
502.90	57457.81
503.07	57190.99
503.25	56788.42
503.43	55948.17
503.60	55491.76
503.78	54717.04
503.95	54920.67
504.13	56479.47
504.30	57441.43
504.48	57174.61
504.65	56587.13
504.83	56811.82
505.01	57661.44
505.18	57689.52
505.36	58323.81
505.53	58436.16
505.71	58646.80
505.88	58693.61
506.06	58028.90
506.23	57738.68
506.41	57155.88
506.58	57411.00
506.76	57558.45
506.93	57626.33
507.11	57265.89
507.28	57411.00
507.46	57109.07
507.63	56530.96
507.81	56119.02
507.98	56411.59
508.16	57102.05
508.33	57638.03
508.50	58204.44
508.68	58464.24
508.85	58731.06
509.03	58880.86
509.20	58653.82
509.38	57937.62
509.55	57350.15
509.73	57240.14
509.90	57949.32
510.08	58028.90
510.25	57968.05
510.42	57773.78
510.60	57577.18
510.77	57963.37
510.95	58494.67
511.12	58611.70
511.30	58976.82
511.47	59037.67
511.64	58880.86
511.82	58880.86
511.99	58159.97
512.17	57432.07
512.34	57158.22
512.51	57308.02
512.69	57457.81
512.86	57406.32
513.04	58056.99
513.21	58005.50
513.38	57916.56
513.56	57291.63
513.73	56659.69
513.90	56863.32
514.08	56839.91
514.25	57137.16
514.43	57539.73
514.60	57350.15
514.77	57780.81
514.95	57696.55
515.12	57563.14
515.29	57958.69
515.47	58480.63
515.64	58735.74
515.81	58178.70
515.99	57649.74
516.16	56243.07
516.33	53759.76
516.51	52526.30
516.68	51487.10
516.85	50864.52
517.03	51496.47
517.20	54349.58
517.37	56575.43
517.54	57876.77
517.72	57064.60
517.89	54700.66
518.06	52374.17
518.24	52701.84
518.41	54787.26
518.58	56158.81
518.75	56348.40
518.93	56779.06
519.10	56399.89
519.27	56921.83
519.45	57240.14
519.62	57865.06
519.79	58323.81
519.96	58014.86
520.14	57577.18
520.31	56662.03
520.48	56797.78
520.65	57062.26
520.83	58174.02
521.00	58515.73
521.17	58199.76
521.34	57666.12
521.52	57951.66
521.69	58710.00
521.86	58969.80
522.03	58527.44
522.20	57600.58
522.38	56168.18
522.55	56329.67
522.72	57139.50
522.89	57111.41
523.07	57450.79
523.24	57722.29
523.41	58632.76
523.58	58866.81
523.75	59091.51
523.92	58859.79
524.10	59313.86
524.27	58925.33
524.44	58857.45
524.61	58562.54
524.78	58656.17
524.96	58349.56
525.13	58485.31
525.30	58562.54
525.47	59007.25
525.64	59105.55
525.81	58244.23
525.98	56788.42
526.16	55440.27
526.33	54932.37
526.50	54508.74
526.67	53734.02
526.84	54768.54
527.01	55849.86
527.18	56523.94
527.36	57333.76
527.53	58162.31
527.70	58408.07
527.87	57986.77
528.04	57581.86
528.21	57883.79
528.38	58878.52
528.55	59306.83
528.72	59470.67
528.89	59571.32
529.07	59360.67
529.24	58623.40
529.41	58021.88
529.58	57623.99
529.75	57792.51
529.92	58059.33
530.09	58211.46
530.26	58859.79
530.43	59337.26
530.60	59276.41
530.77	59625.15
530.94	59662.60
531.11	59086.82
531.28	58850.43
531.46	58651.48
531.63	58419.77
531.80	58688.93
531.97	58031.24
532.14	57382.91
532.31	56537.98
532.48	55833.48
532.65	55800.71
532.82	56835.23
532.99	57738.68
533.16	58272.32
533.33	58520.41
533.50	58595.31
533.67	57776.12
533.84	57401.64
534.01	57558.45
534.18	57724.63
534.35	58145.93
534.52	57961.03
534.69	58094.44
534.86	58422.11
535.03	58644.46
535.20	59119.59
535.37	59508.12
535.54	59657.91
535.71	59255.34
535.88	58976.82
536.05	58225.51
536.22	57972.73
536.38	57392.28
536.55	57181.63
536.72	56287.54
536.89	56296.91
537.06	57282.27
537.23	58284.02
537.40	58450.20
537.57	58398.71
537.74	57829.96
537.91	58047.63
538.08	57949.32
538.25	57937.62
538.42	58291.04
538.59	57954.00
538.75	57403.98
538.92	56994.39
539.09	57080.98
539.26	56748.63
539.43	56657.35
539.60	56886.72
539.77	56980.34
539.94	56818.84
540.11	55969.23
540.28	55526.87
540.44	55760.92
540.61	55922.42
540.78	56090.94
540.95	56671.39
541.12	56727.56
541.29	57261.21
541.46	57392.28
541.62	57659.10
541.79	57371.21
541.96	56807.14
542.13	56729.90
542.30	57176.95
542.47	57228.44
542.63	57097.37
542.80	56736.93
542.97	56921.83
543.14	56530.96
543.31	56741.61
543.48	57403.98
543.64	58115.50
543.81	58239.55
543.98	57897.83
544.15	57701.23
544.32	56872.68
544.48	56863.32
544.65	57513.98
544.82	57876.77
544.99	57483.56
545.16	57200.35
545.32	56732.25
545.49	57551.43
545.66	58092.10
545.83	57806.55
546.00	57352.49
546.16	56711.18
546.33	57151.20
546.50	57057.58
546.67	57581.86
546.83	56903.10
547.00	57190.99
547.17	56591.81
547.34	55796.03
547.50	55814.76
547.67	56151.79
547.84	56210.31
548.00	56762.67
548.17	56846.93
548.34	57043.54
548.51	57076.30
548.67	56898.42
548.84	57261.21
549.01	56942.89
549.18	56914.81
549.34	56673.73
549.51	56786.08
549.68	56868.00
549.84	56678.41
550.01	56509.89
550.18	56406.91
550.34	56257.12
550.51	56645.65
550.68	56636.28
550.84	56151.79
551.01	56079.24
551.18	56245.41
551.34	56399.89
551.51	56722.88
551.68	56868.00
551.84	56910.13
552.01	56797.78
552.18	56638.62
552.34	55973.91
552.51	55533.89
552.68	55498.78
552.84	55896.67
553.01	56247.75
553.18	55906.04
553.34	56172.86
553.51	56324.99
553.67	56589.47
553.84	56821.19
554.01	56566.07
554.17	56247.75
554.34	56313.29
554.51	56498.19
554.67	57017.79
554.84	56523.94
555.00	56315.63
555.17	56119.02
555.33	56051.15
555.50	55985.61
555.67	56151.79
555.83	55831.14
556.00	55515.17
556.16	55622.83
556.33	55089.19
556.50	55044.72
556.66	55398.14
556.83	54747.47
556.99	55213.24
557.16	54887.90
557.32	55697.73
557.49	55763.26
557.65	55587.72
557.82	55592.40
557.98	55356.01
558.15	54803.64
558.32	54106.16
558.48	53172.29
558.65	53385.28
558.81	53956.37
558.98	53944.67
559.14	54377.67
559.31	54513.42
559.47	54277.02
559.64	53921.26
559.80	53544.44
559.97	53886.15
560.13	53869.77
560.30	55210.90
560.46	55657.94
560.63	56051.15
560.79	55833.48
560.96	55608.79
561.12	54330.86
561.29	53329.11
561.45	53609.97
561.61	54148.29
561.78	54600.02
561.94	54169.36
562.11	54316.81
562.27	54145.95
562.44	54295.75
562.60	54710.02
562.77	55147.70
562.93	54761.51
563.10	54550.87
563.26	53909.56
563.42	54293.41
563.59	54057.01
563.75	53944.67
563.92	54279.36
564.08	54167.02
564.24	54209.15
564.41	54223.19
564.57	54068.72
564.74	54052.33
564.90	53867.43
565.07	53937.65
565.23	53256.55
565.39	52725.25
565.56	52505.24
565.72	52357.78
565.88	52631.63
566.05	52882.06
566.21	53261.23
566.38	53034.20
566.54	53294.00
566.70	53654.44
566.87	53970.41
567.03	54014.88
567.19	54251.28
567.36	53975.09
567.52	53645.08
567.68	53684.87
567.85	52673.76
568.01	52287.57
568.17	52025.43
568.34	51938.83
568.50	51728.18
568.66	51962.23
568.83	52444.38
568.99	52516.94
569.15	52683.12
569.32	52804.83
569.48	52341.40
569.64	52289.91
569.81	52156.50
569.97	52105.01
570.13	51828.82
570.30	51510.51
570.46	51138.36
570.62	50454.93
570.78	49928.31
570.95	50511.10
571.11	51110.28
571.27	51454.34
571.43	51686.05
571.60	51833.50
571.76	51978.62
571.92	52444.38
572.09	52704.18
572.25	52528.64
572.41	52332.04
572.57	52442.04
572.74	52163.52
572.90	51849.89
573.06	51704.77
573.22	51875.63
573.38	51908.40
573.55	52144.80
573.71	51950.53
573.87	51683.71
574.03	51812.44
574.20	51758.61
574.36	51367.74
574.52	51229.65
574.68	50883.25
574.84	50440.89
575.01	50230.24
575.17	50024.27
575.33	50426.84
575.49	50246.62
575.65	50635.15
575.82	50597.70
575.98	50321.52
576.14	50433.86
576.30	51037.72
576.46	50834.10
576.62	50986.23
576.79	51154.75
576.95	50483.01
577.11	50663.24
577.27	50586.00
577.43	50660.90
577.59	50349.60
577.75	49799.58
577.92	49125.50
578.08	48652.72
578.24	48687.82
578.40	49305.73
578.56	49446.16
578.72	49593.61
578.88	49736.38
579.04	50141.30
579.21	49577.23
579.37	49942.35
579.53	50274.71
579.69	50169.38
579.85	50506.42
580.01	50007.89
580.17	49729.36
580.33	49652.12
580.49	49694.25
580.65	50108.53
580.82	50050.02
580.98	49958.73
581.14	49907.24
581.30	49858.09
581.46	49502.33
581.62	50087.46
581.78	50059.38
581.94	50358.97
582.10	50326.20
582.26	50244.28
582.42	49998.52
582.58	50337.90
582.74	50019.59
582.90	50251.30
583.06	50136.62
583.22	49689.57
583.38	49862.77
583.54	49860.43
583.70	49710.64
583.86	49703.62
584.02	49954.05
584.18	49918.95
584.34	49715.32
584.50	49518.71
584.66	49134.87
584.82	49261.26
584.98	48928.90
585.14	48449.09
585.30	47742.25
