SpectraSuite Data File
++++++++++++++++++++++++++++++++++++
Date: Mon Oct 07 14:54:58 GMT-05:00 2013
User: price-jones
Dark Spectrum Present: No
Reference Spectrum Present: No
Number of Sampled Component Spectra: 1
Spectrometers: USB2+H05261
Integration Time (usec): 10000 (USB2+H05261)
Spectra Averaged: 1 (USB2+H05261)
Boxcar Smoothing: 0 (USB2+H05261)
Correct for Electrical Dark: No (USB2+H05261)
Strobe/Lamp Enabled: No (USB2+H05261)
Correct for Detector Non-linearity: No (USB2+H05261)
Correct for Stray Light: No (USB2+H05261)
Number of Pixels in Processed Spectrum: 2048
>>>>>Begin Processed Spectral Data<<<<<
365.73	0.00
365.92	0.00
366.12	0.00
366.32	0.00
366.52	0.00
366.72	0.00
366.91	0.00
367.11	0.00
367.31	0.00
367.51	0.00
367.70	0.00
367.90	0.00
368.10	0.00
368.30	0.00
368.49	0.00
368.69	0.00
368.89	0.00
369.09	0.00
369.28	0.00
369.48	0.00
369.68	0.00
369.87	0.00
370.07	0.00
370.27	0.00
370.47	0.00
370.66	53.83
370.86	154.48
371.06	255.12
371.25	154.48
371.45	212.99
371.65	100.64
371.84	166.18
372.04	152.13
372.24	203.63
372.44	187.24
372.63	222.35
372.83	163.84
373.03	189.58
373.22	72.56
373.42	154.48
373.62	117.03
373.81	194.26
374.01	208.31
374.21	124.05
374.40	145.11
374.60	156.82
374.79	170.86
374.99	332.36
375.19	294.91
375.38	276.18
375.58	269.16
375.78	287.89
375.97	264.48
376.17	311.29
376.37	339.38
376.56	243.42
376.76	243.42
376.95	337.04
377.15	468.11
377.35	421.30
377.54	444.70
377.74	526.62
377.93	493.85
378.13	489.17
378.33	428.32
378.52	379.17
378.72	330.02
378.91	320.65
379.11	229.37
379.31	273.84
379.50	330.02
379.70	337.04
379.89	423.64
380.09	486.83
380.28	547.69
380.48	383.85
380.68	435.34
380.87	477.47
381.07	379.17
381.26	322.99
381.46	269.16
381.65	383.85
381.85	262.14
382.04	238.73
382.24	234.05
382.43	217.67
382.63	191.92
382.83	154.48
383.02	102.98
383.22	175.54
383.41	177.88
383.61	276.18
383.80	320.65
384.00	341.72
384.19	386.19
384.39	442.36
384.58	346.40
384.78	470.45
384.97	447.04
385.17	397.89
385.36	330.02
385.56	337.04
385.75	341.72
385.95	500.87
386.14	578.11
386.34	468.11
386.53	407.25
386.72	372.15
386.92	428.32
387.11	451.72
387.31	458.74
387.50	365.12
387.70	491.51
387.89	433.00
388.09	463.43
388.28	353.42
388.48	510.24
388.67	461.09
388.86	543.00
389.06	592.16
389.25	657.69
389.45	709.18
389.64	547.69
389.84	599.18
390.03	622.58
390.22	594.50
390.42	580.45
390.61	624.92
390.81	772.38
391.00	800.46
391.19	830.89
391.39	800.46
391.58	730.25
391.78	582.79
391.97	627.26
392.16	561.73
392.36	428.32
392.55	337.04
392.75	191.92
392.94	135.75
393.13	154.48
393.33	187.24
393.52	287.89
393.71	496.19
393.91	575.77
394.10	603.86
394.29	695.14
394.49	770.04
394.68	849.61
394.88	837.91
395.07	851.96
395.26	814.51
395.46	837.91
395.65	667.05
395.84	589.82
396.04	400.23
396.23	390.87
396.42	315.97
396.62	220.01
396.81	234.05
397.00	454.06
397.19	578.11
397.39	849.61
397.58	954.94
397.77	1034.52
397.97	1107.07
398.16	1111.75
398.35	1116.44
398.55	1128.14
398.74	1261.55
398.93	1303.68
399.12	1238.14
399.32	1179.63
399.51	1196.01
399.70	1254.53
399.90	1235.80
400.09	1095.37
400.28	1270.91
400.47	1179.63
400.67	1308.36
400.86	1427.73
401.05	1444.11
401.24	1432.41
401.44	1401.98
401.63	1416.02
401.82	1397.30
402.01	1432.41
402.21	1486.24
402.40	1474.54
402.59	1371.55
402.78	1266.23
402.97	1277.93
403.17	1355.17
403.36	1511.99
403.55	1544.75
403.74	1511.99
403.93	1418.36
404.13	1373.89
404.32	1221.76
404.51	1277.93
404.70	1383.26
404.89	1371.55
405.09	1401.98
405.28	1507.30
405.47	1432.41
405.66	1434.75
405.85	1343.47
406.05	1294.32
406.24	1376.24
406.43	1369.21
406.62	1458.15
406.81	1500.28
407.00	1387.94
407.20	1327.08
407.39	1296.66
407.58	1404.32
407.77	1497.94
407.96	1633.69
408.15	1533.05
408.34	1561.14
408.54	1633.69
408.73	1544.75
408.92	1540.07
409.11	1469.86
409.30	1483.90
409.49	1387.94
409.68	1345.81
409.87	1191.33
410.07	1289.64
410.26	1411.34
410.45	1502.62
410.64	1624.33
410.83	1703.91
411.02	1762.42
411.21	1795.19
411.40	1732.00
411.59	1696.89
411.78	1614.97
411.98	1713.27
412.17	1687.53
412.36	1645.40
412.55	1659.44
412.74	1671.14
412.93	1554.12
413.12	1675.82
413.31	1820.94
413.50	1799.87
413.69	1930.94
413.88	1722.63
414.07	1717.95
414.26	1846.68
414.45	1827.96
414.64	1781.15
414.83	1837.32
415.02	1732.00
415.22	1715.61
415.41	1825.62
415.60	1895.83
415.79	1998.82
415.98	2043.29
416.17	2017.54
416.36	1987.11
416.55	1797.53
416.74	1858.39
416.93	1785.83
417.12	1769.44
417.31	1839.66
417.50	1856.04
417.69	1933.28
417.88	1830.30
418.07	1900.52
418.26	1858.39
418.45	1919.24
418.64	1863.07
418.83	2040.95
419.02	1975.41
419.21	2003.50
419.39	1811.57
419.58	1764.76
419.77	1792.85
419.96	1902.86
420.15	1916.90
420.34	1987.11
420.53	2092.44
420.72	2157.97
420.91	2125.21
421.10	2054.99
421.29	2026.90
421.48	2136.91
421.67	2155.63
421.86	2066.69
422.05	1942.64
422.24	1631.35
422.43	1689.87
422.61	1830.30
422.80	2045.63
422.99	2043.29
423.18	2017.54
423.37	1947.33
423.56	1912.22
423.75	1898.17
423.94	1980.09
424.13	1853.70
424.32	1919.24
424.50	1872.43
424.69	1820.94
424.88	1919.24
425.07	1865.41
425.26	1790.51
425.45	1823.28
425.64	1823.28
425.83	1666.46
426.01	1870.09
426.20	2024.56
426.39	1900.52
426.58	1774.13
426.77	1647.74
426.96	1746.04
427.15	1624.33
427.33	1769.44
427.52	1909.88
427.71	1860.73
427.90	1900.52
428.09	1863.07
428.28	1863.07
428.46	1792.85
428.65	1736.68
428.84	1664.12
429.03	1799.87
429.22	1666.46
429.40	1537.73
429.59	1460.49
429.78	1186.65
429.97	1294.32
430.16	1212.40
430.34	1135.16
430.53	1181.97
430.72	1310.70
430.91	1334.11
431.10	1694.55
431.28	1935.62
431.47	2204.78
431.66	2172.02
431.85	2010.52
432.03	1839.66
432.22	1811.57
432.41	1842.00
432.60	2073.71
432.79	2097.12
432.97	2160.31
433.16	2143.93
433.35	1947.33
433.54	1792.85
433.72	1605.61
433.91	1668.80
434.10	1952.01
434.28	2029.24
434.47	2076.06
434.66	2176.70
434.85	2064.35
435.03	2022.22
435.22	2052.65
435.41	2165.00
435.59	2174.36
435.78	2251.60
435.97	2326.49
436.16	2307.77
436.34	2237.55
436.53	2200.10
436.72	2303.09
436.90	2059.67
437.09	2057.33
437.28	2101.80
437.46	2305.43
437.65	2218.83
437.84	2010.52
438.02	1863.07
438.21	1746.04
438.40	1933.28
438.58	2040.95
438.77	2136.91
438.96	2251.60
439.14	2354.58
439.33	2265.64
439.52	2328.83
439.70	2282.02
439.89	2200.10
440.08	2104.14
440.26	2181.38
440.45	2202.44
440.63	2375.64
440.82	2506.71
441.01	2450.54
441.19	2565.23
441.38	2387.35
441.57	2602.68
441.75	2555.86
441.94	2675.23
442.12	2642.46
442.31	2712.68
442.50	2560.55
442.68	2597.99
442.87	2532.46
443.05	2497.35
443.24	2719.70
443.43	2656.51
443.61	2609.70
443.80	2850.77
443.98	2583.95
444.17	2715.02
444.35	2792.26
444.54	2883.54
444.73	2663.53
444.91	2523.10
445.10	2445.86
445.28	2466.92
445.47	2324.15
445.65	2413.09
445.84	2436.50
446.02	2541.82
446.21	2567.57
446.39	2509.05
446.58	2630.76
446.77	2649.49
446.95	2661.19
447.14	2733.75
447.32	2960.78
447.51	2759.49
447.69	2558.21
447.88	2586.29
448.06	2588.63
448.25	2719.70
448.43	2771.19
448.62	2708.00
448.80	2649.49
448.99	2555.86
449.17	2705.66
449.36	2691.62
449.54	2708.00
449.73	2799.28
449.91	2743.11
450.10	2803.96
450.28	2909.29
450.46	3014.61
450.65	2895.24
450.83	2855.45
451.02	2883.54
451.20	2820.35
451.39	2843.75
451.57	2700.98
451.76	2712.68
451.94	2759.49
452.13	2768.85
452.31	2600.34
452.49	2485.65
452.68	2506.71
452.86	2485.65
453.05	2661.19
453.23	2651.83
453.42	2729.06
453.60	2792.26
453.78	2782.90
453.97	2710.34
454.15	2869.50
454.34	2590.97
454.52	2708.00
454.70	2579.27
454.89	2612.04
455.07	2715.02
455.26	2724.38
455.44	2806.30
455.62	2841.41
455.81	2972.48
455.99	2935.03
456.17	2836.73
456.36	2897.58
456.54	2895.24
456.73	3021.63
456.91	2937.37
457.09	2939.71
457.28	3108.23
457.46	2825.03
457.64	2890.56
457.83	2693.96
458.01	2747.79
458.19	2855.45
458.38	2855.45
458.56	3000.57
458.74	2876.52
458.93	2789.92
459.11	2883.54
459.29	2829.71
459.48	2787.58
459.66	2822.69
459.84	2899.92
460.03	2895.24
460.21	2878.86
460.39	2960.78
460.57	3028.65
460.76	3021.63
460.94	3033.33
461.12	3059.08
461.31	3019.29
461.49	3042.70
461.67	2946.73
461.85	3059.08
462.04	3000.57
462.22	3112.91
462.40	3204.19
462.59	3068.44
462.77	2956.10
462.95	3082.49
463.13	2787.58
463.32	2988.86
463.50	3021.63
463.68	2998.23
463.86	3000.57
464.05	2967.80
464.23	2857.79
464.41	2810.98
464.59	2750.13
464.78	2864.82
464.96	2892.90
465.14	2909.29
465.32	2881.20
465.50	2972.48
465.69	3012.27
465.87	3070.78
466.05	2928.01
466.23	2841.41
466.41	2700.98
466.60	2684.59
466.78	2747.79
466.96	2738.43
467.14	2925.67
467.32	2951.42
467.51	2974.82
467.69	2867.16
467.87	2902.26
468.05	2848.43
468.23	2904.60
468.41	2888.22
468.60	2937.37
468.78	2895.24
468.96	2834.39
469.14	3077.80
469.32	2897.58
469.50	2775.88
469.69	2876.52
469.87	2881.20
470.05	2794.60
470.23	2768.85
470.41	2722.04
470.59	2736.09
470.77	2813.32
470.95	2836.73
471.14	2937.37
471.32	3052.06
471.50	3028.65
471.68	3208.87
471.86	3251.00
472.04	3229.94
472.22	3052.06
472.40	2984.18
472.58	2925.67
472.77	2942.05
472.95	3070.78
473.13	3148.02
473.31	3033.33
473.49	3014.61
473.67	3136.32
473.85	3103.55
474.03	3094.19
474.21	3204.19
474.39	3253.34
474.57	3398.46
474.75	3197.17
474.93	3166.74
475.12	3255.69
475.30	3096.53
475.48	3248.66
475.66	3243.98
475.84	3155.04
476.02	3152.70
476.20	2998.23
476.38	3108.23
476.56	3241.64
476.74	3473.36
476.92	3400.80
477.10	3391.44
477.28	3417.18
477.46	3522.51
477.64	3426.54
477.82	3513.14
478.00	3463.99
478.18	3473.36
478.36	3442.93
478.54	3384.41
478.72	3412.50
478.90	3506.12
479.08	3630.17
479.26	3756.56
479.44	3749.54
479.62	3702.73
479.80	3618.47
479.98	3639.53
480.16	3644.21
480.34	3566.98
480.52	3822.09
480.70	3789.33
480.88	3775.28
481.06	3817.41
481.24	3878.27
481.41	3796.35
481.59	3920.40
481.77	3845.50
481.95	3936.78
482.13	3922.74
482.31	3765.92
482.49	3896.99
482.67	3777.62
482.85	4056.15
483.03	4131.05
483.21	3929.76
483.39	4081.89
483.57	4098.28
483.74	3943.80
483.92	3925.08
484.10	3941.46
484.28	4079.55
484.46	3997.64
484.64	4255.09
484.82	4098.28
485.00	3936.78
485.18	3939.12
485.35	3782.31
485.53	3445.27
485.71	3152.70
485.89	3152.70
486.07	3307.18
486.25	3630.17
486.43	3932.10
486.61	3920.40
486.78	4004.66
486.96	3978.91
487.14	4156.79
487.32	4077.21
487.50	4198.92
487.68	4201.26
487.85	4524.26
488.03	4400.21
488.21	4463.40
488.39	4215.30
488.57	4243.39
488.75	4276.16
488.92	4304.25
489.10	4760.65
489.28	4875.34
489.46	4954.91
489.64	4987.68
489.81	5025.13
489.99	4915.12
490.17	4896.40
490.35	4945.55
490.53	4910.44
490.70	4760.65
490.88	4823.84
491.06	4730.22
491.24	4968.96
491.41	4685.75
491.59	4327.65
491.77	4290.20
491.95	4498.51
492.13	4748.95
492.30	4681.07
492.48	4994.70
492.66	5266.21
492.84	5093.01
493.01	5156.20
493.19	5025.13
493.37	4945.55
493.54	4863.63
493.72	4865.97
493.90	5317.70
494.08	5413.66
494.25	5495.58
494.43	5490.90
494.61	5497.92
494.79	5481.53
494.96	5418.34
495.14	5385.57
495.32	5093.01
495.49	5102.37
495.67	5280.25
495.85	5497.92
496.02	5647.71
496.20	5678.14
496.38	5603.24
496.55	5565.79
496.73	5479.19
496.91	5455.79
497.09	5600.90
497.26	5657.07
497.44	5549.41
497.62	5357.49
497.79	5568.13
497.97	5181.95
498.14	5221.74
498.32	5287.27
498.50	5628.99
498.67	5643.03
498.85	5526.00
499.03	5621.97
499.20	5762.40
499.38	5603.24
499.56	5605.58
499.73	5434.72
499.91	5380.89
500.08	5301.31
500.26	5111.73
500.44	5390.25
500.61	5528.35
500.79	5434.72
500.97	5193.65
501.14	5109.39
501.32	5270.89
501.49	5296.63
501.67	5397.28
501.84	5366.85
502.02	5650.05
502.20	5518.98
502.37	5610.26
502.55	5483.88
502.72	5636.01
502.90	5715.59
503.07	5748.36
503.25	5544.73
503.43	5291.95
503.60	5294.29
503.78	5125.77
503.95	5385.57
504.13	5497.92
504.30	5668.78
504.48	5774.10
504.65	5675.80
504.83	5502.60
505.01	5750.70
505.18	5891.13
505.36	5949.64
505.53	5912.19
505.71	5959.00
505.88	5966.03
506.06	5743.67
506.23	5813.89
506.41	5797.51
506.58	5673.46
506.76	5731.97
506.93	5898.15
507.11	5706.23
507.28	5823.25
507.46	5692.18
507.63	5392.59
507.81	5446.43
507.98	5488.56
508.16	5734.31
508.33	5774.10
508.50	5891.13
508.68	6066.67
508.85	5928.58
509.03	6078.37
509.20	6143.91
509.38	5703.89
509.55	5628.99
509.73	5729.63
509.90	5675.80
510.08	5877.09
510.25	5788.14
510.42	5657.07
510.60	5790.49
510.77	5776.44
510.95	5900.49
511.12	5937.94
511.30	6038.58
511.47	6274.98
511.64	6043.26
511.82	5930.92
511.99	5607.92
512.17	5724.95
512.34	5673.46
512.51	5640.69
512.69	5661.76
512.86	5809.21
513.04	5942.62
513.21	5944.96
513.38	5645.37
513.56	5678.14
513.73	5334.08
513.90	5551.75
514.08	5521.32
514.25	5717.93
514.43	5659.42
514.60	5551.75
514.77	5762.40
514.95	5703.89
515.12	5617.29
515.29	5764.74
515.47	5792.83
515.64	5937.94
515.81	5678.14
515.99	5605.58
516.16	5364.51
516.33	4896.40
516.51	4760.65
516.68	4652.98
516.85	4451.70
517.03	4688.09
517.20	4959.60
517.37	5439.40
517.54	5680.48
517.72	5610.26
517.89	4992.36
518.06	4662.35
518.24	4819.16
518.41	5067.26
518.58	5404.30
518.75	5394.93
518.93	5427.70
519.10	5439.40
519.27	5528.35
519.45	5729.63
519.62	5570.48
519.79	5788.14
519.96	5788.14
520.14	5582.18
520.31	5343.44
520.48	5528.35
520.65	5291.95
520.83	5589.20
521.00	5654.73
521.17	5860.70
521.34	5774.10
521.52	5654.73
521.69	5753.04
521.86	5760.06
522.03	5935.60
522.20	5626.65
522.38	5420.68
522.55	5390.25
522.72	5495.58
522.89	5500.26
523.07	5678.14
523.24	5636.01
523.41	5753.04
523.58	5884.11
523.75	5935.60
523.92	6012.84
524.10	5944.96
524.27	5909.85
524.44	5853.68
524.61	5933.26
524.78	5760.06
524.96	5830.27
525.13	5762.40
525.30	5863.04
525.47	6038.58
525.64	5912.19
525.81	5809.21
525.98	5371.53
526.16	5057.90
526.33	4990.02
526.50	4992.36
526.67	4992.36
526.84	5116.41
527.01	5107.05
527.18	5280.25
527.36	5682.82
527.53	5628.99
527.70	5734.31
527.87	5664.10
528.04	5699.20
528.21	5706.23
528.38	5729.63
528.55	5914.53
528.72	6085.39
528.89	6087.73
529.07	5877.09
529.24	5872.40
529.41	5558.77
529.58	5509.62
529.75	5493.24
529.92	5694.52
530.09	5790.49
530.26	5771.76
530.43	5891.13
530.60	6026.88
530.77	5914.53
530.94	6073.69
531.11	5921.56
531.28	5809.21
531.46	5762.40
531.63	5884.11
531.80	5762.40
531.97	5650.05
532.14	5612.60
532.31	5390.25
532.48	5006.41
532.65	5296.63
532.82	5200.67
532.99	5528.35
533.16	5563.45
533.33	5823.25
533.50	5816.23
533.67	5556.43
533.84	5593.88
534.01	5621.97
534.18	5633.67
534.35	5654.73
534.52	5483.88
534.69	5607.92
534.86	5558.77
535.03	5664.10
535.20	5914.53
535.37	5919.21
535.54	5820.91
535.71	5914.53
535.88	5907.51
536.05	5750.70
536.22	5537.71
536.38	5600.90
536.55	5418.34
536.72	5289.61
536.89	5294.29
537.06	5467.49
537.23	5678.14
537.40	5727.29
537.57	5802.19
537.74	5661.76
537.91	5715.59
538.08	5591.54
538.25	5692.18
538.42	5781.12
538.59	5605.58
538.75	5526.00
538.92	5455.79
539.09	5240.46
539.26	5479.19
539.43	5350.46
539.60	5294.29
539.77	5376.21
539.94	5378.55
540.11	5254.50
540.28	4959.60
540.44	5132.79
540.61	5144.50
540.78	5245.14
540.95	5179.61
541.12	5352.81
541.29	5568.13
541.46	5497.92
541.62	5586.86
541.79	5600.90
541.96	5275.57
542.13	5376.21
542.30	5425.36
542.47	5465.15
542.63	5252.16
542.80	5284.93
542.97	5163.22
543.14	5228.76
543.31	5322.38
543.48	5425.36
543.64	5486.22
543.81	5664.10
543.98	5738.99
544.15	5376.21
544.32	5198.33
544.48	5263.86
544.65	5432.38
544.82	5444.09
544.99	5425.36
545.16	5420.68
545.32	5441.75
545.49	5575.16
545.66	5458.13
545.83	5441.75
546.00	5394.93
546.16	5404.30
546.33	5280.25
546.50	5357.49
546.67	5327.06
546.83	5420.68
547.00	5181.95
547.17	5228.76
547.34	5121.09
547.50	5111.73
547.67	5249.82
547.84	5256.84
548.00	5378.55
548.17	5387.91
548.34	5345.78
548.51	5313.02
548.67	5427.70
548.84	5331.74
549.01	5249.82
549.18	5135.14
549.34	5308.34
549.51	5338.76
549.68	5242.80
549.84	5284.93
550.01	5303.65
550.18	5174.92
550.34	5090.67
550.51	5376.21
550.68	5266.21
550.84	5020.45
551.01	5191.31
551.18	5231.10
551.34	5177.26
551.51	5352.81
551.68	5305.99
551.84	5249.82
552.01	5371.53
552.18	5235.78
552.34	5001.72
552.51	5057.90
552.68	5025.13
552.84	5116.41
553.01	5135.14
553.18	5057.90
553.34	5121.09
553.51	5022.79
553.67	5226.42
553.84	5362.17
554.01	5291.95
554.17	5221.74
554.34	5254.50
554.51	5198.33
554.67	5387.91
554.84	5210.03
555.00	5270.89
555.17	5102.37
555.33	5125.77
555.50	5130.45
555.67	5203.01
555.83	5198.33
556.00	4985.34
556.16	4896.40
556.33	4954.91
556.50	4952.57
556.66	4908.10
556.83	4812.14
556.99	4894.06
557.16	4980.66
557.32	5146.84
557.49	5060.24
557.65	5118.75
557.82	5001.72
557.98	5085.98
558.15	5095.35
558.32	4744.27
558.48	4606.17
558.65	4606.17
558.81	4657.67
558.98	4798.10
559.14	4884.70
559.31	4748.95
559.47	4795.76
559.64	4676.39
559.80	4755.97
559.97	4573.41
560.13	4627.24
560.30	4861.29
560.46	5170.24
560.63	5043.85
560.79	5013.43
560.96	4880.02
561.12	4727.88
561.29	4627.24
561.45	4545.32
561.61	4823.84
561.78	4858.95
561.94	4699.80
562.11	4678.73
562.27	4589.79
562.44	4688.09
562.60	4861.29
562.77	4741.93
562.93	4802.78
563.10	4880.02
563.26	4826.18
563.42	4807.46
563.59	4617.88
563.75	4854.27
563.92	4781.71
564.08	4669.37
564.24	4777.03
564.41	4762.99
564.57	4662.35
564.74	4652.98
564.90	4559.36
565.07	4739.58
565.23	4622.56
565.39	4542.98
565.56	4533.62
565.72	4454.04
565.88	4519.57
566.05	4603.83
566.21	4589.79
566.38	4531.28
566.54	4470.42
566.70	4662.35
566.87	4695.11
567.03	4582.77
567.19	4716.18
567.36	4528.94
567.52	4589.79
567.68	4606.17
567.85	4322.97
568.01	4418.93
568.17	4552.34
568.34	4337.01
568.50	4351.06
568.66	4418.93
568.83	4585.11
568.99	4444.68
569.15	4444.68
569.32	4489.15
569.48	4341.69
569.64	4510.21
569.81	4425.95
569.97	4339.35
570.13	4320.63
570.30	4409.57
570.46	4194.24
570.62	4119.34
570.78	4121.68
570.95	4114.66
571.11	4287.86
571.27	4257.43
571.43	4241.05
571.60	4388.50
571.76	4491.49
571.92	4447.02
572.09	4458.72
572.25	4416.59
572.41	4557.02
572.57	4505.53
572.74	4458.72
572.90	4344.03
573.06	4519.57
573.22	4402.55
573.38	4287.86
573.55	4435.32
573.71	4255.09
573.87	4348.72
574.03	4367.44
574.20	4278.50
574.36	4292.54
574.52	4049.13
574.68	4154.45
574.84	4133.39
575.01	4166.15
575.17	4074.87
575.33	4119.34
575.49	4131.05
575.65	4156.79
575.82	4208.28
575.98	4203.60
576.14	4100.62
576.30	4093.60
576.46	4390.84
576.62	4236.37
576.79	4264.46
576.95	4109.98
577.11	4124.02
577.27	4140.41
577.43	4215.30
577.59	4149.77
577.75	4264.46
577.92	4007.00
578.08	3939.12
578.24	3871.25
578.40	4168.49
578.56	4056.15
578.72	4011.68
578.88	4095.94
579.04	4053.81
579.21	4023.38
579.37	4039.76
579.53	4077.21
579.69	3992.95
579.85	4236.37
580.01	4114.66
580.17	3955.51
580.33	3969.55
580.49	3922.74
580.65	4121.68
580.82	4011.68
580.98	4086.58
581.14	4147.43
581.30	4065.51
581.46	4056.15
581.62	3990.61
581.78	4142.75
581.94	4011.68
582.10	4126.36
582.26	4032.74
582.42	4037.42
582.58	4121.68
582.74	4065.51
582.90	4102.96
583.06	4030.40
583.22	4058.49
583.38	4072.53
583.54	4159.13
583.70	4105.30
583.86	4074.87
584.02	3920.40
584.18	4128.70
584.34	3969.55
584.50	4037.42
584.66	3943.80
584.82	3948.48
584.98	3939.12
585.14	3803.37
585.30	3784.65
585.46	3726.13
585.62	3777.62
585.78	3754.22
585.94	3850.18
586.10	3969.55
586.26	3974.23
586.42	4011.68
586.58	3850.18
586.74	3873.59
586.90	3831.46
587.06	3854.86
587.22	3875.93
587.38	3775.28
587.54	3889.97
587.70	3815.07
587.86	3733.15
588.02	3754.22
588.18	3714.43
588.34	3473.36
588.49	3283.77
588.65	3248.66
588.81	3274.41
588.97	3239.30
589.13	3115.25
589.29	3232.28
589.45	3208.87
589.61	3234.62
589.77	3492.08
589.93	3438.25
590.08	3625.49
590.24	3779.97
590.40	3548.25
590.56	3763.58
590.72	3698.05
590.88	3543.57
591.04	3557.61
591.20	3517.83
591.35	3662.94
591.51	3517.83
591.67	3684.00
591.83	3559.95
591.99	3475.70
592.15	3557.61
592.31	3543.57
592.46	3669.96
592.62	3517.83
592.78	3576.34
592.94	3501.44
593.10	3513.14
593.26	3634.85
593.41	3611.45
593.57	3564.64
593.73	3478.04
593.89	3489.74
594.05	3454.63
594.20	3494.42
594.36	3339.94
594.52	3372.71
594.68	3370.37
594.84	3435.91
594.99	3370.37
595.15	3576.34
595.31	3679.32
595.47	3419.52
595.62	3414.84
595.78	3595.06
595.94	3770.60
596.10	3592.72
596.25	3534.21
596.41	3463.99
596.57	3426.54
596.73	3536.55
596.88	3595.06
597.04	3426.54
597.20	3314.20
597.36	3407.82
597.51	3494.42
597.67	3653.58
597.83	3382.07
597.99	3428.88
