SpectraSuite Data File
++++++++++++++++++++++++++++++++++++
Date: Mon Oct 07 14:55:02 GMT-05:00 2013
User: price-jones
Dark Spectrum Present: No
Reference Spectrum Present: No
Number of Sampled Component Spectra: 1
Spectrometers: USB2+H05261
Integration Time (usec): 10000 (USB2+H05261)
Spectra Averaged: 1 (USB2+H05261)
Boxcar Smoothing: 0 (USB2+H05261)
Correct for Electrical Dark: No (USB2+H05261)
Strobe/Lamp Enabled: No (USB2+H05261)
Correct for Detector Non-linearity: No (USB2+H05261)
Correct for Stray Light: No (USB2+H05261)
Number of Pixels in Processed Spectrum: 2048
>>>>>Begin Processed Spectral Data<<<<<
365.73	0.00
365.92	0.00
366.12	0.00
366.32	0.00
366.52	0.00
366.72	0.00
366.91	0.00
367.11	0.00
367.31	0.00
367.51	0.00
367.70	0.00
367.90	0.00
368.10	0.00
368.30	0.00
368.49	0.00
368.69	0.00
368.89	0.00
369.09	0.00
369.28	0.00
369.48	0.00
369.68	0.00
369.87	0.00
370.07	0.00
370.27	0.00
370.47	400.23
370.66	2729.06
370.86	3178.45
371.06	3412.50
371.25	3358.67
371.45	3070.78
371.65	2874.18
371.84	2581.61
372.04	2860.13
372.24	3117.59
372.44	3265.05
372.63	3082.49
372.83	2796.94
373.03	2527.78
373.22	2345.22
373.42	2562.89
373.62	3042.70
373.81	3112.91
374.01	3126.96
374.21	2654.17
374.40	2696.30
374.60	2789.92
374.79	3262.71
374.99	3932.10
375.19	3805.71
375.38	3880.61
375.58	3693.37
375.78	3562.30
375.97	3791.67
376.17	3709.75
376.37	3812.73
376.56	4023.38
376.76	4175.52
376.95	4561.70
377.15	4828.53
377.35	4898.74
377.54	5172.58
377.74	5188.97
377.93	5188.97
378.13	4985.34
378.33	4683.41
378.52	4411.91
378.72	4212.96
378.91	4238.71
379.11	4056.15
379.31	3829.12
379.50	4018.70
379.70	4337.01
379.89	4865.97
380.09	4880.02
380.28	5125.77
380.48	5020.45
380.68	5067.26
380.87	4678.73
381.07	4547.66
381.26	4109.98
381.46	3819.75
381.65	3868.91
381.85	3653.58
382.04	3431.23
382.24	3133.98
382.43	3150.36
382.63	3070.78
382.83	3087.17
383.02	2939.71
383.22	3030.99
383.41	3047.38
383.61	3363.35
383.80	4030.40
384.00	4500.85
384.19	4847.25
384.39	5228.76
384.58	5174.92
384.78	4884.70
384.97	5043.85
385.17	4528.94
385.36	4341.69
385.56	4224.67
385.75	4599.15
385.95	5050.88
386.14	5284.93
386.34	5268.55
386.53	4926.83
386.72	4823.84
386.92	4910.44
387.11	5224.08
387.31	5327.06
387.50	5423.02
387.70	5050.88
387.89	5088.32
388.09	5027.47
388.28	5034.49
388.48	5298.97
388.67	5750.70
388.86	6078.37
389.06	6644.78
389.25	6925.65
389.45	7016.93
389.64	6782.87
389.84	6726.70
390.03	6801.60
390.22	6766.49
390.42	7250.98
390.61	7719.09
390.81	7899.31
391.00	8250.39
391.19	8058.46
391.39	7843.14
391.58	7265.02
391.78	6920.96
391.97	6506.69
392.16	6305.40
392.36	5294.29
392.55	4301.90
392.75	3463.99
392.94	2895.24
393.13	3014.61
393.33	3847.84
393.52	4744.27
393.71	5713.25
393.91	6310.08
394.10	6911.60
394.29	7592.70
394.49	8252.73
394.68	8657.64
394.88	8601.47
395.07	8671.68
395.26	8791.05
395.46	8430.61
395.65	7634.83
395.84	6600.31
396.04	5603.24
396.23	4524.26
396.42	3721.45
396.62	3908.69
396.81	4933.85
397.00	6223.48
397.19	7969.52
397.39	9163.20
397.58	10167.29
397.77	10413.04
397.97	10822.64
398.16	10853.06
398.35	11360.96
398.55	11676.93
398.74	12306.54
398.93	12496.12
399.12	12428.24
399.32	11782.26
399.51	12077.16
399.70	12844.86
399.90	12496.12
400.09	12437.61
400.28	12273.77
400.47	12929.12
400.67	13415.95
400.86	13469.78
401.05	13582.13
401.24	13720.22
401.44	13919.17
401.63	13996.40
401.82	14015.13
402.01	14040.87
402.21	14242.16
402.40	14324.08
402.59	13577.45
402.78	12816.77
402.97	13128.06
403.17	13610.22
403.36	14445.79
403.55	14747.72
403.74	14995.81
403.93	14387.27
404.13	13034.44
404.32	13153.81
404.51	13703.84
404.70	14595.58
404.89	14494.94
405.09	14214.07
405.28	14118.11
405.47	13977.68
405.66	14083.00
405.85	13486.17
406.05	13151.47
406.24	13598.51
406.43	14293.65
406.62	14560.47
406.81	14595.58
407.00	14115.77
407.20	13764.69
407.39	14012.79
407.58	14902.19
407.77	15449.88
407.96	15756.49
408.15	15969.48
408.34	16362.69
408.54	16596.74
408.73	16418.86
408.92	16468.01
409.11	15852.45
409.30	15105.82
409.49	14005.77
409.68	13217.01
409.87	13146.79
410.07	14368.55
410.26	15166.67
410.45	15859.47
410.64	16346.30
410.83	16697.38
411.02	17301.24
411.21	17490.82
411.40	17397.20
411.59	17902.76
411.78	17888.71
411.98	17535.29
412.17	17795.09
412.36	17514.23
412.55	17509.55
412.74	17064.85
412.93	16938.46
413.12	17418.27
413.31	18927.91
413.50	19026.21
413.69	19075.37
413.88	18253.84
414.07	17958.93
414.26	18684.50
414.45	18883.44
414.64	18625.98
414.83	18567.47
415.02	18384.91
415.22	18448.10
415.41	19183.03
415.60	19765.82
415.79	20219.89
415.98	20723.10
416.17	20570.97
416.36	19992.86
416.55	19475.60
416.74	18892.80
416.93	18616.62
417.12	18693.86
417.31	19007.49
417.50	19396.02
417.69	19873.49
417.88	19536.45
418.07	19681.56
418.26	19496.66
418.45	19742.42
418.64	20713.74
418.83	21247.38
419.02	20688.00
419.21	19861.79
419.39	19454.53
419.58	18956.00
419.77	18775.78
419.96	20006.90
420.15	20994.61
420.34	21750.60
420.53	22075.93
420.72	22558.08
420.91	22513.61
421.10	21500.16
421.29	21467.39
421.48	21076.52
421.67	22501.91
421.86	21043.76
422.05	19194.73
422.24	17963.61
422.43	18974.72
422.61	21015.67
422.80	21582.08
422.99	20943.11
423.18	20121.59
423.37	20505.43
423.56	20568.63
423.75	21179.51
423.94	21549.31
424.13	20107.54
424.32	19988.18
424.50	19932.00
424.69	20575.65
424.88	20643.52
425.07	20142.65
425.26	20566.29
425.45	19616.03
425.64	19545.81
425.83	19733.06
426.01	20798.00
426.20	20971.20
426.39	20910.35
426.58	19250.91
426.77	17937.87
426.96	17961.27
427.15	18663.43
427.33	20098.18
427.52	20411.81
427.71	20526.50
427.90	20545.22
428.09	20332.23
428.28	19515.39
428.46	18703.22
428.65	18633.00
428.84	19442.83
429.03	19314.10
429.22	18457.46
429.40	17060.16
429.59	15445.20
429.78	14097.05
429.97	14354.51
430.16	14204.71
430.34	14143.86
430.53	14511.32
430.72	15428.81
430.91	17142.08
431.10	19985.83
431.28	23073.00
431.47	24774.57
431.66	24100.50
431.85	21649.96
432.03	20149.67
432.22	20013.92
432.41	21727.19
432.60	23241.52
432.79	23564.51
432.97	24081.77
433.16	23501.32
433.35	21018.01
433.54	19028.56
433.72	18373.21
433.91	19641.78
434.10	21972.95
434.28	22918.53
434.47	24105.18
434.66	23185.35
434.85	22780.43
435.03	23283.65
435.22	23417.06
435.41	24884.58
435.59	25247.36
435.78	25020.33
435.97	25797.38
436.16	25652.27
436.34	25226.29
436.53	24849.47
436.72	25165.44
436.90	23761.12
437.09	23723.67
437.28	23206.41
437.46	24299.44
437.65	23866.44
437.84	21837.20
438.02	20793.32
438.21	21238.02
438.40	21579.74
438.58	23332.80
438.77	24430.51
438.96	24594.35
439.14	25902.71
439.33	26361.45
439.52	26389.54
439.70	25413.54
439.89	24882.24
440.08	24568.60
440.26	24671.59
440.45	25862.92
440.63	27510.66
440.82	28056.00
441.01	27487.25
441.19	27562.15
441.38	28187.07
441.57	29446.28
441.75	29156.05
441.94	29766.93
442.12	29570.33
442.31	30309.94
442.50	30192.91
442.68	29443.94
442.87	29584.37
443.05	28676.24
443.24	29460.32
443.43	30319.30
443.61	30452.71
443.80	31063.59
443.98	29586.71
444.17	28856.46
444.35	30658.68
444.54	31796.18
444.73	30450.37
444.91	29516.50
445.10	28601.35
445.28	27398.31
445.47	27222.77
445.65	27517.68
445.84	28346.23
446.02	28711.35
446.21	29565.65
446.39	29469.69
446.58	30052.48
446.77	31065.93
446.95	30824.86
447.14	31489.57
447.32	32350.88
447.51	31585.53
447.69	29900.34
447.88	30246.74
448.06	30581.44
448.25	30761.66
448.43	30686.76
448.62	30417.60
448.80	30127.38
448.99	30457.39
449.17	31012.10
449.36	31232.11
449.54	31494.25
449.73	32748.78
449.91	33139.65
450.10	34141.39
450.28	34326.30
450.46	34419.92
450.65	34536.94
450.83	33715.42
451.02	33273.06
451.20	32723.03
451.39	33083.47
451.57	33132.62
451.76	33273.06
451.94	32460.89
452.13	31728.30
452.31	30080.56
452.49	29134.99
452.68	29331.59
452.86	30024.39
453.05	30771.02
453.23	31538.72
453.42	31995.12
453.60	33020.28
453.78	32781.54
453.97	32266.63
454.15	31997.46
454.34	31166.57
454.52	31199.34
454.70	31173.60
454.89	31821.92
455.07	31728.30
455.26	32039.59
455.44	33268.37
455.62	33696.69
455.81	33802.02
455.99	33900.32
456.17	34022.03
456.36	34478.43
456.54	34754.61
456.73	34717.17
456.91	34553.33
457.09	34850.58
457.28	36065.31
457.46	34115.65
457.64	33858.19
457.83	33085.81
458.01	32701.96
458.19	34281.83
458.38	34644.61
458.56	35297.62
458.74	34808.45
458.93	33624.14
459.11	33387.74
459.29	33137.30
459.48	34244.38
459.66	33668.61
459.84	33736.48
460.03	34394.17
460.21	35131.44
460.39	36030.21
460.57	35367.84
460.76	34958.24
460.94	35903.82
461.12	35875.73
461.31	35662.74
461.49	35852.33
461.67	35475.50
461.85	36582.57
462.04	36285.33
462.22	36563.85
462.40	36280.64
462.59	36154.26
462.77	36025.53
462.95	36182.34
463.13	35878.07
463.32	35407.62
463.50	35021.44
463.68	35541.03
463.86	35730.62
464.05	34888.03
464.23	34361.40
464.41	34534.60
464.59	34232.68
464.78	35456.78
464.96	34714.83
465.14	34026.71
465.32	35845.30
465.50	37216.86
465.69	37439.21
465.87	36121.49
466.05	35236.77
466.23	33380.72
466.41	32947.72
466.60	34054.79
466.78	33860.53
466.96	34534.60
467.14	35168.89
467.32	35072.93
467.51	35206.34
467.69	34127.35
467.87	34675.04
468.05	35880.41
468.23	35124.42
468.41	34986.33
468.60	35288.26
468.78	36212.77
468.96	35739.98
469.14	36282.98
469.32	36591.94
469.50	34541.63
469.69	34862.28
469.87	34321.62
470.05	34572.05
470.23	34167.14
470.41	34403.53
470.59	35503.59
470.77	35236.77
470.95	35819.56
471.14	36528.74
471.32	36882.16
471.50	38429.26
471.68	38443.30
471.86	38911.41
472.04	38663.31
472.22	39159.50
472.40	37567.94
472.58	36924.29
472.77	36421.08
472.95	37223.88
473.13	38504.15
473.31	36671.51
473.49	37198.13
473.67	38256.06
473.85	38686.71
474.03	39768.04
474.21	40156.57
474.39	40175.30
474.57	40116.78
474.75	40201.04
474.93	39269.51
475.12	38855.23
475.30	39285.89
475.48	38518.20
475.66	38698.42
475.84	38188.18
476.02	38714.80
476.20	38082.86
476.38	38965.24
476.56	40886.82
476.74	40966.40
476.92	41057.68
477.10	41097.47
477.28	42314.55
477.46	42670.31
477.64	43086.92
477.82	43323.32
478.00	43402.89
478.18	42281.78
478.36	41862.82
478.54	42412.85
478.72	42717.12
478.90	44648.06
479.08	46274.73
479.26	45839.39
479.44	46216.22
479.62	45258.94
479.80	46113.23
479.98	45397.03
480.16	45930.67
480.34	45390.01
480.52	46513.47
480.70	46630.49
480.88	45848.75
481.06	47257.76
481.24	47311.59
481.41	48072.26
481.59	48964.01
481.77	47803.10
481.95	47370.10
482.13	47199.24
482.31	47880.34
482.49	48243.12
482.67	47728.20
482.85	47969.28
483.03	48009.07
483.21	49305.73
483.39	48751.02
483.57	48399.94
483.74	48945.28
483.92	49291.68
484.10	48615.27
484.28	49045.93
484.46	48978.05
484.64	50841.12
484.82	49602.97
485.00	48893.79
485.18	48458.45
485.35	46052.38
485.53	40950.01
485.71	38752.25
485.89	39295.25
486.07	42328.59
486.25	44907.86
486.43	47419.25
486.61	47728.20
486.78	47297.55
486.96	48706.55
487.14	49694.25
487.32	50351.94
487.50	51388.80
487.68	52388.21
487.85	53148.88
488.03	52493.54
488.21	51941.17
488.39	51711.80
488.57	50438.54
488.75	50380.03
488.92	52072.24
489.10	53736.36
489.28	54410.43
489.46	55547.93
489.64	55407.50
489.81	55749.22
489.99	54492.35
490.17	55241.32
490.35	55260.05
490.53	54974.50
490.70	54578.95
490.88	54401.07
491.06	55648.58
491.24	55929.44
491.41	54728.75
491.59	52968.66
491.77	53361.87
491.95	54394.05
492.13	55718.79
492.30	56095.62
492.48	56882.04
492.66	57216.74
492.84	56809.48
493.01	56378.82
493.19	56306.27
493.37	55835.82
493.54	56203.28
493.72	57200.35
493.90	57544.41
494.08	57724.63
494.25	58000.82
494.43	58375.30
494.61	58787.24
494.79	58740.42
494.96	58913.62
495.14	58539.14
495.32	57350.15
495.49	57591.22
495.67	58504.03
495.85	59318.54
496.02	59653.23
496.20	59269.39
496.38	58908.94
496.55	58700.64
496.73	59657.91
496.91	59767.92
497.09	59606.42
497.26	60196.24
497.44	59465.99
497.62	58822.34
497.79	57996.13
497.97	57069.28
498.14	58031.24
498.32	59016.61
498.50	59082.14
498.67	58918.31
498.85	59442.59
499.03	59957.50
499.20	60095.60
499.38	59505.78
499.56	58859.79
499.73	58803.62
499.91	58529.78
500.08	57886.13
500.26	57352.49
500.44	58550.84
500.61	58990.86
500.79	58511.05
500.97	58618.72
501.14	57708.25
501.32	57279.93
501.49	57815.91
501.67	58326.15
501.84	58358.92
502.02	58901.92
502.20	59697.70
502.37	59671.96
502.55	59756.22
502.72	60376.46
502.90	60781.37
503.07	60418.59
503.25	59260.02
503.43	58445.52
503.60	58155.29
503.78	58099.12
503.95	58445.52
504.13	59660.26
504.30	60065.17
504.48	59330.24
504.65	59608.76
504.83	59686.00
505.01	60659.66
505.18	60891.38
505.36	60949.89
505.53	61162.88
505.71	61249.48
505.88	61441.40
506.06	60879.67
506.23	60514.55
506.41	60540.30
506.58	60683.07
506.76	60802.44
506.93	60067.51
507.11	60097.94
507.28	60151.77
507.46	59543.23
507.63	59781.96
507.81	59009.59
507.98	59590.04
508.16	60921.80
508.33	60764.99
508.50	60748.60
508.68	61270.54
508.85	61567.79
509.03	61623.96
509.20	61043.51
509.38	60165.81
509.55	60261.77
509.73	60453.70
509.90	60629.24
510.08	60781.37
510.25	60324.97
510.42	60544.98
510.60	60645.62
510.77	60999.04
510.95	60860.95
511.12	61511.62
511.30	62092.07
511.47	62361.23
511.64	61972.70
511.82	62089.73
511.99	60987.34
512.17	61006.06
512.34	60364.76
512.51	60556.68
512.69	61284.59
512.86	60678.39
513.04	61148.84
513.21	60514.55
513.38	59828.77
513.56	59561.95
513.73	59278.75
513.90	59915.37
514.08	60004.31
514.25	59906.01
514.43	60411.57
514.60	60680.73
514.77	60750.94
514.95	60863.29
515.12	60612.85
515.29	61151.18
515.47	61684.82
515.64	61518.64
515.81	61207.35
515.99	59884.95
516.16	58550.84
516.33	56516.92
516.51	56261.80
516.68	54993.23
516.85	54164.68
517.03	56023.06
517.20	58363.60
517.37	60203.26
517.54	60977.98
517.72	59395.77
517.89	56603.52
518.06	55264.73
518.24	56697.14
518.41	58756.81
518.58	59653.23
518.75	59662.60
518.93	59629.83
519.10	58981.50
519.27	60205.60
519.45	60584.77
519.62	61071.60
519.79	61279.91
519.96	60523.91
520.14	60467.74
520.31	59107.89
520.48	59477.69
520.65	60420.93
520.83	61481.19
521.00	61396.93
521.17	60725.20
521.34	60708.82
521.52	61139.47
521.69	61546.73
521.86	61783.12
522.03	61593.54
522.20	60289.86
522.38	59594.72
522.55	60111.98
522.72	60537.96
522.89	59920.05
523.07	60874.99
523.24	61132.45
523.41	62141.22
523.58	62080.37
523.75	62190.37
523.92	62190.37
524.10	61928.23
524.27	61560.77
524.44	61513.96
524.61	60793.07
524.78	61474.17
524.96	61670.78
525.13	61240.12
525.30	62124.84
525.47	62321.44
525.64	62134.20
525.81	61333.74
525.98	59601.74
526.16	58450.20
526.33	58611.70
526.50	57902.51
526.67	58047.63
526.84	58408.07
527.01	59583.02
527.18	59962.18
527.36	60732.22
527.53	61740.99
527.70	61247.14
527.87	59929.42
528.04	60884.36
528.21	61286.93
528.38	61977.39
528.55	62768.49
528.72	62295.70
528.89	61970.36
529.07	61956.32
529.24	60910.10
529.41	60453.70
529.58	60446.68
529.75	61687.16
529.92	61673.12
530.09	61670.78
530.26	62157.61
530.43	62948.71
530.60	61953.98
530.77	62583.58
530.94	62738.06
531.11	61677.80
531.28	61886.10
531.46	62010.15
531.63	62035.90
531.80	61483.53
531.97	60921.80
532.14	60879.67
532.31	59454.29
532.48	58962.78
532.65	59508.12
532.82	59800.69
532.99	61457.79
533.16	61415.66
533.33	61656.73
533.50	61794.82
533.67	61645.03
533.84	60947.55
534.01	61457.79
534.18	61352.46
534.35	61137.13
534.52	60463.06
534.69	61331.40
534.86	61733.97
535.03	61792.48
535.20	61680.14
535.37	62583.58
535.54	62630.40
535.71	62415.07
535.88	62604.65
536.05	61399.27
536.22	60781.37
536.38	60729.88
536.55	59985.59
536.72	59636.85
536.89	60331.99
537.06	60507.53
537.23	61076.28
537.40	60809.46
537.57	60446.68
537.74	61111.39
537.91	61052.87
538.08	61195.65
538.25	60982.66
538.42	61883.76
538.59	61242.46
538.75	60498.17
538.92	59868.56
539.09	60168.15
539.26	60130.70
539.43	60093.25
539.60	59915.37
539.77	60729.88
539.94	60250.07
540.11	59667.28
540.28	59437.90
540.44	59011.93
540.61	59018.95
540.78	59643.87
540.95	60554.34
541.12	60205.60
541.29	60870.31
541.46	60870.31
541.62	61265.86
541.79	60456.04
541.96	59721.11
542.13	60062.83
542.30	59803.03
542.47	60519.23
542.63	60289.86
542.80	60151.77
542.97	59707.07
543.14	59585.36
543.31	59910.69
543.48	60652.64
543.64	61069.26
543.81	62003.13
543.98	61860.36
544.15	60395.18
544.32	60842.23
544.48	60495.83
544.65	60437.31
544.82	60952.23
544.99	59639.19
545.16	59341.94
545.32	59826.43
545.49	60179.85
545.66	60313.26
545.83	60119.00
546.00	60757.97
546.16	60577.75
546.33	60315.61
546.50	60427.95
546.67	60886.70
546.83	60238.37
547.00	60669.03
547.17	59367.69
547.34	58848.09
547.50	58621.06
547.67	59700.04
547.84	60645.62
548.00	60601.15
548.17	60147.09
548.34	60498.17
548.51	60837.54
548.67	60662.00
548.84	60743.92
549.01	60809.46
549.18	60111.98
549.34	60324.97
549.51	60484.12
549.68	60753.29
549.84	60018.36
550.01	59683.66
550.18	59437.90
550.34	59554.93
550.51	60016.02
550.68	60327.31
550.84	60072.19
551.01	59337.26
551.18	59484.72
551.34	58951.07
551.51	60247.73
551.68	60254.75
551.84	60453.70
552.01	60154.11
552.18	59601.74
552.34	59133.63
552.51	58965.12
552.68	58812.98
552.84	59072.78
553.01	59133.63
553.18	59695.36
553.34	59903.67
553.51	59763.24
553.67	59704.73
553.84	59697.70
554.01	60079.21
554.17	59353.65
554.34	59779.62
554.51	59704.73
554.67	58958.09
554.84	59285.77
555.00	58883.20
555.17	59175.76
555.33	58883.20
555.50	58515.73
555.67	59330.24
555.83	59442.59
556.00	58948.73
556.16	58967.46
556.33	58183.38
556.50	58834.05
556.66	58658.51
556.83	58356.58
556.99	58279.34
557.16	58733.40
557.32	58410.41
557.49	58691.27
557.65	58642.12
557.82	58869.15
557.98	59145.34
558.15	57991.45
558.32	57474.20
558.48	56999.07
558.65	57083.33
558.81	57427.38
558.98	58169.33
559.14	58398.71
559.31	58021.88
559.47	57691.86
559.64	57858.04
559.80	57041.20
559.97	57834.64
560.13	58475.94
560.30	59327.90
560.46	59784.30
560.63	60030.06
560.79	59611.10
560.96	59171.08
561.12	57741.02
561.29	57609.95
561.45	57301.00
561.61	58656.17
561.78	57930.60
561.94	58513.39
562.11	58335.51
562.27	57553.77
562.44	58585.95
562.60	58925.33
562.77	59018.95
562.93	58026.56
563.10	57874.43
563.26	58068.69
563.42	58653.82
563.59	57909.53
563.75	57806.55
563.92	57623.99
564.08	57158.22
564.24	58138.91
564.41	57546.75
564.57	58438.50
564.74	57982.09
564.90	57467.17
565.07	57275.25
565.23	56280.52
565.39	56004.34
565.56	56505.21
565.72	56830.55
565.88	55732.84
566.05	57607.61
566.21	57869.75
566.38	57602.92
566.54	57462.49
566.70	58298.06
566.87	57722.29
567.03	57324.40
567.19	58522.76
567.36	58766.17
567.52	57403.98
567.68	56821.19
567.85	56530.96
568.01	56509.89
568.17	56828.21
568.34	56910.13
568.50	56811.82
568.66	56449.04
568.83	56254.78
568.99	55948.17
569.15	56411.59
569.32	56406.91
569.48	56264.14
569.64	55962.21
569.81	56044.13
569.97	55796.03
570.13	55096.21
570.30	54937.05
570.46	54113.19
570.62	53549.12
570.78	53951.69
570.95	54953.44
571.11	54946.42
571.27	54614.06
571.43	54869.18
571.60	54541.50
571.76	55681.34
571.92	56074.55
572.09	56547.34
572.25	56456.06
572.41	56587.13
572.57	56322.65
572.74	56500.53
572.90	57680.16
573.06	56818.84
573.22	56912.47
573.38	56652.67
573.55	57705.91
573.71	56259.46
573.87	56427.98
574.03	56636.28
574.20	56039.45
574.36	56079.24
574.52	55103.23
574.68	55093.87
574.84	54766.20
575.01	54494.69
575.17	55025.99
575.33	55182.81
575.49	55433.25
575.65	54335.54
575.82	54389.37
575.98	54721.72
576.14	55540.91
576.30	56135.41
576.46	54721.72
576.62	55054.08
576.79	55011.95
576.95	54988.55
577.11	55599.43
577.27	55295.16
577.43	55611.13
577.59	54658.53
577.75	53762.11
577.92	53839.34
578.08	54127.23
578.24	54784.92
578.40	54487.67
578.56	53645.08
578.72	53839.34
578.88	53755.08
579.04	54461.93
579.21	53895.52
579.37	54162.34
579.53	54930.03
579.69	54155.32
579.85	53977.43
580.01	54054.67
580.17	53712.95
580.33	54564.91
580.49	54770.88
580.65	53331.45
580.82	53965.73
580.98	54726.41
581.14	54927.69
581.30	54361.28
581.46	53897.86
581.62	54218.51
581.78	55215.58
581.94	55393.46
582.10	55133.66
582.26	55276.43
582.42	54969.82
582.58	54094.46
582.74	53752.74
582.90	54078.08
583.06	54326.17
583.22	54635.13
583.38	54419.80
583.54	54822.37
583.70	54986.21
583.86	54827.05
584.02	54103.82
584.18	54122.55
584.34	53427.41
584.50	53439.11
584.66	53691.89
584.82	53677.85
584.98	53939.99
585.14	53219.10
585.30	53277.61
