SpectraSuite Data File
++++++++++++++++++++++++++++++++++++
Date: Mon Oct 07 14:53:18 GMT-05:00 2013
User: price-jones
Dark Spectrum Present: No
Reference Spectrum Present: No
Number of Sampled Component Spectra: 1
Spectrometers: USB2+H05261
Integration Time (usec): 100000 (USB2+H05261)
Spectra Averaged: 1 (USB2+H05261)
Boxcar Smoothing: 0 (USB2+H05261)
Correct for Electrical Dark: No (USB2+H05261)
Strobe/Lamp Enabled: No (USB2+H05261)
Correct for Detector Non-linearity: No (USB2+H05261)
Correct for Stray Light: No (USB2+H05261)
Number of Pixels in Processed Spectrum: 2048
>>>>>Begin Processed Spectral Data<<<<<
365.73	0.00
365.92	0.00
366.12	0.00
366.32	0.00
366.52	0.00
366.72	0.00
366.91	0.00
367.11	0.00
367.31	0.00
367.51	0.00
367.70	0.00
367.90	0.00
368.10	0.00
368.30	0.00
368.49	0.00
368.69	0.00
368.89	0.00
369.09	0.00
369.28	0.00
369.48	0.00
369.68	0.00
369.87	0.00
370.07	0.00
370.27	0.00
370.47	842.59
370.66	4049.13
370.86	4814.48
371.06	4992.36
371.25	5212.37
371.45	4580.43
371.65	4159.13
371.84	3810.39
372.04	4161.47
372.24	4447.02
372.44	4781.71
372.63	4774.69
372.83	4327.65
373.03	3833.80
373.22	3543.57
373.42	3779.97
373.62	4372.12
373.81	4704.48
374.01	4746.61
374.21	4322.97
374.40	3934.44
374.60	4168.49
374.79	4688.09
374.99	5432.38
375.19	5771.76
375.38	5703.89
375.58	5481.53
375.78	5275.57
375.97	5184.29
376.17	5551.75
376.37	5589.20
376.56	5844.32
376.76	6342.85
376.95	6361.58
377.15	6904.58
377.35	7211.19
377.54	7398.43
377.74	7609.08
377.93	7688.66
378.13	7368.01
378.33	6984.16
378.52	6333.49
378.72	6333.49
378.91	6087.73
379.11	5837.30
379.31	5710.91
379.50	5799.85
379.70	6340.51
379.89	7000.54
380.09	7063.74
380.28	7557.59
380.48	7545.89
380.68	7243.96
380.87	7131.61
381.07	6551.16
381.26	6235.19
381.46	5584.52
381.65	5661.76
381.85	5493.24
382.04	5011.09
382.24	4620.22
382.43	4631.92
382.63	4683.41
382.83	4571.07
383.02	4613.20
383.22	4573.41
383.41	4559.36
383.61	4844.91
383.80	5584.52
384.00	6387.32
384.19	7180.76
384.39	7480.35
384.58	7356.30
384.78	7133.95
384.97	7314.17
385.17	6841.39
385.36	6300.72
385.56	6150.93
385.75	6195.40
385.95	7075.44
386.14	7686.32
386.34	7543.55
386.53	7190.13
386.72	6817.98
386.92	6834.36
387.11	7384.39
387.31	7487.37
387.50	7431.20
387.70	7197.15
387.89	7159.70
388.09	7192.47
388.28	7194.81
388.48	7323.54
388.67	7906.33
388.86	8903.40
389.06	9078.94
389.25	9687.48
389.45	9635.99
389.64	9797.48
389.84	9722.59
390.03	9430.02
390.22	9497.89
390.42	9750.67
390.61	10431.77
390.81	11122.23
391.00	11639.48
391.19	11286.06
391.39	11028.60
391.58	10389.64
391.78	9521.30
391.97	9303.63
392.16	8634.24
392.36	7913.35
392.55	6443.49
392.75	5018.11
392.94	4159.13
393.13	4238.71
393.33	4915.12
393.52	6291.36
393.71	7726.11
393.91	8587.43
394.10	9348.10
394.29	10342.83
394.49	11049.67
394.68	11932.05
394.88	11852.47
395.07	12519.53
395.26	12210.57
395.46	11648.85
395.65	11000.52
395.84	9813.87
396.04	7990.59
396.23	6780.53
396.42	5675.80
396.62	5481.53
396.81	6476.26
397.00	8133.36
397.19	10284.31
397.39	11941.41
397.58	13500.21
397.77	14253.86
397.97	14860.06
398.16	15143.27
398.35	15681.59
398.55	15910.96
398.74	16549.93
398.93	17069.53
399.12	16517.16
399.32	15861.81
399.51	16835.47
399.70	17408.90
399.90	17502.53
400.09	17366.78
400.28	17238.05
400.47	17392.52
400.67	18424.70
400.86	18719.60
401.05	18827.27
401.24	18686.84
401.44	19271.97
401.63	19087.07
401.82	19489.64
402.01	19122.18
402.21	19276.65
402.40	19632.41
402.59	19000.47
402.78	18279.58
402.97	17795.09
403.17	18164.90
403.36	19506.02
403.55	20173.08
403.74	20369.68
403.93	19246.23
404.13	17830.20
404.32	17848.93
404.51	18438.74
404.70	19992.86
404.89	19882.85
405.09	19431.13
405.28	18731.31
405.47	19091.75
405.66	18831.95
405.85	18310.01
406.05	17965.95
406.24	18457.46
406.43	19000.47
406.62	19807.95
406.81	19901.58
407.00	19012.17
407.20	18726.63
407.39	18984.09
407.58	19744.76
407.77	20355.64
407.96	21118.65
408.15	21376.11
408.34	21738.90
408.54	22347.44
408.73	22555.74
408.92	21991.67
409.11	21589.10
409.30	20255.00
409.49	19349.21
409.68	17731.90
409.87	17591.47
410.07	18719.60
410.26	19953.07
410.45	21610.17
410.64	21617.19
410.83	22871.72
411.02	23007.47
411.21	23931.98
411.40	23800.91
411.59	23992.83
411.78	23662.82
411.98	23260.24
412.17	23749.42
412.36	23227.48
412.55	23414.72
412.74	22625.96
412.93	22338.07
413.12	22834.27
413.31	24584.99
413.50	24837.76
413.69	25408.86
413.88	24662.22
414.07	23520.04
414.26	23976.45
414.45	24507.75
414.64	24893.94
414.83	24751.17
415.02	24631.80
415.22	24446.90
415.41	25039.05
415.60	26015.05
415.79	27056.59
415.98	27229.79
416.17	27410.01
416.36	26675.09
416.55	26361.45
416.74	25193.53
416.93	24704.35
417.12	24900.96
417.31	25216.93
417.50	25663.97
417.69	26143.78
417.88	26185.91
418.07	26022.08
418.26	25626.53
418.45	25781.00
418.64	26609.55
418.83	27536.40
419.02	27346.82
419.21	26909.14
419.39	25537.59
419.58	24765.21
419.77	24620.10
419.96	25907.39
420.15	27304.69
420.34	28006.85
420.53	29074.13
420.72	29834.81
420.91	29546.92
421.10	28741.78
421.29	28999.24
421.48	28046.64
421.67	29113.92
421.86	28304.10
422.05	26604.87
422.24	23943.68
422.43	23452.17
422.61	26300.60
422.80	27868.76
422.99	27896.85
423.18	27187.66
423.37	26363.79
423.56	26464.44
423.75	26855.31
423.94	27632.36
424.13	26052.50
424.32	26370.82
424.50	26436.35
424.69	26214.00
424.88	26361.45
425.07	26106.34
425.26	26019.74
425.45	25858.24
425.64	25441.62
425.83	25827.81
426.01	27330.44
426.20	27707.26
426.39	27255.54
426.58	25111.61
426.77	23278.97
426.96	22888.10
427.15	23534.09
427.33	25284.81
427.52	26595.51
427.71	26380.18
427.90	26127.40
428.09	26005.69
428.28	25380.77
428.46	24685.63
428.65	24079.43
428.84	25191.19
429.03	25291.83
429.22	24170.71
429.40	22403.61
429.59	20535.86
429.78	18497.25
429.97	18464.49
430.16	18546.40
430.34	18752.37
430.53	18525.34
430.72	18998.13
430.91	21032.05
431.10	24835.42
431.28	29008.60
431.47	31220.41
431.66	31606.59
431.85	28725.39
432.03	26251.45
432.22	25689.72
432.41	26487.84
432.60	29460.32
432.79	30590.80
432.97	31409.99
433.16	30593.14
433.35	27520.02
433.54	25046.07
433.72	23562.17
433.91	24437.53
434.10	27131.49
434.28	29252.02
434.47	30874.01
434.66	30110.99
434.85	29362.02
435.03	29357.34
435.22	29851.19
435.41	31545.74
435.59	31924.91
435.78	32077.04
435.97	32994.53
436.16	33233.27
436.34	32863.46
436.53	32170.66
436.72	31955.33
436.90	30457.39
437.09	30134.40
437.28	30326.32
437.46	31295.30
437.65	30698.47
437.84	28587.30
438.02	26518.27
438.21	26258.47
438.40	27882.80
438.58	30258.45
438.77	30890.39
438.96	31014.44
439.14	32498.34
439.33	33322.21
439.52	33537.54
439.70	33244.97
439.89	32479.61
440.08	31330.41
440.26	31358.50
440.45	32613.02
440.63	34766.32
440.82	36552.15
441.01	35859.35
441.19	35323.36
441.38	35786.79
441.57	37434.53
441.75	37799.65
441.94	38036.05
442.12	37137.28
442.31	38497.13
442.50	38258.40
442.68	37801.99
442.87	37399.42
443.05	37010.89
443.24	37422.83
443.43	38216.27
443.61	38754.59
443.80	39201.63
443.98	37486.02
444.17	36996.85
444.35	39234.40
444.54	39880.39
444.73	39618.25
444.91	37647.52
445.10	36348.52
445.28	35206.34
445.47	34785.04
445.65	34658.65
445.84	35959.99
446.02	36662.15
446.21	37102.17
446.39	37631.13
446.58	37457.93
446.77	38618.84
446.95	38733.53
447.14	39662.72
447.32	40320.41
447.51	39693.15
447.69	38026.68
447.88	37645.18
448.06	38054.77
448.25	38766.29
448.43	39367.81
448.62	38288.82
448.80	38328.61
448.99	38869.28
449.17	38979.28
449.36	38806.08
449.54	40683.19
449.73	41191.09
449.91	41614.72
450.10	42731.16
450.28	43210.97
450.46	42904.36
450.65	43180.54
450.83	42579.03
451.02	41516.42
451.20	41670.90
451.39	41645.15
451.57	41193.43
451.76	41141.94
451.94	41305.77
452.13	40233.81
452.31	38359.04
452.49	36928.97
452.68	37198.13
452.86	37296.44
453.05	37989.24
453.23	39330.36
453.42	39959.97
453.60	40641.06
453.78	41167.68
453.97	40612.98
454.15	40889.16
454.34	39854.64
454.52	40161.25
454.70	39363.13
454.89	39864.00
455.07	39864.00
455.26	40589.57
455.44	42199.86
455.62	42504.13
455.81	43178.20
455.99	42110.92
456.17	41579.62
456.36	42080.49
456.54	43107.99
456.73	43173.52
456.91	43571.41
457.09	44093.35
457.28	44938.29
457.46	43178.20
457.64	43112.67
457.83	41811.33
458.01	41067.04
458.19	42120.28
458.38	42190.50
458.56	43159.48
458.74	43604.18
458.93	42593.07
459.11	42703.07
459.29	42466.68
459.48	42476.04
459.66	42066.45
459.84	42611.79
460.03	43225.01
460.21	43353.74
460.39	44179.95
460.57	44196.34
460.76	44706.57
460.94	44533.37
461.12	44060.58
461.31	44266.55
461.49	44416.35
461.67	44311.02
461.85	45443.84
462.04	45242.56
462.22	45408.73
462.40	45268.30
462.59	45055.31
462.77	45233.19
462.95	45017.86
463.13	44744.02
463.32	44463.16
463.50	44226.76
463.68	44463.16
463.86	44191.65
464.05	43742.27
464.23	42822.44
464.41	42965.21
464.59	42202.20
464.78	43831.21
464.96	43882.70
465.14	43089.26
465.32	44594.23
465.50	45673.21
465.69	45947.06
465.87	44891.48
466.05	43955.26
466.23	41911.97
466.41	41163.00
466.60	42663.28
466.78	42300.50
466.96	43082.24
467.14	43639.29
467.32	44083.99
467.51	44502.95
467.69	42366.04
467.87	43676.74
468.05	44004.41
468.23	43917.81
468.41	43538.65
468.60	44009.09
468.78	44432.73
468.96	43753.97
469.14	44975.73
469.32	44755.72
469.50	42969.90
469.69	43374.81
469.87	42979.26
470.05	42871.59
470.23	42974.58
470.41	43194.59
470.59	43288.21
470.77	43775.04
470.95	44545.08
471.14	45003.82
471.32	45022.54
471.50	47353.72
471.68	47267.12
471.86	47604.16
472.04	47725.86
472.22	47681.39
472.40	46066.42
472.58	45404.05
472.77	45123.19
472.95	46124.94
473.13	46464.32
473.31	46167.07
473.49	46389.42
473.67	47168.82
473.85	47199.24
474.03	48217.38
474.21	48392.92
474.39	48765.06
474.57	48739.32
474.75	48573.14
474.93	48669.10
475.12	47311.59
475.30	47845.23
475.48	47903.74
475.66	48528.67
475.84	47683.73
476.02	47735.23
476.20	47117.32
476.38	47894.38
476.56	48980.39
476.74	49544.46
476.92	49429.77
477.10	50071.08
477.28	50948.78
477.46	51164.11
477.64	51124.32
477.82	51461.36
478.00	51664.99
478.18	50848.14
478.36	51084.53
478.54	51203.90
478.72	51374.76
478.90	52037.13
479.08	52924.19
479.26	53176.97
479.44	53352.51
479.62	53132.50
479.80	52872.70
479.98	52982.71
480.16	53408.68
480.34	53006.11
480.52	53411.02
480.70	53609.97
480.88	53752.74
481.06	54234.89
481.24	54218.51
481.41	54974.50
481.59	55290.48
481.77	55150.04
481.95	54801.30
482.13	54649.17
482.31	54871.52
482.49	55285.79
482.67	55182.81
482.85	55231.96
483.03	55756.24
483.21	55957.53
483.39	56126.05
483.57	55480.06
483.74	55192.17
483.92	55529.21
484.10	55618.15
484.28	56121.37
484.46	56584.79
484.64	56905.44
484.82	56088.60
485.00	55676.66
485.18	55515.17
485.35	54422.14
485.53	52097.98
485.71	48804.85
485.89	48561.44
486.07	50237.26
486.25	53085.69
486.43	54901.95
486.61	55136.00
486.78	55255.37
486.96	55337.29
487.14	56537.98
487.32	56849.27
487.50	57836.98
487.68	58529.78
487.85	58738.08
488.03	58976.82
488.21	58553.18
488.39	57804.21
488.57	57411.00
488.75	57343.12
488.92	58005.50
489.10	59697.70
489.28	60598.81
489.46	61139.47
489.64	61066.92
489.81	60985.00
489.99	60870.31
490.17	60919.46
490.35	61137.13
490.53	60893.72
490.70	60610.51
490.88	60533.28
491.06	61153.52
491.24	61200.33
491.41	60233.69
491.59	59107.89
491.77	58454.88
491.95	59487.06
492.13	60523.91
492.30	61293.95
492.48	62124.84
492.66	62464.22
492.84	62382.30
493.01	62127.18
493.19	61783.12
493.37	61382.89
493.54	61441.40
493.72	62014.83
493.90	62822.32
494.08	63252.98
494.25	63384.05
494.43	63681.30
494.61	64039.40
494.79	64149.40
494.96	63873.22
495.14	63358.30
495.32	62733.38
495.49	61963.34
495.67	62972.11
495.85	64147.06
496.02	64437.29
496.20	64238.34
496.38	63882.58
496.55	63800.66
496.73	64217.28
496.91	64114.29
497.09	64711.13
497.26	64757.94
497.44	64559.00
497.62	64001.95
497.79	63334.90
497.97	62396.34
498.14	62546.14
498.32	63388.73
498.50	64261.75
498.67	64816.46
498.85	64549.63
499.03	64757.94
499.20	64942.84
499.38	64842.20
499.56	64898.37
499.73	64282.81
499.91	63948.12
500.08	63737.47
500.26	62997.86
500.44	63332.56
500.61	64217.28
500.79	63870.88
500.97	63711.72
501.14	63351.28
501.32	63377.03
501.49	63337.24
501.67	63522.14
501.84	63999.61
502.02	64081.53
502.20	64397.50
502.37	64573.04
502.55	64598.79
502.72	65045.83
502.90	65436.70
503.07	65186.26
503.25	64881.99
503.43	64039.40
503.60	63613.42
503.78	62927.64
503.95	63608.74
504.13	64577.72
504.30	65474.15
504.48	65188.60
504.65	64879.65
504.83	65013.06
505.01	65455.42
505.18	65535.00
505.36	65535.00
505.53	65535.00
505.71	65535.00
505.88	65535.00
506.06	65535.00
506.23	65535.00
506.41	65504.57
506.58	65535.00
506.76	65511.59
506.93	65460.10
507.11	65228.39
507.28	65471.81
507.46	65132.43
507.63	64549.63
507.81	64549.63
507.98	64664.32
508.16	65275.20
508.33	65535.00
508.50	65535.00
508.68	65535.00
508.85	65535.00
509.03	65535.00
509.20	65535.00
509.38	65535.00
509.55	65357.12
509.73	65387.55
509.90	65535.00
510.08	65535.00
510.25	65535.00
510.42	65535.00
510.60	65535.00
510.77	65535.00
510.95	65535.00
511.12	65535.00
511.30	65535.00
511.47	65535.00
511.64	65535.00
511.82	65535.00
511.99	65535.00
512.17	65535.00
512.34	65366.48
512.51	65535.00
512.69	65535.00
512.86	65535.00
513.04	65535.00
513.21	65535.00
513.38	65535.00
513.56	65153.49
513.73	64828.16
513.90	65106.68
514.08	65087.96
514.25	65261.16
514.43	65535.00
514.60	65502.23
514.77	65535.00
514.95	65535.00
515.12	65535.00
515.29	65535.00
515.47	65535.00
515.64	65535.00
515.81	65535.00
515.99	65535.00
516.16	64493.46
516.33	62695.93
516.51	61467.15
516.68	60877.33
516.85	60336.67
517.03	60912.44
517.20	63030.63
517.37	65055.19
517.54	65535.00
517.72	65446.06
517.89	63330.22
518.06	61443.74
518.24	61642.69
518.41	63568.95
518.58	64633.89
518.75	64846.88
518.93	64912.42
519.10	64762.62
519.27	65162.85
519.45	65535.00
519.62	65535.00
519.79	65535.00
519.96	65535.00
520.14	65535.00
520.31	65085.62
520.48	64999.02
520.65	65258.82
520.83	65535.00
521.00	65535.00
521.17	65535.00
521.34	65535.00
521.52	65535.00
521.69	65535.00
521.86	65535.00
522.03	65535.00
522.20	65535.00
522.38	64938.16
522.55	64816.46
522.72	65333.71
522.89	65401.59
523.07	65535.00
523.24	65535.00
523.41	65535.00
523.58	65535.00
523.75	65535.00
523.92	65535.00
524.10	65535.00
524.27	65535.00
524.44	65535.00
524.61	65535.00
524.78	65535.00
524.96	65535.00
525.13	65535.00
525.30	65535.00
525.47	65535.00
525.64	65535.00
525.81	65535.00
525.98	65523.30
526.16	64231.32
526.33	63398.09
526.50	63304.47
526.67	63009.56
526.84	63749.17
527.01	64278.13
527.18	65080.94
527.36	65535.00
527.53	65535.00
527.70	65535.00
527.87	65535.00
528.04	65535.00
528.21	65535.00
528.38	65535.00
528.55	65535.00
528.72	65535.00
528.89	65535.00
529.07	65535.00
529.24	65535.00
529.41	65535.00
529.58	65535.00
529.75	65535.00
529.92	65535.00
530.09	65535.00
530.26	65535.00
530.43	65535.00
530.60	65535.00
530.77	65535.00
530.94	65535.00
531.11	65535.00
531.28	65535.00
531.46	65535.00
531.63	65535.00
531.80	65535.00
531.97	65535.00
532.14	65535.00
532.31	65059.87
532.48	64383.46
532.65	64575.38
532.82	65263.50
532.99	65535.00
533.16	65535.00
533.33	65535.00
533.50	65535.00
533.67	65535.00
533.84	65535.00
534.01	65535.00
534.18	65535.00
534.35	65535.00
534.52	65535.00
534.69	65535.00
534.86	65535.00
535.03	65535.00
535.20	65535.00
535.37	65535.00
535.54	65535.00
535.71	65535.00
535.88	65535.00
536.05	65535.00
536.22	65535.00
536.38	65535.00
536.55	65535.00
536.72	64996.68
536.89	65148.81
537.06	65535.00
537.23	65535.00
537.40	65535.00
537.57	65535.00
537.74	65535.00
537.91	65535.00
538.08	65535.00
538.25	65535.00
538.42	65535.00
538.59	65535.00
538.75	65535.00
538.92	65535.00
539.09	65535.00
539.26	65469.46
539.43	65212.01
539.60	65432.02
539.77	65516.28
539.94	65488.19
540.11	64828.16
540.28	64446.65
540.44	64463.03
540.61	64629.21
540.78	64877.31
540.95	65029.44
541.12	65453.08
541.29	65535.00
541.46	65535.00
541.62	65535.00
541.79	65535.00
541.96	65441.38
542.13	65504.57
542.30	65535.00
542.47	65535.00
542.63	65535.00
542.80	65476.49
542.97	65535.00
543.14	65530.32
543.31	65298.61
543.48	65535.00
543.64	65535.00
543.81	65535.00
543.98	65535.00
544.15	65535.00
544.32	65535.00
544.48	65535.00
544.65	65535.00
544.82	65535.00
544.99	65535.00
545.16	65535.00
545.32	65535.00
545.49	65535.00
545.66	65535.00
545.83	65535.00
546.00	65535.00
546.16	65535.00
546.33	65535.00
546.50	65535.00
546.67	65535.00
546.83	65535.00
547.00	65535.00
547.17	65228.39
547.34	64750.92
547.50	64746.24
547.67	65001.36
547.84	65219.03
548.00	65441.38
548.17	65535.00
548.34	65535.00
548.51	65535.00
548.67	65535.00
548.84	65535.00
549.01	65535.00
549.18	65535.00
549.34	65446.06
549.51	65535.00
549.68	65474.15
549.84	65403.93
550.01	65401.59
550.18	65240.09
550.34	65272.86
550.51	65462.44
550.68	65401.59
550.84	65034.13
551.01	65202.64
551.18	65102.00
551.34	65209.67
551.51	65368.82
551.68	65535.00
551.84	65535.00
552.01	65324.35
552.18	65364.14
552.34	64779.01
552.51	64542.61
552.68	64458.35
552.84	64816.46
553.01	65151.15
553.18	64966.25
553.34	65207.32
553.51	65380.52
553.67	65535.00
553.84	65504.57
554.01	65394.57
554.17	65247.11
554.34	65279.88
554.51	65535.00
554.67	65535.00
554.84	65535.00
555.00	65380.52
555.17	65230.73
555.33	65008.38
555.50	65008.38
555.67	64980.29
555.83	65048.17
556.00	64570.70
556.16	64657.30
556.33	64416.22
556.50	64268.77
556.66	64353.03
556.83	64133.02
556.99	64027.70
557.16	64268.77
557.32	64647.94
557.49	64807.09
557.65	64626.87
557.82	64528.57
557.98	64257.07
558.15	64041.74
558.32	63508.10
558.48	62787.21
558.65	62988.50
558.81	63234.25
558.98	63505.76
559.14	63543.20
559.31	63746.83
559.47	63707.04
559.64	63547.89
559.80	63114.89
559.97	63248.30
560.13	63716.40
560.30	64322.60
560.46	64687.73
560.63	64935.82
560.79	64881.99
560.96	64643.26
561.12	63517.46
561.29	62796.57
561.45	63004.88
561.61	63330.22
561.78	63931.73
561.94	63803.00
562.11	63693.00
562.27	63594.70
562.44	63744.49
562.60	64006.63
562.77	64308.56
562.93	64294.52
563.10	64067.48
563.26	63465.97
563.42	63737.47
563.59	63489.37
563.75	63372.34
563.92	63559.59
564.08	63571.29
564.24	63795.98
564.41	63910.67
564.57	63636.83
564.74	63702.36
564.90	63620.44
565.07	63262.34
565.23	63103.18
565.39	62496.98
565.56	62337.83
565.72	62307.40
565.88	62597.63
566.05	62805.94
566.21	62962.75
566.38	62911.26
566.54	62951.05
566.70	63199.15
566.87	63678.96
567.03	63505.76
567.19	63592.36
567.36	63529.16
567.52	63355.96
567.68	63000.20
567.85	62543.80
568.01	62234.84
568.17	61996.11
568.34	62082.71
568.50	61963.34
568.66	62269.95
568.83	62410.38
568.99	62429.11
569.15	62829.34
569.32	62550.82
569.48	62302.72
569.64	62267.61
569.81	61982.07
569.97	61862.70
570.13	61996.11
570.30	61502.26
570.46	61148.84
570.62	60790.73
570.78	60706.47
570.95	60975.64
571.11	61602.90
571.27	61623.96
571.43	61865.04
571.60	62213.78
571.76	62314.42
571.92	62368.26
572.09	62639.76
572.25	62461.88
572.41	62412.73
572.57	62258.25
572.74	62461.88
572.90	62061.64
573.06	62017.17
573.22	62122.50
573.38	62157.61
573.55	62124.84
573.71	62244.21
573.87	62068.67
574.03	61914.19
574.20	61977.39
574.36	61542.05
574.52	61588.86
574.68	61312.67
574.84	61137.13
575.01	60788.39
575.17	60753.29
575.33	60933.51
575.49	61228.41
575.65	61483.53
575.82	60966.27
575.98	60903.08
576.14	61095.00
576.30	61324.38
576.46	61406.30
576.62	61368.85
576.79	61406.30
576.95	61003.72
577.11	61001.38
577.27	61071.60
577.43	61226.07
577.59	60846.91
577.75	60486.46
577.92	59788.98
578.08	59758.56
578.24	60034.74
578.40	60341.35
578.56	60451.36
578.72	60397.52
578.88	60451.36
579.04	60697.11
579.21	60757.97
579.37	60762.65
579.53	61076.28
579.69	60669.03
579.85	61155.86
580.01	60764.99
580.17	60470.08
580.33	60254.75
580.49	60491.15
580.65	60544.98
580.82	60898.40
580.98	60830.52
581.14	60783.71
581.30	60835.20
581.46	60619.88
581.62	61010.74
581.78	60830.52
581.94	60992.02
582.10	60996.70
582.26	61001.38
582.42	61116.07
582.58	61057.56
582.74	60989.68
582.90	60999.04
583.06	60828.18
583.22	60776.69
583.38	60722.86
583.54	60608.17
583.70	60589.45
583.86	60640.94
584.02	60392.84
584.18	60809.46
584.34	60540.30
584.50	60406.89
584.66	60374.12
584.82	60177.51
584.98	59962.18
585.14	59788.98
