SpectraSuite Data File
++++++++++++++++++++++++++++++++++++
Date: Mon Oct 07 14:54:56 GMT-05:00 2013
User: price-jones
Dark Spectrum Present: No
Reference Spectrum Present: No
Number of Sampled Component Spectra: 1
Spectrometers: USB2+H05261
Integration Time (usec): 10000 (USB2+H05261)
Spectra Averaged: 1 (USB2+H05261)
Boxcar Smoothing: 0 (USB2+H05261)
Correct for Electrical Dark: No (USB2+H05261)
Strobe/Lamp Enabled: No (USB2+H05261)
Correct for Detector Non-linearity: No (USB2+H05261)
Correct for Stray Light: No (USB2+H05261)
Number of Pixels in Processed Spectrum: 2048
>>>>>Begin Processed Spectral Data<<<<<
365.73	0.00
365.92	0.00
366.12	0.00
366.32	0.00
366.52	0.00
366.72	0.00
366.91	0.00
367.11	0.00
367.31	0.00
367.51	0.00
367.70	0.00
367.90	0.00
368.10	0.00
368.30	0.00
368.49	0.00
368.69	0.00
368.89	0.00
369.09	0.00
369.28	0.00
369.48	0.00
369.68	0.00
369.87	0.00
370.07	0.00
370.27	0.00
370.47	0.00
370.66	353.42
370.86	456.40
371.06	575.77
371.25	571.09
371.45	411.93
371.65	468.11
371.84	358.10
372.04	388.53
372.24	435.34
372.44	449.38
372.63	437.68
372.83	468.11
373.03	346.40
373.22	271.50
373.42	369.80
373.62	416.62
373.81	418.96
374.01	524.28
374.21	447.04
374.40	402.57
374.60	433.00
374.79	465.77
374.99	674.07
375.19	629.60
375.38	716.20
375.58	636.63
375.78	592.16
375.97	557.05
376.17	615.56
376.37	727.91
376.56	662.37
376.76	732.59
376.95	816.85
377.15	854.30
377.35	922.17
377.54	880.04
377.74	924.51
377.93	849.61
378.13	861.32
378.33	826.21
378.52	753.65
378.72	664.71
378.91	826.21
379.11	603.86
379.31	615.56
379.50	540.66
379.70	748.97
379.89	706.84
380.09	858.98
380.28	828.55
380.48	833.23
380.68	784.08
380.87	706.84
381.07	802.80
381.26	688.12
381.46	613.22
381.65	587.47
381.85	587.47
382.04	517.26
382.24	493.85
382.43	456.40
382.63	369.80
382.83	395.55
383.02	297.25
383.22	365.12
383.41	407.25
383.61	456.40
383.80	552.37
384.00	653.01
384.19	739.61
384.39	770.04
384.58	866.00
384.78	755.99
384.97	702.16
385.17	716.20
385.36	688.12
385.56	634.29
385.75	699.82
385.95	795.78
386.14	763.01
386.34	772.38
386.53	809.83
386.72	702.16
386.92	688.12
387.11	802.80
387.31	765.36
387.50	734.93
387.70	856.64
387.89	791.10
388.09	816.85
388.28	770.04
388.48	755.99
388.67	765.36
388.86	933.87
389.06	966.64
389.25	1001.75
389.45	1090.69
389.64	1151.54
389.84	1036.86
390.03	1011.11
390.22	926.85
390.42	1048.56
390.61	1090.69
390.81	1317.72
391.00	1238.14
391.19	1287.29
391.39	1233.46
391.58	1165.59
391.78	1064.94
391.97	983.02
392.16	863.66
392.36	767.70
392.55	641.31
392.75	421.30
392.94	273.84
393.13	318.31
393.33	358.10
393.52	613.22
393.71	660.03
393.91	940.90
394.10	936.21
394.29	1097.71
394.49	1167.93
394.68	1240.48
394.88	1317.72
395.07	1366.87
395.26	1256.87
395.46	1235.80
395.65	1167.93
395.84	997.07
396.04	720.88
396.23	578.11
396.42	491.51
396.62	395.55
396.81	624.92
397.00	884.72
397.19	1078.99
397.39	1247.51
397.58	1549.43
397.77	1497.94
397.97	1661.78
398.16	1717.95
398.35	1720.29
398.55	1724.97
398.74	1802.21
398.93	1863.07
399.12	1912.22
399.32	1755.40
399.51	1792.85
399.70	1912.22
399.90	1914.56
400.09	1944.99
400.28	1748.38
400.47	1891.15
400.67	1987.11
400.86	2017.54
401.05	1935.62
401.24	2050.31
401.44	2115.84
401.63	2038.61
401.82	2043.29
402.01	2059.67
402.21	1998.82
402.40	2134.57
402.59	2078.40
402.78	2054.99
402.97	1832.64
403.17	1947.33
403.36	2062.01
403.55	2209.47
403.74	2146.27
403.93	1968.39
404.13	1940.30
404.32	1802.21
404.51	1895.83
404.70	2071.37
404.89	2162.66
405.09	2167.34
405.28	2094.78
405.47	1949.67
405.66	1996.48
405.85	1858.39
406.05	1839.66
406.24	1987.11
406.43	1907.54
406.62	2115.84
406.81	2108.82
407.00	1987.11
407.20	1970.73
407.39	2001.16
407.58	2069.03
407.77	2092.44
407.96	2183.72
408.15	2181.38
408.34	2244.57
408.54	2270.32
408.73	2377.98
408.92	2249.25
409.11	2120.53
409.30	2094.78
409.49	2029.24
409.68	1860.73
409.87	1743.70
410.07	1952.01
410.26	2005.84
410.45	2195.42
410.64	2284.36
410.83	2331.17
411.02	2373.30
411.21	2429.48
411.40	2399.05
411.59	2443.52
411.78	2356.92
411.98	2373.30
412.17	2282.02
412.36	2373.30
412.55	2464.58
412.74	2265.64
412.93	2094.78
413.12	2244.57
413.31	2464.58
413.50	2558.21
413.69	2583.95
413.88	2403.73
414.07	2314.79
414.26	2499.69
414.45	2443.52
414.64	2464.58
414.83	2565.23
415.02	2354.58
415.22	2621.40
415.41	2513.74
415.60	2670.55
415.79	2703.32
415.98	2771.19
416.17	2820.35
416.36	2656.51
416.55	2595.65
416.74	2504.37
416.93	2478.63
417.12	2495.01
417.31	2443.52
417.50	2471.61
417.69	2539.48
417.88	2670.55
418.07	2534.80
418.26	2597.99
418.45	2593.31
418.64	2605.02
418.83	2724.38
419.02	2684.59
419.21	2654.17
419.39	2492.67
419.58	2520.76
419.77	2462.24
419.96	2525.44
420.15	2623.74
420.34	2644.81
420.53	2827.37
420.72	2815.66
420.91	2850.77
421.10	2724.38
421.29	2803.96
421.48	2668.21
421.67	2930.35
421.86	2829.71
422.05	2459.90
422.24	2321.81
422.43	2291.38
422.61	2462.24
422.80	2740.77
422.99	2715.02
423.18	2593.31
423.37	2541.82
423.56	2677.57
423.75	2686.94
423.94	2663.53
424.13	2469.27
424.32	2567.57
424.50	2462.24
424.69	2450.54
424.88	2530.12
425.07	2502.03
425.26	2548.84
425.45	2399.05
425.64	2361.60
425.83	2396.71
426.01	2612.04
426.20	2761.83
426.39	2483.31
426.58	2401.39
426.77	2141.59
426.96	2190.74
427.15	2195.42
427.33	2455.22
427.52	2462.24
427.71	2495.01
427.90	2530.12
428.09	2392.03
428.28	2354.58
428.46	2370.96
428.65	2282.02
428.84	2406.07
429.03	2490.33
429.22	2069.03
429.40	2125.21
429.59	2022.22
429.78	1689.87
429.97	1694.55
430.16	1710.93
430.34	1657.10
430.53	1746.04
430.72	1825.62
430.91	1858.39
431.10	2235.21
431.28	2602.68
431.47	2902.26
431.66	2834.39
431.85	2722.04
432.03	2555.86
432.22	2448.20
432.41	2436.50
432.60	2773.53
432.79	2857.79
432.97	2892.90
433.16	2904.60
433.35	2551.18
433.54	2363.94
433.72	2157.97
433.91	2162.66
434.10	2530.12
434.28	2691.62
434.47	2799.28
434.66	2736.09
434.85	2703.32
435.03	2698.64
435.22	2726.72
435.41	2937.37
435.59	2928.01
435.78	2998.23
435.97	2977.16
436.16	3028.65
436.34	3061.42
436.53	2911.63
436.72	2857.79
436.90	2810.98
437.09	2651.83
437.28	2747.79
437.46	2696.30
437.65	2759.49
437.84	2520.76
438.02	2246.91
438.21	2413.09
438.40	2427.14
438.58	2747.79
438.77	2696.30
438.96	2871.84
439.14	2967.80
439.33	2972.48
439.52	2928.01
439.70	2946.73
439.89	2761.83
440.08	2710.34
440.26	2881.20
440.45	2888.22
440.63	3150.36
440.82	3293.13
441.01	3129.30
441.19	3143.34
441.38	3157.38
441.57	3253.34
441.75	3321.22
441.94	3417.18
442.12	3421.86
442.31	3447.61
442.50	3433.57
442.68	3435.91
442.87	3276.75
443.05	3208.87
443.24	3407.82
443.43	3421.86
443.61	3386.76
443.80	3494.42
443.98	3187.81
444.17	3148.02
444.35	3485.06
444.54	3730.81
444.73	3543.57
444.91	3328.24
445.10	3262.71
445.28	3049.72
445.47	3119.93
445.65	3087.17
445.84	3075.46
446.02	3239.30
446.21	3304.84
446.39	3236.96
446.58	3431.23
446.77	3377.39
446.95	3389.10
447.14	3438.25
447.32	3571.66
447.51	3557.61
447.69	3272.07
447.88	3447.61
448.06	3375.05
448.25	3433.57
448.43	3524.85
448.62	3316.54
448.80	3258.03
448.99	3478.04
449.17	3372.71
449.36	3389.10
449.54	3485.06
449.73	3564.64
449.91	3555.27
450.10	3721.45
450.28	3784.65
450.46	3833.80
450.65	3721.45
450.83	3716.77
451.02	3550.59
451.20	3632.51
451.39	3578.68
451.57	3768.26
451.76	3576.34
451.94	3515.48
452.13	3485.06
452.31	3300.16
452.49	3152.70
452.68	3187.81
452.86	3248.66
453.05	3208.87
453.23	3421.86
453.42	3503.78
453.60	3597.40
453.78	3571.66
453.97	3473.36
454.15	3449.95
454.34	3197.17
454.52	3478.04
454.70	3363.35
454.89	3499.10
455.07	3346.97
455.26	3461.65
455.44	3648.90
455.62	3709.75
455.81	3655.92
455.99	3531.87
456.17	3405.48
456.36	3499.10
456.54	3660.60
456.73	3721.45
456.91	3653.58
457.09	3861.88
457.28	3826.78
457.46	3667.62
457.64	3559.95
457.83	3482.72
458.01	3463.99
458.19	3524.85
458.38	3585.70
458.56	3613.79
458.74	3618.47
458.93	3545.91
459.11	3592.72
459.29	3545.91
459.48	3588.04
459.66	3550.59
459.84	3604.42
460.03	3665.28
460.21	3686.34
460.39	3805.71
460.57	3709.75
460.76	3728.47
460.94	3829.12
461.12	3822.09
461.31	3676.98
461.49	3845.50
461.67	3618.47
461.85	3892.31
462.04	3791.67
462.22	3803.37
462.40	3836.14
462.59	3789.33
462.77	3915.72
462.95	3847.84
463.13	3714.43
463.32	3770.60
463.50	3639.53
463.68	3660.60
463.86	3728.47
464.05	3662.94
464.23	3714.43
464.41	3517.83
464.59	3548.25
464.78	3597.40
464.96	3602.08
465.14	3541.23
465.32	3744.86
465.50	3794.01
465.69	3747.20
465.87	3644.21
466.05	3644.21
466.23	3499.10
466.41	3330.58
466.60	3400.80
466.78	3496.76
466.96	3485.06
467.14	3588.04
467.32	3796.35
467.51	3679.32
467.69	3489.74
467.87	3433.57
468.05	3489.74
468.23	3644.21
468.41	3590.38
468.60	3527.19
468.78	3740.18
468.96	3674.64
469.14	3737.84
469.32	3765.92
469.50	3599.74
469.69	3574.00
469.87	3466.33
470.05	3527.19
470.23	3501.44
470.41	3536.55
470.59	3571.66
470.77	3478.04
470.95	3674.64
471.14	3705.07
471.32	3646.55
471.50	3772.94
471.68	3852.52
471.86	3861.88
472.04	3999.98
472.22	3918.06
472.40	3646.55
472.58	3681.66
472.77	3693.37
472.95	3693.37
473.13	3873.59
473.31	3524.85
473.49	3695.71
473.67	3801.03
473.85	3861.88
474.03	3845.50
474.21	3936.78
474.39	3854.86
474.57	3964.87
474.75	4152.11
474.93	4021.04
475.12	3880.61
475.30	3894.65
475.48	4032.74
475.66	4002.32
475.84	3911.04
476.02	3927.42
476.20	3838.48
476.38	3976.57
476.56	3981.25
476.74	4084.23
476.92	4032.74
477.10	4131.05
477.28	4224.67
477.46	4287.86
477.64	4198.92
477.82	4259.78
478.00	4318.29
478.18	4212.96
478.36	4166.15
478.54	4311.27
478.72	4318.29
478.90	4311.27
479.08	4402.55
479.26	4528.94
479.44	4599.15
479.62	4437.66
479.80	4568.73
479.98	4477.44
480.16	4552.34
480.34	4566.39
480.52	4645.96
480.70	4470.42
480.88	4557.02
481.06	4660.01
481.24	4582.77
481.41	4727.88
481.59	4908.10
481.77	4898.74
481.95	4662.35
482.13	4692.77
482.31	4727.88
482.49	4793.42
482.67	4922.15
482.85	4826.18
483.03	4912.78
483.21	4938.53
483.39	4940.87
483.57	4877.68
483.74	4922.15
483.92	4882.36
484.10	4830.87
484.28	5078.96
484.46	5050.88
484.64	5114.07
484.82	4933.85
485.00	4919.81
485.18	4894.06
485.35	4692.77
485.53	4173.18
485.71	3990.61
485.89	3911.04
486.07	4107.64
486.25	4477.44
486.43	4601.49
486.61	4901.08
486.78	4779.37
486.96	4812.14
487.14	5018.11
487.32	5060.24
487.50	5104.71
487.68	5425.36
487.85	5240.46
488.03	5474.51
488.21	5467.49
488.39	5071.94
488.57	5050.88
488.75	5167.90
488.92	5296.63
489.10	5720.27
489.28	5645.37
489.46	5905.17
489.64	5930.92
489.81	5888.79
489.99	5984.75
490.17	6017.52
490.35	5998.79
490.53	6024.54
490.70	5830.27
490.88	5696.86
491.06	6071.35
491.24	5963.68
491.41	5881.77
491.59	5528.35
491.77	5387.91
491.95	5441.75
492.13	5762.40
492.30	5799.85
492.48	6076.03
492.66	6265.61
492.84	6214.12
493.01	6282.00
493.19	6057.31
493.37	5930.92
493.54	6005.81
493.72	6216.46
493.90	6274.98
494.08	6555.84
494.25	6642.44
494.43	6595.63
494.61	6691.59
494.79	6768.83
494.96	6637.76
495.14	6424.77
495.32	6340.51
495.49	6141.57
495.67	6342.85
495.85	6775.85
496.02	6759.47
496.20	6881.18
496.38	6670.53
496.55	6565.20
496.73	6651.80
496.91	6897.56
497.09	6909.26
497.26	6958.41
497.44	6733.72
497.62	6808.62
497.79	6586.27
497.97	6129.86
498.14	6052.63
498.32	6525.41
498.50	6712.66
498.67	6761.81
498.85	6726.70
499.03	6883.52
499.20	6953.73
499.38	6904.58
499.56	6789.89
499.73	6689.25
499.91	6604.99
500.08	6415.41
500.26	6450.52
500.44	6527.75
500.61	6672.87
500.79	6565.20
500.97	6471.58
501.14	6417.75
501.32	6349.87
501.49	6296.04
501.67	6324.13
501.84	6649.46
502.02	6707.98
502.20	6686.91
502.37	6825.00
502.55	6745.42
502.72	6888.20
502.90	7129.27
503.07	6874.15
503.25	6869.47
503.43	6609.67
503.60	6490.31
503.78	6431.79
503.95	6342.85
504.13	6752.45
504.30	6848.41
504.48	6951.39
504.65	6729.04
504.83	6759.47
505.01	7007.56
505.18	6984.16
505.36	7176.08
505.53	7183.10
505.71	7286.09
505.88	7258.00
506.06	6979.48
506.23	6857.77
506.41	6839.05
506.58	6930.33
506.76	6937.35
506.93	6782.87
507.11	6883.52
507.28	6827.34
507.46	6843.73
507.63	6726.70
507.81	6363.92
507.98	6640.10
508.16	6853.09
508.33	7026.29
508.50	7288.43
508.68	7150.34
508.85	7431.20
509.03	7276.73
509.20	7173.74
509.38	7030.97
509.55	6890.54
509.73	6810.96
509.90	7084.80
510.08	7068.42
510.25	7183.10
510.42	7002.88
510.60	7049.69
510.77	7091.82
510.95	7192.47
511.12	7272.04
511.30	7229.91
511.47	7407.80
511.64	7066.08
511.82	7183.10
511.99	7087.14
512.17	6967.77
512.34	6820.32
512.51	6937.35
512.69	6974.80
512.86	6956.07
513.04	7066.08
513.21	7000.54
513.38	7002.88
513.56	6949.05
513.73	6850.75
513.90	6722.02
514.08	6527.75
514.25	6738.40
514.43	6785.21
514.60	6960.75
514.77	6916.28
514.95	6864.79
515.12	6862.45
515.29	6733.72
515.47	7042.67
515.64	7328.22
515.81	7117.57
515.99	6787.55
516.16	6532.44
516.33	6059.65
516.51	5518.98
516.68	5446.43
516.85	5530.69
517.03	5617.29
517.20	6090.07
517.37	6516.05
517.54	7052.03
517.72	6785.21
517.89	6211.78
518.06	5715.59
518.24	5734.31
518.41	6228.17
518.58	6551.16
518.75	6593.29
518.93	6607.33
519.10	6544.14
519.27	6860.11
519.45	6867.13
519.62	6974.80
519.79	7087.14
519.96	7005.22
520.14	6799.26
520.31	6492.65
520.48	6686.91
520.65	6630.74
520.83	6998.20
521.00	7115.23
521.17	7077.78
521.34	6909.26
521.52	6899.90
521.69	7054.37
521.86	7258.00
522.03	7040.33
522.20	6789.89
522.38	6499.67
522.55	6480.94
522.72	6789.89
522.89	6614.35
523.07	6712.66
523.24	6764.15
523.41	6981.82
523.58	7232.26
523.75	7286.09
523.92	7185.44
524.10	7248.64
524.27	7131.61
524.44	7112.89
524.61	6916.28
524.78	7080.12
524.96	7019.27
525.13	6904.58
525.30	7112.89
525.47	7096.50
525.64	7243.96
525.81	7082.46
525.98	6544.14
526.16	6450.52
526.33	6097.10
526.50	5982.41
526.67	6111.14
526.84	5914.53
527.01	6424.77
527.18	6539.46
527.36	6782.87
527.53	7119.91
527.70	7028.63
527.87	6782.87
528.04	6693.93
528.21	6794.58
528.38	7101.19
528.55	7194.81
528.72	7344.60
528.89	7396.09
529.07	7166.72
529.24	7101.19
529.41	6855.43
529.58	6825.00
529.75	6731.38
529.92	6956.07
530.09	6986.50
530.26	7243.96
530.43	7138.63
530.60	7265.02
530.77	7330.56
530.94	7386.73
531.11	7080.12
531.28	7016.93
531.46	7096.50
531.63	7208.85
531.80	6946.71
531.97	6911.60
532.14	6768.83
532.31	6506.69
532.48	6228.17
532.65	6403.71
532.82	6569.88
532.99	6750.10
533.16	6864.79
533.33	7096.50
533.50	6883.52
533.67	6672.87
533.84	6509.03
534.01	6801.60
534.18	6902.24
534.35	6808.62
534.52	6832.02
534.69	6920.96
534.86	6916.28
535.03	7129.27
535.20	7066.08
535.37	7016.93
535.54	7260.34
535.71	7138.63
535.88	6960.75
536.05	6906.92
536.22	6736.06
536.38	6640.10
536.55	6588.61
536.72	6342.85
536.89	6291.36
537.06	6649.46
537.23	6846.07
537.40	6960.75
537.57	6810.96
537.74	6876.49
537.91	6916.28
538.08	6766.49
538.25	6817.98
538.42	6991.18
538.59	6888.20
538.75	6710.32
538.92	6366.26
539.09	6649.46
539.26	6497.33
539.43	6431.79
539.60	6452.86
539.77	6476.26
539.94	6518.39
540.11	6267.95
540.28	6181.35
540.44	6253.91
540.61	6190.72
540.78	6211.78
540.95	6600.31
541.12	6597.97
541.29	6349.87
541.46	6654.14
541.62	6640.10
541.79	6597.97
541.96	6513.71
542.13	6375.62
542.30	6532.44
542.47	6731.38
542.63	6609.67
542.80	6492.65
542.97	6562.86
543.14	6450.52
543.31	6459.88
543.48	6689.25
543.64	6604.99
543.81	6986.50
543.98	6789.89
544.15	6649.46
544.32	6478.60
544.48	6679.89
544.65	6623.72
544.82	6597.97
544.99	6532.44
545.16	6640.10
545.32	6296.04
545.49	6773.51
545.66	6551.16
545.83	6715.00
546.00	6682.23
546.16	6469.24
546.33	6630.74
546.50	6408.39
546.67	6551.16
546.83	6546.48
547.00	6399.02
547.17	6340.51
547.34	6167.31
547.50	6167.31
547.67	6216.46
547.84	6244.55
548.00	6321.79
548.17	6520.73
548.34	6277.32
548.51	6420.09
548.67	6544.14
548.84	6555.84
549.01	6525.41
549.18	6368.60
549.34	6644.78
549.51	6420.09
549.68	6576.91
549.84	6340.51
550.01	6630.74
550.18	6314.77
550.34	6431.79
550.51	6422.43
550.68	6375.62
550.84	6312.42
551.01	6392.00
551.18	6282.00
551.34	6387.32
551.51	6518.39
551.68	6469.24
551.84	6396.68
552.01	6324.13
552.18	6279.66
552.34	6106.46
552.51	6094.76
552.68	6085.39
552.84	5998.79
553.01	6356.90
553.18	6200.08
553.34	6260.93
553.51	6214.12
553.67	6399.02
553.84	6331.15
554.01	6417.75
554.17	6263.27
554.34	6359.24
554.51	6246.89
554.67	6403.71
554.84	6415.41
555.00	6183.70
555.17	6366.26
555.33	6485.62
555.50	6083.05
555.67	6296.04
555.83	6143.91
556.00	6134.54
556.16	6071.35
556.33	5839.64
556.50	5951.98
556.66	6069.01
556.83	5846.66
556.99	6031.56
557.16	5977.73
557.32	5998.79
557.49	6092.41
557.65	6019.86
557.82	6040.92
557.98	6031.56
558.15	5863.04
558.32	5652.39
558.48	5551.75
558.65	5631.33
558.81	5867.72
558.98	5753.04
559.14	5788.14
559.31	5923.90
559.47	5816.23
559.64	5724.95
559.80	5673.46
559.97	5673.46
560.13	5839.64
560.30	5968.37
560.46	6104.12
560.63	6134.54
560.79	6069.01
560.96	6099.44
561.12	5809.21
561.29	5626.65
561.45	5483.88
561.61	5671.12
561.78	5706.23
561.94	5729.63
562.11	5614.95
562.27	5753.04
562.44	5734.31
562.60	5956.66
562.77	5954.32
562.93	5799.85
563.10	5799.85
563.26	5771.76
563.42	5912.19
563.59	5827.93
563.75	5760.06
563.92	5664.10
564.08	5724.95
564.24	5834.96
564.41	5785.80
564.57	5921.56
564.74	5598.56
564.90	5715.59
565.07	5722.61
565.23	5493.24
565.39	5467.49
565.56	5483.88
565.72	5425.36
565.88	5558.77
566.05	5432.38
566.21	5495.58
566.38	5558.77
566.54	5610.26
566.70	5575.16
566.87	5678.14
567.03	5621.97
567.19	5834.96
567.36	5760.06
567.52	5724.95
567.68	5518.98
567.85	5385.57
568.01	5233.44
568.17	5336.42
568.34	5359.83
568.50	5315.36
568.66	5352.81
568.83	5362.17
568.99	5383.23
569.15	5313.02
569.32	5416.00
569.48	5261.52
569.64	5408.98
569.81	5348.12
569.97	5315.36
570.13	5348.12
570.30	5224.08
570.46	5090.67
570.62	5083.64
570.78	5069.60
570.95	5032.15
571.11	5104.71
571.27	5224.08
571.43	5235.78
571.60	5322.38
571.76	5362.17
571.92	5254.50
572.09	5439.40
572.25	5441.75
572.41	5371.53
572.57	5284.93
572.74	5430.04
572.90	5310.68
573.06	5451.11
573.22	5378.55
573.38	5298.97
573.55	5245.14
573.71	5320.04
573.87	5252.16
574.03	5373.87
574.20	5439.40
574.36	5385.57
574.52	5142.16
574.68	5221.74
574.84	4922.15
575.01	5041.51
575.17	4985.34
575.33	4978.32
575.49	5128.11
575.65	5130.45
575.82	5130.45
575.98	5114.07
576.14	5008.75
576.30	5172.58
576.46	5198.33
576.62	5165.56
576.79	5116.41
576.95	5081.30
577.11	4983.00
577.27	4943.21
577.43	5006.41
577.59	5008.75
577.75	4887.04
577.92	4781.71
578.08	4828.53
578.24	4734.90
578.40	4753.63
578.56	4875.34
578.72	4950.23
578.88	4823.84
579.04	4861.29
579.21	4922.15
579.37	4971.30
579.53	5111.73
579.69	4896.40
579.85	5001.72
580.01	4966.62
580.17	4926.83
580.33	4994.70
580.49	4994.70
580.65	4957.25
580.82	4884.70
580.98	5081.30
581.14	5015.77
581.30	4826.18
581.46	4971.30
581.62	4863.63
581.78	5104.71
581.94	5020.45
582.10	4943.21
582.26	4959.60
582.42	5029.81
582.58	5020.45
582.74	4980.66
582.90	4889.38
583.06	4704.48
583.22	4987.68
583.38	4887.04
583.54	4863.63
583.70	4919.81
583.86	5036.83
584.02	4847.25
584.18	4875.34
584.34	4894.06
584.50	4875.34
584.66	4798.10
584.82	4784.06
584.98	4706.82
585.14	4702.14
585.30	4631.92
585.46	4596.81
585.62	4620.22
585.78	4683.41
585.94	4500.85
586.10	4517.23
586.26	4765.33
586.42	4669.37
586.58	4814.48
586.74	4624.90
586.90	4727.88
587.06	4837.89
587.22	4812.14
587.38	4830.87
587.54	4664.69
587.70	4599.15
587.86	4564.04
588.02	4629.58
588.18	4470.42
588.34	4318.29
588.49	4042.11
588.65	3859.54
588.81	3817.41
588.97	3836.14
589.13	3932.10
589.29	3815.07
589.45	3815.07
589.61	4049.13
589.77	4182.54
589.93	4327.65
590.08	4320.63
590.24	4505.53
590.40	4435.32
590.56	4524.26
590.72	4507.87
590.88	4383.82
591.04	4271.48
591.20	4315.95
591.35	4304.25
591.51	4386.16
591.67	4294.88
591.83	4428.29
591.99	4257.43
592.15	4205.94
592.31	4360.42
592.46	4283.18
592.62	4290.20
592.78	4320.63
592.94	4215.30
593.10	4322.97
593.26	4428.29
593.41	4435.32
593.57	4358.08
593.73	4257.43
593.89	4205.94
594.05	4131.05
594.20	4271.48
594.36	4243.39
594.52	4212.96
594.68	4084.23
594.84	3997.64
594.99	4273.82
595.15	4224.67
595.31	4119.34
595.47	4262.12
595.62	4194.24
595.78	4128.70
595.94	4414.25
596.10	4156.79
596.25	4187.22
596.41	4152.11
596.57	4222.33
596.73	4337.01
596.88	4124.02
597.04	4311.27
597.20	4163.81
597.36	4194.24
597.51	4180.20
597.67	4238.71
