SpectraSuite Data File
++++++++++++++++++++++++++++++++++++
Date: Mon Oct 07 14:54:55 GMT-05:00 2013
User: price-jones
Dark Spectrum Present: No
Reference Spectrum Present: No
Number of Sampled Component Spectra: 1
Spectrometers: USB2+H05261
Integration Time (usec): 10000 (USB2+H05261)
Spectra Averaged: 1 (USB2+H05261)
Boxcar Smoothing: 0 (USB2+H05261)
Correct for Electrical Dark: No (USB2+H05261)
Strobe/Lamp Enabled: No (USB2+H05261)
Correct for Detector Non-linearity: No (USB2+H05261)
Correct for Stray Light: No (USB2+H05261)
Number of Pixels in Processed Spectrum: 2048
>>>>>Begin Processed Spectral Data<<<<<
365.73	0.00
365.92	0.00
366.12	0.00
366.32	0.00
366.52	0.00
366.72	0.00
366.91	0.00
367.11	0.00
367.31	0.00
367.51	0.00
367.70	0.00
367.90	0.00
368.10	0.00
368.30	0.00
368.49	0.00
368.69	0.00
368.89	0.00
369.09	0.00
369.28	0.00
369.48	0.00
369.68	0.00
369.87	0.00
370.07	0.00
370.27	0.00
370.47	0.00
370.66	0.00
370.86	0.00
371.06	0.00
371.25	0.00
371.45	11.70
371.65	0.00
371.84	0.00
372.04	35.11
372.24	30.43
372.44	53.83
372.63	0.00
372.83	0.00
373.03	0.00
373.22	4.68
373.42	0.00
373.62	9.36
373.81	0.00
374.01	0.00
374.21	0.00
374.40	0.00
374.60	7.02
374.79	133.41
374.99	65.54
375.19	112.35
375.38	142.77
375.58	60.85
375.78	112.35
375.97	102.98
376.17	86.60
376.37	58.51
376.56	112.35
376.76	110.01
376.95	163.84
377.15	201.29
377.35	229.37
377.54	301.93
377.74	220.01
377.93	182.56
378.13	198.95
378.33	227.03
378.52	163.84
378.72	126.39
378.91	138.09
379.11	131.07
379.31	191.92
379.50	58.51
379.70	152.13
379.89	273.84
380.09	236.39
380.28	210.65
380.48	224.69
380.68	145.11
380.87	72.56
381.07	177.88
381.26	100.64
381.46	67.88
381.65	39.79
381.85	138.09
382.04	119.37
382.24	49.15
382.43	95.96
382.63	81.92
382.83	60.85
383.02	93.62
383.22	60.85
383.41	18.72
383.61	67.88
383.80	30.43
384.00	187.24
384.19	212.99
384.39	238.73
384.58	203.63
384.78	119.37
384.97	121.71
385.17	147.45
385.36	95.96
385.56	81.92
385.75	161.50
385.95	163.84
386.14	294.91
386.34	231.71
386.53	212.99
386.72	198.95
386.92	126.39
387.11	231.71
387.31	276.18
387.50	222.35
387.70	154.48
387.89	168.52
388.09	217.67
388.28	212.99
388.48	273.84
388.67	194.26
388.86	264.48
389.06	245.76
389.25	315.97
389.45	397.89
389.64	381.51
389.84	411.93
390.03	318.31
390.22	269.16
390.42	451.72
390.61	397.89
390.81	468.11
391.00	423.64
391.19	418.96
391.39	437.68
391.58	358.10
391.78	372.15
391.97	320.65
392.16	301.93
392.36	299.59
392.55	126.39
392.75	49.15
392.94	21.06
393.13	0.00
393.33	74.90
393.52	70.22
393.71	257.46
393.91	381.51
394.10	304.27
394.29	355.76
394.49	414.27
394.68	486.83
394.88	517.26
395.07	543.00
395.26	521.94
395.46	437.68
395.65	435.34
395.84	355.76
396.04	304.27
396.23	170.86
396.42	114.69
396.62	39.79
396.81	112.35
397.00	191.92
397.19	372.15
397.39	484.49
397.58	531.30
397.77	596.84
397.97	662.37
398.16	582.79
398.35	638.97
398.55	739.61
398.74	748.97
398.93	751.31
399.12	725.57
399.32	634.29
399.51	720.88
399.70	816.85
399.90	786.42
400.09	826.21
400.28	725.57
400.47	882.38
400.67	819.19
400.86	800.46
401.05	929.19
401.24	922.17
401.44	887.06
401.63	894.08
401.82	889.40
402.01	985.37
402.21	961.96
402.40	924.51
402.59	933.87
402.78	891.74
402.97	800.46
403.17	828.55
403.36	938.55
403.55	985.37
403.74	959.62
403.93	940.90
404.13	922.17
404.32	793.44
404.51	798.12
404.70	983.02
404.89	891.74
405.09	910.47
405.28	854.30
405.47	854.30
405.66	882.38
405.85	837.91
406.05	798.12
406.24	753.65
406.43	826.21
406.62	971.32
406.81	973.66
407.00	861.32
407.20	854.30
407.39	802.80
407.58	929.19
407.77	945.58
407.96	973.66
408.15	999.41
408.34	1015.79
408.54	1006.43
408.73	1104.73
408.92	1006.43
409.11	973.66
409.30	924.51
409.49	835.57
409.68	898.77
409.87	779.40
410.07	933.87
410.26	940.90
410.45	959.62
410.64	1015.79
410.83	1029.84
411.02	1174.95
411.21	1163.25
411.40	1151.54
411.59	1245.16
411.78	1130.48
411.98	1172.61
412.17	1137.50
412.36	1245.16
412.55	1198.35
412.74	1177.29
412.93	1100.05
413.12	1130.48
413.31	1263.89
413.50	1259.21
413.69	1268.57
413.88	1177.29
414.07	1160.91
414.26	1158.57
414.45	1259.21
414.64	1123.46
414.83	1186.65
415.02	1165.59
415.22	1095.37
415.41	1266.23
415.60	1249.85
415.79	1275.59
415.98	1399.64
416.17	1252.19
416.36	1261.55
416.55	1329.42
416.74	1196.01
416.93	1179.63
417.12	1284.95
417.31	1238.14
417.50	1310.70
417.69	1252.19
417.88	1324.74
418.07	1172.61
418.26	1273.25
418.45	1231.12
418.64	1273.25
418.83	1280.27
419.02	1425.39
419.21	1280.27
419.39	1324.74
419.58	1174.95
419.77	1104.73
419.96	1252.19
420.15	1249.85
420.34	1348.15
420.53	1362.19
420.72	1495.60
420.91	1437.09
421.10	1399.64
421.29	1406.66
421.48	1303.68
421.67	1364.53
421.86	1343.47
422.05	1252.19
422.24	1107.07
422.43	1114.10
422.61	1266.23
422.80	1385.60
422.99	1334.11
423.18	1277.93
423.37	1231.12
423.56	1247.51
423.75	1153.88
423.94	1380.92
424.13	1282.61
424.32	1266.23
424.50	1268.57
424.69	1303.68
424.88	1313.04
425.07	1306.02
425.26	1291.98
425.45	1242.82
425.64	1219.42
425.83	1186.65
426.01	1299.00
426.20	1345.81
426.39	1277.93
426.58	1163.25
426.77	1097.71
426.96	968.98
427.15	1071.97
427.33	1137.50
427.52	1270.91
427.71	1284.95
427.90	1235.80
428.09	1193.67
428.28	1226.44
428.46	1153.88
428.65	1207.72
428.84	1111.75
429.03	1294.32
429.22	1118.78
429.40	1083.67
429.59	851.96
429.78	720.88
429.97	807.48
430.16	863.66
430.34	826.21
430.53	688.12
430.72	823.87
430.91	924.51
431.10	1188.99
431.28	1299.00
431.47	1523.69
431.66	1575.18
431.85	1320.06
432.03	1282.61
432.22	1163.25
432.41	1228.78
432.60	1423.05
432.79	1497.94
432.97	1427.73
433.16	1516.67
433.35	1306.02
433.54	1125.80
433.72	1165.59
433.91	1121.12
434.10	1287.29
434.28	1334.11
434.47	1390.28
434.66	1458.15
434.85	1383.26
435.03	1373.89
435.22	1453.47
435.41	1530.71
435.59	1495.60
435.78	1577.52
435.97	1502.62
436.16	1572.84
436.34	1427.73
436.53	1446.45
436.72	1572.84
436.90	1439.43
437.09	1404.32
437.28	1474.54
437.46	1605.61
437.65	1413.68
437.84	1320.06
438.02	1219.42
438.21	1238.14
438.40	1301.34
438.58	1418.36
438.77	1483.90
438.96	1427.73
439.14	1570.50
439.33	1605.61
439.52	1598.59
439.70	1551.78
439.89	1523.69
440.08	1453.47
440.26	1427.73
440.45	1551.78
440.63	1626.67
440.82	1708.59
441.01	1643.06
441.19	1652.42
441.38	1727.32
441.57	1790.51
441.75	1806.89
441.94	1813.92
442.12	1884.13
442.31	1827.96
442.50	1717.95
442.68	1818.60
442.87	1715.61
443.05	1736.68
443.24	1877.11
443.43	1834.98
443.61	1842.00
443.80	1907.54
443.98	1762.42
444.17	1783.49
444.35	1900.52
444.54	2005.84
444.73	1921.58
444.91	1757.74
445.10	1743.70
445.28	1696.89
445.47	1565.82
445.65	1612.63
445.84	1790.51
446.02	1839.66
446.21	1668.80
446.39	1832.64
446.58	1797.53
446.77	1806.89
446.95	1940.30
447.14	1937.96
447.32	1905.20
447.51	1844.34
447.69	1949.67
447.88	1764.76
448.06	1905.20
448.25	1891.15
448.43	1905.20
448.62	1813.92
448.80	1767.10
448.99	1888.81
449.17	2057.33
449.36	1844.34
449.54	1998.82
449.73	1947.33
449.91	2069.03
450.10	2022.22
450.28	2024.56
450.46	1987.11
450.65	2076.06
450.83	1968.39
451.02	1961.37
451.20	1956.69
451.39	1966.05
451.57	1980.09
451.76	1991.80
451.94	1891.15
452.13	1816.26
452.31	1832.64
452.49	1722.63
452.68	1755.40
452.86	1746.04
453.05	1757.74
453.23	1802.21
453.42	1853.70
453.60	2045.63
453.78	1968.39
453.97	1935.62
454.15	1865.41
454.34	1984.77
454.52	1849.02
454.70	1921.58
454.89	1926.26
455.07	1919.24
455.26	1949.67
455.44	1849.02
455.62	1942.64
455.81	1975.41
455.99	2036.27
456.17	2040.95
456.36	1994.14
456.54	2099.46
456.73	2120.53
456.91	2125.21
457.09	2080.74
457.28	2125.21
457.46	1977.75
457.64	1942.64
457.83	1968.39
458.01	1963.71
458.19	1907.54
458.38	1865.41
458.56	2094.78
458.74	2045.63
458.93	1963.71
459.11	2019.88
459.29	2062.01
459.48	2024.56
459.66	1933.28
459.84	2010.52
460.03	2062.01
460.21	2073.71
460.39	2031.58
460.57	2062.01
460.76	2090.10
460.94	2076.06
461.12	2106.48
461.31	2043.29
461.49	2190.74
461.67	2211.81
461.85	2218.83
462.04	2087.76
462.22	2230.53
462.40	2101.80
462.59	2057.33
462.77	2153.29
462.95	2193.08
463.13	2174.36
463.32	2122.87
463.50	2012.86
463.68	2008.18
463.86	2050.31
464.05	2155.63
464.23	2087.76
464.41	1902.86
464.59	2008.18
464.78	2052.65
464.96	1944.99
465.14	1989.46
465.32	2071.37
465.50	2047.97
465.69	2071.37
465.87	2078.40
466.05	2019.88
466.23	1994.14
466.41	1937.96
466.60	1975.41
466.78	1919.24
466.96	1891.15
467.14	2019.88
467.32	2031.58
467.51	2125.21
467.69	1900.52
467.87	1961.37
468.05	2008.18
468.23	2167.34
468.41	2073.71
468.60	2097.12
468.78	1998.82
468.96	1970.73
469.14	2047.97
469.32	2146.27
469.50	1956.69
469.69	1987.11
469.87	2008.18
470.05	1863.07
470.23	2045.63
470.41	1961.37
470.59	2054.99
470.77	1977.75
470.95	1870.09
471.14	2076.06
471.32	2038.61
471.50	2169.68
471.68	2125.21
471.86	2256.28
472.04	2197.76
472.22	2225.85
472.40	2139.25
472.58	2167.34
472.77	2036.27
472.95	2087.76
473.13	2150.95
473.31	2083.08
473.49	2139.25
473.67	2111.16
473.85	2111.16
474.03	2169.68
474.21	2190.74
474.39	2249.25
474.57	2251.60
474.75	2246.91
474.93	2176.70
475.12	2239.89
475.30	2150.95
475.48	2385.01
475.66	2228.19
475.84	2090.10
476.02	2101.80
476.20	2176.70
476.38	2209.47
476.56	2197.76
476.74	2242.23
476.92	2293.72
477.10	2427.14
477.28	2637.78
477.46	2457.56
477.64	2534.80
477.82	2368.62
478.00	2480.97
478.18	2415.43
478.36	2466.92
478.54	2422.45
478.72	2413.09
478.90	2483.31
479.08	2548.84
479.26	2576.93
479.44	2668.21
479.62	2647.15
479.80	2633.10
479.98	2785.24
480.16	2502.03
480.34	2518.42
480.52	2682.25
480.70	2518.42
480.88	2480.97
481.06	2708.00
481.24	2782.90
481.41	2717.36
481.59	2738.43
481.77	2803.96
481.95	2729.06
482.13	2712.68
482.31	2846.09
482.49	2658.85
482.67	2801.62
482.85	2743.11
483.03	2850.77
483.21	2832.05
483.39	2803.96
483.57	2738.43
483.74	2764.17
483.92	2789.92
484.10	2883.54
484.28	2810.98
484.46	2850.77
484.64	3012.27
484.82	2834.39
485.00	2822.69
485.18	2677.57
485.35	2696.30
485.53	2626.08
485.71	2246.91
485.89	2101.80
486.07	2326.49
486.25	2567.57
486.43	2693.96
486.61	2696.30
486.78	2759.49
486.96	2663.53
487.14	3040.36
487.32	3056.74
487.50	2963.12
487.68	3124.62
487.85	3229.94
488.03	3094.19
488.21	3159.72
488.39	3094.19
488.57	3052.06
488.75	3054.40
488.92	3105.89
489.10	3290.79
489.28	3356.33
489.46	3531.87
489.64	3527.19
489.81	3623.15
489.99	3466.33
490.17	3466.33
490.35	3548.25
490.53	3494.42
490.70	3391.44
490.88	3510.80
491.06	3438.25
491.24	3520.17
491.41	3302.50
491.59	3136.32
491.77	3112.91
491.95	3236.96
492.13	3272.07
492.30	3541.23
492.48	3604.42
492.66	3691.02
492.84	3693.37
493.01	3585.70
493.19	3489.74
493.37	3651.24
493.54	3440.59
493.72	3623.15
493.90	3719.11
494.08	3894.65
494.25	3782.31
494.43	3854.86
494.61	4021.04
494.79	3871.25
494.96	3896.99
495.14	3794.01
495.32	3653.58
495.49	3552.93
495.67	3618.47
495.85	3925.08
496.02	3925.08
496.20	3913.38
496.38	4028.06
496.55	3889.97
496.73	4028.06
496.91	3908.69
497.09	3985.93
497.26	4135.73
497.44	3985.93
497.62	3798.69
497.79	3946.14
497.97	3581.02
498.14	3662.94
498.32	3765.92
498.50	3904.01
498.67	4025.72
498.85	3985.93
499.03	4016.36
499.20	4105.30
499.38	4011.68
499.56	4053.81
499.73	3803.37
499.91	3854.86
500.08	3712.09
500.26	3714.43
500.44	3700.39
500.61	3801.03
500.79	3866.56
500.97	3887.63
501.14	3742.52
501.32	3794.01
501.49	3658.26
501.67	3880.61
501.84	3737.84
502.02	3988.27
502.20	4004.66
502.37	3857.20
502.55	4016.36
502.72	4079.55
502.90	4124.02
503.07	4128.70
503.25	4051.47
503.43	3927.42
503.60	3698.05
503.78	3791.67
503.95	3632.51
504.13	3960.19
504.30	3981.25
504.48	3997.64
504.65	3941.46
504.83	3918.06
505.01	4126.36
505.18	4128.70
505.36	4248.07
505.53	4166.15
505.71	4376.80
505.88	4264.46
506.06	4294.88
506.23	4147.43
506.41	4147.43
506.58	4032.74
506.76	4187.22
506.93	4173.18
507.11	3983.59
507.28	4182.54
507.46	4070.19
507.63	3904.01
507.81	3803.37
507.98	4002.32
508.16	3999.98
508.33	4058.49
508.50	4194.24
508.68	4100.62
508.85	4418.93
509.03	4266.80
509.20	4290.20
509.38	4156.79
509.55	3983.59
509.73	4037.42
509.90	4219.99
510.08	4227.01
510.25	4236.37
510.42	4126.36
510.60	4070.19
510.77	4109.98
510.95	4196.58
511.12	4234.03
511.30	4245.73
511.47	4472.76
511.64	4451.70
511.82	4180.20
511.99	4121.68
512.17	4063.17
512.34	3838.48
512.51	4086.58
512.69	3981.25
512.86	4028.06
513.04	4177.86
513.21	4095.94
513.38	4112.32
513.56	4039.76
513.73	3901.67
513.90	3920.40
514.08	4102.96
514.25	4135.73
514.43	4025.72
514.60	4086.58
514.77	3894.65
514.95	3957.85
515.12	3988.27
515.29	3927.42
515.47	4152.11
515.64	4194.24
515.81	4102.96
515.99	4168.49
516.16	3932.10
516.33	3592.72
516.51	3438.25
516.68	3098.87
516.85	3141.00
517.03	3267.39
517.20	3538.89
517.37	3932.10
517.54	4154.45
517.72	3927.42
517.89	3559.95
518.06	3391.44
518.24	3442.93
518.41	3597.40
518.58	3772.94
518.75	3920.40
518.93	4072.53
519.10	3885.29
519.27	3878.27
519.45	3911.04
519.62	4259.78
519.79	4138.07
519.96	4189.56
520.14	3934.44
520.31	3946.14
520.48	4023.38
520.65	4063.17
520.83	4067.85
521.00	4255.09
521.17	4145.09
521.34	4149.77
521.52	4079.55
521.69	4126.36
521.86	4166.15
522.03	4411.91
522.20	4067.85
522.38	3819.75
522.55	3859.54
522.72	3971.89
522.89	4028.06
523.07	3999.98
523.24	4077.21
523.41	4222.33
523.58	4156.79
523.75	4315.95
523.92	4217.65
524.10	4255.09
524.27	4332.33
524.44	4278.50
524.61	4126.36
524.78	4184.88
524.96	4119.34
525.13	4262.12
525.30	4133.39
525.47	4222.33
525.64	4231.69
525.81	4222.33
525.98	3929.76
526.16	3620.81
526.33	3681.66
526.50	3602.08
526.67	3501.44
526.84	3515.48
527.01	3761.24
527.18	3899.33
527.36	3920.40
527.53	4126.36
527.70	4133.39
527.87	4145.09
528.04	4016.36
528.21	4100.62
528.38	4126.36
528.55	4390.84
528.72	4224.67
528.89	4287.86
529.07	4432.97
529.24	4217.65
529.41	4210.62
529.58	4112.32
529.75	4070.19
529.92	4067.85
530.09	4222.33
530.26	4163.81
530.43	4058.49
530.60	4219.99
530.77	4269.14
530.94	4337.01
531.11	4212.96
531.28	4189.56
531.46	4131.05
531.63	4196.58
531.80	4053.81
531.97	4114.66
532.14	3988.27
532.31	3854.86
532.48	3709.75
532.65	3702.73
532.82	3854.86
532.99	3997.64
533.16	4100.62
533.33	4102.96
533.50	4067.85
533.67	4037.42
533.84	3964.87
534.01	4049.13
534.18	3988.27
534.35	4212.96
534.52	3908.69
534.69	4056.15
534.86	4051.47
535.03	4086.58
535.20	4177.86
535.37	4329.99
535.54	4341.69
535.71	4156.79
535.88	4189.56
536.05	4170.83
536.22	3981.25
536.38	3997.64
536.55	3939.12
536.72	3918.06
536.89	3719.11
537.06	3911.04
537.23	4133.39
537.40	3999.98
537.57	4117.00
537.74	4107.64
537.91	4067.85
538.08	4039.76
538.25	4056.15
538.42	4135.73
538.59	3995.29
538.75	3946.14
538.92	3911.04
539.09	3808.05
539.26	3845.50
539.43	3742.52
539.60	3822.09
539.77	3969.55
539.94	3885.29
540.11	3763.58
540.28	3637.19
540.44	3805.71
540.61	3798.69
540.78	3779.97
540.95	3957.85
541.12	3875.93
541.29	3985.93
541.46	3995.29
541.62	4002.32
541.79	3992.95
541.96	3875.93
542.13	3686.34
542.30	3854.86
542.47	3978.91
542.63	3932.10
542.80	3962.53
542.97	3992.95
543.14	3812.73
543.31	3808.05
543.48	3838.48
543.64	4079.55
543.81	3995.29
543.98	3999.98
544.15	3997.64
544.32	3906.35
544.48	3765.92
544.65	4070.19
544.82	4074.87
544.99	3978.91
545.16	3892.31
545.32	3878.27
545.49	3866.56
545.66	3960.19
545.83	3990.61
546.00	3918.06
546.16	3826.78
546.33	3957.85
546.50	3852.52
546.67	3889.97
546.83	3908.69
547.00	3833.80
547.17	3705.07
547.34	3646.55
547.50	3742.52
547.67	3866.56
547.84	3676.98
548.00	3831.46
548.17	3829.12
548.34	3868.91
548.51	4086.58
548.67	3836.14
548.84	3892.31
549.01	3833.80
549.18	3808.05
549.34	3894.65
549.51	3747.20
549.68	3791.67
549.84	3777.62
550.01	3681.66
550.18	3735.50
550.34	3700.39
550.51	3726.13
550.68	3826.78
550.84	3707.41
551.01	3721.45
551.18	3695.71
551.34	3714.43
551.51	3735.50
551.68	3906.35
551.84	3866.56
552.01	3899.33
552.18	3889.97
552.34	3637.19
552.51	3679.32
552.68	3569.32
552.84	3740.18
553.01	3702.73
553.18	3796.35
553.34	3653.58
553.51	3721.45
553.67	3751.88
553.84	3716.77
554.01	3824.44
554.17	3798.69
554.34	3751.88
554.51	3810.39
554.67	3794.01
554.84	3810.39
555.00	3658.26
555.17	3786.99
555.33	3772.94
555.50	3801.03
555.67	3754.22
555.83	3625.49
556.00	3552.93
556.16	3672.30
556.33	3576.34
556.50	3648.90
556.66	3613.79
556.83	3478.04
556.99	3471.01
557.16	3562.30
557.32	3627.83
557.49	3557.61
557.65	3574.00
557.82	3625.49
557.98	3623.15
558.15	3534.21
558.32	3407.82
558.48	3342.28
558.65	3288.45
558.81	3421.86
558.98	3466.33
559.14	3543.57
559.31	3499.10
559.47	3417.18
559.64	3382.07
559.80	3417.18
559.97	3363.35
560.13	3391.44
560.30	3576.34
560.46	3597.40
560.63	3632.51
560.79	3850.18
560.96	3548.25
561.12	3494.42
561.29	3283.77
561.45	3363.35
561.61	3325.90
561.78	3452.29
561.94	3391.44
562.11	3475.70
562.27	3328.24
562.44	3386.76
562.60	3471.01
562.77	3574.00
562.93	3566.98
563.10	3510.80
563.26	3297.81
563.42	3510.80
563.59	3417.18
563.75	3297.81
563.92	3372.71
564.08	3400.80
564.24	3365.69
564.41	3368.03
564.57	3377.39
564.74	3478.04
564.90	3414.84
565.07	3368.03
565.23	3176.11
565.39	3171.43
565.56	3269.73
565.72	3227.60
565.88	3255.69
566.05	3300.16
566.21	3297.81
566.38	3236.96
566.54	3403.14
566.70	3428.88
566.87	3431.23
567.03	3412.50
567.19	3557.61
567.36	3377.39
567.52	3309.52
567.68	3145.68
567.85	3234.62
568.01	3222.92
568.17	3171.43
568.34	3056.74
568.50	3199.51
568.66	3185.47
568.83	3145.68
568.99	3272.07
569.15	3178.45
569.32	3232.28
569.48	3143.34
569.64	3304.84
569.81	3169.09
569.97	3073.12
570.13	3178.45
570.30	2958.44
570.46	2935.03
570.62	2988.86
570.78	2967.80
570.95	3042.70
571.11	3115.25
571.27	3286.11
571.43	3047.38
571.60	3084.83
571.76	3171.43
571.92	3215.90
572.09	3087.17
572.25	3232.28
572.41	3103.55
572.57	3023.97
572.74	3023.97
572.90	3155.04
573.06	3098.87
573.22	3023.97
573.38	3173.77
573.55	3143.34
573.71	3124.62
573.87	3169.09
574.03	3059.08
574.20	3066.10
574.36	3054.40
574.52	3082.49
574.68	3000.57
574.84	2876.52
575.01	2942.05
575.17	2878.86
575.33	2967.80
575.49	2918.65
575.65	3019.29
575.82	2965.46
575.98	3110.57
576.14	2871.84
576.30	2902.26
576.46	3026.31
576.62	2960.78
576.79	2972.48
576.95	2986.52
577.11	3012.27
577.27	3042.70
577.43	2951.42
577.59	2951.42
577.75	2820.35
577.92	2890.56
578.08	2803.96
578.24	2892.90
578.40	2911.63
578.56	3026.31
578.72	2841.41
578.88	2787.58
579.04	2878.86
579.21	2920.99
579.37	2949.08
579.53	2939.71
579.69	2909.29
579.85	2977.16
580.01	2967.80
580.17	2935.03
580.33	3028.65
580.49	2932.69
580.65	2832.05
580.82	2876.52
580.98	3077.80
581.14	2855.45
581.30	2843.75
581.46	2906.95
581.62	2974.82
581.78	2998.23
581.94	2995.89
582.10	2963.12
582.26	2843.75
582.42	2864.82
582.58	3000.57
582.74	2965.46
582.90	2883.54
583.06	2855.45
583.22	2965.46
583.38	2906.95
583.54	2768.85
583.70	2857.79
583.86	2946.73
584.02	2813.32
584.18	2904.60
584.34	2981.84
584.50	2942.05
584.66	2878.86
584.82	2855.45
584.98	2789.92
585.14	2794.60
585.30	2712.68
585.46	2771.19
585.62	2623.74
585.78	2684.59
585.94	2752.47
586.10	2773.53
586.26	2832.05
586.42	2738.43
586.58	2953.76
586.74	2841.41
586.90	2932.69
587.06	2841.41
587.22	2705.66
587.38	2722.04
587.54	2717.36
587.70	2607.36
587.86	2712.68
588.02	2703.32
588.18	2654.17
588.34	2630.76
588.49	2328.83
588.65	2179.04
588.81	2190.74
588.97	2211.81
589.13	2296.07
589.29	2223.51
589.45	2228.19
589.61	2420.11
589.77	2441.18
589.93	2555.86
590.08	2576.93
590.24	2771.19
590.40	2537.14
590.56	2644.81
590.72	2597.99
590.88	2532.46
591.04	2602.68
591.20	2492.67
591.35	2532.46
591.51	2499.69
591.67	2560.55
591.83	2513.74
591.99	2574.59
592.15	2612.04
592.31	2558.21
592.46	2527.78
592.62	2586.29
592.78	2614.38
592.94	2492.67
593.10	2497.35
593.26	2553.52
593.41	2640.12
593.57	2459.90
593.73	2509.05
593.89	2473.95
594.05	2520.76
594.20	2363.94
594.36	2534.80
594.52	2392.03
594.68	2469.27
594.84	2511.39
594.99	2509.05
595.15	2562.89
595.31	2448.20
595.47	2729.06
595.62	2583.95
595.78	2609.70
595.94	2518.42
596.10	2572.25
596.25	2612.04
596.41	2448.20
596.57	2466.92
596.73	2537.14
596.88	2478.63
597.04	2422.45
597.20	2544.16
597.36	2464.58
597.51	2478.63
597.67	2352.24
597.83	2471.61
597.99	2373.30
598.14	2253.94
598.30	2377.98
598.46	2380.32
598.61	2363.94
598.77	2338.20
598.93	2424.80
599.09	2438.84
599.24	2417.77
599.40	2420.11
