SpectraSuite Data File
++++++++++++++++++++++++++++++++++++
Date: Mon Oct 07 14:53:43 GMT-05:00 2013
User: price-jones
Dark Spectrum Present: No
Reference Spectrum Present: No
Number of Sampled Component Spectra: 1
Spectrometers: USB2+H05261
Integration Time (usec): 100000 (USB2+H05261)
Spectra Averaged: 1 (USB2+H05261)
Boxcar Smoothing: 0 (USB2+H05261)
Correct for Electrical Dark: No (USB2+H05261)
Strobe/Lamp Enabled: No (USB2+H05261)
Correct for Detector Non-linearity: No (USB2+H05261)
Correct for Stray Light: No (USB2+H05261)
Number of Pixels in Processed Spectrum: 2048
>>>>>Begin Processed Spectral Data<<<<<
365.73	0.00
365.92	0.00
366.12	0.00
366.32	0.00
366.52	0.00
366.72	0.00
366.91	0.00
367.11	0.00
367.31	0.00
367.51	0.00
367.70	0.00
367.90	0.00
368.10	0.00
368.30	0.00
368.49	0.00
368.69	0.00
368.89	0.00
369.09	0.00
369.28	0.00
369.48	0.00
369.68	0.00
369.87	0.00
370.07	0.00
370.27	0.00
370.47	702.16
370.66	3431.23
370.86	4039.76
371.06	4463.40
371.25	4393.19
371.45	4065.51
371.65	3620.81
371.84	3330.58
372.04	3562.30
372.24	4023.38
372.44	4250.41
372.63	4212.96
372.83	3918.06
373.03	3407.82
373.22	3133.98
373.42	3297.81
373.62	3815.07
373.81	4100.62
374.01	3922.74
374.21	3728.47
374.40	3527.19
374.60	3599.74
374.79	4014.02
374.99	4636.60
375.19	5104.71
375.38	5233.44
375.58	4608.51
375.78	4770.01
375.97	4629.58
376.17	4779.37
376.37	4807.46
376.56	5071.94
376.76	5284.93
376.95	5694.52
377.15	6001.13
377.35	6434.13
377.54	6656.48
377.74	6731.38
377.93	6918.62
378.13	6729.04
378.33	6429.45
378.52	5858.36
378.72	5509.62
378.91	5518.98
379.11	5334.08
379.31	5191.31
379.50	5067.26
379.70	5467.49
379.89	6045.60
380.09	6497.33
380.28	6597.97
380.48	6588.61
380.68	6504.35
380.87	6403.71
381.07	5877.09
381.26	5497.92
381.46	4978.32
381.65	4980.66
381.85	4992.36
382.04	4578.09
382.24	4374.46
382.43	4114.66
382.63	3880.61
382.83	4140.41
383.02	4079.55
383.22	4072.53
383.41	4056.15
383.61	4362.76
383.80	4751.29
384.00	5640.69
384.19	6235.19
384.39	6480.94
384.58	6572.22
384.78	6548.82
384.97	6452.86
385.17	6155.61
385.36	5778.78
385.56	5643.03
385.75	5741.33
385.95	6204.76
386.14	6862.45
386.34	6848.41
386.53	6406.05
386.72	6155.61
386.92	6139.23
387.11	6654.14
387.31	6932.67
387.50	6754.79
387.70	6502.01
387.89	6445.84
388.09	6544.14
388.28	6609.67
388.48	6604.99
388.67	7220.55
388.86	7730.79
389.06	8308.90
389.25	8828.50
389.45	8912.76
389.64	8903.40
389.84	8835.52
390.03	8685.73
390.22	8671.68
390.42	8875.31
390.61	9399.59
390.81	10307.72
391.00	10635.39
391.19	10064.30
391.39	9888.76
391.58	9193.62
391.78	8905.74
391.97	8484.44
392.16	7908.67
392.36	7269.70
392.55	5966.03
392.75	4704.48
392.94	3939.12
393.13	3620.81
393.33	4372.12
393.52	5626.65
393.71	6883.52
393.91	7775.26
394.10	8538.27
394.29	9486.19
394.49	9848.97
394.68	10562.84
394.88	10607.31
395.07	10991.16
395.26	11108.18
395.46	10787.53
395.65	10251.55
395.84	8856.59
396.04	7433.54
396.23	6260.93
396.42	5107.05
396.62	4748.95
396.81	5586.86
397.00	7236.94
397.19	9050.85
397.39	10689.23
397.58	12187.17
397.77	12973.59
397.97	13376.16
398.16	13577.45
398.35	13951.93
398.55	14721.97
398.74	14977.09
398.93	15515.41
399.12	14920.92
399.32	14527.71
399.51	14759.42
399.70	15840.75
399.90	15915.64
400.09	15995.22
400.28	16023.31
400.47	15676.91
400.67	16622.48
400.86	17018.04
401.05	17085.91
401.24	17221.66
401.44	17483.80
401.63	17242.73
401.82	17282.52
402.01	17287.20
402.21	17582.10
402.40	17788.07
402.59	17242.73
402.78	16514.82
402.97	15976.50
403.17	16570.99
403.36	17439.33
403.55	18490.23
403.74	18787.48
403.93	17743.60
404.13	16175.44
404.32	15878.19
404.51	16865.90
404.70	17792.75
404.89	18317.03
405.09	17996.38
405.28	17296.56
405.47	17425.29
405.66	17259.11
405.85	16716.11
406.05	16407.16
406.24	16629.51
406.43	17341.03
406.62	18082.98
406.81	18139.15
407.00	17528.27
407.20	16910.37
407.39	16952.50
407.58	17708.49
407.77	18597.90
407.96	19339.85
408.15	19154.94
408.34	19428.79
408.54	20336.91
408.73	20961.84
408.92	20016.26
409.11	19775.19
409.30	18864.72
409.49	17261.45
409.68	16613.12
409.87	15770.53
410.07	17022.72
410.26	18197.67
410.45	19253.25
410.64	19906.26
410.83	20498.41
411.02	20917.37
411.21	21933.16
411.40	21638.25
411.59	21633.57
411.78	21617.19
411.98	21296.53
412.17	21752.94
412.36	21088.23
412.55	21453.35
412.74	20554.58
412.93	20236.27
413.12	20451.60
413.31	22490.21
413.50	22576.81
413.69	23295.35
413.88	22312.33
414.07	21436.97
414.26	21832.52
414.45	22628.30
414.64	22838.95
414.83	22735.96
415.02	22363.82
415.22	22436.38
415.41	22981.72
415.60	23489.62
415.79	24510.09
415.98	24758.19
416.17	25195.87
416.36	24109.86
416.55	23922.62
416.74	23403.02
416.93	22654.05
417.12	22560.42
417.31	22829.59
417.50	22857.67
417.69	24067.73
417.88	23826.65
418.07	23571.54
418.26	23412.38
418.45	23527.06
418.64	24437.53
418.83	25116.29
419.02	24938.41
419.21	24734.78
419.39	23435.78
419.58	22548.72
419.77	22305.31
419.96	23466.21
420.15	24779.25
420.34	25460.35
420.53	26101.65
420.72	27222.77
420.91	26623.59
421.10	26443.37
421.29	25937.82
421.48	24933.73
421.67	26836.58
421.86	25640.57
422.05	24411.79
422.24	21799.75
422.43	21315.26
422.61	23452.17
422.80	25436.94
422.99	25626.53
423.18	24954.79
423.37	24243.27
423.56	23899.21
423.75	24489.03
423.94	25055.43
424.13	23693.24
424.32	24341.57
424.50	24259.65
424.69	23768.14
424.88	23868.78
425.07	23779.84
425.26	23908.57
425.45	23405.36
425.64	23026.19
425.83	23157.26
426.01	24414.13
426.20	25137.35
426.39	25055.43
426.58	23197.05
426.77	21577.40
426.96	20835.45
427.15	21172.49
427.33	23534.09
427.52	24327.53
427.71	24421.15
427.90	24006.87
428.09	23833.68
428.28	23140.88
428.46	22438.72
428.65	22312.33
428.84	22466.80
429.03	23073.00
429.22	21858.26
429.40	20744.17
429.59	18941.96
429.78	16386.09
429.97	16449.28
430.16	16760.58
430.34	16971.22
430.53	16982.93
430.72	17092.93
430.91	19082.39
431.10	22363.82
431.28	26328.69
431.47	28336.87
431.66	28737.10
431.85	26370.82
432.03	24400.08
432.22	23206.41
432.41	23838.36
432.60	26572.10
432.79	27868.76
432.97	28322.82
433.16	27756.41
433.35	25324.60
433.54	22953.63
433.72	21158.44
433.91	22073.59
434.10	24870.53
434.28	26073.57
434.47	27733.01
434.66	27402.99
434.85	26658.70
435.03	26499.55
435.22	27625.34
435.41	28992.22
435.59	28737.10
435.78	29551.60
435.97	29928.43
436.16	30426.96
436.34	29727.14
436.53	29102.22
436.72	28978.17
436.90	27477.89
437.09	28032.60
437.28	27220.43
437.46	27903.87
437.65	27871.10
437.84	26485.50
438.02	24077.09
438.21	23695.58
438.40	25242.68
438.58	27487.25
438.77	27854.72
438.96	28432.83
439.14	29659.27
439.33	30312.28
439.52	30607.19
439.70	29921.41
439.89	29420.53
440.08	28709.01
440.26	28247.93
440.45	29125.63
440.63	31208.70
440.82	32840.06
441.01	32842.40
441.19	32170.66
441.38	32720.69
441.57	33628.82
441.75	34382.47
441.94	34651.63
442.12	33806.70
442.31	34979.31
442.50	34501.84
442.68	34422.26
442.87	34019.69
443.05	33406.47
443.24	33900.32
443.43	34438.64
443.61	35211.02
443.80	35800.83
443.98	33928.41
444.17	33472.00
444.35	35786.79
444.54	36596.62
444.73	35892.12
444.91	34565.03
445.10	32917.29
445.28	32112.15
445.47	31122.10
445.65	31283.60
445.84	32219.81
446.02	33521.15
446.21	33687.33
446.39	34286.51
446.58	34899.73
446.77	35189.95
446.95	35243.79
447.14	36194.04
447.32	36634.06
447.51	36334.48
447.69	34543.97
447.88	34115.65
448.06	34714.83
448.25	35957.65
448.43	35615.93
448.62	35143.14
448.80	34522.90
448.99	35098.67
449.17	35791.47
449.36	35880.41
449.54	36840.03
449.73	37432.19
449.91	37581.98
450.10	38665.65
450.28	39189.93
450.46	39026.09
450.65	39082.27
450.83	38506.49
451.02	37799.65
451.20	37876.89
451.39	37308.14
451.57	37589.00
451.76	37619.43
451.94	36854.08
452.13	36753.43
452.31	34834.19
452.49	33582.01
452.68	33752.87
452.86	33701.37
453.05	34382.47
453.23	34953.56
453.42	35831.26
453.60	36818.97
453.78	37689.65
453.97	36680.88
454.15	37125.58
454.34	35754.02
454.52	36329.80
454.70	35440.39
454.89	36519.38
455.07	36467.89
455.26	36343.84
455.44	38213.93
455.62	38871.62
455.81	39246.10
455.99	39005.03
456.17	38335.63
456.36	38190.52
456.54	39517.60
456.73	39323.34
456.91	39948.26
457.09	40278.28
457.28	40837.67
457.46	39147.80
457.64	39276.53
457.83	38078.18
458.01	37074.09
458.19	38239.67
458.38	37928.38
458.56	39358.45
458.74	39133.76
458.93	38789.70
459.11	38389.47
459.29	38380.10
459.48	38529.90
459.66	38457.34
459.84	38822.47
460.03	39023.75
460.21	39325.68
460.39	40428.07
460.57	39873.37
460.76	40882.14
460.94	40556.80
461.12	40023.16
461.31	40418.71
461.49	40753.41
461.67	39969.33
461.85	41600.68
462.04	41095.13
462.22	40957.03
462.40	41123.21
462.59	41200.45
462.77	41043.63
462.95	41158.32
463.13	40568.51
463.32	40318.07
463.50	40210.40
463.68	39952.94
463.86	39824.22
464.05	39641.65
464.23	38590.75
464.41	38883.32
464.59	37916.68
464.78	39775.06
464.96	39531.65
465.14	39573.78
465.32	40388.28
465.50	41146.62
465.69	42061.77
465.87	40676.17
466.05	39920.18
466.23	38312.23
466.41	37656.88
466.60	38139.03
466.78	38302.87
466.96	38803.74
467.14	39461.43
467.32	40051.25
467.51	40355.52
467.69	38256.06
467.87	38792.04
468.05	39913.16
468.23	39782.09
468.41	40121.46
468.60	40390.62
468.78	40505.31
468.96	39583.14
469.14	40514.67
469.32	40886.82
469.50	39297.59
469.69	39426.32
469.87	38932.47
470.05	38948.85
470.23	38675.01
470.41	38686.71
470.59	39400.58
470.77	39636.97
470.95	40315.73
471.14	40722.98
471.32	40624.68
471.50	42801.38
471.68	43201.61
471.86	43873.34
472.04	43597.16
472.22	43889.73
472.40	41745.80
472.58	41785.58
472.77	40451.48
472.95	41502.38
473.13	42462.00
473.31	41603.02
473.49	42045.38
473.67	42747.54
473.85	43182.88
474.03	44236.12
474.21	43765.68
474.39	44512.31
474.57	44397.62
474.75	44435.07
474.93	44327.41
475.12	43496.52
475.30	43196.93
475.48	43634.61
475.66	44414.01
475.84	43838.23
476.02	43569.07
476.20	43026.07
476.38	43447.36
476.56	44617.63
476.74	45254.26
476.92	45605.34
477.10	46045.36
477.28	47421.59
477.46	46953.49
477.64	47578.41
477.82	47669.69
478.00	48095.67
478.18	47454.36
478.36	47327.97
478.54	47054.13
478.72	47665.01
478.90	48278.23
479.08	49172.31
479.26	49876.82
479.44	49502.33
479.62	49462.54
479.80	49464.88
479.98	49727.02
480.16	50141.30
480.34	49645.10
480.52	50216.19
480.70	49982.14
480.88	50342.58
481.06	50815.37
481.24	50925.38
481.41	51866.27
481.59	52060.54
481.77	52137.77
481.95	51716.48
482.13	51138.36
482.31	51540.94
482.49	52409.28
482.67	52076.92
482.85	51929.47
483.03	52666.73
483.21	52985.05
483.39	52666.73
483.57	52336.72
483.74	52025.43
483.92	52388.21
484.10	52350.76
484.28	53427.41
484.46	53476.56
484.64	53895.52
484.82	53188.67
485.00	52680.78
485.18	52060.54
485.35	51449.66
485.53	48451.43
485.71	44292.30
485.89	43812.49
486.07	45815.99
486.25	49198.06
486.43	51421.57
486.61	51992.66
486.78	51976.28
486.96	52060.54
487.14	53389.96
487.32	53965.73
487.50	54967.48
487.68	55430.91
487.85	56027.74
488.03	55800.71
488.21	55531.55
488.39	55173.45
488.57	54651.51
488.75	54321.49
488.92	55182.81
489.10	56802.46
489.28	58124.86
489.46	58485.31
489.64	58384.66
489.81	58475.94
489.99	58237.21
490.17	58162.31
490.35	58473.60
490.53	58110.82
490.70	57790.17
490.88	57764.42
491.06	58578.93
491.24	58672.55
491.41	57715.27
491.59	56334.35
491.77	55543.25
491.95	56296.91
492.13	57422.70
492.30	58536.80
492.48	59351.30
492.66	59625.15
492.84	59704.73
493.01	59519.82
493.19	59044.69
493.37	58812.98
493.54	58639.78
493.72	59150.02
493.90	59852.18
494.08	60697.11
494.25	61057.56
494.43	61008.40
494.61	61244.80
494.79	61366.51
494.96	61172.24
495.14	60851.59
495.32	59924.74
495.49	59370.03
495.67	60200.92
495.85	61420.34
496.02	61883.76
496.20	61724.61
496.38	61146.50
496.55	61123.09
496.73	61701.20
496.91	61535.02
497.09	62335.49
497.26	62262.93
497.44	61935.26
497.62	61558.43
497.79	60711.16
497.97	59496.42
498.14	59695.36
498.32	60797.76
498.50	61633.33
498.67	61914.19
498.85	62054.62
499.03	62206.76
499.20	62323.78
499.38	62166.97
499.56	62012.49
499.73	61666.09
499.91	61513.96
500.08	60889.04
500.26	60451.36
500.44	60582.43
500.61	61492.89
500.79	61422.68
500.97	60933.51
501.14	60559.02
501.32	60636.26
501.49	60629.24
501.67	60905.42
501.84	61333.74
502.02	61600.56
502.20	61843.98
502.37	61689.50
502.55	61825.25
502.72	62377.62
502.90	62850.41
503.07	62700.61
503.25	62288.68
503.43	61354.80
503.60	60814.14
503.78	60336.67
503.95	60687.75
504.13	61719.93
504.30	62590.61
504.48	62541.45
504.65	62209.10
504.83	62124.84
505.01	62873.81
505.18	63082.12
505.36	63634.48
505.53	63561.93
505.71	63758.53
505.88	63765.56
506.06	63372.34
506.23	63126.59
506.41	62658.48
506.58	63037.65
506.76	62883.17
506.93	63037.65
507.11	62599.97
507.28	62866.79
507.46	62475.92
507.63	61921.21
507.81	61729.29
507.98	61839.29
508.16	62569.54
508.33	62922.96
508.50	63262.34
508.68	63597.04
508.85	64100.25
509.03	64027.70
509.20	63856.84
509.38	63290.43
509.55	62611.67
509.73	62609.33
509.90	63065.73
510.08	63358.30
510.25	63224.89
510.42	63061.05
510.60	63032.97
510.77	63260.00
510.95	63728.11
511.12	63955.14
511.30	64191.53
511.47	64355.37
511.64	64310.90
511.82	64128.34
511.99	63164.04
512.17	63000.20
512.34	62602.31
512.51	62752.10
512.69	62869.13
512.86	62986.16
513.04	63318.51
513.21	63547.89
513.38	62972.11
513.56	62599.97
513.73	62227.82
513.90	62162.29
514.08	62410.38
514.25	62588.27
514.43	62829.34
514.60	62906.58
514.77	63187.44
514.95	63112.55
515.12	63002.54
515.29	63178.08
515.47	63606.40
515.64	64001.95
515.81	63517.46
515.99	63117.23
516.16	61820.57
516.33	59833.46
516.51	58321.47
516.68	57939.96
516.85	57422.70
517.03	57783.15
517.20	59877.93
517.37	62230.16
517.54	63185.10
517.72	62606.99
517.89	60750.94
518.06	58539.14
518.24	58918.31
518.41	60453.70
518.58	61762.06
518.75	62068.67
518.93	62356.55
519.10	62068.67
519.27	62555.50
519.45	62464.22
519.62	63250.64
519.79	63777.26
519.96	63442.56
520.14	63093.82
520.31	62164.63
520.48	62344.85
520.65	62695.93
520.83	63475.33
521.00	63913.01
521.17	63653.21
521.34	63063.39
521.52	63299.79
521.69	63884.92
521.86	64240.68
522.03	64198.55
522.20	63098.50
522.38	61932.92
522.55	61790.14
522.72	62614.01
522.89	62515.71
523.07	62658.48
523.24	63358.30
523.41	63749.17
523.58	64172.81
523.75	64584.74
523.92	64336.65
524.10	64432.61
524.27	64477.08
524.44	64189.19
524.61	64025.35
524.78	63943.44
524.96	63854.50
525.13	63828.75
525.30	64067.48
525.47	64549.63
525.64	64418.56
525.81	63739.81
525.98	62417.41
526.16	61179.26
526.33	60580.09
526.50	60430.29
526.67	60158.79
526.84	60580.09
527.01	61403.95
527.18	61949.30
527.36	62777.85
527.53	63725.77
527.70	64001.95
527.87	63540.86
528.04	63047.01
528.21	63412.13
528.38	63838.11
528.55	64657.30
528.72	64907.74
528.89	64947.53
529.07	64757.94
529.24	64121.32
529.41	63454.26
529.58	62883.17
529.75	63126.59
529.92	63723.43
530.09	63753.85
530.26	64266.43
530.43	64477.08
530.60	64638.57
530.77	64884.33
530.94	64750.92
531.11	64404.52
531.28	64184.51
531.46	64193.87
531.63	64219.62
531.80	64250.05
531.97	63533.84
532.14	62878.49
532.31	62106.12
532.48	61607.58
532.65	61429.70
532.82	62239.53
532.99	63220.21
533.16	63531.50
533.33	64118.98
533.50	63903.65
533.67	63262.34
533.84	62852.75
534.01	63243.62
534.18	63386.39
534.35	63643.85
534.52	63515.12
534.69	63730.45
534.86	63901.31
535.03	64233.66
535.20	64563.68
535.37	64797.73
535.54	65020.08
535.71	64755.60
535.88	64385.80
536.05	63643.85
536.22	63391.07
536.38	63201.49
536.55	62702.95
536.72	62185.69
536.89	62162.29
537.06	62876.15
537.23	63711.72
537.40	63732.79
537.57	63744.49
537.74	63643.85
537.91	63671.93
538.08	63533.84
538.25	63650.87
538.42	63737.47
538.59	63529.16
538.75	63016.58
538.92	62822.32
539.09	62616.35
539.26	62494.64
539.43	62522.73
539.60	62536.77
539.77	62639.76
539.94	62457.20
540.11	61811.21
540.28	61394.59
540.44	61717.59
540.61	61698.86
540.78	61890.79
540.95	62307.40
541.12	62564.86
541.29	63023.61
541.46	63096.16
541.62	63372.34
541.79	63042.33
541.96	62541.45
542.13	62335.49
542.30	62831.68
542.47	62960.41
542.63	62684.23
542.80	62370.60
542.97	62700.61
543.14	62482.94
543.31	62496.98
543.48	62824.66
543.64	63547.89
543.81	63891.94
543.98	63833.43
544.15	63133.61
544.32	62698.27
544.48	62702.95
544.65	63098.50
544.82	63365.32
544.99	63002.54
545.16	62798.91
545.32	62536.77
545.49	63248.30
545.66	63620.44
545.83	63409.79
546.00	62829.34
546.16	62691.25
546.33	62803.59
546.50	62667.84
546.67	63231.91
546.83	62794.23
547.00	62962.75
547.17	62265.27
547.34	61600.56
547.50	61740.99
547.67	62166.97
547.84	62094.41
548.00	62447.83
548.17	62763.81
548.34	62597.63
548.51	62695.93
548.67	62616.35
548.84	62920.62
549.01	62789.55
549.18	62805.94
549.34	62714.65
549.51	62590.61
549.68	62625.71
549.84	62340.17
550.01	62234.84
550.18	62056.96
550.34	62127.18
550.51	62504.01
550.68	62274.63
550.84	61862.70
551.01	61949.30
551.18	61991.43
551.34	62157.61
551.51	62415.07
551.68	62892.54
551.84	62857.43
552.01	62581.24
552.18	62550.82
552.34	61787.80
552.51	61443.74
552.68	61495.24
552.84	61951.64
553.01	62040.58
553.18	62209.10
553.34	62188.03
553.51	62157.61
553.67	62482.94
553.84	62518.05
554.01	62438.47
554.17	62253.57
554.34	62487.62
554.51	62370.60
554.67	62691.25
554.84	62592.95
555.00	62188.03
555.17	62143.56
555.33	61841.63
555.50	61890.79
555.67	62265.27
555.83	61801.85
556.00	61633.33
556.16	61598.22
556.33	61261.18
556.50	61118.41
556.66	61240.12
556.83	60872.65
556.99	61078.62
557.16	61235.44
557.32	61661.41
557.49	61635.67
557.65	61474.17
557.82	61539.71
557.98	61567.79
558.15	60907.76
558.32	60348.37
558.48	59547.91
558.65	59856.86
558.81	60102.62
558.98	60479.44
559.14	60409.23
559.31	60580.09
559.47	60640.94
559.64	60214.96
559.80	60027.72
559.97	60236.03
560.13	60444.33
560.30	61268.20
560.46	61593.54
560.63	61881.42
560.79	62054.62
560.96	61469.49
561.12	60570.72
561.29	59718.77
561.45	59817.07
561.61	60404.55
561.78	60924.14
561.94	60612.85
562.11	60360.08
562.27	60292.20
562.44	60753.29
562.60	60940.53
562.77	61207.35
562.93	60980.32
563.10	60886.70
563.26	60294.54
563.42	60444.33
563.59	60353.05
563.75	60254.75
563.92	60257.09
564.08	60294.54
564.24	60411.57
564.41	60549.66
564.57	60374.12
564.74	60179.85
564.90	60287.52
565.07	60123.68
565.23	59877.93
565.39	59334.92
565.56	59168.74
565.72	58859.79
565.88	59255.34
566.05	59456.63
566.21	59561.95
566.38	59756.22
566.54	59814.73
566.70	60074.53
566.87	60381.14
567.03	60364.76
567.19	60573.06
567.36	60285.18
567.52	60037.08
567.68	59898.99
567.85	59281.09
568.01	58965.12
568.17	58770.85
568.34	58803.62
568.50	58719.36
568.66	58852.77
568.83	59112.57
568.99	59143.00
569.15	59229.60
569.32	59309.18
569.48	59206.19
569.64	59035.33
569.81	58752.13
569.97	58522.76
570.13	58667.87
570.30	58220.83
570.46	58047.63
570.62	57333.76
570.78	57193.33
570.95	57504.62
571.11	58145.93
571.27	58031.24
571.43	58295.72
571.60	58667.87
571.76	58805.96
571.92	59341.94
572.09	59061.08
572.25	59121.93
572.41	59096.19
572.57	59049.38
572.74	58983.84
572.90	58679.57
573.06	58766.17
573.22	58564.88
573.38	58880.86
573.55	58721.70
573.71	58775.53
573.87	58948.73
574.03	58473.60
574.20	58763.83
574.36	58106.14
574.52	58443.18
574.68	58056.99
574.84	57872.09
575.01	57565.48
575.17	57055.24
575.33	57579.52
575.49	57968.05
575.65	58064.01
575.82	57963.37
575.98	57640.37
576.14	57764.42
576.30	57930.60
576.46	58096.78
576.62	57954.00
576.79	58035.92
576.95	57565.48
577.11	57513.98
577.27	57874.43
577.43	57673.14
577.59	57436.75
577.75	56942.89
577.92	56811.82
578.08	56411.59
578.24	56526.28
578.40	56601.18
578.56	56956.94
578.72	56898.42
578.88	57221.42
579.04	57237.80
579.21	57329.08
579.37	57626.33
579.53	57488.24
579.69	57455.47
579.85	57530.37
580.01	57595.90
580.17	57125.46
580.33	56970.98
580.49	57200.35
580.65	57141.84
580.82	57291.63
580.98	57471.85
581.14	57090.35
581.30	57366.53
581.46	57055.24
581.62	57502.28
581.78	57354.83
581.94	57605.26
582.10	57411.00
582.26	57418.02
582.42	57441.43
582.58	57490.58
582.74	57521.01
582.90	57518.67
583.06	57537.39
583.22	57312.70
583.38	57422.70
583.54	57160.56
583.70	57336.10
583.86	57263.55
584.02	57212.06
584.18	57354.83
584.34	56985.02
584.50	57003.75
584.66	56727.56
584.82	56671.39
584.98	56647.99
585.14	56287.54
