SpectraSuite Data File
++++++++++++++++++++++++++++++++++++
Date: Mon Oct 07 14:53:28 GMT-05:00 2013
User: price-jones
Dark Spectrum Present: No
Reference Spectrum Present: No
Number of Sampled Component Spectra: 1
Spectrometers: USB2+H05261
Integration Time (usec): 100000 (USB2+H05261)
Spectra Averaged: 1 (USB2+H05261)
Boxcar Smoothing: 0 (USB2+H05261)
Correct for Electrical Dark: No (USB2+H05261)
Strobe/Lamp Enabled: No (USB2+H05261)
Correct for Detector Non-linearity: No (USB2+H05261)
Correct for Stray Light: No (USB2+H05261)
Number of Pixels in Processed Spectrum: 2048
>>>>>Begin Processed Spectral Data<<<<<
365.73	0.00
365.92	0.00
366.12	0.00
366.32	0.00
366.52	0.00
366.72	0.00
366.91	0.00
367.11	0.00
367.31	0.00
367.51	0.00
367.70	0.00
367.90	0.00
368.10	0.00
368.30	0.00
368.49	0.00
368.69	0.00
368.89	0.00
369.09	0.00
369.28	0.00
369.48	0.00
369.68	0.00
369.87	0.00
370.07	0.00
370.27	0.00
370.47	702.16
370.66	3080.14
370.86	3775.28
371.06	4119.34
371.25	4046.79
371.45	3716.77
371.65	3300.16
371.84	3052.06
372.04	3346.97
372.24	3803.37
372.44	3967.21
372.63	3861.88
372.83	3520.17
373.03	3136.32
373.22	2939.71
373.42	3047.38
373.62	3513.14
373.81	3925.08
374.01	3819.75
374.21	3344.63
374.40	3302.50
374.60	3243.98
374.79	3749.54
374.99	4461.06
375.19	4564.04
375.38	4725.54
375.58	4458.72
375.78	4341.69
375.97	4372.12
376.17	4571.07
376.37	4528.94
376.56	4648.30
376.76	4992.36
376.95	5310.68
377.15	5617.29
377.35	5870.06
377.54	6141.57
377.74	6389.66
377.93	6282.00
378.13	6101.78
378.33	5792.83
378.52	5453.45
378.72	5095.35
378.91	4978.32
379.11	4910.44
379.31	4786.40
379.50	4912.78
379.70	5177.26
379.89	5734.31
380.09	5919.21
380.28	6193.06
380.48	6094.76
380.68	6024.54
380.87	5991.77
381.07	5528.35
381.26	5228.76
381.46	4685.75
381.65	4484.47
381.85	4554.68
382.04	4269.14
382.24	3964.87
382.43	3754.22
382.63	3667.62
382.83	3758.90
383.02	3637.19
383.22	3789.33
383.41	3754.22
383.61	4028.06
383.80	4545.32
384.00	5301.31
384.19	5846.66
384.39	6031.56
384.58	6193.06
384.78	5926.24
384.97	5926.24
385.17	5825.59
385.36	5369.19
385.56	5100.03
385.75	5420.68
385.95	5846.66
386.14	6204.76
386.34	6359.24
386.53	6024.54
386.72	5638.35
386.92	5572.82
387.11	5933.26
387.31	6307.74
387.50	5954.32
387.70	5823.25
387.89	5975.39
388.09	5933.26
388.28	5849.00
388.48	6001.13
388.67	6696.27
388.86	7105.87
389.06	7786.96
389.25	8205.92
389.45	8084.21
389.64	8119.32
389.84	8081.87
390.03	7789.30
390.22	8067.83
390.42	8320.60
390.61	8901.06
390.81	9301.29
391.00	9441.72
391.19	9317.67
391.39	9043.83
391.58	8566.36
391.78	7969.52
391.97	7693.34
392.16	7342.26
392.36	6569.88
392.55	5217.05
392.75	4170.83
392.94	3513.14
393.13	3445.27
393.33	4049.13
393.52	5130.45
393.71	6436.47
393.91	7190.13
394.10	7747.17
394.29	8449.33
394.49	9261.50
394.68	9820.89
394.88	10017.49
395.07	10239.84
395.26	10132.18
395.46	9956.64
395.65	9336.40
395.84	8208.26
396.04	6689.25
396.23	5729.63
396.42	4601.49
396.62	4477.44
396.81	5256.84
397.00	6492.65
397.19	8449.33
397.39	9830.25
397.58	11208.83
397.77	12088.87
397.97	12407.18
398.16	12648.26
398.35	13107.00
398.55	13453.40
398.74	14033.85
398.93	14410.68
399.12	14085.34
399.32	13254.45
399.51	13717.88
399.70	14508.98
399.90	14532.39
400.09	14298.33
400.28	14279.61
400.47	14628.35
400.67	15176.03
400.86	15627.76
401.05	15634.78
401.24	15871.17
401.44	15630.10
401.63	15917.98
401.82	16049.05
402.01	16276.09
402.21	16346.30
402.40	16353.32
402.59	15737.76
402.78	15023.90
402.97	14614.30
403.17	15164.33
403.36	16095.86
403.55	16601.42
403.74	17212.30
403.93	16402.47
404.13	14923.26
404.32	14682.18
404.51	15286.04
404.70	16720.79
404.89	16847.18
405.09	16236.30
405.28	15693.29
405.47	16002.24
405.66	16011.60
405.85	15707.34
406.05	14892.83
406.24	15213.48
406.43	15599.67
406.62	16631.85
406.81	16673.98
407.00	15833.72
407.20	15807.98
407.39	15747.12
407.58	16376.73
407.77	16681.00
407.96	17645.30
408.15	18050.21
408.34	17776.37
408.54	18679.82
408.73	18831.95
408.92	18427.04
409.11	18373.21
409.30	17334.01
409.49	16056.08
409.68	15056.67
409.87	14520.68
410.07	15229.87
410.26	16737.17
410.45	17694.45
410.64	18232.77
410.83	18705.56
411.02	19218.14
411.21	19859.45
411.40	19653.48
411.59	19866.47
411.78	19325.80
411.98	19644.12
412.17	19920.30
412.36	19379.64
412.55	19609.01
412.74	19101.11
412.93	18628.32
413.12	18937.27
413.31	20517.14
413.50	20699.70
413.69	21085.89
413.88	20477.35
414.07	19646.46
414.26	19915.62
414.45	20938.43
414.64	20996.95
414.83	20662.25
415.02	20655.23
415.22	20322.87
415.41	20847.15
415.60	21778.68
415.79	22625.96
415.98	22960.66
416.17	22960.66
416.36	22368.50
416.55	22092.32
416.74	21221.64
416.93	20276.06
417.12	20535.86
417.31	20872.90
417.50	21343.35
417.69	21940.18
417.88	21902.73
418.07	21469.73
418.26	21352.71
418.45	21593.78
418.64	22242.11
418.83	23098.75
419.02	22923.21
419.21	22190.62
419.39	21626.55
419.58	20737.15
419.77	20540.54
419.96	21678.04
420.15	22925.55
420.34	23351.52
420.53	24322.85
420.72	24446.90
420.91	24428.17
421.10	24025.60
421.29	24020.92
421.48	23255.56
421.67	24243.27
421.86	23662.82
422.05	21884.01
422.24	19716.67
422.43	19861.79
422.61	21764.64
422.80	23234.50
422.99	23398.34
423.18	22548.72
423.37	21926.14
423.56	21839.54
423.75	22574.47
423.94	22916.19
424.13	21577.40
424.32	22087.64
424.50	21902.73
424.69	21355.05
424.88	22153.17
425.07	21792.73
425.26	21469.73
425.45	21633.57
425.64	21130.36
425.83	21256.75
426.01	22345.09
426.20	22852.99
426.39	22867.03
426.58	21558.67
426.77	19779.87
426.96	18799.18
427.15	19428.79
427.33	21263.77
427.52	22026.78
427.71	22157.85
427.90	21804.43
428.09	21467.39
428.28	21153.76
428.46	20561.61
428.65	20168.40
428.84	20629.48
429.03	21188.87
429.22	19861.79
429.40	19056.64
429.59	17046.12
429.78	15002.83
429.97	15314.13
430.16	15578.61
430.34	15421.79
430.53	15084.75
430.72	15894.58
430.91	17724.88
431.10	20262.02
431.28	24175.39
431.47	25930.80
431.66	26340.39
431.85	24360.30
432.03	21989.33
432.22	21195.89
432.41	22087.64
432.60	24435.19
432.79	25420.56
432.97	25923.77
433.16	25502.48
433.35	23414.72
433.54	21202.91
433.72	19346.87
433.91	20313.51
434.10	22256.15
434.28	24372.00
434.47	25572.69
434.66	24933.73
434.85	24584.99
435.03	24353.27
435.22	24781.59
435.41	26391.88
435.59	26522.95
435.78	26909.14
435.97	27388.95
436.16	27391.29
436.34	27454.48
436.53	26480.82
436.72	26590.83
436.90	25027.35
437.09	24896.28
437.28	24905.64
437.46	25895.69
437.65	25947.18
437.84	24156.67
438.02	22185.94
438.21	21764.64
438.40	22993.42
438.58	25067.14
438.77	25799.73
438.96	25610.14
439.14	26719.56
439.33	27573.85
439.52	27786.84
439.70	27194.68
439.89	26647.00
440.08	26029.10
440.26	25802.07
440.45	26895.10
440.63	28697.31
440.82	30031.41
441.01	29507.13
441.19	29694.38
441.38	29881.62
441.57	31138.49
441.75	31381.90
441.94	31402.97
442.12	31154.87
442.31	31601.91
442.50	31798.52
442.68	31503.61
442.87	30827.20
443.05	30529.95
443.24	31168.91
443.43	31936.61
443.61	32114.49
443.80	32954.74
443.98	30932.52
444.17	30831.88
444.35	32713.67
444.54	33558.60
444.73	32659.84
444.91	31449.78
445.10	30281.85
445.28	29146.69
445.47	28631.77
445.65	28636.45
445.84	29406.49
446.02	30794.43
446.21	31077.63
446.39	30902.09
446.58	31395.95
446.77	32002.14
446.95	32339.18
447.14	32980.49
447.32	33752.87
447.51	33074.11
447.69	31744.69
447.88	31440.42
448.06	31716.60
448.25	32517.06
448.43	32755.80
448.62	32034.91
448.80	31988.10
448.99	32442.17
449.17	32048.96
449.36	32748.78
449.54	33640.52
449.73	34459.71
449.91	34345.02
450.10	35709.55
450.28	35803.17
450.46	35686.15
450.65	35878.07
450.83	35501.25
451.02	34462.05
451.20	34885.68
451.39	34480.77
451.57	33848.83
451.76	34466.73
451.94	34117.99
452.13	33699.03
452.31	31952.99
452.49	30082.91
452.68	31133.81
452.86	31246.15
453.05	31075.29
453.23	32423.44
453.42	32664.52
453.60	33457.96
453.78	33991.60
453.97	33750.52
454.15	34087.56
454.34	32996.87
454.52	33560.94
454.70	32800.27
454.89	33158.37
455.07	32772.18
455.26	33689.67
455.44	35009.73
455.62	35281.24
455.81	35866.37
455.99	35248.47
456.17	34679.72
456.36	35218.04
456.54	35634.66
456.73	35952.97
456.91	36842.37
457.09	36790.88
457.28	37352.61
457.46	36163.62
457.64	35910.84
457.83	34852.92
458.01	33919.04
458.19	34892.71
458.38	34785.04
458.56	35950.63
458.74	35913.18
458.93	35356.13
459.11	35309.32
459.29	34588.44
459.48	35091.65
459.66	35328.05
459.84	35452.09
460.03	36201.07
460.21	35690.83
460.39	36753.43
460.57	36723.01
460.76	37013.23
460.94	36994.51
461.12	36488.95
461.31	37125.58
461.49	36374.27
461.67	36580.23
461.85	37972.85
462.04	37722.41
462.22	38373.08
462.40	37706.03
462.59	37528.15
462.77	37897.95
462.95	37715.39
463.13	37127.92
463.32	36694.92
463.50	36816.63
463.68	37139.62
463.86	36666.83
464.05	36048.93
464.23	35122.08
464.41	35192.30
464.59	34665.67
464.78	36481.93
464.96	36891.52
465.14	35842.96
465.32	37064.72
465.50	37743.48
465.69	38080.52
465.87	37226.22
466.05	36369.58
466.23	34974.63
466.41	34019.69
466.60	35187.61
466.78	34827.17
466.96	35620.61
467.14	36556.83
467.32	36561.51
467.51	36400.01
467.69	35215.70
467.87	35690.83
468.05	36531.08
468.23	36041.91
468.41	36278.30
468.60	36505.34
468.78	36760.45
468.96	36158.94
469.14	37432.19
469.32	37104.51
469.50	35943.61
469.69	36170.64
469.87	35140.80
470.05	35370.18
470.23	35243.79
470.41	35377.20
470.59	36154.26
470.77	36257.24
470.95	36943.02
471.14	37303.46
471.32	37734.12
471.50	39566.76
471.68	39480.16
471.86	39468.45
472.04	39910.82
472.22	39969.33
472.40	38066.47
472.58	37647.52
472.77	37104.51
472.95	37818.38
473.13	39255.46
473.31	38281.80
473.49	38160.09
473.67	39215.68
473.85	39157.16
474.03	40278.28
474.21	40563.82
474.39	41050.66
474.57	41273.01
474.75	40954.69
474.93	40818.94
475.12	39789.11
475.30	39321.00
475.48	39955.29
475.66	40680.85
475.84	40556.80
476.02	39667.40
476.20	38969.92
476.38	39922.52
476.56	40847.03
476.74	41823.03
476.92	41532.81
477.10	42787.33
477.28	43548.01
477.46	43379.49
477.64	43416.94
477.82	44198.68
478.00	44484.22
478.18	43203.95
478.36	43316.29
478.54	43318.64
478.72	43779.72
478.90	44521.67
479.08	45687.26
479.26	46525.17
479.44	46232.60
479.62	45886.20
479.80	45792.58
479.98	45785.56
480.16	46515.81
480.34	46312.18
480.52	45923.65
480.70	46415.16
480.88	46911.36
481.06	47126.69
481.24	47999.71
481.41	48603.56
481.59	49226.15
481.77	48603.56
481.95	48311.00
482.13	48224.40
482.31	48175.25
482.49	48912.52
482.67	48346.11
482.85	48645.69
483.03	49319.77
483.21	49612.34
483.39	49794.90
483.57	49258.91
483.74	48910.17
483.92	49287.00
484.10	49130.19
484.28	50323.86
484.46	50330.88
484.64	51091.55
484.82	50253.64
485.00	49549.14
485.18	48790.81
485.35	47433.30
485.53	44875.09
485.71	40680.85
485.89	40346.15
486.07	42181.13
486.25	45900.25
486.43	48402.28
486.61	48863.36
486.78	48545.05
486.96	48402.28
487.14	50314.50
487.32	50674.94
487.50	51889.68
487.68	52554.39
487.85	53270.59
488.03	52814.19
488.21	52978.03
488.39	52367.15
488.57	51845.21
488.75	51398.16
488.92	52259.48
489.10	54094.46
489.28	55161.75
489.46	56069.87
489.64	55973.91
489.81	56191.58
489.99	55791.35
490.17	55606.45
490.35	56055.83
490.53	55697.73
490.70	55217.92
490.88	55213.24
491.06	56137.75
491.24	55873.27
491.41	55133.66
491.59	53886.15
491.77	52961.64
491.95	54061.69
492.13	55023.65
492.30	56289.88
492.48	57104.39
492.66	57279.93
492.84	57495.26
493.01	57254.18
493.19	56411.59
493.37	56355.42
493.54	56268.82
493.72	56645.65
493.90	57605.26
494.08	58047.63
494.25	58518.07
494.43	58607.01
494.61	59028.31
494.79	59257.68
494.96	58857.45
495.14	58379.98
495.32	57441.43
495.49	57036.51
495.67	57888.47
495.85	59086.82
496.02	59407.48
496.20	59414.50
496.38	58890.22
496.55	58775.53
496.73	59054.06
496.91	59428.54
497.09	59796.01
497.26	60039.42
497.44	59505.78
497.62	59079.80
497.79	58445.52
497.97	57214.40
498.14	57291.63
498.32	58405.73
498.50	59084.48
498.67	59831.11
498.85	59767.92
499.03	59955.16
499.20	59854.52
499.38	59861.54
499.56	59915.37
499.73	59419.18
499.91	59065.76
500.08	58763.83
500.26	57939.96
500.44	58258.27
500.61	59168.74
500.79	59032.99
500.97	58450.20
501.14	58361.26
501.32	58239.55
501.49	58335.51
501.67	58396.37
501.84	58906.60
502.02	59096.19
502.20	59583.02
502.37	59484.72
502.55	59559.61
502.72	60177.51
502.90	60566.04
503.07	60193.90
503.25	60018.36
503.43	59093.85
503.60	58745.11
503.78	57712.93
503.95	58342.53
504.13	59592.38
504.30	60371.78
504.48	60158.79
504.65	59849.84
504.83	59990.27
505.01	60533.28
505.18	60928.83
505.36	61434.38
505.53	61324.38
505.71	61645.03
505.88	61586.52
506.06	61048.19
506.23	60762.65
506.41	60463.06
506.58	60762.65
506.76	60582.43
506.93	60704.13
507.11	60362.42
507.28	60467.74
507.46	60093.25
507.63	59442.59
507.81	59309.18
507.98	59667.28
508.16	60278.16
508.33	60786.05
508.50	60961.59
508.68	61492.89
508.85	61712.91
509.03	61937.60
509.20	61724.61
509.38	60849.25
509.55	60214.96
509.73	60434.97
509.90	60856.27
510.08	61130.11
510.25	61118.41
510.42	60830.52
510.60	60797.76
510.77	61010.74
510.95	61513.96
511.12	61623.96
511.30	61918.87
511.47	62183.35
511.64	61979.73
511.82	61808.87
511.99	61034.15
512.17	60760.31
512.34	60280.50
512.51	60502.85
512.69	60638.60
512.86	60500.51
513.04	61277.57
513.21	61176.92
513.38	61010.74
513.56	60229.01
513.73	59669.62
513.90	59978.57
514.08	60107.30
514.25	60388.16
514.43	60463.06
514.60	60566.04
514.77	60802.44
514.95	60746.26
515.12	60748.60
515.29	61062.24
515.47	61389.91
515.64	61616.94
515.81	61291.61
515.99	60673.71
516.16	59365.35
516.33	57483.56
516.51	55852.20
516.68	55236.64
516.85	54915.99
517.03	55461.33
517.20	57614.63
517.37	59952.82
517.54	60872.65
517.72	60317.95
517.89	58445.52
518.06	56058.17
518.24	56308.61
518.41	58344.87
518.58	59608.76
518.75	59786.64
518.93	59807.71
519.10	59681.32
519.27	60261.77
519.45	60465.40
519.62	60994.36
519.79	61284.59
519.96	61261.18
520.14	60793.07
520.31	59868.56
520.48	60163.47
520.65	60472.42
520.83	61141.81
521.00	61563.11
521.17	61055.21
521.34	60987.34
521.52	61076.28
521.69	61532.68
521.86	62087.39
522.03	61867.38
522.20	60643.28
522.38	59564.29
522.55	59852.18
522.72	60221.98
522.89	60610.51
523.07	60568.38
523.24	61010.74
523.41	61682.48
523.58	61827.59
523.75	62480.60
523.92	62099.09
524.10	62108.46
524.27	62227.82
524.44	61963.34
524.61	61918.87
524.78	61705.88
524.96	61584.18
525.13	61542.05
525.30	61797.16
525.47	62351.87
525.64	62033.56
525.81	61537.36
525.98	60123.68
526.16	58843.41
526.33	58211.46
526.50	57984.43
526.67	57642.71
526.84	58120.18
527.01	59114.91
527.18	59786.64
527.36	60699.45
527.53	61577.15
527.70	61748.01
527.87	61186.28
528.04	60713.50
528.21	61272.88
528.38	61862.70
528.55	62269.95
528.72	62616.35
528.89	62901.90
529.07	62597.63
529.24	61946.96
529.41	61254.16
529.58	60811.80
529.75	60867.97
529.92	61413.32
530.09	61858.02
530.26	62169.31
530.43	62386.98
530.60	62248.89
530.77	62695.93
530.94	62808.28
531.11	62241.87
531.28	61914.19
531.46	61818.23
531.63	61925.89
531.80	61708.22
531.97	61471.83
532.14	60809.46
532.31	59730.47
532.48	59208.53
532.65	59161.72
532.82	59920.05
532.99	61038.83
533.16	61455.45
533.33	61895.47
533.50	61773.76
533.67	61258.84
533.84	60781.37
534.01	60858.61
534.18	61127.77
534.35	61338.42
534.52	61167.56
534.69	61518.64
534.86	61752.69
535.03	61963.34
535.20	62258.25
535.37	62597.63
535.54	62688.91
535.71	62302.72
535.88	62131.86
536.05	61516.30
536.22	61127.77
536.38	61022.45
536.55	60388.16
536.72	59735.15
536.89	59917.71
537.06	60701.79
537.23	61516.30
537.40	61504.60
537.57	61567.79
537.74	61265.86
537.91	61523.32
538.08	61317.35
538.25	61343.10
538.42	61572.47
538.59	61214.37
538.75	60563.70
538.92	60587.11
539.09	60470.08
539.26	60355.39
539.43	60111.98
539.60	60119.00
539.77	60271.14
539.94	60186.88
540.11	59545.57
540.28	59049.38
540.44	59089.16
540.61	59391.09
540.78	59564.29
540.95	60104.96
541.12	60411.57
541.29	60556.68
541.46	60877.33
541.62	60907.76
541.79	60891.38
541.96	60257.09
542.13	60214.96
542.30	60479.44
542.47	60509.87
542.63	60484.12
542.80	60116.66
542.97	60322.63
543.14	60247.73
543.31	60210.28
543.48	60678.39
543.64	61436.72
543.81	61740.99
543.98	61485.87
544.15	60928.83
544.32	60317.95
544.48	60388.16
544.65	60772.01
544.82	61403.95
544.99	60884.36
545.16	60622.22
545.32	60542.64
545.49	60874.99
545.66	61205.01
545.83	60999.04
546.00	60753.29
546.16	60346.03
546.33	60500.51
546.50	60629.24
546.67	60846.91
546.83	60500.51
547.00	60434.97
547.17	59971.55
547.34	59568.97
547.50	59234.28
547.67	59772.60
547.84	59854.52
548.00	60135.38
548.17	60638.60
548.34	60310.92
548.51	60416.25
548.67	60491.15
548.84	60556.68
549.01	60533.28
549.18	60360.08
549.34	60402.21
549.51	60355.39
549.68	60243.05
549.84	60107.30
550.01	60093.25
550.18	59955.16
550.34	59845.16
550.51	60088.57
550.68	60126.02
550.84	59737.49
551.01	59786.64
551.18	59774.94
551.34	59728.13
551.51	60182.19
551.68	60612.85
551.84	60570.72
552.01	60346.03
552.18	60308.58
552.34	59339.60
552.51	59388.75
552.68	58955.75
552.84	59482.37
553.01	59833.46
553.18	59753.88
553.34	59749.20
553.51	59927.08
553.67	60238.37
553.84	60259.43
554.01	60006.65
554.17	60072.19
554.34	60100.28
554.51	60238.37
554.67	60416.25
554.84	60463.06
555.00	59845.16
555.17	59662.60
555.33	59765.58
555.50	59735.15
555.67	59721.11
555.83	59622.81
556.00	59426.20
556.16	59283.43
556.33	59089.16
556.50	58808.30
556.66	58733.40
556.83	58656.17
556.99	58646.80
557.16	58731.06
557.32	59018.95
557.49	59353.65
557.65	59065.76
557.82	59274.07
557.98	59161.72
558.15	58721.70
558.32	57904.85
558.48	56989.70
558.65	57298.65
558.81	57792.51
558.98	58010.18
559.14	58014.86
559.31	58333.17
559.47	58286.36
559.64	57801.87
559.80	57616.97
559.97	57687.18
560.13	58099.12
560.30	58986.18
560.46	59398.12
560.63	59587.70
560.79	59557.27
560.96	59161.72
561.12	58382.32
561.29	57635.69
561.45	57565.48
561.61	58024.22
561.78	58279.34
561.94	58349.56
562.11	58150.61
562.27	57818.25
562.44	58307.43
562.60	58728.72
562.77	58756.81
562.93	58862.13
563.10	58632.76
563.26	58129.54
563.42	58152.95
563.59	58031.24
563.75	57949.32
563.92	57944.64
564.08	58035.92
564.24	58265.30
564.41	58347.21
564.57	58213.80
564.74	58267.64
564.90	58101.46
565.07	57848.68
565.23	57120.77
565.39	56947.57
565.56	56877.36
565.72	56463.08
565.88	56793.10
566.05	56884.38
566.21	57200.35
566.38	57315.04
566.54	57453.13
566.70	57869.75
566.87	57970.39
567.03	57867.40
567.19	58024.22
567.36	57790.17
567.52	57691.86
567.68	57495.26
567.85	57031.83
568.01	56420.95
568.17	56233.71
568.34	56357.76
568.50	56210.31
568.66	56353.08
568.83	56755.65
568.99	56786.08
569.15	57179.29
569.32	56816.50
569.48	56528.62
569.64	56556.70
569.81	56252.44
569.97	56165.84
570.13	56053.49
570.30	55477.72
570.46	55370.05
570.62	54813.01
570.78	54752.15
570.95	55007.27
571.11	55669.64
571.27	55709.43
571.43	55906.04
571.60	56193.92
571.76	56268.82
571.92	56640.96
572.09	56835.23
572.25	56933.53
572.41	56643.30
572.57	56605.86
572.74	56619.90
572.90	56273.50
573.06	56259.46
573.22	56472.45
573.38	56210.31
573.55	56294.56
573.71	56306.27
573.87	56367.12
574.03	55856.88
574.20	56278.18
574.36	55899.01
574.52	55569.00
574.68	55557.30
574.84	55171.11
575.01	54766.20
575.17	54625.76
575.33	55206.22
575.49	54871.52
575.65	55552.62
575.82	55217.92
575.98	54962.80
576.14	55222.60
576.30	55533.89
576.46	55489.42
576.62	55398.14
576.79	55346.65
576.95	55030.68
577.11	55117.28
577.27	55271.75
577.43	55100.89
577.59	54672.57
577.75	54749.81
577.92	54089.78
578.08	53825.30
578.24	53844.02
578.40	54052.33
578.56	54298.09
578.72	54333.20
578.88	54703.00
579.04	54712.36
579.21	54780.24
579.37	54789.60
579.53	54932.37
579.69	54944.08
579.85	54965.14
580.01	54976.84
580.17	54459.58
580.33	54234.89
580.49	54368.30
580.65	54630.44
580.82	54937.05
580.98	54824.71
581.14	54695.98
581.30	54681.94
581.46	54714.70
581.62	54951.10
581.78	54735.77
581.94	54859.82
582.10	54986.21
582.26	54855.14
582.42	54796.62
582.58	55248.35
582.74	55103.23
582.90	54955.78
583.06	55117.28
583.22	55124.30
583.38	54710.02
583.54	54672.57
583.70	54328.52
583.86	54660.87
584.02	54216.17
584.18	54637.47
584.34	54415.11
584.50	54454.90
584.66	54232.55
584.82	54110.85
584.98	53923.60
585.14	53677.85
