SpectraSuite Data File
++++++++++++++++++++++++++++++++++++
Date: Mon Oct 07 14:54:56 GMT-05:00 2013
User: price-jones
Dark Spectrum Present: No
Reference Spectrum Present: No
Number of Sampled Component Spectra: 1
Spectrometers: USB2+H05261
Integration Time (usec): 10000 (USB2+H05261)
Spectra Averaged: 1 (USB2+H05261)
Boxcar Smoothing: 0 (USB2+H05261)
Correct for Electrical Dark: No (USB2+H05261)
Strobe/Lamp Enabled: No (USB2+H05261)
Correct for Detector Non-linearity: No (USB2+H05261)
Correct for Stray Light: No (USB2+H05261)
Number of Pixels in Processed Spectrum: 2048
>>>>>Begin Processed Spectral Data<<<<<
365.73	0.00
365.92	0.00
366.12	0.00
366.32	0.00
366.52	0.00
366.72	0.00
366.91	0.00
367.11	0.00
367.31	0.00
367.51	0.00
367.70	0.00
367.90	0.00
368.10	0.00
368.30	0.00
368.49	0.00
368.69	0.00
368.89	0.00
369.09	0.00
369.28	0.00
369.48	0.00
369.68	0.00
369.87	0.00
370.07	0.00
370.27	0.00
370.47	0.00
370.66	147.45
370.86	320.65
371.06	308.95
371.25	311.29
371.45	278.52
371.65	180.22
371.84	191.92
372.04	205.97
372.24	255.12
372.44	280.86
372.63	280.86
372.83	180.22
373.03	175.54
373.22	210.65
373.42	222.35
373.62	229.37
373.81	236.39
374.01	311.29
374.21	262.14
374.40	203.63
374.60	278.52
374.79	280.86
374.99	414.27
375.19	437.68
375.38	454.06
375.58	381.51
375.78	341.72
375.97	325.33
376.17	440.02
376.37	451.72
376.56	395.55
376.76	435.34
376.95	491.51
377.15	496.19
377.35	496.19
377.54	631.94
377.74	573.43
377.93	566.41
378.13	582.79
378.33	547.69
378.52	496.19
378.72	388.53
378.91	486.83
379.11	451.72
379.31	468.11
379.50	383.85
379.70	482.15
379.89	603.86
380.09	571.09
380.28	587.47
380.48	554.71
380.68	486.83
380.87	454.06
381.07	414.27
381.26	409.59
381.46	402.57
381.65	334.70
381.85	278.52
382.04	248.10
382.24	292.57
382.43	280.86
382.63	297.25
382.83	194.26
383.02	217.67
383.22	208.31
383.41	332.36
383.61	325.33
383.80	388.53
384.00	493.85
384.19	550.03
384.39	524.28
384.58	491.51
384.78	594.50
384.97	505.56
385.17	425.98
385.36	433.00
385.56	433.00
385.75	557.05
385.95	493.85
386.14	540.66
386.34	580.45
386.53	575.77
386.72	475.13
386.92	470.45
387.11	479.81
387.31	636.63
387.50	489.17
387.70	535.98
387.89	540.66
388.09	554.71
388.28	500.87
388.48	554.71
388.67	465.77
388.86	566.41
389.06	770.04
389.25	884.72
389.45	751.31
389.64	791.10
389.84	669.39
390.03	674.07
390.22	737.27
390.42	823.87
390.61	816.85
390.81	891.74
391.00	821.53
391.19	854.30
391.39	901.11
391.58	889.40
391.78	805.14
391.97	704.50
392.16	571.09
392.36	500.87
392.55	414.27
392.75	315.97
392.94	212.99
393.13	238.73
393.33	229.37
393.52	470.45
393.71	568.75
393.91	709.18
394.10	723.23
394.29	891.74
394.49	894.08
394.68	954.94
394.88	964.30
395.07	1018.13
395.26	908.13
395.46	889.40
395.65	812.17
395.84	699.82
396.04	606.20
396.23	489.17
396.42	334.70
396.62	255.12
396.81	346.40
397.00	578.11
397.19	718.54
397.39	910.47
397.58	1128.14
397.77	1160.91
397.97	1170.27
398.16	1214.74
398.35	1212.40
398.55	1310.70
398.74	1385.60
398.93	1404.32
399.12	1366.87
399.32	1345.81
399.51	1369.21
399.70	1432.41
399.90	1458.15
400.09	1577.52
400.28	1451.13
400.47	1378.58
400.67	1511.99
400.86	1542.41
401.05	1568.16
401.24	1458.15
401.44	1535.39
401.63	1650.08
401.82	1558.80
402.01	1568.16
402.21	1547.09
402.40	1589.22
402.59	1629.01
402.78	1554.12
402.97	1437.09
403.17	1472.20
403.36	1549.43
403.55	1638.38
403.74	1776.47
403.93	1605.61
404.13	1455.81
404.32	1479.22
404.51	1458.15
404.70	1621.99
404.89	1678.16
405.09	1479.22
405.28	1570.50
405.47	1514.33
405.66	1526.03
405.85	1460.49
406.05	1469.86
406.24	1519.01
406.43	1502.62
406.62	1598.59
406.81	1638.38
407.00	1530.71
407.20	1526.03
407.39	1572.84
407.58	1561.14
407.77	1746.04
407.96	1680.50
408.15	1671.14
408.34	1703.91
408.54	1792.85
408.73	1825.62
408.92	1820.94
409.11	1680.50
409.30	1696.89
409.49	1533.05
409.68	1460.49
409.87	1345.81
410.07	1535.39
410.26	1605.61
410.45	1619.65
410.64	1849.02
410.83	1952.01
411.02	1900.52
411.21	1944.99
411.40	1928.60
411.59	1984.77
411.78	1923.92
411.98	1930.94
412.17	1973.07
412.36	1834.98
412.55	1867.75
412.74	1926.26
412.93	1795.19
413.12	1776.47
413.31	2012.86
413.50	1984.77
413.69	2071.37
413.88	1959.03
414.07	1952.01
414.26	2057.33
414.45	1991.80
414.64	2090.10
414.83	2139.25
415.02	2076.06
415.22	1961.37
415.41	1942.64
415.60	2153.29
415.79	2232.87
415.98	2190.74
416.17	2256.28
416.36	2087.76
416.55	2155.63
416.74	2230.53
416.93	1916.90
417.12	1891.15
417.31	2146.27
417.50	1975.41
417.69	2106.48
417.88	2146.27
418.07	2066.69
418.26	2085.42
418.45	1954.35
418.64	2176.70
418.83	2195.42
419.02	2188.40
419.21	2165.00
419.39	2043.29
419.58	1949.67
419.77	1949.67
419.96	2097.12
420.15	2125.21
420.34	2326.49
420.53	2228.19
420.72	2333.51
420.91	2408.41
421.10	2317.13
421.29	2340.54
421.48	2218.83
421.67	2382.67
421.86	2209.47
422.05	2062.01
422.24	1851.36
422.43	1832.64
422.61	2050.31
422.80	2195.42
422.99	2209.47
423.18	2200.10
423.37	2127.55
423.56	2040.95
423.75	2118.18
423.94	2260.96
424.13	2111.16
424.32	2050.31
424.50	2120.53
424.69	2097.12
424.88	1994.14
425.07	2141.59
425.26	2080.74
425.45	2083.08
425.64	1980.09
425.83	2012.86
426.01	2111.16
426.20	2146.27
426.39	2120.53
426.58	1975.41
426.77	1799.87
426.96	1767.10
427.15	1764.76
427.33	1984.77
427.52	2143.93
427.71	1989.46
427.90	1961.37
428.09	2076.06
428.28	1982.43
428.46	1935.62
428.65	1806.89
428.84	1937.96
429.03	2029.24
429.22	1872.43
429.40	1661.78
429.59	1565.82
429.78	1387.94
429.97	1383.26
430.16	1427.73
430.34	1378.58
430.53	1364.53
430.72	1364.53
430.91	1659.44
431.10	1935.62
431.28	2282.02
431.47	2406.07
431.66	2363.94
431.85	2237.55
432.03	2008.18
432.22	1902.86
432.41	2022.22
432.60	2265.64
432.79	2363.94
432.97	2459.90
433.16	2258.62
433.35	2260.96
433.54	1891.15
433.72	1722.63
433.91	1830.30
434.10	1959.03
434.28	2253.94
434.47	2338.20
434.66	2385.01
434.85	2153.29
435.03	2242.23
435.22	2267.98
435.41	2457.56
435.59	2445.86
435.78	2464.58
435.97	2532.46
436.16	2679.91
436.34	2562.89
436.53	2370.96
436.72	2532.46
436.90	2298.41
437.09	2328.83
437.28	2275.00
437.46	2406.07
437.65	2232.87
437.84	2286.70
438.02	1991.80
438.21	2108.82
438.40	2129.89
438.58	2305.43
438.77	2331.17
438.96	2441.18
439.14	2497.35
439.33	2466.92
439.52	2569.91
439.70	2597.99
439.89	2436.50
440.08	2396.71
440.26	2616.72
440.45	2373.30
440.63	2614.38
440.82	2799.28
441.01	2846.09
441.19	2628.42
441.38	2719.70
441.57	2937.37
441.75	2909.29
441.94	2878.86
442.12	3002.91
442.31	2928.01
442.50	2939.71
442.68	3040.36
442.87	2869.50
443.05	2871.84
443.24	2913.97
443.43	2925.67
443.61	2986.52
443.80	3052.06
443.98	2832.05
444.17	2932.69
444.35	3026.31
444.54	3152.70
444.73	3056.74
444.91	2895.24
445.10	2827.37
445.28	2679.91
445.47	2597.99
445.65	2546.50
445.84	2644.81
446.02	2717.36
446.21	2848.43
446.39	2841.41
446.58	2906.95
446.77	2839.07
446.95	3009.93
447.14	2995.89
447.32	3063.76
447.51	3089.51
447.69	2918.65
447.88	2967.80
448.06	2855.45
448.25	3087.17
448.43	3080.14
448.62	2909.29
448.80	2904.60
448.99	2909.29
449.17	2911.63
449.36	3028.65
449.54	3089.51
449.73	3054.40
449.91	3148.02
450.10	3286.11
450.28	3372.71
450.46	3293.13
450.65	3262.71
450.83	3176.11
451.02	3080.14
451.20	3169.09
451.39	3049.72
451.57	3056.74
451.76	3087.17
451.94	3199.51
452.13	2939.71
452.31	2930.35
452.49	2792.26
452.68	2686.94
452.86	2864.82
453.05	2822.69
453.23	2857.79
453.42	3077.80
453.60	3035.67
453.78	3080.14
453.97	3133.98
454.15	3087.17
454.34	3082.49
454.52	2972.48
454.70	2935.03
454.89	2846.09
455.07	2993.55
455.26	2972.48
455.44	3068.44
455.62	3311.86
455.81	3213.56
455.99	3201.85
456.17	3211.22
456.36	3232.28
456.54	3403.14
456.73	3267.39
456.91	3300.16
457.09	3318.88
457.28	3393.78
457.46	3176.11
457.64	3265.05
457.83	3073.12
458.01	3098.87
458.19	3157.38
458.38	3117.59
458.56	3328.24
458.74	3262.71
458.93	3276.75
459.11	3234.62
459.29	3265.05
459.48	3155.04
459.66	3201.85
459.84	3112.91
460.03	3258.03
460.21	3148.02
460.39	3375.05
460.57	3232.28
460.76	3283.77
460.94	3405.48
461.12	3370.37
461.31	3318.88
461.49	3286.11
461.67	3349.31
461.85	3370.37
462.04	3412.50
462.22	3323.56
462.40	3384.41
462.59	3314.20
462.77	3426.54
462.95	3351.65
463.13	3232.28
463.32	3222.92
463.50	3258.03
463.68	3283.77
463.86	3276.75
464.05	3295.47
464.23	3211.22
464.41	3162.06
464.59	3173.77
464.78	3185.47
464.96	3361.01
465.14	3080.14
465.32	3213.56
465.50	3304.84
465.69	3410.16
465.87	3358.67
466.05	3272.07
466.23	3084.83
466.41	3021.63
466.60	3164.40
466.78	3026.31
466.96	3009.93
467.14	3272.07
467.32	3274.41
467.51	3251.00
467.69	3026.31
467.87	3232.28
468.05	3267.39
468.23	3262.71
468.41	3281.43
468.60	3353.99
468.78	3213.56
468.96	3236.96
469.14	3258.03
469.32	3309.52
469.50	3229.94
469.69	3108.23
469.87	3108.23
470.05	3138.66
470.23	3108.23
470.41	3300.16
470.59	3246.32
470.77	3208.87
470.95	3220.58
471.14	3248.66
471.32	3382.07
471.50	3485.06
471.68	3414.84
471.86	3574.00
472.04	3438.25
472.22	3480.38
472.40	3433.57
472.58	3311.86
472.77	3337.60
472.95	3426.54
473.13	3368.03
473.31	3279.09
473.49	3410.16
473.67	3382.07
473.85	3393.78
474.03	3431.23
474.21	3599.74
474.39	3574.00
474.57	3463.99
474.75	3574.00
474.93	3740.18
475.12	3616.13
475.30	3510.80
475.48	3506.12
475.66	3529.53
475.84	3562.30
476.02	3496.76
476.20	3361.01
476.38	3456.97
476.56	3609.11
476.74	3775.28
476.92	3651.24
477.10	3695.71
477.28	3936.78
477.46	3875.93
477.64	3915.72
477.82	3810.39
478.00	3749.54
478.18	3918.06
478.36	3889.97
478.54	3873.59
478.72	3805.71
478.90	4016.36
479.08	4091.26
479.26	4175.52
479.44	4184.88
479.62	4007.00
479.80	4119.34
479.98	4086.58
480.16	4100.62
480.34	4152.11
480.52	4081.89
480.70	4091.26
480.88	4292.54
481.06	4376.80
481.24	4236.37
481.41	4278.50
481.59	4276.16
481.77	4442.34
481.95	4341.69
482.13	4152.11
482.31	4402.55
482.49	4390.84
482.67	4472.76
482.85	4449.36
483.03	4432.97
483.21	4479.79
483.39	4568.73
483.57	4458.72
483.74	4341.69
483.92	4505.53
484.10	4411.91
484.28	4351.06
484.46	4652.98
484.64	4643.62
484.82	4388.50
485.00	4482.13
485.18	4234.03
485.35	4044.45
485.53	3911.04
485.71	3503.78
485.89	3548.25
486.07	3660.60
486.25	3971.89
486.43	4248.07
486.61	4386.16
486.78	4156.79
486.96	4241.05
487.14	4390.84
487.32	4622.56
487.50	4798.10
487.68	4798.10
487.85	4889.38
488.03	5027.47
488.21	4730.22
488.39	4727.88
488.57	4751.29
488.75	4578.09
488.92	4762.99
489.10	5198.33
489.28	5284.93
489.46	5441.75
489.64	5493.24
489.81	5451.11
489.99	5359.83
490.17	5427.70
490.35	5345.78
490.53	5296.63
490.70	5383.23
490.88	5254.50
491.06	5437.06
491.24	5537.71
491.41	5151.52
491.59	4880.02
491.77	4971.30
491.95	4926.83
492.13	5317.70
492.30	5387.91
492.48	5645.37
492.66	5645.37
492.84	5636.01
493.01	5701.54
493.19	5476.85
493.37	5408.98
493.54	5282.59
493.72	5603.24
493.90	5706.23
494.08	5947.30
494.25	5900.49
494.43	6038.58
494.61	6218.80
494.79	6207.10
494.96	6122.84
495.14	5914.53
495.32	5722.61
495.49	5631.33
495.67	5738.99
495.85	6263.27
496.02	6300.72
496.20	6174.33
496.38	5989.43
496.55	6047.94
496.73	6324.13
496.91	6179.01
497.09	6509.03
497.26	6399.02
497.44	6291.36
497.62	6167.31
497.79	5923.90
497.97	5743.67
498.14	5774.10
498.32	5900.49
498.50	6052.63
498.67	6169.65
498.85	6174.33
499.03	6497.33
499.20	6328.81
499.38	6340.51
499.56	6186.04
499.73	6127.52
499.91	6148.59
500.08	6087.73
500.26	5856.02
500.44	5923.90
500.61	5902.83
500.79	6113.48
500.97	5959.00
501.14	5849.00
501.32	5762.40
501.49	5982.41
501.67	5767.08
501.84	5811.55
502.02	5942.62
502.20	6146.25
502.37	6143.91
502.55	6183.70
502.72	6347.53
502.90	6342.85
503.07	6207.10
503.25	6188.38
503.43	5966.03
503.60	5893.47
503.78	5764.74
503.95	5916.87
504.13	6253.91
504.30	6310.08
504.48	6256.25
504.65	6361.58
504.83	6291.36
505.01	6321.79
505.18	6513.71
505.36	6745.42
505.53	6757.13
505.71	6778.19
505.88	6696.27
506.06	6567.54
506.23	6518.39
506.41	6363.92
506.58	6469.24
506.76	6597.97
506.93	6267.95
507.11	6232.85
507.28	6370.94
507.46	6181.35
507.63	6246.89
507.81	6153.27
507.98	6143.91
508.16	6506.69
508.33	6349.87
508.50	6644.78
508.68	6750.10
508.85	6778.19
509.03	6675.21
509.20	6665.85
509.38	6396.68
509.55	6221.14
509.73	6293.70
509.90	6424.77
510.08	6516.05
510.25	6392.00
510.42	6499.67
510.60	6516.05
510.77	6466.90
510.95	6710.32
511.12	6509.03
511.30	6682.23
511.47	6815.64
511.64	6888.20
511.82	6698.61
511.99	6527.75
512.17	6319.45
512.34	6286.68
512.51	6331.15
512.69	6502.01
512.86	6443.49
513.04	6424.77
513.21	6492.65
513.38	6298.38
513.56	6235.19
513.73	6197.74
513.90	6200.08
514.08	6148.59
514.25	6216.46
514.43	6169.65
514.60	6228.17
514.77	6448.18
514.95	6502.01
515.12	6267.95
515.29	6548.82
515.47	6523.07
515.64	6478.60
515.81	6480.94
515.99	6307.74
516.16	5827.93
516.33	5556.43
516.51	5390.25
516.68	5104.71
516.85	5046.20
517.03	5064.92
517.20	5432.38
517.37	5895.81
517.54	6300.72
517.72	6181.35
517.89	5582.18
518.06	5214.71
518.24	5240.46
518.41	5605.58
518.58	6078.37
518.75	6120.50
518.93	6122.84
519.10	5968.37
519.27	6040.92
519.45	6218.80
519.62	6326.47
519.79	6532.44
519.96	6457.54
520.14	6286.68
520.31	5982.41
520.48	6153.27
520.65	6057.31
520.83	6375.62
521.00	6408.39
521.17	6312.42
521.34	6246.89
521.52	6539.46
521.69	6621.38
521.86	6782.87
522.03	6590.95
522.20	6202.42
522.38	6038.58
522.55	6038.58
522.72	6228.17
522.89	6216.46
523.07	6164.97
523.24	6415.41
523.41	6546.48
523.58	6490.31
523.75	6789.89
523.92	6696.27
524.10	6635.42
524.27	6705.63
524.44	6623.72
524.61	6642.44
524.78	6277.32
524.96	6502.01
525.13	6406.05
525.30	6635.42
525.47	6670.53
525.64	6588.61
525.81	6546.48
525.98	6153.27
526.16	5851.34
526.33	5633.67
526.50	5645.37
526.67	5568.13
526.84	5558.77
527.01	5923.90
527.18	5984.75
527.36	6181.35
527.53	6406.05
527.70	6597.97
527.87	6321.79
528.04	6207.10
528.21	6424.77
528.38	6466.90
528.55	6890.54
528.72	6782.87
528.89	6745.42
529.07	6771.17
529.24	6682.23
529.41	6216.46
529.58	6523.07
529.75	6291.36
529.92	6420.09
530.09	6450.52
530.26	6663.51
530.43	6579.25
530.60	6792.23
530.77	6946.71
530.94	6649.46
531.11	6715.00
531.28	6640.10
531.46	6492.65
531.63	6424.77
531.80	6553.50
531.97	6324.13
532.14	6242.21
532.31	6115.82
532.48	5795.17
532.65	5813.89
532.82	6118.16
532.99	6377.96
533.16	6307.74
533.33	6413.07
533.50	6534.78
533.67	6340.51
533.84	6260.93
534.01	6296.04
534.18	6284.34
534.35	6246.89
534.52	6256.25
534.69	6389.66
534.86	6473.92
535.03	6525.41
535.20	6633.08
535.37	6525.41
535.54	6705.63
535.71	6609.67
535.88	6513.71
536.05	6274.98
536.22	6118.16
536.38	6099.44
536.55	6097.10
536.72	6076.03
536.89	5839.64
537.06	6160.29
537.23	6506.69
537.40	6548.82
537.57	6349.87
537.74	6298.38
537.91	6305.40
538.08	6310.08
538.25	6347.53
538.42	6485.62
538.59	6417.75
538.75	6289.02
538.92	6174.33
539.09	6024.54
539.26	6022.20
539.43	5933.26
539.60	6085.39
539.77	5963.68
539.94	5961.34
540.11	5682.82
540.28	5689.84
540.44	5846.66
540.61	5682.82
540.78	5797.51
540.95	5937.94
541.12	5959.00
541.29	6157.95
541.46	6183.70
541.62	6071.35
541.79	6052.63
541.96	6047.94
542.13	6033.90
542.30	6134.54
542.47	6129.86
542.63	6087.73
542.80	6092.41
542.97	5921.56
543.14	5907.51
543.31	5923.90
543.48	6015.18
543.64	6370.94
543.81	6443.49
543.98	6380.30
544.15	6106.46
544.32	6017.52
544.48	6106.46
544.65	6104.12
544.82	6286.68
544.99	5973.05
545.16	6001.13
545.32	5909.85
545.49	6078.37
545.66	6202.42
545.83	6193.06
546.00	6087.73
546.16	6099.44
546.33	6019.86
546.50	5923.90
546.67	6059.65
546.83	6076.03
547.00	6050.28
547.17	5856.02
547.34	5813.89
547.50	5724.95
547.67	5816.23
547.84	5860.70
548.00	5987.09
548.17	6125.18
548.34	5935.60
548.51	5874.74
548.67	5926.24
548.84	6195.40
549.01	6069.01
549.18	6012.84
549.34	6008.16
549.51	6094.76
549.68	6085.39
549.84	5937.94
550.01	5900.49
550.18	5977.73
550.34	5802.19
550.51	5949.64
550.68	5914.53
550.84	5902.83
551.01	5900.49
551.18	5832.62
551.34	5895.81
551.51	5851.34
551.68	6026.88
551.84	6127.52
552.01	5650.05
552.18	6043.26
552.34	5731.97
552.51	5692.18
552.68	5495.58
552.84	5687.50
553.01	5762.40
553.18	5816.23
553.34	5734.31
553.51	5916.87
553.67	5795.17
553.84	5905.17
554.01	5846.66
554.17	5930.92
554.34	5760.06
554.51	6069.01
554.67	5846.66
554.84	5856.02
555.00	5907.51
555.17	5741.33
555.33	5776.44
555.50	5720.27
555.67	5933.26
555.83	5671.12
556.00	5596.22
556.16	5668.78
556.33	5636.01
556.50	5600.90
556.66	5598.56
556.83	5535.37
556.99	5603.24
557.16	5605.58
557.32	5724.95
557.49	5764.74
557.65	5717.93
557.82	5561.11
557.98	5364.51
558.15	5584.52
558.32	5404.30
558.48	5193.65
558.65	5261.52
558.81	5275.57
558.98	5266.21
559.14	5336.42
559.31	5352.81
559.47	5533.03
559.64	5266.21
559.80	5291.95
559.97	5270.89
560.13	5432.38
560.30	5444.09
560.46	5724.95
560.63	5673.46
560.79	5575.16
560.96	5652.39
561.12	5411.32
561.29	5301.31
561.45	5219.39
561.61	5242.80
561.78	5554.09
561.94	5453.45
562.11	5259.18
562.27	5476.85
562.44	5341.10
562.60	5495.58
562.77	5542.39
562.93	5352.81
563.10	5404.30
563.26	5334.08
563.42	5401.96
563.59	5308.34
563.75	5289.61
563.92	5186.63
564.08	5439.40
564.24	5411.32
564.41	5224.08
564.57	5385.57
564.74	5317.70
564.90	5128.11
565.07	5247.48
565.23	5102.37
565.39	5013.43
565.56	5013.43
565.72	5102.37
565.88	5004.07
566.05	5123.43
566.21	5212.37
566.38	5188.97
566.54	5076.62
566.70	5263.86
566.87	5313.02
567.03	5322.38
567.19	5359.83
567.36	5289.61
567.52	5219.39
567.68	5081.30
567.85	5027.47
568.01	5018.11
568.17	4882.36
568.34	4997.04
568.50	4840.23
568.66	5032.15
568.83	5027.47
568.99	5090.67
569.15	5053.22
569.32	5078.96
569.48	5043.85
569.64	5055.56
569.81	4997.04
569.97	4798.10
570.13	4947.89
570.30	4992.36
570.46	4709.16
570.62	4688.09
570.78	4713.84
570.95	4660.01
571.11	4847.25
571.27	4854.27
571.43	4891.72
571.60	4734.90
571.76	4980.66
571.92	4964.28
572.09	5020.45
572.25	5125.77
572.41	4917.47
572.57	4957.25
572.74	4894.06
572.90	5095.35
573.06	4915.12
573.22	4880.02
573.38	4917.47
573.55	4990.02
573.71	4952.57
573.87	4819.16
574.03	4903.42
574.20	4945.55
574.36	4748.95
574.52	4641.28
574.68	4863.63
574.84	4800.44
575.01	4655.33
575.17	4720.86
575.33	4814.48
575.49	4739.58
575.65	4711.50
575.82	4678.73
575.98	4557.02
576.14	4690.43
576.30	4786.40
576.46	4734.90
576.62	4875.34
576.79	4702.14
576.95	4650.64
577.11	4840.23
577.27	4791.08
577.43	4765.33
577.59	4741.93
577.75	4547.66
577.92	4676.39
578.08	4386.16
578.24	4542.98
578.40	4510.21
578.56	4442.34
578.72	4442.34
578.88	4514.89
579.04	4662.35
579.21	4580.43
579.37	4587.45
579.53	4610.86
579.69	4669.37
579.85	4564.04
580.01	4685.75
580.17	4603.83
580.33	4690.43
580.49	4545.32
580.65	4538.30
580.82	4678.73
580.98	4660.01
581.14	4580.43
581.30	4671.71
581.46	4720.86
581.62	4643.62
581.78	4582.77
581.94	4652.98
582.10	4650.64
582.26	4751.29
582.42	4746.61
582.58	4631.92
582.74	4655.33
582.90	4709.16
583.06	4554.68
583.22	4657.67
583.38	4648.30
583.54	4564.04
583.70	4568.73
583.86	4599.15
584.02	4496.17
584.18	4657.67
584.34	4582.77
584.50	4716.18
584.66	4449.36
584.82	4362.76
584.98	4454.04
585.14	4463.40
585.30	4329.99
585.46	4219.99
585.62	4397.87
585.78	4320.63
585.94	4315.95
586.10	4416.59
586.26	4498.51
586.42	4493.83
586.58	4479.79
586.74	4358.08
586.90	4411.91
587.06	4465.74
587.22	4348.72
587.38	4423.61
587.54	4315.95
587.70	4276.16
587.86	4329.99
588.02	4098.28
588.18	4109.98
588.34	4032.74
588.49	3857.20
588.65	3653.58
588.81	3513.14
588.97	3641.87
589.13	3623.15
589.29	3611.45
589.45	3669.96
589.61	3674.64
589.77	3941.46
589.93	4039.76
590.08	3971.89
590.24	4159.13
590.40	4142.75
590.56	4250.41
590.72	4159.13
590.88	4053.81
591.04	3908.69
591.20	3985.93
591.35	4039.76
591.51	4042.11
591.67	4074.87
591.83	3997.64
591.99	4112.32
592.15	4107.64
592.31	4159.13
592.46	4093.60
592.62	3985.93
592.78	4201.26
592.94	4042.11
593.10	3927.42
593.26	4154.45
593.41	4088.92
593.57	4093.60
593.73	3946.14
593.89	4009.34
594.05	3904.01
594.20	3756.56
594.36	3833.80
594.52	3885.29
594.68	3756.56
594.84	3983.59
594.99	3957.85
595.15	3988.27
595.31	4224.67
595.47	4079.55
595.62	3932.10
595.78	3950.82
595.94	4102.96
596.10	3939.12
596.25	4042.11
596.41	3992.95
596.57	3969.55
596.73	3906.35
596.88	3887.63
597.04	3894.65
597.20	3742.52
597.36	3810.39
597.51	3906.35
597.67	3850.18
597.83	3885.29
597.99	3871.25
