SpectraSuite Data File
++++++++++++++++++++++++++++++++++++
Date: Mon Oct 07 14:55:00 GMT-05:00 2013
User: price-jones
Dark Spectrum Present: No
Reference Spectrum Present: No
Number of Sampled Component Spectra: 1
Spectrometers: USB2+H05261
Integration Time (usec): 10000 (USB2+H05261)
Spectra Averaged: 1 (USB2+H05261)
Boxcar Smoothing: 0 (USB2+H05261)
Correct for Electrical Dark: No (USB2+H05261)
Strobe/Lamp Enabled: No (USB2+H05261)
Correct for Detector Non-linearity: No (USB2+H05261)
Correct for Stray Light: No (USB2+H05261)
Number of Pixels in Processed Spectrum: 2048
>>>>>Begin Processed Spectral Data<<<<<
365.73	0.00
365.92	0.00
366.12	0.00
366.32	0.00
366.52	0.00
366.72	0.00
366.91	0.00
367.11	0.00
367.31	0.00
367.51	0.00
367.70	0.00
367.90	0.00
368.10	0.00
368.30	0.00
368.49	0.00
368.69	0.00
368.89	0.00
369.09	0.00
369.28	0.00
369.48	0.00
369.68	0.00
369.87	0.00
370.07	0.00
370.27	0.00
370.47	177.88
370.66	1706.25
370.86	1928.60
371.06	2141.59
371.25	2141.59
371.45	1886.47
371.65	1673.48
371.84	1689.87
372.04	1783.49
372.24	1888.81
372.44	2062.01
372.63	2017.54
372.83	1881.79
373.03	1493.26
373.22	1455.81
373.42	1598.59
373.62	1956.69
373.81	2080.74
374.01	1961.37
374.21	1774.13
374.40	1629.01
374.60	1860.73
374.79	1991.80
374.99	2417.77
375.19	2555.86
375.38	2541.82
375.58	2387.35
375.78	2277.34
375.97	2359.26
376.17	2352.24
376.37	2459.90
376.56	2548.84
376.76	2768.85
376.95	2892.90
377.15	3047.38
377.35	3141.00
377.54	3370.37
377.74	3290.79
377.93	3438.25
378.13	3325.90
378.33	2902.26
378.52	2923.33
378.72	2675.23
378.91	2750.13
379.11	2726.72
379.31	2602.68
379.50	2567.57
379.70	2771.19
379.89	3068.44
380.09	3318.88
380.28	3370.37
380.48	3288.45
380.68	3283.77
380.87	3122.27
381.07	2911.63
381.26	2548.84
381.46	2551.18
381.65	2518.42
381.85	2424.80
382.04	2207.13
382.24	2083.08
382.43	2005.84
382.63	1968.39
382.83	1935.62
383.02	1923.92
383.22	1998.82
383.41	1994.14
383.61	2174.36
383.80	2597.99
384.00	2904.60
384.19	3145.68
384.39	3403.14
384.58	3314.20
384.78	3199.51
384.97	3068.44
385.17	3087.17
385.36	2888.22
385.56	2759.49
385.75	3005.25
385.95	3269.73
386.14	3541.23
386.34	3410.16
386.53	3204.19
386.72	2984.18
386.92	3152.70
387.11	3232.28
387.31	3325.90
387.50	3435.91
387.70	3272.07
387.89	3211.22
388.09	3267.39
388.28	3215.90
388.48	3384.41
388.67	3817.41
388.86	3983.59
389.06	4266.80
389.25	4479.79
389.45	4437.66
389.64	4386.16
389.84	4498.51
390.03	4421.27
390.22	4463.40
390.42	4746.61
390.61	4870.65
390.81	5268.55
391.00	5284.93
391.19	5170.24
391.39	5029.81
391.58	4624.90
391.78	4458.72
391.97	4430.63
392.16	3981.25
392.36	3541.23
392.55	2750.13
392.75	1959.03
392.94	1886.47
393.13	1977.75
393.33	2321.81
393.52	2993.55
393.71	3574.00
393.91	4049.13
394.10	4355.74
394.29	4910.44
394.49	5135.14
394.68	5755.38
394.88	5551.75
395.07	5774.10
395.26	5628.99
395.46	5462.81
395.65	5109.39
395.84	4423.61
396.04	3578.68
396.23	2909.29
396.42	2471.61
396.62	2738.43
396.81	3251.00
397.00	4100.62
397.19	5057.90
397.39	5930.92
397.58	6588.61
397.77	6806.28
397.97	6965.43
398.16	7164.38
398.35	7372.69
398.55	7648.87
398.74	8231.66
398.93	7840.79
399.12	7985.91
399.32	7749.51
399.51	7911.01
399.70	8311.24
399.90	8180.17
400.09	8236.35
400.28	8079.53
400.47	8271.45
400.67	8709.13
400.86	9048.51
401.05	8894.04
401.24	8898.72
401.44	9020.42
401.63	9235.75
401.82	9184.26
402.01	9165.54
402.21	9242.78
402.40	9312.99
402.59	8828.50
402.78	8683.39
402.97	8437.63
403.17	9020.42
403.36	9437.04
403.55	9460.45
403.74	9863.02
403.93	9242.78
404.13	8566.36
404.32	8657.64
404.51	8973.61
404.70	9451.08
404.89	9518.96
405.09	9490.87
405.28	8898.72
405.47	9214.69
405.66	9027.45
405.85	8788.71
406.05	8425.93
406.24	8755.94
406.43	9280.22
406.62	9170.22
406.81	9385.55
407.00	9163.20
407.20	8971.27
407.39	9130.43
407.58	9425.34
407.77	10043.24
407.96	10244.52
408.15	10464.54
408.34	10415.38
408.54	10958.39
408.73	10841.36
408.92	10626.03
409.11	10307.72
409.30	9834.93
409.49	9130.43
409.68	8758.28
409.87	8596.79
410.07	9195.96
410.26	9769.40
410.45	10216.44
410.64	10752.42
410.83	11035.63
411.02	11126.91
411.21	11433.52
411.40	11250.96
411.59	11541.18
411.78	11613.74
411.98	11257.98
412.17	11590.33
412.36	11133.93
412.55	11218.19
412.74	10930.30
412.93	10761.78
413.12	11026.26
413.31	12276.11
413.50	12217.60
413.69	12479.74
413.88	11595.01
414.07	11513.10
414.26	11756.51
414.45	11988.22
414.64	12042.06
414.83	12004.61
415.02	11899.28
415.22	12156.74
415.41	12332.28
415.60	12556.97
415.79	12964.23
415.98	13509.57
416.17	13221.69
416.36	12975.93
416.55	12692.73
416.74	12189.51
416.93	12140.36
417.12	12013.97
417.31	12449.31
417.50	12486.76
417.69	12863.58
417.88	13041.46
418.07	12924.44
418.26	12624.85
418.45	12690.38
418.64	13310.63
418.83	13563.40
419.02	13350.42
419.21	13184.24
419.39	12582.72
419.58	12138.02
419.77	12339.30
419.96	13202.96
420.15	13540.00
420.34	14010.45
420.53	14298.33
420.72	14565.15
420.91	14256.20
421.10	14155.56
421.29	14188.33
421.48	13855.97
421.67	14347.48
421.86	13678.09
422.05	12556.97
422.24	11506.07
422.43	11646.51
422.61	13219.35
422.80	14122.79
422.99	13689.79
423.18	13224.03
423.37	13287.22
423.56	13266.16
423.75	13362.12
423.94	13792.78
424.13	13202.96
424.32	13111.68
424.50	13221.69
424.69	13542.34
424.88	13270.84
425.07	12959.55
425.26	12833.16
425.45	12585.06
425.64	12549.95
425.83	12922.10
426.01	13397.23
426.20	13610.22
426.39	13399.57
426.58	12301.86
426.77	11576.29
426.96	11571.61
427.15	11896.94
427.33	13142.11
427.52	13298.92
427.71	13554.04
427.90	13055.51
428.09	13090.62
428.28	12592.08
428.46	12128.66
428.65	12126.32
428.84	12592.08
429.03	12397.82
429.22	11667.57
429.40	11049.67
429.59	9902.81
429.78	8912.76
429.97	9207.67
430.16	9259.16
430.34	9142.13
430.53	9240.44
430.72	9650.03
430.91	11108.18
431.10	13034.44
431.28	15014.54
431.47	15936.71
431.66	15239.23
431.85	13963.64
432.03	12858.90
432.22	12830.82
432.41	13902.78
432.60	15183.06
432.79	15719.04
432.97	15611.37
433.16	14939.64
433.35	13727.24
433.54	12376.75
433.72	11789.28
433.91	12404.84
434.10	13874.70
434.28	14698.56
434.47	15342.21
434.66	14813.25
434.85	14600.26
435.03	14752.40
435.22	15178.37
435.41	16135.65
435.59	16224.59
435.78	16018.63
435.97	16849.52
436.16	16643.55
436.34	16362.69
436.53	16137.99
436.72	16109.91
436.90	15094.11
437.09	15178.37
437.28	15276.68
437.46	15580.95
437.65	15602.01
437.84	14097.05
438.02	13640.64
438.21	13731.92
438.40	14183.65
438.58	15234.55
438.77	15688.61
438.96	15169.01
439.14	16311.19
439.33	16699.72
439.52	16868.24
439.70	16442.26
439.89	16032.67
440.08	15611.37
440.26	15763.51
440.45	16388.43
440.63	17666.36
440.82	18256.18
441.01	17942.55
441.19	17811.48
441.38	18523.00
441.57	19126.86
441.75	19042.60
441.94	19318.78
442.12	18803.86
442.31	19527.09
442.50	19690.93
442.68	19290.70
442.87	18932.59
443.05	18670.45
443.24	19199.41
443.43	19836.04
443.61	19389.00
443.80	19948.39
443.98	19021.53
444.17	19012.17
444.35	20126.27
444.54	20629.48
444.73	20154.35
444.91	19168.99
445.10	18319.37
445.28	17589.13
445.47	17956.59
445.65	17673.39
445.84	18015.10
446.02	18719.60
446.21	19370.27
446.39	19470.92
446.58	19669.86
446.77	19981.15
446.95	19723.69
447.14	20594.37
447.32	20512.46
447.51	19882.85
447.69	19321.12
447.88	19527.09
448.06	19597.31
448.25	20067.75
448.43	20236.27
448.62	19803.27
448.80	19936.68
448.99	19578.58
449.17	20369.68
449.36	19969.45
449.54	20758.21
449.73	20917.37
449.91	21317.60
450.10	21994.01
450.28	21748.26
450.46	22047.85
450.65	21972.95
450.83	21734.21
451.02	21469.73
451.20	21493.14
451.39	21294.19
451.57	20982.90
451.76	21120.99
451.94	20666.93
452.13	20528.84
452.31	19271.97
452.49	18665.77
452.68	19323.46
452.86	19506.02
453.05	19403.04
453.23	20278.40
453.42	20369.68
453.60	20685.65
453.78	20790.98
453.97	20482.03
454.15	20334.57
454.34	19971.79
454.52	19967.11
454.70	19932.00
454.89	20325.21
455.07	20601.40
455.26	21003.97
455.44	21895.71
455.62	22183.60
455.81	21687.40
455.99	21502.50
456.17	21490.80
456.36	21806.77
456.54	22483.19
456.73	21961.25
456.91	22469.14
457.09	22647.02
457.28	23388.97
457.46	22171.89
457.64	22221.05
457.83	21846.56
458.01	21385.47
458.19	21888.69
458.38	22417.65
458.56	22326.37
458.74	22019.76
458.93	21865.28
459.11	21561.02
459.29	21188.87
459.48	22087.64
459.66	21734.21
459.84	22178.92
460.03	22307.65
460.21	22253.81
460.39	22897.46
460.57	22775.75
460.76	23063.64
460.94	23300.03
461.12	22981.72
461.31	23115.13
461.49	23065.98
461.67	23269.61
461.85	23623.03
462.04	24060.71
462.22	23740.05
462.40	23484.94
462.59	23674.52
462.77	23768.14
462.95	23864.10
463.13	22712.56
463.32	22513.61
463.50	22618.94
463.68	22782.77
463.86	23215.77
464.05	22335.73
464.23	21411.22
464.41	21834.86
464.59	21827.84
464.78	23323.44
464.96	23211.09
465.14	22824.90
465.32	23028.53
465.50	23517.70
465.69	24102.84
465.87	22939.59
466.05	22551.06
466.23	21436.97
466.41	20929.07
466.60	22125.08
466.78	22029.12
466.96	22544.04
467.14	22930.23
467.32	22871.72
467.51	22965.34
467.69	21713.15
467.87	22473.82
468.05	23115.13
468.23	22600.21
468.41	22890.44
468.60	22817.88
468.78	23410.04
468.96	22946.61
469.14	23391.31
469.32	23702.61
469.50	22232.75
469.69	22595.53
469.87	22370.84
470.05	22270.20
470.23	22403.61
470.41	22597.87
470.59	22616.60
470.77	23009.81
470.95	23260.24
471.14	23929.64
471.32	23608.98
471.50	24716.06
471.68	24922.02
471.86	24989.90
472.04	25067.14
472.22	24968.84
472.40	23494.30
472.58	24088.79
472.77	23838.36
472.95	24266.67
473.13	24458.60
473.31	24439.87
473.49	24245.61
473.67	24915.00
473.85	25010.96
474.03	25490.77
474.21	25750.57
474.39	25881.64
474.57	25560.99
474.75	25703.76
474.93	25186.50
475.12	24872.87
475.30	25156.08
475.48	25202.89
475.66	25570.35
475.84	25305.87
476.02	24950.11
476.20	24376.68
476.38	25799.73
476.56	25612.48
476.74	26813.18
476.92	26251.45
477.10	26728.92
477.28	28191.75
477.46	27143.19
477.64	27857.06
477.82	27896.85
478.00	28154.30
478.18	27634.71
478.36	27529.38
478.54	27683.86
478.72	27786.84
478.90	29244.99
479.08	29795.02
479.26	29605.44
479.44	29830.13
479.62	28758.16
479.80	30316.96
479.98	29860.55
480.16	30277.17
480.34	29017.96
480.52	30078.22
480.70	30623.57
480.88	29986.94
481.06	31452.12
481.24	31197.00
481.41	31732.98
481.59	32486.64
481.77	31590.21
481.95	32077.04
482.13	31730.64
482.31	31241.47
482.49	32215.13
482.67	31529.36
482.85	31981.08
483.03	32130.87
483.21	33193.48
483.39	32444.51
483.57	32128.53
483.74	31281.26
483.92	32493.66
484.10	32762.82
484.28	33446.26
484.46	33296.46
484.64	34040.75
484.82	32863.46
485.00	32144.92
485.18	31405.31
485.35	30309.94
485.53	27604.28
485.71	25294.17
485.89	25766.96
486.07	27599.60
486.25	29797.36
486.43	31594.89
486.61	31253.17
486.78	31592.55
486.96	31655.75
487.14	33488.38
487.32	34312.25
487.50	35634.66
487.68	36453.84
487.85	36650.45
488.03	36163.62
488.21	35519.97
488.39	34827.17
488.57	34499.50
488.75	34742.91
488.92	35964.67
489.10	37577.30
489.28	38712.46
489.46	40655.11
489.64	39356.11
489.81	39878.05
489.99	39253.12
490.17	39700.17
490.35	39538.67
490.53	39014.39
490.70	38504.15
490.88	38976.94
491.06	39487.18
491.24	39194.61
491.41	38204.56
491.59	36299.37
491.77	36048.93
491.95	37074.09
492.13	39501.22
492.30	39522.29
492.48	41113.85
492.66	41464.93
492.84	41422.80
493.01	40910.22
493.19	40877.46
493.37	40526.38
493.54	41310.46
493.72	42089.85
493.90	42677.33
494.08	42937.13
494.25	43608.86
494.43	44208.04
494.61	44912.54
494.79	44474.86
494.96	44315.70
495.14	43817.17
495.32	41954.10
495.49	41750.48
495.67	43077.56
495.85	44236.12
496.02	45598.32
496.20	44849.35
496.38	44542.74
496.55	44538.05
496.73	45333.84
496.91	45485.97
497.09	46747.52
497.26	45825.35
497.44	45242.56
497.62	44645.72
497.79	43512.90
497.97	41673.24
498.14	43164.16
498.32	44570.82
498.50	44662.10
498.67	45436.82
498.85	45216.81
499.03	45600.66
499.20	46679.64
499.38	45621.72
499.56	45504.70
499.73	44095.69
499.91	43510.56
500.08	42843.51
500.26	42958.19
500.44	43737.59
500.61	44502.95
500.79	44652.74
500.97	43882.70
501.14	43473.11
501.32	42590.73
501.49	43840.57
501.67	43709.50
501.84	44133.14
502.02	45345.54
502.20	45382.99
502.37	45287.03
502.55	45565.55
502.72	46202.18
502.90	47512.88
503.07	46209.20
503.25	45469.59
503.43	44055.90
503.60	42993.30
503.78	42387.10
503.95	44037.18
504.13	45954.08
504.30	46476.02
504.48	46272.39
504.65	45549.17
504.83	45925.99
505.01	46883.27
505.18	47105.62
505.36	47990.34
505.53	48058.22
505.71	48289.93
505.88	48004.39
506.06	47463.72
506.23	47463.72
506.41	46639.86
506.58	47606.50
506.76	47044.77
506.93	46511.13
507.11	46127.28
507.28	46527.51
507.46	46539.21
507.63	45823.01
507.81	45413.41
507.98	45923.65
508.16	47192.22
508.33	47061.15
508.50	47285.84
508.68	48184.61
508.85	49226.15
509.03	49020.18
509.20	48535.69
509.38	47138.39
509.55	46995.62
509.73	47100.94
509.90	47735.23
510.08	47454.36
510.25	46857.52
510.42	46440.91
510.60	47351.38
510.77	47976.30
510.95	48744.00
511.12	49001.46
511.30	48968.69
511.47	48886.77
511.64	48488.88
511.82	48198.65
511.99	46681.98
512.17	47105.62
512.34	46623.47
512.51	46782.63
512.69	47147.75
512.86	47667.35
513.04	48449.09
513.21	47496.49
513.38	46380.06
513.56	46293.46
513.73	44844.66
513.90	45710.66
514.08	45977.48
514.25	46059.40
514.43	46513.47
514.60	47079.88
514.77	47201.58
514.95	48505.26
515.12	48105.03
515.29	48772.08
515.47	48477.18
515.64	49001.46
515.81	48418.66
515.99	46003.23
516.16	43007.34
516.33	41581.96
516.51	40758.09
516.68	38422.23
516.85	37048.34
517.03	39566.76
517.20	43665.03
517.37	46309.84
517.54	47440.32
517.72	45303.41
517.89	41673.24
518.06	40739.36
518.24	42183.48
518.41	45357.24
518.58	46635.17
518.75	46171.75
518.93	45979.82
519.10	45963.44
519.27	47096.26
519.45	47210.95
519.62	47412.23
519.79	48559.09
519.96	47309.25
520.14	46593.04
520.31	45961.10
520.48	46590.70
520.65	47145.41
520.83	48327.38
521.00	48236.10
521.17	47749.27
521.34	47033.07
521.52	48011.41
521.69	48601.22
521.86	49361.90
522.03	49038.90
522.20	46862.21
522.38	45734.07
522.55	46319.20
522.72	47114.98
522.89	47077.54
523.07	46476.02
523.24	47187.54
523.41	48751.02
523.58	49006.14
523.75	49373.60
523.92	49137.21
524.10	48765.06
524.27	49291.68
524.44	48465.47
524.61	48624.63
524.78	48947.62
524.96	49324.45
525.13	48856.34
525.30	49031.88
525.47	50071.08
525.64	50487.70
525.81	47700.12
525.98	46461.97
526.16	43510.56
526.33	43103.31
526.50	42817.76
526.67	42714.78
526.84	44222.08
527.01	44928.92
527.18	46710.07
527.36	49214.44
527.53	48975.71
527.70	48027.79
527.87	46974.55
528.04	47140.73
528.21	48158.86
528.38	49258.91
528.55	49996.18
528.72	50588.34
528.89	50101.51
529.07	49399.35
529.24	46733.48
529.41	46894.97
529.58	47082.22
529.75	47590.11
529.92	48868.05
530.09	49418.07
530.26	49914.26
530.43	50724.09
530.60	49780.85
530.77	49911.92
530.94	50167.04
531.11	49521.05
531.28	49275.30
531.46	49261.26
531.63	49511.69
531.80	48811.87
531.97	47243.71
532.14	47096.26
532.31	44765.09
532.48	45104.46
532.65	45729.39
532.82	46607.09
532.99	48266.53
533.16	48009.07
533.33	47922.47
533.50	47892.04
533.67	47786.72
533.84	47629.90
534.01	48282.91
534.18	48722.93
534.35	48598.88
534.52	47381.80
534.69	48023.11
534.86	48477.18
535.03	48381.21
535.20	48825.92
535.37	49640.42
535.54	50007.89
535.71	49565.52
535.88	49020.18
536.05	48341.42
536.22	46396.44
536.38	47334.99
536.55	46361.33
536.72	46354.31
536.89	46485.38
537.06	47430.96
537.23	48633.99
537.40	49408.71
537.57	48858.68
537.74	48835.28
537.91	48268.87
538.08	47913.11
538.25	47126.69
538.42	48252.48
538.59	48151.84
538.75	46323.88
538.92	46417.50
539.09	45504.70
539.26	46244.30
539.43	46176.43
539.60	47016.68
539.77	47587.77
539.94	46131.96
540.11	45677.90
540.28	45057.65
540.44	44493.58
540.61	46092.17
540.78	46588.36
540.95	47056.47
541.12	46176.43
541.29	46637.51
541.46	47681.39
541.62	48025.45
541.79	46791.99
541.96	45497.67
542.13	45879.18
542.30	45890.88
542.47	46871.57
542.63	47580.75
542.80	47208.61
542.97	46611.77
543.14	45413.41
543.31	45322.13
543.48	47423.93
543.64	47466.06
543.81	48362.49
543.98	48095.67
544.15	46632.83
544.32	47599.47
544.48	47562.03
544.65	47547.98
544.82	47398.19
544.99	47482.45
545.16	46817.74
545.32	46279.41
545.49	48303.98
545.66	47732.89
545.83	46651.56
546.00	47182.86
546.16	47185.20
546.33	47515.22
546.50	47515.22
546.67	48418.66
546.83	47306.91
547.00	47306.91
547.17	45614.70
547.34	44477.20
547.50	45191.06
547.67	46492.40
547.84	46188.13
548.00	46609.43
548.17	46913.70
548.34	46953.49
548.51	46363.67
548.67	47730.54
548.84	47943.53
549.01	48432.71
549.18	47342.02
549.34	47140.73
549.51	46941.78
549.68	47430.96
549.84	47180.52
550.01	45748.11
550.18	45034.25
550.34	44978.07
550.51	45954.08
550.68	46267.71
550.84	45532.78
551.01	45511.72
551.18	46094.51
551.34	45284.68
551.51	47217.97
551.68	47000.30
551.84	45890.88
552.01	46115.58
552.18	45869.82
552.34	45251.92
552.51	45106.80
552.68	45727.05
552.84	45769.18
553.01	45553.85
553.18	45975.14
553.34	46073.45
553.51	46433.89
553.67	46466.66
553.84	45558.53
554.01	46752.20
554.17	45949.40
554.34	45434.48
554.51	45874.50
554.67	45207.45
554.84	46918.38
555.00	46609.43
555.17	45968.12
555.33	44739.34
555.50	45017.86
555.67	45921.31
555.83	45656.83
556.00	44863.39
556.16	44893.82
556.33	44191.65
556.50	44767.43
556.66	44971.05
556.83	44399.96
556.99	44069.95
557.16	44383.58
557.32	44968.71
557.49	44334.43
557.65	44177.61
557.82	44959.35
557.98	45191.06
558.15	44589.55
558.32	43566.73
558.48	41523.44
558.65	42366.04
558.81	41558.55
558.98	42883.30
559.14	43456.73
559.31	43070.54
559.47	42686.69
559.64	42948.83
559.80	41794.95
559.97	42937.13
560.13	45055.31
560.30	44912.54
560.46	45595.98
560.63	46677.30
560.79	46815.40
560.96	45221.49
561.12	42976.92
561.29	42450.30
561.45	41530.47
561.61	43105.65
561.78	43005.00
561.94	43775.04
562.11	43400.55
562.27	43180.54
562.44	43777.38
562.60	44659.76
562.77	44313.36
562.93	43456.73
563.10	42754.57
563.26	43084.58
563.42	43105.65
563.59	42712.44
563.75	42454.98
563.92	41652.17
564.08	41155.98
564.24	42852.87
564.41	43110.33
564.57	44238.47
564.74	44091.01
564.90	42632.86
565.07	42988.62
565.23	41500.04
565.39	40893.84
565.56	40629.36
565.72	40353.18
565.88	40531.06
566.05	42239.65
566.21	43412.26
566.38	42162.41
566.54	42429.23
566.70	42408.17
566.87	43023.73
567.03	42106.24
567.19	42422.21
567.36	43803.13
567.52	42192.84
567.68	42323.91
567.85	41261.30
568.01	41202.79
568.17	41053.00
568.34	41109.17
568.50	41450.89
568.66	40961.72
568.83	40512.33
568.99	40952.35
569.15	41219.17
569.32	41186.41
569.48	41038.95
569.64	40421.05
569.81	41043.63
569.97	39512.92
570.13	40589.57
570.30	39894.43
570.46	39526.97
570.62	37794.97
570.78	38155.41
570.95	39360.79
571.11	39091.63
571.27	39225.04
571.43	39232.06
571.60	38803.74
571.76	41186.41
571.92	40858.73
572.09	41045.97
572.25	40942.99
572.41	41720.05
572.57	42031.34
572.74	40715.96
572.90	41558.55
573.06	41221.52
573.22	40844.69
573.38	40865.75
573.55	41443.87
573.71	40264.24
573.87	40701.92
574.03	41053.00
574.20	40540.42
574.36	39842.94
574.52	39583.14
574.68	39328.02
574.84	38487.77
575.01	38962.90
575.17	39468.45
575.33	39496.54
575.49	39473.13
575.65	38298.19
575.82	39894.43
575.98	38550.96
576.14	39456.75
576.30	40329.77
576.46	39342.06
576.62	39651.02
576.79	38859.91
576.95	38560.33
577.11	38958.22
577.27	39075.24
577.43	38969.92
577.59	38532.24
577.75	37907.32
577.92	36725.35
578.08	36856.42
578.24	38766.29
578.40	37972.85
578.56	38071.15
578.72	37537.51
578.88	37163.03
579.04	38284.14
579.21	37958.81
579.37	37638.15
579.53	37958.81
579.69	39145.46
579.85	38466.70
580.01	38899.70
580.17	38246.69
580.33	38735.87
580.49	38462.02
580.65	37167.71
580.82	37787.95
580.98	38930.13
581.14	38373.08
581.30	38260.74
581.46	38455.00
581.62	38724.16
581.78	39454.41
581.94	39643.99
582.10	39941.24
582.26	39395.90
582.42	39552.71
582.58	38873.96
582.74	37689.65
582.90	38593.09
583.06	39091.63
583.22	39618.25
583.38	38965.24
583.54	38377.76
583.70	39093.97
583.86	38469.04
584.02	38644.59
584.18	37703.69
584.34	37584.32
584.50	37104.51
584.66	36161.28
584.82	36720.66
584.98	38089.88
585.14	36320.43
585.30	36657.47
585.46	37251.97
585.62	38132.01
585.78	37251.97
585.94	36182.34
