SpectraSuite Data File
++++++++++++++++++++++++++++++++++++
Date: Mon Oct 07 14:52:59 GMT-05:00 2013
User: price-jones
Dark Spectrum Present: No
Reference Spectrum Present: No
Number of Sampled Component Spectra: 1
Spectrometers: USB2+H05261
Integration Time (usec): 100000 (USB2+H05261)
Spectra Averaged: 1 (USB2+H05261)
Boxcar Smoothing: 0 (USB2+H05261)
Correct for Electrical Dark: No (USB2+H05261)
Strobe/Lamp Enabled: No (USB2+H05261)
Correct for Detector Non-linearity: No (USB2+H05261)
Correct for Stray Light: No (USB2+H05261)
Number of Pixels in Processed Spectrum: 2048
>>>>>Begin Processed Spectral Data<<<<<
365.73	0.00
365.92	0.00
366.12	0.00
366.32	0.00
366.52	0.00
366.72	0.00
366.91	0.00
367.11	0.00
367.31	0.00
367.51	0.00
367.70	0.00
367.90	0.00
368.10	0.00
368.30	0.00
368.49	0.00
368.69	0.00
368.89	0.00
369.09	0.00
369.28	0.00
369.48	0.00
369.68	0.00
369.87	0.00
370.07	0.00
370.27	0.00
370.47	475.13
370.66	2747.79
370.86	3253.34
371.06	3625.49
371.25	3531.87
371.45	3211.22
371.65	2897.58
371.84	2726.72
372.04	2850.77
372.24	3302.50
372.44	3295.47
372.63	3307.18
372.83	3178.45
373.03	2850.77
373.22	2504.37
373.42	2740.77
373.62	3199.51
373.81	3286.11
374.01	3227.60
374.21	2932.69
374.40	2815.66
374.60	2998.23
374.79	3384.41
374.99	3812.73
375.19	4072.53
375.38	3906.35
375.58	3740.18
375.78	3637.19
375.97	3936.78
376.17	3948.48
376.37	3922.74
376.56	4219.99
376.76	4334.67
376.95	4645.96
377.15	5011.09
377.35	5034.49
377.54	5392.59
377.74	5336.42
377.93	5364.51
378.13	5467.49
378.33	4973.64
378.52	4636.60
378.72	4442.34
378.91	4461.06
379.11	4301.90
379.31	4210.62
379.50	4070.19
379.70	4526.60
379.89	4863.63
380.09	5217.05
380.28	5348.12
380.48	5252.16
380.68	5270.89
380.87	5156.20
381.07	4601.49
381.26	4311.27
381.46	4037.42
381.65	3995.29
381.85	3880.61
382.04	3639.53
382.24	3529.53
382.43	3232.28
382.63	3162.06
382.83	3239.30
383.02	3129.30
383.22	3201.85
383.41	3260.37
383.61	3524.85
383.80	4011.68
384.00	4524.26
384.19	5277.91
384.39	5107.05
384.58	5317.70
384.78	5172.58
384.97	5132.79
385.17	4772.35
385.36	4461.06
385.56	4320.63
385.75	4662.35
385.95	5090.67
386.14	5647.71
386.34	5296.63
386.53	5156.20
386.72	4903.42
386.92	4940.87
387.11	5095.35
387.31	5556.43
387.50	5390.25
387.70	5238.12
387.89	5149.18
388.09	5151.52
388.28	5118.75
388.48	5193.65
388.67	5731.97
388.86	6324.13
389.06	6672.87
389.25	7021.61
389.45	6993.52
389.64	7250.98
389.84	6974.80
390.03	7019.27
390.22	6820.32
390.42	7021.61
390.61	7709.72
390.81	8149.75
391.00	8280.82
391.19	8044.42
391.39	7702.70
391.58	7440.56
391.78	6993.52
391.97	6691.59
392.16	6352.21
392.36	5636.01
392.55	4603.83
392.75	3700.39
392.94	3042.70
393.13	3141.00
393.33	3538.89
393.52	4550.00
393.71	5647.71
393.91	6307.74
394.10	6747.76
394.29	7424.18
394.49	8133.36
394.68	8695.09
394.88	8793.39
395.07	9125.75
395.26	8798.07
395.46	8482.10
395.65	8098.25
395.84	7105.87
396.04	5921.56
396.23	4774.69
396.42	4035.08
396.62	3962.53
396.81	4606.17
397.00	5963.68
397.19	7241.62
397.39	8643.60
397.58	9741.31
397.77	10331.12
397.97	10815.62
398.16	11052.01
398.35	11159.67
398.55	11698.00
398.74	12058.44
398.93	12390.80
399.12	12030.35
399.32	11761.19
399.51	12002.27
399.70	12655.28
399.90	12498.46
400.09	12690.38
400.28	12690.38
400.47	12730.17
400.67	13319.99
400.86	13518.93
401.05	13645.32
401.24	13834.91
401.44	13928.53
401.63	14033.85
401.82	14057.26
402.01	13790.44
402.21	14019.81
402.40	14099.39
402.59	13493.19
402.78	13207.64
402.97	12828.48
403.17	13289.56
403.36	14090.02
403.55	14429.40
403.74	14663.46
403.93	13781.07
404.13	12996.99
404.32	12940.82
404.51	13327.01
404.70	14558.13
404.89	14237.48
405.09	14085.34
405.28	13834.91
405.47	13713.20
405.66	13516.59
405.85	13263.82
406.05	13074.23
406.24	13411.27
406.43	13724.90
406.62	14052.58
406.81	14427.06
407.00	13673.41
407.20	13813.84
407.39	13605.53
407.58	14178.97
407.77	15023.90
407.96	15403.07
408.15	15384.34
408.34	15815.00
408.54	16276.09
408.73	16430.56
408.92	16297.15
409.11	15709.68
409.30	14824.95
409.49	13865.33
409.68	12901.03
409.87	12793.37
410.07	13558.72
410.26	14630.69
410.45	15557.54
410.64	15798.62
410.83	16449.28
411.02	17001.65
411.21	17408.90
411.40	17266.13
411.59	17020.38
411.78	17062.51
411.98	16830.79
412.17	17411.25
412.36	16826.11
412.55	17015.69
412.74	16713.77
412.93	16393.11
413.12	16290.13
413.31	17905.10
413.50	18040.85
413.69	18492.57
413.88	17429.97
414.07	17268.47
414.26	17713.17
414.45	17893.40
414.64	18106.38
414.83	18162.56
415.02	17874.67
415.22	17598.49
415.41	18363.84
415.60	19047.28
415.79	19616.03
415.98	19674.54
416.17	19693.27
416.36	19424.11
416.55	19150.26
416.74	18478.53
416.93	18134.47
417.12	18022.12
417.31	18228.09
417.50	18714.92
417.69	19232.18
417.88	18984.09
418.07	18855.36
418.26	18499.59
418.45	18890.46
418.64	19159.63
418.83	19868.81
419.02	19882.85
419.21	19819.66
419.39	18714.92
419.58	17720.20
419.77	18120.43
419.96	18810.89
420.15	20247.97
420.34	20442.24
420.53	21015.67
420.72	21263.77
420.91	21322.28
421.10	21106.95
421.29	20872.90
421.48	20025.62
421.67	21029.71
421.86	20613.10
422.05	19204.10
422.24	17221.66
422.43	17163.15
422.61	19030.90
422.80	20348.62
422.99	20486.71
423.18	19969.45
423.37	19564.54
423.56	19145.58
423.75	19658.16
423.94	20152.01
424.13	19220.48
424.32	19166.65
424.50	19342.19
424.69	19077.71
424.88	19482.62
425.07	19049.62
425.26	19066.00
425.45	18927.91
425.64	18572.15
425.83	18532.36
426.01	19587.94
426.20	20299.47
426.39	19934.34
426.58	18441.08
426.77	16896.33
426.96	16430.56
427.15	16985.27
427.33	18602.58
427.52	19332.82
427.71	19555.18
427.90	19040.26
428.09	18740.67
428.28	18391.93
428.46	17994.04
428.65	17617.21
428.84	18080.64
429.03	18331.08
429.22	17280.18
429.40	16390.77
429.59	15019.22
429.78	13177.22
429.97	13397.23
430.16	13338.71
430.34	13561.06
430.53	13659.37
430.72	13987.04
430.91	15421.79
431.10	18249.16
431.28	21427.60
431.47	22862.35
431.66	23138.54
431.85	20952.48
432.03	19239.20
432.22	18698.54
432.41	19241.54
432.60	21549.31
432.79	22443.40
432.97	22925.55
433.16	22263.18
433.35	20205.84
433.54	18207.03
433.72	17165.49
433.91	17961.27
434.10	20121.59
434.28	21254.40
434.47	22513.61
434.66	22097.00
434.85	21312.92
435.03	21507.18
435.22	21989.33
435.41	23108.11
435.59	23344.50
435.78	23190.03
435.97	23917.93
436.16	24266.67
436.34	23587.92
436.53	23480.25
436.72	23583.24
436.90	21982.31
437.09	21844.22
437.28	21858.26
437.46	22651.70
437.65	22363.82
437.84	20915.03
438.02	19250.91
438.21	19213.46
438.40	20140.31
438.58	21991.67
438.77	22852.99
438.96	22817.88
439.14	23651.11
439.33	24341.57
439.52	24528.81
439.70	24051.34
439.89	23468.55
440.08	23021.51
440.26	22960.66
440.45	23943.68
440.63	25017.99
440.82	26459.76
441.01	26033.78
441.19	25961.22
441.38	26492.52
441.57	27461.51
441.75	27683.86
441.94	27644.07
442.12	27545.76
442.31	27669.81
442.50	28203.46
442.68	27798.54
442.87	27564.49
443.05	26752.32
443.24	27433.42
443.43	28137.92
443.61	28505.38
443.80	28814.34
443.98	27194.68
444.17	27131.49
444.35	28982.85
444.54	29186.48
444.73	28926.68
444.91	27796.20
445.10	26546.36
445.28	25539.93
445.47	25509.50
445.65	25158.42
445.84	25986.97
446.02	26719.56
446.21	27204.05
446.39	27501.29
446.58	27700.24
446.77	28329.84
446.95	28664.54
447.14	29378.40
447.32	29881.62
447.51	29174.78
447.69	28467.94
447.88	27744.71
448.06	28428.15
448.25	28833.06
448.43	28950.09
448.62	28224.52
448.80	28355.59
448.99	28559.22
449.17	28554.54
449.36	28528.79
449.54	29589.05
449.73	30644.63
449.91	30707.83
450.10	31658.09
450.28	32236.20
450.46	31765.75
450.65	31489.57
450.83	31531.70
451.02	30817.83
451.20	30340.36
451.39	30415.26
451.57	30244.40
451.76	30492.50
451.94	29961.20
452.13	29895.66
452.31	28332.18
452.49	27080.00
452.68	27353.84
452.86	27583.21
453.05	27742.37
453.23	28769.86
453.42	29219.25
453.60	29750.55
453.78	30059.50
453.97	30096.95
454.15	30277.17
454.34	29242.65
454.52	29399.47
454.70	29326.91
454.89	29577.35
455.07	29465.00
455.26	29816.08
455.44	30639.95
455.62	31051.89
455.81	31232.11
455.99	31405.31
456.17	30888.05
456.36	31372.54
456.54	32336.84
456.73	32334.50
456.91	32402.38
457.09	33041.34
457.28	33434.55
457.46	31948.31
457.64	31814.90
457.83	30464.41
458.01	29883.96
458.19	30939.54
458.38	30845.92
458.56	31847.67
458.74	31756.39
458.93	31782.13
459.11	31522.34
459.29	31192.32
459.48	31639.36
459.66	31145.51
459.84	31627.66
460.03	32102.79
460.21	31920.23
460.39	32959.42
460.57	32659.84
460.76	32924.32
460.94	33153.69
461.12	32514.72
461.31	32886.87
461.49	32676.22
461.67	32662.18
461.85	33654.56
462.04	33553.92
462.22	34003.30
462.40	33701.37
462.59	33287.10
462.77	33666.27
462.95	33380.72
463.13	33319.87
463.32	32931.34
463.50	32657.49
463.68	32219.81
463.86	32643.45
464.05	31796.18
464.23	31768.09
464.41	31023.80
464.59	31288.28
464.78	32744.09
464.96	32388.33
465.14	31861.71
465.32	33031.98
465.50	34094.58
465.69	33902.66
465.87	33455.62
466.05	32774.52
466.23	30902.09
466.41	30237.38
466.60	31122.10
466.78	31428.71
466.96	32091.09
467.14	32074.70
467.32	32987.51
467.51	32706.65
467.69	31295.30
467.87	31854.69
468.05	32807.29
468.23	32383.65
468.41	32725.37
468.60	32886.87
468.78	33055.39
468.96	32416.42
469.14	33081.13
469.32	33282.42
469.50	32140.24
469.69	32084.06
469.87	31292.96
470.05	31583.19
470.23	31541.06
470.41	31611.28
470.59	32467.91
470.77	32561.53
470.95	32858.78
471.14	33582.01
471.32	33362.00
471.50	35365.49
471.68	35229.74
471.86	35709.55
472.04	35693.17
472.22	35812.54
472.40	34218.63
472.58	34073.52
472.77	33614.77
472.95	34265.44
473.13	34981.65
473.31	34087.56
473.49	33949.47
473.67	35264.85
473.85	35065.91
474.03	36397.67
474.21	36315.75
474.39	36233.83
474.57	36634.06
474.75	36996.85
474.93	36259.58
475.12	35524.65
475.30	36093.40
475.48	35662.74
475.66	36474.91
475.84	35564.44
476.02	35634.66
476.20	35278.89
476.38	35735.30
476.56	36919.61
476.74	37116.22
476.92	37195.79
477.10	37982.21
477.28	39409.94
477.46	39054.18
477.64	39896.77
477.82	39936.56
478.00	39749.32
478.18	39103.33
478.36	39084.61
478.54	39112.69
478.72	39501.22
478.90	40402.33
479.08	41116.19
479.26	42192.84
479.44	41860.48
479.62	42073.47
479.80	41193.43
479.98	41961.12
480.16	42354.33
480.34	41727.07
480.52	41820.69
480.70	42014.96
480.88	42417.53
481.06	42880.95
481.24	43316.29
481.41	43934.20
481.59	45045.95
481.77	44264.21
481.95	43966.96
482.13	43358.42
482.31	43765.68
482.49	44343.79
482.67	44243.15
482.85	44559.12
483.03	45378.31
483.21	45963.44
483.39	45563.21
483.57	44713.59
483.74	44814.24
483.92	45162.98
484.10	44928.92
484.28	46307.50
484.46	46185.79
484.64	46555.60
484.82	46040.68
485.00	45294.05
485.18	44587.21
485.35	43166.50
485.53	40027.84
485.71	36893.86
485.89	36554.49
486.07	38167.12
486.25	41584.30
486.43	43761.00
486.61	44666.78
486.78	44301.66
486.96	44495.92
487.14	46066.42
487.32	47391.17
487.50	48479.52
487.68	49134.87
487.85	49581.91
488.03	49872.14
488.21	49169.97
488.39	48376.53
488.57	47657.99
488.75	47416.91
488.92	48956.99
489.10	51140.71
489.28	52217.35
489.46	52935.90
489.64	52474.81
489.81	53104.41
489.99	52580.13
490.17	52622.26
490.35	53366.55
490.53	52493.54
490.70	52306.29
490.88	51749.24
491.06	53268.25
491.24	52949.94
491.41	51793.71
491.59	50057.04
491.77	49886.18
491.95	50913.67
492.13	51840.53
492.30	52935.90
492.48	54014.88
492.66	54337.88
492.84	54464.27
493.01	53949.35
493.19	53773.81
493.37	53399.32
493.54	53031.86
493.72	53773.81
493.90	54564.91
494.08	55508.14
494.25	55744.54
494.43	56032.42
494.61	56343.72
494.79	56315.63
494.96	56027.74
495.14	55433.25
495.32	54583.63
495.49	54066.38
495.67	55091.53
495.85	56395.21
496.02	56865.66
496.20	56633.94
496.38	56163.50
496.55	56214.99
496.73	56481.81
496.91	56584.79
497.09	57467.17
497.26	57506.96
497.44	56954.60
497.62	56444.36
497.79	55711.77
497.97	54185.74
498.14	54794.28
498.32	55922.42
498.50	56776.72
498.67	57200.35
498.85	57179.29
499.03	57216.74
499.20	57441.43
499.38	57413.34
499.56	57366.53
499.73	56755.65
499.91	56430.32
500.08	56004.34
500.26	55311.54
500.44	55662.62
500.61	56547.34
500.79	56465.42
500.97	55716.45
501.14	55547.93
501.32	55639.22
501.49	55660.28
501.67	55681.34
501.84	56374.14
502.02	56374.14
502.20	56903.10
502.37	57069.28
502.55	57043.54
502.72	57530.37
502.90	57874.43
503.07	57799.53
503.25	57425.04
503.43	56432.66
503.60	55957.53
503.78	55145.36
503.95	55721.13
504.13	57088.01
504.30	57652.08
504.48	57673.14
504.65	57251.84
504.83	57483.56
505.01	57888.47
505.18	58506.37
505.36	58958.09
505.53	58922.99
505.71	59227.26
505.88	59138.32
506.06	58585.95
506.23	58209.12
506.41	58026.56
506.58	58150.61
506.76	58157.63
506.93	58005.50
507.11	57806.55
507.28	57813.57
507.46	57481.22
507.63	57326.74
507.81	56818.84
507.98	57120.77
508.16	57860.38
508.33	58344.87
508.50	58672.55
508.68	58834.05
508.85	59379.39
509.03	59187.47
509.20	59227.26
509.38	58482.97
509.55	57586.54
509.73	57783.15
509.90	58574.25
510.08	58710.00
510.25	58438.50
510.42	58342.53
510.60	58438.50
510.77	58375.30
510.95	59185.13
511.12	59124.27
511.30	59363.01
511.47	59903.67
511.64	59583.02
511.82	59220.23
511.99	58379.98
512.17	58152.95
512.34	57811.23
512.51	57991.45
512.69	58150.61
512.86	58426.79
513.04	58536.80
513.21	58789.58
513.38	58307.43
513.56	57684.84
513.73	57345.47
513.90	57148.86
514.08	57621.65
514.25	58103.80
514.43	58152.95
514.60	58347.21
514.77	58316.79
514.95	58225.51
515.12	58300.40
515.29	58576.59
515.47	58890.22
515.64	59192.15
515.81	58693.61
515.99	58251.25
516.16	56748.63
516.33	54529.80
516.51	53139.52
516.68	52362.46
516.85	52121.39
517.03	52423.32
517.20	55487.08
517.37	57729.31
517.54	58312.11
517.72	57958.69
517.89	55297.50
518.06	53352.51
518.24	53858.07
518.41	55536.23
518.58	56938.21
518.75	57090.35
518.93	57420.36
519.10	57289.29
519.27	57844.00
519.45	58206.78
519.62	58691.27
519.79	58983.84
519.96	58822.34
520.14	58396.37
520.31	57549.09
520.48	57731.65
520.65	58131.89
520.83	58761.49
521.00	59245.98
521.17	58592.97
521.34	58363.60
521.52	58862.13
521.69	59531.53
521.86	59568.97
522.03	59166.40
522.20	58286.36
522.38	57361.85
522.55	57230.78
522.72	57825.28
522.89	58071.03
523.07	58047.63
523.24	58623.40
523.41	59330.24
523.58	59632.17
523.75	59957.50
523.92	59877.93
524.10	59786.64
524.27	59969.21
524.44	59533.87
524.61	59494.08
524.78	59414.50
524.96	59192.15
525.13	59145.34
525.30	59564.29
525.47	59887.29
525.64	59716.43
525.81	59049.38
525.98	57598.24
526.16	56488.83
526.33	55894.33
526.50	55246.00
526.67	55105.57
526.84	55735.18
527.01	56610.54
527.18	57413.34
527.36	58387.00
527.53	59171.08
527.70	59295.13
527.87	58768.51
528.04	58417.43
528.21	58866.81
528.38	59395.77
528.55	60289.86
528.72	60444.33
528.89	60584.77
529.07	60083.89
529.24	59625.15
529.41	58986.18
529.58	58602.33
529.75	58702.98
529.92	58946.39
530.09	59388.75
530.26	59765.58
530.43	60102.62
530.60	60095.60
530.77	60205.60
530.94	60362.42
531.11	60016.02
531.28	59421.52
531.46	59428.54
531.63	59604.08
531.80	59473.01
531.97	58997.88
532.14	58272.32
532.31	57333.76
532.48	56664.37
532.65	56980.34
532.82	57787.83
532.99	58653.82
533.16	59114.91
533.33	59700.04
533.50	59140.66
533.67	58623.40
533.84	58333.17
534.01	58700.64
534.18	59018.95
534.35	59042.35
534.52	58637.44
534.69	59084.48
534.86	59395.77
535.03	59590.04
535.20	59971.55
535.37	60392.84
535.54	60507.53
535.71	60170.49
535.88	59835.80
536.05	59096.19
536.22	58773.19
536.38	58520.41
536.55	58003.16
536.72	57680.16
536.89	57719.95
537.06	58415.09
537.23	59189.81
537.40	59437.90
537.57	59449.61
537.74	59360.67
537.91	59128.95
538.08	59203.85
538.25	59257.68
538.42	59430.88
538.59	59044.69
538.75	58513.39
538.92	58038.26
539.09	58166.99
539.26	58176.36
539.43	57825.28
539.60	57954.00
539.77	58003.16
539.94	57834.64
540.11	57195.67
540.28	56701.82
540.44	57064.60
540.61	57139.50
540.78	57265.89
540.95	57726.97
541.12	58010.18
541.29	58454.88
541.46	58679.57
541.62	58862.13
541.79	58775.53
541.96	57836.98
542.13	57778.46
542.30	58225.51
542.47	58333.17
542.63	58152.95
542.80	57954.00
542.97	58003.16
543.14	58174.02
543.31	58073.37
543.48	58351.90
543.64	59086.82
543.81	59498.76
543.98	59299.81
544.15	58637.44
544.32	58056.99
544.48	58354.24
544.65	58944.05
544.82	58756.81
544.99	58628.08
545.16	58220.83
545.32	58157.63
545.49	58801.28
545.66	59021.29
545.83	58880.86
546.00	58536.80
546.16	58159.97
546.33	58206.78
546.50	58213.80
546.67	58700.64
546.83	58174.02
547.00	58410.41
547.17	57546.75
547.34	57284.61
547.50	57006.09
547.67	57670.80
547.84	57612.29
548.00	58054.65
548.17	58384.66
548.34	58415.09
548.51	58141.25
548.67	58202.10
548.84	58288.70
549.01	58403.39
549.18	58255.93
549.34	58237.21
549.51	58056.99
549.68	58272.32
549.84	57792.51
550.01	57893.15
550.18	57663.78
550.34	57874.43
550.51	57949.32
550.68	58024.22
550.84	57181.63
551.01	57511.64
551.18	57616.97
551.34	57647.39
551.51	58096.78
551.68	58272.32
551.84	58321.47
552.01	58188.06
552.18	58038.26
552.34	57244.82
552.51	57066.94
552.68	56643.30
552.84	57471.85
553.01	57591.22
553.18	57226.10
553.34	57776.12
553.51	57801.87
553.67	57925.92
553.84	58164.65
554.01	57659.10
554.17	57813.57
554.34	57939.96
554.51	58085.07
554.67	58316.79
554.84	58185.72
555.00	57647.39
555.17	57584.20
555.33	57560.79
555.50	57677.82
555.67	57635.69
555.83	57382.91
556.00	57106.73
556.16	56905.44
556.33	56790.76
556.50	56715.86
556.66	56769.69
556.83	56273.50
556.99	56589.47
557.16	56643.30
557.32	57017.79
557.49	57366.53
557.65	56884.38
557.82	57064.60
557.98	56917.15
558.15	56502.87
558.32	55650.92
558.48	55040.04
558.65	55416.86
558.81	55480.06
558.98	55732.84
559.14	55896.67
559.31	56144.77
559.47	55882.63
559.64	55601.77
559.80	55316.22
559.97	55426.23
560.13	55945.83
560.30	56856.29
560.46	57127.80
560.63	57343.12
560.79	57350.15
560.96	57167.58
561.12	55875.61
561.29	55028.34
561.45	55250.69
561.61	55772.63
561.78	56222.01
561.94	56090.94
562.11	55784.33
562.27	55856.88
562.44	56273.50
562.60	56575.43
562.77	56481.81
562.93	56374.14
563.10	56332.01
563.26	55779.65
563.42	55875.61
563.59	55786.67
563.75	56065.19
563.92	55622.83
564.08	55697.73
564.24	56011.36
564.41	56104.98
564.57	56030.08
564.74	55660.28
564.90	55936.46
565.07	55583.04
565.23	55131.32
565.39	54426.82
565.56	54361.28
565.72	54426.82
565.88	54733.43
566.05	54787.26
566.21	54925.35
566.38	55105.57
566.54	55157.06
566.70	55660.28
566.87	55810.07
567.03	55601.77
567.19	56032.42
567.36	55770.28
567.52	55646.24
567.68	55161.75
567.85	54630.44
568.01	54370.64
568.17	54042.97
568.34	53918.92
568.50	53818.28
568.66	53998.50
568.83	54380.01
568.99	54494.69
569.15	54585.97
569.32	54403.41
569.48	54190.42
569.64	54169.36
569.81	54155.32
569.97	53916.58
570.13	53813.60
570.30	53165.27
570.46	52891.43
570.62	52217.35
570.78	52435.02
570.95	52540.35
571.11	53382.94
571.27	53514.01
571.43	53865.09
571.60	54174.04
571.76	54265.32
571.92	54452.56
572.09	54621.08
572.25	54600.02
572.41	54555.55
572.57	54490.01
572.74	54506.40
572.90	53942.33
573.06	53829.98
573.22	54176.38
573.38	54103.82
573.55	53893.18
573.71	54031.27
573.87	54082.76
574.03	53867.43
574.20	53942.33
574.36	53382.94
574.52	53326.77
574.68	53455.50
574.84	52631.63
575.01	52687.80
575.17	52545.03
575.33	52629.29
575.49	53008.45
575.65	53020.16
575.82	52832.91
575.98	52924.19
576.14	53008.45
576.30	53212.08
576.46	53322.08
576.62	53097.39
576.79	53294.00
576.95	52793.12
577.11	52748.65
577.27	52772.06
577.43	52811.85
577.59	52322.68
577.75	52205.65
577.92	51646.26
578.08	51437.95
578.24	51311.56
578.40	51657.96
578.56	51817.12
578.72	51899.04
578.88	52062.88
579.04	52161.18
579.21	52563.75
579.37	52296.93
579.53	52493.54
579.69	52797.80
579.85	52432.68
580.01	52397.57
580.17	52154.16
580.33	51959.89
580.49	52051.17
580.65	52332.04
580.82	52526.30
580.98	52563.75
581.14	52027.77
581.30	52495.88
581.46	52556.73
581.62	52432.68
581.78	52739.29
581.94	52818.87
582.10	52669.08
582.26	52626.95
582.42	52750.99
582.58	52804.83
582.74	52856.32
582.90	52898.45
583.06	52519.28
583.22	52655.03
583.38	52032.45
583.54	52332.04
583.70	52563.75
583.86	52413.96
584.02	52100.32
584.18	52329.70
584.34	52313.31
584.50	51896.70
584.66	51760.95
584.82	51407.53
584.98	51540.94
585.14	50974.53
585.30	50642.17
