SpectraSuite Data File
++++++++++++++++++++++++++++++++++++
Date: Mon Oct 07 14:55:01 GMT-05:00 2013
User: price-jones
Dark Spectrum Present: No
Reference Spectrum Present: No
Number of Sampled Component Spectra: 1
Spectrometers: USB2+H05261
Integration Time (usec): 10000 (USB2+H05261)
Spectra Averaged: 1 (USB2+H05261)
Boxcar Smoothing: 0 (USB2+H05261)
Correct for Electrical Dark: No (USB2+H05261)
Strobe/Lamp Enabled: No (USB2+H05261)
Correct for Detector Non-linearity: No (USB2+H05261)
Correct for Stray Light: No (USB2+H05261)
Number of Pixels in Processed Spectrum: 2048
>>>>>Begin Processed Spectral Data<<<<<
365.73	0.00
365.92	0.00
366.12	0.00
366.32	0.00
366.52	0.00
366.72	0.00
366.91	0.00
367.11	0.00
367.31	0.00
367.51	0.00
367.70	0.00
367.90	0.00
368.10	0.00
368.30	0.00
368.49	0.00
368.69	0.00
368.89	0.00
369.09	0.00
369.28	0.00
369.48	0.00
369.68	0.00
369.87	0.00
370.07	0.00
370.27	0.00
370.47	337.04
370.66	2555.86
370.86	2909.29
371.06	3059.08
371.25	3262.71
371.45	2656.51
371.65	2471.61
371.84	2359.26
372.04	2576.93
372.24	2928.01
372.44	2956.10
372.63	2773.53
372.83	2520.76
373.03	2256.28
373.22	2169.68
373.42	2445.86
373.62	2775.88
373.81	2942.05
374.01	2773.53
374.21	2527.78
374.40	2403.73
374.60	2572.25
374.79	2979.50
374.99	3328.24
375.19	3419.52
375.38	3545.91
375.58	3206.53
375.78	3304.84
375.97	3368.03
376.17	3290.79
376.37	3435.91
376.56	3726.13
376.76	3964.87
376.95	4058.49
377.15	4311.27
377.35	4486.81
377.54	4678.73
377.74	4819.16
377.93	4767.67
378.13	4571.07
378.33	4341.69
378.52	4072.53
378.72	3892.31
378.91	3786.99
379.11	3583.36
379.31	3482.72
379.50	3756.56
379.70	3992.95
379.89	4404.89
380.09	4542.98
380.28	4603.83
380.48	4557.02
380.68	4503.19
380.87	4484.47
381.07	4170.83
381.26	3789.33
381.46	3674.64
381.65	3510.80
381.85	3431.23
382.04	3141.00
382.24	2911.63
382.43	2810.98
382.63	2799.28
382.83	2729.06
383.02	2787.58
383.22	2750.13
383.41	2841.41
383.61	3211.22
383.80	3513.14
384.00	4077.21
384.19	4484.47
384.39	4437.66
384.58	4610.86
384.78	4472.76
384.97	4486.81
385.17	4306.59
385.36	4023.38
385.56	3852.52
385.75	4215.30
385.95	4542.98
386.14	4849.59
386.34	4816.82
386.53	4486.81
386.72	4374.46
386.92	4514.89
387.11	4730.22
387.31	4973.64
387.50	4873.00
387.70	4545.32
387.89	4617.88
388.09	4709.16
388.28	4720.86
388.48	4891.72
388.67	5050.88
388.86	5788.14
389.06	6150.93
389.25	6366.26
389.45	6366.26
389.64	6211.78
389.84	6155.61
390.03	6017.52
390.22	6129.86
390.42	6483.28
390.61	6916.28
390.81	7412.48
391.00	7389.07
391.19	7246.30
391.39	7014.59
391.58	6551.16
391.78	6026.88
391.97	5989.43
392.16	5607.92
392.36	4898.74
392.55	3878.27
392.75	3098.87
392.94	2621.40
393.13	2808.64
393.33	3433.57
393.52	4386.16
393.71	5090.67
393.91	5760.06
394.10	6546.48
394.29	6972.46
394.49	7445.24
394.68	7985.91
394.88	8145.06
395.07	7955.48
395.26	7955.48
395.46	7737.81
395.65	7250.98
395.84	5994.11
396.04	5039.17
396.23	3995.29
396.42	3513.14
396.62	3620.81
396.81	4440.00
397.00	5694.52
397.19	7007.56
397.39	8276.13
397.58	8997.02
397.77	9778.76
397.97	9912.17
398.16	10052.60
398.35	10523.05
398.55	10731.36
398.74	11044.99
398.93	11405.43
399.12	10864.77
399.32	10579.22
399.51	11112.86
399.70	11793.96
399.90	11592.67
400.09	11651.19
400.28	11318.83
400.47	11646.51
400.67	12201.21
400.86	12456.33
401.05	12528.89
401.24	12486.76
401.44	12886.99
401.63	12985.29
401.82	12821.45
402.01	12641.23
402.21	12971.25
402.40	13151.47
402.59	12236.32
402.78	11698.00
402.97	11775.24
403.17	12617.83
403.36	13060.19
403.55	13509.57
403.74	13563.40
403.93	12695.07
404.13	11829.07
404.32	12011.63
404.51	12503.14
404.70	13415.95
404.89	13233.39
405.09	12868.27
405.28	12814.43
405.47	13109.34
405.66	12622.51
405.85	12360.37
406.05	11957.80
406.24	12585.06
406.43	13165.51
406.62	12947.84
406.81	13142.11
407.00	12886.99
407.20	12746.56
407.39	12769.96
407.58	13420.63
407.77	14148.54
407.96	14223.44
408.15	14864.74
408.34	14810.91
408.54	15019.22
408.73	15009.86
408.92	14707.93
409.11	14366.21
409.30	13542.34
409.49	12791.03
409.68	11936.73
409.87	12032.69
410.07	12931.46
410.26	13680.43
410.45	14438.76
410.64	14834.32
410.83	15297.74
411.02	15667.55
411.21	16035.01
411.40	15901.60
411.59	16528.86
411.78	15906.28
411.98	16088.84
412.17	16336.94
412.36	15747.12
412.55	15878.19
412.74	15377.32
412.93	14930.28
413.12	15609.03
413.31	17319.96
413.50	17490.82
413.69	17551.68
413.88	16348.64
414.07	16315.87
414.26	16966.54
414.45	17289.54
414.64	16896.33
414.83	16886.97
415.02	16676.32
415.22	16973.56
415.41	17495.50
415.60	17645.30
415.79	18356.82
415.98	18845.99
416.17	18527.68
416.36	17987.02
416.55	17937.87
416.74	17064.85
416.93	16875.26
417.12	17275.49
417.31	17172.51
417.50	17605.51
417.69	18113.41
417.88	18045.53
418.07	17816.16
418.26	17692.11
418.45	17956.59
418.64	18581.51
418.83	19363.25
419.02	18700.88
419.21	18412.99
419.39	17593.81
419.58	17128.04
419.77	17376.14
419.96	18279.58
420.15	19035.58
420.34	19648.80
420.53	20283.08
420.72	20449.26
420.91	20168.40
421.10	19899.23
421.29	19667.52
421.48	19201.76
421.67	20437.56
421.86	19206.44
422.05	17619.55
422.24	16217.57
422.43	16753.55
422.61	19089.41
422.80	19197.07
422.99	19037.92
423.18	18565.13
423.37	18593.22
423.56	18899.83
423.75	19075.37
423.94	19459.21
424.13	18078.30
424.32	18047.87
424.50	18298.31
424.69	18766.42
424.88	18649.39
425.07	18515.98
425.26	18368.52
425.45	17769.35
425.64	17722.54
425.83	18214.05
426.01	18654.07
426.20	19033.24
426.39	18731.31
426.58	17329.33
426.77	16449.28
426.96	16016.29
427.15	16669.30
427.33	17947.23
427.52	18490.23
427.71	18649.39
427.90	18192.98
428.09	18054.89
428.28	17500.19
428.46	16954.84
428.65	16992.29
428.84	17645.30
429.03	17589.13
429.22	16482.05
429.40	15414.77
429.59	13792.78
429.78	12681.02
429.97	12727.83
430.16	12659.96
430.34	13025.08
430.53	13235.73
430.72	13760.01
430.91	15599.67
431.10	17980.00
431.28	20842.47
431.47	22237.43
431.66	22092.32
431.85	19473.26
432.03	18197.67
432.22	18078.30
432.41	19426.45
432.60	20978.22
432.79	21443.99
432.97	22354.46
433.16	21177.17
433.35	18754.71
433.54	17343.37
433.72	16587.38
433.91	17434.65
434.10	19871.15
434.28	21137.38
434.47	21619.53
434.66	21137.38
434.85	20690.34
435.03	21092.91
435.22	21252.06
435.41	22382.54
435.59	22366.16
435.78	22717.24
435.97	23365.57
436.16	23356.21
436.34	23166.62
436.53	22616.60
436.72	22747.67
436.90	21561.02
437.09	21507.18
437.28	21146.74
437.46	22054.87
437.65	21561.02
437.84	19517.73
438.02	18677.48
438.21	19180.69
438.40	19693.27
438.58	21312.92
438.77	21797.41
438.96	22001.04
439.14	23126.83
439.33	23552.81
439.52	24041.98
439.70	22979.38
439.89	22019.76
440.08	21879.33
440.26	22246.79
440.45	22717.24
440.63	24968.84
440.82	25673.34
441.01	25284.81
441.19	24636.48
441.38	25949.52
441.57	26792.11
441.75	26728.92
441.94	26930.20
442.12	26859.99
442.31	27522.36
442.50	26920.84
442.68	26946.59
442.87	26572.10
443.05	26178.89
443.24	27211.07
443.43	26995.74
443.61	26911.48
443.80	28273.67
443.98	26518.27
444.17	26466.78
444.35	28173.03
444.54	28905.62
444.73	27672.15
444.91	26129.74
445.10	25450.99
445.28	24915.00
445.47	24652.86
445.65	24552.22
445.84	25919.09
446.02	26293.58
446.21	26789.77
446.39	26829.56
446.58	27267.24
446.77	27709.60
446.95	28086.43
447.14	28481.98
447.32	28659.86
447.51	28306.44
447.69	27140.85
447.88	27489.59
448.06	27428.74
448.25	27946.00
448.43	27702.58
448.62	27880.46
448.80	27440.44
448.99	27199.37
449.17	28060.68
449.36	28446.87
449.54	28837.74
449.73	29237.97
449.91	29500.11
450.10	30735.92
450.28	30618.89
450.46	30869.33
450.65	31103.38
450.83	29560.97
451.02	30005.67
451.20	30150.78
451.39	29923.75
451.57	29830.13
451.76	29961.20
451.94	29024.98
452.13	28283.03
452.31	27049.57
452.49	26225.70
452.68	26796.79
452.86	26939.57
453.05	27571.51
453.23	28608.37
453.42	29214.57
453.60	29874.60
453.78	29457.98
453.97	28978.17
454.15	29022.64
454.34	27946.00
454.52	28123.88
454.70	28334.53
454.89	28538.15
455.07	28407.08
455.26	29055.41
455.44	30286.53
455.62	30682.08
455.81	30888.05
455.99	30462.07
456.17	30532.29
456.36	31297.64
456.54	31695.53
456.73	30693.79
456.91	31536.38
457.09	31754.05
457.28	32575.58
457.46	31023.80
457.64	30700.81
457.83	29638.20
458.01	29472.03
458.19	30277.17
458.38	31381.90
458.56	31379.56
458.74	30836.56
458.93	30588.46
459.11	30604.84
459.29	29816.08
459.48	30735.92
459.66	30499.52
459.84	31049.55
460.03	30789.75
460.21	31445.10
460.39	32079.38
460.57	31894.48
460.76	32077.04
460.94	32191.73
461.12	32407.06
461.31	31885.12
461.49	32247.90
461.67	31983.42
461.85	32629.41
462.04	32446.85
462.22	32856.44
462.40	32446.85
462.59	32404.72
462.77	32144.92
462.95	32430.46
463.13	32491.32
463.32	31847.67
463.50	31599.57
463.68	32165.98
463.86	32257.26
464.05	31328.07
464.23	30401.22
464.41	30752.30
464.59	30726.55
464.78	32360.25
464.96	31803.20
465.14	30988.69
465.32	32929.00
465.50	33472.00
465.69	33809.04
465.87	32545.15
466.05	31189.98
466.23	30382.49
466.41	29766.93
466.60	30876.35
466.78	30742.94
466.96	31241.47
467.14	31477.86
467.32	32119.17
467.51	31873.42
467.69	30345.05
467.87	31042.53
468.05	32315.78
468.23	31807.88
468.41	31686.17
468.60	31477.86
468.78	32306.41
468.96	32521.74
469.14	32601.32
469.32	32472.59
469.50	30829.54
469.69	31536.38
469.87	31005.08
470.05	31077.63
470.23	31023.80
470.41	30866.98
470.59	31428.71
470.77	31519.99
470.95	32488.98
471.14	33067.09
471.32	33146.67
471.50	34272.46
471.68	34775.68
471.86	35065.91
472.04	34714.83
472.22	35189.95
472.40	33453.28
472.58	32589.62
472.77	33090.49
472.95	33802.02
473.13	34462.05
473.31	32793.25
473.49	33301.14
473.67	34265.44
473.85	34754.61
474.03	36208.09
474.21	36311.07
474.39	36446.82
474.57	36151.91
474.75	36378.95
474.93	35683.81
475.12	35407.62
475.30	36119.15
475.48	34817.81
475.66	34766.32
475.84	34693.76
476.02	34436.30
476.20	34391.83
476.38	35187.61
476.56	36608.32
476.74	37230.90
476.92	37125.58
477.10	36945.36
477.28	37846.46
477.46	38337.98
477.64	39222.70
477.82	39274.19
478.00	39255.46
478.18	37853.48
478.36	37750.50
478.54	38174.14
478.72	38740.55
478.90	40163.59
479.08	42181.13
479.26	41289.39
479.44	41673.24
479.62	40669.15
479.80	42094.53
479.98	41507.06
480.16	41989.21
480.34	41181.73
480.52	42316.89
480.70	43051.81
480.88	42155.39
481.06	42646.90
481.24	42703.07
481.41	43983.35
481.59	44734.66
481.77	43564.39
481.95	42995.64
482.13	42632.86
482.31	43241.40
482.49	44285.28
482.67	43447.36
482.85	43913.13
483.03	44051.22
483.21	45085.74
483.39	44619.97
483.57	43686.10
483.74	44011.43
483.92	45153.62
484.10	44533.37
484.28	44535.71
484.46	44318.04
484.64	46995.62
484.82	45120.85
485.00	44961.69
485.18	44219.74
485.35	41645.15
485.53	37263.67
485.71	35185.27
485.89	35718.92
486.07	37944.76
486.25	40568.51
486.43	43835.89
486.61	43061.18
486.78	43295.23
486.96	44212.72
487.14	45921.31
487.32	46302.82
487.50	47592.45
487.68	48786.13
487.85	49544.46
488.03	48318.02
488.21	48027.79
488.39	47622.88
488.57	46656.24
488.75	46663.26
488.92	48364.83
489.10	50323.86
489.28	51444.98
489.46	52608.22
489.64	52472.47
489.81	52325.02
489.99	51597.11
490.17	51583.07
490.35	51892.02
490.53	51407.53
490.70	50969.85
490.88	51159.43
491.06	52062.88
491.24	52364.81
491.41	51236.67
491.59	49553.82
491.77	49441.48
491.95	51182.84
492.13	52315.65
492.30	52851.64
492.48	53521.03
492.66	54019.56
492.84	53399.32
493.01	53382.94
493.19	53275.27
493.37	52715.89
493.54	53076.33
493.72	54227.87
493.90	54068.72
494.08	54775.56
494.25	54686.62
494.43	55547.93
494.61	56097.96
494.79	55856.88
494.96	56109.66
495.14	55664.96
495.32	54188.08
495.49	54380.01
495.67	55461.33
495.85	56348.40
496.02	56872.68
496.20	56563.73
496.38	56133.07
496.55	56018.38
496.73	56790.76
496.91	57017.79
497.09	56853.95
497.26	56889.06
497.44	56573.09
497.62	55702.41
497.79	54569.59
497.97	53986.80
498.14	54710.02
498.32	56055.83
498.50	55711.77
498.67	56406.91
498.85	56481.81
499.03	57088.01
499.20	57626.33
499.38	56853.95
499.56	56367.12
499.73	55957.53
499.91	55880.29
500.08	55238.98
500.26	54686.62
500.44	55592.40
500.61	56133.07
500.79	55569.00
500.97	55934.12
501.14	54873.86
501.32	54630.44
501.49	54897.27
501.67	55433.25
501.84	55419.20
502.02	55917.74
502.20	56781.40
502.37	57090.35
502.55	56970.98
502.72	57413.34
502.90	57602.92
503.07	57485.90
503.25	56303.93
503.43	55384.10
503.60	55075.15
503.78	54763.85
503.95	55063.44
504.13	56566.07
504.30	56931.19
504.48	56507.55
504.65	56704.16
504.83	57027.15
505.01	57663.78
505.18	58038.26
505.36	58181.04
505.53	58288.70
505.71	58529.78
505.88	58328.49
506.06	57986.77
506.23	57518.67
506.41	57471.85
506.58	57865.06
506.76	57954.00
506.93	57254.18
507.11	57216.74
507.28	57324.40
507.46	56898.42
507.63	56687.78
507.81	55903.70
507.98	56795.44
508.16	57869.75
508.33	57949.32
508.50	58206.78
508.68	58454.88
508.85	58747.45
509.03	59110.23
509.20	58265.30
509.38	57310.36
509.55	57305.68
509.73	57212.06
509.90	57790.17
510.08	57956.35
510.25	57275.25
510.42	57649.74
510.60	58056.99
510.77	58370.62
510.95	58445.52
511.12	58810.64
511.30	59138.32
511.47	59164.06
511.64	59241.30
511.82	59206.19
511.99	58202.10
512.17	58342.53
512.34	57673.14
512.51	57666.12
512.69	58019.54
512.86	57951.66
513.04	58232.53
513.21	57663.78
513.38	56926.51
513.56	56807.14
513.73	56224.35
513.90	56896.08
514.08	57038.86
514.25	56868.00
514.43	57310.36
514.60	57600.58
514.77	57944.64
514.95	57937.62
515.12	57736.34
515.29	58387.00
515.47	58859.79
515.64	58454.88
515.81	57944.64
515.99	57242.48
516.16	55274.09
516.33	53125.48
516.51	53022.50
516.68	51533.92
516.85	50656.21
517.03	52926.53
517.20	55248.35
517.37	57242.48
517.54	58230.19
517.72	56858.63
517.89	53806.58
518.06	52299.27
518.24	53633.38
518.41	55564.32
518.58	56376.48
518.75	56645.65
518.93	56516.92
519.10	55990.30
519.27	57031.83
519.45	57591.22
519.62	58206.78
519.79	58410.41
519.96	57712.93
520.14	57469.51
520.31	56219.67
520.48	56697.14
520.65	57146.52
520.83	58223.17
521.00	58157.63
521.17	57584.20
521.34	57771.44
521.52	58342.53
521.69	58553.18
521.86	59044.69
522.03	58944.05
522.20	57167.58
522.38	56802.46
522.55	57263.55
522.72	57879.11
522.89	57144.18
523.07	57605.26
523.24	58145.93
523.41	59379.39
523.58	59779.62
523.75	59840.48
523.92	59330.24
524.10	58983.84
524.27	58915.96
524.44	58616.38
524.61	58468.92
524.78	59089.16
524.96	58873.84
525.13	58761.49
525.30	59290.45
525.47	59419.18
525.64	59238.96
525.81	58349.56
525.98	56472.45
526.16	55458.99
526.33	55695.39
526.50	55044.72
526.67	55323.24
526.84	55365.37
527.01	56561.39
527.18	57139.50
527.36	58089.76
527.53	59018.95
527.70	58489.99
527.87	57015.45
528.04	58019.54
528.21	58520.41
528.38	59119.59
528.55	60093.25
528.72	59475.35
528.89	59220.23
529.07	58967.46
529.24	57900.17
529.41	57577.18
529.58	57694.21
529.75	58651.48
529.92	58719.36
530.09	58728.72
530.26	59238.96
530.43	60154.11
530.60	58988.52
530.77	59269.39
530.94	59711.75
531.11	58894.90
531.28	59058.74
531.46	59384.07
531.63	59243.64
531.80	58239.55
531.97	57640.37
532.14	57879.11
532.31	56505.21
532.48	56119.02
532.65	56177.54
532.82	56851.61
532.99	58436.16
533.16	58354.24
533.33	58494.67
533.50	58976.82
533.67	58880.86
533.84	57963.37
534.01	58485.31
534.18	58649.14
534.35	58078.05
534.52	57717.61
534.69	58361.26
534.86	59051.72
535.03	58901.92
535.20	58712.34
535.37	59465.99
535.54	59948.14
535.71	59796.01
535.88	59842.82
536.05	58501.69
536.22	57895.49
536.38	57762.08
536.55	56568.41
536.72	56416.27
536.89	57368.87
537.06	57513.98
537.23	58234.87
537.40	58354.24
537.57	57867.40
537.74	58443.18
537.91	58417.43
538.08	58049.97
538.25	57925.92
538.42	58691.27
538.59	57956.35
538.75	57069.28
538.92	56594.15
539.09	57029.49
539.26	57310.36
539.43	57097.37
539.60	57251.84
539.77	58237.21
539.94	57282.27
540.11	56556.70
540.28	56339.04
540.44	55751.56
540.61	55906.04
540.78	56484.15
540.95	57549.09
541.12	57462.49
541.29	57921.24
541.46	58251.25
541.62	58372.96
541.79	57385.25
541.96	56636.28
542.13	56727.56
542.30	57172.27
542.47	57556.11
542.63	57263.55
542.80	57221.42
542.97	56605.86
543.14	56533.30
543.31	56530.96
543.48	57895.49
543.64	58204.44
543.81	59018.95
543.98	58625.74
544.15	57258.87
544.32	57649.74
544.48	57385.25
544.65	57455.47
544.82	58080.39
544.99	56706.50
545.16	56409.25
545.32	56519.26
545.49	57462.49
545.66	57528.03
545.83	57207.37
546.00	57811.23
546.16	57829.96
546.33	57174.61
546.50	57345.47
546.67	58078.05
546.83	57146.52
547.00	57935.28
547.17	56535.64
547.34	55671.98
547.50	56060.51
547.67	57083.33
547.84	57829.96
548.00	57373.55
548.17	57123.11
548.34	57471.85
548.51	57902.51
548.67	58176.36
548.84	57890.81
549.01	57907.19
549.18	57336.10
549.34	57160.56
549.51	57139.50
549.68	57270.57
549.84	57017.79
550.01	56755.65
550.18	56222.01
550.34	56383.51
550.51	56973.32
550.68	57436.75
550.84	57036.51
551.01	56123.71
551.18	56229.03
551.34	55751.56
551.51	56966.30
551.68	56839.91
551.84	56868.00
552.01	56818.84
552.18	56193.92
552.34	55758.58
552.51	55887.31
552.68	55688.37
552.84	55899.01
553.01	55978.59
553.18	57111.41
553.34	57251.84
553.51	57073.96
553.67	56587.13
553.84	56282.86
554.01	56575.43
554.17	56055.83
554.34	56561.39
554.51	56917.15
554.67	55679.00
554.84	55934.12
555.00	55985.61
555.17	56177.54
555.33	55753.90
555.50	55309.20
555.67	56086.26
555.83	56020.72
556.00	55889.65
556.16	55213.24
556.33	54761.51
556.50	55576.02
556.66	55852.20
556.83	55208.56
556.99	55131.32
557.16	55241.32
557.32	54927.69
557.49	55220.26
557.65	55084.51
557.82	55772.63
557.98	56186.90
558.15	54773.22
558.32	53773.81
558.48	53244.85
558.65	53434.43
558.81	54136.59
558.98	54756.83
559.14	55213.24
559.31	54724.07
559.47	54358.94
559.64	53862.75
559.80	53481.24
559.97	54057.01
560.13	55487.08
560.30	56409.25
560.46	56743.95
560.63	57116.09
560.79	56587.13
560.96	55732.84
561.12	54300.43
561.29	53820.62
561.45	53757.42
561.61	55463.67
561.78	54761.51
561.94	55512.83
562.11	55318.56
562.27	54670.23
562.44	55327.92
562.60	55405.16
562.77	55849.86
562.93	54176.38
563.10	54342.56
563.26	54478.31
563.42	55182.81
563.59	54358.94
563.75	54080.42
563.92	54248.94
564.08	53605.29
564.24	54611.72
564.41	54012.54
564.57	55054.08
564.74	54335.54
564.90	53682.53
565.07	53907.22
565.23	52968.66
565.39	52872.70
565.56	53055.26
565.72	53368.90
565.88	51632.22
566.05	54092.12
566.21	54908.97
566.38	54082.76
566.54	53937.65
566.70	54356.60
566.87	54241.92
567.03	53553.80
567.19	54578.95
567.36	55217.92
567.52	53736.36
567.68	53497.62
567.85	52388.21
568.01	52446.72
568.17	53097.39
568.34	53638.06
568.50	53694.23
568.66	53759.76
568.83	52701.84
568.99	52282.89
569.15	52718.23
569.32	53104.41
569.48	52481.83
569.64	51880.31
569.81	52584.82
569.97	51807.76
570.13	51337.31
570.30	51131.34
570.46	50363.65
570.62	49258.91
570.78	50213.85
570.95	51580.73
571.11	50660.90
571.27	50370.67
571.43	51033.04
571.60	50506.42
571.76	52109.69
571.92	52299.27
572.09	53169.95
572.25	52772.06
572.41	53815.94
572.57	53359.53
572.74	53179.31
572.90	54059.35
573.06	52978.03
573.22	53406.34
573.38	53045.90
573.55	54368.30
573.71	52678.44
573.87	53261.23
574.03	53015.47
574.20	52210.33
574.36	52648.01
574.52	51828.82
574.68	50864.52
574.84	50490.04
575.01	50911.33
575.17	51592.43
575.33	51622.86
575.49	51786.69
575.65	50976.87
575.82	51271.78
575.98	50550.89
576.14	51999.68
576.30	52292.25
576.46	50791.97
576.62	51299.86
576.79	50742.81
576.95	51124.32
577.11	51585.41
577.27	51365.40
577.43	51744.56
577.59	50553.23
577.75	49345.51
577.92	49521.05
578.08	50000.86
578.24	50630.47
578.40	50705.37
578.56	49666.17
578.72	50204.49
578.88	49820.64
579.04	50478.33
579.21	49425.09
579.37	50468.97
579.53	50688.98
579.69	50003.20
579.85	50176.40
580.01	50227.90
580.17	49584.25
580.33	50583.66
580.49	50768.56
580.65	48966.35
580.82	49741.06
580.98	50969.85
581.14	50920.70
581.30	50686.64
581.46	50145.98
581.62	50529.83
581.78	51213.26
581.94	50777.92
582.10	51662.64
582.26	51466.04
582.42	51662.64
582.58	49457.86
582.74	49429.77
582.90	49986.82
583.06	50181.09
583.22	50550.89
583.38	50515.78
583.54	50908.99
583.70	51405.19
583.86	50752.18
584.02	50199.81
584.18	50141.30
584.34	48973.37
584.50	48781.45
584.66	49200.40
584.82	49808.94
584.98	49481.27
585.14	49038.90
585.30	49233.17
