SpectraSuite Data File
++++++++++++++++++++++++++++++++++++
Date: Mon Oct 07 14:52:55 GMT-05:00 2013
User: price-jones
Dark Spectrum Present: No
Reference Spectrum Present: No
Number of Sampled Component Spectra: 1
Spectrometers: USB2+H05261
Integration Time (usec): 100000 (USB2+H05261)
Spectra Averaged: 1 (USB2+H05261)
Boxcar Smoothing: 0 (USB2+H05261)
Correct for Electrical Dark: No (USB2+H05261)
Strobe/Lamp Enabled: No (USB2+H05261)
Correct for Detector Non-linearity: No (USB2+H05261)
Correct for Stray Light: No (USB2+H05261)
Number of Pixels in Processed Spectrum: 2048
>>>>>Begin Processed Spectral Data<<<<<
365.73	0.00
365.92	0.00
366.12	0.00
366.32	0.00
366.52	0.00
366.72	0.00
366.91	0.00
367.11	0.00
367.31	0.00
367.51	0.00
367.70	0.00
367.90	0.00
368.10	0.00
368.30	0.00
368.49	0.00
368.69	0.00
368.89	0.00
369.09	0.00
369.28	0.00
369.48	0.00
369.68	0.00
369.87	0.00
370.07	0.00
370.27	0.00
370.47	360.44
370.66	2326.49
370.86	2722.04
371.06	2949.08
371.25	2909.29
371.45	2689.28
371.65	2424.80
371.84	2165.00
372.04	2392.03
372.24	2773.53
372.44	2864.82
372.63	2832.05
372.83	2560.55
373.03	2368.62
373.22	2047.97
373.42	2080.74
373.62	2478.63
373.81	2829.71
374.01	2832.05
374.21	2525.44
374.40	2331.17
374.60	2506.71
374.79	2768.85
374.99	3232.28
375.19	3538.89
375.38	3419.52
375.58	3288.45
375.78	3164.40
375.97	3265.05
376.17	3342.28
376.37	3419.52
376.56	3421.86
376.76	3719.11
376.95	3763.58
377.15	4149.77
377.35	4271.48
377.54	4372.12
377.74	4444.68
377.93	4447.02
378.13	4493.83
378.33	4290.20
378.52	3918.06
378.72	3754.22
378.91	3714.43
379.11	3463.99
379.31	3538.89
379.50	3517.83
379.70	3911.04
379.89	4255.09
380.09	4388.50
380.28	4531.28
380.48	4482.13
380.68	4376.80
380.87	4393.19
381.07	3892.31
381.26	3688.68
381.46	3325.90
381.65	3255.69
381.85	3169.09
382.04	2993.55
382.24	2911.63
382.43	2843.75
382.63	2731.41
382.83	2750.13
383.02	2740.77
383.22	2677.57
383.41	2640.12
383.61	2813.32
383.80	3431.23
384.00	3892.31
384.19	4245.73
384.39	4437.66
384.58	4393.19
384.78	4255.09
384.97	4292.54
385.17	4196.58
385.36	3887.63
385.56	3878.27
385.75	3859.54
385.95	4255.09
386.14	4774.69
386.34	4765.33
386.53	4390.84
386.72	4156.79
386.92	4325.31
387.11	4432.97
387.31	4575.75
387.50	4559.36
387.70	4416.59
387.89	4339.35
388.09	4400.21
388.28	4290.20
388.48	4423.61
388.67	4695.11
388.86	5383.23
389.06	5689.84
389.25	5916.87
389.45	5940.28
389.64	5973.05
389.84	5959.00
390.03	5900.49
390.22	5912.19
390.42	6029.22
390.61	6328.81
390.81	6946.71
391.00	6909.26
391.19	6986.50
391.39	6551.16
391.58	6200.08
391.78	5963.68
391.97	5682.82
392.16	5228.76
392.36	4938.53
392.55	4030.40
392.75	3005.25
392.94	2511.39
393.13	2462.24
393.33	2956.10
393.52	3925.08
393.71	4809.80
393.91	5423.02
394.10	5799.85
394.29	6279.66
394.49	6906.92
394.68	7360.98
394.88	7279.07
395.07	7698.02
395.26	7812.71
395.46	7269.70
395.65	6862.45
395.84	6134.54
396.04	5022.79
396.23	4053.81
396.42	3375.05
396.62	3445.27
396.81	3819.75
397.00	5177.26
397.19	6352.21
397.39	7389.07
397.58	8365.07
397.77	8791.05
397.97	9263.84
398.16	9252.14
398.35	9666.41
398.55	9914.51
398.74	10260.91
398.93	10511.35
399.12	10296.02
399.32	10267.93
399.51	10141.54
399.70	10785.19
399.90	10628.37
400.09	10803.91
400.28	10581.56
400.47	10665.82
400.67	11192.44
400.86	11267.34
401.05	11506.07
401.24	11707.36
401.44	11744.81
401.63	11939.07
401.82	12006.95
402.01	12070.14
402.21	11934.39
402.40	12367.39
402.59	11782.26
402.78	11281.38
402.97	10995.84
403.17	11335.21
403.36	11880.56
403.55	12379.09
403.74	12730.17
403.93	12131.00
404.13	11194.78
404.32	10951.37
404.51	11412.45
404.70	12498.46
404.89	12442.29
405.09	12053.76
405.28	11819.71
405.47	11850.13
405.66	11726.08
405.85	11325.85
406.05	11309.47
406.24	11143.29
406.43	11698.00
406.62	12376.75
406.81	12304.20
407.00	11999.93
407.20	11719.06
407.39	11637.14
407.58	12264.41
407.77	12692.73
407.96	12959.55
408.15	13296.58
408.34	13345.73
408.54	13788.10
408.73	13867.67
408.92	13598.51
409.11	13186.58
409.30	12486.76
409.49	11908.65
409.68	11248.61
409.87	10853.06
410.07	11566.93
410.26	12564.00
410.45	13369.14
410.64	13923.85
410.83	14078.32
411.02	14469.19
411.21	14670.48
411.40	14576.86
411.59	14822.61
411.78	14675.16
411.98	14469.19
412.17	14899.85
412.36	14281.95
412.55	14516.00
412.74	14375.57
412.93	14066.62
413.12	14073.64
413.31	15290.72
413.50	15541.16
413.69	15793.94
413.88	15054.33
414.07	14820.27
414.26	15199.44
414.45	15765.85
414.64	15648.82
414.83	15616.05
415.02	15159.65
415.22	15367.96
415.41	15667.55
415.60	16091.18
415.79	16699.72
415.98	17130.38
416.17	17240.39
416.36	16531.20
416.55	16423.54
416.74	15824.36
416.93	15346.89
417.12	15438.17
417.31	15845.43
417.50	16154.38
417.69	16608.44
417.88	16458.65
418.07	16215.23
418.26	15955.43
418.45	16315.87
418.64	16769.94
418.83	17317.62
419.02	17294.22
419.21	17233.36
419.39	16105.23
419.58	15318.81
419.77	15763.51
419.96	16287.79
420.15	17109.32
420.34	17518.91
420.53	18092.34
420.72	18387.25
420.91	18356.82
421.10	18295.97
421.29	18087.66
421.48	17413.59
421.67	18340.44
421.86	17832.54
422.05	16416.52
422.24	14661.12
422.43	14731.33
422.61	16486.73
422.80	17586.79
422.99	17483.80
423.18	17074.21
423.37	16580.36
423.56	16695.04
423.75	17202.94
423.94	17336.35
424.13	16437.58
424.32	16334.60
424.50	16650.57
424.69	16386.09
424.88	16156.72
425.07	16636.53
425.26	16308.85
425.45	16318.22
425.64	15976.50
425.83	15922.66
426.01	17109.32
426.20	17132.72
426.39	17231.02
426.58	15967.13
426.77	14476.21
426.96	14249.18
427.15	14743.03
427.33	15995.22
427.52	16573.33
427.71	16702.06
427.90	16322.90
428.09	16154.38
428.28	16020.97
428.46	15503.71
428.65	15094.11
428.84	15639.46
429.03	15875.85
429.22	15164.33
429.40	14087.68
429.59	12681.02
429.78	11389.05
429.97	11201.80
430.16	11529.48
430.34	11651.19
430.53	11585.65
430.72	12226.96
430.91	13247.43
431.10	15592.65
431.28	18588.53
431.47	19822.00
431.66	19658.16
431.85	18221.07
432.03	16800.37
432.22	16219.91
432.41	16828.45
432.60	18405.97
432.79	19283.67
432.97	19826.68
433.16	19566.88
433.35	17259.11
433.54	15681.59
433.72	14766.44
433.91	15604.35
434.10	17104.64
434.28	18405.97
434.47	19173.67
434.66	19112.81
434.85	18768.76
435.03	18651.73
435.22	19129.20
435.41	20198.82
435.59	20231.59
435.78	20521.82
435.97	21060.14
436.16	21177.17
436.34	20547.56
436.53	20362.66
436.72	20477.35
436.90	19248.57
437.09	19353.89
437.28	19009.83
437.46	19644.12
437.65	19110.47
437.84	17893.40
438.02	16793.34
438.21	16856.54
438.40	17820.84
438.58	19098.77
438.77	19548.15
438.96	19632.41
439.14	20688.00
439.33	21064.82
439.52	21142.06
439.70	20915.03
439.89	20365.00
440.08	19985.83
440.26	19892.21
440.45	20416.49
440.63	21928.48
440.82	22848.31
441.01	22499.57
441.19	22801.50
441.38	22691.49
441.57	23381.95
441.75	24072.41
441.94	23971.77
442.12	23939.00
442.31	24322.85
442.50	24599.03
442.68	24018.58
442.87	23562.17
443.05	23030.87
443.24	24067.73
443.43	24395.40
443.61	24683.29
443.80	25310.55
443.98	23660.48
444.17	23826.65
444.35	25284.81
444.54	25305.87
444.73	24828.40
444.91	24006.87
445.10	23321.10
445.28	22164.87
445.47	21736.56
445.65	22085.30
445.84	22539.36
446.02	23482.59
446.21	23868.78
446.39	23662.82
446.58	24283.06
446.77	24364.98
446.95	24744.14
447.14	25553.97
447.32	25532.90
447.51	24886.92
447.69	24187.10
447.88	24173.05
448.06	24439.87
448.25	25010.96
448.43	25034.37
448.62	24643.50
448.80	24840.11
448.99	24826.06
449.17	25057.78
449.36	24854.15
449.54	25565.67
449.73	26316.98
449.91	26419.97
450.10	27473.21
450.28	27515.34
450.46	27578.53
450.65	27414.69
450.83	26916.16
451.02	26478.48
451.20	26522.95
451.39	26417.63
451.57	26197.62
451.76	26731.26
451.94	26506.57
452.13	25715.47
452.31	24767.55
452.49	23569.19
452.68	23646.43
452.86	23974.11
453.05	23859.42
453.23	24835.42
453.42	25483.75
453.60	26293.58
453.78	26272.51
453.97	25795.04
454.15	26192.94
454.34	25476.73
454.52	25741.21
454.70	25242.68
454.89	25551.63
455.07	25511.84
455.26	26284.22
455.44	26785.09
455.62	27360.86
455.81	27470.87
455.99	27346.82
456.17	26806.16
456.36	26906.80
456.54	27613.64
456.73	27541.08
456.91	28276.01
457.09	28556.88
457.28	29195.84
457.46	27648.75
457.64	27101.06
457.83	26815.52
458.01	26331.03
458.19	26717.22
458.38	27520.02
458.56	28304.10
458.74	27917.91
458.93	27459.16
459.11	27239.15
459.29	27260.22
459.48	27264.90
459.66	27016.80
459.84	27431.08
460.03	27737.69
460.21	27470.87
460.39	28489.00
460.57	28404.74
460.76	28879.87
460.94	28912.64
461.12	28570.92
461.31	28645.82
461.49	28362.61
461.67	28692.63
461.85	29317.55
462.04	29247.33
462.22	29481.39
462.40	29397.13
462.59	28994.56
462.77	29156.05
462.95	29612.46
463.13	28966.47
463.32	28772.21
463.50	28336.87
463.68	28624.75
463.86	28320.48
464.05	28144.94
464.23	27557.47
464.41	27571.51
464.59	26984.04
464.78	28294.74
464.96	28341.55
465.14	28163.67
465.32	28854.12
465.50	29340.96
465.69	29493.09
465.87	29312.87
466.05	28147.28
466.23	26902.12
466.41	26249.11
466.60	27704.92
466.78	27236.81
466.96	27936.63
467.14	28341.55
467.32	28720.71
467.51	28505.38
467.69	27187.66
467.87	27927.27
468.05	28343.89
468.23	28627.09
468.41	28393.04
468.60	28634.11
468.78	28739.44
468.96	27948.34
469.14	28737.10
469.32	29099.88
469.50	28006.85
469.69	27892.16
469.87	27496.61
470.05	27426.40
470.23	27260.22
470.41	27679.18
470.59	28098.13
470.77	28346.23
470.95	28676.24
471.14	28893.91
471.32	29170.10
471.50	30698.47
471.68	30623.57
471.86	30904.43
472.04	30974.65
472.22	30885.71
472.40	29673.31
472.58	29479.05
472.77	29446.28
472.95	29713.10
473.13	30560.37
473.31	29935.45
473.49	29696.72
473.67	30382.49
473.85	30405.90
474.03	31311.69
474.21	31601.91
474.39	31892.14
474.57	31702.56
474.75	32182.37
474.93	31784.48
475.12	31012.10
475.30	31016.78
475.48	31454.46
475.66	32041.93
475.84	31377.22
476.02	30918.48
476.20	30611.87
476.38	31358.50
476.56	32673.88
476.74	32807.29
476.92	33078.79
477.10	33118.58
477.28	34263.10
477.46	34054.79
477.64	34855.26
477.82	34522.90
478.00	34773.34
478.18	34012.66
478.36	34176.50
478.54	34132.03
478.72	34375.45
478.90	35292.94
479.08	36119.15
479.26	36465.55
479.44	36484.27
479.62	36556.83
479.80	36629.38
479.98	36540.44
480.16	36847.05
480.34	36772.16
480.52	36622.36
480.70	37163.03
480.88	36907.91
481.06	37479.00
481.24	38209.25
481.41	38808.42
481.59	39363.13
481.77	38998.01
481.95	38431.60
482.13	38286.48
482.31	38476.07
482.49	39419.30
482.67	39281.21
482.85	39545.69
483.03	40402.33
483.21	40168.27
483.39	40170.61
483.57	39721.23
483.74	39454.41
483.92	39552.71
484.10	40126.14
484.28	41280.03
484.46	41132.57
484.64	41647.49
484.82	40662.13
485.00	40217.43
485.18	39461.43
485.35	38349.68
485.53	34834.19
485.71	32048.96
485.89	31885.12
486.07	33858.19
486.25	36479.59
486.43	38579.05
486.61	39234.40
486.78	39342.06
486.96	39302.28
487.14	40966.40
487.32	42092.19
487.50	43138.41
487.68	43793.76
487.85	44559.12
488.03	44058.24
488.21	43828.87
488.39	42939.47
488.57	42319.23
488.75	42110.92
488.92	43784.40
489.10	45858.12
489.28	47372.44
489.46	48114.39
489.64	47990.34
489.81	48193.97
489.99	47859.27
490.17	47643.94
490.35	48311.00
490.53	47559.69
490.70	47512.88
490.88	47014.34
491.06	48121.41
491.24	48215.04
491.41	46983.91
491.59	45027.23
491.77	44678.49
491.95	45443.84
492.13	46873.91
492.30	48243.12
492.48	49502.33
492.66	50490.04
492.84	49944.69
493.01	49731.70
493.19	49181.68
493.37	48238.44
493.54	48772.08
493.72	49045.93
493.90	50564.93
494.08	51564.34
494.25	51828.82
494.43	52097.98
494.61	52491.19
494.79	52364.81
494.96	52041.81
495.14	51459.02
495.32	50286.41
495.49	49450.84
495.67	50897.29
495.85	52088.62
496.02	52837.59
496.20	52732.27
496.38	52355.44
496.55	52353.10
496.73	52961.64
496.91	52753.33
497.09	53443.79
497.26	53698.91
497.44	53008.45
497.62	52420.98
497.79	51370.08
497.97	49579.57
498.14	50394.07
498.32	51657.96
498.50	52617.58
498.67	53247.19
498.85	52985.05
499.03	53214.42
499.20	53801.89
499.38	53577.20
499.56	53317.40
499.73	52615.24
499.91	52357.78
500.08	51566.68
500.26	51119.64
500.44	51540.94
500.61	52481.83
500.79	52292.25
500.97	51732.86
501.14	51845.21
501.32	51576.04
501.49	51742.22
501.67	51721.16
501.84	52376.51
502.02	52596.52
502.20	53095.05
502.37	53464.86
502.55	53209.74
502.72	54174.04
502.90	54323.83
503.07	53757.42
503.25	53572.52
503.43	52659.71
503.60	51838.18
503.78	51313.90
503.95	51760.95
504.13	53546.78
504.30	53942.33
504.48	53764.45
504.65	53539.75
504.83	53542.10
505.01	54309.79
505.18	54768.54
505.36	55035.36
505.53	55138.34
505.71	55779.65
505.88	55592.40
506.06	54852.80
506.23	54405.75
506.41	54010.20
506.58	54459.58
506.76	54562.57
506.93	54497.03
507.11	54251.28
507.28	54174.04
507.46	53579.54
507.63	53057.60
507.81	53085.69
507.98	53155.91
508.16	54110.85
508.33	54625.76
508.50	55152.38
508.68	55304.52
508.85	55700.07
509.03	55847.52
509.20	55767.94
509.38	54588.31
509.55	54028.93
509.73	54281.70
509.90	54574.27
510.08	54937.05
510.25	54958.12
510.42	54883.22
510.60	54511.08
510.77	54951.10
510.95	55538.57
511.12	55758.58
511.30	56170.52
511.47	56126.05
511.64	56163.50
511.82	55753.90
511.99	55084.51
512.17	54604.70
512.34	54433.84
512.51	54321.49
512.69	54593.00
512.86	54581.29
513.04	55143.02
513.21	55164.09
513.38	54562.57
513.56	54035.95
513.73	53415.71
513.90	53598.27
514.08	54031.27
514.25	54103.82
514.43	54300.43
514.60	54728.75
514.77	54632.78
514.95	54845.77
515.12	54721.72
515.29	54890.24
515.47	55405.16
515.64	55519.85
515.81	55110.25
515.99	54321.49
516.16	52828.23
516.33	50131.93
516.51	48584.84
516.68	47606.50
516.85	46969.87
517.03	47730.54
517.20	51175.81
517.37	54143.61
517.54	54703.00
517.72	54171.70
517.89	51388.80
518.06	48917.20
518.24	49516.37
518.41	51601.79
518.58	53347.83
518.75	53294.00
518.93	53787.85
519.10	53471.88
519.27	53839.34
519.45	54382.35
519.62	54817.69
519.79	55381.76
519.96	55016.63
520.14	54756.83
520.31	53682.53
520.48	54085.10
520.65	54216.17
520.83	55114.94
521.00	55723.47
521.17	55519.85
521.34	54859.82
521.52	55449.63
521.69	55887.31
521.86	56114.34
522.03	55927.10
522.20	54703.00
522.38	53675.51
522.55	53621.67
522.72	54204.47
522.89	54356.60
523.07	54644.49
523.24	55157.06
523.41	55821.78
523.58	56135.41
523.75	56423.29
523.92	56332.01
524.10	56465.42
524.27	56430.32
524.44	56032.42
524.61	55779.65
524.78	55606.45
524.96	55667.30
525.13	55819.44
525.30	55969.23
525.47	56264.14
525.64	56144.77
525.81	55547.93
525.98	53921.26
526.16	52729.93
526.33	51711.80
526.50	51061.13
526.67	50927.72
526.84	51716.48
527.01	52575.45
527.18	53581.88
527.36	54911.31
527.53	55828.80
527.70	55620.49
527.87	55346.65
528.04	54735.77
528.21	55437.93
528.38	56193.92
528.55	56690.12
528.72	56868.00
528.89	56947.57
529.07	56706.50
529.24	55980.93
529.41	55061.10
529.58	54862.16
529.75	55143.02
529.92	55606.45
530.09	55971.57
530.26	56324.99
530.43	56697.14
530.60	56479.47
530.77	56875.02
530.94	56982.68
531.11	56547.34
531.28	56044.13
531.46	55842.84
531.63	56051.15
531.80	56067.53
531.97	55707.09
532.14	54791.94
532.31	53420.39
532.48	52992.07
532.65	53120.80
532.82	53776.15
532.99	55325.58
533.16	55559.64
533.33	55950.51
533.50	56060.51
533.67	55241.32
533.84	54618.74
534.01	55248.35
534.18	55573.68
534.35	55227.28
534.52	55206.22
534.69	55519.85
534.86	55821.78
535.03	56186.90
535.20	56718.20
535.37	57083.33
535.54	57036.51
535.71	56435.00
535.88	56357.76
536.05	55449.63
536.22	55288.13
536.38	55025.99
536.55	54328.52
536.72	53925.94
536.89	53890.83
537.06	54838.75
537.23	55833.48
537.40	55899.01
537.57	55489.42
537.74	55739.86
537.91	55540.91
538.08	55758.58
538.25	55903.70
538.42	55709.43
538.59	55688.37
538.75	54944.08
538.92	54721.72
539.09	54555.55
539.26	54260.64
539.43	54319.15
539.60	54300.43
539.77	54417.46
539.94	54415.11
540.11	53146.54
540.28	52772.06
540.44	52800.15
540.61	53176.97
540.78	53694.23
540.95	54113.19
541.12	54286.39
541.29	54766.20
541.46	55199.19
541.62	54869.18
541.79	54836.41
541.96	54335.54
542.13	54354.26
542.30	54567.25
542.47	54681.94
542.63	54616.40
542.80	54234.89
542.97	54169.36
543.14	54286.39
543.31	54209.15
543.48	54660.87
543.64	55674.32
543.81	56006.68
543.98	55543.25
544.15	54967.48
544.32	54590.66
544.48	54787.26
544.65	55086.85
544.82	55320.90
544.99	54901.95
545.16	54569.59
545.32	54518.10
545.49	55281.11
545.66	55681.34
545.83	55040.04
546.00	54841.09
546.16	54733.43
546.33	54899.61
546.50	54497.03
546.67	55028.34
546.83	54536.82
547.00	54759.17
547.17	53598.27
547.34	53052.92
547.50	53481.24
547.67	53673.16
547.84	53762.11
548.00	54452.56
548.17	54855.14
548.34	54482.99
548.51	54372.99
548.67	54717.04
548.84	55004.93
549.01	54628.10
549.18	54209.15
549.34	54447.88
549.51	54323.83
549.68	54490.01
549.84	53900.20
550.01	53984.46
550.18	53895.52
550.34	54136.59
550.51	54454.90
550.68	54401.07
550.84	53591.25
551.01	53841.68
551.18	53886.15
551.34	53808.92
551.51	54347.24
551.68	54384.69
551.84	54731.09
552.01	54370.64
552.18	54160.00
552.34	53301.02
552.51	52940.58
552.68	53050.58
552.84	53631.04
553.01	53792.53
553.18	53605.29
553.34	53703.59
553.51	54038.29
553.67	54272.34
553.84	54349.58
554.01	54298.09
554.17	54085.10
554.34	54134.25
554.51	54281.70
554.67	54803.64
554.84	54555.55
555.00	53993.82
555.17	53841.68
555.33	53722.32
555.50	53923.60
555.67	53776.15
555.83	53478.90
556.00	53099.73
556.16	53202.72
556.33	52797.80
556.50	52596.52
556.66	52622.26
556.83	52100.32
556.99	52603.54
557.16	52568.43
557.32	52676.10
557.49	53216.76
557.65	53071.65
557.82	53268.25
557.98	52926.53
558.15	52542.69
558.32	51545.62
558.48	50660.90
558.65	50960.48
558.81	51323.27
558.98	51435.61
559.14	51587.75
559.31	51957.55
559.47	51978.62
559.64	51356.03
559.80	50838.78
559.97	51283.48
560.13	51791.37
560.30	52889.09
560.46	53378.26
560.63	53474.22
560.79	53544.44
560.96	52971.00
561.12	51852.23
561.29	50981.55
561.45	51171.13
561.61	51611.15
561.78	51966.91
561.94	51873.29
562.11	51943.51
562.27	51704.77
562.44	51770.31
562.60	52346.08
562.77	52678.44
562.93	52671.42
563.10	52474.81
563.26	51735.20
563.42	51793.71
563.59	51693.07
563.75	51632.22
563.92	51887.34
564.08	51391.14
564.24	52055.85
564.41	52334.38
564.57	52198.63
564.74	51220.28
564.90	51620.52
565.07	51231.99
565.23	50852.82
565.39	50190.45
565.56	49656.81
565.72	49888.52
565.88	50155.34
566.05	50473.65
566.21	50817.71
566.38	50787.28
566.54	50878.57
566.70	51068.15
566.87	51599.45
567.03	51655.62
567.19	51887.34
567.36	51524.55
567.52	51477.74
567.68	50548.55
567.85	50380.03
568.01	49752.77
568.17	49530.42
568.34	49219.13
568.50	49113.80
568.66	49389.98
568.83	49680.21
568.99	50153.00
569.15	50211.51
569.32	50365.99
569.48	49837.03
569.64	49492.97
569.81	49144.23
569.97	49425.09
570.13	49287.00
570.30	48374.19
570.46	48123.75
570.62	47161.79
570.78	47447.34
570.95	47594.79
571.11	48622.29
571.27	48804.85
571.43	49254.23
571.60	49235.51
571.76	49837.03
571.92	50277.05
572.09	49993.84
572.25	50220.87
572.41	49968.10
572.57	49998.52
572.74	49811.28
572.90	49460.20
573.06	49558.50
573.22	49602.97
573.38	49263.60
573.55	49537.44
573.71	49837.03
573.87	49427.43
574.03	48896.13
574.20	49389.98
574.36	48540.37
574.52	48718.25
574.68	48655.06
574.84	47482.45
575.01	47711.82
575.17	47613.52
575.33	47730.54
575.49	48308.66
575.65	48355.47
575.82	48116.73
575.98	47669.69
576.14	48076.94
576.30	48336.74
576.46	48334.40
576.62	48355.47
576.79	48594.20
576.95	47704.80
577.11	48046.52
577.27	48212.70
577.43	47833.53
577.59	47576.07
577.75	46911.36
577.92	46230.26
578.08	45890.88
578.24	46014.93
578.40	46625.81
578.56	46937.10
578.72	46761.56
578.88	47222.65
579.04	47423.93
579.21	47241.37
579.37	47737.57
579.53	47229.67
579.69	47393.51
579.85	47662.67
580.01	47456.70
580.17	47072.85
580.33	46958.17
580.49	46850.50
580.65	47201.58
580.82	47880.34
580.98	47449.68
581.14	47267.12
581.30	47346.70
581.46	47299.89
581.62	47908.43
581.78	47866.30
581.94	48020.77
582.10	47870.98
582.26	47929.49
582.42	47555.00
582.58	47952.90
582.74	47978.64
582.90	47536.28
583.06	48013.75
583.22	47681.39
583.38	47276.48
583.54	47040.09
583.70	47236.69
583.86	47203.92
584.02	47271.80
584.18	47524.58
584.34	47290.52
584.50	46934.76
584.66	46862.21
584.82	46637.51
584.98	46553.26
585.14	45673.21
585.30	45188.72
