SpectraSuite Data File
++++++++++++++++++++++++++++++++++++
Date: Mon Oct 07 14:54:00 GMT-05:00 2013
User: price-jones
Dark Spectrum Present: No
Reference Spectrum Present: No
Number of Sampled Component Spectra: 1
Spectrometers: USB2+H05261
Integration Time (usec): 100000 (USB2+H05261)
Spectra Averaged: 1 (USB2+H05261)
Boxcar Smoothing: 0 (USB2+H05261)
Correct for Electrical Dark: No (USB2+H05261)
Strobe/Lamp Enabled: No (USB2+H05261)
Correct for Detector Non-linearity: No (USB2+H05261)
Correct for Stray Light: No (USB2+H05261)
Number of Pixels in Processed Spectrum: 2048
>>>>>Begin Processed Spectral Data<<<<<
365.73	0.00
365.92	0.00
366.12	0.00
366.32	0.00
366.52	0.00
366.72	0.00
366.91	0.00
367.11	0.00
367.31	0.00
367.51	0.00
367.70	0.00
367.90	0.00
368.10	0.00
368.30	0.00
368.49	0.00
368.69	0.00
368.89	0.00
369.09	0.00
369.28	0.00
369.48	0.00
369.68	0.00
369.87	0.00
370.07	0.00
370.27	0.00
370.47	655.35
370.66	3361.01
370.86	4007.00
371.06	4423.61
371.25	4381.48
371.45	3960.19
371.65	3592.72
371.84	3356.33
372.04	3541.23
372.24	3983.59
372.44	4098.28
372.63	4117.00
372.83	3854.86
373.03	3311.86
373.22	3225.26
373.42	3262.71
373.62	3698.05
373.81	4109.98
374.01	4145.09
374.21	3588.04
374.40	3368.03
374.60	3599.74
374.79	3955.51
374.99	4615.54
375.19	5041.51
375.38	4952.57
375.58	4741.93
375.78	4629.58
375.97	4608.51
376.17	4830.87
376.37	4798.10
376.56	4840.23
376.76	5245.14
376.95	5605.58
377.15	6043.26
377.35	6223.48
377.54	6494.99
377.74	6621.38
377.93	6586.27
378.13	6558.18
378.33	6272.64
378.52	5767.08
378.72	5565.79
378.91	5542.39
379.11	5109.39
379.31	5041.51
379.50	5036.83
379.70	5294.29
379.89	5844.32
380.09	6284.34
380.28	6492.65
380.48	6614.35
380.68	6368.60
380.87	6031.56
381.07	5746.02
381.26	5217.05
381.46	5093.01
381.65	4702.14
381.85	4702.14
382.04	4411.91
382.24	4154.45
382.43	4037.42
382.63	3868.91
382.83	3971.89
383.02	3999.98
383.22	3920.40
383.41	3948.48
383.61	4154.45
383.80	4802.78
384.00	5322.38
384.19	6059.65
384.39	6312.42
384.58	6338.17
384.78	6258.59
384.97	6155.61
385.17	5898.15
385.36	5603.24
385.56	5397.28
385.75	5472.17
385.95	6064.33
386.14	6513.71
386.34	6705.63
386.53	6326.47
386.72	5753.04
386.92	5912.19
387.11	6303.06
387.31	6637.76
387.50	6534.78
387.70	6366.26
387.89	6099.44
388.09	6293.70
388.28	6094.76
388.48	6422.43
388.67	6707.98
388.86	7492.05
389.06	7918.03
389.25	8346.35
389.45	8669.34
389.64	8449.33
389.84	8524.23
390.03	8201.24
390.22	8177.83
390.42	8697.43
390.61	9027.45
390.81	9778.76
391.00	9846.63
391.19	10015.15
391.39	9441.72
391.58	8945.53
391.78	8411.89
391.97	8046.76
392.16	7686.32
392.36	6979.48
392.55	5589.20
392.75	4503.19
392.94	3639.53
393.13	3382.07
393.33	4168.49
393.52	5345.78
393.71	6506.69
393.91	7480.35
394.10	7976.55
394.29	8716.16
394.49	9570.45
394.68	10260.91
394.88	10200.05
395.07	10738.38
395.26	10455.17
395.46	10263.25
395.65	9816.21
395.84	8388.48
396.04	7124.59
396.23	5839.64
396.42	4748.95
396.62	4652.98
396.81	5247.48
397.00	6988.84
397.19	8711.47
397.39	10223.46
397.58	11957.80
397.77	12119.29
397.97	12936.14
398.16	12812.09
398.35	13235.73
398.55	13727.24
398.74	14328.76
398.93	14558.13
399.12	14368.55
399.32	13605.53
399.51	14125.13
399.70	14988.79
399.90	14963.04
400.09	14998.15
400.28	14902.19
400.47	15012.20
400.67	15719.04
400.86	16269.06
401.05	16058.42
401.24	16442.26
401.44	16730.15
401.63	16325.24
401.82	16322.90
402.01	16453.97
402.21	16772.28
402.40	16936.12
402.59	16280.77
402.78	15602.01
402.97	15187.74
403.17	15709.68
403.36	16517.16
403.55	17280.18
403.74	17696.79
403.93	16889.31
404.13	15389.02
404.32	15227.53
404.51	15892.24
404.70	17043.78
404.89	16936.12
405.09	16842.50
405.28	16343.96
405.47	16114.59
405.66	16393.11
405.85	16079.48
406.05	15449.88
406.24	15800.96
406.43	16325.24
406.62	17034.42
406.81	17034.42
407.00	16123.95
407.20	15826.70
407.39	16081.82
407.58	17188.89
407.77	17759.98
407.96	17816.16
408.15	18370.86
408.34	18408.31
408.54	19300.06
408.73	19229.84
408.92	19218.14
409.11	18436.40
409.30	17537.63
409.49	16727.81
409.68	15538.82
409.87	15044.96
410.07	15950.75
410.26	17006.33
410.45	18202.35
410.64	18609.60
410.83	19281.33
411.02	19431.13
411.21	20800.34
411.40	20025.62
411.59	20460.96
411.78	20006.90
411.98	19941.36
412.17	20430.54
412.36	19599.65
412.55	19800.93
412.74	19405.38
412.93	19180.69
413.12	19229.84
413.31	21263.77
413.50	21404.20
413.69	21551.65
413.88	21081.21
414.07	20306.49
414.26	20662.25
414.45	21142.06
414.64	21415.90
414.83	21481.44
415.02	21167.80
415.22	20783.96
415.41	21486.12
415.60	21994.01
415.79	22967.68
415.98	23484.94
416.17	23644.09
416.36	23026.19
416.55	22752.35
416.74	21551.65
416.93	21062.48
417.12	20980.56
417.31	21308.24
417.50	21645.27
417.69	22405.95
417.88	22192.96
418.07	22204.66
418.26	21692.08
418.45	21731.87
418.64	22597.87
418.83	23414.72
419.02	23337.48
419.21	22829.59
419.39	21788.05
419.58	20891.62
419.77	20858.85
419.96	21837.20
420.15	23260.24
420.34	23927.30
420.53	24711.38
420.72	25207.57
420.91	24938.41
421.10	24521.79
421.29	24531.15
421.48	23889.85
421.67	24575.62
421.86	24140.29
422.05	22562.76
422.24	20046.69
422.43	19873.49
422.61	22008.06
422.80	23784.52
422.99	23910.91
423.18	22845.97
423.37	22558.08
423.56	22541.70
423.75	22815.54
423.94	23356.21
424.13	21844.22
424.32	22305.31
424.50	22258.49
424.69	21860.60
424.88	22141.47
425.07	22375.52
425.26	22050.19
425.45	22108.70
425.64	21310.58
425.83	21256.75
426.01	22831.93
426.20	23229.82
426.39	23503.66
426.58	21579.74
426.77	19850.08
426.96	18960.68
427.15	19716.67
427.33	21860.60
427.52	22501.91
427.71	22422.33
427.90	22022.10
428.09	22204.66
428.28	21532.93
428.46	20573.31
428.65	20334.57
428.84	20858.85
429.03	21528.25
429.22	20217.55
429.40	19178.35
429.59	17209.96
429.78	15176.03
429.97	15510.73
430.16	15737.76
430.34	15667.55
430.53	15524.77
430.72	15990.54
430.91	17603.17
431.10	20706.72
431.28	24250.29
431.47	26272.51
431.66	26962.97
431.85	24610.73
432.03	22237.43
432.22	21228.66
432.41	22190.62
432.60	24360.30
432.79	25495.46
432.97	26628.27
433.16	25603.12
433.35	23728.35
433.54	21085.89
433.72	19648.80
433.91	20121.59
434.10	22946.61
434.28	24121.56
434.47	25612.48
434.66	25406.52
434.85	24496.05
435.03	24421.15
435.22	24964.15
435.41	26642.32
435.59	26934.88
435.78	27166.60
435.97	27641.73
436.16	27665.13
436.34	27536.40
436.53	26951.27
436.72	27154.90
436.90	25575.03
437.09	25214.59
437.28	24816.70
437.46	25965.90
437.65	25804.41
437.84	24283.06
438.02	22120.40
438.21	21797.41
438.40	23204.07
438.58	25083.52
438.77	25825.47
438.96	26005.69
439.14	27002.76
439.33	27725.99
439.52	28065.36
439.70	27580.87
439.89	26857.65
440.08	26504.23
440.26	25687.38
440.45	27021.48
440.63	28748.80
440.82	30286.53
441.01	29825.45
441.19	29532.88
441.38	29914.39
441.57	31140.83
441.75	31463.82
441.94	31798.52
442.12	31318.71
442.31	32002.14
442.50	32046.62
442.68	31779.79
442.87	31519.99
443.05	30712.51
443.24	31307.01
443.43	31618.30
443.61	32460.89
443.80	32774.52
443.98	30834.22
444.17	30469.09
444.35	32872.82
444.54	33076.45
444.73	32779.20
444.91	31735.32
445.10	29944.81
445.28	29027.32
445.47	28425.81
445.65	28765.18
445.84	29415.85
446.02	30216.32
446.21	31002.74
446.39	31061.25
446.58	31068.27
446.77	31606.59
446.95	31864.05
447.14	33076.45
447.32	33642.86
447.51	32746.44
447.69	31791.50
447.88	30754.64
448.06	31288.28
448.25	32063.00
448.43	32463.23
448.62	31812.56
448.80	31578.51
448.99	31835.97
449.17	32730.05
449.36	32243.22
449.54	33352.63
449.73	33890.96
449.91	34213.95
450.10	35096.33
450.28	36051.27
450.46	35503.59
450.65	35826.58
450.83	35103.35
451.02	34110.97
451.20	34298.21
451.39	34417.58
451.57	34291.19
451.76	34335.66
451.94	34249.06
452.13	33434.55
452.31	32067.68
452.49	30429.30
452.68	30628.25
452.86	30574.42
453.05	30918.48
453.23	31931.93
453.42	32601.32
453.60	33790.31
453.78	34415.24
453.97	33668.61
454.15	33532.86
454.34	32694.94
454.52	33001.55
454.70	32371.95
454.89	32760.48
455.07	32708.99
455.26	33357.32
455.44	34288.85
455.62	35475.50
455.81	35241.45
455.99	35304.64
456.17	34405.88
456.36	35049.52
456.54	36170.64
456.73	35597.21
456.91	36329.80
457.09	36472.57
457.28	37017.91
457.46	35480.18
457.64	35534.01
457.83	34600.14
458.01	33493.07
458.19	34726.53
458.38	34391.83
458.56	36229.15
458.74	35332.73
458.93	34574.39
459.11	34845.90
459.29	34600.14
459.48	34651.63
459.66	34986.33
459.84	35637.00
460.03	35089.31
460.21	35335.07
460.39	36245.54
460.57	36374.27
460.76	36732.37
460.94	36751.09
461.12	36233.83
461.31	36390.65
461.49	36140.21
461.67	36224.47
461.85	37399.42
462.04	37214.52
462.22	37713.05
462.40	37254.31
462.59	37195.79
462.77	37024.93
462.95	37329.20
463.13	36364.90
463.32	36409.37
463.50	36142.55
463.68	36336.82
463.86	35449.75
464.05	35573.80
464.23	35229.74
464.41	34911.43
464.59	34075.86
464.78	35990.42
464.96	36009.14
465.14	35295.28
465.32	36570.87
465.50	37240.26
465.69	37483.68
465.87	36753.43
466.05	35821.90
466.23	34511.20
466.41	33439.23
466.60	34742.91
466.78	34726.53
466.96	35040.16
467.14	35655.72
467.32	36055.95
467.51	36437.46
467.69	34387.15
467.87	35651.04
468.05	36048.93
468.23	35620.61
468.41	35587.85
468.60	35756.36
468.78	35754.02
468.96	35669.76
469.14	36591.94
469.32	36526.40
469.50	35309.32
469.69	35349.11
469.87	34651.63
470.05	34871.64
470.23	34955.90
470.41	34831.85
470.59	35730.62
470.77	35229.74
470.95	36308.73
471.14	36945.36
471.32	36542.78
471.50	38337.98
471.68	38431.60
471.86	39477.82
472.04	39475.48
472.22	39353.77
472.40	37336.23
472.58	37024.93
472.77	36727.69
472.95	37542.19
473.13	38295.85
473.31	37558.58
473.49	37214.52
473.67	38103.92
473.85	38684.37
474.03	39592.50
474.21	39335.04
474.39	39943.58
474.57	39971.67
474.75	39723.57
474.93	39571.44
475.12	38815.44
475.30	38941.83
475.48	39033.11
475.66	39721.23
475.84	38946.51
476.02	39075.24
476.20	38094.56
476.38	39189.93
476.56	40088.70
476.74	40587.23
476.92	41003.85
477.10	41617.07
477.28	42483.06
477.46	42522.85
477.64	43122.03
477.82	42686.69
478.00	43461.41
478.18	42944.15
478.36	42398.80
478.54	42438.59
478.72	42555.62
478.90	43531.62
479.08	44921.90
479.26	45059.99
479.44	45085.74
479.62	44814.24
479.80	44872.75
479.98	44957.01
480.16	45160.64
480.34	45109.14
480.52	45247.24
480.70	45464.91
480.88	45797.26
481.06	46525.17
481.24	46340.27
481.41	47461.38
481.59	47770.33
481.77	47789.06
481.95	47391.17
482.13	47054.13
482.31	47161.79
482.49	48088.65
482.67	47875.66
482.85	47875.66
483.03	48336.74
483.21	48903.15
483.39	49127.84
483.57	48470.15
483.74	47484.79
483.92	47988.00
484.10	48404.62
484.28	49008.48
484.46	49567.87
484.64	50087.46
484.82	49059.97
485.00	48495.90
485.18	47950.56
485.35	46548.57
485.53	43262.46
485.71	39533.99
485.89	38951.20
486.07	41088.10
486.25	44437.41
486.43	47028.38
486.61	47721.18
486.78	47524.58
486.96	47365.42
487.14	49151.25
487.32	50232.58
487.50	51201.56
487.68	51929.47
487.85	52406.94
488.03	52135.43
488.21	52102.67
488.39	51231.99
488.57	50717.07
488.75	50246.62
488.92	51271.78
489.10	53319.74
489.28	54656.19
489.46	55157.06
489.64	54787.26
489.81	55243.66
489.99	54698.32
490.17	55030.68
490.35	55182.81
490.53	54705.34
490.70	54309.79
490.88	54277.02
491.06	55173.45
491.24	55126.64
491.41	54281.70
491.59	52938.24
491.77	51901.38
491.95	53308.04
492.13	54284.04
492.30	55304.52
492.48	56133.07
492.66	56437.34
492.84	56435.00
493.01	56296.91
493.19	55723.47
493.37	55547.93
493.54	55037.70
493.72	55779.65
493.90	56498.19
494.08	57366.53
494.25	57439.09
494.43	57914.22
494.61	58052.31
494.79	58375.30
494.96	58038.26
495.14	57401.64
495.32	56432.66
495.49	56158.81
495.67	57148.86
495.85	58239.55
496.02	58520.41
496.20	58536.80
496.38	57925.92
496.55	57691.86
496.73	58511.05
496.91	58515.73
497.09	59075.12
497.26	59323.22
497.44	58623.40
497.62	58319.13
497.79	57364.19
497.97	56147.11
498.14	56144.77
498.32	57396.96
498.50	58260.62
498.67	58885.54
498.85	58679.57
499.03	58820.00
499.20	59217.89
499.38	58934.69
499.56	58890.22
499.73	58262.96
499.91	58174.02
500.08	57689.52
500.26	56999.07
500.44	57453.13
500.61	58085.07
500.79	57848.68
500.97	57572.50
501.14	57368.87
501.32	57305.68
501.49	57277.59
501.67	57434.41
501.84	57762.08
502.02	58340.19
502.20	58562.54
502.37	58541.48
502.55	58464.24
502.72	59061.08
502.90	59664.94
503.07	59311.52
503.25	59011.93
503.43	58293.38
503.60	57631.01
503.78	56900.76
503.95	57277.59
504.13	58632.76
504.30	59400.46
504.48	59185.13
504.65	58740.42
504.83	58894.90
505.01	59540.89
505.18	59826.43
505.36	60488.80
505.53	60444.33
505.71	60488.80
505.88	60640.94
506.06	60119.00
506.23	59800.69
506.41	59302.15
506.58	59583.02
506.76	59395.77
506.93	59611.10
507.11	59302.15
507.28	59395.77
507.46	59119.59
507.63	58684.25
507.81	58375.30
507.98	58571.91
508.16	59121.93
508.33	59716.43
508.50	59985.59
508.68	60360.08
508.85	60687.75
509.03	60465.40
509.20	60603.49
509.38	59924.74
509.55	59267.05
509.73	59348.96
509.90	59636.85
510.08	60058.15
510.25	59922.40
510.42	59487.06
510.60	59580.68
510.77	60020.70
510.95	60355.39
511.12	60385.82
511.30	60935.85
511.47	61034.15
511.64	61162.88
511.82	60783.71
511.99	59976.23
512.17	59585.36
512.34	59150.02
512.51	59379.39
512.69	59407.48
512.86	59592.38
513.04	59798.35
513.21	59999.63
513.38	59728.13
513.56	59147.68
513.73	58532.12
513.90	58993.20
514.08	58848.09
514.25	59150.02
514.43	59442.59
514.60	59442.59
514.77	59550.25
514.95	59613.44
515.12	59515.14
515.29	59880.27
515.47	60245.39
515.64	60563.70
515.81	60011.34
515.99	59428.54
516.16	58281.68
516.33	55908.38
516.51	54677.25
516.68	53996.16
516.85	53553.80
517.03	54049.99
517.20	56250.09
517.37	58688.93
517.54	59725.79
517.72	59222.58
517.89	57001.41
518.06	54571.93
518.24	54815.35
518.41	56954.60
518.58	58349.56
518.75	58506.37
518.93	58719.36
519.10	58548.50
519.27	59002.56
519.45	59182.79
519.62	59875.58
519.79	60104.96
519.96	59866.22
520.14	59852.18
520.31	58609.35
520.48	58569.57
520.65	59199.17
520.83	60135.38
521.00	60203.26
521.17	60175.17
521.34	59576.00
521.52	59929.42
521.69	60243.05
521.86	60968.61
522.03	60521.57
522.20	59391.09
522.38	58473.60
522.55	58370.62
522.72	58812.98
522.89	58965.12
523.07	59264.70
523.24	59533.87
523.41	60439.65
523.58	60460.72
523.75	61207.35
523.92	60830.52
524.10	60825.84
524.27	60907.76
524.44	60643.28
524.61	60547.32
524.78	60268.79
524.96	60198.58
525.13	60339.01
525.30	60467.74
525.47	60800.10
525.64	60853.93
525.81	60196.24
525.98	58920.65
526.16	57530.37
526.33	56757.99
526.50	56601.18
526.67	56154.13
526.84	56774.37
527.01	57764.42
527.18	58539.14
527.36	59346.62
527.53	60119.00
527.70	60186.88
527.87	59859.20
528.04	59517.48
528.21	59861.54
528.38	60589.45
528.55	60999.04
528.72	61127.77
528.89	61296.29
529.07	61162.88
529.24	60708.82
529.41	60081.55
529.58	59463.65
529.75	59416.84
529.92	59980.91
530.09	60327.31
530.26	60608.17
530.43	60994.36
530.60	60947.55
530.77	61326.72
530.94	61261.18
531.11	60734.56
531.28	60420.93
531.46	60336.67
531.63	60774.35
531.80	60434.97
531.97	60076.87
532.14	59290.45
532.31	58382.32
532.48	57553.77
532.65	57574.84
532.82	58239.55
532.99	59576.00
533.16	59592.38
533.33	60446.68
533.50	60465.40
533.67	59601.74
533.84	59278.75
534.01	59313.86
534.18	59742.17
534.35	59917.71
534.52	59601.74
534.69	59805.37
534.86	60196.24
535.03	60369.44
535.20	60844.57
535.37	61118.41
535.54	61240.12
535.71	60963.93
535.88	60530.93
536.05	59992.61
536.22	59669.62
536.38	59210.87
536.55	58810.64
536.72	58475.94
536.89	58152.95
537.06	59220.23
537.23	59997.29
537.40	59870.90
537.57	60109.64
537.74	59898.99
537.91	59891.97
538.08	59772.60
538.25	59620.47
538.42	60079.21
538.59	59985.59
538.75	59105.55
538.92	59016.61
539.09	58969.80
539.26	58759.15
539.43	58553.18
539.60	58511.05
539.77	58857.45
539.94	58731.06
540.11	57916.56
540.28	57504.62
540.44	57427.38
540.61	57937.62
540.78	57944.64
540.95	58520.41
541.12	58791.92
541.29	59070.44
541.46	59182.79
541.62	59159.38
541.79	59072.78
541.96	58555.52
542.13	58585.95
542.30	58745.11
542.47	58965.12
542.63	58773.19
542.80	58679.57
542.97	58717.02
543.14	58646.80
543.31	58693.61
543.48	59042.35
543.64	59859.20
543.81	60048.78
543.98	59859.20
544.15	59105.55
544.32	58688.93
544.48	58742.77
544.65	59290.45
544.82	59487.06
544.99	59110.23
545.16	58824.68
545.32	58569.57
545.49	59325.56
545.66	59751.54
545.83	59384.07
546.00	59089.16
546.16	58752.13
546.33	58838.73
546.50	58820.00
546.67	59276.41
546.83	58880.86
547.00	58918.31
547.17	58127.20
547.34	57806.55
547.50	57748.04
547.67	58035.92
547.84	58148.27
548.00	58417.43
548.17	58925.33
548.34	58780.21
548.51	58773.19
548.67	58855.11
548.84	58988.52
549.01	58887.88
549.18	58841.07
549.34	58721.70
549.51	58646.80
549.68	58749.79
549.84	58379.98
550.01	58262.96
550.18	58298.06
550.34	58284.02
550.51	58244.23
550.68	58419.77
550.84	57916.56
551.01	58272.32
551.18	58106.14
551.34	58195.08
551.51	58419.77
551.68	58599.99
551.84	58768.51
552.01	58595.31
552.18	58379.98
552.34	57663.78
552.51	57485.90
552.68	57153.54
552.84	57832.30
553.01	57918.90
553.18	57804.21
553.34	58019.54
553.51	58195.08
553.67	58333.17
553.84	58518.07
554.01	58333.17
554.17	58005.50
554.34	58300.40
554.51	58548.50
554.67	58623.40
554.84	58518.07
555.00	58141.25
555.17	57907.19
555.33	57876.77
555.50	58024.22
555.67	57954.00
555.83	57897.83
556.00	57600.58
556.16	57308.02
556.33	57343.12
556.50	56713.52
556.66	56699.48
556.83	56514.58
556.99	56818.84
557.16	56992.04
557.32	57317.38
557.49	57448.45
557.65	57415.68
557.82	57340.78
557.98	57073.96
558.15	56570.75
558.32	55936.46
558.48	54677.25
558.65	55484.74
558.81	55779.65
558.98	55894.33
559.14	56348.40
559.31	56212.65
559.47	56222.01
559.64	55899.01
559.80	55374.73
559.97	55463.67
560.13	55962.21
560.30	57052.90
560.46	57359.51
560.63	57731.65
560.79	57755.06
560.96	57174.61
561.12	56200.94
561.29	55011.95
561.45	55281.11
561.61	55868.59
561.78	56310.95
561.94	56264.14
562.11	56193.92
562.27	55849.86
562.44	56278.18
562.60	56694.80
562.77	56748.63
562.93	56664.37
563.10	56757.99
563.26	56060.51
563.42	55913.06
563.59	55655.60
563.75	56147.11
563.92	55856.88
564.08	55863.91
564.24	56200.94
564.41	56196.26
564.57	56097.96
564.74	56016.04
564.90	55746.88
565.07	55753.90
565.23	54962.80
565.39	54967.48
565.56	54548.53
565.72	54255.96
565.88	54499.37
566.05	54541.50
566.21	54705.34
566.38	55103.23
566.54	55217.92
566.70	55547.93
566.87	55620.49
567.03	55812.41
567.19	56009.02
567.36	55849.86
567.52	55255.37
567.68	55311.54
567.85	54656.19
568.01	54433.84
568.17	53738.70
568.34	53998.50
568.50	54080.42
568.66	54031.27
568.83	54536.82
568.99	54319.15
569.15	54602.36
569.32	54305.11
569.48	54314.47
569.64	54216.17
569.81	53928.28
569.97	53848.71
570.13	53794.87
570.30	52985.05
570.46	52863.34
570.62	52299.27
570.78	52186.92
570.95	52582.48
571.11	53048.24
571.27	53219.10
571.43	53687.21
571.60	54061.69
571.76	53902.54
571.92	54436.18
572.09	54457.24
572.25	54415.11
572.41	54270.00
572.57	54356.60
572.74	54351.92
572.90	53825.30
573.06	53825.30
573.22	53858.07
573.38	53930.62
573.55	53715.29
573.71	53986.80
573.87	53839.34
574.03	53666.14
574.20	53722.32
574.36	53385.28
574.52	53579.54
574.68	52968.66
574.84	52882.06
575.01	52191.61
575.17	51971.60
575.33	52559.07
575.49	52615.24
575.65	52636.31
575.82	52591.84
575.98	52470.13
576.14	52673.76
576.30	52982.71
576.46	52886.74
576.62	52795.46
576.79	52896.11
576.95	52648.01
577.11	52362.46
577.27	52598.86
577.43	52715.89
577.59	52222.03
577.75	51618.17
577.92	51229.65
578.08	50756.86
578.24	50981.55
578.40	51440.29
578.56	51618.17
578.72	51599.45
578.88	51800.74
579.04	52032.45
579.21	52025.43
579.37	52179.90
579.53	52317.99
579.69	52196.29
579.85	52547.37
580.01	52203.31
580.17	51592.43
580.33	51700.09
580.49	51868.61
580.65	51936.49
580.82	52282.89
580.98	52325.02
581.14	51847.55
581.30	52130.75
581.46	52069.90
581.62	52095.64
581.78	52121.39
581.94	52259.48
582.10	52215.01
582.26	52114.37
582.42	52034.79
582.58	52135.43
582.74	52273.52
582.90	52020.75
583.06	52149.48
583.22	51817.12
583.38	51774.99
583.54	51618.17
583.70	52016.07
583.86	51721.16
584.02	51922.44
584.18	51554.98
584.34	51758.61
584.50	51613.49
584.66	51498.81
584.82	51351.35
584.98	51185.18
585.14	50574.30
