SpectraSuite Data File
++++++++++++++++++++++++++++++++++++
Date: Fri Oct 04 11:44:23 GMT-05:00 2013
User: price-jones
Dark Spectrum Present: No
Reference Spectrum Present: No
Number of Sampled Component Spectra: 1
Spectrometers: USB2+H05261
Integration Time (usec): 100000 (USB2+H05261)
Spectra Averaged: 1 (USB2+H05261)
Boxcar Smoothing: 0 (USB2+H05261)
Correct for Electrical Dark: No (USB2+H05261)
Strobe/Lamp Enabled: No (USB2+H05261)
Correct for Detector Non-linearity: No (USB2+H05261)
Correct for Stray Light: No (USB2+H05261)
Number of Pixels in Processed Spectrum: 2048
>>>>>Begin Processed Spectral Data<<<<<
365.73	9.36
365.92	9.36
366.12	9.36
366.32	0.00
366.52	0.00
366.72	0.00
366.91	0.00
367.11	0.00
367.31	0.00
367.51	4.68
367.70	0.00
367.90	9.36
368.10	0.00
368.30	0.00
368.49	0.00
368.69	0.00
368.89	0.00
369.09	0.00
369.28	0.00
369.48	0.00
369.68	0.00
369.87	30.43
370.07	0.00
370.27	0.00
370.47	100.64
370.66	325.33
370.86	304.27
371.06	374.49
371.25	418.96
371.45	266.82
371.65	360.44
371.84	273.84
372.04	320.65
372.24	376.83
372.44	430.66
372.63	365.12
372.83	351.08
373.03	334.70
373.22	266.82
373.42	386.19
373.62	346.40
373.81	327.68
374.01	383.85
374.21	344.06
374.40	353.42
374.60	339.38
374.79	365.12
374.99	433.00
375.19	449.38
375.38	416.62
375.58	421.30
375.78	440.02
375.97	491.51
376.17	524.28
376.37	482.15
376.56	486.83
376.76	491.51
376.95	507.90
377.15	543.00
377.35	524.28
377.54	512.58
377.74	543.00
377.93	564.07
378.13	585.13
378.33	582.79
378.52	514.92
378.72	514.92
378.91	545.34
379.11	477.47
379.31	479.81
379.50	411.93
379.70	425.98
379.89	465.77
380.09	552.37
380.28	507.90
380.48	606.20
380.68	454.06
380.87	561.73
381.07	475.13
381.26	510.24
381.46	428.32
381.65	465.77
381.85	416.62
382.04	400.23
382.24	360.44
382.43	390.87
382.63	365.12
382.83	276.18
383.02	423.64
383.22	470.45
383.41	381.51
383.61	435.34
383.80	404.91
384.00	409.59
384.19	531.30
384.39	486.83
384.58	500.87
384.78	547.69
384.97	585.13
385.17	514.92
385.36	468.11
385.56	496.19
385.75	557.05
385.95	507.90
386.14	568.75
386.34	582.79
386.53	498.53
386.72	472.79
386.92	557.05
387.11	547.69
387.31	538.32
387.50	589.82
387.70	535.98
387.89	599.18
388.09	470.45
388.28	531.30
388.48	517.26
388.67	545.34
388.86	631.94
389.06	763.01
389.25	650.67
389.45	695.14
389.64	690.46
389.84	681.10
390.03	610.88
390.22	685.78
390.42	706.84
390.61	704.50
390.81	662.37
391.00	685.78
391.19	713.86
391.39	748.97
391.58	755.99
391.78	725.57
391.97	617.90
392.16	589.82
392.36	552.37
392.55	578.11
392.75	444.70
392.94	372.15
393.13	334.70
393.33	334.70
393.52	416.62
393.71	608.54
393.91	568.75
394.10	641.31
394.29	667.05
394.49	674.07
394.68	725.57
394.88	786.42
395.07	833.23
395.26	807.48
395.46	814.51
395.65	667.05
395.84	617.90
396.04	608.54
396.23	580.45
396.42	447.04
396.62	505.56
396.81	486.83
397.00	587.47
397.19	634.29
397.39	784.08
397.58	896.43
397.77	912.81
397.97	926.85
398.16	894.08
398.35	978.34
398.55	1057.92
398.74	1022.81
398.93	1100.05
399.12	1027.50
399.32	1055.58
399.51	950.26
399.70	997.07
399.90	940.90
400.09	1114.10
400.28	1081.33
400.47	1076.65
400.67	1123.46
400.86	1128.14
401.05	1046.22
401.24	1210.06
401.44	1142.18
401.63	1107.07
401.82	1181.97
402.01	1142.18
402.21	1060.26
402.40	1130.48
402.59	1156.22
402.78	1036.86
402.97	1039.20
403.17	1121.12
403.36	1221.76
403.55	1188.99
403.74	1177.29
403.93	1172.61
404.13	1153.88
404.32	1219.42
404.51	1240.48
404.70	1221.76
404.89	1177.29
405.09	1203.04
405.28	1224.10
405.47	1153.88
405.66	1139.84
405.85	1130.48
406.05	1090.69
406.24	1114.10
406.43	1207.72
406.62	1235.80
406.81	1254.53
407.00	1139.84
407.20	1177.29
407.39	1074.31
407.58	1228.78
407.77	1196.01
407.96	1324.74
408.15	1289.64
408.34	1224.10
408.54	1376.24
408.73	1387.94
408.92	1231.12
409.11	1203.04
409.30	1320.06
409.49	1135.16
409.68	1100.05
409.87	1076.65
410.07	1118.78
410.26	1135.16
410.45	1247.51
410.64	1313.04
410.83	1320.06
411.02	1378.58
411.21	1362.19
411.40	1500.28
411.59	1313.04
411.78	1324.74
411.98	1350.49
412.17	1399.64
412.36	1369.21
412.55	1317.72
412.74	1371.55
412.93	1427.73
413.12	1355.17
413.31	1399.64
413.50	1406.66
413.69	1490.92
413.88	1504.96
414.07	1401.98
414.26	1371.55
414.45	1432.41
414.64	1439.43
414.83	1425.39
415.02	1409.00
415.22	1462.83
415.41	1383.26
415.60	1474.54
415.79	1558.80
415.98	1528.37
416.17	1547.09
416.36	1416.02
416.55	1549.43
416.74	1528.37
416.93	1383.26
417.12	1324.74
417.31	1362.19
417.50	1441.77
417.69	1614.97
417.88	1490.92
418.07	1556.46
418.26	1493.26
418.45	1575.18
418.64	1547.09
418.83	1483.90
419.02	1579.86
419.21	1577.52
419.39	1462.83
419.58	1336.45
419.77	1458.15
419.96	1572.84
420.15	1607.95
420.34	1577.52
420.53	1598.59
420.72	1792.85
420.91	1647.74
421.10	1636.03
421.29	1657.10
421.48	1589.22
421.67	1652.42
421.86	1490.92
422.05	1497.94
422.24	1373.89
422.43	1376.24
422.61	1528.37
422.80	1570.50
422.99	1598.59
423.18	1554.12
423.37	1432.41
423.56	1502.62
423.75	1584.54
423.94	1556.46
424.13	1441.77
424.32	1399.64
424.50	1451.13
424.69	1556.46
424.88	1509.65
425.07	1451.13
425.26	1397.30
425.45	1469.86
425.64	1394.96
425.83	1425.39
426.01	1444.11
426.20	1483.90
426.39	1551.78
426.58	1427.73
426.77	1397.30
426.96	1345.81
427.15	1334.11
427.33	1427.73
427.52	1526.03
427.71	1561.14
427.90	1488.58
428.09	1476.88
428.28	1444.11
428.46	1472.20
428.65	1411.34
428.84	1380.92
429.03	1437.09
429.22	1273.25
429.40	1268.57
429.59	1188.99
429.78	1151.54
429.97	1121.12
430.16	1144.52
430.34	1137.50
430.53	1043.88
430.72	1081.33
430.91	1174.95
431.10	1268.57
431.28	1647.74
431.47	1682.85
431.66	1668.80
431.85	1671.14
432.03	1479.22
432.22	1509.65
432.41	1509.65
432.60	1678.16
432.79	1671.14
432.97	1717.95
433.16	1696.89
433.35	1561.14
433.54	1465.18
433.72	1355.17
433.91	1430.07
434.10	1481.56
434.28	1621.99
434.47	1621.99
434.66	1640.72
434.85	1647.74
435.03	1694.55
435.22	1942.64
435.41	2230.53
435.59	2258.62
435.78	2050.31
435.97	1844.34
436.16	1867.75
436.34	1811.57
436.53	1671.14
436.72	1806.89
436.90	1638.38
437.09	1713.27
437.28	1593.90
437.46	1600.93
437.65	1682.85
437.84	1652.42
438.02	1607.95
438.21	1420.71
438.40	1572.84
438.58	1624.33
438.77	1589.22
438.96	1743.70
439.14	1739.02
439.33	1788.17
439.52	1781.15
439.70	1877.11
439.89	1755.40
440.08	1713.27
440.26	1696.89
440.45	1863.07
440.63	1872.43
440.82	1980.09
441.01	2019.88
441.19	1914.56
441.38	1991.80
441.57	1980.09
441.75	1930.94
441.94	2078.40
442.12	2017.54
442.31	2076.06
442.50	1893.49
442.68	1923.92
442.87	1959.03
443.05	1909.88
443.24	1984.77
443.43	2143.93
443.61	1991.80
443.80	2038.61
443.98	1905.20
444.17	1959.03
444.35	2069.03
444.54	2094.78
444.73	2125.21
444.91	2010.52
445.10	2008.18
445.28	1891.15
445.47	1870.09
445.65	1891.15
445.84	1891.15
446.02	1989.46
446.21	1977.75
446.39	2045.63
446.58	1966.05
446.77	2115.84
446.95	2040.95
447.14	2155.63
447.32	2136.91
447.51	2160.31
447.69	2033.93
447.88	2045.63
448.06	2101.80
448.25	2150.95
448.43	2094.78
448.62	2031.58
448.80	2026.90
448.99	2059.67
449.17	2019.88
449.36	2076.06
449.54	2282.02
449.73	2275.00
449.91	2249.25
450.10	2195.42
450.28	2394.37
450.46	2363.94
450.65	2298.41
450.83	2293.72
451.02	2232.87
451.20	2230.53
451.39	2349.90
451.57	2104.14
451.76	2165.00
451.94	2214.15
452.13	2270.32
452.31	2183.72
452.49	1973.07
452.68	1949.67
452.86	2113.50
453.05	2165.00
453.23	2052.65
453.42	2078.40
453.60	2064.35
453.78	2197.76
453.97	2083.08
454.15	2165.00
454.34	2146.27
454.52	2165.00
454.70	2136.91
454.89	2214.15
455.07	2101.80
455.26	2134.57
455.44	2120.53
455.62	2410.75
455.81	2179.04
455.99	2361.60
456.17	2097.12
456.36	2242.23
456.54	2359.26
456.73	2218.83
456.91	2305.43
457.09	2380.32
457.28	2347.56
457.46	2195.42
457.64	2331.17
457.83	2228.19
458.01	2181.38
458.19	2181.38
458.38	2303.09
458.56	2310.11
458.74	2237.55
458.93	2251.60
459.11	2181.38
459.29	2136.91
459.48	2258.62
459.66	2272.66
459.84	2303.09
460.03	2443.52
460.21	2284.36
460.39	2396.71
460.57	2408.41
460.76	2354.58
460.94	2296.07
461.12	2349.90
461.31	2317.13
461.49	2218.83
461.67	2209.47
461.85	2338.20
462.04	2314.79
462.22	2923.33
462.40	2452.88
462.59	2347.56
462.77	2340.54
462.95	2326.49
463.13	2377.98
463.32	2324.15
463.50	2286.70
463.68	2370.96
463.86	2392.03
464.05	2349.90
464.23	2352.24
464.41	2335.85
464.59	2113.50
464.78	2249.25
464.96	2275.00
465.14	2298.41
465.32	2317.13
465.50	2328.83
465.69	2338.20
465.87	2326.49
466.05	2424.80
466.23	2150.95
466.41	2069.03
466.60	2176.70
466.78	2293.72
466.96	2279.68
467.14	2270.32
467.32	2363.94
467.51	2232.87
467.69	2277.34
467.87	2218.83
468.05	2333.51
468.23	2260.96
468.41	2368.62
468.60	2209.47
468.78	2272.66
468.96	2303.09
469.14	2319.47
469.32	2293.72
469.50	2143.93
469.69	2249.25
469.87	2190.74
470.05	2249.25
470.23	2162.66
470.41	2190.74
470.59	2293.72
470.77	2314.79
470.95	2415.43
471.14	2392.03
471.32	2342.88
471.50	2487.99
471.68	2490.33
471.86	2445.86
472.04	2579.27
472.22	2581.61
472.40	2427.14
472.58	2366.28
472.77	2291.38
472.95	2347.56
473.13	2485.65
473.31	2333.51
473.49	2380.32
473.67	2415.43
473.85	2473.95
474.03	2523.10
474.21	2513.74
474.39	2593.31
474.57	2401.39
474.75	2464.58
474.93	2539.48
475.12	2448.20
475.30	2478.63
475.48	2504.37
475.66	2431.82
475.84	2605.02
476.02	2392.03
476.20	2511.39
476.38	2516.08
476.56	2509.05
476.74	2499.69
476.92	2574.59
477.10	2691.62
477.28	2869.50
477.46	2663.53
477.64	2785.24
477.82	2712.68
478.00	2789.92
478.18	2562.89
478.36	2686.94
478.54	2745.45
478.72	2668.21
478.90	2759.49
479.08	2960.78
479.26	2939.71
479.44	2904.60
479.62	2862.48
479.80	2789.92
479.98	2899.92
480.16	2928.01
480.34	2857.79
480.52	2883.54
480.70	2965.46
480.88	2888.22
481.06	2942.05
481.24	2878.86
481.41	3075.46
481.59	3073.12
481.77	3075.46
481.95	3117.59
482.13	2944.39
482.31	3030.99
482.49	3098.87
482.67	3164.40
482.85	3082.49
483.03	3201.85
483.21	3091.85
483.39	3131.64
483.57	3162.06
483.74	3157.38
483.92	3066.10
484.10	3105.89
484.28	3288.45
484.46	3321.22
484.64	3279.09
484.82	3192.49
485.00	3171.43
485.18	3112.91
485.35	3033.33
485.53	2857.79
485.71	2614.38
485.89	2553.52
486.07	2560.55
486.25	2902.26
486.43	3073.12
486.61	3190.15
486.78	3131.64
486.96	3199.51
487.14	3213.56
487.32	3269.73
487.50	3342.28
487.68	3559.95
487.85	3536.55
488.03	3522.51
488.21	3574.00
488.39	3454.63
488.57	3449.95
488.75	3318.88
488.92	3653.58
489.10	3637.19
489.28	3850.18
489.46	3878.27
489.64	3847.84
489.81	3726.13
489.99	3861.88
490.17	3655.92
490.35	3815.07
490.53	3723.79
490.70	3845.50
490.88	3695.71
491.06	3805.71
491.24	3939.12
491.41	3779.97
491.59	3405.48
491.77	3545.91
491.95	3653.58
492.13	3667.62
492.30	3882.95
492.48	3988.27
492.66	3941.46
492.84	3955.51
493.01	4037.42
493.19	3843.16
493.37	3868.91
493.54	3805.71
493.72	3896.99
493.90	4032.74
494.08	3997.64
494.25	4093.60
494.43	4255.09
494.61	4243.39
494.79	4196.58
494.96	4135.73
495.14	4098.28
495.32	4124.02
495.49	3904.01
495.67	4004.66
495.85	4285.52
496.02	4250.41
496.20	4358.08
496.38	4269.14
496.55	4259.78
496.73	4318.29
496.91	4348.72
497.09	4355.74
497.26	4479.79
497.44	4449.36
497.62	4208.28
497.79	4175.52
497.97	4093.60
498.14	4093.60
498.32	4128.70
498.50	4255.09
498.67	4248.07
498.85	4212.96
499.03	4362.76
499.20	4248.07
499.38	4404.89
499.56	4348.72
499.73	4344.03
499.91	4404.89
500.08	4105.30
500.26	4063.17
500.44	4152.11
500.61	4173.18
500.79	4299.56
500.97	4079.55
501.14	4138.07
501.32	4081.89
501.49	4088.92
501.67	4114.66
501.84	4177.86
502.02	4320.63
502.20	4372.12
502.37	4243.39
502.55	4224.67
502.72	4191.90
502.90	4369.78
503.07	4346.37
503.25	4201.26
503.43	4007.00
503.60	3976.57
503.78	3943.80
503.95	3941.46
504.13	3969.55
504.30	4325.31
504.48	4454.04
504.65	4369.78
504.83	4351.06
505.01	4402.55
505.18	4505.53
505.36	4404.89
505.53	4437.66
505.71	4521.92
505.88	4671.71
506.06	4535.96
506.23	4454.04
506.41	4283.18
506.58	4432.97
506.76	4421.27
506.93	4409.57
507.11	4428.29
507.28	4440.00
507.46	4290.20
507.63	4376.80
507.81	4100.62
507.98	4100.62
508.16	4145.09
508.33	4421.27
508.50	4517.23
508.68	4496.17
508.85	4784.06
509.03	4559.36
509.20	4596.81
509.38	4564.04
509.55	4620.22
509.73	4383.82
509.90	4461.06
510.08	4603.83
510.25	4559.36
510.42	4468.08
510.60	4596.81
510.77	4519.57
510.95	4690.43
511.12	4753.63
511.30	4662.35
511.47	4760.65
511.64	4777.03
511.82	4688.09
511.99	4648.30
512.17	4535.96
512.34	4533.62
512.51	4400.21
512.69	4587.45
512.86	4624.90
513.04	4545.32
513.21	4582.77
513.38	4564.04
513.56	4657.67
513.73	4322.97
513.90	4386.16
514.08	4491.49
514.25	4451.70
514.43	4540.64
514.60	4596.81
514.77	4435.32
514.95	4475.10
515.12	4547.66
515.29	4407.23
515.47	4655.33
515.64	4770.01
515.81	4561.70
515.99	4545.32
516.16	4409.57
516.33	4079.55
516.51	3768.26
516.68	3639.53
516.85	3719.11
517.03	3644.21
517.20	3882.95
517.37	4416.59
517.54	4613.20
517.72	4491.49
517.89	4175.52
518.06	3786.99
518.24	3946.14
518.41	4180.20
518.58	4372.12
518.75	4400.21
518.93	4374.46
519.10	4451.70
519.27	4524.26
519.45	4512.55
519.62	4589.79
519.79	4671.71
519.96	4596.81
520.14	4620.22
520.31	4484.47
520.48	4620.22
520.65	4491.49
520.83	4746.61
521.00	4821.50
521.17	4667.03
521.34	4697.46
521.52	4723.20
521.69	4842.57
521.86	4863.63
522.03	4875.34
522.20	4643.62
522.38	4503.19
522.55	4465.74
522.72	4395.53
522.89	4526.60
523.07	4531.28
523.24	4585.11
523.41	4744.27
523.58	4975.98
523.75	4915.12
523.92	4828.53
524.10	4957.25
524.27	4884.70
524.44	4823.84
524.61	4746.61
524.78	4688.09
524.96	4702.14
525.13	4711.50
525.30	4842.57
525.47	4875.34
525.64	5036.83
525.81	4863.63
525.98	4542.98
526.16	4421.27
526.33	4390.84
526.50	4217.65
526.67	4032.74
526.84	4166.15
527.01	4400.21
527.18	4477.44
527.36	4571.07
527.53	4667.03
527.70	4856.61
527.87	4709.16
528.04	4706.82
528.21	4709.16
528.38	4877.68
528.55	5022.79
528.72	4987.68
528.89	5069.60
529.07	4877.68
529.24	4858.95
529.41	4823.84
529.58	4706.82
529.75	4575.75
529.92	4655.33
530.09	4676.39
530.26	4847.25
530.43	5048.54
530.60	4788.74
530.77	5027.47
530.94	5015.77
531.11	4936.19
531.28	4922.15
531.46	4760.65
531.63	4854.27
531.80	4901.08
531.97	4650.64
532.14	4575.75
532.31	4486.81
532.48	4472.76
532.65	4447.02
532.82	4552.34
532.99	4676.39
533.16	4727.88
533.33	4891.72
533.50	4917.47
533.67	4762.99
533.84	4631.92
534.01	4638.94
534.18	4641.28
534.35	4704.48
534.52	4751.29
534.69	4786.40
534.86	4844.91
535.03	4947.89
535.20	4985.34
535.37	4875.34
535.54	5111.73
535.71	5097.69
535.88	5130.45
536.05	4734.90
536.22	4739.58
536.38	4774.69
536.55	4620.22
536.72	4620.22
536.89	4428.29
537.06	4744.27
537.23	4779.37
537.40	4887.04
537.57	4891.72
537.74	4706.82
537.91	4915.12
538.08	4884.70
538.25	4887.04
538.42	4915.12
538.59	4814.48
538.75	4744.27
538.92	4720.86
539.09	4798.10
539.26	4650.64
539.43	4643.62
539.60	4727.88
539.77	4746.61
539.94	4784.06
540.11	4650.64
540.28	4531.28
540.44	4566.39
540.61	4638.94
540.78	4723.20
540.95	4957.25
541.12	4910.44
541.29	5081.30
541.46	5093.01
541.62	5153.86
541.79	5214.71
541.96	5048.54
542.13	4952.57
542.30	4994.70
542.47	5114.07
542.63	5020.45
542.80	4983.00
542.97	4985.34
543.14	4917.47
543.31	4943.21
543.48	4901.08
543.64	5102.37
543.81	5151.52
543.98	5144.50
544.15	5025.13
544.32	4957.25
544.48	4924.49
544.65	4968.96
544.82	5020.45
544.99	5018.11
545.16	5006.41
545.32	5006.41
545.49	5465.15
545.66	5874.74
545.83	6043.26
546.00	5879.43
546.16	5446.43
546.33	5090.67
546.50	5067.26
546.67	4966.62
546.83	4898.74
547.00	5004.07
547.17	4952.57
547.34	4720.86
547.50	4779.37
547.67	4702.14
547.84	4793.42
548.00	4685.75
548.17	4849.59
548.34	4798.10
548.51	4894.06
548.67	5013.43
548.84	4863.63
549.01	4856.61
549.18	4830.87
549.34	4842.57
549.51	4596.81
549.68	4723.20
549.84	4720.86
550.01	4652.98
550.18	4847.25
550.34	4741.93
550.51	4690.43
550.68	4622.56
550.84	4674.05
551.01	4568.73
551.18	4662.35
551.34	4559.36
551.51	4770.01
551.68	4844.91
551.84	4840.23
552.01	4744.27
552.18	4720.86
552.34	4573.41
552.51	4468.08
552.68	4599.15
552.84	4468.08
553.01	4510.21
553.18	4629.58
553.34	4627.24
553.51	4491.49
553.67	4704.48
553.84	4676.39
554.01	4674.05
554.17	4683.41
554.34	4545.32
554.51	4582.77
554.67	4732.56
554.84	4788.74
555.00	4575.75
555.17	4643.62
555.33	4454.04
555.50	4470.42
555.67	4491.49
555.83	4496.17
556.00	4428.29
556.16	4648.30
556.33	4428.29
556.50	4463.40
556.66	4409.57
556.83	4477.44
556.99	4297.22
557.16	4320.63
557.32	4292.54
557.49	4308.93
557.65	4465.74
557.82	4498.51
557.98	4493.83
558.15	4255.09
558.32	4287.86
558.48	4156.79
558.65	4112.32
558.81	4168.49
558.98	4135.73
559.14	4292.54
559.31	4294.88
559.47	4315.95
559.64	4308.93
559.80	4166.15
559.97	4159.13
560.13	4264.46
560.30	4208.28
560.46	4376.80
560.63	4580.43
560.79	4425.95
560.96	4540.64
561.12	4308.93
561.29	4201.26
561.45	4135.73
561.61	4234.03
561.78	4278.50
561.94	4290.20
562.11	4173.18
562.27	4128.70
562.44	4187.22
562.60	4379.14
562.77	4456.38
562.93	4217.65
563.10	4409.57
563.26	4229.35
563.42	4250.41
563.59	4236.37
563.75	4198.92
563.92	4393.19
564.08	4170.83
564.24	4301.90
564.41	4411.91
564.57	4142.75
564.74	4229.35
564.90	4217.65
565.07	4152.11
565.23	4053.81
565.39	4049.13
565.56	4194.24
565.72	3957.85
565.88	3950.82
566.05	4084.23
566.21	4086.58
566.38	4112.32
566.54	4140.41
566.70	4065.51
566.87	4231.69
567.03	4212.96
567.19	4140.41
567.36	4067.85
567.52	4147.43
567.68	4140.41
567.85	4011.68
568.01	3925.08
568.17	3878.27
568.34	3737.84
568.50	3803.37
568.66	3627.83
568.83	3978.91
568.99	3770.60
569.15	3840.82
569.32	3826.78
569.48	3859.54
569.64	3801.03
569.81	3838.48
569.97	3824.44
570.13	3850.18
570.30	3791.67
570.46	3779.97
570.62	3805.71
570.78	3684.00
570.95	3705.07
571.11	3810.39
571.27	3817.41
571.43	3866.56
571.60	3721.45
571.76	3880.61
571.92	3911.04
572.09	3878.27
572.25	3960.19
572.41	4042.11
572.57	3899.33
572.74	3901.67
572.90	3861.88
573.06	3913.38
573.22	3885.29
573.38	3836.14
573.55	3833.80
573.71	3847.84
573.87	3819.75
574.03	3702.73
574.20	3861.88
574.36	3735.50
574.52	3786.99
574.68	3822.09
574.84	3644.21
575.01	3749.54
575.17	3698.05
575.33	3765.92
575.49	3709.75
575.65	3707.41
575.82	3709.75
575.98	3627.83
576.14	3803.37
576.30	3763.58
576.46	3889.97
576.62	3836.14
576.79	4028.06
576.95	3969.55
577.11	3845.50
577.27	3822.09
577.43	3866.56
577.59	3967.21
577.75	3714.43
577.92	3609.11
578.08	3581.02
578.24	3456.97
578.40	3709.75
578.56	3943.80
578.72	3983.59
578.88	4004.66
579.04	3831.46
579.21	3943.80
579.37	3864.22
579.53	3894.65
579.69	3770.60
579.85	3817.41
580.01	3817.41
580.17	3812.73
580.33	3789.33
580.49	3845.50
580.65	3833.80
580.82	3681.66
580.98	3794.01
581.14	3859.54
581.30	3831.46
581.46	3819.75
581.62	3852.52
581.78	3840.82
581.94	3868.91
582.10	3920.40
582.26	3850.18
582.42	3981.25
582.58	3812.73
582.74	3971.89
582.90	4016.36
583.06	3829.12
583.22	3831.46
583.38	3812.73
583.54	3705.07
583.70	3805.71
583.86	3843.16
584.02	3751.88
584.18	3824.44
584.34	3742.52
584.50	3864.22
584.66	3716.77
584.82	3604.42
584.98	3604.42
585.14	3691.02
585.30	3688.68
585.46	3616.13
585.62	3522.51
585.78	3630.17
585.94	3648.90
586.10	3644.21
586.26	3681.66
586.42	3721.45
586.58	3749.54
586.74	3714.43
586.90	3630.17
587.06	3812.73
587.22	3707.41
587.38	3700.39
587.54	3655.92
587.70	3475.70
587.86	3375.05
588.02	3227.60
588.18	3166.74
588.34	3068.44
588.49	2848.43
588.65	2715.02
588.81	2569.91
588.97	2656.51
589.13	2616.72
589.29	2661.19
589.45	2677.57
589.61	2693.96
589.77	3016.95
589.93	2825.03
590.08	2984.18
590.24	3075.46
590.40	3108.23
590.56	3070.78
590.72	3000.57
590.88	3063.76
591.04	3033.33
591.20	3007.59
591.35	2995.89
591.51	2993.55
591.67	2925.67
591.83	2977.16
591.99	2991.20
592.15	2984.18
592.31	2984.18
592.46	3220.58
592.62	3108.23
592.78	3208.87
592.94	3152.70
593.10	3316.54
593.26	3227.60
593.41	3421.86
593.57	3148.02
593.73	3089.51
593.89	3087.17
594.05	3026.31
594.20	2906.95
594.36	2740.77
594.52	2745.45
594.68	2829.71
594.84	2918.65
594.99	2958.44
595.15	3080.14
595.31	3129.30
595.47	3187.81
595.62	3143.34
595.78	3049.72
595.94	3157.38
596.10	3028.65
596.25	3187.81
596.41	3021.63
596.57	2885.88
596.73	3178.45
596.88	3169.09
597.04	3239.30
597.20	3241.64
597.36	3012.27
597.51	3126.96
597.67	2979.50
597.83	3056.74
597.99	3236.96
