SpectraSuite Data File
++++++++++++++++++++++++++++++++++++
Date: Fri Oct 04 11:44:15 GMT-05:00 2013
User: price-jones
Dark Spectrum Present: No
Reference Spectrum Present: No
Number of Sampled Component Spectra: 1
Spectrometers: USB2+H05261
Integration Time (usec): 100000 (USB2+H05261)
Spectra Averaged: 1 (USB2+H05261)
Boxcar Smoothing: 0 (USB2+H05261)
Correct for Electrical Dark: No (USB2+H05261)
Strobe/Lamp Enabled: No (USB2+H05261)
Correct for Detector Non-linearity: No (USB2+H05261)
Correct for Stray Light: No (USB2+H05261)
Number of Pixels in Processed Spectrum: 2048
>>>>>Begin Processed Spectral Data<<<<<
365.73	42.13
365.92	42.13
366.12	42.13
366.32	0.00
366.52	0.00
366.72	0.00
366.91	0.00
367.11	0.00
367.31	0.00
367.51	0.00
367.70	0.00
367.90	0.00
368.10	0.00
368.30	0.00
368.49	0.00
368.69	0.00
368.89	0.00
369.09	0.00
369.28	0.00
369.48	0.00
369.68	0.00
369.87	0.00
370.07	0.00
370.27	58.51
370.47	236.39
370.66	664.71
370.86	826.21
371.06	854.30
371.25	898.77
371.45	854.30
371.65	678.76
371.84	727.91
372.04	725.57
372.24	636.63
372.44	807.48
372.63	823.87
372.83	779.40
373.03	676.41
373.22	629.60
373.42	688.12
373.62	737.27
373.81	866.00
374.01	800.46
374.21	746.63
374.40	683.44
374.60	716.20
374.79	788.76
374.99	966.64
375.19	933.87
375.38	952.60
375.58	961.96
375.78	912.81
375.97	898.77
376.17	961.96
376.37	954.94
376.56	950.26
376.76	1022.81
376.95	1083.67
377.15	1144.52
377.35	1245.16
377.54	1107.07
377.74	1235.80
377.93	1188.99
378.13	1291.98
378.33	1210.06
378.52	1039.20
378.72	1111.75
378.91	1078.99
379.11	992.39
379.31	1015.79
379.50	1018.13
379.70	1086.01
379.89	1102.39
380.09	1142.18
380.28	1205.38
380.48	1184.31
380.68	1198.35
380.87	1142.18
381.07	1081.33
381.26	1090.69
381.46	929.19
381.65	1008.77
381.85	891.74
382.04	901.11
382.24	863.66
382.43	826.21
382.63	763.01
382.83	727.91
383.02	779.40
383.22	812.17
383.41	828.55
383.61	814.51
383.80	901.11
384.00	1060.26
384.19	1158.57
384.39	1252.19
384.58	1142.18
384.78	1214.74
384.97	1191.33
385.17	1060.26
385.36	1074.31
385.56	1095.37
385.75	997.07
385.95	1132.82
386.14	1324.74
386.34	1172.61
386.53	1121.12
386.72	1139.84
386.92	1238.14
387.11	1153.88
387.31	1123.46
387.50	1137.50
387.70	1228.78
387.89	1184.31
388.09	1217.08
388.28	1156.22
388.48	1130.48
388.67	1247.51
388.86	1261.55
389.06	1432.41
389.25	1519.01
389.45	1474.54
389.64	1614.97
389.84	1535.39
390.03	1413.68
390.22	1516.67
390.42	1565.82
390.61	1638.38
390.81	1795.19
391.00	1788.17
391.19	1682.85
391.39	1657.10
391.58	1535.39
391.78	1540.07
391.97	1425.39
392.16	1247.51
392.36	1231.12
392.55	1036.86
392.75	868.34
392.94	777.06
393.13	725.57
393.33	894.08
393.52	1071.97
393.71	1205.38
393.91	1350.49
394.10	1378.58
394.29	1626.67
394.49	1589.22
394.68	1844.34
394.88	1816.26
395.07	1816.26
395.26	1783.49
395.46	1771.79
395.65	1692.21
395.84	1483.90
396.04	1317.72
396.23	1029.84
396.42	957.28
396.62	891.74
396.81	1039.20
397.00	1188.99
397.19	1528.37
397.39	1788.17
397.58	1935.62
397.77	1954.35
397.97	2073.71
398.16	2155.63
398.35	2260.96
398.55	2387.35
398.74	2502.03
398.93	2415.43
399.12	2375.64
399.32	2331.17
399.51	2527.78
399.70	2471.61
399.90	2541.82
400.09	2506.71
400.28	2518.42
400.47	2523.10
400.67	2558.21
400.86	2675.23
401.05	2693.96
401.24	2661.19
401.44	2696.30
401.63	2663.53
401.82	2602.68
402.01	2726.72
402.21	2703.32
402.40	2649.49
402.59	2619.06
402.78	2572.25
402.97	2560.55
403.17	2588.63
403.36	2733.75
403.55	2738.43
403.74	2855.45
403.93	2825.03
404.13	2609.70
404.32	2736.09
404.51	2754.81
404.70	2853.11
404.89	2810.98
405.09	2796.94
405.28	2630.76
405.47	2757.15
405.66	2768.85
405.85	2609.70
406.05	2605.02
406.24	2434.16
406.43	2764.17
406.62	2663.53
406.81	2869.50
407.00	2696.30
407.20	2544.16
407.39	2693.96
407.58	2766.51
407.77	2827.37
407.96	3045.04
408.15	2944.39
408.34	2956.10
408.54	3155.04
408.73	3124.62
408.92	3052.06
409.11	2965.46
409.30	2808.64
409.49	2698.64
409.68	2441.18
409.87	2520.76
410.07	2562.89
410.26	2693.96
410.45	2892.90
410.64	2918.65
410.83	3073.12
411.02	3178.45
411.21	3157.38
411.40	3145.68
411.59	3192.49
411.78	3110.57
411.98	3087.17
412.17	3253.34
412.36	3215.90
412.55	3068.44
412.74	3138.66
412.93	3063.76
413.12	3122.27
413.31	3346.97
413.50	3379.73
413.69	3370.37
413.88	3316.54
414.07	3180.79
414.26	3206.53
414.45	3316.54
414.64	3351.65
414.83	3330.58
415.02	3227.60
415.22	3316.54
415.41	3272.07
415.60	3487.40
415.79	3520.17
415.98	3618.47
416.17	3733.15
416.36	3578.68
416.55	3461.65
416.74	3485.06
416.93	3417.18
417.12	3424.20
417.31	3358.67
417.50	3442.93
417.69	3557.61
417.88	3576.34
418.07	3428.88
418.26	3536.55
418.45	3384.41
418.64	3501.44
418.83	3644.21
419.02	3571.66
419.21	3623.15
419.39	3431.23
419.58	3307.18
419.77	3234.62
419.96	3438.25
420.15	3655.92
420.34	3784.65
420.53	3864.22
420.72	3962.53
420.91	3904.01
421.10	3803.37
421.29	3822.09
421.48	3658.26
421.67	3786.99
421.86	3754.22
422.05	3480.38
422.24	3225.26
422.43	3234.62
422.61	3414.84
422.80	3665.28
422.99	3756.56
423.18	3660.60
423.37	3485.06
423.56	3517.83
423.75	3651.24
423.94	3595.06
424.13	3461.65
424.32	3592.72
424.50	3616.13
424.69	3529.53
424.88	3499.10
425.07	3363.35
425.26	3510.80
425.45	3487.40
425.64	3267.39
425.83	3290.79
426.01	3487.40
426.20	3602.08
426.39	3630.17
426.58	3471.01
426.77	3236.96
426.96	3019.29
427.15	3143.34
427.33	3262.71
427.52	3475.70
427.71	3403.14
427.90	3506.12
428.09	3494.42
428.28	3548.25
428.46	3356.33
428.65	3227.60
428.84	3344.63
429.03	3410.16
429.22	3185.47
429.40	3038.02
429.59	2665.87
429.78	2480.97
429.97	2436.50
430.16	2539.48
430.34	2525.44
430.53	2452.88
430.72	2668.21
430.91	2839.07
431.10	3220.58
431.28	3702.73
431.47	4056.15
431.66	3967.21
431.85	3871.25
432.03	3655.92
432.22	3398.46
432.41	3419.52
432.60	3932.10
432.79	3857.20
432.97	4060.83
433.16	4002.32
433.35	3679.32
433.54	3386.76
433.72	3192.49
433.91	3318.88
434.10	3604.42
434.28	3878.27
434.47	4072.53
434.66	4044.45
434.85	3857.20
435.03	3976.57
435.22	4311.27
435.41	5174.92
435.59	5327.06
435.78	5032.15
435.97	4683.41
436.16	4388.50
436.34	4245.73
436.53	4187.22
436.72	4119.34
436.90	3911.04
437.09	3920.40
437.28	3817.41
437.46	4004.66
437.65	3971.89
437.84	3831.46
438.02	3473.36
438.21	3433.57
438.40	3515.48
438.58	3852.52
438.77	3805.71
438.96	3978.91
439.14	4044.45
439.33	4170.83
439.52	4231.69
439.70	4273.82
439.89	4161.47
440.08	4105.30
440.26	4070.19
440.45	4035.08
440.63	4425.95
440.82	4599.15
441.01	4397.87
441.19	4526.60
441.38	4383.82
441.57	4685.75
441.75	4690.43
441.94	4994.70
442.12	4589.79
442.31	4844.91
442.50	4662.35
442.68	4662.35
442.87	4723.20
443.05	4727.88
443.24	4669.37
443.43	4620.22
443.61	4931.51
443.80	4952.57
443.98	4676.39
444.17	4571.07
444.35	4980.66
444.54	5032.15
444.73	4950.23
444.91	4772.35
445.10	4629.58
445.28	4388.50
445.47	4369.78
445.65	4428.29
445.84	4496.17
446.02	4512.55
446.21	4823.84
446.39	4784.06
446.58	4753.63
446.77	4767.67
446.95	4856.61
447.14	4964.28
447.32	5188.97
447.51	4983.00
447.69	4795.76
447.88	4784.06
448.06	4809.80
448.25	4987.68
448.43	4868.31
448.62	4667.03
448.80	4784.06
448.99	4926.83
449.17	4945.55
449.36	4894.06
449.54	5022.79
449.73	5179.61
449.91	5254.50
450.10	5329.40
450.28	5378.55
450.46	5369.19
450.65	5317.70
450.83	5439.40
451.02	5240.46
451.20	5275.57
451.39	5135.14
451.57	5132.79
451.76	5336.42
451.94	5137.48
452.13	5036.83
452.31	4814.48
452.49	4737.24
452.68	4713.84
452.86	4718.52
453.05	4699.80
453.23	4870.65
453.42	5076.62
453.60	5076.62
453.78	4997.04
453.97	5062.58
454.15	4980.66
454.34	4971.30
454.52	4978.32
454.70	4868.31
454.89	4940.87
455.07	4943.21
455.26	5144.50
455.44	5046.20
455.62	5404.30
455.81	5345.78
455.99	5130.45
456.17	5245.14
456.36	5036.83
456.54	5268.55
456.73	5315.36
456.91	5418.34
457.09	5268.55
457.28	5636.01
457.46	5345.78
457.64	5364.51
457.83	5032.15
458.01	5118.75
458.19	5301.31
458.38	5203.01
458.56	5352.81
458.74	5448.77
458.93	5296.63
459.11	5352.81
459.29	5198.33
459.48	5097.69
459.66	5242.80
459.84	5252.16
460.03	5284.93
460.21	5392.59
460.39	5359.83
460.57	5397.28
460.76	5561.11
460.94	5446.43
461.12	5364.51
461.31	5399.62
461.49	5399.62
461.67	5584.52
461.85	5701.54
462.04	5493.24
462.22	6127.52
462.40	5619.63
462.59	5432.38
462.77	5628.99
462.95	5654.73
463.13	5511.96
463.32	5509.62
463.50	5437.06
463.68	5390.25
463.86	5460.47
464.05	5310.68
464.23	5273.23
464.41	5200.67
464.59	5128.11
464.78	5441.75
464.96	5441.75
465.14	5259.18
465.32	5371.53
465.50	5549.41
465.69	5593.88
465.87	5528.35
466.05	5547.07
466.23	5107.05
466.41	5041.51
466.60	4987.68
466.78	5142.16
466.96	5275.57
467.14	5378.55
467.32	5418.34
467.51	5406.64
467.69	5235.78
467.87	5200.67
468.05	5263.86
468.23	5537.71
468.41	5394.93
468.60	5343.44
468.78	5514.30
468.96	5287.27
469.14	5481.53
469.32	5357.49
469.50	5205.35
469.69	5373.87
469.87	5366.85
470.05	5331.74
470.23	5275.57
470.41	5284.93
470.59	5200.67
470.77	5242.80
470.95	5383.23
471.14	5528.35
471.32	5535.37
471.50	5816.23
471.68	5682.82
471.86	5977.73
472.04	5813.89
472.22	5944.96
472.40	5636.01
472.58	5366.85
472.77	5556.43
472.95	5479.19
473.13	5713.25
473.31	5612.60
473.49	5387.91
473.67	5589.20
473.85	5753.04
474.03	5902.83
474.21	5839.64
474.39	5933.26
474.57	6066.67
474.75	5865.38
474.93	5984.75
475.12	5949.64
475.30	5713.25
475.48	5827.93
475.66	5874.74
475.84	5753.04
476.02	5830.27
476.20	5671.12
476.38	5891.13
476.56	5956.66
476.74	6125.18
476.92	6061.99
477.10	6111.14
477.28	6300.72
477.46	6352.21
477.64	6504.35
477.82	6464.56
478.00	6417.75
478.18	6218.80
478.36	6097.10
478.54	6230.51
478.72	6455.20
478.90	6464.56
479.08	6796.92
479.26	6885.86
479.44	6733.72
479.62	6759.47
479.80	6628.40
479.98	6780.53
480.16	6881.18
480.34	6855.43
480.52	6855.43
480.70	6689.25
480.88	6906.92
481.06	7077.78
481.24	6836.70
481.41	7222.89
481.59	7419.50
481.77	7349.28
481.95	6951.39
482.13	7136.29
482.31	7208.85
482.49	7351.62
482.67	7353.96
482.85	7365.67
483.03	7344.60
483.21	7548.23
483.39	7573.97
483.57	7377.37
483.74	7192.47
483.92	7318.86
484.10	7382.05
484.28	7599.72
484.46	7793.98
484.64	7667.60
484.82	7417.16
485.00	7375.03
485.18	7442.90
485.35	7222.89
485.53	6787.55
485.71	6300.72
485.89	5959.00
486.07	6237.53
486.25	6895.22
486.43	7052.03
486.61	7358.64
486.78	7339.92
486.96	7318.86
487.14	7564.61
487.32	7906.33
487.50	7936.76
487.68	8201.24
487.85	8313.58
488.03	8306.56
488.21	8381.46
488.39	8191.88
488.57	8070.17
488.75	7868.88
488.92	8365.07
489.10	8559.34
489.28	8741.90
489.46	9156.18
489.64	9104.68
489.81	9046.17
489.99	9181.92
490.17	9198.31
490.35	9291.93
490.53	9069.58
490.70	8807.44
490.88	8777.01
491.06	9156.18
491.24	9123.41
491.41	8861.27
491.59	8734.88
491.77	8374.44
491.95	8397.84
492.13	8908.08
492.30	9238.09
492.48	9469.81
492.66	9387.89
492.84	9231.07
493.01	9565.77
493.19	9390.23
493.37	9235.75
493.54	8999.36
493.72	9362.14
493.90	9715.56
494.08	9753.01
494.25	10104.09
494.43	9942.60
494.61	10045.58
494.79	9947.28
494.96	10017.49
495.14	10085.37
495.32	9540.02
495.49	9315.33
495.67	9767.06
495.85	10153.24
496.02	10251.55
496.20	10562.84
496.38	10265.59
496.55	9977.70
496.73	10359.21
496.91	10251.55
497.09	10609.65
497.26	10593.26
497.44	10375.59
497.62	10422.41
497.79	9970.68
497.97	9427.68
498.14	9701.52
498.32	9736.63
498.50	10061.96
498.67	10483.26
498.85	10113.45
499.03	10242.18
499.20	10523.05
499.38	10600.29
499.56	10207.08
499.73	10253.89
499.91	10193.03
500.08	9935.57
500.26	9661.73
500.44	9919.19
500.61	10059.62
500.79	10113.45
500.97	9902.81
501.14	10050.26
501.32	9884.08
501.49	9851.31
501.67	9731.95
501.84	10104.09
502.02	9980.04
502.20	10010.47
502.37	10045.58
502.55	10148.56
502.72	10270.27
502.90	10434.11
503.07	10200.05
503.25	9963.66
503.43	9603.22
503.60	9352.78
503.78	9338.74
503.95	9514.28
504.13	9823.23
504.30	10188.35
504.48	10153.24
504.65	10160.27
504.83	10396.66
505.01	10408.36
505.18	10590.92
505.36	10576.88
505.53	10640.08
505.71	10796.89
505.88	10953.71
506.06	10469.22
506.23	10572.20
506.41	10619.01
506.58	10480.92
506.76	10331.12
506.93	10410.70
507.11	10413.04
507.28	10551.14
507.46	10464.54
507.63	10139.20
507.81	10125.16
507.98	10019.83
508.16	10293.68
508.33	10616.67
508.50	10869.45
508.68	11000.52
508.85	11073.07
509.03	10932.64
509.20	10801.57
509.38	11040.31
509.55	10602.63
509.73	10541.77
509.90	10920.94
510.08	10677.52
510.25	10789.87
510.42	10743.06
510.60	10607.31
510.77	10888.17
510.95	11192.44
511.12	10897.53
511.30	10986.47
511.47	11609.06
511.64	11470.97
511.82	11403.09
511.99	10960.73
512.17	10874.13
512.34	10579.22
512.51	10684.55
512.69	10780.51
512.86	10843.70
513.04	10993.50
513.21	10979.45
513.38	11023.92
513.56	10609.65
513.73	10434.11
513.90	10569.86
514.08	10501.98
514.25	10602.63
514.43	10509.01
514.60	10904.56
514.77	10813.28
514.95	10850.72
515.12	10593.26
515.29	10932.64
515.47	11110.52
515.64	11208.83
515.81	10977.11
515.99	10810.93
516.16	10401.34
516.33	9626.62
516.51	9177.24
516.68	8940.85
516.85	8692.75
517.03	8903.40
517.20	9366.82
517.37	10289.00
517.54	10691.57
517.72	10707.95
517.89	9928.55
518.06	9226.39
518.24	9167.88
518.41	9853.66
518.58	10281.97
518.75	10279.63
518.93	10499.64
519.10	10375.59
519.27	10469.22
519.45	10778.17
519.62	10778.17
519.79	11206.48
519.96	10946.69
520.14	11019.24
520.31	10406.02
520.48	10588.58
520.65	10686.89
520.83	10995.84
521.00	11136.27
521.17	11005.20
521.34	10944.34
521.52	10991.16
521.69	11300.11
521.86	11564.59
522.03	11094.14
522.20	10745.40
522.38	10539.43
522.55	10331.12
522.72	10417.72
522.89	10729.02
523.07	10764.12
523.24	10986.47
523.41	11185.42
523.58	11119.89
523.75	11426.50
523.92	11492.03
524.10	11337.56
524.27	11524.80
524.44	11400.75
524.61	11360.96
524.78	11101.16
524.96	11044.99
525.13	11180.74
525.30	11318.83
525.47	11501.39
525.64	11318.83
525.81	11211.17
525.98	10693.91
526.16	10190.69
526.33	10012.81
526.50	9963.66
526.67	9479.17
526.84	9827.91
527.01	10153.24
527.18	10499.64
527.36	10916.26
527.53	10927.96
527.70	11173.72
527.87	10885.83
528.04	10956.05
528.21	11117.54
528.38	11173.72
528.55	11569.27
528.72	11779.92
528.89	11798.64
529.07	11812.68
529.24	11524.80
529.41	11267.34
529.58	10775.83
529.75	10761.78
529.92	10972.43
530.09	11152.65
530.26	11276.70
530.43	11496.71
530.60	11587.99
530.77	11344.58
530.94	11845.45
531.11	11784.60
531.28	11473.31
531.46	11267.34
531.63	11365.64
531.80	11480.33
531.97	11288.40
532.14	10775.83
532.31	10555.82
532.48	10038.56
532.65	10249.21
532.82	10459.85
532.99	10878.81
533.16	11052.01
533.33	11211.17
533.50	11360.96
533.67	10731.36
533.84	10890.51
534.01	10958.39
534.18	11066.05
534.35	11239.25
534.52	10906.90
534.69	10967.75
534.86	11283.72
535.03	11499.05
535.20	11426.50
535.37	11903.96
535.54	11728.42
535.71	11700.34
535.88	11590.33
536.05	11466.28
536.22	11396.07
536.38	11152.65
536.55	10913.92
536.72	10476.24
536.89	10377.94
537.06	10677.52
537.23	11105.84
537.40	11440.54
537.57	11129.25
537.74	11257.98
537.91	11290.74
538.08	11208.83
538.25	11173.72
538.42	11433.52
538.59	11321.17
538.75	11201.80
538.92	10963.07
539.09	10925.62
539.26	10986.47
539.43	10778.17
539.60	10740.72
539.77	11037.97
539.94	10897.53
540.11	10693.91
540.28	10647.10
540.44	10527.73
540.61	10726.68
540.78	10853.06
540.95	11077.76
541.12	11360.96
541.29	11543.52
541.46	11702.68
541.62	11667.57
541.79	11709.70
541.96	11506.07
542.13	11375.00
542.30	11513.10
542.47	11756.51
542.63	11573.95
542.80	11309.47
542.97	11346.92
543.14	11424.15
543.31	11183.08
543.48	11257.98
543.64	11836.09
543.81	12105.25
543.98	11815.02
544.15	11756.51
544.32	11690.98
544.48	11428.84
544.65	11520.12
544.82	11754.17
544.99	11564.59
545.16	11403.09
545.32	11515.44
545.49	12423.56
545.66	13542.34
545.83	14090.02
546.00	13502.55
546.16	12608.47
546.33	11791.62
546.50	11510.75
546.67	11676.93
546.83	11438.20
547.00	11515.44
547.17	11276.70
547.34	10867.11
547.50	10939.66
547.67	10988.82
547.84	10757.10
548.00	10958.39
548.17	11103.50
548.34	11349.26
548.51	11349.26
548.67	11126.91
548.84	11133.93
549.01	11129.25
549.18	10981.79
549.34	10984.13
549.51	10956.05
549.68	10963.07
549.84	10834.34
550.01	10862.43
550.18	10764.12
550.34	10761.78
550.51	10920.94
550.68	10829.66
550.84	10644.76
551.01	10609.65
551.18	10635.39
551.34	10693.91
551.51	10981.79
551.68	10949.03
551.84	11178.40
552.01	10832.00
552.18	10794.55
552.34	10520.71
552.51	10487.94
552.68	10387.30
552.84	10516.03
553.01	10626.03
553.18	10626.03
553.34	10602.63
553.51	10635.39
553.67	10960.73
553.84	10700.93
554.01	10672.84
554.17	10628.37
554.34	10698.59
554.51	10691.57
554.67	10820.30
554.84	10958.39
555.00	10899.87
555.17	10609.65
555.33	10431.77
555.50	10532.41
555.67	10642.42
555.83	10480.92
556.00	10424.75
556.16	10413.04
556.33	10188.35
556.50	10317.08
556.66	10134.52
556.83	10029.20
556.99	10094.73
557.16	9977.70
557.32	9989.41
557.49	10200.05
557.65	10333.47
557.82	10347.51
557.98	10181.33
558.15	10146.22
558.32	9837.27
558.48	9479.17
558.65	9331.72
558.81	9500.23
558.98	9713.22
559.14	9813.87
559.31	9753.01
559.47	9987.07
559.64	9666.41
559.80	9624.28
559.97	9834.93
560.13	9741.31
560.30	10010.47
560.46	10251.55
560.63	10401.34
560.79	10324.10
560.96	10368.57
561.12	9937.91
561.29	9685.14
561.45	9727.27
561.61	9727.27
561.78	10150.90
561.94	9926.21
562.11	9914.51
562.27	9776.42
562.44	9666.41
562.60	10033.88
562.77	10003.45
562.93	9998.77
563.10	10003.45
563.26	9923.87
563.42	9914.51
563.59	9673.43
563.75	9783.44
563.92	9877.06
564.08	9825.57
564.24	9540.02
564.41	9795.14
564.57	9954.30
564.74	9720.24
564.90	9881.74
565.07	9685.14
565.23	9430.02
565.39	9486.19
565.56	9273.20
565.72	9406.61
565.88	9448.74
566.05	9455.76
566.21	9441.72
566.38	9427.68
566.54	9502.58
566.70	9469.81
566.87	9741.31
567.03	9628.96
567.19	9776.42
567.36	9549.39
567.52	9401.93
567.68	9247.46
567.85	9207.67
568.01	8982.98
568.17	8753.60
568.34	8816.80
568.50	8798.07
568.66	8755.94
568.83	8915.10
568.99	8887.01
569.15	9039.15
569.32	9188.94
569.48	8908.08
569.64	8936.17
569.81	8821.48
569.97	8798.07
570.13	8709.13
570.30	8964.25
570.46	8769.99
570.62	8695.09
570.78	8634.24
570.95	8545.30
571.11	8678.71
571.27	8617.85
571.43	8847.22
571.60	8758.28
571.76	8723.18
571.92	8840.20
572.09	8997.02
572.25	8975.95
572.41	8919.78
572.57	9018.08
572.74	8924.46
572.90	9057.87
573.06	8870.63
573.22	8945.53
573.38	9001.70
573.55	8982.98
573.71	8999.36
573.87	8875.31
574.03	8826.16
574.20	8879.99
574.36	8636.58
574.52	8903.40
574.68	8697.43
574.84	8568.70
575.01	8451.67
575.17	8475.08
575.33	8510.19
575.49	8608.49
575.65	8657.64
575.82	8484.44
575.98	8245.71
576.14	8739.56
576.30	8596.79
576.46	8985.32
576.62	9114.05
576.79	8999.36
576.95	8975.95
577.11	8826.16
577.27	8905.74
577.43	8915.10
577.59	8645.94
577.75	8585.08
577.92	8542.96
578.08	8329.97
578.24	8299.54
578.40	8557.00
578.56	8746.58
578.72	8990.00
578.88	9263.84
579.04	9046.17
579.21	8816.80
579.37	8720.84
579.53	8549.98
579.69	8854.25
579.85	8786.37
580.01	8786.37
580.17	8823.82
580.33	8512.53
580.49	8587.43
580.65	8781.69
580.82	8809.78
580.98	8734.88
581.14	8772.33
581.30	8830.84
581.46	8711.47
581.62	8683.39
581.78	8767.65
581.94	8854.25
582.10	8915.10
582.26	8875.31
582.42	9097.66
582.58	8854.25
582.74	8837.86
582.90	8875.31
583.06	8622.53
583.22	8971.27
583.38	8992.34
583.54	8781.69
583.70	8699.77
583.86	8786.37
584.02	8943.19
584.18	8826.16
584.34	8887.01
584.50	8889.35
584.66	8622.53
584.82	8697.43
584.98	8601.47
585.14	8493.80
585.30	8482.10
585.46	8355.71
585.62	8205.92
585.78	8166.13
585.94	8105.28
586.10	8325.29
586.26	8463.38
586.42	8451.67
586.58	8475.08
586.74	8573.38
586.90	8435.29
587.06	8538.27
587.22	8566.36
587.38	8166.13
587.54	8098.25
587.70	8074.85
587.86	7770.58
588.02	7456.95
588.18	7386.73
588.34	6916.28
588.49	6469.24
588.65	6083.05
588.81	6066.67
588.97	6085.39
589.13	6001.13
589.29	6101.78
589.45	5820.91
589.61	6186.04
589.77	6335.83
589.93	6614.35
590.08	6967.77
590.24	6977.14
590.40	7194.81
590.56	7077.78
590.72	6977.14
590.88	6991.18
591.04	6967.77
591.20	7002.88
591.35	7063.74
591.51	6927.99
591.67	6897.56
591.83	6792.23
591.99	6848.41
592.15	6860.11
592.31	7105.87
592.46	7279.07
592.62	7314.17
592.78	7658.23
592.94	7421.84
593.10	7442.90
593.26	7459.29
593.41	7639.51
