SpectraSuite Data File
++++++++++++++++++++++++++++++++++++
Date: Fri Oct 04 11:44:27 GMT-05:00 2013
User: price-jones
Dark Spectrum Present: No
Reference Spectrum Present: No
Number of Sampled Component Spectra: 1
Spectrometers: USB2+H05261
Integration Time (usec): 100000 (USB2+H05261)
Spectra Averaged: 1 (USB2+H05261)
Boxcar Smoothing: 0 (USB2+H05261)
Correct for Electrical Dark: No (USB2+H05261)
Strobe/Lamp Enabled: No (USB2+H05261)
Correct for Detector Non-linearity: No (USB2+H05261)
Correct for Stray Light: No (USB2+H05261)
Number of Pixels in Processed Spectrum: 2048
>>>>>Begin Processed Spectral Data<<<<<
365.73	4.68
365.92	4.68
366.12	4.68
366.32	0.00
366.52	0.00
366.72	4.68
366.91	0.00
367.11	0.00
367.31	0.00
367.51	0.00
367.70	0.00
367.90	0.00
368.10	0.00
368.30	0.00
368.49	0.00
368.69	0.00
368.89	0.00
369.09	0.00
369.28	0.00
369.48	0.00
369.68	0.00
369.87	0.00
370.07	0.00
370.27	32.77
370.47	112.35
370.66	315.97
370.86	327.68
371.06	402.57
371.25	458.74
371.45	287.89
371.65	404.91
371.84	355.76
372.04	411.93
372.24	421.30
372.44	386.19
372.63	365.12
372.83	386.19
373.03	381.51
373.22	372.15
373.42	339.38
373.62	360.44
373.81	416.62
374.01	411.93
374.21	383.85
374.40	367.46
374.60	411.93
374.79	409.59
374.99	484.49
375.19	519.60
375.38	538.32
375.58	519.60
375.78	505.56
375.97	468.11
376.17	521.94
376.37	472.79
376.56	430.66
376.76	477.47
376.95	451.72
377.15	538.32
377.35	573.43
377.54	582.79
377.74	599.18
377.93	571.09
378.13	564.07
378.33	575.77
378.52	568.75
378.72	528.96
378.91	559.39
379.11	430.66
379.31	475.13
379.50	400.23
379.70	538.32
379.89	571.09
380.09	561.73
380.28	486.83
380.48	582.79
380.68	561.73
380.87	573.43
381.07	447.04
381.26	561.73
381.46	461.09
381.65	461.09
381.85	458.74
382.04	430.66
382.24	374.49
382.43	428.32
382.63	381.51
382.83	369.80
383.02	433.00
383.22	477.47
383.41	418.96
383.61	440.02
383.80	451.72
384.00	500.87
384.19	564.07
384.39	629.60
384.58	505.56
384.78	613.22
384.97	603.86
385.17	550.03
385.36	491.51
385.56	533.64
385.75	524.28
385.95	538.32
386.14	662.37
386.34	615.56
386.53	683.44
386.72	486.83
386.92	580.45
387.11	660.03
387.31	653.01
387.50	533.64
387.70	657.69
387.89	589.82
388.09	627.26
388.28	580.45
388.48	557.05
388.67	580.45
388.86	650.67
389.06	711.52
389.25	763.01
389.45	660.03
389.64	746.63
389.84	678.76
390.03	741.95
390.22	699.82
390.42	765.36
390.61	720.88
390.81	791.10
391.00	791.10
391.19	835.57
391.39	786.42
391.58	844.93
391.78	702.16
391.97	779.40
392.16	720.88
392.36	638.97
392.55	622.58
392.75	437.68
392.94	390.87
393.13	428.32
393.33	390.87
393.52	500.87
393.71	613.22
393.91	706.84
394.10	683.44
394.29	732.59
394.49	732.59
394.68	809.83
394.88	854.30
395.07	842.59
395.26	851.96
395.46	842.59
395.65	837.91
395.84	727.91
396.04	770.04
396.23	559.39
396.42	468.11
396.62	433.00
396.81	456.40
397.00	608.54
397.19	706.84
397.39	840.25
397.58	926.85
397.77	968.98
397.97	1013.45
398.16	1013.45
398.35	1135.16
398.55	1055.58
398.74	1174.95
398.93	1118.78
399.12	1069.62
399.32	1090.69
399.51	1121.12
399.70	1172.61
399.90	1109.41
400.09	1083.67
400.28	1137.50
400.47	1217.08
400.67	1249.85
400.86	1240.48
401.05	1294.32
401.24	1284.95
401.44	1299.00
401.63	1268.57
401.82	1357.51
402.01	1364.53
402.21	1299.00
402.40	1313.04
402.59	1254.53
402.78	1282.61
402.97	1139.84
403.17	1217.08
403.36	1273.25
403.55	1359.85
403.74	1273.25
403.93	1270.91
404.13	1315.38
404.32	1240.48
404.51	1282.61
404.70	1404.32
404.89	1329.42
405.09	1390.28
405.28	1205.38
405.47	1217.08
405.66	1334.11
405.85	1336.45
406.05	1177.29
406.24	1301.34
406.43	1284.95
406.62	1345.81
406.81	1320.06
407.00	1289.64
407.20	1252.19
407.39	1163.25
407.58	1270.91
407.77	1277.93
407.96	1432.41
408.15	1432.41
408.34	1336.45
408.54	1460.49
408.73	1533.05
408.92	1437.09
409.11	1282.61
409.30	1437.09
409.49	1296.66
409.68	1212.40
409.87	1130.48
410.07	1151.54
410.26	1355.17
410.45	1397.30
410.64	1420.71
410.83	1476.88
411.02	1474.54
411.21	1607.95
411.40	1497.94
411.59	1572.84
411.78	1568.16
411.98	1490.92
412.17	1570.50
412.36	1570.50
412.55	1481.56
412.74	1514.33
412.93	1476.88
413.12	1453.47
413.31	1521.35
413.50	1654.76
413.69	1502.62
413.88	1549.43
414.07	1453.47
414.26	1570.50
414.45	1481.56
414.64	1542.41
414.83	1483.90
415.02	1540.07
415.22	1441.77
415.41	1582.20
415.60	1640.72
415.79	1689.87
415.98	1720.29
416.17	1741.36
416.36	1741.36
416.55	1699.23
416.74	1722.63
416.93	1607.95
417.12	1547.09
417.31	1596.25
417.50	1666.46
417.69	1661.78
417.88	1689.87
418.07	1680.50
418.26	1523.69
418.45	1610.29
418.64	1710.93
418.83	1743.70
419.02	1708.59
419.21	1664.12
419.39	1764.76
419.58	1586.88
419.77	1556.46
419.96	1610.29
420.15	1664.12
420.34	1727.32
420.53	1797.53
420.72	1799.87
420.91	1849.02
421.10	1790.51
421.29	1778.81
421.48	1708.59
421.67	1820.94
421.86	1741.36
422.05	1781.15
422.24	1507.30
422.43	1540.07
422.61	1523.69
422.80	1753.06
422.99	1767.10
423.18	1694.55
423.37	1732.00
423.56	1654.76
423.75	1748.38
423.94	1741.36
424.13	1624.33
424.32	1596.25
424.50	1795.19
424.69	1659.44
424.88	1682.85
425.07	1643.06
425.26	1654.76
425.45	1682.85
425.64	1636.03
425.83	1551.78
426.01	1699.23
426.20	1760.08
426.39	1746.04
426.58	1596.25
426.77	1462.83
426.96	1467.52
427.15	1535.39
427.33	1638.38
427.52	1666.46
427.71	1687.53
427.90	1713.27
428.09	1579.86
428.28	1584.54
428.46	1504.96
428.65	1535.39
428.84	1582.20
429.03	1633.69
429.22	1558.80
429.40	1441.77
429.59	1362.19
429.78	1306.02
429.97	1174.95
430.16	1139.84
430.34	1181.97
430.53	1200.69
430.72	1228.78
430.91	1362.19
431.10	1500.28
431.28	1741.36
431.47	1884.13
431.66	1872.43
431.85	1689.87
432.03	1713.27
432.22	1591.56
432.41	1706.25
432.60	1762.42
432.79	1842.00
432.97	1893.49
433.16	1844.34
433.35	1699.23
433.54	1631.35
433.72	1497.94
433.91	1544.75
434.10	1617.31
434.28	1764.76
434.47	1834.98
434.66	1837.32
434.85	1863.07
435.03	1877.11
435.22	2080.74
435.41	2303.09
435.59	2445.86
435.78	2190.74
435.97	2157.97
436.16	2113.50
436.34	1940.30
436.53	2029.24
436.72	1984.77
436.90	1991.80
437.09	1856.04
437.28	1818.60
437.46	1863.07
437.65	1881.79
437.84	1856.04
438.02	1701.57
438.21	1640.72
438.40	1694.55
438.58	1797.53
438.77	1886.47
438.96	1844.34
439.14	1952.01
439.33	2012.86
439.52	2094.78
439.70	1994.14
439.89	2008.18
440.08	1912.22
440.26	1858.39
440.45	2059.67
440.63	2045.63
440.82	2211.81
441.01	2190.74
441.19	2148.61
441.38	2193.08
441.57	2209.47
441.75	2305.43
441.94	2251.60
442.12	2246.91
442.31	2310.11
442.50	2183.72
442.68	2090.10
442.87	2284.36
443.05	2349.90
443.24	2179.04
443.43	2298.41
443.61	2296.07
443.80	2275.00
443.98	2228.19
444.17	2160.31
444.35	2279.68
444.54	2387.35
444.73	2284.36
444.91	2237.55
445.10	2043.29
445.28	2057.33
445.47	2165.00
445.65	2040.95
445.84	2050.31
446.02	2221.17
446.21	2202.44
446.39	2122.87
446.58	2225.85
446.77	2246.91
446.95	2244.57
447.14	2424.80
447.32	2361.60
447.51	2375.64
447.69	2218.83
447.88	2260.96
448.06	2284.36
448.25	2197.76
448.43	2335.85
448.62	2230.53
448.80	2342.88
448.99	2249.25
449.17	2214.15
449.36	2258.62
449.54	2368.62
449.73	2387.35
449.91	2450.54
450.10	2511.39
450.28	2527.78
450.46	2537.14
450.65	2626.08
450.83	2422.45
451.02	2452.88
451.20	2431.82
451.39	2438.84
451.57	2413.09
451.76	2396.71
451.94	2452.88
452.13	2286.70
452.31	2370.96
452.49	2148.61
452.68	2176.70
452.86	2270.32
453.05	2319.47
453.23	2352.24
453.42	2216.49
453.60	2420.11
453.78	2553.52
453.97	2335.85
454.15	2420.11
454.34	2356.92
454.52	2349.90
454.70	2291.38
454.89	2363.94
455.07	2399.05
455.26	2352.24
455.44	2380.32
455.62	2527.78
455.81	2499.69
455.99	2485.65
456.17	2476.29
456.36	2546.50
456.54	2490.33
456.73	2483.31
456.91	2572.25
457.09	2628.42
457.28	2640.12
457.46	2555.86
457.64	2497.35
457.83	2363.94
458.01	2345.22
458.19	2417.77
458.38	2415.43
458.56	2541.82
458.74	2490.33
458.93	2417.77
459.11	2443.52
459.29	2443.52
459.48	2452.88
459.66	2534.80
459.84	2530.12
460.03	2525.44
460.21	2406.07
460.39	2574.59
460.57	2579.27
460.76	2633.10
460.94	2630.76
461.12	2574.59
461.31	2600.34
461.49	2588.63
461.67	2644.81
461.85	2576.93
462.04	2553.52
462.22	3152.70
462.40	2572.25
462.59	2466.92
462.77	2616.72
462.95	2672.89
463.13	2642.46
463.32	2626.08
463.50	2619.06
463.68	2441.18
463.86	2471.61
464.05	2483.31
464.23	2523.10
464.41	2506.71
464.59	2455.22
464.78	2537.14
464.96	2544.16
465.14	2457.56
465.32	2537.14
465.50	2605.02
465.69	2630.76
465.87	2607.36
466.05	2576.93
466.23	2523.10
466.41	2370.96
466.60	2420.11
466.78	2509.05
466.96	2527.78
467.14	2441.18
467.32	2649.49
467.51	2686.94
467.69	2410.75
467.87	2555.86
468.05	2534.80
468.23	2504.37
468.41	2633.10
468.60	2656.51
468.78	2633.10
468.96	2532.46
469.14	2567.57
469.32	2581.61
469.50	2520.76
469.69	2485.65
469.87	2434.16
470.05	2593.31
470.23	2443.52
470.41	2399.05
470.59	2480.97
470.77	2485.65
470.95	2602.68
471.14	2658.85
471.32	2677.57
471.50	2579.27
471.68	2782.90
471.86	2621.40
472.04	2818.00
472.22	2827.37
472.40	2633.10
472.58	2672.89
472.77	2541.82
472.95	2597.99
473.13	2679.91
473.31	2672.89
473.49	2670.55
473.67	2693.96
473.85	2663.53
474.03	2640.12
474.21	2876.52
474.39	2902.26
474.57	2930.35
474.75	2829.71
474.93	2724.38
475.12	2679.91
475.30	2642.46
475.48	2822.69
475.66	2810.98
475.84	2810.98
476.02	2708.00
476.20	2796.94
476.38	2700.98
476.56	2757.15
476.74	2855.45
476.92	2850.77
477.10	2874.18
477.28	3063.76
477.46	2874.18
477.64	3035.67
477.82	3096.53
478.00	2930.35
478.18	2951.42
478.36	3030.99
478.54	2986.52
478.72	3033.33
478.90	3073.12
479.08	3110.57
479.26	3129.30
479.44	3258.03
479.62	3166.74
479.80	3138.66
479.98	3150.36
480.16	3197.17
480.34	3183.13
480.52	3155.04
480.70	3138.66
480.88	3220.58
481.06	3152.70
481.24	3435.91
481.41	3550.59
481.59	3410.16
481.77	3454.63
481.95	3419.52
482.13	3407.82
482.31	3330.58
482.49	3405.48
482.67	3461.65
482.85	3396.12
483.03	3407.82
483.21	3637.19
483.39	3592.72
483.57	3384.41
483.74	3541.23
483.92	3410.16
484.10	3370.37
484.28	3478.04
484.46	3585.70
484.64	3588.04
484.82	3620.81
485.00	3410.16
485.18	3456.97
485.35	3473.36
485.53	3126.96
485.71	2953.76
485.89	2789.92
486.07	2923.33
486.25	3166.74
486.43	3309.52
486.61	3531.87
486.78	3503.78
486.96	3440.59
487.14	3517.83
487.32	3583.36
487.50	3808.05
487.68	3943.80
487.85	3819.75
488.03	3969.55
488.21	3852.52
488.39	3789.33
488.57	3721.45
488.75	3737.84
488.92	4056.15
489.10	3992.95
489.28	4201.26
489.46	4362.76
489.64	4372.12
489.81	4285.52
489.99	4203.60
490.17	4241.05
490.35	4337.01
490.53	4259.78
490.70	4180.20
490.88	4121.68
491.06	4154.45
491.24	4355.74
491.41	4098.28
491.59	4086.58
491.77	3744.86
491.95	3911.04
492.13	4035.08
492.30	4255.09
492.48	4402.55
492.66	4489.15
492.84	4465.74
493.01	4383.82
493.19	4374.46
493.37	4383.82
493.54	4348.72
493.72	4507.87
493.90	4297.22
494.08	4505.53
494.25	4524.26
494.43	4788.74
494.61	4692.77
494.79	4870.65
494.96	4802.78
495.14	4723.20
495.32	4463.40
495.49	4454.04
495.67	4498.51
495.85	4847.25
496.02	4746.61
496.20	4784.06
496.38	4702.14
496.55	4617.88
496.73	4660.01
496.91	4732.56
497.09	4952.57
497.26	4875.34
497.44	4821.50
497.62	4669.37
497.79	4648.30
497.97	4517.23
498.14	4550.00
498.32	4526.60
498.50	4732.56
498.67	4917.47
498.85	4734.90
499.03	4898.74
499.20	4844.91
499.38	4887.04
499.56	4912.78
499.73	4910.44
499.91	4669.37
500.08	4751.29
500.26	4575.75
500.44	4727.88
500.61	4676.39
500.79	4657.67
500.97	4671.71
501.14	4552.34
501.32	4587.45
501.49	4559.36
501.67	4596.81
501.84	4690.43
502.02	4770.01
502.20	4791.08
502.37	4795.76
502.55	4835.55
502.72	4816.82
502.90	4945.55
503.07	4854.27
503.25	4641.28
503.43	4594.47
503.60	4484.47
503.78	4327.65
503.95	4395.53
504.13	4599.15
504.30	4760.65
504.48	4816.82
504.65	4791.08
504.83	4793.42
505.01	4954.91
505.18	4854.27
505.36	5060.24
505.53	5034.49
505.71	5114.07
505.88	5359.83
506.06	5022.79
506.23	5057.90
506.41	4858.95
506.58	4840.23
506.76	5018.11
506.93	4875.34
507.11	4772.35
507.28	4753.63
507.46	4664.69
507.63	4791.08
507.81	4816.82
507.98	4650.64
508.16	4954.91
508.33	4880.02
508.50	5104.71
508.68	5069.60
508.85	5151.52
509.03	5195.99
509.20	4985.34
509.38	5104.71
509.55	4938.53
509.73	5008.75
509.90	5053.22
510.08	4997.04
510.25	5022.79
510.42	5029.81
510.60	4924.49
510.77	4924.49
510.95	5114.07
511.12	5179.61
511.30	5130.45
511.47	5355.15
511.64	5324.72
511.82	5296.63
511.99	5064.92
512.17	5036.83
512.34	5039.17
512.51	5032.15
512.69	5083.64
512.86	5111.73
513.04	5301.31
513.21	5125.77
513.38	5298.97
513.56	5034.49
513.73	5069.60
513.90	4891.72
514.08	4894.06
514.25	4903.42
514.43	4999.38
514.60	5114.07
514.77	5085.98
514.95	4999.38
515.12	5170.24
515.29	5125.77
515.47	5315.36
515.64	5413.66
515.81	5291.95
515.99	5217.05
516.16	4844.91
516.33	4564.04
516.51	4290.20
516.68	4051.47
516.85	4152.11
517.03	4177.86
517.20	4388.50
517.37	4741.93
517.54	5104.71
517.72	4943.21
517.89	4737.24
518.06	4269.14
518.24	4498.51
518.41	4688.09
518.58	4819.16
518.75	4807.46
518.93	4975.98
519.10	4880.02
519.27	5011.09
519.45	4990.02
519.62	5240.46
519.79	5315.36
519.96	5242.80
520.14	5027.47
520.31	5060.24
520.48	5064.92
520.65	5041.51
520.83	5090.67
521.00	5277.91
521.17	5177.26
521.34	5053.22
521.52	5268.55
521.69	5093.01
521.86	5301.31
522.03	5376.21
522.20	5078.96
522.38	5121.09
522.55	4891.72
522.72	4887.04
522.89	5135.14
523.07	5170.24
523.24	5071.94
523.41	5224.08
523.58	5301.31
523.75	5310.68
523.92	5493.24
524.10	5446.43
524.27	5495.58
524.44	5423.02
524.61	5378.55
524.78	5462.81
524.96	5371.53
525.13	5284.93
525.30	5310.68
525.47	5345.78
525.64	5521.32
525.81	5385.57
525.98	5088.32
526.16	4912.78
526.33	4636.60
526.50	4648.30
526.67	4550.00
526.84	4542.98
527.01	4910.44
527.18	4889.38
527.36	4990.02
527.53	5280.25
527.70	5305.99
527.87	5336.42
528.04	5231.10
528.21	5156.20
528.38	5383.23
528.55	5502.60
528.72	5563.45
528.89	5612.60
529.07	5640.69
529.24	5376.21
529.41	5357.49
529.58	5188.97
529.75	5355.15
529.92	5245.14
530.09	5305.99
530.26	5509.62
530.43	5401.96
530.60	5467.49
530.77	5497.92
530.94	5577.50
531.11	5533.03
531.28	5387.91
531.46	5476.85
531.63	5462.81
531.80	5434.72
531.97	5214.71
532.14	5249.82
532.31	5076.62
532.48	4844.91
532.65	4999.38
532.82	4819.16
532.99	5146.84
533.16	5406.64
533.33	5411.32
533.50	5373.87
533.67	5287.27
533.84	5219.39
534.01	5228.76
534.18	5385.57
534.35	5240.46
534.52	5242.80
534.69	5392.59
534.86	5476.85
535.03	5444.09
535.20	5617.29
535.37	5647.71
535.54	5727.29
535.71	5523.66
535.88	5329.40
536.05	5521.32
536.22	5413.66
536.38	5277.91
536.55	5193.65
536.72	5256.84
536.89	5043.85
537.06	5191.31
537.23	5380.89
537.40	5416.00
537.57	5507.28
537.74	5425.36
537.91	5345.78
538.08	5341.10
538.25	5416.00
538.42	5392.59
538.59	5497.92
538.75	5427.70
538.92	5277.91
539.09	5200.67
539.26	5214.71
539.43	5102.37
539.60	5111.73
539.77	5235.78
539.94	5291.95
540.11	5069.60
540.28	5013.43
540.44	4971.30
540.61	5151.52
540.78	5268.55
540.95	5273.23
541.12	5376.21
541.29	5572.82
541.46	5533.03
541.62	5572.82
541.79	5600.90
541.96	5404.30
542.13	5521.32
542.30	5378.55
542.47	5413.66
542.63	5640.69
542.80	5404.30
542.97	5514.30
543.14	5359.83
543.31	5245.14
543.48	5497.92
543.64	5682.82
543.81	5729.63
543.98	5591.54
544.15	5596.22
544.32	5474.51
544.48	5460.47
544.65	5430.04
544.82	5607.92
544.99	5603.24
545.16	5467.49
545.32	5439.40
545.49	5895.81
545.66	6384.98
545.83	6387.32
546.00	6153.27
546.16	5837.30
546.33	5561.11
546.50	5371.53
546.67	5341.10
546.83	5533.03
547.00	5383.23
547.17	5331.74
547.34	5261.52
547.50	5121.09
547.67	5273.23
547.84	5057.90
548.00	5350.46
548.17	5282.59
548.34	5408.98
548.51	5453.45
548.67	5294.29
548.84	5364.51
549.01	5441.75
549.18	5369.19
549.34	5273.23
549.51	5205.35
549.68	5336.42
549.84	5287.27
550.01	5184.29
550.18	5303.65
550.34	5156.20
550.51	5172.58
550.68	5273.23
550.84	5109.39
551.01	5200.67
551.18	5217.05
551.34	5210.03
551.51	5233.44
551.68	5242.80
551.84	5238.12
552.01	5125.77
552.18	5320.04
552.34	4966.62
552.51	5050.88
552.68	5013.43
552.84	5186.63
553.01	5219.39
553.18	5111.73
553.34	5132.79
553.51	5076.62
553.67	5261.52
553.84	5259.18
554.01	5184.29
554.17	5020.45
554.34	5081.30
554.51	5132.79
554.67	5142.16
554.84	5177.26
555.00	5156.20
555.17	5153.86
555.33	5013.43
555.50	5151.52
555.67	5069.60
555.83	4994.70
556.00	5060.24
556.16	5191.31
556.33	4896.40
556.50	4957.25
556.66	4870.65
556.83	4980.66
556.99	4903.42
557.16	4959.60
557.32	4868.31
557.49	4933.85
557.65	4945.55
557.82	5013.43
557.98	4894.06
558.15	4767.67
558.32	4842.57
558.48	4566.39
558.65	4685.75
558.81	4720.86
558.98	4603.83
559.14	4812.14
559.31	4669.37
559.47	4877.68
559.64	4732.56
559.80	4819.16
559.97	4765.33
560.13	4873.00
560.30	4812.14
560.46	4901.08
560.63	4964.28
560.79	5032.15
560.96	5043.85
561.12	4730.22
561.29	4662.35
561.45	4786.40
561.61	4737.24
561.78	4854.27
561.94	4954.91
562.11	4905.76
562.27	4770.01
562.44	4781.71
562.60	4706.82
562.77	4786.40
562.93	4884.70
563.10	4812.14
563.26	4643.62
563.42	4835.55
563.59	4758.31
563.75	4657.67
563.92	4741.93
564.08	4802.78
564.24	4748.95
564.41	4678.73
564.57	4741.93
564.74	4784.06
564.90	4634.26
565.07	4746.61
565.23	4594.47
565.39	4571.07
565.56	4636.60
565.72	4568.73
565.88	4503.19
566.05	4484.47
566.21	4514.89
566.38	4634.26
566.54	4830.87
566.70	4512.55
566.87	4704.48
567.03	4631.92
567.19	4716.18
567.36	4636.60
567.52	4559.36
567.68	4557.02
567.85	4447.02
568.01	4386.16
568.17	4308.93
568.34	4205.94
568.50	4177.86
568.66	4191.90
568.83	4156.79
568.99	4292.54
569.15	4430.63
569.32	4381.48
569.48	4266.80
569.64	4418.93
569.81	4351.06
569.97	4234.03
570.13	4255.09
570.30	4432.97
570.46	4301.90
570.62	4198.92
570.78	4086.58
570.95	4252.75
571.11	4212.96
571.27	4365.10
571.43	4198.92
571.60	4198.92
571.76	4245.73
571.92	4449.36
572.09	4461.06
572.25	4442.34
572.41	4402.55
572.57	4430.63
572.74	4390.84
572.90	4224.67
573.06	4329.99
573.22	4266.80
573.38	4337.01
573.55	4322.97
573.71	4421.27
573.87	4402.55
574.03	4353.40
574.20	4128.70
574.36	4154.45
574.52	4264.46
574.68	4327.65
574.84	4168.49
575.01	4081.89
575.17	4229.35
575.33	4156.79
575.49	4196.58
575.65	4215.30
575.82	4248.07
575.98	4227.01
576.14	4184.88
576.30	4245.73
576.46	4276.16
576.62	4346.37
576.79	4554.68
576.95	4311.27
577.11	4156.79
577.27	4196.58
577.43	4353.40
577.59	4252.75
577.75	4102.96
577.92	4049.13
578.08	4009.34
578.24	3969.55
578.40	4177.86
578.56	4278.50
578.72	4280.84
578.88	4362.76
579.04	4248.07
579.21	4393.19
579.37	4280.84
579.53	4264.46
579.69	4280.84
579.85	4325.31
580.01	4421.27
580.17	4175.52
580.33	4149.77
580.49	4217.65
580.65	4238.71
580.82	4285.52
580.98	4163.81
581.14	4273.82
581.30	4208.28
581.46	4231.69
581.62	4198.92
581.78	4266.80
581.94	4383.82
582.10	4290.20
582.26	4318.29
582.42	4395.53
582.58	4348.72
582.74	4388.50
582.90	4381.48
583.06	4407.23
583.22	4271.48
583.38	4243.39
583.54	4194.24
583.70	4358.08
583.86	4341.69
584.02	4252.75
584.18	4142.75
584.34	4201.26
584.50	4198.92
584.66	4133.39
584.82	4308.93
584.98	4198.92
585.14	4070.19
585.30	4098.28
585.46	3988.27
585.62	3932.10
585.78	3999.98
585.94	4042.11
586.10	3985.93
586.26	4086.58
586.42	4234.03
586.58	4170.83
586.74	4074.87
586.90	4095.94
587.06	4067.85
587.22	4194.24
587.38	4051.47
587.54	3915.72
587.70	3784.65
587.86	3824.44
588.02	3548.25
588.18	3517.83
588.34	3428.88
588.49	3267.39
588.65	3131.64
588.81	3033.33
588.97	2956.10
589.13	3075.46
589.29	2937.37
589.45	2920.99
589.61	3019.29
589.77	3194.83
589.93	3187.81
590.08	3358.67
590.24	3459.31
590.40	3447.61
590.56	3501.44
590.72	3358.67
590.88	3407.82
591.04	3363.35
591.20	3375.05
591.35	3389.10
591.51	3475.70
591.67	3297.81
591.83	3295.47
591.99	3316.54
592.15	3173.77
592.31	3398.46
592.46	3466.33
592.62	3630.17
592.78	3337.60
592.94	3508.46
593.10	3595.06
593.26	3721.45
593.41	3595.06
593.57	3574.00
593.73	3468.67
593.89	3246.32
594.05	3157.38
594.20	3068.44
594.36	3283.77
594.52	3119.93
594.68	3227.60
594.84	3258.03
594.99	3384.41
595.15	3501.44
595.31	3480.38
595.47	3482.72
595.62	3442.93
595.78	3398.46
595.94	3510.80
596.10	3463.99
596.25	3585.70
596.41	3419.52
596.57	3433.57
596.73	3391.44
596.88	3508.46
597.04	3574.00
597.20	3405.48
597.36	3508.46
597.51	3386.76
597.67	3487.40
597.83	3634.85
597.99	3454.63
