SpectraSuite Data File
++++++++++++++++++++++++++++++++++++
Date: Fri Oct 04 11:44:25 GMT-05:00 2013
User: price-jones
Dark Spectrum Present: No
Reference Spectrum Present: No
Number of Sampled Component Spectra: 1
Spectrometers: USB2+H05261
Integration Time (usec): 100000 (USB2+H05261)
Spectra Averaged: 1 (USB2+H05261)
Boxcar Smoothing: 0 (USB2+H05261)
Correct for Electrical Dark: No (USB2+H05261)
Strobe/Lamp Enabled: No (USB2+H05261)
Correct for Detector Non-linearity: No (USB2+H05261)
Correct for Stray Light: No (USB2+H05261)
Number of Pixels in Processed Spectrum: 2048
>>>>>Begin Processed Spectral Data<<<<<
365.73	25.75
365.92	25.75
366.12	25.75
366.32	0.00
366.52	0.00
366.72	0.00
366.91	0.00
367.11	0.00
367.31	0.00
367.51	0.00
367.70	0.00
367.90	0.00
368.10	0.00
368.30	0.00
368.49	0.00
368.69	0.00
368.89	23.41
369.09	0.00
369.28	0.00
369.48	9.36
369.68	0.00
369.87	0.00
370.07	0.00
370.27	0.00
370.47	107.66
370.66	325.33
370.86	461.09
371.06	557.05
371.25	514.92
371.45	528.96
371.65	437.68
371.84	411.93
372.04	414.27
372.24	554.71
372.44	500.87
372.63	503.22
372.83	454.06
373.03	409.59
373.22	442.36
373.42	482.15
373.62	498.53
373.81	433.00
374.01	505.56
374.21	498.53
374.40	512.58
374.60	491.51
374.79	468.11
374.99	753.65
375.19	566.41
375.38	617.90
375.58	627.26
375.78	587.47
375.97	617.90
376.17	751.31
376.37	720.88
376.56	589.82
376.76	683.44
376.95	685.78
377.15	716.20
377.35	685.78
377.54	814.51
377.74	669.39
377.93	739.61
378.13	791.10
378.33	779.40
378.52	720.88
378.72	660.03
378.91	709.18
379.11	615.56
379.31	634.29
379.50	585.13
379.70	671.73
379.89	741.95
380.09	709.18
380.28	713.86
380.48	695.14
380.68	690.46
380.87	638.97
381.07	688.12
381.26	643.65
381.46	610.88
381.65	550.03
381.85	521.94
382.04	463.43
382.24	559.39
382.43	418.96
382.63	528.96
382.83	468.11
383.02	486.83
383.22	442.36
383.41	486.83
383.61	470.45
383.80	594.50
384.00	613.22
384.19	709.18
384.39	709.18
384.58	702.16
384.78	802.80
384.97	732.59
385.17	634.29
385.36	669.39
385.56	622.58
385.75	622.58
385.95	744.29
386.14	718.54
386.34	734.93
386.53	763.01
386.72	645.99
386.92	657.69
387.11	730.25
387.31	690.46
387.50	732.59
387.70	634.29
387.89	709.18
388.09	767.70
388.28	767.70
388.48	683.44
388.67	798.12
388.86	908.13
389.06	868.34
389.25	870.68
389.45	919.83
389.64	1004.09
389.84	875.36
390.03	912.81
390.22	922.17
390.42	882.38
390.61	936.21
390.81	954.94
391.00	1064.94
391.19	1088.35
391.39	973.66
391.58	910.47
391.78	866.00
391.97	938.55
392.16	774.72
392.36	748.97
392.55	657.69
392.75	564.07
392.94	468.11
393.13	423.64
393.33	573.43
393.52	592.16
393.71	858.98
393.91	823.87
394.10	835.57
394.29	957.28
394.49	961.96
394.68	1153.88
394.88	1048.56
395.07	1123.46
395.26	1118.78
395.46	1025.15
395.65	1069.62
395.84	910.47
396.04	835.57
396.23	660.03
396.42	519.60
396.62	524.28
396.81	657.69
397.00	793.44
397.19	926.85
397.39	1036.86
397.58	1212.40
397.77	1137.50
397.97	1186.65
398.16	1320.06
398.35	1418.36
398.55	1369.21
398.74	1446.45
398.93	1519.01
399.12	1409.00
399.32	1341.13
399.51	1446.45
399.70	1455.81
399.90	1488.58
400.09	1481.56
400.28	1441.77
400.47	1465.18
400.67	1549.43
400.86	1516.67
401.05	1661.78
401.24	1659.44
401.44	1638.38
401.63	1633.69
401.82	1614.97
402.01	1549.43
402.21	1629.01
402.40	1640.72
402.59	1561.14
402.78	1540.07
402.97	1446.45
403.17	1528.37
403.36	1577.52
403.55	1680.50
403.74	1643.06
403.93	1717.95
404.13	1692.21
404.32	1713.27
404.51	1809.23
404.70	1879.45
404.89	1685.19
405.09	1631.35
405.28	1589.22
405.47	1540.07
405.66	1652.42
405.85	1488.58
406.05	1488.58
406.24	1500.28
406.43	1619.65
406.62	1570.50
406.81	1710.93
407.00	1596.25
407.20	1535.39
407.39	1593.90
407.58	1640.72
407.77	1659.44
407.96	1739.02
408.15	1764.76
408.34	1675.82
408.54	1776.47
408.73	1907.54
408.92	1851.36
409.11	1760.08
409.30	1783.49
409.49	1563.48
409.68	1575.18
409.87	1458.15
410.07	1561.14
410.26	1666.46
410.45	1675.82
410.64	1886.47
410.83	1767.10
411.02	1834.98
411.21	1893.49
411.40	1863.07
411.59	1895.83
411.78	1935.62
411.98	1877.11
412.17	1902.86
412.36	1888.81
412.55	1853.70
412.74	1856.04
412.93	1809.23
413.12	1790.51
413.31	1996.48
413.50	2008.18
413.69	1989.46
413.88	1973.07
414.07	1914.56
414.26	1996.48
414.45	1940.30
414.64	1959.03
414.83	1977.75
415.02	1933.28
415.22	1937.96
415.41	1935.62
415.60	2054.99
415.79	2162.66
415.98	2202.44
416.17	2202.44
416.36	2059.67
416.55	2174.36
416.74	1987.11
416.93	1895.83
417.12	2047.97
417.31	1914.56
417.50	1947.33
417.69	2162.66
417.88	2176.70
418.07	2076.06
418.26	1984.77
418.45	2064.35
418.64	2111.16
418.83	2204.78
419.02	2183.72
419.21	2157.97
419.39	2047.97
419.58	2029.24
419.77	1935.62
419.96	2104.14
420.15	2228.19
420.34	2181.38
420.53	2267.98
420.72	2310.11
420.91	2172.02
421.10	2221.17
421.29	2186.06
421.48	2225.85
421.67	2312.45
421.86	2193.08
422.05	2073.71
422.24	1846.68
422.43	1895.83
422.61	2015.20
422.80	2214.15
422.99	2298.41
423.18	2069.03
423.37	2176.70
423.56	2157.97
423.75	2066.69
423.94	2090.10
424.13	1975.41
424.32	2024.56
424.50	2071.37
424.69	2094.78
424.88	2024.56
425.07	2033.93
425.26	2069.03
425.45	2001.16
425.64	1944.99
425.83	1949.67
426.01	2153.29
426.20	2165.00
426.39	2167.34
426.58	1900.52
426.77	1849.02
426.96	1870.09
427.15	1853.70
427.33	1893.49
427.52	2012.86
427.71	2113.50
427.90	2010.52
428.09	1949.67
428.28	1914.56
428.46	1797.53
428.65	1895.83
428.84	1989.46
429.03	1914.56
429.22	1853.70
429.40	1746.04
429.59	1654.76
429.78	1528.37
429.97	1526.03
430.16	1486.24
430.34	1556.46
430.53	1486.24
430.72	1516.67
430.91	1699.23
431.10	1923.92
431.28	2181.38
431.47	2408.41
431.66	2335.85
431.85	2225.85
432.03	1989.46
432.22	2099.46
432.41	2118.18
432.60	2312.45
432.79	2368.62
432.97	2403.73
433.16	2370.96
433.35	2132.23
433.54	1865.41
433.72	1900.52
433.91	1928.60
434.10	2047.97
434.28	2282.02
434.47	2373.30
434.66	2399.05
434.85	2242.23
435.03	2445.86
435.22	2928.01
435.41	3534.21
435.59	3712.09
435.78	3428.88
435.97	2918.65
436.16	2565.23
436.34	2516.08
436.53	2499.69
436.72	2441.18
436.90	2258.62
437.09	2272.66
437.28	2214.15
437.46	2328.83
437.65	2272.66
437.84	2176.70
438.02	2115.84
438.21	2085.42
438.40	2155.63
438.58	2221.17
438.77	2324.15
438.96	2422.45
439.14	2356.92
439.33	2464.58
439.52	2480.97
439.70	2417.77
439.89	2431.82
440.08	2403.73
440.26	2415.43
440.45	2401.39
440.63	2539.48
440.82	2607.36
441.01	2670.55
441.19	2558.21
441.38	2642.46
441.57	2710.34
441.75	2752.47
441.94	2820.35
442.12	2719.70
442.31	2860.13
442.50	2883.54
442.68	2848.43
442.87	2736.09
443.05	2651.83
443.24	2906.95
443.43	2860.13
443.61	2813.32
443.80	2913.97
443.98	2785.24
444.17	2656.51
444.35	2792.26
444.54	2878.86
444.73	2878.86
444.91	2773.53
445.10	2656.51
445.28	2492.67
445.47	2487.99
445.65	2518.42
445.84	2724.38
446.02	2649.49
446.21	2792.26
446.39	2808.64
446.58	2841.41
446.77	2827.37
446.95	2874.18
447.14	2836.73
447.32	2916.31
447.51	2888.22
447.69	2832.05
447.88	2794.60
448.06	2780.56
448.25	2871.84
448.43	2951.42
448.62	2960.78
448.80	2806.30
448.99	2773.53
449.17	2899.92
449.36	2876.52
449.54	2913.97
449.73	2970.14
449.91	3143.34
450.10	3208.87
450.28	3300.16
450.46	3300.16
450.65	3126.96
450.83	3047.38
451.02	2942.05
451.20	3047.38
451.39	3000.57
451.57	3087.17
451.76	2972.48
451.94	2874.18
452.13	2864.82
452.31	2860.13
452.49	2672.89
452.68	2757.15
452.86	2897.58
453.05	2836.73
453.23	2892.90
453.42	2846.09
453.60	2993.55
453.78	2974.82
453.97	2881.20
454.15	2960.78
454.34	2979.50
454.52	2874.18
454.70	2853.11
454.89	2832.05
455.07	2876.52
455.26	2991.20
455.44	3112.91
455.62	3038.02
455.81	3101.21
455.99	3038.02
456.17	3012.27
456.36	3033.33
456.54	3199.51
456.73	3258.03
456.91	3124.62
457.09	3220.58
457.28	3356.33
457.46	3218.24
457.64	3222.92
457.83	3073.12
458.01	2855.45
458.19	3045.04
458.38	3103.55
458.56	3056.74
458.74	3098.87
458.93	3021.63
459.11	3047.38
459.29	2942.05
459.48	3145.68
459.66	3026.31
459.84	3185.47
460.03	3332.92
460.21	3094.19
460.39	3318.88
460.57	3187.81
460.76	3171.43
460.94	3311.86
461.12	3283.77
461.31	3227.60
461.49	3197.17
461.67	3077.80
461.85	3248.66
462.04	3178.45
462.22	3667.62
462.40	3485.06
462.59	3302.50
462.77	3269.73
462.95	3260.37
463.13	3225.26
463.32	3220.58
463.50	3119.93
463.68	3152.70
463.86	3145.68
464.05	3157.38
464.23	3091.85
464.41	3159.72
464.59	3005.25
464.78	3211.22
464.96	3260.37
465.14	2965.46
465.32	3110.57
465.50	3208.87
465.69	3300.16
465.87	3169.09
466.05	3253.34
466.23	2993.55
466.41	2892.90
466.60	3021.63
466.78	3026.31
466.96	3030.99
467.14	3035.67
467.32	3178.45
467.51	3155.04
467.69	3073.12
467.87	3171.43
468.05	3016.95
468.23	3293.13
468.41	3117.59
468.60	3213.56
468.78	3225.26
468.96	3122.27
469.14	3384.41
469.32	3171.43
469.50	3042.70
469.69	2984.18
469.87	3045.04
470.05	3030.99
470.23	3035.67
470.41	2904.60
470.59	3119.93
470.77	3119.93
470.95	3145.68
471.14	3171.43
471.32	3164.40
471.50	3339.94
471.68	3339.94
471.86	3386.76
472.04	3391.44
472.22	3503.78
472.40	3311.86
472.58	3286.11
472.77	3316.54
472.95	3162.06
473.13	3293.13
473.31	3241.64
473.49	3138.66
473.67	3323.56
473.85	3412.50
474.03	3421.86
474.21	3393.78
474.39	3527.19
474.57	3503.78
474.75	3417.18
474.93	3468.67
475.12	3337.60
475.30	3478.04
475.48	3323.56
475.66	3438.25
475.84	3358.67
476.02	3377.39
476.20	3272.07
476.38	3428.88
476.56	3538.89
476.74	3592.72
476.92	3471.01
477.10	3471.01
477.28	3604.42
477.46	3698.05
477.64	3733.15
477.82	3763.58
478.00	3609.11
478.18	3770.60
478.36	3693.37
478.54	3667.62
478.72	3824.44
478.90	3770.60
479.08	3918.06
479.26	4004.66
479.44	3857.20
479.62	3943.80
479.80	3723.79
479.98	3936.78
480.16	3978.91
480.34	4018.70
480.52	4002.32
480.70	3985.93
480.88	4018.70
481.06	3978.91
481.24	3943.80
481.41	4236.37
481.59	4177.86
481.77	4156.79
481.95	4243.39
482.13	4126.36
482.31	4121.68
482.49	4210.62
482.67	4205.94
482.85	4250.41
483.03	4327.65
483.21	4449.36
483.39	4468.08
483.57	4121.68
483.74	4381.48
483.92	4095.94
484.10	4341.69
484.28	4402.55
484.46	4400.21
484.64	4444.68
484.82	4362.76
485.00	4320.63
485.18	4292.54
485.35	4114.66
485.53	3892.31
485.71	3604.42
485.89	3597.40
486.07	3651.24
486.25	4051.47
486.43	4311.27
486.61	4355.74
486.78	4173.18
486.96	4248.07
487.14	4517.23
487.32	4505.53
487.50	4620.22
487.68	4762.99
487.85	4837.89
488.03	4875.34
488.21	4863.63
488.39	4676.39
488.57	4793.42
488.75	4589.79
488.92	4891.72
489.10	4973.64
489.28	5177.26
489.46	5350.46
489.64	5184.29
489.81	5282.59
489.99	5254.50
490.17	5210.03
490.35	5481.53
490.53	5184.29
490.70	5167.90
490.88	5095.35
491.06	5331.74
491.24	5331.74
491.41	5193.65
491.59	4922.15
491.77	4896.40
491.95	4968.96
492.13	5036.83
492.30	5350.46
492.48	5476.85
492.66	5556.43
492.84	5465.15
493.01	5483.88
493.19	5423.02
493.37	5394.93
493.54	5495.58
493.72	5423.02
493.90	5528.35
494.08	5612.60
494.25	5792.83
494.43	5764.74
494.61	5881.77
494.79	5820.91
494.96	5834.96
495.14	5664.10
495.32	5570.48
495.49	5565.79
495.67	5584.52
495.85	5867.72
496.02	5863.04
496.20	6066.67
496.38	5666.44
496.55	5809.21
496.73	5879.43
496.91	5727.29
497.09	6186.04
497.26	6153.27
497.44	5909.85
497.62	5788.14
497.79	5804.53
497.97	5528.35
498.14	5451.11
498.32	5614.95
498.50	5895.81
498.67	5863.04
498.85	5844.32
499.03	6073.69
499.20	6026.88
499.38	6115.82
499.56	5956.66
499.73	5849.00
499.91	5774.10
500.08	5811.55
500.26	5699.20
500.44	5795.17
500.61	5743.67
500.79	5797.51
500.97	5741.33
501.14	5664.10
501.32	5575.16
501.49	5579.84
501.67	5687.50
501.84	5743.67
502.02	5830.27
502.20	5849.00
502.37	5795.17
502.55	5881.77
502.72	5912.19
502.90	5968.37
503.07	5530.69
503.25	5706.23
503.43	5561.11
503.60	5420.68
503.78	5198.33
503.95	5465.15
504.13	5661.76
504.30	5909.85
504.48	5853.68
504.65	5746.02
504.83	5928.58
505.01	5778.78
505.18	6085.39
505.36	6033.90
505.53	6078.37
505.71	6160.29
505.88	6293.70
506.06	6132.20
506.23	6047.94
506.41	6017.52
506.58	6033.90
506.76	5900.49
506.93	5989.43
507.11	5926.24
507.28	5968.37
507.46	5827.93
507.63	5710.91
507.81	5650.05
507.98	5851.34
508.16	5907.51
508.33	5961.34
508.50	6054.97
508.68	6085.39
508.85	6384.98
509.03	6160.29
509.20	6216.46
509.38	6094.76
509.55	6097.10
509.73	6036.24
509.90	6174.33
510.08	6319.45
510.25	6153.27
510.42	6022.20
510.60	6092.41
510.77	6303.06
510.95	6209.44
511.12	6277.32
511.30	6579.25
511.47	6612.01
511.64	6647.12
511.82	6427.11
511.99	6242.21
512.17	6232.85
512.34	6106.46
512.51	6003.47
512.69	6122.84
512.86	6204.76
513.04	6207.10
513.21	6141.57
513.38	6080.71
513.56	5980.07
513.73	6017.52
513.90	6104.12
514.08	5947.30
514.25	6057.31
514.43	6012.84
514.60	6115.82
514.77	6108.80
514.95	6202.42
515.12	6150.93
515.29	6258.59
515.47	6277.32
515.64	6520.73
515.81	6267.95
515.99	6188.38
516.16	5755.38
516.33	5364.51
516.51	5308.34
516.68	5093.01
516.85	4945.55
517.03	5004.07
517.20	5504.94
517.37	5949.64
517.54	6239.87
517.72	6108.80
517.89	5526.00
518.06	5078.96
518.24	5284.93
518.41	5673.46
518.58	5919.21
518.75	5748.36
518.93	5954.32
519.10	6003.47
519.27	6097.10
519.45	6179.01
519.62	6155.61
519.79	6345.19
519.96	6286.68
520.14	6090.07
520.31	6104.12
520.48	6146.25
520.65	6040.92
520.83	6232.85
521.00	6314.77
521.17	6286.68
521.34	6225.82
521.52	6375.62
521.69	6392.00
521.86	6558.18
522.03	6513.71
522.20	6225.82
522.38	5849.00
522.55	5942.62
522.72	6003.47
522.89	6073.69
523.07	6104.12
523.24	6092.41
523.41	6256.25
523.58	6464.56
523.75	6436.47
523.92	6352.21
524.10	6471.58
524.27	6581.59
524.44	6476.26
524.61	6401.37
524.78	6366.26
524.96	6298.38
525.13	6347.53
525.30	6319.45
525.47	6518.39
525.64	6661.16
525.81	6195.40
525.98	6064.33
526.16	5703.89
526.33	5731.97
526.50	5617.29
526.67	5420.68
526.84	5638.35
527.01	5799.85
527.18	5975.39
527.36	6260.93
527.53	6370.94
527.70	6279.66
527.87	6223.48
528.04	6260.93
528.21	6249.23
528.38	6403.71
528.55	6572.22
528.72	6705.63
528.89	6764.15
529.07	6593.29
529.24	6511.37
529.41	6431.79
529.58	6209.44
529.75	6197.74
529.92	6258.59
530.09	6392.00
530.26	6518.39
530.43	6509.03
530.60	6539.46
530.77	6448.18
530.94	6757.13
531.11	6511.37
531.28	6567.54
531.46	6289.02
531.63	6534.78
531.80	6487.96
531.97	6235.19
532.14	6146.25
532.31	5912.19
532.48	5654.73
532.65	5830.27
532.82	5970.71
532.99	6256.25
533.16	6511.37
533.33	6583.93
533.50	6410.73
533.67	6274.98
533.84	6246.89
534.01	6104.12
534.18	6183.70
534.35	6263.27
534.52	6373.28
534.69	6354.55
534.86	6438.81
535.03	6354.55
535.20	6499.67
535.37	6722.02
535.54	6534.78
535.71	6602.65
535.88	6476.26
536.05	6359.24
536.22	6335.83
536.38	6174.33
536.55	6073.69
536.72	6003.47
536.89	6008.16
537.06	6305.40
537.23	6394.34
537.40	6441.15
537.57	6492.65
537.74	6431.79
537.91	6490.31
538.08	6565.20
538.25	6494.99
538.42	6511.37
538.59	6469.24
538.75	6445.84
538.92	6265.61
539.09	6483.28
539.26	6377.96
539.43	6148.59
539.60	6422.43
539.77	6326.47
539.94	6502.01
540.11	6221.14
540.28	6424.77
540.44	6438.81
540.61	6305.40
540.78	6478.60
540.95	6775.85
541.12	7101.19
541.29	7033.31
541.46	7360.98
541.62	7073.10
541.79	7236.94
541.96	6979.48
542.13	7040.33
542.30	7075.44
542.47	7108.21
542.63	6874.15
542.80	6839.05
542.97	7028.63
543.14	6829.68
543.31	6696.27
543.48	6991.18
543.64	7279.07
543.81	7288.43
543.98	7215.87
544.15	6965.43
544.32	6839.05
544.48	6942.03
544.65	6913.94
544.82	7131.61
544.99	6876.49
545.16	6724.36
545.32	6981.82
545.49	7641.85
545.66	8952.55
545.83	9380.87
546.00	9004.04
546.16	7969.52
546.33	7454.61
546.50	7014.59
546.67	6937.35
546.83	6827.34
547.00	6885.86
547.17	6483.28
547.34	6452.86
547.50	6509.03
547.67	6480.94
547.84	6609.67
548.00	6548.82
548.17	6586.27
548.34	6602.65
548.51	6487.96
548.67	6548.82
548.84	6459.88
549.01	6422.43
549.18	6539.46
549.34	6399.02
549.51	6387.32
549.68	6415.41
549.84	6296.04
550.01	6260.93
550.18	6349.87
550.34	6373.28
550.51	6377.96
550.68	6427.11
550.84	6061.99
551.01	6083.05
551.18	6232.85
551.34	6188.38
551.51	6260.93
551.68	6319.45
551.84	6649.46
552.01	6256.25
552.18	6345.19
552.34	5968.37
552.51	6080.71
552.68	5937.94
552.84	6071.35
553.01	6078.37
553.18	6134.54
553.34	6162.63
553.51	6132.20
553.67	6146.25
553.84	6225.82
554.01	6157.95
554.17	6218.80
554.34	5989.43
554.51	6057.31
554.67	6010.50
554.84	6122.84
555.00	6296.04
555.17	6005.81
555.33	5968.37
555.50	6125.18
555.67	5874.74
555.83	5963.68
556.00	5975.39
556.16	6076.03
556.33	5797.51
556.50	5900.49
556.66	5710.91
556.83	5851.34
556.99	5884.11
557.16	5666.44
557.32	5799.85
557.49	5865.38
557.65	5877.09
557.82	5905.17
557.98	5926.24
558.15	5832.62
558.32	5720.27
558.48	5483.88
558.65	5441.75
558.81	5511.96
558.98	5736.65
559.14	5540.05
559.31	5600.90
559.47	5837.30
559.64	5589.20
559.80	5612.60
559.97	5469.83
560.13	5603.24
560.30	5661.76
560.46	5806.87
560.63	5874.74
560.79	5926.24
560.96	5678.14
561.12	5650.05
561.29	5621.97
561.45	5497.92
561.61	5668.78
561.78	5591.54
561.94	5701.54
562.11	5547.07
562.27	5486.22
562.44	5659.42
562.60	5666.44
562.77	5813.89
562.93	5643.03
563.10	5755.38
563.26	5668.78
563.42	5530.69
563.59	5589.20
563.75	5631.33
563.92	5462.81
564.08	5689.84
564.24	5579.84
564.41	5551.75
564.57	5483.88
564.74	5483.88
564.90	5638.35
565.07	5434.72
565.23	5406.64
565.39	5338.76
565.56	5305.99
565.72	5245.14
565.88	5357.49
566.05	5263.86
566.21	5432.38
566.38	5448.77
566.54	5228.76
566.70	5404.30
566.87	5495.58
567.03	5406.64
567.19	5399.62
567.36	5451.11
567.52	5336.42
567.68	5359.83
567.85	5214.71
568.01	5093.01
568.17	4926.83
568.34	4908.10
568.50	5011.09
568.66	5029.81
568.83	5116.41
568.99	5006.41
569.15	5102.37
569.32	5071.94
569.48	4983.00
569.64	5020.45
569.81	5041.51
569.97	4990.02
570.13	5144.50
570.30	5027.47
570.46	4966.62
570.62	4870.65
570.78	4718.52
570.95	4873.00
571.11	5013.43
571.27	5029.81
571.43	5085.98
571.60	5074.28
571.76	5078.96
571.92	5006.41
572.09	5125.77
572.25	4994.70
572.41	5100.03
572.57	5085.98
572.74	4961.94
572.90	4924.49
573.06	5203.01
573.22	4964.28
573.38	5093.01
573.55	5029.81
573.71	5088.32
573.87	5025.13
574.03	5095.35
574.20	4994.70
574.36	4926.83
574.52	5025.13
574.68	4873.00
574.84	4924.49
575.01	4830.87
575.17	4858.95
575.33	4718.52
575.49	4971.30
575.65	4908.10
575.82	4791.08
575.98	4767.67
576.14	4973.64
576.30	4947.89
576.46	5179.61
576.62	5458.13
576.79	5511.96
576.95	5284.93
577.11	5160.88
577.27	5050.88
577.43	4938.53
577.59	5011.09
577.75	4823.84
577.92	4765.33
578.08	4634.26
578.24	4664.69
578.40	4896.40
578.56	5020.45
578.72	5378.55
578.88	5366.85
579.04	5219.39
579.21	5032.15
579.37	5022.79
579.53	4940.87
579.69	5041.51
579.85	5076.62
580.01	5102.37
580.17	5071.94
580.33	5011.09
580.49	4957.25
580.65	5018.11
580.82	4940.87
580.98	4940.87
581.14	4896.40
581.30	5032.15
581.46	5008.75
581.62	5104.71
581.78	5043.85
581.94	5313.02
582.10	5214.71
582.26	5172.58
582.42	5144.50
582.58	5078.96
582.74	5200.67
582.90	5174.92
583.06	5240.46
583.22	5036.83
583.38	5249.82
583.54	4961.94
583.70	5097.69
583.86	5104.71
584.02	5219.39
584.18	5055.56
584.34	5013.43
584.50	5165.56
584.66	5139.82
584.82	4898.74
584.98	4887.04
585.14	4798.10
585.30	4980.66
585.46	4837.89
585.62	4641.28
585.78	4713.84
585.94	4849.59
586.10	4704.48
586.26	4732.56
586.42	4777.03
586.58	4784.06
586.74	4973.64
586.90	5011.09
587.06	4741.93
587.22	4788.74
587.38	4863.63
587.54	4779.37
587.70	4634.26
587.86	4346.37
588.02	4297.22
588.18	4227.01
588.34	4065.51
588.49	3749.54
588.65	3517.83
588.81	3426.54
588.97	3510.80
589.13	3442.93
589.29	3424.20
589.45	3485.06
589.61	3417.18
589.77	3630.17
589.93	3679.32
590.08	3859.54
590.24	4077.21
590.40	4077.21
590.56	4145.09
590.72	3943.80
590.88	4084.23
591.04	4014.02
591.20	3995.29
591.35	3992.95
591.51	3873.59
591.67	3866.56
591.83	3871.25
591.99	3925.08
592.15	3960.19
592.31	4243.39
592.46	4308.93
592.62	4334.67
592.78	4294.88
592.94	4440.00
593.10	4301.90
593.26	4404.89
593.41	4484.47
593.57	4308.93
593.73	4182.54
593.89	3906.35
594.05	3871.25
594.20	3857.20
594.36	3789.33
594.52	3606.77
594.68	3674.64
594.84	3892.31
594.99	3997.64
595.15	4117.00
595.31	4004.66
595.47	4074.87
595.62	4084.23
595.78	4105.30
595.94	4243.39
596.10	4196.58
596.25	4173.18
596.41	4032.74
596.57	4002.32
596.73	4149.77
596.88	4086.58
597.04	4142.75
597.20	4049.13
597.36	3999.98
597.51	4053.81
597.67	3934.44
597.83	4107.64
