SpectraSuite Data File
++++++++++++++++++++++++++++++++++++
Date: Fri Oct 04 11:44:16 GMT-05:00 2013
User: price-jones
Dark Spectrum Present: No
Reference Spectrum Present: No
Number of Sampled Component Spectra: 1
Spectrometers: USB2+H05261
Integration Time (usec): 100000 (USB2+H05261)
Spectra Averaged: 1 (USB2+H05261)
Boxcar Smoothing: 0 (USB2+H05261)
Correct for Electrical Dark: No (USB2+H05261)
Strobe/Lamp Enabled: No (USB2+H05261)
Correct for Detector Non-linearity: No (USB2+H05261)
Correct for Stray Light: No (USB2+H05261)
Number of Pixels in Processed Spectrum: 2048
>>>>>Begin Processed Spectral Data<<<<<
365.73	28.09
365.92	28.09
366.12	28.09
366.32	0.00
366.52	0.00
366.72	7.02
366.91	0.00
367.11	0.00
367.31	0.00
367.51	0.00
367.70	0.00
367.90	0.00
368.10	0.00
368.30	0.00
368.49	0.00
368.69	0.00
368.89	0.00
369.09	0.00
369.28	0.00
369.48	4.68
369.68	39.79
369.87	0.00
370.07	0.00
370.27	0.00
370.47	180.22
370.66	465.77
370.86	669.39
371.06	704.50
371.25	681.10
371.45	624.92
371.65	685.78
371.84	456.40
372.04	538.32
372.24	690.46
372.44	643.65
372.63	720.88
372.83	608.54
373.03	465.77
373.22	601.52
373.42	535.98
373.62	540.66
373.81	690.46
374.01	615.56
374.21	554.71
374.40	519.60
374.60	704.50
374.79	648.33
374.99	816.85
375.19	763.01
375.38	767.70
375.58	624.92
375.78	791.10
375.97	791.10
376.17	802.80
376.37	763.01
376.56	720.88
376.76	816.85
376.95	830.89
377.15	891.74
377.35	882.38
377.54	983.02
377.74	1015.79
377.93	905.79
378.13	990.05
378.33	926.85
378.52	751.31
378.72	800.46
378.91	837.91
379.11	823.87
379.31	744.29
379.50	795.78
379.70	840.25
379.89	945.58
380.09	910.47
380.28	968.98
380.48	950.26
380.68	940.90
380.87	936.21
381.07	819.19
381.26	777.06
381.46	767.70
381.65	802.80
381.85	685.78
382.04	634.29
382.24	603.86
382.43	713.86
382.63	653.01
382.83	634.29
383.02	557.05
383.22	599.18
383.41	627.26
383.61	653.01
383.80	744.29
384.00	812.17
384.19	851.96
384.39	840.25
384.58	870.68
384.78	952.60
384.97	922.17
385.17	851.96
385.36	744.29
385.56	805.14
385.75	816.85
385.95	908.13
386.14	978.34
386.34	999.41
386.53	894.08
386.72	882.38
386.92	891.74
387.11	870.68
387.31	978.34
387.50	830.89
387.70	931.53
387.89	901.11
388.09	905.79
388.28	903.45
388.48	910.47
388.67	1020.47
388.86	1018.13
389.06	1118.78
389.25	1149.20
389.45	1156.22
389.64	1163.25
389.84	1158.57
390.03	1153.88
390.22	1153.88
390.42	1167.93
390.61	1188.99
390.81	1284.95
391.00	1371.55
391.19	1308.36
391.39	1233.46
391.58	1163.25
391.78	1090.69
391.97	1193.67
392.16	1116.44
392.36	1088.35
392.55	765.36
392.75	636.63
392.94	552.37
393.13	571.09
393.33	720.88
393.52	915.15
393.71	952.60
393.91	983.02
394.10	1118.78
394.29	1093.03
394.49	1179.63
394.68	1460.49
394.88	1434.75
395.07	1441.77
395.26	1338.79
395.46	1301.34
395.65	1299.00
395.84	1160.91
396.04	961.96
396.23	873.02
396.42	753.65
396.62	814.51
396.81	880.04
397.00	1029.84
397.19	1270.91
397.39	1418.36
397.58	1502.62
397.77	1542.41
397.97	1507.30
398.16	1561.14
398.35	1689.87
398.55	1645.40
398.74	1839.66
398.93	1844.34
399.12	1907.54
399.32	1823.28
399.51	1860.73
399.70	1980.09
399.90	1881.79
400.09	1926.26
400.28	1956.69
400.47	1952.01
400.67	1909.88
400.86	2059.67
401.05	2050.31
401.24	2052.65
401.44	2143.93
401.63	2052.65
401.82	2071.37
402.01	2127.55
402.21	2054.99
402.40	2148.61
402.59	2001.16
402.78	1952.01
402.97	1891.15
403.17	1968.39
403.36	2122.87
403.55	2040.95
403.74	2263.30
403.93	2078.40
404.13	1980.09
404.32	2026.90
404.51	2062.01
404.70	2174.36
404.89	2097.12
405.09	2155.63
405.28	1928.60
405.47	2022.22
405.66	2076.06
405.85	1886.47
406.05	1998.82
406.24	1891.15
406.43	1977.75
406.62	2160.31
406.81	2165.00
407.00	2085.42
407.20	1970.73
407.39	1930.94
407.58	2078.40
407.77	2150.95
407.96	2230.53
408.15	2286.70
408.34	2272.66
408.54	2434.16
408.73	2354.58
408.92	2363.94
409.11	2298.41
409.30	2153.29
409.49	1980.09
409.68	1968.39
409.87	1916.90
410.07	2040.95
410.26	2230.53
410.45	2242.23
410.64	2333.51
410.83	2300.75
411.02	2448.20
411.21	2455.22
411.40	2490.33
411.59	2548.84
411.78	2399.05
411.98	2455.22
412.17	2396.71
412.36	2415.43
412.55	2361.60
412.74	2462.24
412.93	2368.62
413.12	2342.88
413.31	2581.61
413.50	2509.05
413.69	2710.34
413.88	2605.02
414.07	2377.98
414.26	2513.74
414.45	2506.71
414.64	2495.01
414.83	2553.52
415.02	2438.84
415.22	2462.24
415.41	2553.52
415.60	2626.08
415.79	2619.06
415.98	2869.50
416.17	2722.04
416.36	2614.38
416.55	2619.06
416.74	2642.46
416.93	2525.44
417.12	2546.50
417.31	2621.40
417.50	2548.84
417.69	2857.79
417.88	2621.40
418.07	2597.99
418.26	2530.12
418.45	2651.83
418.64	2752.47
418.83	2619.06
419.02	2717.36
419.21	2792.26
419.39	2775.88
419.58	2462.24
419.77	2502.03
419.96	2583.95
420.15	2696.30
420.34	2764.17
420.53	2860.13
420.72	2937.37
420.91	2892.90
421.10	2944.39
421.29	2878.86
421.48	2853.11
421.67	2876.52
421.86	2855.45
422.05	2626.08
422.24	2420.11
422.43	2438.84
422.61	2672.89
422.80	2733.75
422.99	2761.83
423.18	2693.96
423.37	2640.12
423.56	2719.70
423.75	2691.62
423.94	2640.12
424.13	2567.57
424.32	2640.12
424.50	2675.23
424.69	2722.04
424.88	2656.51
425.07	2583.95
425.26	2579.27
425.45	2651.83
425.64	2408.41
425.83	2572.25
426.01	2691.62
426.20	2691.62
426.39	2637.78
426.58	2499.69
426.77	2516.08
426.96	2352.24
427.15	2579.27
427.33	2534.80
427.52	2616.72
427.71	2729.06
427.90	2644.81
428.09	2612.04
428.28	2520.76
428.46	2551.18
428.65	2331.17
428.84	2464.58
429.03	2551.18
429.22	2431.82
429.40	2326.49
429.59	2085.42
429.78	1930.94
429.97	1816.26
430.16	1886.47
430.34	1937.96
430.53	1933.28
430.72	1968.39
430.91	2282.02
431.10	2452.88
431.28	2909.29
431.47	3023.97
431.66	3110.57
431.85	2841.41
432.03	2731.41
432.22	2609.70
432.41	2665.87
432.60	2892.90
432.79	2937.37
432.97	3007.59
433.16	3028.65
433.35	2740.77
433.54	2518.42
433.72	2415.43
433.91	2410.75
434.10	2621.40
434.28	2925.67
434.47	2984.18
434.66	2977.16
434.85	2871.84
435.03	2923.33
435.22	3197.17
435.41	3562.30
435.59	3737.84
435.78	3595.06
435.97	3440.59
436.16	3314.20
436.34	3281.43
436.53	3162.06
436.72	3063.76
436.90	3033.33
437.09	3157.38
437.28	2960.78
437.46	2986.52
437.65	3054.40
437.84	2874.18
438.02	2752.47
438.21	2708.00
438.40	2679.91
438.58	2949.08
438.77	3091.85
438.96	2963.12
439.14	3117.59
439.33	3201.85
439.52	3283.77
439.70	3138.66
439.89	3047.38
440.08	3103.55
440.26	3038.02
440.45	3169.09
440.63	3346.97
440.82	3555.27
441.01	3325.90
441.19	3447.61
441.38	3473.36
441.57	3478.04
441.75	3581.02
441.94	3735.50
442.12	3606.77
442.31	3510.80
442.50	3684.00
442.68	3595.06
442.87	3602.08
443.05	3559.95
443.24	3541.23
443.43	3538.89
443.61	3784.65
443.80	3646.55
443.98	3595.06
444.17	3534.21
444.35	3705.07
444.54	3719.11
444.73	3695.71
444.91	3496.76
445.10	3417.18
445.28	3332.92
445.47	3267.39
445.65	3225.26
445.84	3398.46
446.02	3585.70
446.21	3410.16
446.39	3737.84
446.58	3538.89
446.77	3597.40
446.95	3768.26
447.14	3665.28
447.32	3674.64
447.51	3641.87
447.69	3632.51
447.88	3454.63
448.06	3627.83
448.25	3667.62
448.43	3779.97
448.62	3681.66
448.80	3660.60
448.99	3625.49
449.17	3765.92
449.36	3641.87
449.54	3875.93
449.73	3852.52
449.91	4100.62
450.10	4037.42
450.28	4074.87
450.46	3957.85
450.65	4098.28
450.83	4086.58
451.02	3908.69
451.20	3817.41
451.39	3950.82
451.57	3882.95
451.76	3882.95
451.94	3920.40
452.13	3779.97
452.31	3726.13
452.49	3545.91
452.68	3620.81
452.86	3541.23
453.05	3564.64
453.23	3665.28
453.42	3641.87
453.60	3810.39
453.78	3974.23
453.97	3794.01
454.15	3798.69
454.34	3702.73
454.52	3789.33
454.70	3726.13
454.89	3733.15
455.07	3754.22
455.26	3740.18
455.44	4018.70
455.62	3880.61
455.81	4049.13
455.99	3925.08
456.17	3932.10
456.36	3880.61
456.54	3957.85
456.73	4030.40
456.91	4072.53
457.09	4191.90
457.28	4161.47
457.46	4119.34
457.64	4014.02
457.83	3925.08
458.01	3754.22
458.19	3838.48
458.38	4072.53
458.56	4025.72
458.74	4053.81
458.93	3882.95
459.11	3962.53
459.29	3950.82
459.48	3838.48
459.66	4007.00
459.84	3911.04
460.03	4028.06
460.21	4070.19
460.39	4037.42
460.57	4117.00
460.76	4133.39
460.94	4236.37
461.12	4177.86
461.31	4032.74
461.49	4070.19
461.67	4117.00
461.85	4404.89
462.04	4215.30
462.22	4725.54
462.40	4287.86
462.59	4278.50
462.77	4037.42
462.95	4189.56
463.13	4056.15
463.32	4088.92
463.50	4184.88
463.68	4138.07
463.86	3992.95
464.05	4109.98
464.23	3882.95
464.41	3911.04
464.59	3859.54
464.78	4070.19
464.96	4035.08
465.14	4023.38
465.32	4117.00
465.50	4231.69
465.69	4329.99
465.87	4086.58
466.05	4049.13
466.23	3978.91
466.41	3913.38
466.60	3969.55
466.78	3887.63
466.96	3939.12
467.14	4058.49
467.32	3878.27
467.51	4072.53
467.69	3971.89
467.87	4037.42
468.05	3957.85
468.23	4149.77
468.41	4121.68
468.60	4084.23
468.78	4119.34
468.96	4086.58
469.14	4070.19
469.32	4208.28
469.50	4056.15
469.69	3894.65
469.87	3880.61
470.05	3850.18
470.23	3934.44
470.41	3864.22
470.59	4042.11
470.77	4018.70
470.95	4060.83
471.14	4037.42
471.32	4234.03
471.50	4318.29
471.68	4318.29
471.86	4418.93
472.04	4411.91
472.22	4311.27
472.40	4074.87
472.58	4126.36
472.77	4079.55
472.95	4236.37
473.13	4264.46
473.31	4229.35
473.49	4264.46
473.67	4208.28
473.85	4337.01
474.03	4320.63
474.21	4447.02
474.39	4585.11
474.57	4575.75
474.75	4430.63
474.93	4512.55
475.12	4353.40
475.30	4346.37
475.48	4402.55
475.66	4346.37
475.84	4360.42
476.02	4383.82
476.20	4292.54
476.38	4372.12
476.56	4456.38
476.74	4681.07
476.92	4500.85
477.10	4610.86
477.28	4751.29
477.46	4613.20
477.64	4844.91
477.82	4720.86
478.00	4854.27
478.18	4819.16
478.36	4842.57
478.54	4697.46
478.72	4835.55
478.90	5027.47
479.08	4980.66
479.26	5116.41
479.44	5153.86
479.62	4992.36
479.80	5184.29
479.98	5034.49
480.16	5249.82
480.34	4999.38
480.52	5181.95
480.70	5174.92
480.88	4990.02
481.06	5011.09
481.24	5329.40
481.41	5284.93
481.59	5558.77
481.77	5458.13
481.95	5345.78
482.13	5408.98
482.31	5235.78
482.49	5544.73
482.67	5418.34
482.85	5586.86
483.03	5441.75
483.21	5607.92
483.39	5502.60
483.57	5563.45
483.74	5565.79
483.92	5593.88
484.10	5596.22
484.28	5823.25
484.46	5666.44
484.64	5785.80
484.82	5645.37
485.00	5795.17
485.18	5495.58
485.35	5465.15
485.53	5043.85
485.71	4472.76
485.89	4447.02
486.07	4676.39
486.25	5273.23
486.43	5399.62
486.61	5535.37
486.78	5465.15
486.96	5364.51
487.14	5722.61
487.32	5795.17
487.50	6005.81
487.68	6157.95
487.85	6237.53
488.03	6179.01
488.21	6115.82
488.39	5966.03
488.57	5902.83
488.75	5804.53
488.92	6211.78
489.10	6443.49
489.28	6740.74
489.46	6839.05
489.64	6609.67
489.81	6937.35
489.99	6883.52
490.17	6731.38
490.35	6899.90
490.53	6668.19
490.70	6567.54
490.88	6651.80
491.06	6759.47
491.24	6651.80
491.41	6466.90
491.59	6431.79
491.77	6157.95
491.95	6190.72
492.13	6628.40
492.30	6874.15
492.48	6984.16
492.66	6920.96
492.84	7075.44
493.01	6965.43
493.19	7023.95
493.37	6799.26
493.54	6857.77
493.72	6817.98
493.90	7173.74
494.08	7318.86
494.25	7506.10
494.43	7459.29
494.61	7520.14
494.79	7534.18
494.96	7728.45
495.14	7391.41
495.32	7262.68
495.49	6951.39
495.67	7258.00
495.85	7602.06
496.02	7623.12
496.20	7620.78
496.38	7538.87
496.55	7426.52
496.73	7691.00
496.91	7595.04
497.09	7903.99
497.26	7810.37
497.44	7871.22
497.62	7609.08
497.79	7389.07
497.97	7190.13
498.14	7131.61
498.32	7250.98
498.50	7639.51
498.67	7793.98
498.85	7723.77
499.03	7698.02
499.20	7756.54
499.38	8009.31
499.56	7644.19
499.73	7793.98
499.91	7592.70
500.08	7531.84
500.26	7339.92
500.44	7332.90
500.61	7499.08
500.79	7494.40
500.97	7442.90
501.14	7304.81
501.32	7456.95
501.49	7267.36
501.67	7302.47
501.84	7454.61
502.02	7412.48
502.20	7756.54
502.37	7679.30
502.55	7583.34
502.72	7660.57
502.90	7829.09
503.07	7597.38
503.25	7627.81
503.43	7162.04
503.60	6963.09
503.78	6841.39
503.95	6860.11
504.13	7332.90
504.30	7583.34
504.48	7866.54
504.65	7686.32
504.83	7747.17
505.01	7911.01
505.18	7798.66
505.36	7943.78
505.53	7932.08
505.71	8035.06
505.88	8013.99
506.06	8063.15
506.23	7964.84
506.41	7765.90
506.58	7817.39
506.76	7852.50
506.93	7754.19
507.11	7625.47
507.28	7819.73
507.46	7573.97
507.63	7566.95
507.81	7466.31
507.98	7515.46
508.16	7751.85
508.33	7854.84
508.50	8030.38
508.68	7969.52
508.85	8257.41
509.03	8245.71
509.20	8271.45
509.38	8042.08
509.55	7758.88
509.73	8013.99
509.90	8053.78
510.08	7999.95
510.25	8035.06
510.42	8067.83
510.60	7868.88
510.77	8241.03
510.95	8238.69
511.12	8248.05
511.30	8365.07
511.47	8496.14
511.64	8645.94
511.82	8311.24
511.99	8322.94
512.17	8175.49
512.34	7789.30
512.51	8126.34
512.69	8037.40
512.86	8074.85
513.04	8266.77
513.21	8058.46
513.38	7913.35
513.56	7950.80
513.73	7857.18
513.90	7889.95
514.08	7833.77
514.25	7974.21
514.43	7880.58
514.60	7964.84
514.77	7920.37
514.95	8044.42
515.12	8013.99
515.29	8201.24
515.47	8145.06
515.64	8369.76
515.81	8156.77
515.99	8077.19
516.16	7707.38
516.33	7309.49
516.51	6853.09
516.68	6698.61
516.85	6537.12
517.03	6560.52
517.20	7194.81
517.37	7899.31
517.54	7967.18
517.72	7934.42
517.89	7368.01
518.06	6761.81
518.24	6906.92
518.41	7375.03
518.58	7803.35
518.75	7595.04
518.93	7822.07
519.10	7613.76
519.27	7843.14
519.45	8119.32
519.62	8173.15
519.79	8264.43
519.96	8058.46
520.14	8006.97
520.31	7878.24
520.48	7887.61
520.65	8168.47
520.83	8168.47
521.00	8367.42
521.17	8299.54
521.34	8060.80
521.52	8283.16
521.69	8423.59
521.86	8507.85
522.03	8362.73
522.20	8159.11
522.38	7784.62
522.55	7871.22
522.72	7990.59
522.89	7845.48
523.07	8077.19
523.24	8124.00
523.41	8409.54
523.58	8297.20
523.75	8564.02
523.92	8463.38
524.10	8400.18
524.27	8542.96
524.44	8475.08
524.61	8386.14
524.78	8299.54
524.96	8070.17
525.13	8341.67
525.30	8416.57
525.47	8484.44
525.64	8643.60
525.81	8299.54
525.98	8016.33
526.16	7447.58
526.33	7372.69
526.50	7225.23
526.67	7108.21
526.84	7433.54
527.01	7557.59
527.18	7674.62
527.36	7906.33
527.53	8283.16
527.70	8397.84
527.87	8152.09
528.04	8168.47
528.21	8205.92
528.38	8365.07
528.55	8739.56
528.72	8819.14
528.89	8779.35
529.07	8753.60
529.24	8437.63
529.41	8287.84
529.58	8049.10
529.75	8091.23
529.92	8315.92
530.09	8461.04
530.26	8475.08
530.43	8659.98
530.60	8627.21
530.77	8826.16
530.94	8858.93
531.11	8564.02
531.28	8477.42
531.46	8468.06
531.63	8386.14
531.80	8437.63
531.97	8365.07
532.14	8058.46
532.31	7983.57
532.48	7653.55
532.65	7676.96
532.82	7953.14
532.99	8079.53
533.16	8315.92
533.33	8496.14
533.50	8503.17
533.67	8194.22
533.84	8121.66
534.01	7967.18
534.18	8285.50
534.35	8304.22
534.52	8177.83
534.69	8379.12
534.86	8299.54
535.03	8439.97
535.20	8608.49
535.37	8814.46
535.54	8659.98
535.71	8711.47
535.88	8446.99
536.05	8425.93
536.22	8355.71
536.38	8140.38
536.55	8037.40
536.72	7779.94
536.89	7784.62
537.06	8100.59
537.23	8318.26
537.40	8332.31
537.57	8409.54
537.74	8456.36
537.91	8437.63
538.08	8315.92
538.25	8280.82
538.42	8255.07
538.59	8458.70
538.75	8198.90
538.92	8081.87
539.09	8215.28
539.26	7695.68
539.43	8168.47
539.60	8032.72
539.77	8058.46
539.94	8149.75
540.11	7838.45
540.28	7681.64
540.44	7744.83
540.61	7812.71
540.78	8056.12
540.95	8135.70
541.12	8388.48
541.29	8575.72
541.46	8496.14
541.62	8739.56
541.79	8325.29
541.96	8383.80
542.13	8395.50
542.30	8538.27
542.47	8491.46
542.63	8465.72
542.80	8280.82
542.97	8430.61
543.14	8219.96
543.31	8016.33
543.48	8397.84
543.64	8702.11
543.81	8657.64
543.98	8739.56
544.15	8411.89
544.32	8170.81
544.48	8161.45
544.65	8535.93
544.82	8535.93
544.99	8552.32
545.16	8414.23
545.32	8297.20
545.49	8959.57
545.66	9362.14
545.83	9635.99
546.00	9460.45
546.16	8823.82
546.33	8524.23
546.50	8360.39
546.67	8479.76
546.83	8430.61
547.00	8245.71
547.17	8039.74
547.34	7971.86
547.50	8070.17
547.67	8091.23
547.84	7873.56
548.00	8077.19
548.17	8032.72
548.34	8142.72
548.51	8203.58
548.67	8346.35
548.84	8369.76
549.01	8107.62
549.18	8119.32
549.34	8245.71
549.51	8147.40
549.68	7939.10
549.84	8131.02
550.01	8140.38
550.18	8006.97
550.34	7943.78
550.51	7960.16
550.68	8063.15
550.84	8023.36
551.01	7915.69
551.18	7836.11
551.34	8049.10
551.51	8119.32
551.68	8049.10
551.84	8133.36
552.01	7896.97
552.18	8159.11
552.34	7833.77
552.51	7779.94
552.68	7744.83
552.84	7709.72
553.01	7997.61
553.18	7932.08
553.34	7962.50
553.51	7688.66
553.67	7922.71
553.84	8091.23
554.01	7903.99
554.17	7899.31
554.34	7803.35
554.51	7976.55
554.67	8013.99
554.84	7978.89
555.00	7688.66
555.17	7658.23
555.33	7801.01
555.50	7665.25
555.67	7817.39
555.83	7831.43
556.00	7691.00
556.16	7878.24
556.33	7536.52
556.50	7578.65
556.66	7452.27
556.83	7400.77
556.99	7653.55
557.16	7517.80
557.32	7510.78
557.49	7630.15
557.65	7576.31
557.82	7468.65
557.98	7606.74
558.15	7557.59
558.32	7391.41
558.48	7054.37
558.65	7145.66
558.81	7346.94
558.98	7112.89
559.14	7424.18
559.31	7475.67
559.47	7290.77
559.64	7482.69
559.80	7386.73
559.97	7260.34
560.13	7403.11
560.30	7712.07
560.46	7730.79
560.63	7838.45
560.79	7936.76
560.96	7836.11
561.12	7311.83
561.29	7157.36
561.45	7084.80
561.61	7332.90
561.78	7358.64
561.94	7424.18
562.11	7382.05
562.27	7321.20
562.44	7283.75
562.60	7494.40
562.77	7651.21
562.93	7431.20
563.10	7503.76
563.26	7403.11
563.42	7194.81
563.59	7302.47
563.75	7220.55
563.92	7267.36
564.08	7463.97
564.24	7375.03
564.41	7410.14
564.57	7321.20
564.74	7276.73
564.90	7208.85
565.07	7353.96
565.23	7332.90
565.39	7059.06
565.56	6895.22
565.72	6803.94
565.88	6981.82
566.05	6951.39
566.21	6988.84
566.38	7084.80
566.54	7204.17
566.70	7297.79
566.87	7386.73
567.03	7180.76
567.19	7094.16
567.36	7267.36
567.52	7110.55
567.68	7082.46
567.85	6977.14
568.01	6710.32
568.17	6764.15
568.34	6555.84
568.50	6457.54
568.66	6480.94
568.83	6637.76
568.99	6913.94
569.15	6796.92
569.32	6684.57
569.48	6668.19
569.64	6733.72
569.81	6560.52
569.97	6581.59
570.13	6698.61
570.30	6569.88
570.46	6490.31
570.62	6551.16
570.78	6279.66
570.95	6548.82
571.11	6703.29
571.27	6740.74
571.43	6464.56
571.60	6607.33
571.76	6511.37
571.92	6504.35
572.09	6892.88
572.25	6651.80
572.41	6722.02
572.57	6604.99
572.74	6675.21
572.90	6654.14
573.06	6654.14
573.22	6778.19
573.38	6707.98
573.55	6612.01
573.71	6509.03
573.87	6579.25
574.03	6525.41
574.20	6635.42
574.36	6509.03
574.52	6478.60
574.68	6487.96
574.84	6303.06
575.01	6293.70
575.17	6164.97
575.33	6258.59
575.49	6307.74
575.65	6478.60
575.82	6258.59
575.98	6335.83
576.14	6347.53
576.30	6420.09
576.46	6649.46
576.62	6803.94
576.79	6665.85
576.95	6752.45
577.11	6565.20
577.27	6516.05
577.43	6408.39
577.59	6410.73
577.75	6345.19
577.92	6195.40
578.08	6263.27
578.24	6249.23
578.40	6436.47
578.56	6532.44
578.72	6616.69
578.88	6558.18
579.04	6574.56
579.21	6600.31
579.37	6392.00
579.53	6392.00
579.69	6345.19
579.85	6459.88
580.01	6436.47
580.17	6429.45
580.33	6483.28
580.49	6572.22
580.65	6427.11
580.82	6551.16
580.98	6363.92
581.14	6450.52
581.30	6588.61
581.46	6462.22
581.62	6729.04
581.78	6502.01
581.94	6817.98
582.10	6799.26
582.26	6712.66
582.42	6576.91
582.58	6691.59
582.74	6750.10
582.90	6558.18
583.06	6504.35
583.22	6471.58
583.38	6499.67
583.54	6494.99
583.70	6583.93
583.86	6527.75
584.02	6377.96
584.18	6485.62
584.34	6408.39
584.50	6347.53
584.66	6445.84
584.82	6361.58
584.98	6239.87
585.14	6380.30
585.30	6298.38
585.46	6211.78
585.62	6118.16
585.78	6216.46
585.94	6167.31
586.10	6214.12
586.26	6181.35
586.42	6216.46
586.58	6097.10
586.74	6289.02
586.90	6384.98
587.06	6284.34
587.22	6153.27
587.38	5940.28
587.54	5944.96
587.70	5865.38
587.86	5710.91
588.02	5504.94
588.18	5334.08
588.34	5310.68
588.49	4884.70
588.65	4524.26
588.81	4381.48
588.97	4493.83
589.13	4550.00
589.29	4365.10
589.45	4430.63
589.61	4533.62
589.77	4730.22
589.93	4882.36
590.08	4961.94
590.24	5261.52
590.40	5387.91
590.56	5266.21
590.72	5156.20
590.88	5114.07
591.04	5174.92
591.20	5170.24
591.35	5085.98
591.51	5263.86
591.67	5060.24
591.83	5081.30
591.99	5004.07
592.15	5020.45
592.31	5224.08
592.46	5198.33
592.62	5437.06
592.78	5603.24
592.94	5338.76
593.10	5488.56
593.26	5570.48
593.41	5645.37
593.57	5474.51
593.73	5240.46
593.89	5076.62
594.05	5004.07
594.20	4870.65
594.36	4828.53
594.52	4704.48
594.68	4730.22
594.84	4826.18
594.99	5116.41
595.15	5277.91
595.31	5275.57
595.47	5128.11
595.62	5238.12
595.78	5401.96
595.94	5444.09
596.10	5610.26
596.25	5324.72
596.41	5195.99
596.57	5259.18
596.73	5193.65
596.88	5348.12
597.04	5423.02
597.20	5303.65
597.36	5378.55
597.51	5188.97
