SpectraSuite Data File
++++++++++++++++++++++++++++++++++++
Date: Fri Oct 04 11:44:21 GMT-05:00 2013
User: price-jones
Dark Spectrum Present: No
Reference Spectrum Present: No
Number of Sampled Component Spectra: 1
Spectrometers: USB2+H05261
Integration Time (usec): 100000 (USB2+H05261)
Spectra Averaged: 1 (USB2+H05261)
Boxcar Smoothing: 0 (USB2+H05261)
Correct for Electrical Dark: No (USB2+H05261)
Strobe/Lamp Enabled: No (USB2+H05261)
Correct for Detector Non-linearity: No (USB2+H05261)
Correct for Stray Light: No (USB2+H05261)
Number of Pixels in Processed Spectrum: 2048
>>>>>Begin Processed Spectral Data<<<<<
365.73	49.15
365.92	49.15
366.12	49.15
366.32	0.00
366.52	0.00
366.72	9.36
366.91	0.00
367.11	0.00
367.31	0.00
367.51	0.00
367.70	0.00
367.90	7.02
368.10	0.00
368.30	0.00
368.49	0.00
368.69	0.00
368.89	18.72
369.09	0.00
369.28	0.00
369.48	0.00
369.68	0.00
369.87	0.00
370.07	0.00
370.27	4.68
370.47	107.66
370.66	245.76
370.86	498.53
371.06	482.15
371.25	496.19
371.45	447.04
371.65	416.62
371.84	421.30
372.04	486.83
372.24	416.62
372.44	447.04
372.63	454.06
372.83	545.34
373.03	461.09
373.22	421.30
373.42	348.74
373.62	512.58
373.81	580.45
374.01	561.73
374.21	512.58
374.40	475.13
374.60	463.43
374.79	470.45
374.99	571.09
375.19	575.77
375.38	582.79
375.58	603.86
375.78	596.84
375.97	613.22
376.17	641.31
376.37	627.26
376.56	629.60
376.76	622.58
376.95	671.73
377.15	655.35
377.35	751.31
377.54	713.86
377.74	732.59
377.93	704.50
378.13	739.61
378.33	692.80
378.52	610.88
378.72	662.37
378.91	620.24
379.11	557.05
379.31	561.73
379.50	535.98
379.70	594.50
379.89	692.80
380.09	725.57
380.28	697.48
380.48	758.33
380.68	671.73
380.87	709.18
381.07	685.78
381.26	643.65
381.46	585.13
381.65	599.18
381.85	571.09
382.04	589.82
382.24	524.28
382.43	451.72
382.63	423.64
382.83	491.51
383.02	402.57
383.22	554.71
383.41	468.11
383.61	526.62
383.80	589.82
384.00	561.73
384.19	620.24
384.39	767.70
384.58	784.08
384.78	709.18
384.97	685.78
385.17	613.22
385.36	676.41
385.56	669.39
385.75	610.88
385.95	671.73
386.14	702.16
386.34	706.84
386.53	753.65
386.72	702.16
386.92	662.37
387.11	697.48
387.31	746.63
387.50	617.90
387.70	697.48
387.89	648.33
388.09	720.88
388.28	681.10
388.48	725.57
388.67	744.29
388.86	751.31
389.06	863.66
389.25	952.60
389.45	894.08
389.64	828.55
389.84	990.05
390.03	905.79
390.22	947.92
390.42	966.64
390.61	952.60
390.81	1053.24
391.00	1109.41
391.19	1004.09
391.39	980.68
391.58	950.26
391.78	898.77
391.97	826.21
392.16	798.12
392.36	763.01
392.55	770.04
392.75	587.47
392.94	416.62
393.13	531.30
393.33	550.03
393.52	631.94
393.71	800.46
393.91	870.68
394.10	805.14
394.29	957.28
394.49	936.21
394.68	1170.27
394.88	1160.91
395.07	1046.22
395.26	1095.37
395.46	1086.01
395.65	976.00
395.84	901.11
396.04	856.64
396.23	751.31
396.42	676.41
396.62	526.62
396.81	692.80
397.00	772.38
397.19	870.68
397.39	1053.24
397.58	1128.14
397.77	1165.59
397.97	1277.93
398.16	1362.19
398.35	1329.42
398.55	1448.79
398.74	1427.73
398.93	1467.52
399.12	1416.02
399.32	1399.64
399.51	1411.34
399.70	1455.81
399.90	1467.52
400.09	1474.54
400.28	1453.47
400.47	1502.62
400.67	1551.78
400.86	1509.65
401.05	1626.67
401.24	1577.52
401.44	1664.12
401.63	1673.48
401.82	1610.29
402.01	1607.95
402.21	1624.33
402.40	1647.74
402.59	1533.05
402.78	1504.96
402.97	1483.90
403.17	1558.80
403.36	1600.93
403.55	1764.76
403.74	1706.25
403.93	1692.21
404.13	1732.00
404.32	1717.95
404.51	1643.06
404.70	1750.72
404.89	1692.21
405.09	1701.57
405.28	1572.84
405.47	1481.56
405.66	1603.27
405.85	1603.27
406.05	1460.49
406.24	1479.22
406.43	1561.14
406.62	1657.10
406.81	1739.02
407.00	1547.09
407.20	1603.27
407.39	1598.59
407.58	1671.14
407.77	1689.87
407.96	1792.85
408.15	1781.15
408.34	1935.62
408.54	1888.81
408.73	1860.73
408.92	1858.39
409.11	1795.19
409.30	1764.76
409.49	1612.63
409.68	1666.46
409.87	1495.60
410.07	1467.52
410.26	1661.78
410.45	1734.34
410.64	1809.23
410.83	1799.87
411.02	1834.98
411.21	2010.52
411.40	2026.90
411.59	2099.46
411.78	1942.64
411.98	1886.47
412.17	1970.73
412.36	1858.39
412.55	1928.60
412.74	1860.73
412.93	1830.30
413.12	1757.74
413.31	2052.65
413.50	2017.54
413.69	2155.63
413.88	1973.07
414.07	1933.28
414.26	2026.90
414.45	1987.11
414.64	2022.22
414.83	2043.29
415.02	1949.67
415.22	1973.07
415.41	1919.24
415.60	2047.97
415.79	2132.23
415.98	2202.44
416.17	2211.81
416.36	2174.36
416.55	2146.27
416.74	2092.44
416.93	2066.69
417.12	2090.10
417.31	2033.93
417.50	1991.80
417.69	2193.08
417.88	2195.42
418.07	2162.66
418.26	1975.41
418.45	2071.37
418.64	2139.25
418.83	2204.78
419.02	2200.10
419.21	2195.42
419.39	2108.82
419.58	1973.07
419.77	2001.16
419.96	2064.35
420.15	2190.74
420.34	2209.47
420.53	2342.88
420.72	2324.15
420.91	2310.11
421.10	2370.96
421.29	2197.76
421.48	2277.34
421.67	2370.96
421.86	2207.13
422.05	2209.47
422.24	1893.49
422.43	1888.81
422.61	2083.08
422.80	2251.60
422.99	2239.89
423.18	2162.66
423.37	2289.04
423.56	2132.23
423.75	2085.42
423.94	2127.55
424.13	2125.21
424.32	2076.06
424.50	1973.07
424.69	2080.74
424.88	2136.91
425.07	2134.57
425.26	2113.50
425.45	2172.02
425.64	2059.67
425.83	2064.35
426.01	2162.66
426.20	2258.62
426.39	2223.51
426.58	2024.56
426.77	1989.46
426.96	1830.30
427.15	1935.62
427.33	2031.58
427.52	2115.84
427.71	2120.53
427.90	2050.31
428.09	2148.61
428.28	2040.95
428.46	2008.18
428.65	2040.95
428.84	1933.28
429.03	2125.21
429.22	1954.35
429.40	1837.32
429.59	1699.23
429.78	1565.82
429.97	1462.83
430.16	1547.09
430.34	1645.40
430.53	1554.12
430.72	1687.53
430.91	1760.08
431.10	1942.64
431.28	2223.51
431.47	2410.75
431.66	2520.76
431.85	2326.49
432.03	2225.85
432.22	2054.99
432.41	2162.66
432.60	2286.70
432.79	2375.64
432.97	2525.44
433.16	2420.11
433.35	2258.62
433.54	1984.77
433.72	1877.11
433.91	1935.62
434.10	2165.00
434.28	2275.00
434.47	2394.37
434.66	2389.69
434.85	2312.45
435.03	2511.39
435.22	2810.98
435.41	3466.33
435.59	3403.14
435.78	3190.15
435.97	2967.80
436.16	2722.04
436.34	2385.01
436.53	2553.52
436.72	2502.03
436.90	2392.03
437.09	2415.43
437.28	2420.11
437.46	2298.41
437.65	2314.79
437.84	2363.94
438.02	2148.61
438.21	2097.12
438.40	2129.89
438.58	2326.49
438.77	2445.86
438.96	2452.88
439.14	2581.61
439.33	2651.83
439.52	2663.53
439.70	2509.05
439.89	2415.43
440.08	2399.05
440.26	2401.39
440.45	2588.63
440.63	2548.84
440.82	2708.00
441.01	3005.25
441.19	2832.05
441.38	2771.19
441.57	2825.03
441.75	2787.58
441.94	2958.44
442.12	2967.80
442.31	2874.18
442.50	3101.21
442.68	2836.73
442.87	2848.43
443.05	2839.07
443.24	2825.03
443.43	2839.07
443.61	3016.95
443.80	3042.70
443.98	2913.97
444.17	2759.49
444.35	2920.99
444.54	2972.48
444.73	3075.46
444.91	2862.48
445.10	2743.11
445.28	2672.89
445.47	2506.71
445.65	2733.75
445.84	2747.79
446.02	2860.13
446.21	2958.44
446.39	2825.03
446.58	3014.61
446.77	2855.45
446.95	2977.16
447.14	3098.87
447.32	3110.57
447.51	3082.49
447.69	2937.37
447.88	2909.29
448.06	2918.65
448.25	2935.03
448.43	3033.33
448.62	2904.60
448.80	2944.39
448.99	2890.56
449.17	3049.72
449.36	2995.89
449.54	3117.59
449.73	3222.92
449.91	3243.98
450.10	3204.19
450.28	3286.11
450.46	3337.60
450.65	3234.62
450.83	3344.63
451.02	3304.84
451.20	3180.79
451.39	3197.17
451.57	3192.49
451.76	3145.68
451.94	3131.64
452.13	3059.08
452.31	3077.80
452.49	2906.95
452.68	2888.22
452.86	2810.98
453.05	2920.99
453.23	2991.20
453.42	2986.52
453.60	3042.70
453.78	3138.66
453.97	3047.38
454.15	3070.78
454.34	2977.16
454.52	3047.38
454.70	2911.63
454.89	3105.89
455.07	3108.23
455.26	3122.27
455.44	3115.25
455.62	3248.66
455.81	3248.66
455.99	3164.40
456.17	3124.62
456.36	3145.68
456.54	3260.37
456.73	3145.68
456.91	3368.03
457.09	3332.92
457.28	3463.99
457.46	3342.28
457.64	3314.20
457.83	3026.31
458.01	3094.19
458.19	3279.09
458.38	3178.45
458.56	3185.47
458.74	3262.71
458.93	3321.22
459.11	3236.96
459.29	3138.66
459.48	3218.24
459.66	3194.83
459.84	3229.94
460.03	3297.81
460.21	3300.16
460.39	3344.63
460.57	3241.64
460.76	3361.01
460.94	3431.23
461.12	3386.76
461.31	3403.14
461.49	3337.60
461.67	3339.94
461.85	3323.56
462.04	3403.14
462.22	3826.78
462.40	3330.58
462.59	3548.25
462.77	3454.63
462.95	3442.93
463.13	3407.82
463.32	3323.56
463.50	3241.64
463.68	3274.41
463.86	3318.88
464.05	3225.26
464.23	3262.71
464.41	3190.15
464.59	3148.02
464.78	3353.99
464.96	3246.32
465.14	3379.73
465.32	3384.41
465.50	3361.01
465.69	3471.01
465.87	3489.74
466.05	3309.52
466.23	3068.44
466.41	3091.85
466.60	3080.14
466.78	3162.06
466.96	3286.11
467.14	3218.24
467.32	3246.32
467.51	3377.39
467.69	3201.85
467.87	3328.24
468.05	3185.47
468.23	3417.18
468.41	3274.41
468.60	3159.72
468.78	3253.34
468.96	3300.16
469.14	3227.60
469.32	3272.07
469.50	3311.86
469.69	3155.04
469.87	3173.77
470.05	3185.47
470.23	3171.43
470.41	3166.74
470.59	3073.12
470.77	3251.00
470.95	3220.58
471.14	3297.81
471.32	3300.16
471.50	3499.10
471.68	3485.06
471.86	3489.74
472.04	3454.63
472.22	3515.48
472.40	3442.93
472.58	3342.28
472.77	3297.81
472.95	3339.94
473.13	3489.74
473.31	3442.93
473.49	3389.10
473.67	3438.25
473.85	3515.48
474.03	3571.66
474.21	3480.38
474.39	3630.17
474.57	3641.87
474.75	3606.77
474.93	3646.55
475.12	3658.26
475.30	3611.45
475.48	3571.66
475.66	3609.11
475.84	3557.61
476.02	3566.98
476.20	3517.83
476.38	3485.06
476.56	3667.62
476.74	3653.58
476.92	3754.22
477.10	3763.58
477.28	3894.65
477.46	3723.79
477.64	3992.95
477.82	3894.65
478.00	4093.60
478.18	3992.95
478.36	3922.74
478.54	3864.22
478.72	3803.37
478.90	3985.93
479.08	4093.60
479.26	4058.49
479.44	4196.58
479.62	4154.45
479.80	3988.27
479.98	4105.30
480.16	4117.00
480.34	4156.79
480.52	4140.41
480.70	4114.66
480.88	4133.39
481.06	4182.54
481.24	4124.02
481.41	4344.03
481.59	4470.42
481.77	4444.68
481.95	4402.55
482.13	4451.70
482.31	4325.31
482.49	4521.92
482.67	4425.95
482.85	4547.66
483.03	4554.68
483.21	4540.64
483.39	4610.86
483.57	4409.57
483.74	4472.76
483.92	4533.62
484.10	4510.21
484.28	4643.62
484.46	4674.05
484.64	4770.01
484.82	4575.75
485.00	4531.28
485.18	4444.68
485.35	4414.25
485.53	4299.56
485.71	3868.91
485.89	3688.68
486.07	3946.14
486.25	4182.54
486.43	4308.93
486.61	4575.75
486.78	4491.49
486.96	4615.54
487.14	4667.03
487.32	4833.21
487.50	4952.57
487.68	5046.20
487.85	5210.03
488.03	5109.39
488.21	5193.65
488.39	5011.09
488.57	4903.42
488.75	4903.42
488.92	5109.39
489.10	5205.35
489.28	5465.15
489.46	5390.25
489.64	5472.17
489.81	5570.48
489.99	5490.90
490.17	5685.16
490.35	5647.71
490.53	5561.11
490.70	5495.58
490.88	5401.96
491.06	5626.65
491.24	5542.39
491.41	5317.70
491.59	5355.15
491.77	5071.94
491.95	5256.84
492.13	5249.82
492.30	5565.79
492.48	5741.33
492.66	5771.76
492.84	5820.91
493.01	5818.57
493.19	5687.50
493.37	5610.26
493.54	5577.50
493.72	5612.60
493.90	5827.93
494.08	6005.81
494.25	6026.88
494.43	6104.12
494.61	6291.36
494.79	6270.30
494.96	5982.41
495.14	5790.49
495.32	5919.21
495.49	5767.08
495.67	5837.30
495.85	6031.56
496.02	6274.98
496.20	6352.21
496.38	6031.56
496.55	6071.35
496.73	6143.91
496.91	6267.95
497.09	6300.72
497.26	6392.00
497.44	6300.72
497.62	6092.41
497.79	6164.97
497.97	5865.38
498.14	5834.96
498.32	5933.26
498.50	6143.91
498.67	6331.15
498.85	6263.27
499.03	6347.53
499.20	6293.70
499.38	6525.41
499.56	6389.66
499.73	6216.46
499.91	6209.44
500.08	5991.77
500.26	5900.49
500.44	6143.91
500.61	6218.80
500.79	6305.40
500.97	6045.60
501.14	5996.45
501.32	5905.17
501.49	6033.90
501.67	5912.19
501.84	6064.33
502.02	6143.91
502.20	6146.25
502.37	6179.01
502.55	6073.69
502.72	6218.80
502.90	6363.92
503.07	6143.91
503.25	6141.57
503.43	5919.21
503.60	5675.80
503.78	5682.82
503.95	5750.70
504.13	5973.05
504.30	6253.91
504.48	6174.33
504.65	6239.87
504.83	6303.06
505.01	6314.77
505.18	6534.78
505.36	6497.33
505.53	6455.20
505.71	6581.59
505.88	6794.58
506.06	6630.74
506.23	6499.67
506.41	6244.55
506.58	6349.87
506.76	6204.76
506.93	6169.65
507.11	6293.70
507.28	6363.92
507.46	6307.74
507.63	5991.77
507.81	6181.35
507.98	6139.23
508.16	6476.26
508.33	6490.31
508.50	6628.40
508.68	6539.46
508.85	6738.40
509.03	6867.13
509.20	6530.09
509.38	6579.25
509.55	6518.39
509.73	6352.21
509.90	6387.32
510.08	6459.88
510.25	6506.69
510.42	6572.22
510.60	6520.73
510.77	6633.08
510.95	6726.70
511.12	6747.76
511.30	6864.79
511.47	6902.24
511.64	6937.35
511.82	6974.80
511.99	6768.83
512.17	6340.51
512.34	6375.62
512.51	6410.73
512.69	6576.91
512.86	6670.53
513.04	6932.67
513.21	6696.27
513.38	6836.70
513.56	6401.37
513.73	6473.92
513.90	6256.25
514.08	6293.70
514.25	6413.07
514.43	6579.25
514.60	6403.71
514.77	6483.28
514.95	6677.55
515.12	6539.46
515.29	6576.91
515.47	6656.48
515.64	6686.91
515.81	6736.06
515.99	6619.04
516.16	6366.26
516.33	5970.71
516.51	5598.56
516.68	5427.70
516.85	5467.49
517.03	5394.93
517.20	5734.31
517.37	6464.56
517.54	6560.52
517.72	6499.67
517.89	6050.28
518.06	5614.95
518.24	5614.95
518.41	5912.19
518.58	6256.25
518.75	6132.20
518.93	6373.28
519.10	6251.57
519.27	6403.71
519.45	6509.03
519.62	6579.25
519.79	6773.51
519.96	6647.12
520.14	6548.82
520.31	6499.67
520.48	6450.52
520.65	6443.49
520.83	6621.38
521.00	6729.04
521.17	6689.25
521.34	6649.46
521.52	6916.28
521.69	6778.19
521.86	6939.69
522.03	6822.66
522.20	6626.06
522.38	6375.62
522.55	6317.11
522.72	6476.26
522.89	6487.96
523.07	6555.84
523.24	6558.18
523.41	6724.36
523.58	6850.75
523.75	7091.82
523.92	7080.12
524.10	7061.40
524.27	6778.19
524.44	6794.58
524.61	6906.92
524.78	6703.29
524.96	6923.30
525.13	6993.52
525.30	6855.43
525.47	6841.39
525.64	7150.34
525.81	6878.83
525.98	6614.35
526.16	6202.42
526.33	6033.90
526.50	6003.47
526.67	5767.08
526.84	5849.00
527.01	6125.18
527.18	6246.89
527.36	6431.79
527.53	6801.60
527.70	6771.17
527.87	6841.39
528.04	6609.67
528.21	6698.61
528.38	7030.97
528.55	7180.76
528.72	7009.90
528.89	7414.82
529.07	7063.74
529.24	7080.12
529.41	6832.02
529.58	6647.12
529.75	6853.09
529.92	6834.36
530.09	7059.06
530.26	7105.87
530.43	7281.41
530.60	7014.59
530.77	7049.69
530.94	7162.04
531.11	6984.16
531.28	6935.01
531.46	6953.73
531.63	6895.22
531.80	6993.52
531.97	6949.05
532.14	6684.57
532.31	6483.28
532.48	6179.01
532.65	6134.54
532.82	6319.45
532.99	6705.63
533.16	6558.18
533.33	6759.47
533.50	6946.71
533.67	6736.06
533.84	6593.29
534.01	6651.80
534.18	6848.41
534.35	6883.52
534.52	6736.06
534.69	6782.87
534.86	6986.50
535.03	7023.95
535.20	6904.58
535.37	7033.31
535.54	7002.88
535.71	7016.93
535.88	6867.13
536.05	6750.10
536.22	6853.09
536.38	6839.05
536.55	6712.66
536.72	6621.38
536.89	6429.45
537.06	6649.46
537.23	6768.83
537.40	6972.46
537.57	6913.94
537.74	6829.68
537.91	6925.65
538.08	6705.63
538.25	6820.32
538.42	6913.94
538.59	7005.22
538.75	6789.89
538.92	6717.34
539.09	6757.13
539.26	6705.63
539.43	6813.30
539.60	6616.69
539.77	6740.74
539.94	6677.55
540.11	6637.76
540.28	6473.92
540.44	6642.44
540.61	6541.80
540.78	6841.39
540.95	6853.09
541.12	7105.87
541.29	7246.30
541.46	7150.34
541.62	7351.62
541.79	7353.96
541.96	7119.91
542.13	7295.45
542.30	7222.89
542.47	7243.96
542.63	7129.27
542.80	7045.01
542.97	6935.01
543.14	7096.50
543.31	6860.11
543.48	7218.21
543.64	7492.05
543.81	7412.48
543.98	7428.86
544.15	7253.32
544.32	7037.99
544.48	7197.15
544.65	7042.67
544.82	7262.68
544.99	7176.08
545.16	7157.36
545.32	7148.00
545.49	7831.43
545.66	8685.73
545.83	9036.81
546.00	8594.45
546.16	7882.92
546.33	7403.11
546.50	7323.54
546.67	7241.62
546.83	7229.91
547.00	6986.50
547.17	6939.69
547.34	6862.45
547.50	6736.06
547.67	6785.21
547.84	6815.64
548.00	6958.41
548.17	6878.83
548.34	6991.18
548.51	6979.48
548.67	6988.84
548.84	7124.59
549.01	6895.22
549.18	6827.34
549.34	6691.59
549.51	6911.60
549.68	6672.87
549.84	6658.82
550.01	6644.78
550.18	6782.87
550.34	6696.27
550.51	6675.21
550.68	6707.98
550.84	6466.90
551.01	6506.69
551.18	6551.16
551.34	6525.41
551.51	6630.74
551.68	6722.02
551.84	6841.39
552.01	6771.17
552.18	6839.05
552.34	6630.74
552.51	6518.39
552.68	6181.35
552.84	6317.11
553.01	6457.54
553.18	6464.56
553.34	6759.47
553.51	6679.89
553.67	6633.08
553.84	6707.98
554.01	6490.31
554.17	6560.52
554.34	6604.99
554.51	6640.10
554.67	6612.01
554.84	6583.93
555.00	6640.10
555.17	6427.11
555.33	6424.77
555.50	6497.33
555.67	6487.96
555.83	6436.47
556.00	6218.80
556.16	6548.82
556.33	6209.44
556.50	6129.86
556.66	6340.51
556.83	6087.73
556.99	6317.11
557.16	6087.73
557.32	6277.32
557.49	6228.17
557.65	6235.19
557.82	6305.40
557.98	6443.49
558.15	6272.64
558.32	6157.95
558.48	5973.05
558.65	5949.64
558.81	6057.31
558.98	5870.06
559.14	5858.36
559.31	6195.40
559.47	6026.88
559.64	6120.50
559.80	5928.58
559.97	5834.96
560.13	6186.04
560.30	6167.31
560.46	6270.30
560.63	6373.28
560.79	6532.44
560.96	6263.27
561.12	6211.78
561.29	5589.20
561.45	5937.94
561.61	6064.33
561.78	6256.25
561.94	5991.77
562.11	6026.88
562.27	6169.65
562.44	6045.60
562.60	5991.77
562.77	6019.86
562.93	6296.04
563.10	6136.88
563.26	6012.84
563.42	6141.57
563.59	6038.58
563.75	5987.09
563.92	6047.94
564.08	5984.75
564.24	5984.75
564.41	6094.76
564.57	6047.94
564.74	5966.03
564.90	5961.34
565.07	5823.25
565.23	5923.90
565.39	5755.38
565.56	5853.68
565.72	5523.66
565.88	5809.21
566.05	5823.25
566.21	5722.61
566.38	5839.64
566.54	5717.93
566.70	5912.19
566.87	6017.52
567.03	5830.27
567.19	5827.93
567.36	5727.29
567.52	6001.13
567.68	5774.10
567.85	5755.38
568.01	5621.97
568.17	5336.42
568.34	5495.58
568.50	5397.28
568.66	5305.99
568.83	5334.08
568.99	5322.38
569.15	5521.32
569.32	5575.16
569.48	5416.00
569.64	5359.83
569.81	5270.89
569.97	5397.28
570.13	5383.23
570.30	5298.97
570.46	5570.48
570.62	5341.10
570.78	5151.52
570.95	5296.63
571.11	5359.83
571.27	5420.68
571.43	5317.70
571.60	5542.39
571.76	5486.22
571.92	5500.26
572.09	5486.22
572.25	5488.56
572.41	5593.88
572.57	5366.85
572.74	5654.73
572.90	5296.63
573.06	5551.75
573.22	5544.73
573.38	5455.79
573.55	5390.25
573.71	5483.88
573.87	5521.32
574.03	5247.48
574.20	5343.44
574.36	5287.27
574.52	5385.57
574.68	5277.91
574.84	5355.15
575.01	5322.38
575.17	5149.18
575.33	5144.50
575.49	5266.21
575.65	5380.89
575.82	5350.46
575.98	5296.63
576.14	5254.50
576.30	5460.47
576.46	5518.98
576.62	5699.20
576.79	5921.56
576.95	5760.06
577.11	5521.32
577.27	5348.12
577.43	5296.63
577.59	5263.86
577.75	5275.57
577.92	5125.77
578.08	5184.29
578.24	5085.98
578.40	5118.75
578.56	5282.59
578.72	5687.50
578.88	5666.44
579.04	5570.48
579.21	5509.62
579.37	5345.78
579.53	5345.78
579.69	5371.53
579.85	5486.22
580.01	5554.09
580.17	5390.25
580.33	5406.64
580.49	5369.19
580.65	5509.62
580.82	5291.95
580.98	5359.83
581.14	5444.09
581.30	5364.51
581.46	5486.22
581.62	5390.25
581.78	5518.98
581.94	5547.07
582.10	5528.35
582.26	5621.97
582.42	5547.07
582.58	5551.75
582.74	5659.42
582.90	5528.35
583.06	5493.24
583.22	5495.58
583.38	5589.20
583.54	5523.66
583.70	5310.68
583.86	5465.15
584.02	5547.07
584.18	5467.49
584.34	5418.34
584.50	5488.56
584.66	5404.30
584.82	5336.42
584.98	5294.29
585.14	5387.91
585.30	5266.21
585.46	5186.63
585.62	5102.37
585.78	5137.48
585.94	5226.42
586.10	5179.61
586.26	5174.92
586.42	5181.95
586.58	5329.40
586.74	5334.08
586.90	5221.74
587.06	5228.76
587.22	5198.33
587.38	5226.42
587.54	4997.04
587.70	4903.42
587.86	4873.00
588.02	4542.98
588.18	4500.85
588.34	4351.06
588.49	4138.07
588.65	3730.81
588.81	3728.47
588.97	3817.41
589.13	3627.83
589.29	3770.60
589.45	3751.88
589.61	3833.80
589.77	4016.36
589.93	4007.00
590.08	4168.49
590.24	4287.86
590.40	4374.46
590.56	4440.00
590.72	4374.46
590.88	4250.41
591.04	4173.18
591.20	4388.50
591.35	4428.29
591.51	4252.75
591.67	4304.25
591.83	4152.11
591.99	4208.28
592.15	4369.78
592.31	4423.61
592.46	4568.73
592.62	4521.92
592.78	4559.36
592.94	4545.32
593.10	4739.58
593.26	4734.90
593.41	4582.77
593.57	4627.24
593.73	4489.15
593.89	4346.37
594.05	4241.05
594.20	3995.29
594.36	4028.06
594.52	3978.91
594.68	4091.26
594.84	4205.94
594.99	4313.61
595.15	4414.25
595.31	4383.82
595.47	4552.34
595.62	4411.91
595.78	4329.99
595.94	4465.74
596.10	4596.81
596.25	4575.75
596.41	4428.29
596.57	4280.84
596.73	4589.79
596.88	4449.36
597.04	4550.00
597.20	4269.14
597.36	4315.95
597.51	4264.46
597.67	4358.08
597.83	4493.83
