SpectraSuite Data File
++++++++++++++++++++++++++++++++++++
Date: Fri Oct 04 11:44:13 GMT-05:00 2013
User: price-jones
Dark Spectrum Present: No
Reference Spectrum Present: No
Number of Sampled Component Spectra: 1
Spectrometers: USB2+H05261
Integration Time (usec): 100000 (USB2+H05261)
Spectra Averaged: 1 (USB2+H05261)
Boxcar Smoothing: 0 (USB2+H05261)
Correct for Electrical Dark: No (USB2+H05261)
Strobe/Lamp Enabled: No (USB2+H05261)
Correct for Detector Non-linearity: No (USB2+H05261)
Correct for Stray Light: No (USB2+H05261)
Number of Pixels in Processed Spectrum: 2048
>>>>>Begin Processed Spectral Data<<<<<
365.73	79.58
365.92	79.58
366.12	79.58
366.32	4.68
366.52	14.04
366.72	0.00
366.91	0.00
367.11	0.00
367.31	0.00
367.51	0.00
367.70	0.00
367.90	0.00
368.10	0.00
368.30	0.00
368.49	0.00
368.69	0.00
368.89	0.00
369.09	0.00
369.28	0.00
369.48	0.00
369.68	0.00
369.87	7.02
370.07	7.02
370.27	0.00
370.47	177.88
370.66	580.45
370.86	765.36
371.06	891.74
371.25	816.85
371.45	774.72
371.65	770.04
371.84	692.80
372.04	744.29
372.24	746.63
372.44	844.93
372.63	842.59
372.83	765.36
373.03	770.04
373.22	650.67
373.42	627.26
373.62	823.87
373.81	802.80
374.01	805.14
374.21	702.16
374.40	685.78
374.60	669.39
374.79	798.12
374.99	957.28
375.19	936.21
375.38	844.93
375.58	926.85
375.78	922.17
375.97	854.30
376.17	1015.79
376.37	1053.24
376.56	1008.77
376.76	1008.77
376.95	1029.84
377.15	1137.50
377.35	1219.42
377.54	1228.78
377.74	1210.06
377.93	1261.55
378.13	1160.91
378.33	1111.75
378.52	1090.69
378.72	1158.57
378.91	1025.15
379.11	971.32
379.31	880.04
379.50	966.64
379.70	1055.58
379.89	1057.92
380.09	1184.31
380.28	1200.69
380.48	1240.48
380.68	1067.28
380.87	1107.07
381.07	1062.60
381.26	978.34
381.46	985.37
381.65	851.96
381.85	933.87
382.04	903.45
382.24	753.65
382.43	770.04
382.63	802.80
382.83	763.01
383.02	805.14
383.22	830.89
383.41	781.74
383.61	800.46
383.80	903.45
384.00	938.55
384.19	1081.33
384.39	1231.12
384.58	1219.42
384.78	1203.04
384.97	1137.50
385.17	1170.27
385.36	978.34
385.56	1004.09
385.75	1088.35
385.95	1224.10
386.14	1179.63
386.34	1240.48
386.53	1153.88
386.72	1153.88
386.92	1135.16
387.11	1074.31
387.31	1203.04
387.50	1121.12
387.70	1153.88
387.89	1160.91
388.09	1137.50
388.28	1177.29
388.48	1174.95
388.67	1174.95
388.86	1338.79
389.06	1460.49
389.25	1516.67
389.45	1413.68
389.64	1490.92
389.84	1467.52
390.03	1453.47
390.22	1380.92
390.42	1453.47
390.61	1593.90
390.81	1612.63
391.00	1724.97
391.19	1687.53
391.39	1621.99
391.58	1607.95
391.78	1413.68
391.97	1476.88
392.16	1301.34
392.36	1259.21
392.55	1050.90
392.75	819.19
392.94	716.20
393.13	800.46
393.33	798.12
393.52	1015.79
393.71	1231.12
393.91	1273.25
394.10	1423.05
394.29	1472.20
394.49	1605.61
394.68	1729.66
394.88	1827.96
395.07	1863.07
395.26	1778.81
395.46	1619.65
395.65	1762.42
395.84	1448.79
396.04	1249.85
396.23	1100.05
396.42	1004.09
396.62	943.24
396.81	1081.33
397.00	1380.92
397.19	1533.05
397.39	1682.85
397.58	1853.70
397.77	2120.53
397.97	2094.78
398.16	2127.55
398.35	2225.85
398.55	2181.38
398.74	2422.45
398.93	2335.85
399.12	2399.05
399.32	2354.58
399.51	2377.98
399.70	2518.42
399.90	2483.31
400.09	2487.99
400.28	2523.10
400.47	2462.24
400.67	2654.17
400.86	2700.98
401.05	2539.48
401.24	2668.21
401.44	2708.00
401.63	2715.02
401.82	2785.24
402.01	2715.02
402.21	2801.62
402.40	2766.51
402.59	2635.44
402.78	2576.93
402.97	2380.32
403.17	2600.34
403.36	2731.41
403.55	2827.37
403.74	2860.13
403.93	2799.28
404.13	2689.28
404.32	2705.66
404.51	2771.19
404.70	2925.67
404.89	2757.15
405.09	2623.74
405.28	2703.32
405.47	2752.47
405.66	2656.51
405.85	2689.28
406.05	2628.42
406.24	2483.31
406.43	2647.15
406.62	2778.22
406.81	2799.28
407.00	2623.74
407.20	2745.45
407.39	2689.28
407.58	2808.64
407.77	2766.51
407.96	2869.50
408.15	2930.35
408.34	2946.73
408.54	2920.99
408.73	3105.89
408.92	3028.65
409.11	2963.12
409.30	2904.60
409.49	2726.72
409.68	2495.01
409.87	2450.54
410.07	2548.84
410.26	2738.43
410.45	2862.48
410.64	2902.26
410.83	3033.33
411.02	3183.13
411.21	3276.75
411.40	3129.30
411.59	3255.69
411.78	3171.43
411.98	3227.60
412.17	3199.51
412.36	3194.83
412.55	3143.34
412.74	3112.91
412.93	3098.87
413.12	3112.91
413.31	3309.52
413.50	3398.46
413.69	3499.10
413.88	3384.41
414.07	3243.98
414.26	3290.79
414.45	3321.22
414.64	3290.79
414.83	3323.56
415.02	3295.47
415.22	3328.24
415.41	3353.99
415.60	3489.74
415.79	3576.34
415.98	3749.54
416.17	3616.13
416.36	3595.06
416.55	3517.83
416.74	3370.37
416.93	3276.75
417.12	3433.57
417.31	3468.67
417.50	3421.86
417.69	3644.21
417.88	3515.48
418.07	3417.18
418.26	3421.86
418.45	3442.93
418.64	3705.07
418.83	3669.96
419.02	3632.51
419.21	3681.66
419.39	3506.12
419.58	3370.37
419.77	3370.37
419.96	3403.14
420.15	3583.36
420.34	3681.66
420.53	3740.18
420.72	3887.63
420.91	3861.88
421.10	3782.31
421.29	3786.99
421.48	3742.52
421.67	3815.07
421.86	3744.86
422.05	3459.31
422.24	3246.32
422.43	3307.18
422.61	3562.30
422.80	3609.11
422.99	3749.54
423.18	3559.95
423.37	3620.81
423.56	3492.08
423.75	3571.66
423.94	3536.55
424.13	3389.10
424.32	3421.86
424.50	3599.74
424.69	3382.07
424.88	3651.24
425.07	3576.34
425.26	3421.86
425.45	3398.46
425.64	3286.11
425.83	3297.81
426.01	3597.40
426.20	3606.77
426.39	3538.89
426.58	3386.76
426.77	3194.83
426.96	3112.91
427.15	3026.31
427.33	3419.52
427.52	3424.20
427.71	3384.41
427.90	3492.08
428.09	3382.07
428.28	3323.56
428.46	3356.33
428.65	3255.69
428.84	3424.20
429.03	3377.39
429.22	3218.24
429.40	3012.27
429.59	2747.79
429.78	2462.24
429.97	2415.43
430.16	2450.54
430.34	2492.67
430.53	2506.71
430.72	2661.19
430.91	2864.82
431.10	3145.68
431.28	3669.96
431.47	3868.91
431.66	4105.30
431.85	3815.07
432.03	3431.23
432.22	3445.27
432.41	3506.12
432.60	3899.33
432.79	3810.39
432.97	4049.13
433.16	3873.59
433.35	3644.21
433.54	3375.05
433.72	3178.45
433.91	3262.71
434.10	3414.84
434.28	3765.92
434.47	3908.69
434.66	3850.18
434.85	3936.78
435.03	3992.95
435.22	4526.60
435.41	5198.33
435.59	5406.64
435.78	5128.11
435.97	4629.58
436.16	4470.42
436.34	4131.05
436.53	4091.26
436.72	4135.73
436.90	3969.55
437.09	3913.38
437.28	3824.44
437.46	3943.80
437.65	3929.76
437.84	3871.25
438.02	3428.88
438.21	3459.31
438.40	3559.95
438.58	3946.14
438.77	4049.13
438.96	3992.95
439.14	4081.89
439.33	4297.22
439.52	4292.54
439.70	4201.26
439.89	4156.79
440.08	3995.29
440.26	3896.99
440.45	4128.70
440.63	4304.25
440.82	4657.67
441.01	4582.77
441.19	4461.06
441.38	4603.83
441.57	4755.97
441.75	4938.53
441.94	4730.22
442.12	4767.67
442.31	4908.10
442.50	4805.12
442.68	4727.88
442.87	4777.03
443.05	4624.90
443.24	4784.06
443.43	4826.18
443.61	4968.96
443.80	5001.72
443.98	4758.31
444.17	4697.46
444.35	4931.51
444.54	5107.05
444.73	5043.85
444.91	4833.21
445.10	4650.64
445.28	4348.72
445.47	4390.84
445.65	4187.22
445.84	4533.62
446.02	4650.64
446.21	4711.50
446.39	4830.87
446.58	4777.03
446.77	4875.34
446.95	4905.76
447.14	4999.38
447.32	5135.14
447.51	5029.81
447.69	4784.06
447.88	4858.95
448.06	4746.61
448.25	4954.91
448.43	4952.57
448.62	4889.38
448.80	4683.41
448.99	4826.18
449.17	4795.76
449.36	4812.14
449.54	5104.71
449.73	5071.94
449.91	5338.76
450.10	5184.29
450.28	5343.44
450.46	5352.81
450.65	5530.69
450.83	5350.46
451.02	5315.36
451.20	5191.31
451.39	5397.28
451.57	5125.77
451.76	5188.97
451.94	5116.41
452.13	5029.81
452.31	4901.08
452.49	4662.35
452.68	4688.09
452.86	4610.86
453.05	4854.27
453.23	4758.31
453.42	4877.68
453.60	5090.67
453.78	5167.90
453.97	4959.60
454.15	5160.88
454.34	4802.78
454.52	5008.75
454.70	4975.98
454.89	5064.92
455.07	4950.23
455.26	5067.26
455.44	5135.14
455.62	5313.02
455.81	5275.57
455.99	5460.47
456.17	5191.31
456.36	5350.46
456.54	5249.82
456.73	5439.40
456.91	5448.77
457.09	5589.20
457.28	5671.12
457.46	5434.72
457.64	5481.53
457.83	5256.84
458.01	5144.50
458.19	5102.37
458.38	5116.41
458.56	5348.12
458.74	5298.97
458.93	5320.04
459.11	5439.40
459.29	5338.76
459.48	5289.61
459.66	5294.29
459.84	5301.31
460.03	5469.83
460.21	5280.25
460.39	5598.56
460.57	5493.24
460.76	5568.13
460.94	5301.31
461.12	5439.40
461.31	5427.70
461.49	5455.79
461.67	5441.75
461.85	5708.57
462.04	5575.16
462.22	6029.22
462.40	5591.54
462.59	5757.72
462.77	5533.03
462.95	5621.97
463.13	5638.35
463.32	5554.09
463.50	5486.22
463.68	5427.70
463.86	5502.60
464.05	5453.45
464.23	5397.28
464.41	5310.68
464.59	5261.52
464.78	5427.70
464.96	5383.23
465.14	5320.04
465.32	5488.56
465.50	5586.86
465.69	5675.80
465.87	5565.79
466.05	5289.61
466.23	5046.20
466.41	5022.79
466.60	5231.10
466.78	5249.82
466.96	5296.63
467.14	5277.91
467.32	5467.49
467.51	5411.32
467.69	5341.10
467.87	5425.36
468.05	5432.38
468.23	5416.00
468.41	5453.45
468.60	5362.17
468.78	5472.17
468.96	5273.23
469.14	5401.96
469.32	5518.98
469.50	5277.91
469.69	5308.34
469.87	5359.83
470.05	5296.63
470.23	5151.52
470.41	5371.53
470.59	5130.45
470.77	5397.28
470.95	5558.77
471.14	5563.45
471.32	5469.83
471.50	5841.98
471.68	5823.25
471.86	5738.99
472.04	5799.85
472.22	5792.83
472.40	5596.22
472.58	5514.30
472.77	5467.49
472.95	5570.48
473.13	5849.00
473.31	5603.24
473.49	5746.02
473.67	5825.59
473.85	5816.23
474.03	5996.45
474.21	5928.58
474.39	5959.00
474.57	6120.50
474.75	6141.57
474.93	5907.51
475.12	5914.53
475.30	5874.74
475.48	5914.53
475.66	5966.03
475.84	5851.34
476.02	5769.42
476.20	5792.83
476.38	5860.70
476.56	5909.85
476.74	6122.84
476.92	6186.04
477.10	6153.27
477.28	6403.71
477.46	6420.09
477.64	6401.37
477.82	6445.84
478.00	6534.78
478.18	6265.61
478.36	6382.64
478.54	6406.05
478.72	6504.35
478.90	6394.34
479.08	6691.59
479.26	6764.15
479.44	6761.81
479.62	6733.72
479.80	6757.13
479.98	6759.47
480.16	6892.88
480.34	6801.60
480.52	6991.18
480.70	6848.41
480.88	6789.89
481.06	7033.31
481.24	7035.65
481.41	7098.84
481.59	7384.39
481.77	7351.62
481.95	7417.16
482.13	7265.02
482.31	7272.04
482.49	7552.91
482.67	7236.94
482.85	7520.14
483.03	7548.23
483.21	7604.40
483.39	7431.20
483.57	7363.33
483.74	7398.43
483.92	7393.75
484.10	7300.13
484.28	7754.19
484.46	7812.71
484.64	7721.43
484.82	7691.00
485.00	7555.25
485.18	7407.80
485.35	7337.58
485.53	6736.06
485.71	6188.38
485.89	6160.29
486.07	6347.53
486.25	6710.32
486.43	7330.56
486.61	7382.05
486.78	7321.20
486.96	7426.52
487.14	7777.60
487.32	7971.86
487.50	7873.56
487.68	8262.09
487.85	8304.22
488.03	8446.99
488.21	8264.43
488.39	8306.56
488.57	8184.85
488.75	7906.33
488.92	8344.01
489.10	8596.79
489.28	8929.14
489.46	8933.82
489.64	9128.09
489.81	9195.96
489.99	9170.22
490.17	8905.74
490.35	9193.62
490.53	9022.77
490.70	9067.24
490.88	8926.80
491.06	9046.17
491.24	9406.61
491.41	8894.04
491.59	8606.15
491.77	8404.86
491.95	8620.19
492.13	8748.92
492.30	9146.81
492.48	9516.62
492.66	9600.88
492.84	9551.73
493.01	9774.08
493.19	9231.07
493.37	9289.59
493.54	9064.89
493.72	9085.96
493.90	9631.30
494.08	9949.62
494.25	10104.09
494.43	10209.42
494.61	10033.88
494.79	10141.54
494.96	10012.81
495.14	9977.70
495.32	9879.40
495.49	9493.21
495.67	9659.39
495.85	10209.42
496.02	10506.66
496.20	10150.90
496.38	10073.67
496.55	10108.77
496.73	10492.62
496.91	10303.04
497.09	10504.32
497.26	10696.25
497.44	10263.25
497.62	10293.68
497.79	9820.89
497.97	9720.24
498.14	9706.20
498.32	10108.77
498.50	10263.25
498.67	10438.79
498.85	10319.42
499.03	10403.68
499.20	10539.43
499.38	10546.45
499.56	10420.06
499.73	10476.24
499.91	10235.16
500.08	9872.38
500.26	9774.08
500.44	9958.98
500.61	10019.83
500.79	10176.65
500.97	9848.97
501.14	10134.52
501.32	9563.43
501.49	9727.27
501.67	9727.27
501.84	10122.82
502.02	10183.67
502.20	10438.79
502.37	10317.08
502.55	9958.98
502.72	10286.65
502.90	10487.94
503.07	10258.57
503.25	9832.59
503.43	9448.74
503.60	9329.38
503.78	9123.41
503.95	9516.62
504.13	9767.06
504.30	10331.12
504.48	10251.55
504.65	10382.62
504.83	10272.61
505.01	10808.59
505.18	10541.77
505.36	10829.66
505.53	10675.18
505.71	10700.93
505.88	10942.00
506.06	10944.34
506.23	10836.68
506.41	10281.97
506.58	10689.23
506.76	10370.91
506.93	10583.90
507.11	10186.01
507.28	10455.17
507.46	10373.25
507.63	10076.01
507.81	10045.58
507.98	10293.68
508.16	10310.06
508.33	10441.13
508.50	10693.91
508.68	11056.69
508.85	11218.19
509.03	10934.98
509.20	11098.82
509.38	10853.06
509.55	10401.34
509.73	10649.44
509.90	10696.25
510.08	10616.67
510.25	11159.67
510.42	10885.83
510.60	10738.38
510.77	10848.38
510.95	11143.29
511.12	10972.43
511.30	11236.91
511.47	11482.67
511.64	11463.94
511.82	11194.78
511.99	11089.46
512.17	10820.30
512.34	10469.22
512.51	10855.40
512.69	10897.53
512.86	10911.58
513.04	11023.92
513.21	11281.38
513.38	10745.40
513.56	10691.57
513.73	10324.10
513.90	10516.03
514.08	10621.35
514.25	10714.97
514.43	10803.91
514.60	10633.05
514.77	11084.78
514.95	10986.47
515.12	10757.10
515.29	10810.93
515.47	11037.97
515.64	11222.87
515.81	10991.16
515.99	10909.24
516.16	10312.40
516.33	9818.55
516.51	9088.30
516.68	8926.80
516.85	8732.54
517.03	8755.94
517.20	9408.95
517.37	10518.37
517.54	10817.96
517.72	10635.39
517.89	10183.67
518.06	9057.87
518.24	9130.43
518.41	9734.29
518.58	10239.84
518.75	10391.98
518.93	10391.98
519.10	10555.82
519.27	10602.63
519.45	10572.20
519.62	10827.32
519.79	11021.58
519.96	11061.37
520.14	10827.32
520.31	10604.97
520.48	10267.93
520.65	10630.71
520.83	10899.87
521.00	11183.08
521.17	11159.67
521.34	10991.16
521.52	11044.99
521.69	11192.44
521.86	11419.47
522.03	11204.14
522.20	10801.57
522.38	10642.42
522.55	10450.49
522.72	10499.64
522.89	10576.88
523.07	10754.76
523.24	10691.57
523.41	10944.34
523.58	11194.78
523.75	11538.84
523.92	11248.61
524.10	11522.46
524.27	11494.37
524.44	11625.44
524.61	11314.15
524.78	11157.33
524.96	11164.36
525.13	11063.71
525.30	11321.17
525.47	11494.37
525.64	11501.39
525.81	11421.81
525.98	10567.52
526.16	10090.05
526.33	9886.42
526.50	9809.19
526.67	9556.41
526.84	9640.67
527.01	10186.01
527.18	10471.56
527.36	10787.53
527.53	11147.97
527.70	11309.47
527.87	11131.59
528.04	10855.40
528.21	10857.75
528.38	11330.53
528.55	11513.10
528.72	11768.21
528.89	11815.02
529.07	11641.82
529.24	11440.54
529.41	11274.36
529.58	10855.40
529.75	11016.90
529.92	11176.06
530.09	11012.22
530.26	11417.13
530.43	11522.46
530.60	11620.76
530.77	11611.40
530.94	11892.26
531.11	11714.38
531.28	11398.41
531.46	11344.58
531.63	11262.66
531.80	11337.56
531.97	11370.32
532.14	10806.25
532.31	10581.56
532.48	10483.26
532.65	10132.18
532.82	10499.64
532.99	10853.06
533.16	11307.13
533.33	11555.22
533.50	11330.53
533.67	11044.99
533.84	10839.02
534.01	10988.82
534.18	10897.53
534.35	11227.55
534.52	11066.05
534.69	11082.44
534.86	11215.85
535.03	11115.20
535.20	11637.14
535.37	11775.24
535.54	11758.85
535.71	11967.16
535.88	11576.29
536.05	11438.20
536.22	10951.37
536.38	10981.79
536.55	10986.47
536.72	10738.38
536.89	10579.22
537.06	10853.06
537.23	11365.64
537.40	11318.83
537.57	11140.95
537.74	11276.70
537.91	11346.92
538.08	11197.12
538.25	11023.92
538.42	11527.14
538.59	11269.68
538.75	10923.28
538.92	11014.56
539.09	11009.88
539.26	10930.30
539.43	10787.53
539.60	10829.66
539.77	11091.80
539.94	10787.53
540.11	10869.45
540.28	10420.06
540.44	10714.97
540.61	10654.12
540.78	10860.09
540.95	11054.35
541.12	11548.20
541.29	11620.76
541.46	11896.94
541.62	11882.90
541.79	11616.08
541.96	11452.24
542.13	11440.54
542.30	11447.56
542.47	11569.27
542.63	11407.77
542.80	11222.87
542.97	11286.06
543.14	11339.90
543.31	11276.70
543.48	11171.38
543.64	11618.42
543.81	11943.75
543.98	11875.88
544.15	11726.08
544.32	11456.92
544.48	11290.74
544.65	11461.60
544.82	11674.59
544.99	11723.74
545.16	11433.52
545.32	11545.86
545.49	12187.17
545.66	13579.79
545.83	14328.76
546.00	13336.37
546.16	12325.26
546.33	11997.59
546.50	11445.22
546.67	11627.78
546.83	11276.70
547.00	11674.59
547.17	11066.05
547.34	10920.94
547.50	11005.20
547.67	10939.66
547.84	10946.69
548.00	11274.36
548.17	11260.32
548.34	11257.98
548.51	11208.83
548.67	11126.91
548.84	11140.95
549.01	10906.90
549.18	11133.93
549.34	11147.97
549.51	10871.79
549.68	11026.26
549.84	11037.97
550.01	11042.65
550.18	10895.19
550.34	10977.11
550.51	10799.23
550.68	10857.75
550.84	10413.04
551.01	10534.75
551.18	10548.79
551.34	10471.56
551.51	10836.68
551.68	10815.62
551.84	10967.75
552.01	10960.73
552.18	10911.58
552.34	10619.01
552.51	10305.38
552.68	10462.19
552.84	10607.31
553.01	10483.26
553.18	10647.10
553.34	10457.51
553.51	10693.91
553.67	10726.68
553.84	11040.31
554.01	10705.61
554.17	10689.23
554.34	10466.88
554.51	10670.50
554.67	10621.35
554.84	10829.66
555.00	10670.50
555.17	10640.08
555.33	10726.68
555.50	10513.69
555.67	10466.88
555.83	10471.56
556.00	10228.14
556.16	10391.98
556.33	10195.37
556.50	10256.23
556.66	10193.03
556.83	10125.16
556.99	10097.07
557.16	10120.48
557.32	10036.22
557.49	10429.43
557.65	10122.82
557.82	10389.64
557.98	10361.55
558.15	9980.04
558.32	9916.85
558.48	9666.41
558.65	9736.63
558.81	9722.59
558.98	9661.73
559.14	9865.36
559.31	9781.10
559.47	9839.61
559.64	9877.06
559.80	9797.48
559.97	9703.86
560.13	9753.01
560.30	10134.52
560.46	10431.77
560.63	10197.71
560.79	10434.11
560.96	10204.74
561.12	10054.94
561.29	9605.56
561.45	9598.54
561.61	9753.01
561.78	10188.35
561.94	9778.76
562.11	9870.04
562.27	9675.77
562.44	9926.21
562.60	9799.82
562.77	10059.62
562.93	10008.13
563.10	9989.41
563.26	9867.70
563.42	9961.32
563.59	9797.48
563.75	9802.16
563.92	9612.58
564.08	9638.33
564.24	9696.84
564.41	9844.29
564.57	9645.35
564.74	9570.45
564.90	9645.35
565.07	9830.25
565.23	9668.75
565.39	9336.40
565.56	9345.76
565.72	9371.50
565.88	9282.56
566.05	9371.50
566.21	9238.09
566.38	9514.28
566.54	9521.30
566.70	9734.29
566.87	9554.07
567.03	9741.31
567.19	9556.41
567.36	9570.45
567.52	9413.63
567.68	9336.40
567.85	9130.43
568.01	8884.67
568.17	8999.36
568.34	8912.76
568.50	8826.16
568.66	8772.33
568.83	8826.16
568.99	9011.06
569.15	9097.66
569.32	8858.93
569.48	9135.11
569.64	8926.80
569.81	8791.05
569.97	8863.61
570.13	9043.83
570.30	8812.12
570.46	8856.59
570.62	8503.17
570.78	8416.57
570.95	8465.72
571.11	8681.05
571.27	8826.16
571.43	8957.23
571.60	8915.10
571.76	8772.33
571.92	8966.59
572.09	9001.70
572.25	8997.02
572.41	8751.26
572.57	8894.04
572.74	9011.06
572.90	8966.59
573.06	8720.84
573.22	8912.76
573.38	8809.78
573.55	8769.99
573.71	9186.60
573.87	8842.54
574.03	8842.54
574.20	8882.33
574.36	8795.73
574.52	8631.90
574.68	8765.31
574.84	8753.60
575.01	8486.78
575.17	8423.59
575.33	8482.10
575.49	8688.07
575.65	8634.24
575.82	8594.45
575.98	8446.99
576.14	8585.08
576.30	8582.74
576.46	9039.15
576.62	9207.67
576.79	9373.85
576.95	9020.42
577.11	8734.88
577.27	8819.14
577.43	8849.57
577.59	8662.32
577.75	8479.76
577.92	8430.61
578.08	8248.05
578.24	8315.92
578.40	8517.21
578.56	8767.65
578.72	9020.42
578.88	9057.87
579.04	8872.97
579.21	8975.95
579.37	8938.51
579.53	8568.70
579.69	8683.39
579.85	8929.14
580.01	9055.53
580.17	8837.86
580.33	8713.81
580.49	8678.71
580.65	8683.39
580.82	8858.93
580.98	8889.35
581.14	8903.40
581.30	8823.82
581.46	8858.93
581.62	8769.99
581.78	8725.52
581.94	8847.22
582.10	8940.85
582.26	9001.70
582.42	8992.34
582.58	8917.44
582.74	8896.38
582.90	8973.61
583.06	9109.36
583.22	8889.35
583.38	8917.44
583.54	8854.25
583.70	8791.05
583.86	8816.80
584.02	8821.48
584.18	9097.66
584.34	8769.99
584.50	8713.81
584.66	8671.68
584.82	8585.08
584.98	8578.06
585.14	8531.25
585.30	8610.83
585.46	8234.00
585.62	8152.09
585.78	8287.84
585.94	8383.80
586.10	8348.69
586.26	8411.89
586.42	8414.23
586.58	8442.31
586.74	8575.72
586.90	8411.89
587.06	8514.87
587.22	8243.37
587.38	8032.72
587.54	8084.21
587.70	7955.48
587.86	7765.90
588.02	7463.97
588.18	7183.10
588.34	6895.22
588.49	6490.31
588.65	6139.23
588.81	5926.24
588.97	5912.19
589.13	6127.52
589.29	5923.90
589.45	6101.78
589.61	6001.13
589.77	6307.74
589.93	6604.99
590.08	6682.23
590.24	7089.48
590.40	7066.08
590.56	7124.59
590.72	7019.27
590.88	6864.79
591.04	7105.87
591.20	7049.69
591.35	7000.54
591.51	6799.26
591.67	6696.27
591.83	6672.87
591.99	6663.51
592.15	6782.87
592.31	7077.78
592.46	7417.16
592.62	7353.96
592.78	7351.62
592.94	7379.71
593.10	7342.26
593.26	7508.44
