SpectraSuite Data File
++++++++++++++++++++++++++++++++++++
Date: Fri Oct 04 11:44:13 GMT-05:00 2013
User: price-jones
Dark Spectrum Present: No
Reference Spectrum Present: No
Number of Sampled Component Spectra: 1
Spectrometers: USB2+H05261
Integration Time (usec): 100000 (USB2+H05261)
Spectra Averaged: 1 (USB2+H05261)
Boxcar Smoothing: 0 (USB2+H05261)
Correct for Electrical Dark: No (USB2+H05261)
Strobe/Lamp Enabled: No (USB2+H05261)
Correct for Detector Non-linearity: No (USB2+H05261)
Correct for Stray Light: No (USB2+H05261)
Number of Pixels in Processed Spectrum: 2048
>>>>>Begin Processed Spectral Data<<<<<
365.73	9.36
365.92	9.36
366.12	9.36
366.32	0.00
366.52	0.00
366.72	0.00
366.91	0.00
367.11	0.00
367.31	0.00
367.51	0.00
367.70	0.00
367.90	0.00
368.10	0.00
368.30	0.00
368.49	0.00
368.69	0.00
368.89	0.00
369.09	0.00
369.28	0.00
369.48	0.00
369.68	0.00
369.87	0.00
370.07	0.00
370.27	21.06
370.47	191.92
370.66	594.50
370.86	788.76
371.06	809.83
371.25	826.21
371.45	699.82
371.65	725.57
371.84	629.60
372.04	695.14
372.24	870.68
372.44	837.91
372.63	784.08
372.83	753.65
373.03	720.88
373.22	692.80
373.42	645.99
373.62	697.48
373.81	884.72
374.01	767.70
374.21	725.57
374.40	648.33
374.60	711.52
374.79	760.67
374.99	933.87
375.19	933.87
375.38	959.62
375.58	950.26
375.78	887.06
375.97	842.59
376.17	943.24
376.37	938.55
376.56	999.41
376.76	966.64
376.95	976.00
377.15	1102.39
377.35	1118.78
377.54	1107.07
377.74	1144.52
377.93	1139.84
378.13	1174.95
378.33	1142.18
378.52	1081.33
378.72	980.68
378.91	1013.45
379.11	945.58
379.31	1015.79
379.50	898.77
379.70	1053.24
379.89	1064.94
380.09	1146.86
380.28	1184.31
380.48	1196.01
380.68	1125.80
380.87	1174.95
381.07	1090.69
381.26	1013.45
381.46	999.41
381.65	873.02
381.85	922.17
382.04	847.27
382.24	753.65
382.43	779.40
382.63	723.23
382.83	781.74
383.02	828.55
383.22	812.17
383.41	805.14
383.61	840.25
383.80	884.72
384.00	1060.26
384.19	1083.67
384.39	1172.61
384.58	1167.93
384.78	1109.41
384.97	1116.44
385.17	1144.52
385.36	1097.71
385.56	971.32
385.75	966.64
385.95	1095.37
386.14	1167.93
386.34	1137.50
386.53	1151.54
386.72	999.41
386.92	1093.03
387.11	1114.10
387.31	1137.50
387.50	1121.12
387.70	1153.88
387.89	1123.46
388.09	1114.10
388.28	1090.69
388.48	1135.16
388.67	1163.25
388.86	1256.87
389.06	1371.55
389.25	1495.60
389.45	1535.39
389.64	1504.96
389.84	1535.39
390.03	1476.88
390.22	1465.18
390.42	1437.09
390.61	1476.88
390.81	1619.65
391.00	1666.46
391.19	1767.10
391.39	1586.88
391.58	1458.15
391.78	1453.47
391.97	1446.45
392.16	1334.11
392.36	1299.00
392.55	1027.50
392.75	880.04
392.94	746.63
393.13	709.18
393.33	826.21
393.52	978.34
393.71	1196.01
393.91	1287.29
394.10	1362.19
394.29	1467.52
394.49	1638.38
394.68	1673.48
394.88	1678.16
395.07	1813.92
395.26	1804.55
395.46	1795.19
395.65	1671.14
395.84	1444.11
396.04	1299.00
396.23	1048.56
396.42	978.34
396.62	922.17
396.81	999.41
397.00	1233.46
397.19	1582.20
397.39	1795.19
397.58	1933.28
397.77	2076.06
397.97	2097.12
398.16	2172.02
398.35	2230.53
398.55	2221.17
398.74	2368.62
398.93	2291.38
399.12	2438.84
399.32	2230.53
399.51	2356.92
399.70	2459.90
399.90	2459.90
400.09	2502.03
400.28	2424.80
400.47	2502.03
400.67	2562.89
400.86	2541.82
401.05	2609.70
401.24	2588.63
401.44	2626.08
401.63	2693.96
401.82	2768.85
402.01	2738.43
402.21	2719.70
402.40	2595.65
402.59	2562.89
402.78	2497.35
402.97	2469.27
403.17	2647.15
403.36	2619.06
403.55	2745.45
403.74	2796.94
403.93	2675.23
404.13	2834.39
404.32	2754.81
404.51	2864.82
404.70	2881.20
404.89	2696.30
405.09	2717.36
405.28	2581.61
405.47	2576.93
405.66	2661.19
405.85	2548.84
406.05	2406.07
406.24	2511.39
406.43	2581.61
406.62	2633.10
406.81	2663.53
407.00	2731.41
407.20	2597.99
407.39	2757.15
407.58	2871.84
407.77	2775.88
407.96	2754.81
408.15	2878.86
408.34	2988.86
408.54	2963.12
408.73	2871.84
408.92	3000.57
409.11	2939.71
409.30	2757.15
409.49	2588.63
409.68	2401.39
409.87	2345.22
410.07	2448.20
410.26	2818.00
410.45	2932.69
410.64	2897.58
410.83	2902.26
411.02	2993.55
411.21	3197.17
411.40	3091.85
411.59	3124.62
411.78	3045.04
411.98	3131.64
412.17	3213.56
412.36	3129.30
412.55	3098.87
412.74	3047.38
412.93	3019.29
413.12	3002.91
413.31	3325.90
413.50	3246.32
413.69	3332.92
413.88	3288.45
414.07	3162.06
414.26	3243.98
414.45	3197.17
414.64	3403.14
414.83	3391.44
415.02	3293.13
415.22	3314.20
415.41	3431.23
415.60	3384.41
415.79	3550.59
415.98	3653.58
416.17	3740.18
416.36	3515.48
416.55	3452.29
416.74	3440.59
416.93	3253.34
417.12	3229.94
417.31	3368.03
417.50	3393.78
417.69	3609.11
417.88	3386.76
418.07	3426.54
418.26	3321.22
418.45	3386.76
418.64	3574.00
418.83	3620.81
419.02	3705.07
419.21	3562.30
419.39	3426.54
419.58	3304.84
419.77	3372.71
419.96	3297.81
420.15	3632.51
420.34	3723.79
420.53	3763.58
420.72	3889.97
420.91	3873.59
421.10	3559.95
421.29	3815.07
421.48	3543.57
421.67	3866.56
421.86	3709.75
422.05	3531.87
422.24	3124.62
422.43	3101.21
422.61	3440.59
422.80	3700.39
422.99	3655.92
423.18	3653.58
423.37	3391.44
423.56	3456.97
423.75	3571.66
423.94	3534.21
424.13	3403.14
424.32	3419.52
424.50	3368.03
424.69	3309.52
424.88	3485.06
425.07	3466.33
425.26	3396.12
425.45	3440.59
425.64	3274.41
425.83	3318.88
426.01	3487.40
426.20	3571.66
426.39	3569.32
426.58	3255.69
426.77	3115.25
426.96	3066.10
427.15	3066.10
427.33	3183.13
427.52	3405.48
427.71	3541.23
427.90	3475.70
428.09	3449.95
428.28	3283.77
428.46	3318.88
428.65	3126.96
428.84	3218.24
429.03	3332.92
429.22	3096.53
429.40	2874.18
429.59	2712.68
429.78	2546.50
429.97	2401.39
430.16	2555.86
430.34	2417.77
430.53	2471.61
430.72	2567.57
430.91	2843.75
431.10	3176.11
431.28	3700.39
431.47	3992.95
431.66	4046.79
431.85	3705.07
432.03	3564.64
432.22	3349.31
432.41	3365.69
432.60	3721.45
432.79	3887.63
432.97	4053.81
433.16	3962.53
433.35	3623.15
433.54	3302.50
433.72	3164.40
433.91	2998.23
434.10	3398.46
434.28	3688.68
434.47	3899.33
434.66	3854.86
434.85	3836.14
435.03	3908.69
435.22	4306.59
435.41	5130.45
435.59	5453.45
435.78	4947.89
435.97	4690.43
436.16	4327.65
436.34	4147.43
436.53	4105.30
436.72	4222.33
436.90	3918.06
437.09	3904.01
437.28	3744.86
437.46	3922.74
437.65	3918.06
437.84	3805.71
438.02	3421.86
438.21	3393.78
438.40	3527.19
438.58	3763.58
438.77	3899.33
438.96	4112.32
439.14	4100.62
439.33	4063.17
439.52	4117.00
439.70	4142.75
439.89	4058.49
440.08	3957.85
440.26	3922.74
440.45	4084.23
440.63	4166.15
440.82	4482.13
441.01	4447.02
441.19	4334.67
441.38	4477.44
441.57	4678.73
441.75	4760.65
441.94	4744.27
442.12	4638.94
442.31	4678.73
442.50	4615.54
442.68	4732.56
442.87	4606.17
443.05	4545.32
443.24	4779.37
443.43	4727.88
443.61	4802.78
443.80	4779.37
443.98	4535.96
444.17	4566.39
444.35	4737.24
444.54	4854.27
444.73	4919.81
444.91	4716.18
445.10	4631.92
445.28	4397.87
445.47	4234.03
445.65	4259.78
445.84	4472.76
446.02	4507.87
446.21	4669.37
446.39	4641.28
446.58	4667.03
446.77	4819.16
446.95	4723.20
447.14	4910.44
447.32	4994.70
447.51	4854.27
447.69	4704.48
447.88	4652.98
448.06	4940.87
448.25	4903.42
448.43	4997.04
448.62	4809.80
448.80	4823.84
448.99	4737.24
449.17	4933.85
449.36	4844.91
449.54	4968.96
449.73	5039.17
449.91	5193.65
450.10	5280.25
450.28	5490.90
450.46	5357.49
450.65	5291.95
450.83	5380.89
451.02	5221.74
451.20	5118.75
451.39	5060.24
451.57	4877.68
451.76	5093.01
451.94	5104.71
452.13	4938.53
452.31	4777.03
452.49	4461.06
452.68	4559.36
452.86	4568.73
453.05	4734.90
453.23	4889.38
453.42	5015.77
453.60	4959.60
453.78	5210.03
453.97	4915.12
454.15	5048.54
454.34	4741.93
454.52	4755.97
454.70	4835.55
454.89	5020.45
455.07	4828.53
455.26	4873.00
455.44	5315.36
455.62	5163.22
455.81	5228.76
455.99	5242.80
456.17	5217.05
456.36	5170.24
456.54	5252.16
456.73	5156.20
456.91	5481.53
457.09	5268.55
457.28	5533.03
457.46	5329.40
457.64	5245.14
457.83	5085.98
458.01	5064.92
458.19	5191.31
458.38	5069.60
458.56	5235.78
458.74	5329.40
458.93	5282.59
459.11	5102.37
459.29	5048.54
459.48	5289.61
459.66	5352.81
459.84	5327.06
460.03	5359.83
460.21	5270.89
460.39	5394.93
460.57	5336.42
460.76	5355.15
460.94	5376.21
461.12	5507.28
461.31	5500.26
461.49	5366.85
461.67	5210.03
461.85	5645.37
462.04	5593.88
462.22	5891.13
462.40	5497.92
462.59	5458.13
462.77	5488.56
462.95	5413.66
463.13	5493.24
463.32	5507.28
463.50	5549.41
463.68	5411.32
463.86	5390.25
464.05	5291.95
464.23	5156.20
464.41	5156.20
464.59	5132.79
464.78	5303.65
464.96	5362.17
465.14	5125.77
465.32	5418.34
465.50	5336.42
465.69	5584.52
465.87	5369.19
466.05	5490.90
466.23	5158.54
466.41	4975.98
466.60	5125.77
466.78	5027.47
466.96	5338.76
467.14	5270.89
467.32	5331.74
467.51	5226.42
467.69	5158.54
467.87	5446.43
468.05	5259.18
468.23	5320.04
468.41	5256.84
468.60	5413.66
468.78	5423.02
468.96	5261.52
469.14	5366.85
469.32	5399.62
469.50	5151.52
469.69	5158.54
469.87	5167.90
470.05	5268.55
470.23	5195.99
470.41	5181.95
470.59	5315.36
470.77	5221.74
470.95	5366.85
471.14	5336.42
471.32	5493.24
471.50	5671.12
471.68	5607.92
471.86	5834.96
472.04	5870.06
472.22	5795.17
472.40	5547.07
472.58	5582.18
472.77	5451.11
472.95	5631.33
473.13	5856.02
473.31	5420.68
473.49	5694.52
473.67	5692.18
473.85	5703.89
474.03	5687.50
474.21	5849.00
474.39	5785.80
474.57	6087.73
474.75	6057.31
474.93	5970.71
475.12	5776.44
475.30	5631.33
475.48	5830.27
475.66	5706.23
475.84	5823.25
476.02	5612.60
476.20	5579.84
476.38	5652.39
476.56	5977.73
476.74	6012.84
476.92	5991.77
477.10	6024.54
477.28	6333.49
477.46	6127.52
477.64	6305.40
477.82	6321.79
478.00	6200.08
478.18	6263.27
478.36	6169.65
478.54	6225.82
478.72	6317.11
478.90	6338.17
479.08	6574.56
479.26	6661.16
479.44	6733.72
479.62	6703.29
479.80	6925.65
479.98	6815.64
480.16	6780.53
480.34	6693.93
480.52	6726.70
480.70	6665.85
480.88	6782.87
481.06	6817.98
481.24	6960.75
481.41	7129.27
481.59	7274.38
481.77	7218.21
481.95	7243.96
482.13	7087.14
482.31	6981.82
482.49	7342.26
482.67	7166.72
482.85	7487.37
483.03	7461.63
483.21	7407.80
483.39	7410.14
483.57	7508.44
483.74	7220.55
483.92	7307.15
484.10	7222.89
484.28	7527.16
484.46	7475.67
484.64	7632.49
484.82	7541.21
485.00	7454.61
485.18	7232.26
485.35	7077.78
485.53	6759.47
485.71	6169.65
485.89	5900.49
486.07	6260.93
486.25	6829.68
486.43	7066.08
486.61	7126.93
486.78	7164.38
486.96	7463.97
487.14	7630.15
487.32	7702.70
487.50	7817.39
487.68	8234.00
487.85	8271.45
488.03	8315.92
488.21	8191.88
488.39	8023.36
488.57	7756.54
488.75	7737.81
488.92	8177.83
489.10	8489.12
489.28	8641.26
489.46	8922.12
489.64	8940.85
489.81	8971.27
489.99	8936.17
490.17	8807.44
490.35	9245.12
490.53	8936.17
490.70	8819.14
490.88	8716.16
491.06	9064.89
491.24	9032.13
491.41	8809.78
491.59	8540.61
491.77	8037.40
491.95	8446.99
492.13	8636.58
492.30	8865.95
492.48	9074.26
492.66	9336.40
492.84	9537.68
493.01	9291.93
493.19	9160.86
493.37	9228.73
493.54	8980.64
493.72	9221.71
493.90	9280.22
494.08	9802.16
494.25	9856.00
494.43	9989.41
494.61	10169.63
494.79	9928.55
494.96	9841.95
495.14	9942.60
495.32	9673.43
495.49	9193.62
495.67	9420.66
495.85	10029.20
496.02	9912.17
496.20	10101.75
496.38	9984.73
496.55	9998.77
496.73	10375.59
496.91	10354.53
497.09	10303.04
497.26	10289.00
497.44	10174.31
497.62	9977.70
497.79	9900.47
497.97	9455.76
498.14	9327.03
498.32	9654.71
498.50	9970.68
498.67	10024.51
498.85	10059.62
499.03	10380.28
499.20	10504.32
499.38	10209.42
499.56	10424.75
499.73	9921.53
499.91	10106.43
500.08	9982.38
500.26	9380.87
500.44	9799.82
500.61	10038.56
500.79	9806.84
500.97	9561.09
501.14	9724.93
501.32	9530.66
501.49	9628.96
501.67	9469.81
501.84	9888.76
502.02	9879.40
502.20	9968.34
502.37	10005.79
502.55	9687.48
502.72	10176.65
502.90	10366.23
503.07	10094.73
503.25	9837.27
503.43	9446.40
503.60	9291.93
503.78	8985.32
503.95	9181.92
504.13	9650.03
504.30	10017.49
504.48	10263.25
504.65	10178.99
504.83	10078.35
505.01	10249.21
505.18	10394.32
505.36	10525.39
505.53	10338.15
505.71	10651.78
505.88	10750.08
506.06	10656.46
506.23	10576.88
506.41	10188.35
506.58	10272.61
506.76	10483.26
506.93	10197.71
507.11	10122.82
507.28	10078.35
507.46	10186.01
507.63	9898.13
507.81	9872.38
507.98	9858.34
508.16	9973.02
508.33	10342.83
508.50	10590.92
508.68	10630.71
508.85	11002.86
509.03	10827.32
509.20	10925.62
509.38	10640.08
509.55	10321.76
509.73	10377.94
509.90	10623.69
510.08	10789.87
510.25	10801.57
510.42	10438.79
510.60	10707.95
510.77	10745.40
510.95	10890.51
511.12	11040.31
511.30	10827.32
511.47	11199.46
511.64	11201.80
511.82	11101.16
511.99	10780.51
512.17	10707.95
512.34	10354.53
512.51	10520.71
512.69	10490.28
512.86	10616.67
513.04	10581.56
513.21	10822.64
513.38	10640.08
513.56	10438.79
513.73	10260.91
513.90	10361.55
514.08	10190.69
514.25	10476.24
514.43	10485.60
514.60	10448.15
514.77	10668.16
514.95	10389.64
515.12	10597.95
515.29	10583.90
515.47	10913.92
515.64	10780.51
515.81	10801.57
515.99	10410.70
516.16	10015.15
516.33	9308.31
516.51	9177.24
516.68	8746.58
516.85	8442.31
517.03	8535.93
517.20	9254.48
517.37	10321.76
517.54	10541.77
517.72	10523.05
517.89	9797.48
518.06	8947.87
518.24	9097.66
518.41	9507.26
518.58	10174.31
518.75	10176.65
518.93	10366.23
519.10	10157.92
519.27	10471.56
519.45	10277.29
519.62	10635.39
519.79	10834.34
519.96	11033.29
520.14	10738.38
520.31	10450.49
520.48	10249.21
520.65	10347.51
520.83	10630.71
521.00	11105.84
521.17	11037.97
521.34	10595.61
521.52	10881.15
521.69	11061.37
521.86	11164.36
522.03	11281.38
522.20	10506.66
522.38	10345.17
522.55	10221.12
522.72	10373.25
522.89	10483.26
523.07	10600.29
523.24	10684.55
523.41	10867.11
523.58	11089.46
523.75	11304.79
523.92	11201.80
524.10	11234.57
524.27	11356.28
524.44	11213.51
524.61	11307.13
524.78	10839.02
524.96	10778.17
525.13	11030.94
525.30	11218.19
525.47	10991.16
525.64	11379.68
525.81	11012.22
525.98	10445.81
526.16	10090.05
526.33	9586.83
526.50	9668.75
526.67	9371.50
526.84	9696.84
527.01	9923.87
527.18	10176.65
527.36	10480.92
527.53	10944.34
527.70	11023.92
527.87	10836.68
528.04	10757.10
528.21	10925.62
528.38	11103.50
528.55	11370.32
528.72	11569.27
528.89	11466.28
529.07	11499.05
529.24	11140.95
529.41	10960.73
529.58	10553.48
529.75	10551.14
529.92	10616.67
530.09	11089.46
530.26	11084.78
530.43	11466.28
530.60	11269.68
530.77	11382.03
530.94	11590.33
531.11	11234.57
531.28	11131.59
531.46	11129.25
531.63	11220.53
531.80	11328.19
531.97	11023.92
532.14	10747.74
532.31	10420.06
532.48	10176.65
532.65	9844.29
532.82	10237.50
532.99	10675.18
533.16	10757.10
533.33	11150.31
533.50	11211.17
533.67	10986.47
533.84	10693.91
534.01	10993.50
534.18	10789.87
534.35	10934.98
534.52	10808.59
534.69	10942.00
534.86	11133.93
535.03	11180.74
535.20	11190.10
535.37	11377.34
535.54	11506.07
535.71	11342.24
535.88	11290.74
536.05	10993.50
536.22	11166.70
536.38	10848.38
536.55	10546.45
536.72	10518.37
536.89	10256.23
537.06	10766.46
537.23	11082.44
537.40	11014.56
537.57	11131.59
537.74	11098.82
537.91	11262.66
538.08	10967.75
538.25	10953.71
538.42	11159.67
538.59	11044.99
538.75	10782.85
538.92	10691.57
539.09	10892.85
539.26	10736.04
539.43	10537.09
539.60	10665.82
539.77	10668.16
539.94	10883.49
540.11	10434.11
540.28	10413.04
540.44	10218.78
540.61	10324.10
540.78	10609.65
540.95	10911.58
541.12	11145.63
541.29	11576.29
541.46	11583.31
541.62	11786.94
541.79	11623.10
541.96	11403.09
542.13	11473.31
542.30	11236.91
542.47	11316.49
542.63	11389.05
542.80	11187.76
542.97	11180.74
543.14	10993.50
543.31	11133.93
543.48	11091.80
543.64	11573.95
543.81	11805.66
543.98	11707.36
544.15	11641.82
544.32	11255.64
544.48	11311.81
544.65	11250.96
544.82	11337.56
544.99	11506.07
545.16	11524.80
545.32	11267.34
545.49	12156.74
545.66	13455.74
545.83	14118.11
546.00	13406.59
546.16	12475.06
546.33	11812.68
546.50	11194.78
546.67	11363.30
546.83	11063.71
547.00	11131.59
547.17	10965.41
547.34	10726.68
547.50	10490.28
547.67	10839.02
547.84	10740.72
548.00	10780.51
548.17	11049.67
548.34	10979.45
548.51	11122.23
548.67	11159.67
548.84	11110.52
549.01	11002.86
549.18	10995.84
549.34	10836.68
549.51	10766.46
549.68	10750.08
549.84	10509.01
550.01	10656.46
550.18	10696.25
550.34	10740.72
550.51	10558.16
550.68	10778.17
550.84	10413.04
551.01	10462.19
551.18	10487.94
551.34	10347.51
551.51	10750.08
551.68	10724.33
551.84	10883.49
552.01	10754.76
552.18	10586.24
552.34	10422.41
552.51	10202.40
552.68	9982.38
552.84	10377.94
553.01	10476.24
553.18	10726.68
553.34	10459.85
553.51	10303.04
553.67	10511.35
553.84	10539.43
554.01	10565.18
554.17	10553.48
554.34	10420.06
554.51	10413.04
554.67	10600.29
554.84	10366.23
555.00	10174.31
555.17	10363.89
555.33	10415.38
555.50	10202.40
555.67	10281.97
555.83	10171.97
556.00	10155.58
556.16	10300.70
556.33	10003.45
556.50	9970.68
556.66	10104.09
556.83	9830.25
556.99	10019.83
557.16	9865.36
557.32	9825.57
557.49	9926.21
557.65	10057.28
557.82	10061.96
557.98	9921.53
558.15	10010.47
558.32	9596.20
558.48	9516.62
558.65	9303.63
558.81	9497.89
558.98	9493.21
559.14	9701.52
559.31	9535.34
559.47	9680.46
559.64	9577.47
559.80	9659.39
559.97	9425.34
560.13	9598.54
560.30	9837.27
560.46	10127.50
560.63	10059.62
560.79	10157.92
560.96	9970.68
561.12	9652.37
561.29	9579.81
561.45	9516.62
561.61	9434.70
561.78	9736.63
561.94	9771.74
562.11	9696.84
562.27	9423.00
562.44	9600.88
562.60	9874.72
562.77	9961.32
562.93	9958.98
563.10	9785.78
563.26	9668.75
563.42	9633.64
563.59	9462.79
563.75	9408.95
563.92	9476.83
564.08	9521.30
564.24	9607.90
564.41	9652.37
564.57	9823.23
564.74	9455.76
564.90	9568.11
565.07	9385.55
565.23	9408.95
565.39	9352.78
565.56	9198.31
565.72	8947.87
565.88	9107.02
566.05	9233.41
566.21	9254.48
566.38	9401.93
566.54	9451.08
566.70	9600.88
566.87	9179.58
567.03	9366.82
567.19	9514.28
567.36	9275.54
567.52	9408.95
567.68	9104.68
567.85	9163.20
568.01	8837.86
568.17	8690.41
568.34	8629.56
568.50	8774.67
568.66	8514.87
568.83	8610.83
568.99	8589.77
569.15	8840.20
569.32	8709.13
569.48	8800.41
569.64	8564.02
569.81	8624.87
569.97	8802.75
570.13	8634.24
570.30	8702.11
570.46	8657.64
570.62	8353.37
570.78	8435.29
570.95	8266.77
571.11	8549.98
571.27	8657.64
571.43	8734.88
571.60	8578.06
571.76	8821.48
571.92	8877.65
572.09	8870.63
572.25	8870.63
572.41	8746.58
572.57	8765.31
572.74	8812.12
572.90	8643.60
573.06	8599.13
573.22	8800.41
573.38	8791.05
573.55	8582.74
573.71	8814.46
573.87	8748.92
574.03	8519.55
574.20	8489.12
574.36	8631.90
574.52	8498.49
574.68	8451.67
574.84	8542.96
575.01	8203.58
575.17	8376.78
575.33	8353.37
575.49	8568.70
575.65	8451.67
575.82	8210.60
575.98	8418.91
576.14	8255.07
576.30	8484.44
576.46	8905.74
576.62	9053.19
576.79	9088.30
576.95	8851.91
577.11	8683.39
577.27	8624.87
577.43	8606.15
577.59	8615.51
577.75	8334.65
577.92	8336.99
578.08	8336.99
578.24	8102.93
578.40	8124.00
578.56	8662.32
578.72	8833.18
578.88	8985.32
579.04	8908.08
579.21	8695.09
579.37	8697.43
579.53	8486.78
579.69	8545.30
579.85	8479.76
580.01	8571.04
580.17	8718.50
580.33	8615.51
580.49	8379.12
580.65	8704.45
580.82	8837.86
580.98	8519.55
581.14	8542.96
581.30	8519.55
581.46	8430.61
581.62	8655.30
581.78	8470.40
581.94	8655.30
582.10	8697.43
582.26	8622.53
582.42	8882.33
582.58	8772.33
582.74	8524.23
582.90	8713.81
583.06	8667.00
583.22	8517.21
583.38	8695.09
583.54	8777.01
583.70	8702.11
583.86	8688.07
584.02	8580.40
584.18	8753.60
584.34	8704.45
584.50	8486.78
584.66	8404.86
584.82	8454.02
584.98	8414.23
585.14	8308.90
585.30	8222.30
585.46	8107.62
585.62	7964.84
585.78	8196.56
585.94	8070.17
586.10	8042.08
586.26	8245.71
586.42	8119.32
586.58	8170.81
586.74	8205.92
586.90	8060.80
587.06	8369.76
587.22	8219.96
587.38	8182.51
587.54	8067.83
587.70	7887.61
587.86	7442.90
588.02	7297.79
588.18	7218.21
588.34	6715.00
588.49	6352.21
588.65	5923.90
588.81	5802.19
588.97	5954.32
589.13	5989.43
589.29	5778.78
589.45	5884.11
589.61	6040.92
589.77	6115.82
589.93	6422.43
590.08	6630.74
590.24	6883.52
590.40	6750.10
590.56	7035.65
590.72	6956.07
590.88	6792.23
591.04	6754.79
591.20	6890.54
591.35	6745.42
591.51	6546.48
591.67	6502.01
591.83	6647.12
591.99	6628.40
592.15	6635.42
592.31	7190.13
592.46	7063.74
592.62	7091.82
592.78	7082.46
592.94	7250.98
593.10	7136.29
593.26	7360.98
593.41	7435.88
593.57	7241.62
593.73	6925.65
