SpectraSuite Data File
++++++++++++++++++++++++++++++++++++
Date: Fri Oct 04 11:44:16 GMT-05:00 2013
User: price-jones
Dark Spectrum Present: No
Reference Spectrum Present: No
Number of Sampled Component Spectra: 1
Spectrometers: USB2+H05261
Integration Time (usec): 100000 (USB2+H05261)
Spectra Averaged: 1 (USB2+H05261)
Boxcar Smoothing: 0 (USB2+H05261)
Correct for Electrical Dark: No (USB2+H05261)
Strobe/Lamp Enabled: No (USB2+H05261)
Correct for Detector Non-linearity: No (USB2+H05261)
Correct for Stray Light: No (USB2+H05261)
Number of Pixels in Processed Spectrum: 2048
>>>>>Begin Processed Spectral Data<<<<<
365.73	42.13
365.92	42.13
366.12	42.13
366.32	0.00
366.52	0.00
366.72	0.00
366.91	0.00
367.11	0.00
367.31	0.00
367.51	0.00
367.70	0.00
367.90	0.00
368.10	2.34
368.30	23.41
368.49	0.00
368.69	0.00
368.89	0.00
369.09	0.00
369.28	0.00
369.48	0.00
369.68	9.36
369.87	0.00
370.07	0.00
370.27	28.09
370.47	102.98
370.66	472.79
370.86	461.09
371.06	580.45
371.25	641.31
371.45	643.65
371.65	519.60
371.84	451.72
372.04	475.13
372.24	578.11
372.44	608.54
372.63	585.13
372.83	648.33
373.03	552.37
373.22	533.64
373.42	550.03
373.62	575.77
373.81	545.34
374.01	627.26
374.21	552.37
374.40	507.90
374.60	667.05
374.79	599.18
374.99	638.97
375.19	741.95
375.38	748.97
375.58	732.59
375.78	695.14
375.97	674.07
376.17	741.95
376.37	730.25
376.56	739.61
376.76	777.06
376.95	781.74
377.15	884.72
377.35	807.48
377.54	858.98
377.74	868.34
377.93	908.13
378.13	889.40
378.33	884.72
378.52	786.42
378.72	770.04
378.91	727.91
379.11	802.80
379.31	688.12
379.50	758.33
379.70	767.70
379.89	833.23
380.09	926.85
380.28	851.96
380.48	880.04
380.68	868.34
380.87	880.04
381.07	819.19
381.26	758.33
381.46	730.25
381.65	753.65
381.85	636.63
382.04	662.37
382.24	711.52
382.43	669.39
382.63	519.60
382.83	589.82
383.02	575.77
383.22	606.20
383.41	582.79
383.61	552.37
383.80	634.29
384.00	676.41
384.19	849.61
384.39	894.08
384.58	858.98
384.78	814.51
384.97	833.23
385.17	858.98
385.36	833.23
385.56	765.36
385.75	767.70
385.95	791.10
386.14	910.47
386.34	866.00
386.53	947.92
386.72	814.51
386.92	903.45
387.11	882.38
387.31	851.96
387.50	842.59
387.70	910.47
387.89	915.15
388.09	861.32
388.28	880.04
388.48	901.11
388.67	987.71
388.86	1029.84
389.06	1048.56
389.25	1146.86
389.45	1088.35
389.64	1081.33
389.84	1046.22
390.03	1193.67
390.22	1146.86
390.42	1032.18
390.61	1184.31
390.81	1210.06
391.00	1245.16
391.19	1224.10
391.39	1212.40
391.58	1107.07
391.78	1123.46
391.97	1039.20
392.16	971.32
392.36	999.41
392.55	777.06
392.75	655.35
392.94	624.92
393.13	543.00
393.33	608.54
393.52	683.44
393.71	908.13
393.91	987.71
394.10	1069.62
394.29	1114.10
394.49	1240.48
394.68	1322.40
394.88	1320.06
395.07	1385.60
395.26	1373.89
395.46	1289.64
395.65	1252.19
395.84	1118.78
396.04	1029.84
396.23	828.55
396.42	655.35
396.62	638.97
396.81	837.91
397.00	903.45
397.19	1039.20
397.39	1282.61
397.58	1476.88
397.77	1511.99
397.97	1563.48
398.16	1654.76
398.35	1636.03
398.55	1671.14
398.74	1820.94
398.93	1785.83
399.12	1685.19
399.32	1694.55
399.51	1729.66
399.70	1907.54
399.90	1834.98
400.09	1834.98
400.28	1846.68
400.47	1844.34
400.67	1919.24
400.86	1980.09
401.05	1940.30
401.24	1963.71
401.44	1879.45
401.63	1984.77
401.82	1940.30
402.01	1937.96
402.21	1905.20
402.40	2071.37
402.59	1949.67
402.78	1905.20
402.97	1832.64
403.17	1963.71
403.36	2026.90
403.55	1937.96
403.74	2078.40
403.93	1975.41
404.13	1870.09
404.32	1970.73
404.51	2029.24
404.70	2129.89
404.89	2118.18
405.09	2085.42
405.28	2012.86
405.47	1888.81
405.66	1975.41
405.85	1937.96
406.05	1755.40
406.24	1872.43
406.43	1863.07
406.62	2003.50
406.81	2146.27
407.00	2031.58
407.20	2031.58
407.39	1982.43
407.58	2080.74
407.77	2162.66
407.96	2078.40
408.15	2230.53
408.34	2244.57
408.54	2195.42
408.73	2284.36
408.92	2263.30
409.11	2120.53
409.30	2073.71
409.49	1926.26
409.68	1870.09
409.87	1797.53
410.07	1872.43
410.26	2078.40
410.45	2062.01
410.64	2183.72
410.83	2190.74
411.02	2235.21
411.21	2333.51
411.40	2321.81
411.59	2249.25
411.78	2387.35
411.98	2296.07
412.17	2377.98
412.36	2476.29
412.55	2127.55
412.74	2415.43
412.93	2314.79
413.12	2307.77
413.31	2445.86
413.50	2523.10
413.69	2546.50
413.88	2487.99
414.07	2324.15
414.26	2380.32
414.45	2415.43
414.64	2558.21
414.83	2572.25
415.02	2349.90
415.22	2403.73
415.41	2438.84
415.60	2504.37
415.79	2609.70
415.98	2649.49
416.17	2558.21
416.36	2670.55
416.55	2448.20
416.74	2368.62
416.93	2431.82
417.12	2537.14
417.31	2495.01
417.50	2413.09
417.69	2595.65
417.88	2693.96
418.07	2502.03
418.26	2387.35
418.45	2539.48
418.64	2675.23
418.83	2733.75
419.02	2682.25
419.21	2628.42
419.39	2586.29
419.58	2431.82
419.77	2448.20
419.96	2483.31
420.15	2764.17
420.34	2628.42
420.53	2810.98
420.72	2885.88
420.91	2761.83
421.10	2794.60
421.29	2698.64
421.48	2679.91
421.67	2920.99
421.86	2745.45
422.05	2583.95
422.24	2333.51
422.43	2314.79
422.61	2541.82
422.80	2537.14
422.99	2752.47
423.18	2605.02
423.37	2600.34
423.56	2537.14
423.75	2581.61
423.94	2719.70
424.13	2647.15
424.32	2560.55
424.50	2509.05
424.69	2548.84
424.88	2605.02
425.07	2574.59
425.26	2642.46
425.45	2558.21
425.64	2427.14
425.83	2408.41
426.01	2576.93
426.20	2614.38
426.39	2672.89
426.58	2422.45
426.77	2347.56
426.96	2239.89
427.15	2282.02
427.33	2471.61
427.52	2590.97
427.71	2647.15
427.90	2565.23
428.09	2487.99
428.28	2434.16
428.46	2455.22
428.65	2340.54
428.84	2335.85
429.03	2415.43
429.22	2387.35
429.40	2235.21
429.59	2062.01
429.78	1914.56
429.97	1856.04
430.16	1823.28
430.34	1865.41
430.53	1849.02
430.72	1853.70
430.91	2015.20
431.10	2429.48
431.28	2754.81
431.47	2951.42
431.66	2932.69
431.85	2705.66
432.03	2495.01
432.22	2506.71
432.41	2525.44
432.60	2771.19
432.79	2813.32
432.97	2960.78
433.16	2874.18
433.35	2663.53
433.54	2562.89
433.72	2427.14
433.91	2338.20
434.10	2663.53
434.28	2764.17
434.47	2836.73
434.66	2782.90
434.85	2752.47
435.03	2925.67
435.22	3204.19
435.41	3655.92
435.59	3545.91
435.78	3426.54
435.97	3253.34
436.16	3211.22
436.34	3166.74
436.53	3056.74
436.72	3056.74
436.90	2913.97
437.09	2890.56
437.28	2813.32
437.46	2942.05
437.65	2864.82
437.84	2696.30
438.02	2586.29
438.21	2595.65
438.40	2626.08
438.58	2810.98
438.77	3049.72
438.96	2930.35
439.14	3000.57
439.33	3049.72
439.52	3274.41
439.70	3054.40
439.89	3028.65
440.08	3014.61
440.26	3019.29
440.45	3082.49
440.63	3218.24
440.82	3356.33
441.01	3344.63
441.19	3208.87
441.38	3309.52
441.57	3368.03
441.75	3456.97
441.94	3618.47
442.12	3501.44
442.31	3389.10
442.50	3456.97
442.68	3454.63
442.87	3604.42
443.05	3407.82
443.24	3522.51
443.43	3557.61
443.61	3461.65
443.80	3796.35
443.98	3513.14
444.17	3510.80
444.35	3625.49
444.54	3651.24
444.73	3634.85
444.91	3520.17
445.10	3339.94
445.28	3339.94
445.47	3225.26
445.65	3241.64
445.84	3227.60
446.02	3368.03
446.21	3414.84
446.39	3295.47
446.58	3492.08
446.77	3583.36
446.95	3571.66
447.14	3616.13
447.32	3646.55
447.51	3557.61
447.69	3419.52
447.88	3543.57
448.06	3463.99
448.25	3581.02
448.43	3632.51
448.62	3431.23
448.80	3456.97
448.99	3407.82
449.17	3520.17
449.36	3569.32
449.54	3772.94
449.73	3618.47
449.91	3941.46
450.10	3847.84
450.28	3920.40
450.46	4021.04
450.65	3964.87
450.83	3805.71
451.02	3733.15
451.20	3674.64
451.39	3775.28
451.57	3761.24
451.76	3625.49
451.94	3737.84
452.13	3786.99
452.31	3606.77
452.49	3466.33
452.68	3307.18
452.86	3435.91
453.05	3524.85
453.23	3585.70
453.42	3588.04
453.60	3712.09
453.78	3625.49
453.97	3662.94
454.15	3751.88
454.34	3658.26
454.52	3625.49
454.70	3536.55
454.89	3501.44
455.07	3489.74
455.26	3768.26
455.44	3899.33
455.62	3779.97
455.81	3859.54
455.99	3929.76
456.17	3847.84
456.36	3777.62
456.54	3866.56
456.73	4004.66
456.91	4028.06
457.09	3953.16
457.28	3992.95
457.46	3882.95
457.64	3922.74
457.83	3819.75
458.01	3784.65
458.19	3864.22
458.38	3744.86
458.56	3995.29
458.74	3822.09
458.93	3747.20
459.11	3925.08
459.29	3801.03
459.48	3866.56
459.66	3822.09
459.84	3955.51
460.03	4016.36
460.21	3960.19
460.39	3915.72
460.57	3941.46
460.76	4042.11
460.94	3927.42
461.12	3981.25
461.31	3929.76
461.49	4032.74
461.67	3922.74
461.85	4100.62
462.04	4152.11
462.22	4365.10
462.40	4152.11
462.59	3997.64
462.77	4114.66
462.95	4145.09
463.13	4177.86
463.32	4077.21
463.50	4023.38
463.68	4095.94
463.86	3925.08
464.05	3836.14
464.23	3894.65
464.41	3789.33
464.59	3747.20
464.78	3995.29
464.96	3964.87
465.14	3918.06
465.32	4002.32
465.50	4011.68
465.69	4152.11
465.87	4138.07
466.05	3920.40
466.23	3857.20
466.41	3777.62
466.60	3866.56
466.78	3712.09
466.96	3847.84
467.14	3847.84
467.32	3941.46
467.51	4016.36
467.69	3866.56
467.87	3985.93
468.05	3913.38
468.23	3915.72
468.41	3906.35
468.60	3948.48
468.78	3829.12
468.96	3922.74
469.14	3967.21
469.32	3866.56
469.50	3833.80
469.69	3960.19
469.87	3786.99
470.05	3822.09
470.23	3700.39
470.41	3836.14
470.59	3873.59
470.77	3747.20
470.95	3953.16
471.14	4093.60
471.32	4007.00
471.50	4327.65
471.68	4145.09
471.86	4245.73
472.04	4182.54
472.22	4322.97
472.40	4011.68
472.58	4196.58
472.77	4119.34
472.95	4025.72
473.13	4194.24
473.31	4072.53
473.49	4095.94
473.67	4112.32
473.85	4308.93
474.03	4318.29
474.21	4395.53
474.39	4322.97
474.57	4351.06
474.75	4322.97
474.93	4297.22
475.12	4194.24
475.30	4369.78
475.48	4248.07
475.66	4414.25
475.84	4184.88
476.02	4297.22
476.20	4161.47
476.38	4198.92
476.56	4505.53
476.74	4379.14
476.92	4315.95
477.10	4561.70
477.28	4564.04
477.46	4580.43
477.64	4723.20
477.82	4706.82
478.00	4664.69
478.18	4821.50
478.36	4554.68
478.54	4610.86
478.72	4748.95
478.90	4798.10
479.08	4870.65
479.26	4964.28
479.44	4964.28
479.62	4835.55
479.80	4807.46
479.98	4947.89
480.16	4912.78
480.34	4875.34
480.52	4952.57
480.70	4940.87
480.88	4975.98
481.06	5121.09
481.24	5226.42
481.41	5268.55
481.59	5294.29
481.77	5303.65
481.95	5151.52
482.13	5266.21
482.31	5235.78
482.49	5315.36
482.67	5303.65
482.85	5511.96
483.03	5504.94
483.21	5509.62
483.39	5408.98
483.57	5460.47
483.74	5437.06
483.92	5291.95
484.10	5423.02
484.28	5472.17
484.46	5638.35
484.64	5696.86
484.82	5298.97
485.00	5430.04
485.18	5324.72
485.35	5331.74
485.53	4765.33
485.71	4463.40
485.89	4379.14
486.07	4526.60
486.25	5076.62
486.43	5205.35
486.61	5327.06
486.78	5277.91
486.96	5179.61
487.14	5488.56
487.32	5668.78
487.50	5863.04
487.68	5996.45
487.85	5916.87
488.03	6001.13
488.21	6094.76
488.39	5902.83
488.57	5696.86
488.75	5783.46
488.92	6122.84
489.10	6232.85
489.28	6434.13
489.46	6747.76
489.64	6576.91
489.81	6555.84
489.99	6483.28
490.17	6644.78
490.35	6719.68
490.53	6600.31
490.70	6352.21
490.88	6420.09
491.06	6399.02
491.24	6574.56
491.41	6544.14
491.59	6265.61
491.77	6054.97
491.95	5996.45
492.13	6228.17
492.30	6609.67
492.48	6881.18
492.66	6906.92
492.84	7002.88
493.01	6848.41
493.19	6689.25
493.37	6719.68
493.54	6509.03
493.72	6553.50
493.90	7014.59
494.08	7272.04
494.25	7267.36
494.43	7265.02
494.61	7433.54
494.79	7152.68
494.96	7337.58
495.14	7208.85
495.32	7037.99
495.49	6888.20
495.67	7005.22
495.85	7349.28
496.02	7438.22
496.20	7515.46
496.38	7241.62
496.55	7330.56
496.73	7522.48
496.91	7468.65
497.09	7641.85
497.26	7590.36
497.44	7726.11
497.62	7522.48
497.79	7155.02
497.97	6970.12
498.14	7014.59
498.32	7281.41
498.50	7398.43
498.67	7353.96
498.85	7609.08
499.03	7611.42
499.20	7737.81
499.38	7702.70
499.56	7578.65
499.73	7808.03
499.91	7368.01
500.08	7391.41
500.26	7255.66
500.44	7185.44
500.61	7419.50
500.79	7248.64
500.97	7094.16
501.14	7166.72
501.32	7103.53
501.49	6834.36
501.67	6974.80
501.84	7262.68
502.02	7321.20
502.20	7267.36
502.37	7316.51
502.55	7449.93
502.72	7466.31
502.90	7506.10
503.07	7517.80
503.25	7302.47
503.43	6946.71
503.60	6853.09
503.78	6630.74
503.95	6843.73
504.13	7108.21
504.30	7414.82
504.48	7412.48
504.65	7363.33
504.83	7595.04
505.01	7695.68
505.18	7623.12
505.36	7744.83
505.53	7798.66
505.71	7751.85
505.88	8051.44
506.06	7742.49
506.23	7875.90
506.41	7496.74
506.58	7440.56
506.76	7517.80
506.93	7681.64
507.11	7466.31
507.28	7625.47
507.46	7548.23
507.63	7463.97
507.81	7414.82
507.98	7419.50
508.16	7379.71
508.33	7651.21
508.50	7761.22
508.68	7892.29
508.85	7964.84
509.03	8030.38
509.20	8163.79
509.38	7880.58
509.55	7541.21
509.73	7531.84
509.90	7712.07
510.08	7836.11
510.25	7683.98
510.42	7763.56
510.60	7878.24
510.77	7974.21
510.95	7985.91
511.12	8074.85
511.30	8182.51
511.47	8374.44
511.64	8285.50
511.82	8147.40
511.99	8067.83
512.17	7880.58
512.34	7644.19
512.51	7693.34
512.69	7847.82
512.86	7861.86
513.04	7822.07
513.21	8074.85
513.38	7845.48
513.56	7721.43
513.73	7646.53
513.90	7616.10
514.08	7592.70
514.25	7733.13
514.43	7801.01
514.60	7831.43
514.77	7857.18
514.95	8126.34
515.12	7726.11
515.29	7885.26
515.47	8198.90
515.64	8149.75
515.81	8135.70
515.99	7815.05
516.16	7611.42
516.33	6988.84
516.51	6747.76
516.68	6436.47
516.85	6499.67
517.03	6384.98
517.20	6911.60
517.37	7485.03
517.54	7740.15
517.72	7864.20
517.89	7108.21
518.06	6722.02
518.24	6642.44
518.41	7155.02
518.58	7449.93
518.75	7648.87
518.93	7644.19
519.10	7597.38
519.27	7705.04
519.45	7691.00
519.62	7906.33
519.79	8283.16
519.96	8025.70
520.14	7990.59
520.31	7756.54
520.48	7599.72
520.65	7728.45
520.83	7976.55
521.00	8084.21
521.17	8098.25
521.34	8023.36
521.52	7995.27
521.69	8236.35
521.86	8271.45
522.03	8322.94
522.20	7948.46
522.38	7557.59
522.55	7517.80
522.72	7618.44
522.89	7676.96
523.07	7899.31
523.24	7941.44
523.41	8119.32
523.58	8304.22
523.75	8486.78
523.92	8418.91
524.10	8205.92
524.27	8437.63
524.44	8439.97
524.61	8187.19
524.78	8004.63
524.96	8196.56
525.13	8191.88
525.30	8184.85
525.47	8205.92
525.64	8463.38
525.81	8161.45
525.98	7754.19
526.16	7531.84
526.33	7328.22
526.50	7082.46
526.67	6860.11
526.84	7124.59
527.01	7307.15
527.18	7466.31
527.36	7599.72
527.53	8198.90
527.70	8058.46
527.87	7950.80
528.04	7911.01
528.21	8100.59
528.38	8180.17
528.55	8390.82
528.72	8468.06
528.89	8568.70
529.07	8659.98
529.24	8475.08
529.41	8159.11
529.58	7903.99
529.75	8002.29
529.92	8138.04
530.09	8004.63
530.26	8336.99
530.43	8292.52
530.60	8512.53
530.77	8585.08
530.94	8657.64
531.11	8414.23
531.28	8381.46
531.46	8191.88
531.63	8276.13
531.80	8276.13
531.97	8112.30
532.14	8023.36
532.31	7733.13
532.48	7527.16
532.65	7435.88
532.82	7772.92
532.99	7896.97
533.16	8056.12
533.33	8439.97
533.50	8264.43
533.67	8074.85
533.84	7978.89
534.01	8044.42
534.18	8119.32
534.35	8299.54
534.52	8056.12
534.69	8299.54
534.86	8107.62
535.03	8290.18
535.20	8297.20
535.37	8594.45
535.54	8397.84
535.71	8365.07
535.88	8631.90
536.05	8198.90
536.22	8006.97
536.38	8013.99
536.55	7903.99
536.72	7639.51
536.89	7712.07
537.06	7768.24
537.23	8166.13
537.40	8294.86
537.57	8243.37
537.74	8475.08
537.91	8236.35
538.08	8229.32
538.25	8126.34
538.42	8243.37
538.59	8037.40
538.75	7969.52
538.92	7953.14
539.09	7985.91
539.26	7815.05
539.43	7829.09
539.60	7864.20
539.77	7758.88
539.94	7950.80
540.11	7737.81
540.28	7508.44
540.44	7627.81
540.61	7578.65
540.78	7812.71
540.95	7911.01
541.12	8201.24
541.29	8149.75
541.46	8135.70
541.62	8428.27
541.79	8362.73
541.96	8226.98
542.13	8255.07
542.30	8285.50
542.47	8252.73
542.63	8166.13
542.80	7960.16
542.97	8004.63
543.14	8053.78
543.31	8021.02
543.48	8219.96
543.64	8496.14
543.81	8664.66
543.98	8528.91
544.15	8351.03
544.32	8142.72
544.48	8226.98
544.65	8273.79
544.82	8290.18
544.99	8189.53
545.16	8105.28
545.32	8049.10
545.49	8676.37
545.66	9233.41
545.83	9327.03
546.00	9111.71
546.16	8477.42
546.33	8388.48
546.50	8355.71
546.67	8159.11
546.83	8058.46
547.00	8065.49
547.17	7789.30
547.34	7887.61
547.50	7901.65
547.67	7728.45
547.84	7775.26
548.00	7688.66
548.17	8081.87
548.34	8016.33
548.51	8119.32
548.67	8177.83
548.84	8320.60
549.01	7983.57
549.18	8025.70
549.34	8170.81
549.51	7840.79
549.68	7854.84
549.84	7859.52
550.01	7831.43
550.18	7824.41
550.34	8025.70
550.51	7808.03
550.68	7948.46
550.84	7693.34
551.01	7803.35
551.18	7735.47
551.34	7730.79
551.51	7852.50
551.68	8166.13
551.84	7999.95
552.01	7953.14
552.18	7789.30
552.34	7676.96
552.51	7637.17
552.68	7496.74
552.84	7602.06
553.01	7819.73
553.18	7747.17
553.34	7667.60
553.51	7646.53
553.67	7960.16
553.84	7861.86
554.01	7763.56
554.17	7735.47
554.34	7742.49
554.51	7730.79
554.67	7808.03
554.84	7822.07
555.00	7779.94
555.17	7726.11
555.33	7728.45
555.50	7562.27
555.67	7775.26
555.83	7667.60
556.00	7651.21
556.16	7595.04
556.33	7185.44
556.50	7410.14
556.66	7527.16
556.83	7316.51
556.99	7461.63
557.16	7382.05
557.32	7475.67
557.49	7522.48
557.65	7616.10
557.82	7403.11
557.98	7438.22
558.15	7487.37
558.32	7258.00
558.48	6904.58
558.65	7014.59
558.81	7159.70
558.98	6974.80
559.14	7187.79
559.31	7049.69
559.47	7276.73
559.64	7206.51
559.80	7162.04
559.97	7124.59
560.13	7019.27
560.30	7365.67
560.46	7541.21
560.63	7478.01
560.79	7756.54
560.96	7485.03
561.12	7267.36
561.29	7155.02
561.45	7042.67
561.61	7283.75
561.78	7309.49
561.94	7286.09
562.11	7190.13
562.27	7164.38
562.44	7267.36
562.60	7250.98
562.77	7417.16
562.93	7410.14
563.10	7220.55
563.26	7258.00
563.42	7311.83
563.59	7131.61
563.75	7176.08
563.92	7243.96
564.08	7166.72
564.24	7358.64
564.41	7246.30
564.57	7215.87
564.74	7190.13
564.90	7110.55
565.07	7155.02
565.23	7206.51
565.39	7082.46
565.56	6913.94
565.72	6780.53
565.88	6736.06
566.05	6724.36
566.21	6857.77
566.38	6974.80
566.54	6832.02
566.70	7021.61
566.87	7037.99
567.03	6967.77
567.19	7045.01
567.36	7002.88
567.52	6827.34
567.68	6860.11
567.85	6780.53
568.01	6670.53
568.17	6686.91
568.34	6335.83
568.50	6497.33
568.66	6462.22
568.83	6431.79
568.99	6480.94
569.15	6548.82
569.32	6792.23
569.48	6658.82
569.64	6516.05
569.81	6537.12
569.97	6548.82
570.13	6513.71
570.30	6303.06
570.46	6314.77
570.62	6401.37
570.78	6171.99
570.95	6083.05
571.11	6310.08
571.27	6434.13
571.43	6487.96
571.60	6497.33
571.76	6520.73
571.92	6703.29
572.09	6373.28
572.25	6448.18
572.41	6483.28
572.57	6616.69
572.74	6555.84
572.90	6349.87
573.06	6506.69
573.22	6806.28
573.38	6492.65
573.55	6509.03
573.71	6539.46
573.87	6553.50
574.03	6328.81
574.20	6380.30
574.36	6487.96
574.52	6263.27
574.68	6380.30
574.84	6464.56
575.01	6225.82
575.17	6319.45
575.33	6113.48
575.49	6415.41
575.65	6403.71
575.82	6352.21
575.98	6263.27
576.14	6319.45
576.30	6188.38
576.46	6607.33
576.62	6595.63
576.79	6546.48
576.95	6492.65
577.11	6527.75
577.27	6473.92
577.43	6492.65
577.59	6218.80
577.75	6321.79
577.92	6033.90
578.08	6127.52
578.24	6033.90
578.40	6253.91
578.56	6366.26
578.72	6476.26
578.88	6270.30
579.04	6572.22
579.21	6291.36
579.37	6354.55
579.53	6307.74
579.69	6429.45
579.85	6485.62
580.01	6497.33
580.17	6422.43
580.33	6370.94
580.49	6349.87
580.65	6310.08
580.82	6394.34
580.98	6274.98
581.14	6415.41
581.30	6431.79
581.46	6303.06
581.62	6462.22
581.78	6415.41
581.94	6420.09
582.10	6492.65
582.26	6530.09
582.42	6616.69
582.58	6476.26
582.74	6443.49
582.90	6562.86
583.06	6525.41
583.22	6380.30
583.38	6443.49
583.54	6333.49
583.70	6377.96
583.86	6310.08
584.02	6443.49
584.18	6408.39
584.34	6377.96
584.50	6368.60
584.66	6242.21
584.82	6225.82
584.98	6260.93
585.14	6087.73
585.30	6090.07
585.46	6080.71
585.62	5959.00
585.78	6111.14
585.94	6162.63
586.10	6094.76
586.26	5907.51
586.42	6157.95
586.58	5980.07
586.74	6209.44
586.90	6155.61
587.06	6211.78
587.22	6005.81
587.38	6038.58
587.54	5991.77
587.70	5809.21
587.86	5561.11
588.02	5359.83
588.18	5296.63
588.34	5160.88
588.49	4805.12
588.65	4535.96
588.81	4491.49
588.97	4496.17
589.13	4402.55
589.29	4432.97
589.45	4313.61
589.61	4449.36
589.77	4678.73
589.93	4709.16
590.08	5048.54
590.24	5179.61
590.40	5245.14
590.56	5233.44
590.72	5163.22
590.88	5170.24
591.04	5139.82
591.20	5163.22
591.35	5048.54
591.51	5097.69
591.67	5004.07
591.83	5036.83
591.99	4936.19
592.15	5008.75
592.31	5210.03
592.46	5060.24
592.62	5275.57
592.78	5439.40
592.94	5357.49
593.10	5310.68
593.26	5327.06
593.41	5675.80
593.57	5439.40
593.73	5238.12
593.89	5020.45
594.05	4821.50
594.20	4779.37
594.36	4620.22
594.52	4620.22
594.68	4641.28
594.84	4861.29
594.99	5151.52
595.15	5296.63
595.31	5121.09
595.47	5198.33
595.62	5137.48
595.78	5266.21
595.94	5345.78
596.10	5282.59
596.25	5392.59
596.41	5116.41
596.57	5041.51
596.73	5217.05
596.88	5032.15
597.04	5334.08
597.20	5210.03
597.36	5078.96
597.51	5057.90
