SpectraSuite Data File
++++++++++++++++++++++++++++++++++++
Date: Fri Oct 04 11:44:28 GMT-05:00 2013
User: price-jones
Dark Spectrum Present: No
Reference Spectrum Present: No
Number of Sampled Component Spectra: 1
Spectrometers: USB2+H05261
Integration Time (usec): 100000 (USB2+H05261)
Spectra Averaged: 1 (USB2+H05261)
Boxcar Smoothing: 0 (USB2+H05261)
Correct for Electrical Dark: No (USB2+H05261)
Strobe/Lamp Enabled: No (USB2+H05261)
Correct for Detector Non-linearity: No (USB2+H05261)
Correct for Stray Light: No (USB2+H05261)
Number of Pixels in Processed Spectrum: 2048
>>>>>Begin Processed Spectral Data<<<<<
365.73	65.54
365.92	65.54
366.12	65.54
366.32	0.00
366.52	0.00
366.72	0.00
366.91	0.00
367.11	0.00
367.31	0.00
367.51	0.00
367.70	0.00
367.90	0.00
368.10	0.00
368.30	0.00
368.49	0.00
368.69	0.00
368.89	0.00
369.09	0.00
369.28	0.00
369.48	0.00
369.68	0.00
369.87	0.00
370.07	0.00
370.27	28.09
370.47	112.35
370.66	514.92
370.86	606.20
371.06	557.05
371.25	610.88
371.45	554.71
371.65	587.47
371.84	461.09
372.04	545.34
372.24	575.77
372.44	526.62
372.63	615.56
372.83	627.26
373.03	538.32
373.22	528.96
373.42	552.37
373.62	547.69
373.81	650.67
374.01	594.50
374.21	617.90
374.40	475.13
374.60	641.31
374.79	547.69
374.99	716.20
375.19	763.01
375.38	713.86
375.58	624.92
375.78	692.80
375.97	671.73
376.17	699.82
376.37	688.12
376.56	709.18
376.76	734.93
376.95	737.27
377.15	767.70
377.35	908.13
377.54	992.39
377.74	943.24
377.93	851.96
378.13	877.70
378.33	912.81
378.52	767.70
378.72	690.46
378.91	798.12
379.11	751.31
379.31	725.57
379.50	653.01
379.70	774.72
379.89	866.00
380.09	767.70
380.28	887.06
380.48	870.68
380.68	734.93
380.87	767.70
381.07	814.51
381.26	767.70
381.46	716.20
381.65	683.44
381.85	746.63
382.04	638.97
382.24	596.84
382.43	585.13
382.63	638.97
382.83	550.03
383.02	592.16
383.22	601.52
383.41	613.22
383.61	655.35
383.80	671.73
384.00	786.42
384.19	720.88
384.39	837.91
384.58	915.15
384.78	835.57
384.97	826.21
385.17	814.51
385.36	830.89
385.56	784.08
385.75	849.61
385.95	770.04
386.14	931.53
386.34	875.36
386.53	961.96
386.72	746.63
386.92	849.61
387.11	903.45
387.31	819.19
387.50	880.04
387.70	777.06
387.89	870.68
388.09	830.89
388.28	854.30
388.48	800.46
388.67	1008.77
388.86	985.37
389.06	1011.11
389.25	1039.20
389.45	1053.24
389.64	1015.79
389.84	1144.52
390.03	1097.71
390.22	1086.01
390.42	990.05
390.61	1160.91
390.81	1263.89
391.00	1322.40
391.19	1261.55
391.39	1184.31
391.58	1130.48
391.78	1067.28
391.97	1083.67
392.16	971.32
392.36	940.90
392.55	805.14
392.75	650.67
392.94	571.09
393.13	601.52
393.33	589.82
393.52	753.65
393.71	887.06
393.91	985.37
394.10	1132.82
394.29	1064.94
394.49	1083.67
394.68	1289.64
394.88	1280.27
395.07	1364.53
395.26	1228.78
395.46	1261.55
395.65	1224.10
395.84	1114.10
396.04	1006.43
396.23	826.21
396.42	767.70
396.62	723.23
396.81	774.72
397.00	964.30
397.19	1093.03
397.39	1320.06
397.58	1352.83
397.77	1514.33
397.97	1519.01
398.16	1736.68
398.35	1664.12
398.55	1659.44
398.74	1760.08
398.93	1778.81
399.12	1600.93
399.32	1647.74
399.51	1624.33
399.70	1832.64
399.90	1750.72
400.09	1846.68
400.28	1760.08
400.47	1809.23
400.67	1879.45
400.86	1980.09
401.05	1982.43
401.24	1991.80
401.44	2017.54
401.63	1942.64
401.82	2087.76
402.01	2073.71
402.21	1937.96
402.40	2017.54
402.59	1930.94
402.78	1870.09
402.97	1727.32
403.17	1930.94
403.36	1912.22
403.55	2038.61
403.74	2115.84
403.93	2115.84
404.13	2019.88
404.32	2136.91
404.51	2157.97
404.70	2129.89
404.89	2031.58
405.09	2003.50
405.28	1893.49
405.47	1935.62
405.66	1888.81
405.85	1926.26
406.05	1806.89
406.24	1895.83
406.43	1928.60
406.62	1888.81
406.81	1984.77
407.00	1973.07
407.20	1975.41
407.39	2003.50
407.58	2071.37
407.77	2045.63
407.96	2104.14
408.15	2284.36
408.34	2183.72
408.54	2249.25
408.73	2141.59
408.92	2150.95
409.11	2186.06
409.30	2038.61
409.49	1884.13
409.68	1891.15
409.87	1846.68
410.07	1846.68
410.26	2045.63
410.45	2085.42
410.64	2207.13
410.83	2211.81
411.02	2165.00
411.21	2415.43
411.40	2356.92
411.59	2328.83
411.78	2462.24
411.98	2370.96
412.17	2427.14
412.36	2228.19
412.55	2289.04
412.74	2277.34
412.93	2209.47
413.12	2228.19
413.31	2455.22
413.50	2436.50
413.69	2377.98
413.88	2354.58
414.07	2380.32
414.26	2431.82
414.45	2448.20
414.64	2399.05
414.83	2441.18
415.02	2417.77
415.22	2469.27
415.41	2523.10
415.60	2565.23
415.79	2616.72
415.98	2612.04
416.17	2705.66
416.36	2579.27
416.55	2523.10
416.74	2340.54
416.93	2483.31
417.12	2438.84
417.31	2471.61
417.50	2485.65
417.69	2544.16
417.88	2511.39
418.07	2504.37
418.26	2427.14
418.45	2560.55
418.64	2668.21
418.83	2576.93
419.02	2560.55
419.21	2630.76
419.39	2513.74
419.58	2427.14
419.77	2363.94
419.96	2518.42
420.15	2715.02
420.34	2747.79
420.53	2818.00
420.72	2920.99
420.91	2846.09
421.10	2871.84
421.29	2752.47
421.48	2761.83
421.67	2712.68
421.86	2712.68
422.05	2597.99
422.24	2345.22
422.43	2410.75
422.61	2546.50
422.80	2698.64
422.99	2703.32
423.18	2736.09
423.37	2576.93
423.56	2499.69
423.75	2759.49
423.94	2658.85
424.13	2574.59
424.32	2537.14
424.50	2569.91
424.69	2497.35
424.88	2523.10
425.07	2675.23
425.26	2518.42
425.45	2420.11
425.64	2385.01
425.83	2548.84
426.01	2569.91
426.20	2712.68
426.39	2586.29
426.58	2553.52
426.77	2333.51
426.96	2249.25
427.15	2256.28
427.33	2417.77
427.52	2513.74
427.71	2579.27
427.90	2532.46
428.09	2445.86
428.28	2469.27
428.46	2270.32
428.65	2417.77
428.84	2473.95
429.03	2490.33
429.22	2242.23
429.40	2237.55
429.59	2008.18
429.78	1930.94
429.97	1858.39
430.16	1825.62
430.34	1851.36
430.53	1797.53
430.72	1909.88
430.91	2036.27
431.10	2392.03
431.28	2818.00
431.47	2963.12
431.66	2972.48
431.85	2717.36
432.03	2544.16
432.22	2450.54
432.41	2576.93
432.60	2630.76
432.79	2839.07
432.97	2979.50
433.16	2867.16
433.35	2745.45
433.54	2450.54
433.72	2352.24
433.91	2448.20
434.10	2583.95
434.28	2815.66
434.47	2841.41
434.66	2836.73
434.85	2818.00
435.03	2876.52
435.22	3302.50
435.41	4028.06
435.59	4133.39
435.78	3768.26
435.97	3538.89
436.16	3225.26
436.34	3075.46
436.53	3129.30
436.72	3063.76
436.90	2909.29
437.09	2754.81
437.28	2794.60
437.46	2871.84
437.65	2998.23
437.84	2766.51
438.02	2546.50
438.21	2558.21
438.40	2630.76
438.58	2825.03
438.77	2897.58
438.96	2944.39
439.14	3040.36
439.33	3258.03
439.52	3155.04
439.70	3136.32
439.89	3063.76
440.08	2913.97
440.26	2782.90
440.45	2995.89
440.63	3260.37
440.82	3300.16
441.01	3234.62
441.19	3255.69
441.38	3281.43
441.57	3463.99
441.75	3538.89
441.94	3461.65
442.12	3391.44
442.31	3494.42
442.50	3449.95
442.68	3463.99
442.87	3543.57
443.05	3272.07
443.24	3492.08
443.43	3522.51
443.61	3559.95
443.80	3618.47
443.98	3396.12
444.17	3494.42
444.35	3604.42
444.54	3737.84
444.73	3604.42
444.91	3555.27
445.10	3358.67
445.28	3300.16
445.47	3220.58
445.65	3208.87
445.84	3368.03
446.02	3517.83
446.21	3421.86
446.39	3461.65
446.58	3459.31
446.77	3513.14
446.95	3440.59
447.14	3625.49
447.32	3768.26
447.51	3665.28
447.69	3510.80
447.88	3480.38
448.06	3548.25
448.25	3644.21
448.43	3527.19
448.62	3588.04
448.80	3531.87
448.99	3538.89
449.17	3646.55
449.36	3548.25
449.54	3627.83
449.73	3852.52
449.91	3948.48
450.10	3950.82
450.28	3941.46
450.46	4086.58
450.65	3880.61
450.83	3852.52
451.02	3808.05
451.20	3815.07
451.39	3805.71
451.57	3751.88
451.76	3777.62
451.94	3815.07
452.13	3772.94
452.31	3688.68
452.49	3372.71
452.68	3236.96
452.86	3517.83
453.05	3529.53
453.23	3557.61
453.42	3684.00
453.60	3829.12
453.78	3726.13
453.97	3691.02
454.15	3588.04
454.34	3585.70
454.52	3761.24
454.70	3592.72
454.89	3552.93
455.07	3672.30
455.26	3812.73
455.44	3728.47
455.62	3882.95
455.81	3962.53
455.99	3925.08
456.17	3747.20
456.36	3852.52
456.54	3847.84
456.73	3988.27
456.91	4107.64
457.09	4077.21
457.28	4072.53
457.46	4016.36
457.64	3878.27
457.83	3805.71
458.01	3632.51
458.19	3880.61
458.38	3805.71
458.56	3943.80
458.74	3796.35
458.93	3948.48
459.11	3829.12
459.29	3789.33
459.48	3859.54
459.66	3770.60
459.84	3894.65
460.03	4023.38
460.21	3868.91
460.39	3943.80
460.57	3974.23
460.76	3889.97
460.94	4077.21
461.12	4131.05
461.31	4046.79
461.49	3817.41
461.67	3967.21
461.85	4084.23
462.04	4058.49
462.22	4393.19
462.40	3941.46
462.59	4100.62
462.77	4037.42
462.95	3974.23
463.13	4086.58
463.32	3997.64
463.50	4021.04
463.68	3995.29
463.86	4135.73
464.05	4002.32
464.23	3824.44
464.41	3796.35
464.59	3716.77
464.78	3908.69
464.96	3943.80
465.14	3899.33
465.32	4025.72
465.50	4051.47
465.69	4088.92
465.87	4058.49
466.05	4074.87
466.23	3691.02
466.41	3794.01
466.60	3794.01
466.78	3730.81
466.96	3920.40
467.14	3978.91
467.32	3932.10
467.51	3932.10
467.69	3749.54
467.87	3997.64
468.05	3955.51
468.23	3936.78
468.41	4016.36
468.60	3812.73
468.78	4081.89
468.96	3920.40
469.14	4053.81
469.32	3983.59
469.50	3749.54
469.69	3894.65
469.87	3873.59
470.05	3845.50
470.23	3775.28
470.41	3815.07
470.59	3880.61
470.77	3815.07
470.95	4011.68
471.14	4109.98
471.32	4088.92
471.50	4353.40
471.68	4266.80
471.86	4187.22
472.04	4360.42
472.22	4322.97
472.40	4175.52
472.58	4079.55
472.77	4004.66
472.95	4009.34
473.13	4231.69
473.31	4168.49
473.49	4037.42
473.67	4063.17
473.85	4227.01
474.03	4318.29
474.21	4334.67
474.39	4372.12
474.57	4400.21
474.75	4351.06
474.93	4423.61
475.12	4231.69
475.30	4093.60
475.48	4229.35
475.66	4245.73
475.84	4280.84
476.02	4236.37
476.20	4222.33
476.38	4269.14
476.56	4430.63
476.74	4348.72
476.92	4465.74
477.10	4498.51
477.28	4688.09
477.46	4528.94
477.64	4734.90
477.82	4765.33
478.00	4709.16
478.18	4842.57
478.36	4550.00
478.54	4521.92
478.72	4732.56
478.90	4624.90
479.08	5022.79
479.26	4933.85
479.44	4898.74
479.62	4774.69
479.80	4882.36
479.98	4924.49
480.16	4943.21
480.34	4931.51
480.52	5050.88
480.70	5027.47
480.88	5111.73
481.06	5266.21
481.24	5149.18
481.41	5280.25
481.59	5242.80
481.77	5432.38
481.95	5018.11
482.13	5369.19
482.31	5322.38
482.49	5313.02
482.67	5287.27
482.85	5247.48
483.03	5425.36
483.21	5654.73
483.39	5462.81
483.57	5399.62
483.74	5242.80
483.92	5418.34
484.10	5350.46
484.28	5671.12
484.46	5827.93
484.64	5575.16
484.82	5614.95
485.00	5589.20
485.18	5394.93
485.35	5184.29
485.53	4812.14
485.71	4526.60
485.89	4580.43
486.07	4746.61
486.25	5179.61
486.43	5294.29
486.61	5294.29
486.78	5359.83
486.96	5432.38
487.14	5652.39
487.32	5734.31
487.50	5767.08
487.68	5905.17
487.85	5959.00
488.03	6179.01
488.21	6118.16
488.39	5998.79
488.57	5872.40
488.75	5738.99
488.92	6195.40
489.10	6291.36
489.28	6373.28
489.46	6642.44
489.64	6719.68
489.81	6534.78
489.99	6619.04
490.17	6499.67
490.35	6679.89
490.53	6649.46
490.70	6445.84
490.88	6548.82
491.06	6604.99
491.24	6726.70
491.41	6392.00
491.59	6279.66
491.77	6132.20
491.95	6162.63
492.13	6628.40
492.30	6712.66
492.48	6888.20
492.66	6927.99
492.84	6892.88
493.01	6871.81
493.19	6881.18
493.37	6778.19
493.54	6740.74
493.72	6850.75
493.90	6841.39
494.08	7206.51
494.25	7283.75
494.43	7269.70
494.61	7365.67
494.79	7419.50
494.96	7513.12
495.14	7550.57
495.32	6977.14
495.49	6796.92
495.67	7236.94
495.85	7538.87
496.02	7435.88
496.20	7510.78
496.38	7428.86
496.55	7349.28
496.73	7501.42
496.91	7527.16
497.09	7585.68
497.26	7653.55
497.44	7611.42
497.62	7548.23
497.79	7279.07
497.97	6766.49
498.14	7045.01
498.32	7171.40
498.50	7426.52
498.67	7602.06
498.85	7669.94
499.03	7672.28
499.20	7571.63
499.38	7634.83
499.56	7545.89
499.73	7438.22
499.91	7400.77
500.08	7534.18
500.26	7183.10
500.44	7185.44
500.61	7328.22
500.79	7417.16
500.97	7307.15
501.14	7157.36
501.32	7047.35
501.49	7103.53
501.67	7082.46
501.84	7279.07
502.02	7248.64
502.20	7398.43
502.37	7555.25
502.55	7461.63
502.72	7480.35
502.90	7566.95
503.07	7620.78
503.25	7360.98
503.43	7016.93
503.60	6766.49
503.78	6604.99
503.95	6698.61
504.13	7098.84
504.30	7581.00
504.48	7470.99
504.65	7510.78
504.83	7726.11
505.01	7541.21
505.18	7716.75
505.36	7850.16
505.53	7920.37
505.71	7950.80
505.88	8159.11
506.06	7843.14
506.23	7639.51
506.41	7536.52
506.58	7765.90
506.76	7566.95
506.93	7524.82
507.11	7667.60
507.28	7784.62
507.46	7456.95
507.63	7461.63
507.81	7407.80
507.98	7332.90
508.16	7520.14
508.33	7566.95
508.50	7981.23
508.68	7976.55
508.85	8072.51
509.03	7873.56
509.20	7915.69
509.38	7903.99
509.55	7571.63
509.73	7662.91
509.90	7894.63
510.08	7801.01
510.25	7843.14
510.42	7840.79
510.60	7768.24
510.77	8009.31
510.95	7915.69
511.12	7948.46
511.30	8402.52
511.47	8264.43
511.64	8245.71
511.82	8145.06
511.99	8074.85
512.17	8025.70
512.34	7850.16
512.51	7929.74
512.69	7782.28
512.86	7775.26
513.04	7971.86
513.21	7882.92
513.38	7803.35
513.56	7789.30
513.73	7468.65
513.90	7442.90
514.08	7763.56
514.25	7644.19
514.43	7646.53
514.60	7754.19
514.77	7836.11
514.95	7934.42
515.12	7761.22
515.29	8030.38
515.47	7978.89
515.64	8194.22
515.81	7763.56
515.99	7999.95
516.16	7442.90
516.33	6860.11
516.51	6553.50
516.68	6342.85
516.85	6303.06
517.03	6459.88
517.20	6991.18
517.37	7618.44
517.54	7852.50
517.72	8002.29
517.89	7201.83
518.06	6665.85
518.24	6794.58
518.41	7258.00
518.58	7499.08
518.75	7653.55
518.93	7585.68
519.10	7761.22
519.27	7517.80
519.45	7695.68
519.62	7955.48
519.79	8105.28
519.96	8025.70
520.14	7822.07
520.31	7723.77
520.48	7681.64
520.65	7775.26
520.83	7896.97
521.00	8072.51
521.17	7932.08
521.34	8051.44
521.52	8051.44
521.69	8292.52
521.86	8084.21
522.03	8210.60
522.20	7740.15
522.38	7632.49
522.55	7571.63
522.72	7810.37
522.89	7737.81
523.07	7742.49
523.24	7969.52
523.41	8177.83
523.58	8290.18
523.75	8236.35
523.92	8285.50
524.10	8332.31
524.27	8472.74
524.44	8203.58
524.61	8035.06
524.78	8084.21
524.96	8238.69
525.13	8042.08
525.30	8224.64
525.47	8358.05
525.64	8318.26
525.81	8219.96
525.98	7857.18
526.16	7379.71
526.33	7213.53
526.50	7185.44
526.67	7019.27
526.84	7171.40
527.01	7431.20
527.18	7463.97
527.36	7721.43
527.53	8030.38
527.70	7995.27
527.87	8175.49
528.04	8098.25
528.21	8028.04
528.38	8264.43
528.55	8390.82
528.72	8542.96
528.89	8678.71
529.07	8594.45
529.24	8299.54
529.41	7992.93
529.58	7903.99
529.75	7777.60
529.92	7943.78
530.09	7962.50
530.26	8421.25
530.43	8430.61
530.60	8329.97
530.77	8491.46
530.94	8540.61
531.11	8472.74
531.28	8196.56
531.46	8217.62
531.63	8322.94
531.80	7974.21
531.97	8187.19
532.14	8051.44
532.31	7681.64
532.48	7449.93
532.65	7346.94
532.82	7365.67
532.99	8112.30
533.16	8121.66
533.33	8241.03
533.50	8093.57
533.67	8051.44
533.84	7903.99
534.01	8189.53
534.18	8021.02
534.35	8170.81
534.52	7878.24
534.69	8028.04
534.86	8161.45
535.03	8259.75
535.20	8182.51
535.37	8620.19
535.54	8695.09
535.71	8341.67
535.88	8421.25
536.05	8042.08
536.22	8145.06
536.38	8081.87
536.55	7901.65
536.72	7824.41
536.89	7658.23
537.06	7730.79
537.23	8238.69
537.40	8198.90
537.57	8236.35
537.74	8163.79
537.91	8264.43
538.08	8180.17
538.25	8138.04
538.42	8081.87
538.59	8184.85
538.75	8109.96
538.92	7950.80
539.09	8088.89
539.26	7976.55
539.43	7903.99
539.60	7997.61
539.77	7941.44
539.94	8149.75
540.11	8042.08
540.28	7744.83
540.44	7744.83
540.61	8042.08
540.78	7927.39
540.95	8163.79
541.12	8489.12
541.29	8631.90
541.46	8800.41
541.62	8844.88
541.79	8753.60
541.96	8641.26
542.13	8458.70
542.30	8629.56
542.47	8606.15
542.63	8475.08
542.80	8430.61
542.97	8610.83
543.14	8475.08
543.31	8320.60
543.48	8510.19
543.64	8748.92
543.81	8922.12
543.98	8760.63
544.15	8510.19
544.32	8442.31
544.48	8489.12
544.65	8585.08
544.82	8699.77
544.99	8458.70
545.16	8428.27
545.32	8477.42
545.49	9118.73
545.66	10125.16
545.83	10572.20
546.00	10303.04
546.16	9446.40
546.33	8762.97
546.50	8514.87
546.67	8643.60
546.83	8304.22
547.00	8297.20
547.17	8222.30
547.34	7962.50
547.50	7885.26
547.67	7908.67
547.84	8084.21
548.00	8154.43
548.17	8299.54
548.34	8149.75
548.51	8187.19
548.67	7967.18
548.84	8198.90
549.01	8060.80
549.18	8135.70
549.34	8189.53
549.51	8086.55
549.68	8023.36
549.84	7990.59
550.01	7934.42
550.18	7768.24
550.34	8060.80
550.51	7932.08
550.68	7859.52
550.84	7719.09
551.01	7611.42
551.18	7815.05
551.34	7932.08
551.51	7943.78
551.68	7957.82
551.84	8030.38
552.01	8032.72
552.18	7976.55
552.34	7709.72
552.51	7555.25
552.68	7712.07
552.84	7793.98
553.01	7765.90
553.18	7721.43
553.34	7683.98
553.51	7751.85
553.67	7808.03
553.84	7819.73
554.01	8044.42
554.17	7751.85
554.34	7733.13
554.51	7653.55
554.67	7967.18
554.84	7908.67
555.00	7911.01
555.17	7754.19
555.33	7609.08
555.50	7648.87
555.67	7513.12
555.83	7456.95
556.00	7520.14
556.16	7644.19
556.33	7379.71
556.50	7358.64
556.66	7405.46
556.83	7246.30
556.99	7258.00
557.16	7360.98
557.32	7440.56
557.49	7391.41
557.65	7433.54
557.82	7517.80
557.98	7627.81
558.15	7398.43
558.32	7323.54
558.48	6970.12
558.65	7007.56
558.81	6967.77
558.98	7019.27
559.14	7115.23
559.31	7194.81
559.47	7398.43
559.64	7236.94
559.80	7042.67
559.97	7089.48
560.13	7227.57
560.30	7332.90
560.46	7510.78
560.63	7466.31
560.79	7492.05
560.96	7456.95
561.12	7206.51
561.29	6991.18
561.45	7009.90
561.61	7185.44
561.78	7119.91
561.94	7368.01
562.11	7075.44
562.27	7241.62
562.44	7080.12
562.60	7311.83
562.77	7389.07
562.93	7344.60
563.10	7187.79
563.26	7140.97
563.42	7150.34
563.59	7126.93
563.75	7304.81
563.92	7126.93
564.08	6757.13
564.24	7077.78
564.41	7176.08
564.57	7159.70
564.74	7117.57
564.90	7075.44
565.07	7047.35
565.23	6888.20
565.39	6731.38
565.56	6665.85
565.72	6794.58
565.88	6738.40
566.05	6832.02
566.21	6672.87
566.38	6932.67
566.54	6920.96
566.70	6904.58
566.87	7124.59
567.03	6663.51
567.19	7089.48
567.36	6911.60
567.52	6808.62
567.68	7016.93
567.85	6612.01
568.01	6696.27
568.17	6459.88
568.34	6377.96
568.50	6347.53
568.66	6443.49
568.83	6392.00
568.99	6422.43
569.15	6415.41
569.32	6560.52
569.48	6562.86
569.64	6291.36
569.81	6410.73
569.97	6310.08
570.13	6387.32
570.30	6319.45
570.46	6530.09
570.62	6415.41
570.78	6181.35
570.95	6289.02
571.11	6396.68
571.27	6384.98
571.43	6384.98
571.60	6473.92
571.76	6455.20
571.92	6408.39
572.09	6375.62
572.25	6541.80
572.41	6548.82
572.57	6363.92
572.74	6499.67
572.90	6445.84
573.06	6562.86
573.22	6555.84
573.38	6438.81
573.55	6443.49
573.71	6703.29
573.87	6633.08
574.03	6403.71
574.20	6333.49
574.36	6197.74
574.52	6214.12
574.68	6417.75
574.84	6207.10
575.01	6307.74
575.17	6242.21
575.33	6132.20
575.49	6239.87
575.65	6347.53
575.82	6284.34
575.98	6200.08
576.14	6195.40
576.30	6218.80
576.46	6551.16
576.62	6740.74
576.79	6801.60
576.95	6647.12
577.11	6389.66
577.27	6464.56
577.43	6160.29
577.59	6263.27
577.75	6277.32
577.92	6120.50
578.08	6083.05
578.24	6010.50
578.40	6132.20
578.56	6338.17
578.72	6612.01
578.88	6834.36
579.04	6579.25
579.21	6530.09
579.37	6471.58
579.53	6298.38
579.69	6452.86
579.85	6380.30
580.01	6490.31
580.17	6333.49
580.33	6420.09
580.49	6345.19
580.65	6242.21
580.82	6394.34
580.98	6499.67
581.14	6298.38
581.30	6431.79
581.46	6377.96
581.62	6384.98
581.78	6363.92
581.94	6462.22
582.10	6303.06
582.26	6520.73
582.42	6583.93
582.58	6581.59
582.74	6691.59
582.90	6466.90
583.06	6523.07
583.22	6612.01
583.38	6317.11
583.54	6368.60
583.70	6516.05
583.86	6462.22
584.02	6305.40
584.18	6490.31
584.34	6438.81
584.50	6392.00
584.66	6211.78
584.82	6342.85
584.98	6244.55
585.14	6370.94
585.30	6111.14
585.46	6132.20
585.62	6019.86
585.78	6036.24
585.94	6005.81
586.10	6073.69
586.26	6069.01
586.42	6153.27
586.58	6174.33
586.74	6335.83
586.90	6370.94
587.06	6253.91
587.22	6169.65
587.38	6024.54
587.54	5874.74
587.70	5699.20
587.86	5504.94
588.02	5462.81
588.18	5376.21
588.34	4971.30
588.49	4688.09
588.65	4545.32
588.81	4358.08
588.97	4346.37
589.13	4393.19
589.29	4229.35
589.45	4418.93
589.61	4500.85
589.77	4526.60
589.93	4765.33
590.08	4912.78
590.24	5064.92
590.40	5095.35
590.56	5270.89
590.72	5195.99
590.88	5090.67
591.04	5013.43
591.20	5217.05
591.35	5039.17
591.51	4964.28
591.67	4922.15
591.83	4910.44
591.99	4936.19
592.15	4985.34
592.31	5139.82
592.46	5383.23
592.62	5430.04
592.78	5280.25
592.94	5385.57
593.10	5315.36
593.26	5401.96
593.41	5600.90
593.57	5472.17
593.73	5334.08
593.89	4901.08
594.05	4833.21
594.20	4678.73
594.36	4781.71
594.52	4475.10
594.68	4702.14
594.84	4858.95
594.99	5006.41
595.15	5116.41
595.31	5132.79
595.47	5203.01
595.62	5144.50
595.78	5252.16
595.94	5247.48
596.10	5366.85
596.25	5245.14
596.41	5137.48
596.57	4910.44
596.73	5022.79
596.88	5036.83
597.04	5177.26
597.20	5095.35
597.36	5027.47
597.51	5085.98
