SpectraSuite Data File
++++++++++++++++++++++++++++++++++++
Date: Fri Oct 04 11:44:20 GMT-05:00 2013
User: price-jones
Dark Spectrum Present: No
Reference Spectrum Present: No
Number of Sampled Component Spectra: 1
Spectrometers: USB2+H05261
Integration Time (usec): 100000 (USB2+H05261)
Spectra Averaged: 1 (USB2+H05261)
Boxcar Smoothing: 0 (USB2+H05261)
Correct for Electrical Dark: No (USB2+H05261)
Strobe/Lamp Enabled: No (USB2+H05261)
Correct for Detector Non-linearity: No (USB2+H05261)
Correct for Stray Light: No (USB2+H05261)
Number of Pixels in Processed Spectrum: 2048
>>>>>Begin Processed Spectral Data<<<<<
365.73	0.00
365.92	0.00
366.12	0.00
366.32	0.00
366.52	0.00
366.72	0.00
366.91	0.00
367.11	0.00
367.31	0.00
367.51	0.00
367.70	0.00
367.90	0.00
368.10	0.00
368.30	11.70
368.49	0.00
368.69	0.00
368.89	0.00
369.09	0.00
369.28	0.00
369.48	0.00
369.68	0.00
369.87	0.00
370.07	0.00
370.27	28.09
370.47	133.41
370.66	255.12
370.86	285.55
371.06	358.10
371.25	393.21
371.45	276.18
371.65	318.31
371.84	299.59
372.04	325.33
372.24	330.02
372.44	447.04
372.63	395.55
372.83	416.62
373.03	355.76
373.22	315.97
373.42	355.76
373.62	355.76
373.81	386.19
374.01	425.98
374.21	379.17
374.40	381.51
374.60	458.74
374.79	470.45
374.99	423.64
375.19	470.45
375.38	514.92
375.58	484.49
375.78	433.00
375.97	433.00
376.17	498.53
376.37	449.38
376.56	463.43
376.76	470.45
376.95	554.71
377.15	540.66
377.35	547.69
377.54	599.18
377.74	571.09
377.93	657.69
378.13	571.09
378.33	627.26
378.52	514.92
378.72	538.32
378.91	505.56
379.11	521.94
379.31	561.73
379.50	468.11
379.70	543.00
379.89	514.92
380.09	489.17
380.28	554.71
380.48	582.79
380.68	587.47
380.87	503.22
381.07	533.64
381.26	561.73
381.46	500.87
381.65	468.11
381.85	355.76
382.04	458.74
382.24	402.57
382.43	397.89
382.63	339.38
382.83	341.72
383.02	390.87
383.22	362.78
383.41	362.78
383.61	425.98
383.80	435.34
384.00	580.45
384.19	552.37
384.39	585.13
384.58	533.64
384.78	655.35
384.97	554.71
385.17	589.82
385.36	444.70
385.56	503.22
385.75	416.62
385.95	568.75
386.14	538.32
386.34	547.69
386.53	564.07
386.72	463.43
386.92	550.03
387.11	566.41
387.31	561.73
387.50	573.43
387.70	594.50
387.89	599.18
388.09	505.56
388.28	545.34
388.48	524.28
388.67	573.43
388.86	657.69
389.06	643.65
389.25	802.80
389.45	699.82
389.64	737.27
389.84	718.54
390.03	641.31
390.22	657.69
390.42	676.41
390.61	681.10
390.81	809.83
391.00	793.44
391.19	863.66
391.39	746.63
391.58	800.46
391.78	683.44
391.97	655.35
392.16	643.65
392.36	557.05
392.55	503.22
392.75	425.98
392.94	421.30
393.13	451.72
393.33	411.93
393.52	472.79
393.71	638.97
393.91	664.71
394.10	624.92
394.29	716.20
394.49	772.38
394.68	894.08
394.88	842.59
395.07	854.30
395.26	880.04
395.46	800.46
395.65	823.87
395.84	746.63
396.04	737.27
396.23	594.50
396.42	451.72
396.62	507.90
396.81	489.17
397.00	634.29
397.19	690.46
397.39	814.51
397.58	985.37
397.77	901.11
397.97	908.13
398.16	912.81
398.35	987.71
398.55	1074.31
398.74	1083.67
398.93	1149.20
399.12	1107.07
399.32	1025.15
399.51	1074.31
399.70	1179.63
399.90	1050.90
400.09	1060.26
400.28	1090.69
400.47	1111.75
400.67	1212.40
400.86	1266.23
401.05	1214.74
401.24	1254.53
401.44	1217.08
401.63	1233.46
401.82	1231.12
402.01	1240.48
402.21	1228.78
402.40	1291.98
402.59	1266.23
402.78	1135.16
402.97	1076.65
403.17	1137.50
403.36	1163.25
403.55	1217.08
403.74	1324.74
403.93	1308.36
404.13	1266.23
404.32	1149.20
404.51	1270.91
404.70	1261.55
404.89	1191.33
405.09	1289.64
405.28	1221.76
405.47	1198.35
405.66	1121.12
405.85	1191.33
406.05	1086.01
406.24	1149.20
406.43	1245.16
406.62	1317.72
406.81	1282.61
407.00	1186.65
407.20	1174.95
407.39	1132.82
407.58	1212.40
407.77	1359.85
407.96	1259.21
408.15	1359.85
408.34	1284.95
408.54	1392.62
408.73	1327.08
408.92	1380.92
409.11	1322.40
409.30	1263.89
409.49	1259.21
409.68	1107.07
409.87	1128.14
410.07	1151.54
410.26	1270.91
410.45	1226.44
410.64	1287.29
410.83	1416.02
411.02	1521.35
411.21	1425.39
411.40	1441.77
411.59	1504.96
411.78	1455.81
411.98	1416.02
412.17	1348.15
412.36	1348.15
412.55	1427.73
412.74	1378.58
412.93	1537.73
413.12	1413.68
413.31	1540.07
413.50	1519.01
413.69	1556.46
413.88	1502.62
414.07	1533.05
414.26	1523.69
414.45	1481.56
414.64	1565.82
414.83	1561.14
415.02	1511.99
415.22	1455.81
415.41	1533.05
415.60	1575.18
415.79	1629.01
415.98	1659.44
416.17	1638.38
416.36	1659.44
416.55	1582.20
416.74	1621.99
416.93	1549.43
417.12	1448.79
417.31	1572.84
417.50	1643.06
417.69	1591.56
417.88	1568.16
418.07	1582.20
418.26	1593.90
418.45	1504.96
418.64	1717.95
418.83	1647.74
419.02	1715.61
419.21	1570.50
419.39	1600.93
419.58	1526.03
419.77	1516.67
419.96	1523.69
420.15	1652.42
420.34	1715.61
420.53	1774.13
420.72	1820.94
420.91	1685.19
421.10	1638.38
421.29	1640.72
421.48	1687.53
421.67	1645.40
421.86	1629.01
422.05	1495.60
422.24	1430.07
422.43	1479.22
422.61	1495.60
422.80	1631.35
422.99	1636.03
423.18	1687.53
423.37	1605.61
423.56	1521.35
423.75	1514.33
423.94	1596.25
424.13	1514.33
424.32	1528.37
424.50	1720.29
424.69	1626.67
424.88	1638.38
425.07	1603.27
425.26	1523.69
425.45	1568.16
425.64	1544.75
425.83	1500.28
426.01	1589.22
426.20	1600.93
426.39	1624.33
426.58	1514.33
426.77	1434.75
426.96	1399.64
427.15	1441.77
427.33	1511.99
427.52	1551.78
427.71	1500.28
427.90	1561.14
428.09	1540.07
428.28	1584.54
428.46	1561.14
428.65	1458.15
428.84	1523.69
429.03	1600.93
429.22	1523.69
429.40	1364.53
429.59	1249.85
429.78	1198.35
429.97	1165.59
430.16	1165.59
430.34	1167.93
430.53	1114.10
430.72	1224.10
430.91	1334.11
431.10	1336.45
431.28	1710.93
431.47	1813.92
431.66	1797.53
431.85	1739.02
432.03	1685.19
432.22	1626.67
432.41	1568.16
432.60	1755.40
432.79	1818.60
432.97	1870.09
433.16	1739.02
433.35	1650.08
433.54	1469.86
433.72	1423.05
433.91	1465.18
434.10	1575.18
434.28	1680.50
434.47	1870.09
434.66	1790.51
434.85	1755.40
435.03	1799.87
435.22	1930.94
435.41	2207.13
435.59	2099.46
435.78	2111.16
435.97	2019.88
436.16	2036.27
436.34	1919.24
436.53	1893.49
436.72	1961.37
436.90	1755.40
437.09	1802.21
437.28	1832.64
437.46	1804.55
437.65	1804.55
437.84	1830.30
438.02	1570.50
438.21	1582.20
438.40	1640.72
438.58	1727.32
438.77	1769.44
438.96	1668.80
439.14	1909.88
439.33	1989.46
439.52	2010.52
439.70	1863.07
439.89	1823.28
440.08	1877.11
440.26	1802.21
440.45	1944.99
440.63	1959.03
440.82	2052.65
441.01	2047.97
441.19	2040.95
441.38	2073.71
441.57	2122.87
441.75	2155.63
441.94	2232.87
442.12	2019.88
442.31	2211.81
442.50	2094.78
442.68	2153.29
442.87	2066.69
443.05	2022.22
443.24	2111.16
443.43	2200.10
443.61	2223.51
443.80	2258.62
443.98	2141.59
444.17	2111.16
444.35	2223.51
444.54	2190.74
444.73	2310.11
444.91	2118.18
445.10	2038.61
445.28	1909.88
445.47	2005.84
445.65	1963.71
445.84	2066.69
446.02	2038.61
446.21	2019.88
446.39	2132.23
446.58	2165.00
446.77	2134.57
446.95	2249.25
447.14	2235.21
447.32	2349.90
447.51	2162.66
447.69	2195.42
447.88	2169.68
448.06	2244.57
448.25	2230.53
448.43	2167.34
448.62	2113.50
448.80	2260.96
448.99	2270.32
449.17	2289.04
449.36	2162.66
449.54	2312.45
449.73	2363.94
449.91	2483.31
450.10	2539.48
450.28	2483.31
450.46	2464.58
450.65	2530.12
450.83	2417.77
451.02	2427.14
451.20	2319.47
451.39	2354.58
451.57	2380.32
451.76	2179.04
451.94	2389.69
452.13	2319.47
452.31	2239.89
452.49	2108.82
452.68	2019.88
452.86	2221.17
453.05	2296.07
453.23	2150.95
453.42	2134.57
453.60	2249.25
453.78	2401.39
453.97	2296.07
454.15	2324.15
454.34	2083.08
454.52	2356.92
454.70	2312.45
454.89	2399.05
455.07	2270.32
455.26	2352.24
455.44	2333.51
455.62	2450.54
455.81	2370.96
455.99	2443.52
456.17	2349.90
456.36	2413.09
456.54	2359.26
456.73	2422.45
456.91	2457.56
457.09	2471.61
457.28	2539.48
457.46	2448.20
457.64	2429.48
457.83	2385.01
458.01	2291.38
458.19	2363.94
458.38	2265.64
458.56	2394.37
458.74	2396.71
458.93	2368.62
459.11	2504.37
459.29	2282.02
459.48	2349.90
459.66	2359.26
459.84	2359.26
460.03	2525.44
460.21	2525.44
460.39	2497.35
460.57	2506.71
460.76	2511.39
460.94	2551.18
461.12	2438.84
461.31	2476.29
461.49	2537.14
461.67	2485.65
461.85	2502.03
462.04	2534.80
462.22	2963.12
462.40	2532.46
462.59	2619.06
462.77	2483.31
462.95	2544.16
463.13	2567.57
463.32	2504.37
463.50	2441.18
463.68	2265.64
463.86	2429.48
464.05	2527.78
464.23	2352.24
464.41	2513.74
464.59	2293.72
464.78	2485.65
464.96	2406.07
465.14	2434.16
465.32	2527.78
465.50	2593.31
465.69	2586.29
465.87	2530.12
466.05	2443.52
466.23	2354.58
466.41	2314.79
466.60	2403.73
466.78	2469.27
466.96	2370.96
467.14	2410.75
467.32	2473.95
467.51	2375.64
467.69	2394.37
467.87	2422.45
468.05	2476.29
468.23	2473.95
468.41	2424.80
468.60	2590.97
468.78	2424.80
468.96	2509.05
469.14	2434.16
469.32	2466.92
469.50	2420.11
469.69	2492.67
469.87	2307.77
470.05	2279.68
470.23	2368.62
470.41	2431.82
470.59	2420.11
470.77	2455.22
470.95	2413.09
471.14	2422.45
471.32	2483.31
471.50	2647.15
471.68	2574.59
471.86	2642.46
472.04	2562.89
472.22	2576.93
472.40	2530.12
472.58	2586.29
472.77	2434.16
472.95	2612.04
473.13	2513.74
473.31	2588.63
473.49	2546.50
473.67	2689.28
473.85	2583.95
474.03	2548.84
474.21	2602.68
474.39	2626.08
474.57	2644.81
474.75	2605.02
474.93	2696.30
475.12	2623.74
475.30	2609.70
475.48	2572.25
475.66	2640.12
475.84	2644.81
476.02	2672.89
476.20	2562.89
476.38	2628.42
476.56	2759.49
476.74	2832.05
476.92	2764.17
477.10	2890.56
477.28	2803.96
477.46	2878.86
477.64	2967.80
477.82	3026.31
478.00	2984.18
478.18	2818.00
478.36	2834.39
478.54	2829.71
478.72	2832.05
478.90	2960.78
479.08	3218.24
479.26	3030.99
479.44	3075.46
479.62	3014.61
479.80	3052.06
479.98	3098.87
480.16	3066.10
480.34	3075.46
480.52	3073.12
480.70	3143.34
480.88	3077.80
481.06	3091.85
481.24	3218.24
481.41	3213.56
481.59	3274.41
481.77	3314.20
481.95	3255.69
482.13	3141.00
482.31	3316.54
482.49	3208.87
482.67	3220.58
482.85	3218.24
483.03	3234.62
483.21	3431.23
483.39	3431.23
483.57	3229.94
483.74	3353.99
483.92	3300.16
484.10	3379.73
484.28	3527.19
484.46	3368.03
484.64	3536.55
484.82	3405.48
485.00	3243.98
485.18	3351.65
485.35	3208.87
485.53	3014.61
485.71	2722.04
485.89	2750.13
486.07	2740.77
486.25	3112.91
486.43	3136.32
486.61	3471.01
486.78	3279.09
486.96	3307.18
487.14	3400.80
487.32	3454.63
487.50	3679.32
487.68	3688.68
487.85	3693.37
488.03	3777.62
488.21	3831.46
488.39	3691.02
488.57	3651.24
488.75	3482.72
488.92	3782.31
489.10	3826.78
489.28	4007.00
489.46	4004.66
489.64	3882.95
489.81	4273.82
489.99	4142.75
490.17	4081.89
490.35	4016.36
490.53	4023.38
490.70	3997.64
490.88	3983.59
491.06	4208.28
491.24	4217.65
491.41	4035.08
491.59	3803.37
491.77	3721.45
491.95	3967.21
492.13	3899.33
492.30	4074.87
492.48	4208.28
492.66	4243.39
492.84	4145.09
493.01	4212.96
493.19	4241.05
493.37	4112.32
493.54	4042.11
493.72	4117.00
493.90	4140.41
494.08	4325.31
494.25	4493.83
494.43	4545.32
494.61	4470.42
494.79	4599.15
494.96	4582.77
495.14	4456.38
495.32	4379.14
495.49	4269.14
495.67	4315.95
495.85	4681.07
496.02	4727.88
496.20	4566.39
496.38	4533.62
496.55	4512.55
496.73	4725.54
496.91	4704.48
497.09	4657.67
497.26	4706.82
497.44	4564.04
497.62	4664.69
497.79	4514.89
497.97	4409.57
498.14	4311.27
498.32	4320.63
498.50	4491.49
498.67	4667.03
498.85	4540.64
499.03	4713.84
499.20	4601.49
499.38	4854.27
499.56	4723.20
499.73	4648.30
499.91	4669.37
500.08	4510.21
500.26	4374.46
500.44	4491.49
500.61	4507.87
500.79	4475.10
500.97	4325.31
501.14	4444.68
501.32	4594.47
501.49	4470.42
501.67	4383.82
501.84	4383.82
502.02	4416.59
502.20	4753.63
502.37	4573.41
502.55	4622.56
502.72	4648.30
502.90	4770.01
503.07	4613.20
503.25	4400.21
503.43	4306.59
503.60	4306.59
503.78	4166.15
503.95	4304.25
504.13	4388.50
504.30	4631.92
504.48	4634.26
504.65	4660.01
504.83	4627.24
505.01	4608.51
505.18	4905.76
505.36	4851.93
505.53	4739.58
505.71	4945.55
505.88	4980.66
506.06	4793.42
506.23	4844.91
506.41	4720.86
506.58	4760.65
506.76	4657.67
506.93	4819.16
507.11	4692.77
507.28	4744.27
507.46	4524.26
507.63	4624.90
507.81	4344.03
507.98	4524.26
508.16	4634.26
508.33	4807.46
508.50	4997.04
508.68	4840.23
508.85	4833.21
509.03	5097.69
509.20	5027.47
509.38	4807.46
509.55	4772.35
509.73	4861.29
509.90	4894.06
510.08	4840.23
510.25	4847.25
510.42	4786.40
510.60	4805.12
510.77	4889.38
510.95	5090.67
511.12	5158.54
511.30	4943.21
511.47	5149.18
511.64	5029.81
511.82	5071.94
511.99	4870.65
512.17	4997.04
512.34	4734.90
512.51	4755.97
512.69	4713.84
512.86	4896.40
513.04	5057.90
513.21	4936.19
513.38	4891.72
513.56	4767.67
513.73	4755.97
513.90	4753.63
514.08	4936.19
514.25	4940.87
514.43	4910.44
514.60	4877.68
514.77	4997.04
514.95	4870.65
515.12	4931.51
515.29	4971.30
515.47	5015.77
515.64	5132.79
515.81	5163.22
515.99	5060.24
516.16	4926.83
516.33	4505.53
516.51	4231.69
516.68	4205.94
516.85	4016.36
517.03	4042.11
517.20	4236.37
517.37	4718.52
517.54	4954.91
517.72	4896.40
517.89	4718.52
518.06	4194.24
518.24	4159.13
518.41	4493.83
518.58	4697.46
518.75	4650.64
518.93	4945.55
519.10	4786.40
519.27	4816.82
519.45	4868.31
519.62	5053.22
519.79	5015.77
519.96	5076.62
520.14	5020.45
520.31	4779.37
520.48	4919.81
520.65	4891.72
520.83	4950.23
521.00	5158.54
521.17	5203.01
521.34	4959.60
521.52	5015.77
521.69	5170.24
521.86	5203.01
522.03	5036.83
522.20	4908.10
522.38	4910.44
522.55	4840.23
522.72	4774.69
522.89	4828.53
523.07	5144.50
523.24	4950.23
523.41	5151.52
523.58	5261.52
523.75	5369.19
523.92	5247.48
524.10	5270.89
524.27	5324.72
524.44	5334.08
524.61	5287.27
524.78	5085.98
524.96	5135.14
525.13	5198.33
525.30	5275.57
525.47	5247.48
525.64	5308.34
525.81	5163.22
525.98	4870.65
526.16	4746.61
526.33	4535.96
526.50	4622.56
526.67	4470.42
526.84	4505.53
527.01	4622.56
527.18	4812.14
527.36	4950.23
527.53	5128.11
527.70	5160.88
527.87	5027.47
528.04	5142.16
528.21	5235.78
528.38	5233.44
528.55	5224.08
528.72	5385.57
528.89	5540.05
529.07	5460.47
529.24	5343.44
529.41	5284.93
529.58	4929.17
529.75	5116.41
529.92	5167.90
530.09	5064.92
530.26	5355.15
530.43	5177.26
530.60	5303.65
530.77	5331.74
530.94	5376.21
531.11	5212.37
531.28	5371.53
531.46	5186.63
531.63	5334.08
531.80	5263.86
531.97	5242.80
532.14	5039.17
532.31	4936.19
532.48	4762.99
532.65	4840.23
532.82	4837.89
532.99	5142.16
533.16	5125.77
533.33	5334.08
533.50	5355.15
533.67	5188.97
533.84	5071.94
534.01	5025.13
534.18	5170.24
534.35	5123.43
534.52	4971.30
534.69	5177.26
534.86	5210.03
535.03	5317.70
535.20	5453.45
535.37	5565.79
535.54	5350.46
535.71	5296.63
535.88	5411.32
536.05	5270.89
536.22	5301.31
536.38	5310.68
536.55	4945.55
536.72	4987.68
536.89	4985.34
537.06	5135.14
537.23	5188.97
537.40	5322.38
537.57	5245.14
537.74	5369.19
537.91	5313.02
538.08	5404.30
538.25	5146.84
538.42	5238.12
538.59	5322.38
538.75	5228.76
538.92	5132.79
539.09	5280.25
539.26	5074.28
539.43	5004.07
539.60	5006.41
539.77	4992.36
539.94	4945.55
540.11	4835.55
540.28	4840.23
540.44	4905.76
540.61	4943.21
540.78	4917.47
540.95	5053.22
541.12	5212.37
541.29	5240.46
541.46	5362.17
541.62	5329.40
541.79	5289.61
541.96	5167.90
542.13	5221.74
542.30	5357.49
542.47	5212.37
542.63	5465.15
542.80	5203.01
542.97	5214.71
543.14	4947.89
543.31	5027.47
543.48	5231.10
543.64	5345.78
543.81	5380.89
543.98	5336.42
544.15	5455.79
544.32	5369.19
544.48	5315.36
544.65	5261.52
544.82	5420.68
544.99	5156.20
545.16	5212.37
545.32	5160.88
545.49	5526.00
545.66	5930.92
545.83	5942.62
546.00	5797.51
546.16	5509.62
546.33	5514.30
546.50	5050.88
546.67	5273.23
546.83	5373.87
547.00	5128.11
547.17	5090.67
547.34	4994.70
547.50	4858.95
547.67	4980.66
547.84	5053.22
548.00	5041.51
548.17	5135.14
548.34	5055.56
548.51	5310.68
548.67	5137.48
548.84	5252.16
549.01	5235.78
549.18	5198.33
549.34	5177.26
549.51	4997.04
549.68	5088.32
549.84	5097.69
550.01	5053.22
550.18	4868.31
550.34	5149.18
550.51	5004.07
550.68	5100.03
550.84	4952.57
551.01	4966.62
551.18	4994.70
551.34	4968.96
551.51	5090.67
551.68	5107.05
551.84	5317.70
552.01	4994.70
552.18	5025.13
552.34	4943.21
552.51	4887.04
552.68	4922.15
552.84	4905.76
553.01	4833.21
553.18	5088.32
553.34	4945.55
553.51	5048.54
553.67	5158.54
553.84	5195.99
554.01	4987.68
554.17	4931.51
554.34	4966.62
554.51	4957.25
554.67	4947.89
554.84	5102.37
555.00	5039.17
555.17	4936.19
555.33	5050.88
555.50	5074.28
555.67	5090.67
555.83	4826.18
556.00	4793.42
556.16	5034.49
556.33	4727.88
556.50	4788.74
556.66	4966.62
556.83	4779.37
556.99	4727.88
557.16	4734.90
557.32	4732.56
557.49	4865.97
557.65	4819.16
557.82	4816.82
557.98	4690.43
558.15	4779.37
558.32	4739.58
558.48	4374.46
558.65	4622.56
558.81	4498.51
558.98	4521.92
559.14	4622.56
559.31	4730.22
559.47	4510.21
559.64	4704.48
559.80	4697.46
559.97	4505.53
560.13	4568.73
560.30	4809.80
560.46	4861.29
560.63	4891.72
560.79	4898.74
560.96	4938.53
561.12	4739.58
561.29	4608.51
561.45	4510.21
561.61	4835.55
561.78	4805.12
561.94	4704.48
562.11	4622.56
562.27	4601.49
562.44	4660.01
562.60	4849.59
562.77	4814.48
562.93	4844.91
563.10	4779.37
563.26	4753.63
563.42	4828.53
563.59	4753.63
563.75	4601.49
563.92	4571.07
564.08	4683.41
564.24	4610.86
564.41	4727.88
564.57	4498.51
564.74	4737.24
564.90	4629.58
565.07	4650.64
565.23	4587.45
565.39	4461.06
565.56	4489.15
565.72	4379.14
565.88	4362.76
566.05	4411.91
566.21	4465.74
566.38	4482.13
566.54	4578.09
566.70	4402.55
566.87	4629.58
567.03	4498.51
567.19	4533.62
567.36	4615.54
567.52	4402.55
567.68	4458.72
567.85	4348.72
568.01	4486.81
568.17	4203.60
568.34	4177.86
568.50	4177.86
568.66	4100.62
568.83	4262.12
568.99	4112.32
569.15	4194.24
569.32	4327.65
569.48	4248.07
569.64	4177.86
569.81	4128.70
569.97	4194.24
570.13	4196.58
570.30	4198.92
570.46	4292.54
570.62	4065.51
570.78	4147.43
570.95	4046.79
571.11	4025.72
571.27	4348.72
571.43	4231.69
571.60	4238.71
571.76	4210.62
571.92	4276.16
572.09	4332.33
572.25	4329.99
572.41	4404.89
572.57	4290.20
572.74	4322.97
572.90	4257.43
573.06	4332.33
573.22	4212.96
573.38	4119.34
573.55	4126.36
573.71	4313.61
573.87	4332.33
574.03	4201.26
574.20	4203.60
574.36	4234.03
574.52	4301.90
574.68	4081.89
574.84	4063.17
575.01	3988.27
575.17	4049.13
575.33	4100.62
575.49	4067.85
575.65	3971.89
575.82	4098.28
575.98	4032.74
576.14	4149.77
576.30	4149.77
576.46	4056.15
576.62	4215.30
576.79	4372.12
576.95	4252.75
577.11	4032.74
577.27	4201.26
577.43	4154.45
577.59	4072.53
577.75	4135.73
577.92	3920.40
578.08	3967.21
578.24	3770.60
578.40	4037.42
578.56	4147.43
578.72	3997.64
578.88	4224.67
579.04	4222.33
579.21	4194.24
579.37	4189.56
579.53	4021.04
579.69	4154.45
579.85	4187.22
580.01	4196.58
580.17	4245.73
580.33	4231.69
580.49	4152.11
580.65	4205.94
580.82	4184.88
580.98	4140.41
581.14	4229.35
581.30	4236.37
581.46	4053.81
581.62	4142.75
581.78	4037.42
581.94	4339.35
582.10	4088.92
582.26	4245.73
582.42	4294.88
582.58	4425.95
582.74	4175.52
582.90	4175.52
583.06	4266.80
583.22	4117.00
583.38	4095.94
583.54	4039.76
583.70	4241.05
583.86	4175.52
584.02	4177.86
584.18	4308.93
584.34	4271.48
584.50	4198.92
584.66	4028.06
584.82	4067.85
584.98	4063.17
585.14	3871.25
585.30	3943.80
585.46	3908.69
585.62	3772.94
585.78	3999.98
585.94	3887.63
586.10	3920.40
586.26	3995.29
586.42	4049.13
586.58	3868.91
586.74	4107.64
586.90	4114.66
587.06	3904.01
587.22	3859.54
587.38	3817.41
587.54	3946.14
587.70	3833.80
587.86	3648.90
588.02	3597.40
588.18	3283.77
588.34	3328.24
588.49	3190.15
588.65	2878.86
588.81	2787.58
588.97	2956.10
589.13	2862.48
589.29	2942.05
589.45	2878.86
589.61	2820.35
589.77	3073.12
589.93	3087.17
590.08	3358.67
590.24	3433.57
590.40	3265.05
590.56	3471.01
590.72	3239.30
590.88	3323.56
591.04	3361.01
591.20	3251.00
591.35	3314.20
591.51	3220.58
591.67	3087.17
591.83	3234.62
591.99	3208.87
592.15	3368.03
592.31	3316.54
592.46	3463.99
592.62	3506.12
592.78	3487.40
592.94	3499.10
593.10	3442.93
593.26	3480.38
593.41	3611.45
593.57	3548.25
593.73	3368.03
593.89	3353.99
594.05	3201.85
594.20	3077.80
594.36	3056.74
594.52	2963.12
594.68	2923.33
594.84	3129.30
594.99	3393.78
595.15	3353.99
595.31	3353.99
595.47	3241.64
595.62	3375.05
595.78	3382.07
595.94	3372.71
596.10	3480.38
596.25	3475.70
596.41	3412.50
596.57	3323.56
596.73	3248.66
596.88	3262.71
597.04	3323.56
597.20	3407.82
597.36	3417.18
597.51	3325.90
597.67	3346.97
597.83	3478.04
597.99	3438.25
