SpectraSuite Data File
++++++++++++++++++++++++++++++++++++
Date: Fri Oct 04 11:44:12 GMT-05:00 2013
User: price-jones
Dark Spectrum Present: No
Reference Spectrum Present: No
Number of Sampled Component Spectra: 1
Spectrometers: USB2+H05261
Integration Time (usec): 100000 (USB2+H05261)
Spectra Averaged: 1 (USB2+H05261)
Boxcar Smoothing: 0 (USB2+H05261)
Correct for Electrical Dark: No (USB2+H05261)
Strobe/Lamp Enabled: No (USB2+H05261)
Correct for Detector Non-linearity: No (USB2+H05261)
Correct for Stray Light: No (USB2+H05261)
Number of Pixels in Processed Spectrum: 2048
>>>>>Begin Processed Spectral Data<<<<<
365.73	23.41
365.92	23.41
366.12	23.41
366.32	0.00
366.52	0.00
366.72	0.00
366.91	0.00
367.11	0.00
367.31	0.00
367.51	0.00
367.70	0.00
367.90	0.00
368.10	0.00
368.30	0.00
368.49	0.00
368.69	32.77
368.89	0.00
369.09	0.00
369.28	0.00
369.48	0.00
369.68	0.00
369.87	0.00
370.07	0.00
370.27	25.75
370.47	126.39
370.66	557.05
370.86	587.47
371.06	758.33
371.25	739.61
371.45	650.67
371.65	608.54
371.84	669.39
372.04	599.18
372.24	610.88
372.44	589.82
372.63	613.22
372.83	720.88
373.03	627.26
373.22	561.73
373.42	620.24
373.62	664.71
373.81	650.67
374.01	706.84
374.21	669.39
374.40	608.54
374.60	660.03
374.79	718.54
374.99	781.74
375.19	772.38
375.38	833.23
375.58	844.93
375.78	788.76
375.97	758.33
376.17	823.87
376.37	816.85
376.56	875.36
376.76	915.15
376.95	833.23
377.15	954.94
377.35	980.68
377.54	1025.15
377.74	1015.79
377.93	933.87
378.13	1027.50
378.33	978.34
378.52	945.58
378.72	976.00
378.91	858.98
379.11	837.91
379.31	798.12
379.50	711.52
379.70	980.68
379.89	990.05
380.09	945.58
380.28	1039.20
380.48	985.37
380.68	943.24
380.87	936.21
381.07	954.94
381.26	903.45
381.46	835.57
381.65	795.78
381.85	791.10
382.04	767.70
382.24	737.27
382.43	760.67
382.63	648.33
382.83	692.80
383.02	716.20
383.22	704.50
383.41	622.58
383.61	709.18
383.80	844.93
384.00	950.26
384.19	997.07
384.39	978.34
384.58	1013.45
384.78	931.53
384.97	983.02
385.17	940.90
385.36	978.34
385.56	910.47
385.75	805.14
385.95	926.85
386.14	1086.01
386.34	1020.47
386.53	961.96
386.72	868.34
386.92	964.30
387.11	1008.77
387.31	1039.20
387.50	968.98
387.70	882.38
387.89	933.87
388.09	1015.79
388.28	1018.13
388.48	1039.20
388.67	1060.26
388.86	1107.07
389.06	1081.33
389.25	1439.43
389.45	1247.51
389.64	1233.46
389.84	1203.04
390.03	1247.51
390.22	1366.87
390.42	1291.98
390.61	1390.28
390.81	1451.13
391.00	1380.92
391.19	1434.75
391.39	1439.43
391.58	1390.28
391.78	1413.68
391.97	1306.02
392.16	1198.35
392.36	1074.31
392.55	1015.79
392.75	734.93
392.94	594.50
393.13	704.50
393.33	755.99
393.52	873.02
393.71	1015.79
393.91	1015.79
394.10	1282.61
394.29	1399.64
394.49	1418.36
394.68	1507.30
394.88	1614.97
395.07	1633.69
395.26	1607.95
395.46	1596.25
395.65	1458.15
395.84	1284.95
396.04	1163.25
396.23	898.77
396.42	770.04
396.62	866.00
396.81	905.79
397.00	1076.65
397.19	1329.42
397.39	1441.77
397.58	1762.42
397.77	1652.42
397.97	1844.34
398.16	1825.62
398.35	1792.85
398.55	2078.40
398.74	2050.31
398.93	2122.87
399.12	1991.80
399.32	1998.82
399.51	1935.62
399.70	2237.55
399.90	2146.27
400.09	2139.25
400.28	2045.63
400.47	2136.91
400.67	2179.04
400.86	2368.62
401.05	2235.21
401.24	2214.15
401.44	2413.09
401.63	2368.62
401.82	2342.88
402.01	2312.45
402.21	2389.69
402.40	2385.01
402.59	2246.91
402.78	2223.51
402.97	2148.61
403.17	2146.27
403.36	2370.96
403.55	2342.88
403.74	2417.77
403.93	2253.94
404.13	2246.91
404.32	2186.06
404.51	2256.28
404.70	2452.88
404.89	2342.88
405.09	2349.90
405.28	2284.36
405.47	2307.77
405.66	2286.70
405.85	2385.01
406.05	2221.17
406.24	2181.38
406.43	2303.09
406.62	2415.43
406.81	2338.20
407.00	2239.89
407.20	2174.36
407.39	2286.70
407.58	2253.94
407.77	2359.26
407.96	2415.43
408.15	2455.22
408.34	2595.65
408.54	2654.17
408.73	2682.25
408.92	2696.30
409.11	2609.70
409.30	2457.56
409.49	2223.51
409.68	2186.06
409.87	2169.68
410.07	2258.62
410.26	2406.07
410.45	2399.05
410.64	2509.05
410.83	2759.49
411.02	2546.50
411.21	2843.75
411.40	2731.41
411.59	2757.15
411.78	2857.79
411.98	2747.79
412.17	2869.50
412.36	2747.79
412.55	2642.46
412.74	2651.83
412.93	2677.57
413.12	2719.70
413.31	2867.16
413.50	2946.73
413.69	2885.88
413.88	3073.12
414.07	2670.55
414.26	2885.88
414.45	2885.88
414.64	2841.41
414.83	2874.18
415.02	2883.54
415.22	2789.92
415.41	2960.78
415.60	2974.82
415.79	3218.24
415.98	3227.60
416.17	3239.30
416.36	3206.53
416.55	3089.51
416.74	2944.39
416.93	3023.97
417.12	2799.28
417.31	2939.71
417.50	2998.23
417.69	2970.14
417.88	2925.67
418.07	2979.50
418.26	2935.03
418.45	3033.33
418.64	3014.61
418.83	3087.17
419.02	3157.38
419.21	3187.81
419.39	2988.86
419.58	2871.84
419.77	2808.64
419.96	2897.58
420.15	3103.55
420.34	3279.09
420.53	3267.39
420.72	3475.70
420.91	3414.84
421.10	3272.07
421.29	3272.07
421.48	3300.16
421.67	3321.22
421.86	3300.16
422.05	2984.18
422.24	2864.82
422.43	2750.13
422.61	2930.35
422.80	3199.51
422.99	3155.04
423.18	3054.40
423.37	3063.76
423.56	3096.53
423.75	3070.78
423.94	3077.80
424.13	3014.61
424.32	2913.97
424.50	3038.02
424.69	3063.76
424.88	3080.14
425.07	2918.65
425.26	3070.78
425.45	3002.91
425.64	2918.65
425.83	2913.97
426.01	3180.79
426.20	3197.17
426.39	3150.36
426.58	2965.46
426.77	2764.17
426.96	2684.59
427.15	2661.19
427.33	2848.43
427.52	3073.12
427.71	3016.95
427.90	3124.62
428.09	2871.84
428.28	2918.65
428.46	2855.45
428.65	2827.37
428.84	2759.49
429.03	2949.08
429.22	2693.96
429.40	2715.02
429.59	2457.56
429.78	2275.00
429.97	2155.63
430.16	2132.23
430.34	2200.10
430.53	2172.02
430.72	2239.89
430.91	2530.12
431.10	2759.49
431.28	3276.75
431.47	3428.88
431.66	3660.60
431.85	3267.39
432.03	3030.99
432.22	2984.18
432.41	2965.46
432.60	3309.52
432.79	3272.07
432.97	3499.10
433.16	3424.20
433.35	3164.40
433.54	2909.29
433.72	2642.46
433.91	2787.58
434.10	2953.76
434.28	3243.98
434.47	3414.84
434.66	3440.59
434.85	3337.60
435.03	3180.79
435.22	3543.57
435.41	3880.61
435.59	3871.25
435.78	3784.65
435.97	3761.24
436.16	3878.27
436.34	3536.55
436.53	3641.87
436.72	3653.58
436.90	3473.36
437.09	3492.08
437.28	3304.84
437.46	3398.46
437.65	3478.04
437.84	3171.43
438.02	3098.87
438.21	3052.06
438.40	3166.74
438.58	3276.75
438.77	3431.23
438.96	3428.88
439.14	3641.87
439.33	3611.45
439.52	3655.92
439.70	3576.34
439.89	3651.24
440.08	3597.40
440.26	3431.23
440.45	3524.85
440.63	3824.44
440.82	4053.81
441.01	3850.18
441.19	3913.38
441.38	3964.87
441.57	4128.70
441.75	4072.53
441.94	4294.88
442.12	4173.18
442.31	4095.94
442.50	4126.36
442.68	4114.66
442.87	4173.18
443.05	3957.85
443.24	4133.39
443.43	4173.18
443.61	4318.29
443.80	4175.52
443.98	4088.92
444.17	4060.83
444.35	4367.44
444.54	4421.27
444.73	4397.87
444.91	4205.94
445.10	4009.34
445.28	3845.50
445.47	3676.98
445.65	3751.88
445.84	4009.34
446.02	4152.11
446.21	4051.47
446.39	4177.86
446.58	4203.60
446.77	4046.79
446.95	4140.41
447.14	4203.60
447.32	4458.72
447.51	4341.69
447.69	4266.80
447.88	4283.18
448.06	4142.75
448.25	4212.96
448.43	4365.10
448.62	4173.18
448.80	4124.02
448.99	4255.09
449.17	4283.18
449.36	4245.73
449.54	4468.08
449.73	4503.19
449.91	4521.92
450.10	4697.46
450.28	4692.77
450.46	4718.52
450.65	4814.48
450.83	4699.80
451.02	4599.15
451.20	4634.26
451.39	4667.03
451.57	4393.19
451.76	4521.92
451.94	4479.79
452.13	4327.65
452.31	4236.37
452.49	4109.98
452.68	4114.66
452.86	3983.59
453.05	4140.41
453.23	4348.72
453.42	4278.50
453.60	4332.33
453.78	4491.49
453.97	4458.72
454.15	4348.72
454.34	4386.16
454.52	4325.31
454.70	4170.83
454.89	4271.48
455.07	4257.43
455.26	4423.61
455.44	4564.04
455.62	4568.73
455.81	4594.47
455.99	4524.26
456.17	4580.43
456.36	4538.30
456.54	4695.11
456.73	4805.12
456.91	4915.12
457.09	4798.10
457.28	4819.16
457.46	4606.17
457.64	4615.54
457.83	4552.34
458.01	4484.47
458.19	4550.00
458.38	4514.89
458.56	4770.01
458.74	4788.74
458.93	4554.68
459.11	4617.88
459.29	4587.45
459.48	4561.70
459.66	4730.22
459.84	4760.65
460.03	4720.86
460.21	4660.01
460.39	4786.40
460.57	4807.46
460.76	4821.50
460.94	4868.31
461.12	4807.46
461.31	4849.59
461.49	4938.53
461.67	4805.12
461.85	5048.54
462.04	4943.21
462.22	5399.62
462.40	4922.15
462.59	5102.37
462.77	4901.08
462.95	4898.74
463.13	4807.46
463.32	4856.61
463.50	4868.31
463.68	4882.36
463.86	4823.84
464.05	4758.31
464.23	4667.03
464.41	4695.11
464.59	4652.98
464.78	4758.31
464.96	4798.10
465.14	4716.18
465.32	4786.40
465.50	4905.76
465.69	4861.29
465.87	4887.04
466.05	4767.67
466.23	4610.86
466.41	4416.59
466.60	4585.11
466.78	4510.21
466.96	4568.73
467.14	4812.14
467.32	4800.44
467.51	4629.58
467.69	4564.04
467.87	4706.82
468.05	4706.82
468.23	4868.31
468.41	4908.10
468.60	4716.18
468.78	4807.46
468.96	4774.69
469.14	4812.14
469.32	4870.65
469.50	4800.44
469.69	4641.28
469.87	4521.92
470.05	4503.19
470.23	4507.87
470.41	4702.14
470.59	4550.00
470.77	4716.18
470.95	4741.93
471.14	4814.48
471.32	4840.23
471.50	5177.26
471.68	5181.95
471.86	4999.38
472.04	5233.44
472.22	5085.98
472.40	4887.04
472.58	4896.40
472.77	4741.93
472.95	4830.87
473.13	4961.94
473.31	5043.85
473.49	4861.29
473.67	4929.17
473.85	5067.26
474.03	5268.55
474.21	5041.51
474.39	5254.50
474.57	5289.61
474.75	5282.59
474.93	5090.67
475.12	5062.58
475.30	5015.77
475.48	5050.88
475.66	5100.03
475.84	5067.26
476.02	5102.37
476.20	4983.00
476.38	5020.45
476.56	5242.80
476.74	5277.91
476.92	5315.36
477.10	5411.32
477.28	5509.62
477.46	5685.16
477.64	5746.02
477.82	5593.88
478.00	5736.65
478.18	5411.32
478.36	5511.96
478.54	5448.77
478.72	5565.79
478.90	5715.59
479.08	5783.46
479.26	5968.37
479.44	5989.43
479.62	5846.66
479.80	5753.04
479.98	5841.98
480.16	6090.07
480.34	6052.63
480.52	5912.19
480.70	6085.39
480.88	6031.56
481.06	6207.10
481.24	6249.23
481.41	6389.66
481.59	6314.77
481.77	6471.58
481.95	6333.49
482.13	6317.11
482.31	6305.40
482.49	6326.47
482.67	6401.37
482.85	6513.71
483.03	6382.64
483.21	6534.78
483.39	6595.63
483.57	6314.77
483.74	6375.62
483.92	6434.13
484.10	6483.28
484.28	6516.05
484.46	6743.08
484.64	6675.21
484.82	6567.54
485.00	6473.92
485.18	6384.98
485.35	6359.24
485.53	5987.09
485.71	5399.62
485.89	5263.86
486.07	5376.21
486.25	6012.84
486.43	6270.30
486.61	6256.25
486.78	6494.99
486.96	6326.47
487.14	6600.31
487.32	6946.71
487.50	7089.48
487.68	7059.06
487.85	7194.81
488.03	7255.66
488.21	7288.43
488.39	7288.43
488.57	7021.61
488.75	6848.41
488.92	7208.85
489.10	7407.80
489.28	7786.96
489.46	7967.18
489.64	7836.11
489.81	8189.53
489.99	7995.27
490.17	7845.48
490.35	8091.23
490.53	8105.28
490.70	7754.19
490.88	7836.11
491.06	8039.74
491.24	8025.70
491.41	7948.46
491.59	7424.18
491.77	7232.26
491.95	7342.26
492.13	7616.10
492.30	7969.52
492.48	8285.50
492.66	8351.03
492.84	8456.36
493.01	8355.71
493.19	8102.93
493.37	8182.51
493.54	8051.44
493.72	8266.77
493.90	8439.97
494.08	8514.87
494.25	8617.85
494.43	8999.36
494.61	9018.08
494.79	9011.06
494.96	8954.89
495.14	8624.87
495.32	8479.76
495.49	8290.18
495.67	8496.14
495.85	8973.61
496.02	8936.17
496.20	9130.43
496.38	9064.89
496.55	9029.79
496.73	9144.47
496.91	8980.64
497.09	9385.55
497.26	9446.40
497.44	9214.69
497.62	9062.55
497.79	8884.67
497.97	8580.40
498.14	8369.76
498.32	8678.71
498.50	8802.75
498.67	9015.74
498.85	9210.01
499.03	9167.88
499.20	9345.76
499.38	8994.68
499.56	9249.80
499.73	9088.30
499.91	8985.32
500.08	8741.90
500.26	8638.92
500.44	8521.89
500.61	8847.22
500.79	8898.72
500.97	8812.12
501.14	8734.88
501.32	8512.53
501.49	8697.43
501.67	8470.40
501.84	8723.18
502.02	8840.20
502.20	8851.91
502.37	9102.34
502.55	8985.32
502.72	9104.68
502.90	9401.93
503.07	9020.42
503.25	8868.29
503.43	8360.39
503.60	8442.31
503.78	8177.83
503.95	8074.85
504.13	8484.44
504.30	9048.51
504.48	9034.47
504.65	8919.78
504.83	9090.64
505.01	9242.78
505.18	9142.13
505.36	9404.27
505.53	9776.42
505.71	9446.40
505.88	9610.24
506.06	9568.11
506.23	9437.04
506.41	9149.15
506.58	9362.14
506.76	9270.86
506.93	9039.15
507.11	9100.00
507.28	9399.59
507.46	9081.28
507.63	8926.80
507.81	8702.11
507.98	8856.59
508.16	9041.49
508.33	9298.95
508.50	9467.47
508.68	9614.92
508.85	9879.40
509.03	9699.18
509.20	9848.97
509.38	9748.33
509.55	9111.71
509.73	9334.06
509.90	9455.76
510.08	9657.05
510.25	9446.40
510.42	9298.95
510.60	9582.15
510.77	9792.80
510.95	9816.21
511.12	9907.49
511.30	9834.93
511.47	10167.29
511.64	10064.30
511.82	9947.28
511.99	9729.61
512.17	9540.02
512.34	9348.10
512.51	9397.25
512.69	9357.46
512.86	9610.24
513.04	9671.09
513.21	9799.82
513.38	9652.37
513.56	9497.89
513.73	9270.86
513.90	9371.50
514.08	9371.50
514.25	9425.34
514.43	9486.19
514.60	9511.94
514.77	9734.29
514.95	9603.22
515.12	9483.85
515.29	9554.07
515.47	9710.88
515.64	9947.28
515.81	9755.35
515.99	9650.03
516.16	9121.07
516.33	8608.49
516.51	8013.99
516.68	7911.01
516.85	7754.19
517.03	7686.32
517.20	8297.20
517.37	9195.96
517.54	9296.61
517.72	9563.43
517.89	8781.69
518.06	8238.69
518.24	8187.19
518.41	8528.91
518.58	9170.22
518.75	9139.79
518.93	9291.93
519.10	9387.89
519.27	9219.37
519.45	9453.42
519.62	9467.47
519.79	9863.02
519.96	9891.10
520.14	9643.01
520.31	9322.35
520.48	9413.63
520.65	9455.76
520.83	9734.29
521.00	10092.39
521.17	9839.61
521.34	9600.88
521.52	9909.83
521.69	9778.76
521.86	10106.43
522.03	10066.64
522.20	9834.93
522.38	9327.03
522.55	9062.55
522.72	9329.38
522.89	9598.54
523.07	9514.28
523.24	9666.41
523.41	9813.87
523.58	9984.73
523.75	10076.01
523.92	10380.28
524.10	10083.03
524.27	9991.75
524.44	10174.31
524.61	10139.20
524.78	10052.60
524.96	9998.77
525.13	9797.48
525.30	9958.98
525.47	10129.84
525.64	10101.75
525.81	9753.01
525.98	9603.22
526.16	9062.55
526.33	8779.35
526.50	8531.25
526.67	8493.80
526.84	8540.61
527.01	9041.49
527.18	9259.16
527.36	9528.32
527.53	9542.36
527.70	9907.49
527.87	9804.50
528.04	9579.81
528.21	9685.14
528.38	9870.04
528.55	10314.74
528.72	10347.51
528.89	10574.54
529.07	10399.00
529.24	10076.01
529.41	9921.53
529.58	9774.08
529.75	9811.53
529.92	10017.49
530.09	9900.47
530.26	10057.28
530.43	10258.57
530.60	10457.51
530.77	10186.01
530.94	10420.06
531.11	10314.74
531.28	10249.21
531.46	10111.11
531.63	10260.91
531.80	10195.37
531.97	10040.90
532.14	9607.90
532.31	9362.14
532.48	9181.92
532.65	9107.02
532.82	9406.61
532.99	9914.51
533.16	9912.17
533.33	10125.16
533.50	9958.98
533.67	9891.10
533.84	9575.13
534.01	9638.33
534.18	9832.59
534.35	9991.75
534.52	9900.47
534.69	10132.18
534.86	9891.10
535.03	9989.41
535.20	10181.33
535.37	10216.44
535.54	10207.08
535.71	10441.13
535.88	10092.39
536.05	9942.60
536.22	9926.21
536.38	9675.77
536.55	9586.83
536.72	9415.98
536.89	9282.56
537.06	9451.08
537.23	9919.19
537.40	9846.63
537.57	10024.51
537.74	10190.69
537.91	9987.07
538.08	9949.62
538.25	9902.81
538.42	9671.09
538.59	10015.15
538.75	9577.47
538.92	9809.19
539.09	9551.73
539.26	9673.43
539.43	9507.26
539.60	9469.81
539.77	9544.70
539.94	9439.38
540.11	9380.87
540.28	9453.42
540.44	9310.65
540.61	9137.45
540.78	9397.25
540.95	9238.09
541.12	9516.62
541.29	9825.57
541.46	9757.69
541.62	9881.74
541.79	9743.65
541.96	9530.66
542.13	9909.83
542.30	9825.57
542.47	9851.31
542.63	9987.07
542.80	9654.71
542.97	9589.17
543.14	9273.20
543.31	9685.14
543.48	9886.42
543.64	10127.50
543.81	10244.52
543.98	10160.27
544.15	9921.53
544.32	9757.69
544.48	9811.53
544.65	9701.52
544.82	9837.27
544.99	9980.04
545.16	9848.97
545.32	9654.71
545.49	10153.24
545.66	10658.80
545.83	10410.70
546.00	10256.23
546.16	9788.12
546.33	9540.02
546.50	9671.09
546.67	9884.08
546.83	9750.67
547.00	9757.69
547.17	9476.83
547.34	9324.69
547.50	9085.96
547.67	9289.59
547.84	9249.80
548.00	9650.03
548.17	9762.37
548.34	9760.03
548.51	9720.24
548.67	9834.93
548.84	9710.88
549.01	9731.95
549.18	9493.21
549.34	9659.39
549.51	9654.71
549.68	9516.62
549.84	9474.49
550.01	9577.47
550.18	9453.42
550.34	9465.13
550.51	9446.40
550.68	9643.01
550.84	9563.43
551.01	9434.70
551.18	9142.13
551.34	9523.64
551.51	9643.01
551.68	9692.16
551.84	9825.57
552.01	9521.30
552.18	9551.73
552.34	9446.40
552.51	9085.96
552.68	8931.48
552.84	9392.57
553.01	9561.09
553.18	9343.42
553.34	9334.06
553.51	9331.72
553.67	9565.77
553.84	9785.78
554.01	9619.60
554.17	9514.28
554.34	9341.08
554.51	9493.21
554.67	9643.01
554.84	9373.85
555.00	9530.66
555.17	9549.39
555.33	9371.50
555.50	9343.42
555.67	9273.20
555.83	9320.01
556.00	9270.86
556.16	9256.82
556.33	9139.79
556.50	9146.81
556.66	9041.49
556.83	8978.30
556.99	9081.28
557.16	8954.89
557.32	9097.66
557.49	9174.90
557.65	9310.65
557.82	9270.86
557.98	9165.54
558.15	9195.96
558.32	8657.64
558.48	8479.76
558.65	8575.72
558.81	8496.14
558.98	8931.48
559.14	8732.54
559.31	8884.67
559.47	8910.42
559.64	8678.71
559.80	8737.22
559.97	8650.62
560.13	8608.49
560.30	8833.18
560.46	9266.18
560.63	9144.47
560.79	9191.28
560.96	9305.97
561.12	8706.79
561.29	8659.98
561.45	8542.96
561.61	8798.07
561.78	8938.51
561.94	8990.00
562.11	8585.08
562.27	8833.18
562.44	8833.18
562.60	9062.55
562.77	9132.77
562.93	9102.34
563.10	9046.17
563.26	8741.90
563.42	8777.01
563.59	8685.73
563.75	8655.30
563.92	8720.84
564.08	8676.37
564.24	8777.01
564.41	8887.01
564.57	8966.59
564.74	8849.57
564.90	8863.61
565.07	8669.34
565.23	8496.14
565.39	8444.65
565.56	8311.24
565.72	8145.06
565.88	8257.41
566.05	8196.56
566.21	8266.77
566.38	8468.06
566.54	8510.19
566.70	8549.98
566.87	8926.80
567.03	8528.91
567.19	8568.70
567.36	8674.03
567.52	8589.77
567.68	8395.50
567.85	8315.92
568.01	8018.68
568.17	7864.20
568.34	7824.41
568.50	7775.26
568.66	7885.26
568.83	8126.34
568.99	8077.19
569.15	8091.23
569.32	7969.52
569.48	7779.94
569.64	7864.20
569.81	7695.68
569.97	7918.03
570.13	8231.66
570.30	8011.65
570.46	7822.07
570.62	7665.25
570.78	7681.64
570.95	7475.67
571.11	7705.04
571.27	7880.58
571.43	7934.42
571.60	7871.22
571.76	7889.95
571.92	8028.04
572.09	8088.89
572.25	8025.70
572.41	8025.70
572.57	8173.15
572.74	8135.70
572.90	8046.76
573.06	7899.31
573.22	7943.78
573.38	7932.08
573.55	8093.57
573.71	7875.90
573.87	7758.88
574.03	7901.65
574.20	7754.19
574.36	7906.33
574.52	7786.96
574.68	7611.42
574.84	7602.06
575.01	7719.09
575.17	7707.38
575.33	7489.71
575.49	7646.53
575.65	7822.07
575.82	7698.02
575.98	7571.63
576.14	7733.13
576.30	7770.58
576.46	7957.82
576.62	7789.30
576.79	7819.73
576.95	7925.05
577.11	7705.04
577.27	7552.91
577.43	7779.94
577.59	7592.70
577.75	7536.52
577.92	7482.69
578.08	7363.33
578.24	7447.58
578.40	7602.06
578.56	7784.62
578.72	7632.49
578.88	7868.88
579.04	7852.50
579.21	7775.26
579.37	7578.65
579.53	7449.93
579.69	7585.68
579.85	7864.20
580.01	7742.49
580.17	7669.94
580.33	7700.36
580.49	7695.68
580.65	7801.01
580.82	7740.15
580.98	7873.56
581.14	7850.16
581.30	7892.29
581.46	7595.04
581.62	7913.35
581.78	7726.11
581.94	7911.01
582.10	7826.75
582.26	7911.01
582.42	7999.95
582.58	8042.08
582.74	7978.89
582.90	7850.16
583.06	7974.21
583.22	7906.33
583.38	7756.54
583.54	7712.07
583.70	7585.68
583.86	7648.87
584.02	7805.69
584.18	7716.75
584.34	7742.49
584.50	7885.26
584.66	7873.56
584.82	7506.10
584.98	7737.81
585.14	7424.18
585.30	7473.33
585.46	7323.54
585.62	7288.43
585.78	7377.37
585.94	7281.41
586.10	7459.29
586.26	7255.66
586.42	7375.03
586.58	7461.63
586.74	7304.81
586.90	7548.23
587.06	7365.67
587.22	7400.77
587.38	7119.91
587.54	7152.68
587.70	6939.69
587.86	6642.44
588.02	6569.88
588.18	6286.68
588.34	6230.51
588.49	5909.85
588.65	5416.00
588.81	5308.34
588.97	5259.18
589.13	5380.89
589.29	5320.04
589.45	5184.29
589.61	5509.62
589.77	5689.84
589.93	5940.28
590.08	6132.20
590.24	6186.04
590.40	6303.06
590.56	6286.68
590.72	6094.76
590.88	6106.46
591.04	6174.33
591.20	6380.30
591.35	6179.01
591.51	6200.08
591.67	5989.43
591.83	5926.24
591.99	5851.34
592.15	5933.26
592.31	6176.67
592.46	6396.68
592.62	6438.81
592.78	6457.54
592.94	6363.92
593.10	6363.92
593.26	6476.26
593.41	6731.38
593.57	6642.44
593.73	6352.21
593.89	5902.83
594.05	5795.17
594.20	5767.08
594.36	5757.72
594.52	5628.99
594.68	5628.99
594.84	5970.71
594.99	6333.49
595.15	6279.66
595.31	6331.15
595.47	6333.49
595.62	6167.31
595.78	6258.59
595.94	6401.37
596.10	6743.08
596.25	6642.44
596.41	6431.79
596.57	6078.37
596.73	6347.53
596.88	6485.62
