SpectraSuite Data File
++++++++++++++++++++++++++++++++++++
Date: Fri Oct 04 11:44:28 GMT-05:00 2013
User: price-jones
Dark Spectrum Present: No
Reference Spectrum Present: No
Number of Sampled Component Spectra: 1
Spectrometers: USB2+H05261
Integration Time (usec): 100000 (USB2+H05261)
Spectra Averaged: 1 (USB2+H05261)
Boxcar Smoothing: 0 (USB2+H05261)
Correct for Electrical Dark: No (USB2+H05261)
Strobe/Lamp Enabled: No (USB2+H05261)
Correct for Detector Non-linearity: No (USB2+H05261)
Correct for Stray Light: No (USB2+H05261)
Number of Pixels in Processed Spectrum: 2048
>>>>>Begin Processed Spectral Data<<<<<
365.73	65.54
365.92	65.54
366.12	65.54
366.32	0.00
366.52	0.00
366.72	0.00
366.91	0.00
367.11	28.09
367.31	0.00
367.51	0.00
367.70	0.00
367.90	0.00
368.10	0.00
368.30	0.00
368.49	0.00
368.69	0.00
368.89	0.00
369.09	0.00
369.28	0.00
369.48	0.00
369.68	0.00
369.87	0.00
370.07	14.04
370.27	18.72
370.47	126.39
370.66	271.50
370.86	285.55
371.06	425.98
371.25	531.30
371.45	421.30
371.65	348.74
371.84	365.12
372.04	297.25
372.24	379.17
372.44	486.83
372.63	428.32
372.83	447.04
373.03	407.25
373.22	346.40
373.42	407.25
373.62	381.51
373.81	383.85
374.01	512.58
374.21	458.74
374.40	449.38
374.60	360.44
374.79	379.17
374.99	566.41
375.19	568.75
375.38	557.05
375.58	580.45
375.78	538.32
375.97	444.70
376.17	552.37
376.37	496.19
376.56	587.47
376.76	575.77
376.95	554.71
377.15	596.84
377.35	671.73
377.54	571.09
377.74	657.69
377.93	657.69
378.13	695.14
378.33	667.05
378.52	557.05
378.72	564.07
378.91	617.90
379.11	645.99
379.31	535.98
379.50	507.90
379.70	582.79
379.89	608.54
380.09	596.84
380.28	629.60
380.48	629.60
380.68	669.39
380.87	545.34
381.07	554.71
381.26	634.29
381.46	624.92
381.65	531.30
381.85	463.43
382.04	505.56
382.24	491.51
382.43	496.19
382.63	463.43
382.83	418.96
383.02	437.68
383.22	566.41
383.41	514.92
383.61	440.02
383.80	479.81
384.00	566.41
384.19	543.00
384.39	622.58
384.58	669.39
384.78	596.84
384.97	564.07
385.17	629.60
385.36	559.39
385.56	592.16
385.75	543.00
385.95	643.65
386.14	634.29
386.34	709.18
386.53	596.84
386.72	540.66
386.92	631.94
387.11	613.22
387.31	657.69
387.50	641.31
387.70	662.37
387.89	533.64
388.09	538.32
388.28	554.71
388.48	662.37
388.67	641.31
388.86	737.27
389.06	709.18
389.25	781.74
389.45	847.27
389.64	751.31
389.84	816.85
390.03	814.51
390.22	697.48
390.42	760.67
390.61	842.59
390.81	894.08
391.00	929.19
391.19	812.17
391.39	840.25
391.58	786.42
391.78	697.48
391.97	812.17
392.16	744.29
392.36	678.76
392.55	519.60
392.75	510.24
392.94	388.53
393.13	360.44
393.33	465.77
393.52	510.24
393.71	667.05
393.91	606.20
394.10	758.33
394.29	753.65
394.49	777.06
394.68	950.26
394.88	971.32
395.07	961.96
395.26	976.00
395.46	959.62
395.65	912.81
395.84	788.76
396.04	681.10
396.23	545.34
396.42	521.94
396.62	447.04
396.81	564.07
397.00	669.39
397.19	880.04
397.39	898.77
397.58	976.00
397.77	1146.86
397.97	1109.41
398.16	1186.65
398.35	1172.61
398.55	1226.44
398.74	1273.25
398.93	1401.98
399.12	1299.00
399.32	1296.66
399.51	1198.35
399.70	1294.32
399.90	1210.06
400.09	1357.51
400.28	1270.91
400.47	1348.15
400.67	1418.36
400.86	1397.30
401.05	1406.66
401.24	1352.83
401.44	1502.62
401.63	1488.58
401.82	1409.00
402.01	1390.28
402.21	1411.34
402.40	1453.47
402.59	1387.94
402.78	1336.45
402.97	1291.98
403.17	1362.19
403.36	1483.90
403.55	1476.88
403.74	1481.56
403.93	1488.58
404.13	1495.60
404.32	1411.34
404.51	1516.67
404.70	1638.38
404.89	1563.48
405.09	1425.39
405.28	1401.98
405.47	1352.83
405.66	1490.92
405.85	1308.36
406.05	1275.59
406.24	1362.19
406.43	1270.91
406.62	1441.77
406.81	1526.03
407.00	1479.22
407.20	1310.70
407.39	1392.62
407.58	1533.05
407.77	1600.93
407.96	1530.71
408.15	1509.65
408.34	1561.14
408.54	1621.99
408.73	1720.29
408.92	1678.16
409.11	1497.94
409.30	1575.18
409.49	1387.94
409.68	1338.79
409.87	1317.72
410.07	1303.68
410.26	1495.60
410.45	1462.83
410.64	1530.71
410.83	1631.35
411.02	1652.42
411.21	1771.79
411.40	1760.08
411.59	1699.23
411.78	1654.76
411.98	1668.80
412.17	1724.97
412.36	1696.89
412.55	1659.44
412.74	1682.85
412.93	1647.74
413.12	1584.54
413.31	1783.49
413.50	1673.48
413.69	1764.76
413.88	1797.53
414.07	1687.53
414.26	1643.06
414.45	1678.16
414.64	1743.70
414.83	1820.94
415.02	1657.10
415.22	1797.53
415.41	1792.85
415.60	1827.96
415.79	1769.44
415.98	1970.73
416.17	1984.77
416.36	1874.77
416.55	1856.04
416.74	1827.96
416.93	1823.28
417.12	1713.27
417.31	1778.81
417.50	1874.77
417.69	1891.15
417.88	1792.85
418.07	1720.29
418.26	1820.94
418.45	1806.89
418.64	1933.28
418.83	1902.86
419.02	1928.60
419.21	1895.83
419.39	1842.00
419.58	1694.55
419.77	1788.17
419.96	1760.08
420.15	1966.05
420.34	1842.00
420.53	2043.29
420.72	2076.06
420.91	2026.90
421.10	2092.44
421.29	2099.46
421.48	2026.90
421.67	2054.99
421.86	1856.04
422.05	1872.43
422.24	1699.23
422.43	1750.72
422.61	1827.96
422.80	1954.35
422.99	2022.22
423.18	1902.86
423.37	1956.69
423.56	1830.30
423.75	1827.96
423.94	1781.15
424.13	1823.28
424.32	1846.68
424.50	1891.15
424.69	1827.96
424.88	1853.70
425.07	1839.66
425.26	1715.61
425.45	1886.47
425.64	1811.57
425.83	1832.64
426.01	2045.63
426.20	1970.73
426.39	1912.22
426.58	1729.66
426.77	1668.80
426.96	1741.36
427.15	1713.27
427.33	1762.42
427.52	1706.25
427.71	1811.57
427.90	1809.23
428.09	1795.19
428.28	1860.73
428.46	1755.40
428.65	1610.29
428.84	1694.55
429.03	1788.17
429.22	1703.91
429.40	1605.61
429.59	1502.62
429.78	1355.17
429.97	1385.60
430.16	1350.49
430.34	1341.13
430.53	1336.45
430.72	1385.60
430.91	1579.86
431.10	1710.93
431.28	1982.43
431.47	2087.76
431.66	2125.21
431.85	1998.82
432.03	1849.02
432.22	1923.92
432.41	1827.96
432.60	2008.18
432.79	2106.48
432.97	2141.59
433.16	2071.37
433.35	1914.56
433.54	1661.78
433.72	1657.10
433.91	1781.15
434.10	1827.96
434.28	1937.96
434.47	2083.08
434.66	2162.66
434.85	2146.27
435.03	2167.34
435.22	2590.97
435.41	2939.71
435.59	3054.40
435.78	2682.25
435.97	2509.05
436.16	2317.13
436.34	2242.23
436.53	2289.04
436.72	2141.59
436.90	2022.22
437.09	2076.06
437.28	2045.63
437.46	2150.95
437.65	2029.24
437.84	1881.79
438.02	1757.74
438.21	1806.89
438.40	1923.92
438.58	2092.44
438.77	2066.69
438.96	2253.94
439.14	2150.95
439.33	2209.47
439.52	2249.25
439.70	2277.34
439.89	2108.82
440.08	2122.87
440.26	2228.19
440.45	2136.91
440.63	2368.62
440.82	2347.56
441.01	2417.77
441.19	2469.27
441.38	2347.56
441.57	2478.63
441.75	2527.78
441.94	2511.39
442.12	2583.95
442.31	2462.24
442.50	2492.67
442.68	2546.50
442.87	2497.35
443.05	2413.09
443.24	2569.91
443.43	2593.31
443.61	2567.57
443.80	2565.23
443.98	2471.61
444.17	2530.12
444.35	2647.15
444.54	2558.21
444.73	2523.10
444.91	2553.52
445.10	2441.18
445.28	2420.11
445.47	2242.23
445.65	2225.85
445.84	2275.00
446.02	2541.82
446.21	2420.11
446.39	2410.75
446.58	2459.90
446.77	2445.86
446.95	2473.95
447.14	2605.02
447.32	2670.55
447.51	2562.89
447.69	2539.48
447.88	2513.74
448.06	2504.37
448.25	2506.71
448.43	2537.14
448.62	2621.40
448.80	2480.97
448.99	2546.50
449.17	2445.86
449.36	2555.86
449.54	2722.04
449.73	2726.72
449.91	2815.66
450.10	2843.75
450.28	2878.86
450.46	2993.55
450.65	2892.90
450.83	2768.85
451.02	2752.47
451.20	2768.85
451.39	2775.88
451.57	2677.57
451.76	2712.68
451.94	2771.19
452.13	2729.06
452.31	2630.76
452.49	2471.61
452.68	2473.95
452.86	2497.35
453.05	2661.19
453.23	2602.68
453.42	2628.42
453.60	2693.96
453.78	2750.13
453.97	2628.42
454.15	2780.56
454.34	2677.57
454.52	2473.95
454.70	2635.44
454.89	2675.23
455.07	2518.42
455.26	2607.36
455.44	2726.72
455.62	2782.90
455.81	2794.60
455.99	2820.35
456.17	2731.41
456.36	2853.11
456.54	2766.51
456.73	2815.66
456.91	2822.69
457.09	2890.56
457.28	2995.89
457.46	2862.48
457.64	2810.98
457.83	2726.72
458.01	2663.53
458.19	2691.62
458.38	2658.85
458.56	2827.37
458.74	2750.13
458.93	2850.77
459.11	2745.45
459.29	2803.96
459.48	2810.98
459.66	2649.49
459.84	2651.83
460.03	2810.98
460.21	2815.66
460.39	2848.43
460.57	2932.69
460.76	2860.13
460.94	2958.44
461.12	2818.00
461.31	2925.67
461.49	2904.60
461.67	2932.69
461.85	2916.31
462.04	2836.73
462.22	3506.12
462.40	3014.61
462.59	2832.05
462.77	2939.71
462.95	2904.60
463.13	2871.84
463.32	2974.82
463.50	2836.73
463.68	2967.80
463.86	2906.95
464.05	2874.18
464.23	2754.81
464.41	2850.77
464.59	2829.71
464.78	2942.05
464.96	2754.81
465.14	2698.64
465.32	2843.75
465.50	2956.10
465.69	3000.57
465.87	3042.70
466.05	2946.73
466.23	2832.05
466.41	2710.34
466.60	2670.55
466.78	2827.37
466.96	2771.19
467.14	2822.69
467.32	2750.13
467.51	2801.62
467.69	2726.72
467.87	2796.94
468.05	2806.30
468.23	2761.83
468.41	2869.50
468.60	2869.50
468.78	2937.37
468.96	2736.09
469.14	2892.90
469.32	2841.41
469.50	2729.06
469.69	2860.13
469.87	2656.51
470.05	2750.13
470.23	2853.11
470.41	2663.53
470.59	2801.62
470.77	2843.75
470.95	2757.15
471.14	2946.73
471.32	2906.95
471.50	2984.18
471.68	2995.89
471.86	3098.87
472.04	3070.78
472.22	3150.36
472.40	2946.73
472.58	2881.20
472.77	2949.08
472.95	2958.44
473.13	3068.44
473.31	3019.29
473.49	2951.42
473.67	2944.39
473.85	3054.40
474.03	3162.06
474.21	3052.06
474.39	3145.68
474.57	3166.74
474.75	3155.04
474.93	3117.59
475.12	2995.89
475.30	2960.78
475.48	3187.81
475.66	2970.14
475.84	3075.46
476.02	3094.19
476.20	3019.29
476.38	3119.93
476.56	3297.81
476.74	3133.98
476.92	3232.28
477.10	3290.79
477.28	3337.60
477.46	3288.45
477.64	3382.07
477.82	3372.71
478.00	3515.48
478.18	3379.73
478.36	3421.86
478.54	3459.31
478.72	3515.48
478.90	3435.91
479.08	3581.02
479.26	3702.73
479.44	3431.23
479.62	3569.32
479.80	3492.08
479.98	3583.36
480.16	3648.90
480.34	3637.19
480.52	3536.55
480.70	3520.17
480.88	3618.47
481.06	3648.90
481.24	3588.04
481.41	3637.19
481.59	3765.92
481.77	3880.61
481.95	3641.87
482.13	3831.46
482.31	3674.64
482.49	3929.76
482.67	3882.95
482.85	3885.29
483.03	3927.42
483.21	3721.45
483.39	3932.10
483.57	3805.71
483.74	3817.41
483.92	3833.80
484.10	3964.87
484.28	4025.72
484.46	4128.70
484.64	4065.51
484.82	4117.00
485.00	4058.49
485.18	3932.10
485.35	3815.07
485.53	3597.40
485.71	3192.49
485.89	3288.45
486.07	3297.81
486.25	3543.57
486.43	3763.58
486.61	3857.20
486.78	3796.35
486.96	3854.86
487.14	4128.70
487.32	4227.01
487.50	4196.58
487.68	4393.19
487.85	4526.60
488.03	4458.72
488.21	4379.14
488.39	4285.52
488.57	4149.77
488.75	4133.39
488.92	4498.51
489.10	4587.45
489.28	4622.56
489.46	4692.77
489.64	4762.99
489.81	4760.65
489.99	4713.84
490.17	4765.33
490.35	4800.44
490.53	4660.01
490.70	4596.81
490.88	4669.37
491.06	4865.97
491.24	4901.08
491.41	4571.07
491.59	4440.00
491.77	4407.23
491.95	4423.61
492.13	4657.67
492.30	4809.80
492.48	5011.09
492.66	5135.14
492.84	5081.30
493.01	5022.79
493.19	4896.40
493.37	4819.16
493.54	4798.10
493.72	4772.35
493.90	5067.26
494.08	5074.28
494.25	5144.50
494.43	5284.93
494.61	5385.57
494.79	5170.24
494.96	5198.33
495.14	5291.95
495.32	5203.01
495.49	4964.28
495.67	5177.26
495.85	5362.17
496.02	5465.15
496.20	5303.65
496.38	5207.69
496.55	5301.31
496.73	5408.98
496.91	5434.72
497.09	5378.55
497.26	5771.76
497.44	5397.28
497.62	5350.46
497.79	5249.82
497.97	5085.98
498.14	5029.81
498.32	5111.73
498.50	5376.21
498.67	5458.13
498.85	5509.62
499.03	5551.75
499.20	5535.37
499.38	5579.84
499.56	5387.91
499.73	5317.70
499.91	5495.58
500.08	5214.71
500.26	5109.39
500.44	5081.30
500.61	5170.24
500.79	5167.90
500.97	5107.05
501.14	5195.99
501.32	5327.06
501.49	5074.28
501.67	5184.29
501.84	5282.59
502.02	5252.16
502.20	5404.30
502.37	5441.75
502.55	5334.08
502.72	5404.30
502.90	5626.65
503.07	5313.02
503.25	5135.14
503.43	4985.34
503.60	4898.74
503.78	4795.76
503.95	4870.65
504.13	5036.83
504.30	5451.11
504.48	5558.77
504.65	5399.62
504.83	5350.46
505.01	5437.06
505.18	5584.52
505.36	5540.05
505.53	5638.35
505.71	5720.27
505.88	5788.14
506.06	5497.92
506.23	5666.44
506.41	5488.56
506.58	5483.88
506.76	5444.09
506.93	5434.72
507.11	5446.43
507.28	5455.79
507.46	5467.49
507.63	5174.92
507.81	5198.33
507.98	5303.65
508.16	5439.40
508.33	5556.43
508.50	5607.92
508.68	5785.80
508.85	5804.53
509.03	5750.70
509.20	5673.46
509.38	5542.39
509.55	5521.32
509.73	5577.50
509.90	5701.54
510.08	5678.14
510.25	5692.18
510.42	5584.52
510.60	5708.57
510.77	5540.05
510.95	5753.04
511.12	5816.23
511.30	5790.49
511.47	6085.39
511.64	5951.98
511.82	6043.26
511.99	5659.42
512.17	5666.44
512.34	5563.45
512.51	5675.80
512.69	5490.90
512.86	5612.60
513.04	5675.80
513.21	5689.84
513.38	5713.25
513.56	5490.90
513.73	5444.09
513.90	5465.15
514.08	5596.22
514.25	5680.48
514.43	5530.69
514.60	5666.44
514.77	5626.65
514.95	5549.41
515.12	5617.29
515.29	5694.52
515.47	5823.25
515.64	5907.51
515.81	5713.25
515.99	5844.32
516.16	5467.49
516.33	5064.92
516.51	4704.48
516.68	4615.54
516.85	4568.73
517.03	4741.93
517.20	4929.17
517.37	5315.36
517.54	5617.29
517.72	5458.13
517.89	5144.50
518.06	4774.69
518.24	4814.48
518.41	5200.67
518.58	5303.65
518.75	5291.95
518.93	5483.88
519.10	5476.85
519.27	5556.43
519.45	5495.58
519.62	5533.03
519.79	5895.81
519.96	5769.42
520.14	5750.70
520.31	5624.31
520.48	5444.09
520.65	5504.94
520.83	5750.70
521.00	5844.32
521.17	5771.76
521.34	5631.33
521.52	5710.91
521.69	5741.33
521.86	5973.05
522.03	5849.00
522.20	5617.29
522.38	5460.47
522.55	5336.42
522.72	5591.54
522.89	5596.22
523.07	5657.07
523.24	5757.72
523.41	5916.87
523.58	5944.96
523.75	5942.62
523.92	5973.05
524.10	5998.79
524.27	5900.49
524.44	6146.25
524.61	5975.39
524.78	5891.13
524.96	5991.77
525.13	5961.34
525.30	6015.18
525.47	6129.86
525.64	6026.88
525.81	5799.85
525.98	5514.30
526.16	5277.91
526.33	5015.77
526.50	5198.33
526.67	5081.30
526.84	5139.82
527.01	5373.87
527.18	5507.28
527.36	5795.17
527.53	5748.36
527.70	5834.96
527.87	5748.36
528.04	5776.44
528.21	5863.04
528.38	6029.22
528.55	6113.48
528.72	6207.10
528.89	6080.71
529.07	6038.58
529.24	5968.37
529.41	5856.02
529.58	5736.65
529.75	5584.52
529.92	5949.64
530.09	5888.79
530.26	5961.34
530.43	5996.45
530.60	6083.05
530.77	6087.73
530.94	6181.35
531.11	5944.96
531.28	5996.45
531.46	5879.43
531.63	5937.94
531.80	6005.81
531.97	5743.67
532.14	5893.47
532.31	5584.52
532.48	5427.70
532.65	5418.34
532.82	5561.11
532.99	5708.57
533.16	5996.45
533.33	5949.64
533.50	5797.51
533.67	5804.53
533.84	5846.66
534.01	5792.83
534.18	5797.51
534.35	5888.79
534.52	5823.25
534.69	5858.36
534.86	5923.90
535.03	5867.72
535.20	5881.77
535.37	6085.39
535.54	6190.72
535.71	5987.09
535.88	6026.88
536.05	5942.62
536.22	5813.89
536.38	5832.62
536.55	5905.17
536.72	5647.71
536.89	5554.09
537.06	5717.93
537.23	5809.21
537.40	5886.45
537.57	6038.58
537.74	6155.61
537.91	6029.22
538.08	5722.61
538.25	6017.52
538.42	5970.71
538.59	5963.68
538.75	5954.32
538.92	5790.49
539.09	5785.80
539.26	5687.50
539.43	5657.07
539.60	5790.49
539.77	5811.55
539.94	5790.49
540.11	5614.95
540.28	5657.07
540.44	5636.01
540.61	5827.93
540.78	5874.74
540.95	5926.24
541.12	6113.48
541.29	6497.33
541.46	6523.07
541.62	6361.58
541.79	6328.81
541.96	6284.34
542.13	6202.42
542.30	6228.17
542.47	6396.68
542.63	5982.41
542.80	6036.24
542.97	6225.82
543.14	6153.27
543.31	6087.73
543.48	6235.19
543.64	6516.05
543.81	6363.92
543.98	6380.30
544.15	6274.98
544.32	6157.95
544.48	6324.13
544.65	6216.46
544.82	6244.55
544.99	6303.06
545.16	6181.35
545.32	6305.40
545.49	6862.45
545.66	7548.23
545.83	7857.18
546.00	7576.31
546.16	6956.07
546.33	6406.05
546.50	6328.81
546.67	6387.32
546.83	5970.71
547.00	6202.42
547.17	5956.66
547.34	5867.72
547.50	5870.06
547.67	6031.56
547.84	5900.49
548.00	6008.16
548.17	5944.96
548.34	5923.90
548.51	5881.77
548.67	5898.15
548.84	5996.45
549.01	5991.77
549.18	5891.13
549.34	5905.17
549.51	5937.94
549.68	5743.67
549.84	5692.18
550.01	5750.70
550.18	5748.36
550.34	5865.38
550.51	5778.78
550.68	5767.08
550.84	5617.29
551.01	5694.52
551.18	5575.16
551.34	5645.37
551.51	5692.18
551.68	5689.84
551.84	5874.74
552.01	5708.57
552.18	5657.07
552.34	5722.61
552.51	5628.99
552.68	5509.62
552.84	5418.34
553.01	5598.56
553.18	5493.24
553.34	5537.71
553.51	5633.67
553.67	5565.79
553.84	5771.76
554.01	5720.27
554.17	5783.46
554.34	5589.20
554.51	5451.11
554.67	5809.21
554.84	5596.22
555.00	5596.22
555.17	5563.45
555.33	5748.36
555.50	5357.49
555.67	5528.35
555.83	5254.50
556.00	5341.10
556.16	5746.02
556.33	5420.68
556.50	5303.65
556.66	5287.27
556.83	5259.18
556.99	5359.83
557.16	5313.02
557.32	5181.95
557.49	5387.91
557.65	5357.49
557.82	5359.83
557.98	5469.83
558.15	5430.04
558.32	5214.71
558.48	5041.51
558.65	5078.96
558.81	5107.05
558.98	5153.86
559.14	5212.37
559.31	5153.86
559.47	5287.27
559.64	5221.74
559.80	5191.31
559.97	5146.84
560.13	5191.31
560.30	5322.38
560.46	5317.70
560.63	5481.53
560.79	5334.08
560.96	5509.62
561.12	5313.02
561.29	5193.65
561.45	4983.00
561.61	5226.42
561.78	5263.86
561.94	5135.14
562.11	5144.50
562.27	5156.20
562.44	5203.01
562.60	5308.34
562.77	5380.89
562.93	5364.51
563.10	5317.70
563.26	5284.93
563.42	5074.28
563.59	5097.69
563.75	5179.61
563.92	5078.96
564.08	5029.81
564.24	5111.73
564.41	5172.58
564.57	5210.03
564.74	5074.28
564.90	5207.69
565.07	5195.99
565.23	5085.98
565.39	4891.72
565.56	4957.25
565.72	4847.25
565.88	4924.49
566.05	4889.38
566.21	5027.47
566.38	4987.68
566.54	5062.58
566.70	5090.67
566.87	5144.50
567.03	5104.71
567.19	5399.62
567.36	5130.45
567.52	4870.65
567.68	5048.54
567.85	4755.97
568.01	4816.82
568.17	4727.88
568.34	4545.32
568.50	4688.09
568.66	4823.84
568.83	4730.22
568.99	4725.54
569.15	4793.42
569.32	4807.46
569.48	4667.03
569.64	4638.94
569.81	4634.26
569.97	4732.56
570.13	4713.84
570.30	4564.04
570.46	4599.15
570.62	4528.94
570.78	4538.30
570.95	4421.27
571.11	4596.81
571.27	4674.05
571.43	4671.71
571.60	4734.90
571.76	4739.58
571.92	4685.75
572.09	4709.16
572.25	4964.28
572.41	4695.11
572.57	4643.62
572.74	4805.12
572.90	4821.50
573.06	4758.31
573.22	4669.37
573.38	4669.37
573.55	4748.95
573.71	4940.87
573.87	4671.71
574.03	4807.46
574.20	4685.75
574.36	4575.75
574.52	4402.55
574.68	4491.49
574.84	4456.38
575.01	4531.28
575.17	4547.66
575.33	4545.32
575.49	4568.73
575.65	4559.36
575.82	4512.55
575.98	4552.34
576.14	4498.51
576.30	4538.30
576.46	4807.46
576.62	5022.79
576.79	5025.13
576.95	4791.08
577.11	4784.06
577.27	4655.33
577.43	4634.26
577.59	4486.81
577.75	4592.13
577.92	4435.32
578.08	4423.61
578.24	4390.84
578.40	4648.30
578.56	4856.61
578.72	4767.67
578.88	4898.74
579.04	4746.61
579.21	4840.23
579.37	4702.14
579.53	4564.04
579.69	4730.22
579.85	4798.10
580.01	4720.86
580.17	4678.73
580.33	4709.16
580.49	4678.73
580.65	4779.37
580.82	4585.11
580.98	4660.01
581.14	4545.32
581.30	4706.82
581.46	4531.28
581.62	4629.58
581.78	4716.18
581.94	4678.73
582.10	4802.78
582.26	4699.80
582.42	4786.40
582.58	4723.20
582.74	4664.69
582.90	4720.86
583.06	4795.76
583.22	4847.25
583.38	4634.26
583.54	4690.43
583.70	4713.84
583.86	4671.71
584.02	4634.26
584.18	4781.71
584.34	4615.54
584.50	4685.75
584.66	4645.96
584.82	4575.75
584.98	4587.45
585.14	4552.34
585.30	4423.61
585.46	4454.04
585.62	4353.40
585.78	4372.12
585.94	4421.27
586.10	4339.35
586.26	4634.26
586.42	4561.70
586.58	4510.21
586.74	4580.43
586.90	4624.90
587.06	4456.38
587.22	4496.17
587.38	4360.42
587.54	4545.32
587.70	4173.18
587.86	4030.40
588.02	3985.93
588.18	3854.86
588.34	3667.62
588.49	3599.74
588.65	3260.37
588.81	3187.81
588.97	3126.96
589.13	3260.37
589.29	3234.62
589.45	3262.71
589.61	3248.66
589.77	3419.52
589.93	3410.16
590.08	3761.24
590.24	3822.09
590.40	3960.19
590.56	3861.88
590.72	3707.41
590.88	3705.07
591.04	3735.50
591.20	3613.79
591.35	3676.98
591.51	3728.47
591.67	3499.10
591.83	3740.18
591.99	3672.30
592.15	3641.87
592.31	3833.80
592.46	3981.25
592.62	3957.85
592.78	3929.76
592.94	4018.70
593.10	3971.89
593.26	3962.53
593.41	4007.00
593.57	3899.33
593.73	3850.18
593.89	3730.81
594.05	3527.19
594.20	3583.36
594.36	3461.65
594.52	3332.92
594.68	3384.41
594.84	3602.08
594.99	3786.99
595.15	3786.99
595.31	3723.79
595.47	3878.27
595.62	3836.14
595.78	3812.73
595.94	3843.16
596.10	3978.91
596.25	3936.78
596.41	3744.86
596.57	3559.95
596.73	3723.79
596.88	3709.75
597.04	3962.53
597.20	3810.39
597.36	3744.86
597.51	3756.56
597.67	3730.81
597.83	3887.63
