SpectraSuite Data File
++++++++++++++++++++++++++++++++++++
Date: Fri Oct 04 11:44:14 GMT-05:00 2013
User: price-jones
Dark Spectrum Present: No
Reference Spectrum Present: No
Number of Sampled Component Spectra: 1
Spectrometers: USB2+H05261
Integration Time (usec): 100000 (USB2+H05261)
Spectra Averaged: 1 (USB2+H05261)
Boxcar Smoothing: 0 (USB2+H05261)
Correct for Electrical Dark: No (USB2+H05261)
Strobe/Lamp Enabled: No (USB2+H05261)
Correct for Detector Non-linearity: No (USB2+H05261)
Correct for Stray Light: No (USB2+H05261)
Number of Pixels in Processed Spectrum: 2048
>>>>>Begin Processed Spectral Data<<<<<
365.73	46.81
365.92	46.81
366.12	46.81
366.32	0.00
366.52	0.00
366.72	0.00
366.91	0.00
367.11	0.00
367.31	0.00
367.51	0.00
367.70	0.00
367.90	0.00
368.10	0.00
368.30	0.00
368.49	0.00
368.69	0.00
368.89	0.00
369.09	0.00
369.28	0.00
369.48	0.00
369.68	0.00
369.87	4.68
370.07	0.00
370.27	91.28
370.47	175.54
370.66	615.56
370.86	770.04
371.06	704.50
371.25	805.14
371.45	772.38
371.65	727.91
371.84	664.71
372.04	688.12
372.24	720.88
372.44	781.74
372.63	821.53
372.83	725.57
373.03	683.44
373.22	589.82
373.42	662.37
373.62	657.69
373.81	844.93
374.01	807.48
374.21	725.57
374.40	690.46
374.60	664.71
374.79	830.89
374.99	814.51
375.19	849.61
375.38	903.45
375.58	896.43
375.78	929.19
375.97	861.32
376.17	997.07
376.37	884.72
376.56	973.66
376.76	1083.67
376.95	1062.60
377.15	1001.75
377.35	1137.50
377.54	1184.31
377.74	1109.41
377.93	1104.73
378.13	1224.10
378.33	1196.01
378.52	1095.37
378.72	1064.94
378.91	1022.81
379.11	863.66
379.31	858.98
379.50	887.06
379.70	1067.28
379.89	1100.05
380.09	1111.75
380.28	1041.54
380.48	1170.27
380.68	1177.29
380.87	1064.94
381.07	952.60
381.26	950.26
381.46	1032.18
381.65	952.60
381.85	901.11
382.04	805.14
382.24	800.46
382.43	723.23
382.63	793.44
382.83	791.10
383.02	821.53
383.22	842.59
383.41	709.18
383.61	830.89
383.80	854.30
384.00	1011.11
384.19	1186.65
384.39	1128.14
384.58	1118.78
384.78	1067.28
384.97	1074.31
385.17	1020.47
385.36	1013.45
385.56	976.00
385.75	971.32
385.95	1156.22
386.14	1231.12
386.34	1123.46
386.53	1081.33
386.72	1078.99
386.92	1076.65
387.11	1074.31
387.31	1174.95
387.50	1090.69
387.70	1151.54
387.89	1142.18
388.09	1069.62
388.28	1086.01
388.48	1186.65
388.67	1181.97
388.86	1341.13
389.06	1261.55
389.25	1451.13
389.45	1390.28
389.64	1434.75
389.84	1411.34
390.03	1416.02
390.22	1390.28
390.42	1453.47
390.61	1488.58
390.81	1699.23
391.00	1685.19
391.19	1657.10
391.39	1603.27
391.58	1519.01
391.78	1483.90
391.97	1306.02
392.16	1394.96
392.36	1275.59
392.55	931.53
392.75	842.59
392.94	681.10
393.13	709.18
393.33	882.38
393.52	870.68
393.71	1121.12
393.91	1266.23
394.10	1355.17
394.29	1523.69
394.49	1570.50
394.68	1724.97
394.88	1839.66
395.07	1732.00
395.26	1792.85
395.46	1696.89
395.65	1514.33
395.84	1474.54
396.04	1366.87
396.23	1177.29
396.42	854.30
396.62	905.79
396.81	1025.15
397.00	1261.55
397.19	1521.35
397.39	1675.82
397.58	1926.26
397.77	2012.86
397.97	2190.74
398.16	2094.78
398.35	2157.97
398.55	2286.70
398.74	2340.54
398.93	2263.30
399.12	2347.56
399.32	2209.47
399.51	2317.13
399.70	2478.63
399.90	2396.71
400.09	2480.97
400.28	2413.09
400.47	2443.52
400.67	2551.18
400.86	2693.96
401.05	2616.72
401.24	2733.75
401.44	2724.38
401.63	2609.70
401.82	2612.04
402.01	2705.66
402.21	2644.81
402.40	2630.76
402.59	2569.91
402.78	2520.76
402.97	2450.54
403.17	2495.01
403.36	2626.08
403.55	2841.41
403.74	2834.39
403.93	2752.47
404.13	2539.48
404.32	2569.91
404.51	2752.47
404.70	2911.63
404.89	2733.75
405.09	2656.51
405.28	2640.12
405.47	2539.48
405.66	2644.81
405.85	2457.56
406.05	2513.74
406.24	2387.35
406.43	2649.49
406.62	2623.74
406.81	2715.02
407.00	2686.94
407.20	2607.36
407.39	2614.38
407.58	2562.89
407.77	2892.90
407.96	2874.18
408.15	2953.76
408.34	2832.05
408.54	3019.29
408.73	3033.33
408.92	3096.53
409.11	2972.48
409.30	2918.65
409.49	2691.62
409.68	2485.65
409.87	2410.75
410.07	2642.46
410.26	2708.00
410.45	2834.39
410.64	2977.16
410.83	3012.27
411.02	3030.99
411.21	3213.56
411.40	3206.53
411.59	3028.65
411.78	3218.24
411.98	3145.68
412.17	3166.74
412.36	3094.19
412.55	3218.24
412.74	3087.17
412.93	3068.44
413.12	2956.10
413.31	3164.40
413.50	3414.84
413.69	3309.52
413.88	3375.05
414.07	3239.30
414.26	3045.04
414.45	3361.01
414.64	3349.31
414.83	3396.12
415.02	3246.32
415.22	3321.22
415.41	3442.93
415.60	3377.39
415.79	3520.17
415.98	3641.87
416.17	3648.90
416.36	3513.14
416.55	3648.90
416.74	3365.69
416.93	3269.73
417.12	3258.03
417.31	3297.81
417.50	3405.48
417.69	3440.59
417.88	3606.77
418.07	3494.42
418.26	3417.18
418.45	3515.48
418.64	3541.23
418.83	3492.08
419.02	3609.11
419.21	3545.91
419.39	3353.99
419.58	3194.83
419.77	3176.11
419.96	3461.65
420.15	3595.06
420.34	3691.02
420.53	3686.34
420.72	3791.67
420.91	3852.52
421.10	3698.05
421.29	3850.18
421.48	3637.19
421.67	3700.39
421.86	3749.54
422.05	3562.30
422.24	3108.23
422.43	3335.26
422.61	3316.54
422.80	3691.02
422.99	3822.09
423.18	3667.62
423.37	3506.12
423.56	3473.36
423.75	3522.51
423.94	3662.94
424.13	3417.18
424.32	3452.29
424.50	3517.83
424.69	3459.31
424.88	3485.06
425.07	3346.97
425.26	3473.36
425.45	3452.29
425.64	3379.73
425.83	3286.11
426.01	3524.85
426.20	3513.14
426.39	3564.64
426.58	3311.86
426.77	3108.23
426.96	3054.40
427.15	3063.76
427.33	3414.84
427.52	3501.44
427.71	3613.79
427.90	3382.07
428.09	3346.97
428.28	3272.07
428.46	3386.76
428.65	3218.24
428.84	3290.79
429.03	3309.52
429.22	3155.04
429.40	2984.18
429.59	2825.03
429.78	2450.54
429.97	2385.01
430.16	2513.74
430.34	2480.97
430.53	2469.27
430.72	2621.40
430.91	2787.58
431.10	3012.27
431.28	3756.56
431.47	4014.02
431.66	3885.29
431.85	3726.13
432.03	3508.46
432.22	3501.44
432.41	3447.61
432.60	3801.03
432.79	3882.95
432.97	4021.04
433.16	4100.62
433.35	3719.11
433.54	3260.37
433.72	3152.70
433.91	3115.25
434.10	3442.93
434.28	3775.28
434.47	3971.89
434.66	3967.21
434.85	3866.56
435.03	4079.55
435.22	4346.37
435.41	4887.04
435.59	4856.61
435.78	4580.43
435.97	4468.08
436.16	4346.37
436.34	4180.20
436.53	4117.00
436.72	4004.66
436.90	3887.63
437.09	3824.44
437.28	3728.47
437.46	3843.16
437.65	3875.93
437.84	3733.15
438.02	3606.77
438.21	3438.25
438.40	3590.38
438.58	3946.14
438.77	3932.10
438.96	4037.42
439.14	4224.67
439.33	4259.78
439.52	4304.25
439.70	3936.78
439.89	4210.62
440.08	4081.89
440.26	3969.55
440.45	4201.26
440.63	4395.53
440.82	4503.19
441.01	4709.16
441.19	4472.76
441.38	4428.29
441.57	4631.92
441.75	4753.63
441.94	5029.81
442.12	4674.05
442.31	4697.46
442.50	4678.73
442.68	4718.52
442.87	4662.35
443.05	4585.11
443.24	4674.05
443.43	4674.05
443.61	4858.95
443.80	4971.30
443.98	4730.22
444.17	4564.04
444.35	4915.12
444.54	5043.85
444.73	4940.87
444.91	4767.67
445.10	4617.88
445.28	4402.55
445.47	4355.74
445.65	4184.88
445.84	4491.49
446.02	4521.92
446.21	4662.35
446.39	4655.33
446.58	4877.68
446.77	4887.04
446.95	4863.63
447.14	4961.94
447.32	5064.92
447.51	4961.94
447.69	4772.35
447.88	4840.23
448.06	4926.83
448.25	4865.97
448.43	4968.96
448.62	4894.06
448.80	5018.11
448.99	4947.89
449.17	5034.49
449.36	4931.51
449.54	5104.71
449.73	5327.06
449.91	5294.29
450.10	5296.63
450.28	5404.30
450.46	5320.04
450.65	5401.96
450.83	5444.09
451.02	5240.46
451.20	5305.99
451.39	5207.69
451.57	5214.71
451.76	5226.42
451.94	5132.79
452.13	5165.56
452.31	4896.40
452.49	4772.35
452.68	4751.29
452.86	4650.64
453.05	4858.95
453.23	4889.38
453.42	4903.42
453.60	5069.60
453.78	5132.79
453.97	5174.92
454.15	5060.24
454.34	4908.10
454.52	4898.74
454.70	4992.36
454.89	4863.63
455.07	5004.07
455.26	4987.68
455.44	5060.24
455.62	5315.36
455.81	5303.65
455.99	5186.63
456.17	5418.34
456.36	5291.95
456.54	5280.25
456.73	5453.45
456.91	5493.24
457.09	5619.63
457.28	5638.35
457.46	5432.38
457.64	5558.77
457.83	5270.89
458.01	5039.17
458.19	5259.18
458.38	5373.87
458.56	5462.81
458.74	5444.09
458.93	5270.89
459.11	5104.71
459.29	5298.97
459.48	5413.66
459.66	5203.01
459.84	5305.99
460.03	5472.17
460.21	5497.92
460.39	5373.87
460.57	5291.95
460.76	5650.05
460.94	5493.24
461.12	5446.43
461.31	5540.05
461.49	5486.22
461.67	5404.30
461.85	5685.16
462.04	5554.09
462.22	6183.70
462.40	5682.82
462.59	5481.53
462.77	5713.25
462.95	5619.63
463.13	5481.53
463.32	5352.81
463.50	5352.81
463.68	5533.03
463.86	5455.79
464.05	5383.23
464.23	5423.02
464.41	5245.14
464.59	5167.90
464.78	5376.21
464.96	5432.38
465.14	5210.03
465.32	5575.16
465.50	5626.65
465.69	5750.70
465.87	5650.05
466.05	5610.26
466.23	5144.50
466.41	5060.24
466.60	5032.15
466.78	5355.15
466.96	5226.42
467.14	5331.74
467.32	5439.40
467.51	5533.03
467.69	5217.05
467.87	5345.78
468.05	5504.94
468.23	5397.28
468.41	5479.19
468.60	5516.64
468.78	5558.77
468.96	5366.85
469.14	5446.43
469.32	5448.77
469.50	5315.36
469.69	5284.93
469.87	5273.23
470.05	5273.23
470.23	5188.97
470.41	5200.67
470.59	5228.76
470.77	5336.42
470.95	5516.64
471.14	5563.45
471.32	5437.06
471.50	5830.27
471.68	5767.08
471.86	5724.95
472.04	5923.90
472.22	5823.25
472.40	5652.39
472.58	5472.17
472.77	5589.20
472.95	5650.05
473.13	5856.02
473.31	5661.76
473.49	5834.96
473.67	5760.06
473.85	5881.77
474.03	5860.70
474.21	6054.97
474.39	5963.68
474.57	6202.42
474.75	6251.57
474.93	5954.32
475.12	5980.07
475.30	5853.68
475.48	5905.17
475.66	5963.68
475.84	5921.56
476.02	5806.87
476.20	5944.96
476.38	5731.97
476.56	5989.43
476.74	6040.92
476.92	6097.10
477.10	6445.84
477.28	6497.33
477.46	6333.49
477.64	6303.06
477.82	6560.52
478.00	6499.67
478.18	6387.32
478.36	6267.95
478.54	6401.37
478.72	6396.68
478.90	6480.94
479.08	6853.09
479.26	6747.76
479.44	7026.29
479.62	6750.10
479.80	6869.47
479.98	6719.68
480.16	7026.29
480.34	6869.47
480.52	6731.38
480.70	6930.33
480.88	7138.63
481.06	6923.30
481.24	7002.88
481.41	7267.36
481.59	7428.86
481.77	7513.12
481.95	7260.34
482.13	7211.19
482.31	7232.26
482.49	7407.80
482.67	7513.12
482.85	7358.64
483.03	7672.28
483.21	7602.06
483.39	7660.57
483.57	7407.80
483.74	7529.50
483.92	7302.47
484.10	7611.42
484.28	7641.85
484.46	7974.21
484.64	7936.76
484.82	7798.66
485.00	7669.94
485.18	7637.17
485.35	7225.23
485.53	6789.89
485.71	6298.38
485.89	5959.00
486.07	6286.68
486.25	6775.85
486.43	7204.17
486.61	7442.90
486.78	7328.22
486.96	7382.05
487.14	7665.25
487.32	7833.77
487.50	7999.95
487.68	8374.44
487.85	8222.30
488.03	8519.55
488.21	8294.86
488.39	8002.29
488.57	8065.49
488.75	7875.90
488.92	8358.05
489.10	8573.38
489.28	8765.31
489.46	9202.99
489.64	9231.07
489.81	9036.81
489.99	9104.68
490.17	9046.17
490.35	9273.20
490.53	9200.65
490.70	9219.37
490.88	9046.17
491.06	9366.82
491.24	9434.70
491.41	9055.53
491.59	8493.80
491.77	8255.07
491.95	8608.49
492.13	8926.80
492.30	9071.92
492.48	9336.40
492.66	9659.39
492.84	9638.33
493.01	9605.56
493.19	9273.20
493.37	9352.78
493.54	9334.06
493.72	9380.87
493.90	9640.67
494.08	9933.23
494.25	9996.43
494.43	10321.76
494.61	10394.32
494.79	10097.07
494.96	10289.00
495.14	10190.69
495.32	9778.76
495.49	9598.54
495.67	9769.40
495.85	10286.65
496.02	10441.13
496.20	10581.56
496.38	10530.07
496.55	10207.08
496.73	10455.17
496.91	10438.79
497.09	10303.04
497.26	10686.89
497.44	10628.37
497.62	10464.54
497.79	10200.05
497.97	9717.90
498.14	9760.03
498.32	9771.74
498.50	10186.01
498.67	10572.20
498.85	10429.43
499.03	10525.39
499.20	10597.95
499.38	10796.89
499.56	10654.12
499.73	10328.78
499.91	10228.14
500.08	10134.52
500.26	9853.66
500.44	9949.62
500.61	10279.63
500.79	10373.25
500.97	10092.39
501.14	10256.23
501.32	9991.75
501.49	9982.38
501.67	9879.40
501.84	10052.60
502.02	10239.84
502.20	10349.85
502.37	10314.74
502.55	10291.34
502.72	10527.73
502.90	10733.70
503.07	10387.30
503.25	10076.01
503.43	9701.52
503.60	9617.26
503.78	9179.58
503.95	9621.94
504.13	9914.51
504.30	10284.31
504.48	10539.43
504.65	10499.64
504.83	10619.01
505.01	10658.80
505.18	10850.72
505.36	10953.71
505.53	10902.22
505.71	11145.63
505.88	11187.76
506.06	10967.75
506.23	10960.73
506.41	10644.76
506.58	10745.40
506.76	10614.33
506.93	10775.83
507.11	10520.71
507.28	10487.94
507.46	10691.57
507.63	10504.32
507.81	10141.54
507.98	10216.44
508.16	10485.60
508.33	10726.68
508.50	11075.42
508.68	11077.76
508.85	11276.70
509.03	11082.44
509.20	11386.71
509.38	11087.12
509.55	10703.27
509.73	10829.66
509.90	10906.90
510.08	11211.17
510.25	11143.29
510.42	11183.08
510.60	11201.80
510.77	10925.62
510.95	11260.32
511.12	11351.60
511.30	11461.60
511.47	11735.45
511.64	11637.14
511.82	11723.74
511.99	10991.16
512.17	10867.11
512.34	10883.49
512.51	10689.23
512.69	10721.99
512.86	10944.34
513.04	11222.87
513.21	11119.89
513.38	11023.92
513.56	10841.36
513.73	10619.01
513.90	10331.12
514.08	10785.19
514.25	11154.99
514.43	11016.90
514.60	10780.51
514.77	11140.95
514.95	11171.38
515.12	11009.88
515.29	11054.35
515.47	11094.14
515.64	11667.57
515.81	11377.34
515.99	11054.35
516.16	10597.95
516.33	9811.53
516.51	9139.79
516.68	9057.87
516.85	9116.39
517.03	9179.58
517.20	9614.92
517.37	10551.14
517.54	10890.51
517.72	11007.54
517.89	10193.03
518.06	9369.16
518.24	9284.91
518.41	10310.06
518.58	10277.29
518.75	10476.24
518.93	10670.50
519.10	10684.55
519.27	10714.97
519.45	10911.58
519.62	10960.73
519.79	11274.36
519.96	11126.91
520.14	11096.48
520.31	10789.87
520.48	10876.47
520.65	10817.96
520.83	11236.91
521.00	11466.28
521.17	11257.98
521.34	11208.83
521.52	11255.64
521.69	11573.95
521.86	11688.64
522.03	11709.70
522.20	11389.05
522.38	10609.65
522.55	10588.58
522.72	10890.51
522.89	10974.77
523.07	10939.66
523.24	11096.48
523.41	11407.77
523.58	11496.71
523.75	11597.35
523.92	11660.55
524.10	11808.00
524.27	11712.04
524.44	11747.15
524.61	11653.53
524.78	11379.68
524.96	11265.00
525.13	11290.74
525.30	11690.98
525.47	11899.28
525.64	11737.79
525.81	11353.94
525.98	11000.52
526.16	10361.55
526.33	10022.17
526.50	10073.67
526.67	9753.01
526.84	9980.04
527.01	10068.98
527.18	10619.01
527.36	10995.84
527.53	11279.04
527.70	11407.77
527.87	11246.27
528.04	11220.53
528.21	11349.26
528.38	11461.60
528.55	11819.71
528.72	11910.99
528.89	12016.31
529.07	11840.77
529.24	11545.86
529.41	11414.79
529.58	10918.60
529.75	10925.62
529.92	11262.66
530.09	11613.74
530.26	11679.27
530.43	11845.45
530.60	11920.35
530.77	11885.24
530.94	12032.69
531.11	11763.53
531.28	11496.71
531.46	11466.28
531.63	11758.85
531.80	11616.08
531.97	11536.50
532.14	11199.46
532.31	10693.91
532.48	10450.49
532.65	10359.21
532.82	10729.02
532.99	11075.42
533.16	11538.84
533.33	11566.93
533.50	11571.61
533.67	11108.18
533.84	10956.05
534.01	11332.87
534.18	11314.15
534.35	11447.56
534.52	11398.41
534.69	11428.84
534.86	11730.76
535.03	11686.29
535.20	11754.17
535.37	12004.61
535.54	12037.38
535.71	11775.24
535.88	11658.21
536.05	11496.71
536.22	11332.87
536.38	11211.17
536.55	11089.46
536.72	10902.22
536.89	10801.57
537.06	10934.98
537.23	11599.70
537.40	11527.14
537.57	11508.41
537.74	11604.38
537.91	11433.52
538.08	11510.75
538.25	11442.88
538.42	11492.03
538.59	11571.61
538.75	11218.19
538.92	11042.65
539.09	11178.40
539.26	11049.67
539.43	11112.86
539.60	11000.52
539.77	10993.50
539.94	11138.61
540.11	10733.70
540.28	10743.06
540.44	10719.65
540.61	10541.77
540.78	10745.40
540.95	11091.80
541.12	11241.59
541.29	11330.53
541.46	11674.59
541.62	11800.98
541.79	11819.71
541.96	11389.05
542.13	11449.90
542.30	11407.77
542.47	11679.27
542.63	11456.92
542.80	11339.90
542.97	11325.85
543.14	11335.21
543.31	11133.93
543.48	11351.60
543.64	11777.58
543.81	11887.58
543.98	11880.56
544.15	11646.51
544.32	11520.12
544.48	11363.30
544.65	11466.28
544.82	11602.04
544.99	11557.57
545.16	11396.07
545.32	11524.80
545.49	12063.12
545.66	13099.98
545.83	13188.92
546.00	12711.45
546.16	11990.56
546.33	11592.67
546.50	11655.87
546.67	11700.34
546.83	11351.60
547.00	11295.43
547.17	11232.23
547.34	10930.30
547.50	10846.04
547.67	11180.74
547.84	11016.90
548.00	11028.60
548.17	11370.32
548.34	11360.96
548.51	11536.50
548.67	11150.31
548.84	11370.32
549.01	11419.47
549.18	10988.82
549.34	11215.85
549.51	11269.68
549.68	11030.94
549.84	10834.34
550.01	10970.09
550.18	11066.05
550.34	11098.82
550.51	11279.04
550.68	11314.15
550.84	11005.20
551.01	10902.22
551.18	10757.10
551.34	10970.09
551.51	11138.61
551.68	11281.38
551.84	11194.78
552.01	11314.15
552.18	11164.36
552.34	10693.91
552.51	10485.60
552.68	10729.02
552.84	10829.66
553.01	10977.11
553.18	10810.93
553.34	10918.60
553.51	10867.11
553.67	11115.20
553.84	11124.57
554.01	11089.46
554.17	10902.22
554.34	10829.66
554.51	10984.13
554.67	10981.79
554.84	10909.24
555.00	10885.83
555.17	10878.81
555.33	10848.38
555.50	10799.23
555.67	10832.00
555.83	10483.26
556.00	10764.12
556.16	10661.14
556.33	10572.20
556.50	10387.30
556.66	10541.77
556.83	10237.50
556.99	10319.42
557.16	10286.65
557.32	10427.09
557.49	10630.71
557.65	10382.62
557.82	10370.91
557.98	10490.28
558.15	10583.90
558.32	10251.55
558.48	9973.02
558.65	9771.74
558.81	9984.73
558.98	9977.70
559.14	9966.00
559.31	10111.11
559.47	10340.49
559.64	9839.61
559.80	9935.57
559.97	9970.68
560.13	10061.96
560.30	10260.91
560.46	10663.48
560.63	10499.64
560.79	10853.06
560.96	10780.51
561.12	10244.52
561.29	10076.01
561.45	9877.06
561.61	10033.88
561.78	10221.12
561.94	10092.39
562.11	10146.22
562.27	10239.84
562.44	10057.28
562.60	10120.48
562.77	10195.37
562.93	10462.19
563.10	10403.68
563.26	10143.88
563.42	10333.47
563.59	10190.69
563.75	9963.66
563.92	9975.36
564.08	9762.37
564.24	9984.73
564.41	10181.33
564.57	10178.99
564.74	10022.17
564.90	9898.13
565.07	9987.07
565.23	9884.08
565.39	9678.12
565.56	9724.93
565.72	9455.76
565.88	9413.63
566.05	9509.60
566.21	9614.92
566.38	9699.18
566.54	9881.74
566.70	9870.04
566.87	9998.77
567.03	9916.85
567.19	10094.73
567.36	9727.27
567.52	9863.02
567.68	9776.42
567.85	9373.85
568.01	9336.40
568.17	9062.55
568.34	9097.66
568.50	9121.07
568.66	9004.04
568.83	9252.14
568.99	9184.26
569.15	9296.61
569.32	9270.86
569.48	9348.10
569.64	9167.88
569.81	9067.24
569.97	9114.05
570.13	9181.92
570.30	9048.51
570.46	9041.49
570.62	8772.33
570.78	8667.00
570.95	8634.24
571.11	8973.61
571.27	9083.62
571.43	9125.75
571.60	8997.02
571.76	9139.79
571.92	9202.99
572.09	9310.65
572.25	9287.25
572.41	9277.88
572.57	9160.86
572.74	9207.67
572.90	9200.65
573.06	9249.80
573.22	9233.41
573.38	9071.92
573.55	9064.89
573.71	9214.69
573.87	9179.58
574.03	9032.13
574.20	9027.45
574.36	9041.49
574.52	8884.67
574.68	8971.27
574.84	8943.19
575.01	8608.49
575.17	8615.51
575.33	8910.42
575.49	8805.10
575.65	8964.25
575.82	8936.17
575.98	8807.44
576.14	8800.41
576.30	8901.06
576.46	9027.45
576.62	9291.93
576.79	9451.08
576.95	9001.70
577.11	9247.46
577.27	9011.06
577.43	8847.22
577.59	8879.99
577.75	8812.12
577.92	8479.76
578.08	8491.46
578.24	8498.49
578.40	8847.22
578.56	9088.30
578.72	9100.00
578.88	9226.39
579.04	9142.13
579.21	9121.07
579.37	8950.21
579.53	8990.00
579.69	9088.30
579.85	8872.97
580.01	8992.34
580.17	8894.04
580.33	8971.27
580.49	8903.40
580.65	9041.49
580.82	9020.42
580.98	8908.08
581.14	8957.23
581.30	8978.30
581.46	8959.57
581.62	8990.00
581.78	9085.96
581.94	9242.78
582.10	9188.94
582.26	9165.54
582.42	9181.92
582.58	9090.64
582.74	9320.01
582.90	9041.49
583.06	9036.81
583.22	9064.89
583.38	8725.52
583.54	8931.48
583.70	9069.58
583.86	9121.07
584.02	9018.08
584.18	8863.61
584.34	8903.40
584.50	8868.29
584.66	8929.14
584.82	8807.44
584.98	8610.83
585.14	8622.53
585.30	8477.42
585.46	8381.46
585.62	8248.05
585.78	8549.98
585.94	8547.64
586.10	8477.42
586.26	8564.02
586.42	8774.67
586.58	8755.94
586.74	8826.16
586.90	8559.34
587.06	8594.45
587.22	8533.59
587.38	8292.52
587.54	8248.05
587.70	8159.11
587.86	7747.17
588.02	7581.00
588.18	7304.81
588.34	7229.91
588.49	6658.82
588.65	6415.41
588.81	6045.60
588.97	6099.44
589.13	6176.67
589.29	6113.48
589.45	6104.12
589.61	6256.25
589.77	6457.54
589.93	6796.92
590.08	6878.83
590.24	7232.26
590.40	7236.94
590.56	7335.24
590.72	7014.59
590.88	7066.08
591.04	7316.51
591.20	7227.57
591.35	7136.29
591.51	7077.78
591.67	7108.21
591.83	7129.27
591.99	6904.58
592.15	6977.14
592.31	7218.21
592.46	7585.68
592.62	7503.76
592.78	7501.42
592.94	7520.14
593.10	7611.42
