SpectraSuite Data File
++++++++++++++++++++++++++++++++++++
Date: Fri Oct 04 11:44:15 GMT-05:00 2013
User: price-jones
Dark Spectrum Present: No
Reference Spectrum Present: No
Number of Sampled Component Spectra: 1
Spectrometers: USB2+H05261
Integration Time (usec): 100000 (USB2+H05261)
Spectra Averaged: 1 (USB2+H05261)
Boxcar Smoothing: 0 (USB2+H05261)
Correct for Electrical Dark: No (USB2+H05261)
Strobe/Lamp Enabled: No (USB2+H05261)
Correct for Detector Non-linearity: No (USB2+H05261)
Correct for Stray Light: No (USB2+H05261)
Number of Pixels in Processed Spectrum: 2048
>>>>>Begin Processed Spectral Data<<<<<
365.73	4.68
365.92	4.68
366.12	4.68
366.32	0.00
366.52	0.00
366.72	2.34
366.91	0.00
367.11	0.00
367.31	0.00
367.51	0.00
367.70	0.00
367.90	0.00
368.10	0.00
368.30	0.00
368.49	0.00
368.69	0.00
368.89	0.00
369.09	0.00
369.28	0.00
369.48	0.00
369.68	0.00
369.87	0.00
370.07	0.00
370.27	32.77
370.47	149.79
370.66	655.35
370.86	648.33
371.06	709.18
371.25	887.06
371.45	599.18
371.65	706.84
371.84	655.35
372.04	552.37
372.24	669.39
372.44	702.16
372.63	720.88
372.83	667.05
373.03	664.71
373.22	613.22
373.42	587.47
373.62	699.82
373.81	760.67
374.01	737.27
374.21	720.88
374.40	617.90
374.60	791.10
374.79	739.61
374.99	767.70
375.19	854.30
375.38	819.19
375.58	898.77
375.78	826.21
375.97	800.46
376.17	823.87
376.37	915.15
376.56	856.64
376.76	889.40
376.95	964.30
377.15	1015.79
377.35	1128.14
377.54	1057.92
377.74	1076.65
377.93	1039.20
378.13	950.26
378.33	968.98
378.52	943.24
378.72	938.55
378.91	1013.45
379.11	926.85
379.31	889.40
379.50	861.32
379.70	924.51
379.89	964.30
380.09	1001.75
380.28	1095.37
380.48	1074.31
380.68	1022.81
380.87	1057.92
381.07	945.58
381.26	968.98
381.46	866.00
381.65	882.38
381.85	798.12
382.04	744.29
382.24	753.65
382.43	697.48
382.63	671.73
382.83	760.67
383.02	671.73
383.22	734.93
383.41	704.50
383.61	774.72
383.80	814.51
384.00	924.51
384.19	973.66
384.39	1048.56
384.58	1097.71
384.78	1062.60
384.97	1086.01
385.17	976.00
385.36	922.17
385.56	898.77
385.75	922.17
385.95	1071.97
386.14	1022.81
386.34	1139.84
386.53	999.41
386.72	1006.43
386.92	1064.94
387.11	985.37
387.31	1006.43
387.50	1090.69
387.70	966.64
387.89	997.07
388.09	1053.24
388.28	1062.60
388.48	1088.35
388.67	1163.25
388.86	1261.55
389.06	1214.74
389.25	1334.11
389.45	1310.70
389.64	1439.43
389.84	1362.19
390.03	1299.00
390.22	1366.87
390.42	1383.26
390.61	1399.64
390.81	1549.43
391.00	1542.41
391.19	1511.99
391.39	1448.79
391.58	1504.96
391.78	1394.96
391.97	1343.47
392.16	1221.76
392.36	1156.22
392.55	908.13
392.75	800.46
392.94	767.70
393.13	732.59
393.33	660.03
393.52	926.85
393.71	1123.46
393.91	1221.76
394.10	1247.51
394.29	1373.89
394.49	1500.28
394.68	1563.48
394.88	1706.25
395.07	1626.67
395.26	1762.42
395.46	1561.14
395.65	1488.58
395.84	1306.02
396.04	1247.51
396.23	868.34
396.42	835.57
396.62	837.91
396.81	978.34
397.00	1160.91
397.19	1383.26
397.39	1584.54
397.58	1556.46
397.77	1944.99
397.97	1870.09
398.16	1874.77
398.35	2017.54
398.55	2186.06
398.74	2181.38
398.93	2181.38
399.12	2167.34
399.32	2115.84
399.51	2129.89
399.70	2403.73
399.90	2258.62
400.09	2218.83
400.28	2183.72
400.47	2190.74
400.67	2324.15
400.86	2382.67
401.05	2420.11
401.24	2459.90
401.44	2415.43
401.63	2394.37
401.82	2537.14
402.01	2434.16
402.21	2443.52
402.40	2492.67
402.59	2392.03
402.78	2438.84
402.97	2228.19
403.17	2361.60
403.36	2431.82
403.55	2588.63
403.74	2574.59
403.93	2530.12
404.13	2457.56
404.32	2420.11
404.51	2366.28
404.70	2593.31
404.89	2520.76
405.09	2506.71
405.28	2382.67
405.47	2396.71
405.66	2347.56
405.85	2303.09
406.05	2326.49
406.24	2356.92
406.43	2497.35
406.62	2462.24
406.81	2462.24
407.00	2518.42
407.20	2368.62
407.39	2471.61
407.58	2590.97
407.77	2513.74
407.96	2607.36
408.15	2698.64
408.34	2597.99
408.54	2782.90
408.73	2771.19
408.92	2801.62
409.11	2663.53
409.30	2579.27
409.49	2448.20
409.68	2345.22
409.87	2263.30
410.07	2211.81
410.26	2434.16
410.45	2483.31
410.64	2672.89
410.83	2752.47
411.02	2750.13
411.21	2960.78
411.40	2848.43
411.59	2935.03
411.78	2918.65
411.98	2813.32
412.17	2953.76
412.36	2813.32
412.55	2808.64
412.74	2860.13
412.93	2738.43
413.12	2782.90
413.31	3021.63
413.50	2974.82
413.69	3075.46
413.88	3073.12
414.07	2946.73
414.26	2869.50
414.45	3110.57
414.64	2963.12
414.83	3063.76
415.02	2995.89
415.22	3012.27
415.41	3131.64
415.60	3141.00
415.79	3262.71
415.98	3478.04
416.17	3295.47
416.36	3253.34
416.55	3253.34
416.74	3112.91
416.93	3075.46
417.12	2916.31
417.31	3082.49
417.50	3119.93
417.69	3187.81
417.88	3204.19
418.07	3124.62
418.26	3178.45
418.45	3131.64
418.64	3309.52
418.83	3410.16
419.02	3342.28
419.21	3265.05
419.39	3030.99
419.58	3131.64
419.77	2984.18
419.96	3007.59
420.15	3309.52
420.34	3288.45
420.53	3534.21
420.72	3606.77
420.91	3407.82
421.10	3515.48
421.29	3407.82
421.48	3267.39
421.67	3492.08
421.86	3461.65
422.05	3253.34
422.24	2836.73
422.43	2829.71
422.61	3075.46
422.80	3421.86
422.99	3302.50
423.18	3204.19
423.37	3251.00
423.56	3197.17
423.75	3279.09
423.94	3300.16
424.13	3199.51
424.32	3166.74
424.50	3267.39
424.69	3152.70
424.88	3143.34
425.07	3098.87
425.26	3173.77
425.45	3255.69
425.64	2916.31
425.83	3091.85
426.01	3208.87
426.20	3304.84
426.39	3173.77
426.58	3190.15
426.77	2892.90
426.96	2764.17
427.15	2850.77
427.33	3094.19
427.52	3150.36
427.71	3047.38
427.90	3265.05
428.09	3040.36
428.28	3035.67
428.46	3014.61
428.65	2860.13
428.84	3035.67
429.03	3096.53
429.22	2846.09
429.40	2806.30
429.59	2502.03
429.78	2424.80
429.97	2277.34
430.16	2216.49
430.34	2298.41
430.53	2326.49
430.72	2317.13
430.91	2581.61
431.10	2942.05
431.28	3471.01
431.47	3602.08
431.66	3653.58
431.85	3524.85
432.03	3159.72
432.22	3047.38
432.41	3155.04
432.60	3375.05
432.79	3627.83
432.97	3740.18
433.16	3562.30
433.35	3314.20
433.54	3089.51
433.72	2878.86
433.91	3009.93
434.10	3197.17
434.28	3468.67
434.47	3496.76
434.66	3655.92
434.85	3393.78
435.03	3559.95
435.22	4142.75
435.41	4706.82
435.59	4685.75
435.78	4339.35
435.97	4149.77
436.16	3880.61
436.34	3810.39
436.53	3794.01
436.72	3772.94
436.90	3552.93
437.09	3641.87
437.28	3435.91
437.46	3590.38
437.65	3613.79
437.84	3438.25
438.02	3145.68
438.21	3108.23
438.40	3246.32
438.58	3468.67
438.77	3674.64
438.96	3625.49
439.14	3819.75
439.33	3896.99
439.52	3824.44
439.70	3836.14
439.89	3749.54
440.08	3726.13
440.26	3691.02
440.45	3845.50
440.63	4004.66
440.82	4060.83
441.01	4138.07
441.19	4051.47
441.38	4124.02
441.57	4325.31
441.75	4339.35
441.94	4393.19
442.12	4290.20
442.31	4491.49
442.50	4374.46
442.68	4470.42
442.87	4393.19
443.05	4236.37
443.24	4468.08
443.43	4503.19
443.61	4585.11
443.80	4407.23
443.98	4320.63
444.17	4252.75
444.35	4435.32
444.54	4461.06
444.73	4589.79
444.91	4430.63
445.10	4175.52
445.28	4138.07
445.47	3925.08
445.65	4035.08
445.84	4070.19
446.02	4322.97
446.21	4271.48
446.39	4315.95
446.58	4360.42
446.77	4524.26
446.95	4451.70
447.14	4599.15
447.32	4662.35
447.51	4458.72
447.69	4512.55
447.88	4114.66
448.06	4482.13
448.25	4498.51
448.43	4547.66
448.62	4374.46
448.80	4503.19
448.99	4418.93
449.17	4437.66
449.36	4367.44
449.54	4652.98
449.73	4667.03
449.91	4669.37
450.10	4828.53
450.28	5041.51
450.46	4884.70
450.65	4924.49
450.83	4896.40
451.02	4695.11
451.20	4819.16
451.39	4713.84
451.57	4919.81
451.76	4622.56
451.94	4795.76
452.13	4774.69
452.31	4482.13
452.49	4325.31
452.68	4404.89
452.86	4170.83
453.05	4325.31
453.23	4432.97
453.42	4526.60
453.60	4681.07
453.78	4695.11
453.97	4655.33
454.15	4585.11
454.34	4517.23
454.52	4730.22
454.70	4514.89
454.89	4599.15
455.07	4477.44
455.26	4547.66
455.44	4711.50
455.62	4847.25
455.81	4936.19
455.99	4786.40
456.17	4844.91
456.36	4739.58
456.54	4821.50
456.73	4971.30
456.91	5071.94
457.09	5167.90
457.28	5179.61
457.46	4793.42
457.64	4898.74
457.83	4791.08
458.01	4601.49
458.19	4812.14
458.38	4709.16
458.56	4966.62
458.74	4802.78
458.93	4760.65
459.11	4697.46
459.29	4798.10
459.48	4844.91
459.66	4882.36
459.84	5022.79
460.03	5018.11
460.21	4840.23
460.39	4896.40
460.57	5069.60
460.76	5160.88
460.94	5078.96
461.12	5053.22
461.31	5102.37
461.49	4908.10
461.67	5043.85
461.85	5184.29
462.04	5156.20
462.22	5706.23
462.40	5104.71
462.59	5165.56
462.77	5039.17
462.95	5036.83
463.13	4945.55
463.32	5020.45
463.50	4983.00
463.68	4954.91
463.86	5076.62
464.05	4877.68
464.23	5050.88
464.41	4887.04
464.59	4734.90
464.78	4959.60
464.96	4793.42
465.14	5055.56
465.32	4992.36
465.50	5144.50
465.69	5231.10
465.87	5097.69
466.05	4992.36
466.23	4882.36
466.41	4711.50
466.60	4840.23
466.78	4641.28
466.96	4751.29
467.14	4908.10
467.32	5217.05
467.51	5027.47
467.69	4657.67
467.87	4880.02
468.05	5062.58
468.23	4957.25
468.41	5013.43
468.60	4980.66
468.78	5020.45
468.96	4964.28
469.14	5046.20
469.32	4990.02
469.50	4762.99
469.69	4938.53
469.87	4744.27
470.05	4725.54
470.23	4905.76
470.41	4802.78
470.59	5085.98
470.77	4835.55
470.95	4990.02
471.14	5020.45
471.32	4887.04
471.50	5366.85
471.68	5317.70
471.86	5343.44
472.04	5406.64
472.22	5528.35
472.40	5181.95
472.58	5132.79
472.77	5165.56
472.95	5107.05
473.13	5448.77
473.31	5298.97
473.49	5214.71
473.67	5268.55
473.85	5329.40
474.03	5387.91
474.21	5289.61
474.39	5568.13
474.57	5563.45
474.75	5350.46
474.93	5556.43
475.12	5380.89
475.30	5394.93
475.48	5277.91
475.66	5533.03
475.84	5385.57
476.02	5507.28
476.20	5198.33
476.38	5390.25
476.56	5689.84
476.74	5556.43
476.92	5551.75
477.10	5811.55
477.28	5703.89
477.46	5872.40
477.64	5977.73
477.82	5804.53
478.00	5947.30
478.18	5973.05
478.36	5928.58
478.54	5898.15
478.72	5923.90
478.90	5982.41
479.08	6223.48
479.26	6167.31
479.44	6237.53
479.62	6361.58
479.80	6228.17
479.98	6211.78
480.16	6202.42
480.34	6420.09
480.52	6310.08
480.70	6237.53
480.88	6326.47
481.06	6518.39
481.24	6471.58
481.41	6719.68
481.59	6740.74
481.77	6815.64
481.95	6670.53
482.13	6558.18
482.31	6700.95
482.49	6841.39
482.67	6981.82
482.85	6548.82
483.03	6853.09
483.21	6839.05
483.39	6892.88
483.57	6813.30
483.74	6885.86
483.92	6850.75
484.10	7063.74
484.28	7129.27
484.46	7103.53
484.64	7157.36
484.82	6853.09
485.00	6822.66
485.18	6691.59
485.35	6572.22
485.53	6160.29
485.71	5874.74
485.89	5533.03
486.07	5650.05
486.25	6258.59
486.43	6558.18
486.61	6729.04
486.78	6813.30
486.96	6885.86
487.14	7180.76
487.32	7265.02
487.50	7419.50
487.68	7581.00
487.85	7723.77
488.03	7588.02
488.21	7470.99
488.39	7410.14
488.57	7290.77
488.75	7089.48
488.92	7843.14
489.10	7976.55
489.28	8332.31
489.46	8465.72
489.64	8243.37
489.81	8404.86
489.99	8437.63
490.17	8283.16
490.35	8458.70
490.53	8390.82
490.70	8292.52
490.88	8243.37
491.06	8301.88
491.24	8540.61
491.41	8152.09
491.59	7974.21
491.77	7744.83
491.95	7857.18
492.13	8301.88
492.30	8369.76
492.48	8608.49
492.66	8685.73
492.84	8746.58
493.01	8697.43
493.19	8517.21
493.37	8564.02
493.54	8402.52
493.72	8491.46
493.90	8858.93
494.08	8924.46
494.25	9165.54
494.43	9191.28
494.61	9364.48
494.79	9458.10
494.96	9380.87
495.14	9191.28
495.32	8898.72
495.49	8828.50
495.67	9146.81
495.85	9591.52
496.02	9577.47
496.20	9434.70
496.38	9198.31
496.55	9387.89
496.73	9343.42
496.91	9544.70
497.09	9570.45
497.26	9781.10
497.44	9762.37
497.62	9542.36
497.79	9266.18
497.97	8767.65
498.14	8950.21
498.32	9076.60
498.50	9518.96
498.67	9647.69
498.85	9806.84
499.03	9659.39
499.20	9809.19
499.38	9743.65
499.56	9640.67
499.73	9579.81
499.91	9420.66
500.08	9270.86
500.26	8954.89
500.44	9116.39
500.61	9432.36
500.79	9397.25
500.97	9254.48
501.14	9195.96
501.32	9100.00
501.49	9008.72
501.67	8847.22
501.84	9198.31
502.02	9507.26
502.20	9366.82
502.37	9558.75
502.55	9392.57
502.72	9565.77
502.90	9575.13
503.07	9518.96
503.25	9467.47
503.43	9032.13
503.60	8891.70
503.78	8669.34
503.95	8723.18
504.13	9188.94
504.30	9654.71
504.48	9577.47
504.65	9565.77
504.83	9570.45
505.01	9717.90
505.18	9542.36
505.36	9886.42
505.53	9804.50
505.71	9888.76
505.88	10251.55
506.06	10101.75
506.23	10059.62
506.41	9717.90
506.58	9802.16
506.76	9628.96
506.93	9696.84
507.11	9586.83
507.28	9748.33
507.46	9523.64
507.63	9296.61
507.81	9298.95
507.98	9301.29
508.16	9582.15
508.33	9753.01
508.50	9942.60
508.68	9916.85
508.85	10244.52
509.03	10249.21
509.20	10415.38
509.38	10083.03
509.55	9802.16
509.73	9788.12
509.90	9966.00
510.08	10111.11
510.25	10284.31
510.42	9956.64
510.60	9984.73
510.77	10052.60
510.95	10097.07
511.12	10319.42
511.30	10340.49
511.47	10789.87
511.64	10853.06
511.82	10380.28
511.99	10195.37
512.17	10104.09
512.34	9895.78
512.51	9813.87
512.69	10024.51
512.86	10068.98
513.04	10190.69
513.21	10300.70
513.38	10171.97
513.56	9902.81
513.73	9743.65
513.90	9745.99
514.08	9703.86
514.25	9797.48
514.43	9933.23
514.60	9937.91
514.77	10008.13
514.95	10190.69
515.12	10085.37
515.29	10090.05
515.47	10284.31
515.64	10413.04
515.81	10202.40
515.99	10015.15
516.16	9736.63
516.33	8943.19
516.51	8428.27
516.68	8404.86
516.85	8327.63
517.03	8138.04
517.20	8795.73
517.37	9685.14
517.54	9837.27
517.72	10029.20
517.89	9284.91
518.06	8582.74
518.24	8599.13
518.41	9076.60
518.58	9561.09
518.75	9748.33
518.93	9628.96
519.10	9490.87
519.27	9804.50
519.45	10080.69
519.62	10228.14
519.79	10274.95
519.96	10188.35
520.14	9984.73
520.31	9741.31
520.48	9701.52
520.65	10019.83
520.83	10281.97
521.00	10286.65
521.17	10270.27
521.34	10204.74
521.52	10207.08
521.69	10441.13
521.86	10651.78
522.03	10530.07
522.20	10094.73
522.38	9834.93
522.55	9509.60
522.72	9860.68
522.89	9982.38
523.07	10204.74
523.24	9912.17
523.41	10450.49
523.58	10277.29
523.75	10480.92
523.92	10745.40
524.10	10609.65
524.27	10832.00
524.44	10616.67
524.61	10501.98
524.78	10457.51
524.96	10291.34
525.13	10359.21
525.30	10466.88
525.47	10693.91
525.64	10516.03
525.81	10614.33
525.98	9914.51
526.16	9551.73
526.33	9207.67
526.50	9048.51
526.67	9004.04
526.84	9128.09
527.01	9296.61
527.18	9731.95
527.36	9928.55
527.53	10340.49
527.70	10464.54
527.87	10485.60
528.04	10347.51
528.21	10129.84
528.38	10487.94
528.55	10707.95
528.72	10780.51
528.89	10881.15
529.07	10815.62
529.24	10555.82
529.41	10349.85
529.58	10094.73
529.75	10249.21
529.92	10211.76
530.09	10537.09
530.26	10740.72
530.43	10745.40
530.60	10743.06
530.77	10878.81
530.94	10881.15
531.11	10848.38
531.28	10661.14
531.46	10422.41
531.63	10621.35
531.80	10473.90
531.97	10413.04
532.14	10171.97
532.31	9806.84
532.48	9699.18
532.65	9678.12
532.82	9804.50
532.99	10122.82
533.16	10387.30
533.33	10619.01
533.50	10609.65
533.67	10312.40
533.84	10104.09
534.01	9900.47
534.18	10270.27
534.35	10221.12
534.52	10202.40
534.69	10602.63
534.86	10590.92
535.03	10590.92
535.20	10700.93
535.37	10860.09
535.54	10899.87
535.71	10717.31
535.88	10895.19
536.05	10647.10
536.22	10579.22
536.38	10139.20
536.55	9987.07
536.72	9680.46
536.89	9851.31
537.06	10071.33
537.23	10485.60
537.40	10551.14
537.57	10567.52
537.74	10581.56
537.91	10523.05
538.08	10366.23
538.25	10380.28
538.42	10539.43
538.59	10679.86
538.75	10373.25
538.92	10178.99
539.09	10111.11
539.26	10059.62
539.43	10010.47
539.60	9994.09
539.77	10120.48
539.94	10286.65
540.11	9951.96
540.28	9694.50
540.44	9848.97
540.61	9832.59
540.78	9909.83
540.95	10354.53
541.12	10279.63
541.29	10490.28
541.46	10764.12
541.62	10581.56
541.79	10745.40
541.96	10492.62
542.13	10359.21
542.30	10548.79
542.47	10738.38
542.63	10583.90
542.80	10483.26
542.97	10289.00
543.14	10296.02
543.31	10263.25
543.48	10391.98
543.64	10864.77
543.81	10829.66
543.98	11063.71
544.15	10565.18
544.32	10668.16
544.48	10457.51
544.65	10509.01
544.82	10759.44
544.99	10846.04
545.16	10586.24
545.32	10436.45
545.49	11342.24
545.66	11960.14
545.83	12264.41
546.00	11587.99
546.16	10972.43
546.33	10782.85
546.50	10579.22
546.67	10672.84
546.83	10326.44
547.00	10228.14
547.17	10237.50
547.34	10104.09
547.50	10015.15
547.67	10211.76
547.84	10022.17
548.00	10167.29
548.17	10457.51
548.34	10296.02
548.51	10258.57
548.67	10270.27
548.84	10520.71
549.01	10277.29
549.18	10406.02
549.34	10207.08
549.51	10115.80
549.68	10167.29
549.84	10078.35
550.01	10017.49
550.18	10207.08
550.34	10054.94
550.51	10092.39
550.68	9907.49
550.84	9804.50
551.01	9961.32
551.18	9961.32
551.34	10113.45
551.51	10012.81
551.68	10338.15
551.84	10237.50
552.01	10047.92
552.18	10218.78
552.34	9977.70
552.51	9600.88
552.68	9495.55
552.84	9657.05
553.01	9631.30
553.18	9898.13
553.34	9785.78
553.51	10118.14
553.67	10040.90
553.84	9937.91
554.01	9825.57
554.17	10033.88
554.34	9818.55
554.51	9783.44
554.67	10190.69
554.84	10061.96
555.00	9966.00
555.17	9891.10
555.33	9919.19
555.50	9893.44
555.67	9689.82
555.83	9619.60
556.00	9696.84
556.16	9872.38
556.33	9586.83
556.50	9188.94
556.66	9420.66
556.83	9462.79
556.99	9312.99
557.16	9423.00
557.32	9469.81
557.49	9696.84
557.65	9535.34
557.82	9563.43
557.98	9575.13
558.15	9500.23
558.32	9188.94
558.48	9060.21
558.65	8959.57
558.81	9048.51
558.98	9020.42
559.14	9034.47
559.31	9064.89
559.47	9224.05
559.64	9254.48
559.80	8966.59
559.97	8971.27
560.13	9160.86
560.30	9465.13
560.46	9610.24
560.63	9771.74
560.79	9776.42
560.96	9696.84
561.12	9341.08
561.29	8959.57
561.45	9123.41
561.61	9011.06
561.78	9294.27
561.94	9212.35
562.11	9369.16
562.27	9242.78
562.44	9226.39
562.60	9497.89
562.77	9355.12
562.93	9357.46
563.10	9502.58
563.26	9455.76
563.42	9418.32
563.59	9242.78
563.75	9184.26
563.92	9266.18
564.08	9078.94
564.24	9198.31
564.41	9249.80
564.57	9373.85
564.74	8980.64
564.90	9092.98
565.07	9191.28
565.23	8966.59
565.39	8826.16
565.56	8734.88
565.72	8470.40
565.88	8615.51
566.05	8690.41
566.21	8819.14
566.38	8936.17
566.54	9125.75
566.70	9055.53
566.87	9261.50
567.03	8929.14
567.19	9015.74
567.36	8849.57
567.52	9001.70
567.68	8863.61
567.85	8755.94
568.01	8315.92
568.17	8318.26
568.34	8243.37
568.50	8173.15
568.66	8013.99
568.83	8327.63
568.99	8301.88
569.15	8327.63
569.32	8477.42
569.48	8294.86
569.64	8177.83
569.81	8348.69
569.97	8170.81
570.13	8381.46
570.30	8201.24
570.46	8159.11
570.62	8081.87
570.78	7822.07
570.95	7939.10
571.11	8126.34
571.27	8039.74
571.43	8093.57
571.60	8395.50
571.76	8465.72
571.92	8344.01
572.09	8519.55
572.25	8496.14
572.41	8505.51
572.57	8379.12
572.74	8273.79
572.90	8280.82
573.06	8257.41
573.22	8255.07
573.38	8252.73
573.55	8329.97
573.71	8589.77
573.87	8430.61
574.03	8325.29
574.20	8203.58
574.36	8119.32
574.52	8091.23
574.68	8042.08
574.84	8182.51
575.01	7777.60
575.17	7805.69
575.33	7871.22
575.49	8131.02
575.65	8091.23
575.82	8025.70
575.98	7932.08
576.14	8175.49
576.30	8231.66
576.46	8521.89
576.62	8376.78
576.79	8252.73
576.95	8180.17
577.11	8112.30
577.27	8145.06
577.43	8306.56
577.59	8219.96
577.75	7906.33
577.92	7815.05
578.08	7620.78
578.24	7723.77
578.40	7887.61
578.56	8208.26
578.72	8449.33
578.88	8468.06
579.04	8306.56
579.21	8161.45
579.37	8145.06
579.53	8149.75
579.69	8184.85
579.85	8262.09
580.01	8226.98
580.17	8191.88
580.33	7922.71
580.49	8156.77
580.65	8016.33
580.82	8107.62
580.98	8411.89
581.14	8208.26
581.30	8212.94
581.46	8065.49
581.62	8325.29
581.78	8456.36
581.94	8201.24
582.10	8308.90
582.26	8285.50
582.42	8372.10
582.58	8365.07
582.74	8161.45
582.90	8215.28
583.06	8428.27
583.22	8184.85
583.38	8189.53
583.54	8269.11
583.70	8154.43
583.86	8168.47
584.02	8388.48
584.18	8252.73
584.34	8177.83
584.50	8344.01
584.66	8194.22
584.82	7927.39
584.98	8229.32
585.14	7925.05
585.30	7747.17
585.46	7583.34
585.62	7562.27
585.78	7763.56
585.94	7660.57
586.10	7852.50
586.26	7894.63
586.42	7927.39
586.58	7826.75
586.74	7880.58
586.90	7878.24
587.06	7791.64
587.22	7749.51
587.38	7843.14
587.54	7548.23
587.70	7295.45
587.86	7056.72
588.02	6913.94
588.18	6789.89
588.34	6703.29
588.49	6136.88
588.65	5589.20
588.81	5575.16
588.97	5795.17
589.13	5717.93
589.29	5659.42
589.45	5518.98
589.61	5830.27
589.77	5797.51
589.93	6207.10
590.08	6389.66
590.24	6586.27
590.40	6715.00
590.56	6581.59
590.72	6368.60
590.88	6492.65
591.04	6396.68
591.20	6502.01
591.35	6502.01
591.51	6375.62
591.67	6244.55
591.83	6157.95
591.99	6368.60
592.15	6431.79
592.31	6595.63
592.46	6871.81
592.62	6878.83
592.78	6780.53
592.94	6663.51
593.10	6981.82
593.26	7009.90
593.41	7073.10
593.57	7152.68
593.73	6686.91
593.89	6377.96
594.05	6277.32
594.20	5989.43
594.36	6111.14
594.52	6022.20
594.68	5912.19
594.84	6263.27
594.99	6499.67
595.15	6707.98
