SpectraSuite Data File
++++++++++++++++++++++++++++++++++++
Date: Fri Oct 04 11:44:27 GMT-05:00 2013
User: price-jones
Dark Spectrum Present: No
Reference Spectrum Present: No
Number of Sampled Component Spectra: 1
Spectrometers: USB2+H05261
Integration Time (usec): 100000 (USB2+H05261)
Spectra Averaged: 1 (USB2+H05261)
Boxcar Smoothing: 0 (USB2+H05261)
Correct for Electrical Dark: No (USB2+H05261)
Strobe/Lamp Enabled: No (USB2+H05261)
Correct for Detector Non-linearity: No (USB2+H05261)
Correct for Stray Light: No (USB2+H05261)
Number of Pixels in Processed Spectrum: 2048
>>>>>Begin Processed Spectral Data<<<<<
365.73	0.00
365.92	0.00
366.12	0.00
366.32	0.00
366.52	0.00
366.72	0.00
366.91	0.00
367.11	0.00
367.31	0.00
367.51	0.00
367.70	0.00
367.90	0.00
368.10	0.00
368.30	0.00
368.49	0.00
368.69	0.00
368.89	0.00
369.09	0.00
369.28	0.00
369.48	0.00
369.68	0.00
369.87	4.68
370.07	0.00
370.27	72.56
370.47	49.15
370.66	117.03
370.86	154.48
371.06	166.18
371.25	205.97
371.45	170.86
371.65	152.13
371.84	131.07
372.04	156.82
372.24	255.12
372.44	138.09
372.63	198.95
372.83	217.67
373.03	184.90
373.22	205.97
373.42	196.60
373.62	208.31
373.81	184.90
374.01	229.37
374.21	248.10
374.40	161.50
374.60	278.52
374.79	224.69
374.99	252.78
375.19	283.20
375.38	301.93
375.58	348.74
375.78	250.44
375.97	224.69
376.17	313.63
376.37	191.92
376.56	266.82
376.76	287.89
376.95	241.08
377.15	315.97
377.35	308.95
377.54	322.99
377.74	360.44
377.93	224.69
378.13	264.48
378.33	236.39
378.52	294.91
378.72	318.31
378.91	273.84
379.11	210.65
379.31	210.65
379.50	159.16
379.70	294.91
379.89	330.02
380.09	234.05
380.28	234.05
380.48	273.84
380.68	294.91
380.87	224.69
381.07	238.73
381.26	255.12
381.46	271.50
381.65	231.71
381.85	173.20
382.04	273.84
382.24	212.99
382.43	241.08
382.63	182.56
382.83	191.92
383.02	285.55
383.22	266.82
383.41	180.22
383.61	194.26
383.80	177.88
384.00	276.18
384.19	220.01
384.39	250.44
384.58	236.39
384.78	259.80
384.97	292.57
385.17	327.68
385.36	290.23
385.56	276.18
385.75	191.92
385.95	196.60
386.14	212.99
386.34	224.69
386.53	220.01
386.72	259.80
386.92	311.29
387.11	280.86
387.31	367.46
387.50	287.89
387.70	337.04
387.89	304.27
388.09	283.20
388.28	236.39
388.48	308.95
388.67	252.78
388.86	299.59
389.06	313.63
389.25	428.32
389.45	362.78
389.64	346.40
389.84	381.51
390.03	407.25
390.22	271.50
390.42	374.49
390.61	243.42
390.81	306.61
391.00	425.98
391.19	325.33
391.39	334.70
391.58	393.21
391.78	255.12
391.97	299.59
392.16	287.89
392.36	325.33
392.55	280.86
392.75	236.39
392.94	184.90
393.13	250.44
393.33	208.31
393.52	194.26
393.71	266.82
393.91	339.38
394.10	292.57
394.29	322.99
394.49	360.44
394.68	360.44
394.88	404.91
395.07	430.66
395.26	372.15
395.46	351.08
395.65	395.55
395.84	358.10
396.04	374.49
396.23	257.46
396.42	177.88
396.62	215.33
396.81	259.80
397.00	339.38
397.19	339.38
397.39	381.51
397.58	482.15
397.77	468.11
397.97	362.78
398.16	362.78
398.35	545.34
398.55	477.47
398.74	510.24
398.93	507.90
399.12	437.68
399.32	519.60
399.51	519.60
399.70	505.56
399.90	521.94
400.09	514.92
400.28	528.96
400.47	573.43
400.67	606.20
400.86	500.87
401.05	557.05
401.24	552.37
401.44	564.07
401.63	521.94
401.82	510.24
402.01	610.88
402.21	678.76
402.40	540.66
402.59	514.92
402.78	547.69
402.97	507.90
403.17	507.90
403.36	559.39
403.55	533.64
403.74	594.50
403.93	634.29
404.13	596.84
404.32	519.60
404.51	571.09
404.70	561.73
404.89	547.69
405.09	589.82
405.28	550.03
405.47	493.85
405.66	486.83
405.85	498.53
406.05	512.58
406.24	571.09
406.43	610.88
406.62	603.86
406.81	603.86
407.00	575.77
407.20	491.51
407.39	585.13
407.58	585.13
407.77	678.76
407.96	573.43
408.15	601.52
408.34	695.14
408.54	564.07
408.73	582.79
408.92	601.52
409.11	667.05
409.30	613.22
409.49	498.53
409.68	507.90
409.87	472.79
410.07	505.56
410.26	575.77
410.45	566.41
410.64	615.56
410.83	629.60
411.02	662.37
411.21	636.63
411.40	662.37
411.59	697.48
411.78	622.58
411.98	699.82
412.17	641.31
412.36	596.84
412.55	655.35
412.74	575.77
412.93	657.69
413.12	622.58
413.31	645.99
413.50	681.10
413.69	706.84
413.88	711.52
414.07	727.91
414.26	645.99
414.45	704.50
414.64	737.27
414.83	636.63
415.02	653.01
415.22	753.65
415.41	713.86
415.60	641.31
415.79	734.93
415.98	748.97
416.17	744.29
416.36	744.29
416.55	709.18
416.74	709.18
416.93	695.14
417.12	657.69
417.31	674.07
417.50	655.35
417.69	753.65
417.88	741.95
418.07	655.35
418.26	664.71
418.45	751.31
418.64	713.86
418.83	767.70
419.02	751.31
419.21	697.48
419.39	653.01
419.58	704.50
419.77	711.52
419.96	751.31
420.15	793.44
420.34	706.84
420.53	791.10
420.72	809.83
420.91	751.31
421.10	777.06
421.29	688.12
421.48	718.54
421.67	706.84
421.86	709.18
422.05	730.25
422.24	699.82
422.43	631.94
422.61	716.20
422.80	678.76
422.99	683.44
423.18	725.57
423.37	720.88
423.56	711.52
423.75	734.93
423.94	711.52
424.13	737.27
424.32	660.03
424.50	638.97
424.69	662.37
424.88	760.67
425.07	664.71
425.26	676.41
425.45	580.45
425.64	631.94
425.83	573.43
426.01	767.70
426.20	713.86
426.39	765.36
426.58	638.97
426.77	655.35
426.96	671.73
427.15	713.86
427.33	603.86
427.52	704.50
427.71	629.60
427.90	734.93
428.09	718.54
428.28	674.07
428.46	674.07
428.65	615.56
428.84	683.44
429.03	692.80
429.22	683.44
429.40	695.14
429.59	512.58
429.78	629.60
429.97	535.98
430.16	482.15
430.34	575.77
430.53	521.94
430.72	550.03
430.91	641.31
431.10	596.84
431.28	744.29
431.47	837.91
431.66	802.80
431.85	758.33
432.03	739.61
432.22	737.27
432.41	713.86
432.60	758.33
432.79	774.72
432.97	919.83
433.16	784.08
433.35	781.74
433.54	622.58
433.72	683.44
433.91	716.20
434.10	720.88
434.28	730.25
434.47	767.70
434.66	793.44
434.85	805.14
435.03	763.01
435.22	997.07
435.41	1116.44
435.59	1158.57
435.78	1074.31
435.97	856.64
436.16	917.49
436.34	919.83
436.53	795.78
436.72	861.32
436.90	770.04
437.09	770.04
437.28	746.63
437.46	819.19
437.65	826.21
437.84	763.01
438.02	671.73
438.21	660.03
438.40	709.18
438.58	826.21
438.77	837.91
438.96	758.33
439.14	854.30
439.33	889.40
439.52	891.74
439.70	793.44
439.89	791.10
440.08	816.85
440.26	835.57
440.45	760.67
440.63	924.51
440.82	901.11
441.01	945.58
441.19	863.66
441.38	877.70
441.57	868.34
441.75	1046.22
441.94	952.60
442.12	903.45
442.31	898.77
442.50	908.13
442.68	952.60
442.87	961.96
443.05	912.81
443.24	924.51
443.43	910.47
443.61	1083.67
443.80	959.62
443.98	858.98
444.17	929.19
444.35	1008.77
444.54	968.98
444.73	1018.13
444.91	910.47
445.10	866.00
445.28	819.19
445.47	844.93
445.65	891.74
445.84	990.05
446.02	973.66
446.21	924.51
446.39	875.36
446.58	908.13
446.77	936.21
446.95	971.32
447.14	968.98
447.32	959.62
447.51	987.71
447.69	917.49
447.88	990.05
448.06	1006.43
448.25	1067.28
448.43	1013.45
448.62	908.13
448.80	983.02
448.99	961.96
449.17	936.21
449.36	926.85
449.54	1076.65
449.73	952.60
449.91	1020.47
450.10	1036.86
450.28	1167.93
450.46	1071.97
450.65	1067.28
450.83	1027.50
451.02	978.34
451.20	992.39
451.39	917.49
451.57	983.02
451.76	968.98
451.94	971.32
452.13	1041.54
452.31	880.04
452.49	926.85
452.68	940.90
452.86	1008.77
453.05	997.07
453.23	1025.15
453.42	978.34
453.60	1001.75
453.78	1041.54
453.97	964.30
454.15	1064.94
454.34	952.60
454.52	990.05
454.70	994.73
454.89	959.62
455.07	983.02
455.26	964.30
455.44	983.02
455.62	990.05
455.81	1036.86
455.99	1146.86
456.17	1048.56
456.36	990.05
456.54	1104.73
456.73	1027.50
456.91	1053.24
457.09	1083.67
457.28	1048.56
457.46	1139.84
457.64	1109.41
457.83	1104.73
458.01	1039.20
458.19	1111.75
458.38	990.05
458.56	1074.31
458.74	983.02
458.93	1050.90
459.11	1048.56
459.29	1034.52
459.48	1118.78
459.66	1062.60
459.84	990.05
460.03	1086.01
460.21	1027.50
460.39	1095.37
460.57	1121.12
460.76	1048.56
460.94	1116.44
461.12	987.71
461.31	1069.62
461.49	1071.97
461.67	1088.35
461.85	1088.35
462.04	1125.80
462.22	1544.75
462.40	1097.71
462.59	1114.10
462.77	1062.60
462.95	1146.86
463.13	1116.44
463.32	1081.33
463.50	1102.39
463.68	1102.39
463.86	1083.67
464.05	1142.18
464.23	1048.56
464.41	1088.35
464.59	971.32
464.78	1078.99
464.96	1107.07
465.14	1139.84
465.32	1062.60
465.50	1069.62
465.69	1160.91
465.87	1130.48
466.05	1048.56
466.23	1078.99
466.41	1046.22
466.60	1013.45
466.78	1034.52
466.96	1006.43
467.14	1078.99
467.32	1142.18
467.51	1107.07
467.69	1055.58
467.87	1128.14
468.05	1050.90
468.23	999.41
468.41	1055.58
468.60	1064.94
468.78	1100.05
468.96	1071.97
469.14	1184.31
469.32	1039.20
469.50	1041.54
469.69	1139.84
469.87	1025.15
470.05	1053.24
470.23	1069.62
470.41	1055.58
470.59	1022.81
470.77	1067.28
470.95	1041.54
471.14	1086.01
471.32	1104.73
471.50	1217.08
471.68	1151.54
471.86	1121.12
472.04	1198.35
472.22	1170.27
472.40	1053.24
472.58	1081.33
472.77	1053.24
472.95	1156.22
473.13	1128.14
473.31	1128.14
473.49	1128.14
473.67	1095.37
473.85	1149.20
474.03	1188.99
474.21	1074.31
474.39	1191.33
474.57	1263.89
474.75	1128.14
474.93	1109.41
475.12	1060.26
475.30	1184.31
475.48	1177.29
475.66	1083.67
475.84	1186.65
476.02	1053.24
476.20	1067.28
476.38	1146.86
476.56	1289.64
476.74	1240.48
476.92	1132.82
477.10	1217.08
477.28	1284.95
477.46	1172.61
477.64	1275.59
477.82	1327.08
478.00	1263.89
478.18	1240.48
478.36	1221.76
478.54	1231.12
478.72	1224.10
478.90	1301.34
479.08	1315.38
479.26	1366.87
479.44	1348.15
479.62	1345.81
479.80	1301.34
479.98	1338.79
480.16	1235.80
480.34	1369.21
480.52	1413.68
480.70	1348.15
480.88	1371.55
481.06	1362.19
481.24	1366.87
481.41	1336.45
481.59	1404.32
481.77	1465.18
481.95	1390.28
482.13	1392.62
482.31	1430.07
482.49	1390.28
482.67	1474.54
482.85	1409.00
483.03	1439.43
483.21	1469.86
483.39	1411.34
483.57	1423.05
483.74	1380.92
483.92	1530.71
484.10	1430.07
484.28	1570.50
484.46	1465.18
484.64	1383.26
484.82	1418.36
485.00	1439.43
485.18	1458.15
485.35	1406.66
485.53	1308.36
485.71	1221.76
485.89	1100.05
486.07	1259.21
486.25	1423.05
486.43	1441.77
486.61	1432.41
486.78	1476.88
486.96	1418.36
487.14	1483.90
487.32	1500.28
487.50	1626.67
487.68	1563.48
487.85	1671.14
488.03	1650.08
488.21	1643.06
488.39	1572.84
488.57	1519.01
488.75	1476.88
488.92	1949.67
489.10	1715.61
489.28	1827.96
489.46	1797.53
489.64	1654.76
489.81	1762.42
489.99	1753.06
490.17	1689.87
490.35	1760.08
490.53	1743.70
490.70	1750.72
490.88	1657.10
491.06	1755.40
491.24	1776.47
491.41	1764.76
491.59	1654.76
491.77	1640.72
491.95	1629.01
492.13	1643.06
492.30	1788.17
492.48	1844.34
492.66	1832.64
492.84	1933.28
493.01	1909.88
493.19	1797.53
493.37	1902.86
493.54	1825.62
493.72	1816.26
493.90	1863.07
494.08	1984.77
494.25	1942.64
494.43	1842.00
494.61	1937.96
494.79	1907.54
494.96	1982.43
495.14	1956.69
495.32	1851.36
495.49	1858.39
495.67	1870.09
495.85	1877.11
496.02	2069.03
496.20	1844.34
496.38	2052.65
496.55	1926.26
496.73	1888.81
496.91	1959.03
497.09	2038.61
497.26	2024.56
497.44	1998.82
497.62	2080.74
497.79	2012.86
497.97	1785.83
498.14	1844.34
498.32	1886.47
498.50	1994.14
498.67	1994.14
498.85	1975.41
499.03	2047.97
499.20	2026.90
499.38	2111.16
499.56	1998.82
499.73	2118.18
499.91	2010.52
500.08	1970.73
500.26	1827.96
500.44	1944.99
500.61	1935.62
500.79	2022.22
500.97	1984.77
501.14	1877.11
501.32	1937.96
501.49	1881.79
501.67	1846.68
501.84	1944.99
502.02	1994.14
502.20	1956.69
502.37	2010.52
502.55	2033.93
502.72	2050.31
502.90	2076.06
503.07	2071.37
503.25	1973.07
503.43	1895.83
503.60	1860.73
503.78	1851.36
503.95	1849.02
504.13	1809.23
504.30	2092.44
504.48	2001.16
504.65	1982.43
504.83	2085.42
505.01	2090.10
505.18	2066.69
505.36	2026.90
505.53	2050.31
505.71	2059.67
505.88	2118.18
506.06	2026.90
506.23	2019.88
506.41	2078.40
506.58	2132.23
506.76	2085.42
506.93	2071.37
507.11	2136.91
507.28	1998.82
507.46	1926.26
507.63	2069.03
507.81	2022.22
507.98	1944.99
508.16	2038.61
508.33	2146.27
508.50	2197.76
508.68	2001.16
508.85	2066.69
509.03	2176.70
509.20	2176.70
509.38	2223.51
509.55	2150.95
509.73	2040.95
509.90	2113.50
510.08	2160.31
510.25	2148.61
510.42	2069.03
510.60	2141.59
510.77	2097.12
510.95	2211.81
511.12	2153.29
511.30	2228.19
511.47	2267.98
511.64	2211.81
511.82	2221.17
511.99	2193.08
512.17	2174.36
512.34	2157.97
512.51	2047.97
512.69	2200.10
512.86	2132.23
513.04	2136.91
513.21	2078.40
513.38	2167.34
513.56	2047.97
513.73	2047.97
513.90	2087.76
514.08	2172.02
514.25	2197.76
514.43	2160.31
514.60	2064.35
514.77	2165.00
514.95	2176.70
515.12	2085.42
515.29	2246.91
515.47	2225.85
515.64	2195.42
515.81	2228.19
515.99	2251.60
516.16	2228.19
516.33	1923.92
516.51	1933.28
516.68	1732.00
516.85	1788.17
517.03	1664.12
517.20	1937.96
517.37	2235.21
517.54	2202.44
517.72	2136.91
517.89	2008.18
518.06	1788.17
518.24	1865.41
518.41	2003.50
518.58	2022.22
518.75	1970.73
518.93	2122.87
519.10	2050.31
519.27	2167.34
519.45	2069.03
519.62	2289.04
519.79	2303.09
519.96	2176.70
520.14	2085.42
520.31	2064.35
520.48	2101.80
520.65	2204.78
520.83	2415.43
521.00	2221.17
521.17	2298.41
521.34	2127.55
521.52	2209.47
521.69	2209.47
521.86	2359.26
522.03	2321.81
522.20	2183.72
522.38	2186.06
522.55	2150.95
522.72	2122.87
522.89	2225.85
523.07	2176.70
523.24	2289.04
523.41	2267.98
523.58	2319.47
523.75	2424.80
523.92	2429.48
524.10	2396.71
524.27	2310.11
524.44	2366.28
524.61	2485.65
524.78	2333.51
524.96	2195.42
525.13	2356.92
525.30	2270.32
525.47	2331.17
525.64	2366.28
525.81	2401.39
525.98	2399.05
526.16	2132.23
526.33	2036.27
526.50	2054.99
526.67	2047.97
526.84	1989.46
527.01	2097.12
527.18	2155.63
527.36	2169.68
527.53	2321.81
527.70	2286.70
527.87	2359.26
528.04	2298.41
528.21	2333.51
528.38	2389.69
528.55	2506.71
528.72	2464.58
528.89	2562.89
529.07	2396.71
529.24	2258.62
529.41	2396.71
529.58	2230.53
529.75	2338.20
529.92	2349.90
530.09	2242.23
530.26	2431.82
530.43	2509.05
530.60	2539.48
530.77	2480.97
530.94	2499.69
531.11	2370.96
531.28	2289.04
531.46	2438.84
531.63	2450.54
531.80	2478.63
531.97	2373.30
532.14	2284.36
532.31	2260.96
532.48	2172.02
532.65	2153.29
532.82	2167.34
532.99	2415.43
533.16	2317.13
533.33	2434.16
533.50	2450.54
533.67	2317.13
533.84	2300.75
534.01	2286.70
534.18	2448.20
534.35	2296.07
534.52	2356.92
534.69	2485.65
534.86	2380.32
535.03	2492.67
535.20	2555.86
535.37	2530.12
535.54	2649.49
535.71	2445.86
535.88	2502.03
536.05	2499.69
536.22	2396.71
536.38	2434.16
536.55	2424.80
536.72	2333.51
536.89	2165.00
537.06	2375.64
537.23	2525.44
537.40	2497.35
537.57	2361.60
537.74	2546.50
537.91	2352.24
538.08	2469.27
538.25	2485.65
538.42	2382.67
538.59	2502.03
538.75	2361.60
538.92	2237.55
539.09	2373.30
539.26	2303.09
539.43	2448.20
539.60	2361.60
539.77	2459.90
539.94	2373.30
540.11	2298.41
540.28	2363.94
540.44	2380.32
540.61	2387.35
540.78	2415.43
540.95	2420.11
541.12	2516.08
541.29	2684.59
541.46	2637.78
541.62	2677.57
541.79	2693.96
541.96	2565.23
542.13	2581.61
542.30	2586.29
542.47	2633.10
542.63	2497.35
542.80	2642.46
542.97	2499.69
543.14	2558.21
543.31	2462.24
543.48	2588.63
543.64	2715.02
543.81	2693.96
543.98	2658.85
544.15	2684.59
544.32	2546.50
544.48	2562.89
544.65	2670.55
544.82	2539.48
544.99	2583.95
545.16	2572.25
545.32	2583.95
545.49	2883.54
545.66	3246.32
545.83	3246.32
546.00	3091.85
546.16	2693.96
546.33	2698.64
546.50	2623.74
546.67	2605.02
546.83	2485.65
547.00	2448.20
547.17	2363.94
547.34	2415.43
547.50	2340.54
547.67	2448.20
547.84	2406.07
548.00	2525.44
548.17	2544.16
548.34	2532.46
548.51	2527.78
548.67	2574.59
548.84	2567.57
549.01	2502.03
549.18	2448.20
549.34	2466.92
549.51	2530.12
549.68	2473.95
549.84	2356.92
550.01	2401.39
550.18	2480.97
550.34	2408.41
550.51	2399.05
550.68	2331.17
550.84	2307.77
551.01	2413.09
551.18	2382.67
551.34	2349.90
551.51	2359.26
551.68	2450.54
551.84	2497.35
552.01	2382.67
552.18	2452.88
552.34	2380.32
552.51	2211.81
552.68	2286.70
552.84	2361.60
553.01	2338.20
553.18	2441.18
553.34	2251.60
553.51	2225.85
553.67	2448.20
553.84	2532.46
554.01	2448.20
554.17	2354.58
554.34	2284.36
554.51	2328.83
554.67	2548.84
554.84	2455.22
555.00	2445.86
555.17	2403.73
555.33	2244.57
555.50	2417.77
555.67	2338.20
555.83	2289.04
556.00	2340.54
556.16	2443.52
556.33	2333.51
556.50	2150.95
556.66	2298.41
556.83	2211.81
556.99	2190.74
557.16	2155.63
557.32	2157.97
557.49	2246.91
557.65	2342.88
557.82	2328.83
557.98	2258.62
558.15	2279.68
558.32	2148.61
558.48	2129.89
558.65	2113.50
558.81	2143.93
558.98	2064.35
559.14	2218.83
559.31	2202.44
559.47	2136.91
559.64	2237.55
559.80	2195.42
559.97	2125.21
560.13	2186.06
560.30	2228.19
560.46	2207.13
560.63	2326.49
560.79	2333.51
560.96	2202.44
561.12	2235.21
561.29	2153.29
561.45	2127.55
561.61	2169.68
561.78	2214.15
561.94	2050.31
562.11	2209.47
562.27	2258.62
562.44	2204.78
562.60	2148.61
562.77	2235.21
562.93	2260.96
563.10	2314.79
563.26	2244.57
563.42	2310.11
563.59	2260.96
563.75	2094.78
563.92	2134.57
564.08	2186.06
564.24	2272.66
564.41	2232.87
564.57	2165.00
564.74	2094.78
564.90	2153.29
565.07	2118.18
565.23	2193.08
565.39	2038.61
565.56	2143.93
565.72	2069.03
565.88	2120.53
566.05	2052.65
566.21	2017.54
566.38	2052.65
566.54	2003.50
566.70	2157.97
566.87	2204.78
567.03	2129.89
567.19	2150.95
567.36	2134.57
567.52	2076.06
567.68	2057.33
567.85	2125.21
568.01	2083.08
568.17	1834.98
568.34	1909.88
568.50	1970.73
568.66	1865.41
568.83	1973.07
568.99	1956.69
569.15	2003.50
569.32	1968.39
569.48	1886.47
569.64	1963.71
569.81	2040.95
569.97	1991.80
570.13	2045.63
570.30	1956.69
570.46	1968.39
570.62	1877.11
570.78	1933.28
570.95	1900.52
571.11	2040.95
571.27	1966.05
571.43	1947.33
571.60	2029.24
571.76	1959.03
571.92	2122.87
572.09	2015.20
572.25	1961.37
572.41	1900.52
572.57	2026.90
572.74	1966.05
572.90	1970.73
573.06	1891.15
573.22	1996.48
573.38	1982.43
573.55	1947.33
573.71	2022.22
573.87	1949.67
574.03	2026.90
574.20	1853.70
574.36	1984.77
574.52	1898.17
574.68	1898.17
574.84	1987.11
575.01	1982.43
575.17	1846.68
575.33	1872.43
575.49	1935.62
575.65	1947.33
575.82	1933.28
575.98	1783.49
576.14	1867.75
576.30	1853.70
576.46	2078.40
576.62	2076.06
576.79	2087.76
576.95	2207.13
577.11	2017.54
577.27	1844.34
577.43	1884.13
577.59	1987.11
577.75	1837.32
577.92	1849.02
578.08	1834.98
578.24	1739.02
578.40	1874.77
578.56	1980.09
578.72	2003.50
578.88	2132.23
579.04	2031.58
579.21	2057.33
579.37	1888.81
579.53	1980.09
579.69	1886.47
579.85	1949.67
580.01	2008.18
580.17	2003.50
580.33	1907.54
580.49	2043.29
580.65	1933.28
580.82	1959.03
580.98	1877.11
581.14	2040.95
581.30	1952.01
581.46	1867.75
581.62	1966.05
581.78	1966.05
581.94	1952.01
582.10	1961.37
582.26	2059.67
582.42	1952.01
582.58	2008.18
582.74	2078.40
582.90	1874.77
583.06	2047.97
583.22	1865.41
583.38	2071.37
583.54	2022.22
583.70	2062.01
583.86	2092.44
584.02	2045.63
584.18	2024.56
584.34	1930.94
584.50	2045.63
584.66	1952.01
584.82	1795.19
584.98	1893.49
585.14	1879.45
585.30	1940.30
585.46	1823.28
585.62	1839.66
585.78	1884.13
585.94	1916.90
586.10	1795.19
586.26	2019.88
586.42	1849.02
586.58	1930.94
586.74	1912.22
586.90	1886.47
587.06	1856.04
587.22	1940.30
587.38	1813.92
587.54	1816.26
587.70	1839.66
587.86	1858.39
588.02	1675.82
588.18	1696.89
588.34	1605.61
588.49	1493.26
588.65	1526.03
588.81	1369.21
588.97	1378.58
589.13	1315.38
589.29	1373.89
589.45	1423.05
589.61	1401.98
589.77	1469.86
589.93	1416.02
590.08	1511.99
590.24	1617.31
590.40	1572.84
590.56	1591.56
590.72	1607.95
590.88	1521.35
591.04	1551.78
591.20	1614.97
591.35	1572.84
591.51	1572.84
591.67	1565.82
591.83	1570.50
591.99	1497.94
592.15	1544.75
592.31	1661.78
592.46	1647.74
592.62	1579.86
592.78	1673.48
592.94	1661.78
593.10	1675.82
593.26	1664.12
593.41	1746.04
593.57	1540.07
593.73	1504.96
593.89	1455.81
594.05	1514.33
594.20	1437.09
594.36	1380.92
594.52	1472.20
594.68	1390.28
594.84	1572.84
594.99	1617.31
595.15	1708.59
595.31	1603.27
595.47	1593.90
595.62	1558.80
595.78	1610.29
595.94	1729.66
596.10	1699.23
596.25	1657.10
596.41	1549.43
596.57	1582.20
596.73	1650.08
596.88	1633.69
597.04	1703.91
597.20	1696.89
597.36	1558.80
597.51	1643.06
597.67	1619.65
597.83	1710.93
597.99	1638.38
598.14	1582.20
598.30	1537.73
598.46	1600.93
598.61	1774.13
598.77	1715.61
598.93	1671.14
599.09	1689.87
599.24	1671.14
599.40	1732.00
599.56	1605.61
599.71	1694.55
599.87	1706.25
600.03	1666.46
600.18	1619.65
600.34	1806.89
600.50	1668.80
600.65	1729.66
600.81	1750.72
600.97	1652.42
