SpectraSuite Data File
++++++++++++++++++++++++++++++++++++
Date: Fri Oct 04 11:44:22 GMT-05:00 2013
User: price-jones
Dark Spectrum Present: No
Reference Spectrum Present: No
Number of Sampled Component Spectra: 1
Spectrometers: USB2+H05261
Integration Time (usec): 100000 (USB2+H05261)
Spectra Averaged: 1 (USB2+H05261)
Boxcar Smoothing: 0 (USB2+H05261)
Correct for Electrical Dark: No (USB2+H05261)
Strobe/Lamp Enabled: No (USB2+H05261)
Correct for Detector Non-linearity: No (USB2+H05261)
Correct for Stray Light: No (USB2+H05261)
Number of Pixels in Processed Spectrum: 2048
>>>>>Begin Processed Spectral Data<<<<<
365.73	21.06
365.92	21.06
366.12	21.06
366.32	0.00
366.52	0.00
366.72	0.00
366.91	0.00
367.11	0.00
367.31	0.00
367.51	0.00
367.70	0.00
367.90	0.00
368.10	4.68
368.30	0.00
368.49	0.00
368.69	0.00
368.89	0.00
369.09	0.00
369.28	0.00
369.48	0.00
369.68	0.00
369.87	0.00
370.07	0.00
370.27	32.77
370.47	102.98
370.66	449.38
370.86	559.39
371.06	547.69
371.25	603.86
371.45	557.05
371.65	521.94
371.84	418.96
372.04	514.92
372.24	564.07
372.44	566.41
372.63	594.50
372.83	547.69
373.03	500.87
373.22	514.92
373.42	465.77
373.62	580.45
373.81	645.99
374.01	638.97
374.21	564.07
374.40	582.79
374.60	533.64
374.79	489.17
374.99	615.56
375.19	674.07
375.38	634.29
375.58	734.93
375.78	613.22
375.97	690.46
376.17	779.40
376.37	695.14
376.56	744.29
376.76	781.74
376.95	779.40
377.15	739.61
377.35	835.57
377.54	753.65
377.74	842.59
377.93	987.71
378.13	905.79
378.33	828.55
378.52	723.23
378.72	779.40
378.91	697.48
379.11	669.39
379.31	770.04
379.50	716.20
379.70	739.61
379.89	842.59
380.09	840.25
380.28	854.30
380.48	858.98
380.68	950.26
380.87	849.61
381.07	702.16
381.26	711.52
381.46	727.91
381.65	655.35
381.85	641.31
382.04	674.07
382.24	533.64
382.43	538.32
382.63	582.79
382.83	596.84
383.02	554.71
383.22	500.87
383.41	594.50
383.61	538.32
383.80	727.91
384.00	751.31
384.19	819.19
384.39	908.13
384.58	819.19
384.78	800.46
384.97	774.72
385.17	800.46
385.36	800.46
385.56	784.08
385.75	699.82
385.95	758.33
386.14	901.11
386.34	908.13
386.53	833.23
386.72	763.01
386.92	805.14
387.11	898.77
387.31	880.04
387.50	873.02
387.70	767.70
387.89	816.85
388.09	777.06
388.28	784.08
388.48	901.11
388.67	990.05
388.86	940.90
389.06	1004.09
389.25	1015.79
389.45	1074.31
389.64	1086.01
389.84	1053.24
390.03	1060.26
390.22	1060.26
390.42	943.24
390.61	1090.69
390.81	1210.06
391.00	1214.74
391.19	1240.48
391.39	1137.50
391.58	1151.54
391.78	1064.94
391.97	1078.99
392.16	987.71
392.36	884.72
392.55	814.51
392.75	678.76
392.94	423.64
393.13	477.47
393.33	540.66
393.52	760.67
393.71	924.51
393.91	952.60
394.10	943.24
394.29	1146.86
394.49	1132.82
394.68	1280.27
394.88	1179.63
395.07	1184.31
395.26	1193.67
395.46	1240.48
395.65	1240.48
395.84	1060.26
396.04	1100.05
396.23	807.48
396.42	716.20
396.62	720.88
396.81	737.27
397.00	936.21
397.19	1036.86
397.39	1266.23
397.58	1401.98
397.77	1458.15
397.97	1579.86
398.16	1549.43
398.35	1549.43
398.55	1645.40
398.74	1680.50
398.93	1717.95
399.12	1526.03
399.32	1748.38
399.51	1694.55
399.70	1734.34
399.90	1715.61
400.09	1685.19
400.28	1778.81
400.47	1736.68
400.67	1633.69
400.86	1858.39
401.05	1912.22
401.24	1732.00
401.44	1834.98
401.63	1921.58
401.82	1872.43
402.01	1891.15
402.21	1874.77
402.40	1839.66
402.59	1849.02
402.78	1799.87
402.97	1806.89
403.17	1724.97
403.36	1788.17
403.55	2031.58
403.74	2026.90
403.93	1956.69
404.13	1806.89
404.32	1811.57
404.51	1940.30
404.70	1952.01
404.89	1968.39
405.09	1905.20
405.28	1912.22
405.47	1905.20
405.66	1884.13
405.85	1886.47
406.05	1757.74
406.24	1790.51
406.43	1921.58
406.62	1849.02
406.81	1968.39
407.00	1870.09
407.20	1912.22
407.39	1785.83
407.58	1860.73
407.77	2050.31
407.96	2017.54
408.15	2134.57
408.34	2146.27
408.54	2127.55
408.73	2108.82
408.92	2108.82
409.11	2080.74
409.30	2024.56
409.49	1902.86
409.68	1818.60
409.87	1706.25
410.07	1818.60
410.26	1846.68
410.45	2031.58
410.64	2214.15
410.83	2181.38
411.02	2172.02
411.21	2314.79
411.40	2312.45
411.59	2216.49
411.78	2214.15
411.98	2296.07
412.17	2232.87
412.36	2197.76
412.55	2244.57
412.74	2153.29
412.93	2143.93
413.12	2253.94
413.31	2345.22
413.50	2354.58
413.69	2429.48
413.88	2321.81
414.07	2305.43
414.26	2239.89
414.45	2326.49
414.64	2375.64
414.83	2354.58
415.02	2396.71
415.22	2368.62
415.41	2406.07
415.60	2429.48
415.79	2417.77
415.98	2534.80
416.17	2541.82
416.36	2487.99
416.55	2399.05
416.74	2289.04
416.93	2272.66
417.12	2363.94
417.31	2377.98
417.50	2286.70
417.69	2478.63
417.88	2436.50
418.07	2413.09
418.26	2424.80
418.45	2403.73
418.64	2553.52
418.83	2415.43
419.02	2450.54
419.21	2583.95
419.39	2462.24
419.58	2389.69
419.77	2403.73
419.96	2326.49
420.15	2590.97
420.34	2553.52
420.53	2745.45
420.72	2750.13
420.91	2700.98
421.10	2677.57
421.29	2665.87
421.48	2495.01
421.67	2654.17
421.86	2621.40
422.05	2499.69
422.24	2260.96
422.43	2300.75
422.61	2359.26
422.80	2567.57
422.99	2593.31
423.18	2633.10
423.37	2567.57
423.56	2523.10
423.75	2579.27
423.94	2546.50
424.13	2373.30
424.32	2539.48
424.50	2593.31
424.69	2562.89
424.88	2553.52
425.07	2389.69
425.26	2445.86
425.45	2380.32
425.64	2394.37
425.83	2352.24
426.01	2628.42
426.20	2473.95
426.39	2487.99
426.58	2462.24
426.77	2176.70
426.96	2167.34
427.15	2153.29
427.33	2387.35
427.52	2551.18
427.71	2445.86
427.90	2457.56
428.09	2377.98
428.28	2438.84
428.46	2244.57
428.65	2298.41
428.84	2373.30
429.03	2277.34
429.22	2296.07
429.40	2195.42
429.59	1954.35
429.78	1865.41
429.97	1827.96
430.16	1661.78
430.34	1823.28
430.53	1804.55
430.72	1844.34
430.91	2036.27
431.10	2251.60
431.28	2523.10
431.47	2822.69
431.66	2813.32
431.85	2612.04
432.03	2499.69
432.22	2431.82
432.41	2558.21
432.60	2672.89
432.79	2782.90
432.97	2906.95
433.16	2787.58
433.35	2504.37
433.54	2221.17
433.72	2230.53
433.91	2160.31
434.10	2436.50
434.28	2724.38
434.47	2850.77
434.66	2747.79
434.85	2710.34
435.03	2665.87
435.22	2949.08
435.41	3145.68
435.59	3157.38
435.78	3096.53
435.97	3133.98
436.16	3061.42
436.34	2904.60
436.53	2939.71
436.72	2890.56
436.90	2768.85
437.09	2794.60
437.28	2782.90
437.46	2780.56
437.65	2719.70
437.84	2724.38
438.02	2513.74
438.21	2424.80
438.40	2600.34
438.58	2628.42
438.77	2862.48
438.96	2888.22
439.14	2860.13
439.33	2881.20
439.52	3059.08
439.70	3082.49
439.89	3021.63
440.08	2799.28
440.26	2920.99
440.45	2967.80
440.63	3026.31
440.82	3304.84
441.01	3218.24
441.19	3143.34
441.38	3281.43
441.57	3286.11
441.75	3431.23
441.94	3281.43
442.12	3251.00
442.31	3384.41
442.50	3351.65
442.68	3293.13
442.87	3344.63
443.05	3290.79
443.24	3220.58
443.43	3307.18
443.61	3527.19
443.80	3536.55
443.98	3335.26
444.17	3358.67
444.35	3435.91
444.54	3454.63
444.73	3412.50
444.91	3311.86
445.10	3126.96
445.28	3068.44
445.47	3122.27
445.65	3082.49
445.84	3108.23
446.02	3173.77
446.21	3283.77
446.39	3358.67
446.58	3262.71
446.77	3262.71
446.95	3456.97
447.14	3370.37
447.32	3440.59
447.51	3513.14
447.69	3562.30
447.88	3300.16
448.06	3442.93
448.25	3524.85
448.43	3456.97
448.62	3382.07
448.80	3339.94
448.99	3356.33
449.17	3466.33
449.36	3471.01
449.54	3751.88
449.73	3712.09
449.91	3606.77
450.10	3735.50
450.28	3845.50
450.46	3843.16
450.65	3784.65
450.83	3786.99
451.02	3660.60
451.20	3707.41
451.39	3627.83
451.57	3522.51
451.76	3482.72
451.94	3658.26
452.13	3578.68
452.31	3370.37
452.49	3307.18
452.68	3206.53
452.86	3304.84
453.05	3302.50
453.23	3396.12
453.42	3393.78
453.60	3531.87
453.78	3669.96
453.97	3658.26
454.15	3510.80
454.34	3492.08
454.52	3473.36
454.70	3501.44
454.89	3583.36
455.07	3417.18
455.26	3513.14
455.44	3735.50
455.62	3756.56
455.81	3854.86
455.99	3737.84
456.17	3702.73
456.36	3735.50
456.54	3789.33
456.73	3852.52
456.91	3868.91
457.09	3817.41
457.28	4049.13
457.46	3847.84
457.64	3812.73
457.83	3620.81
458.01	3581.02
458.19	3632.51
458.38	3616.13
458.56	3847.84
458.74	3737.84
458.93	3667.62
459.11	3779.97
459.29	3737.84
459.48	3866.56
459.66	3634.85
459.84	3784.65
460.03	3786.99
460.21	3838.48
460.39	3875.93
460.57	3871.25
460.76	3763.58
460.94	3843.16
461.12	3843.16
461.31	3908.69
461.49	3948.48
461.67	3978.91
461.85	4009.34
462.04	3815.07
462.22	4327.65
462.40	3847.84
462.59	4077.21
462.77	3829.12
462.95	3969.55
463.13	4042.11
463.32	3929.76
463.50	3885.29
463.68	3859.54
463.86	3829.12
464.05	3906.35
464.23	3695.71
464.41	3716.77
464.59	3646.55
464.78	3854.86
464.96	3672.30
465.14	3620.81
465.32	3882.95
465.50	3936.78
465.69	4011.68
465.87	3992.95
466.05	3899.33
466.23	3627.83
466.41	3637.19
466.60	3648.90
466.78	3648.90
466.96	3646.55
467.14	3674.64
467.32	3859.54
467.51	3838.48
467.69	3623.15
467.87	3744.86
468.05	3826.78
468.23	3770.60
468.41	3922.74
468.60	3794.01
468.78	3836.14
468.96	3815.07
469.14	3920.40
469.32	3964.87
469.50	3709.75
469.69	3721.45
469.87	3836.14
470.05	3665.28
470.23	3796.35
470.41	3655.92
470.59	3709.75
470.77	3655.92
470.95	3749.54
471.14	3772.94
471.32	3962.53
471.50	4072.53
471.68	4030.40
471.86	4222.33
472.04	4007.00
472.22	4128.70
472.40	4002.32
472.58	3805.71
472.77	3882.95
472.95	3861.88
473.13	4060.83
473.31	4084.23
473.49	4011.68
473.67	3950.82
473.85	4098.28
474.03	4210.62
474.21	4231.69
474.39	4081.89
474.57	4313.61
474.75	4095.94
474.93	4156.79
475.12	4168.49
475.30	4133.39
475.48	4081.89
475.66	4215.30
475.84	4056.15
476.02	4152.11
476.20	3920.40
476.38	3983.59
476.56	4264.46
476.74	4173.18
476.92	4353.40
477.10	4381.48
477.28	4477.44
477.46	4510.21
477.64	4468.08
477.82	4615.54
478.00	4547.66
478.18	4498.51
478.36	4493.83
478.54	4482.13
478.72	4444.68
478.90	4564.04
479.08	4737.24
479.26	4762.99
479.44	4798.10
479.62	4830.87
479.80	4615.54
479.98	4765.33
480.16	4894.06
480.34	4875.34
480.52	4968.96
480.70	5043.85
480.88	4837.89
481.06	4912.78
481.24	5015.77
481.41	5177.26
481.59	5242.80
481.77	5179.61
481.95	4973.64
482.13	5163.22
482.31	4999.38
482.49	5231.10
482.67	5074.28
482.85	5210.03
483.03	5217.05
483.21	5259.18
483.39	5224.08
483.57	5125.77
483.74	5226.42
483.92	5128.11
484.10	5305.99
484.28	5476.85
484.46	5462.81
484.64	5469.83
484.82	5252.16
485.00	5313.02
485.18	5329.40
485.35	5205.35
485.53	4842.57
485.71	4418.93
485.89	4210.62
486.07	4341.69
486.25	4748.95
486.43	5100.03
486.61	5111.73
486.78	5083.64
486.96	5214.71
487.14	5357.49
487.32	5540.05
487.50	5614.95
487.68	5788.14
487.85	5839.64
488.03	5853.68
488.21	5806.87
488.39	5753.04
488.57	5514.30
488.75	5533.03
488.92	6087.73
489.10	5905.17
489.28	6237.53
489.46	6399.02
489.64	6396.68
489.81	6394.34
489.99	6284.34
490.17	6319.45
490.35	6544.14
490.53	6445.84
490.70	6300.72
490.88	6296.04
491.06	6452.86
491.24	6422.43
491.41	6211.78
491.59	6003.47
491.77	5933.26
491.95	6022.20
492.13	6001.13
492.30	6377.96
492.48	6560.52
492.66	6766.49
492.84	6675.21
493.01	6724.36
493.19	6595.63
493.37	6427.11
493.54	6401.37
493.72	6597.97
493.90	6534.78
494.08	6932.67
494.25	7049.69
494.43	7173.74
494.61	7143.32
494.79	7112.89
494.96	7066.08
495.14	6960.75
495.32	6792.23
495.49	6672.87
495.67	6925.65
495.85	7157.36
496.02	7126.93
496.20	7229.91
496.38	7091.82
496.55	7150.34
496.73	7260.34
496.91	7166.72
497.09	7536.52
497.26	7389.07
497.44	7330.56
497.62	7227.57
497.79	7054.37
497.97	6686.91
498.14	6731.38
498.32	7019.27
498.50	7080.12
498.67	7194.81
498.85	7438.22
499.03	7328.22
499.20	7459.29
499.38	7325.88
499.56	7351.62
499.73	7152.68
499.91	7218.21
500.08	6937.35
500.26	7007.56
500.44	6995.86
500.61	7061.40
500.79	7148.00
500.97	6841.39
501.14	6916.28
501.32	7035.65
501.49	6794.58
501.67	6848.41
501.84	7073.10
502.02	7007.56
502.20	7119.91
502.37	7344.60
502.55	7330.56
502.72	7323.54
502.90	7456.95
503.07	7215.87
503.25	7124.59
503.43	6736.06
503.60	6656.48
503.78	6633.08
503.95	6623.72
504.13	6794.58
504.30	7258.00
504.48	7438.22
504.65	7339.92
504.83	7293.11
505.01	7356.30
505.18	7630.15
505.36	7698.02
505.53	7534.18
505.71	7559.93
505.88	7889.95
506.06	7822.07
506.23	7742.49
506.41	7318.86
506.58	7463.97
506.76	7503.76
506.93	7410.14
507.11	7337.58
507.28	7499.08
507.46	7403.11
507.63	7274.38
507.81	7082.46
507.98	7241.62
508.16	7194.81
508.33	7506.10
508.50	7618.44
508.68	7639.51
508.85	7969.52
509.03	8013.99
509.20	7819.73
509.38	7655.89
509.55	7534.18
509.73	7475.67
509.90	7623.12
510.08	7618.44
510.25	7559.93
510.42	7531.84
510.60	7667.60
510.77	7805.69
510.95	7913.35
511.12	7705.04
511.30	7992.93
511.47	8053.78
511.64	8079.53
511.82	7854.84
511.99	7962.50
512.17	7772.92
512.34	7454.61
512.51	7576.31
512.69	7510.78
512.86	7646.53
513.04	7995.27
513.21	7744.83
513.38	7592.70
513.56	7559.93
513.73	7206.51
513.90	7459.29
514.08	7616.10
514.25	7606.74
514.43	7742.49
514.60	7843.14
514.77	7777.60
514.95	7864.20
515.12	7662.91
515.29	7922.71
515.47	7918.03
515.64	7974.21
515.81	7850.16
515.99	7943.78
516.16	7417.16
516.33	6899.90
516.51	6541.80
516.68	6394.34
516.85	6342.85
517.03	6214.12
517.20	6932.67
517.37	7412.48
517.54	7838.45
517.72	7723.77
517.89	7082.46
518.06	6380.30
518.24	6651.80
518.41	7035.65
518.58	7555.25
518.75	7250.98
518.93	7606.74
519.10	7454.61
519.27	7473.33
519.45	7480.35
519.62	7735.47
519.79	8081.87
519.96	7845.48
520.14	7995.27
520.31	7571.63
520.48	7358.64
520.65	7595.04
520.83	7969.52
521.00	8114.64
521.17	8039.74
521.34	7995.27
521.52	7957.82
521.69	8016.33
521.86	8187.19
522.03	8009.31
522.20	7997.61
522.38	7478.01
522.55	7386.73
522.72	7667.60
522.89	7737.81
523.07	7756.54
523.24	7962.50
523.41	7995.27
523.58	8105.28
523.75	8116.98
523.92	8105.28
524.10	8278.47
524.27	8205.92
524.44	8163.79
524.61	7932.08
524.78	8081.87
524.96	8063.15
525.13	8004.63
525.30	8037.40
525.47	8152.09
525.64	8154.43
525.81	8109.96
525.98	7597.38
526.16	7311.83
526.33	6988.84
526.50	6944.37
526.67	6729.04
526.84	6909.26
527.01	7173.74
527.18	7480.35
527.36	7847.82
527.53	7861.86
527.70	7946.12
527.87	7803.35
528.04	7850.16
528.21	7864.20
528.38	8004.63
528.55	8346.35
528.72	8376.78
528.89	8341.67
529.07	8339.33
529.24	8147.40
529.41	7983.57
529.58	7840.79
529.75	7791.64
529.92	7995.27
530.09	8184.85
530.26	8182.51
530.43	8203.58
530.60	8280.82
530.77	8369.76
530.94	8306.56
531.11	8355.71
531.28	8229.32
531.46	8271.45
531.63	8264.43
531.80	8332.31
531.97	8063.15
532.14	7840.79
532.31	7714.41
532.48	7363.33
532.65	7201.83
532.82	7442.90
532.99	7744.83
533.16	7955.48
533.33	8231.66
533.50	8156.77
533.67	7925.05
533.84	7737.81
534.01	7854.84
534.18	7698.02
534.35	8159.11
534.52	7915.69
534.69	8135.70
534.86	8086.55
535.03	8234.00
535.20	8203.58
535.37	8369.76
535.54	8449.33
535.71	8407.20
535.88	8510.19
536.05	8156.77
536.22	8051.44
536.38	8004.63
536.55	7899.31
536.72	7620.78
536.89	7651.21
537.06	7728.45
537.23	8159.11
537.40	8100.59
537.57	8098.25
537.74	8243.37
537.91	8168.47
538.08	8030.38
538.25	8170.81
538.42	8098.25
538.59	8126.34
538.75	7990.59
538.92	7763.56
539.09	7756.54
539.26	7768.24
539.43	7712.07
539.60	7761.22
539.77	7730.79
539.94	7751.85
540.11	7634.83
540.28	7470.99
540.44	7552.91
540.61	7517.80
540.78	7606.74
540.95	7740.15
541.12	7744.83
541.29	7880.58
541.46	8248.05
541.62	8367.42
541.79	8234.00
541.96	8042.08
542.13	8018.68
542.30	7967.18
542.47	7943.78
542.63	7843.14
542.80	7829.09
542.97	8044.42
543.14	7920.37
543.31	7737.81
543.48	8009.31
543.64	8187.19
543.81	8479.76
543.98	8339.33
544.15	8135.70
544.32	7953.14
544.48	7983.57
544.65	7939.10
544.82	8056.12
544.99	8149.75
545.16	7927.39
545.32	7922.71
545.49	8409.54
545.66	8622.53
545.83	8765.31
546.00	8564.02
546.16	8351.03
546.33	8016.33
546.50	8072.51
546.67	8173.15
546.83	8107.62
547.00	7871.22
547.17	7784.62
547.34	7688.66
547.50	7655.89
547.67	7896.97
547.84	7679.30
548.00	7992.93
548.17	7936.76
548.34	7786.96
548.51	7749.51
548.67	7887.61
548.84	8023.36
549.01	7866.54
549.18	7681.64
549.34	7967.18
549.51	7976.55
549.68	7733.13
549.84	7880.58
550.01	7714.41
550.18	7674.62
550.34	7826.75
550.51	7798.66
550.68	7751.85
550.84	7459.29
551.01	7756.54
551.18	7583.34
551.34	7779.94
551.51	7681.64
551.68	7981.23
551.84	7925.05
552.01	7852.50
552.18	7950.80
552.34	7566.95
552.51	7676.96
552.68	7478.01
552.84	7688.66
553.01	7779.94
553.18	7693.34
553.34	8049.10
553.51	7784.62
553.67	7843.14
553.84	7728.45
554.01	7775.26
554.17	7538.87
554.34	7793.98
554.51	7859.52
554.67	7974.21
554.84	7779.94
555.00	7548.23
555.17	7639.51
555.33	7744.83
555.50	7660.57
555.67	7719.09
555.83	7578.65
556.00	7482.69
556.16	7831.43
556.33	7496.74
556.50	7384.39
556.66	7456.95
556.83	7213.53
556.99	7325.88
557.16	7508.44
557.32	7236.94
557.49	7438.22
557.65	7435.88
557.82	7360.98
557.98	7536.52
558.15	7391.41
558.32	7187.79
558.48	7012.24
558.65	6923.30
558.81	7052.03
558.98	7059.06
559.14	7152.68
559.31	7229.91
559.47	7192.47
559.64	7157.36
559.80	6939.69
559.97	6993.52
560.13	7243.96
560.30	7325.88
560.46	7466.31
560.63	7646.53
560.79	7454.61
560.96	7552.91
561.12	7119.91
561.29	6958.41
561.45	6998.20
561.61	7002.88
561.78	7449.93
561.94	7199.49
562.11	7229.91
562.27	7124.59
562.44	7126.93
562.60	7304.81
562.77	7386.73
562.93	7405.46
563.10	7386.73
563.26	7112.89
563.42	7314.17
563.59	7049.69
563.75	7070.76
563.92	7098.84
564.08	7185.44
564.24	7138.63
564.41	7222.89
564.57	7225.23
564.74	7232.26
564.90	7098.84
565.07	7091.82
565.23	6993.52
565.39	6930.33
565.56	6733.72
565.72	6796.92
565.88	6759.47
566.05	6707.98
566.21	6731.38
566.38	6867.13
566.54	6897.56
566.70	6942.03
566.87	6888.20
567.03	6993.52
567.19	6956.07
567.36	6902.24
567.52	7019.27
567.68	7016.93
567.85	6764.15
568.01	6588.61
568.17	6296.04
568.34	6457.54
568.50	6354.55
568.66	6328.81
568.83	6588.61
568.99	6459.88
569.15	6600.31
569.32	6637.76
569.48	6434.13
569.64	6504.35
569.81	6349.87
569.97	6464.56
570.13	6490.31
570.30	6612.01
570.46	6455.20
570.62	6457.54
570.78	6195.40
570.95	6207.10
571.11	6366.26
571.27	6464.56
571.43	6356.90
571.60	6586.27
571.76	6438.81
571.92	6567.54
572.09	6569.88
572.25	6588.61
572.41	6466.90
572.57	6586.27
572.74	6516.05
572.90	6656.48
573.06	6471.58
573.22	6560.52
573.38	6492.65
573.55	6450.52
573.71	6506.69
573.87	6609.67
574.03	6565.20
574.20	6300.72
574.36	6370.94
574.52	6312.42
574.68	6366.26
574.84	6340.51
575.01	6136.88
575.17	6293.70
575.33	6312.42
575.49	6338.17
575.65	6345.19
575.82	6317.11
575.98	6211.78
576.14	6354.55
576.30	6443.49
576.46	6413.07
576.62	6551.16
576.79	6539.46
576.95	6272.64
577.11	6209.44
577.27	6167.31
577.43	6361.58
577.59	6335.83
577.75	6101.78
577.92	6193.06
578.08	5994.11
578.24	6043.26
578.40	6085.39
578.56	6284.34
578.72	6352.21
578.88	6384.98
579.04	6349.87
579.21	6340.51
579.37	6483.28
579.53	6228.17
579.69	6427.11
579.85	6403.71
580.01	6457.54
580.17	6347.53
580.33	6277.32
580.49	6296.04
580.65	6359.24
580.82	6375.62
580.98	6263.27
581.14	6279.66
581.30	6347.53
581.46	6370.94
581.62	6333.49
581.78	6396.68
581.94	6459.88
582.10	6401.37
582.26	6352.21
582.42	6415.41
582.58	6497.33
582.74	6626.06
582.90	6487.96
583.06	6471.58
583.22	6431.79
583.38	6445.84
583.54	6319.45
583.70	6492.65
583.86	6438.81
584.02	6499.67
584.18	6537.12
584.34	6256.25
584.50	6485.62
584.66	6221.14
584.82	6258.59
584.98	6129.86
585.14	6211.78
585.30	6036.24
585.46	5802.19
585.62	5940.28
585.78	6015.18
585.94	6076.03
586.10	5980.07
586.26	5891.13
586.42	6108.80
586.58	6099.44
586.74	6019.86
586.90	6153.27
587.06	6186.04
587.22	6022.20
587.38	5722.61
587.54	5844.32
587.70	5682.82
587.86	5411.32
588.02	5488.56
588.18	5334.08
588.34	5174.92
588.49	4744.27
588.65	4461.06
588.81	4353.40
588.97	4297.22
589.13	4327.65
589.29	4273.82
589.45	4278.50
589.61	4411.91
589.77	4648.30
589.93	4697.46
590.08	4830.87
590.24	5177.26
590.40	5102.37
590.56	5116.41
590.72	4917.47
590.88	4933.85
591.04	5036.83
591.20	5064.92
591.35	5046.20
591.51	5046.20
591.67	4915.12
591.83	5055.56
591.99	4821.50
592.15	4936.19
592.31	5027.47
592.46	5177.26
592.62	5357.49
592.78	5160.88
592.94	5149.18
593.10	5277.91
593.26	5430.04
593.41	5479.19
593.57	5465.15
593.73	5224.08
593.89	4922.15
594.05	4943.21
594.20	4716.18
594.36	4547.66
594.52	4657.67
594.68	4683.41
594.84	4830.87
594.99	5088.32
595.15	5156.20
595.31	5310.68
595.47	5067.26
595.62	5203.01
595.78	5371.53
595.94	5298.97
596.10	5476.85
596.25	5174.92
596.41	5088.32
596.57	5217.05
596.73	5055.56
596.88	5172.58
597.04	5336.42
597.20	5139.82
597.36	5001.72
597.51	5235.78
597.67	5153.86
