SpectraSuite Data File
++++++++++++++++++++++++++++++++++++
Date: Fri Oct 04 11:44:26 GMT-05:00 2013
User: price-jones
Dark Spectrum Present: No
Reference Spectrum Present: No
Number of Sampled Component Spectra: 1
Spectrometers: USB2+H05261
Integration Time (usec): 100000 (USB2+H05261)
Spectra Averaged: 1 (USB2+H05261)
Boxcar Smoothing: 0 (USB2+H05261)
Correct for Electrical Dark: No (USB2+H05261)
Strobe/Lamp Enabled: No (USB2+H05261)
Correct for Detector Non-linearity: No (USB2+H05261)
Correct for Stray Light: No (USB2+H05261)
Number of Pixels in Processed Spectrum: 2048
>>>>>Begin Processed Spectral Data<<<<<
365.73	28.09
365.92	28.09
366.12	28.09
366.32	0.00
366.52	0.00
366.72	25.75
366.91	0.00
367.11	0.00
367.31	0.00
367.51	0.00
367.70	0.00
367.90	0.00
368.10	0.00
368.30	0.00
368.49	0.00
368.69	0.00
368.89	0.00
369.09	0.00
369.28	0.00
369.48	0.00
369.68	0.00
369.87	0.00
370.07	0.00
370.27	0.00
370.47	79.58
370.66	156.82
370.86	177.88
371.06	194.26
371.25	255.12
371.45	166.18
371.65	210.65
371.84	140.43
372.04	168.52
372.24	184.90
372.44	259.80
372.63	243.42
372.83	231.71
373.03	224.69
373.22	168.52
373.42	117.03
373.62	154.48
373.81	238.73
374.01	248.10
374.21	212.99
374.40	173.20
374.60	203.63
374.79	217.67
374.99	266.82
375.19	269.16
375.38	227.03
375.58	280.86
375.78	234.05
375.97	311.29
376.17	285.55
376.37	203.63
376.56	330.02
376.76	294.91
376.95	283.20
377.15	301.93
377.35	231.71
377.54	229.37
377.74	255.12
377.93	250.44
378.13	341.72
378.33	351.08
378.52	248.10
378.72	220.01
378.91	252.78
379.11	212.99
379.31	222.35
379.50	243.42
379.70	297.25
379.89	276.18
380.09	271.50
380.28	217.67
380.48	287.89
380.68	280.86
380.87	243.42
381.07	276.18
381.26	311.29
381.46	278.52
381.65	273.84
381.85	128.73
382.04	203.63
382.24	238.73
382.43	131.07
382.63	133.41
382.83	215.33
383.02	196.60
383.22	173.20
383.41	166.18
383.61	215.33
383.80	212.99
384.00	238.73
384.19	201.29
384.39	220.01
384.58	259.80
384.78	243.42
384.97	250.44
385.17	227.03
385.36	315.97
385.56	234.05
385.75	220.01
385.95	320.65
386.14	341.72
386.34	215.33
386.53	292.57
386.72	196.60
386.92	238.73
387.11	262.14
387.31	325.33
387.50	248.10
387.70	262.14
387.89	318.31
388.09	248.10
388.28	222.35
388.48	271.50
388.67	273.84
388.86	273.84
389.06	294.91
389.25	292.57
389.45	346.40
389.64	341.72
389.84	372.15
390.03	332.36
390.22	271.50
390.42	379.17
390.61	320.65
390.81	332.36
391.00	376.83
391.19	472.79
391.39	318.31
391.58	369.80
391.78	376.83
391.97	341.72
392.16	220.01
392.36	334.70
392.55	243.42
392.75	294.91
392.94	238.73
393.13	269.16
393.33	212.99
393.52	252.78
393.71	318.31
393.91	311.29
394.10	311.29
394.29	308.95
394.49	320.65
394.68	365.12
394.88	327.68
395.07	388.53
395.26	402.57
395.46	386.19
395.65	339.38
395.84	386.19
396.04	390.87
396.23	231.71
396.42	210.65
396.62	227.03
396.81	198.95
397.00	365.12
397.19	430.66
397.39	423.64
397.58	489.17
397.77	393.21
397.97	376.83
398.16	484.49
398.35	496.19
398.55	465.77
398.74	552.37
398.93	493.85
399.12	421.30
399.32	418.96
399.51	456.40
399.70	519.60
399.90	458.74
400.09	573.43
400.28	517.26
400.47	505.56
400.67	521.94
400.86	594.50
401.05	564.07
401.24	589.82
401.44	514.92
401.63	554.71
401.82	599.18
402.01	503.22
402.21	503.22
402.40	475.13
402.59	524.28
402.78	505.56
402.97	519.60
403.17	521.94
403.36	533.64
403.55	524.28
403.74	571.09
403.93	543.00
404.13	512.58
404.32	554.71
404.51	543.00
404.70	559.39
404.89	662.37
405.09	634.29
405.28	545.34
405.47	505.56
405.66	594.50
405.85	526.62
406.05	554.71
406.24	498.53
406.43	543.00
406.62	528.96
406.81	557.05
407.00	601.52
407.20	550.03
407.39	603.86
407.58	601.52
407.77	596.84
407.96	662.37
408.15	582.79
408.34	622.58
408.54	533.64
408.73	587.47
408.92	608.54
409.11	517.26
409.30	580.45
409.49	599.18
409.68	517.26
409.87	447.04
410.07	535.98
410.26	634.29
410.45	521.94
410.64	582.79
410.83	648.33
411.02	606.20
411.21	655.35
411.40	690.46
411.59	697.48
411.78	690.46
411.98	594.50
412.17	550.03
412.36	653.01
412.55	624.92
412.74	648.33
412.93	617.90
413.12	622.58
413.31	683.44
413.50	697.48
413.69	608.54
413.88	657.69
414.07	674.07
414.26	655.35
414.45	648.33
414.64	681.10
414.83	669.39
415.02	720.88
415.22	667.05
415.41	699.82
415.60	720.88
415.79	671.73
415.98	634.29
416.17	660.03
416.36	664.71
416.55	669.39
416.74	669.39
416.93	676.41
417.12	641.31
417.31	648.33
417.50	669.39
417.69	706.84
417.88	681.10
418.07	669.39
418.26	594.50
418.45	667.05
418.64	744.29
418.83	748.97
419.02	741.95
419.21	622.58
419.39	720.88
419.58	676.41
419.77	631.94
419.96	753.65
420.15	772.38
420.34	725.57
420.53	720.88
420.72	847.27
420.91	734.93
421.10	741.95
421.29	699.82
421.48	674.07
421.67	779.40
421.86	638.97
422.05	653.01
422.24	657.69
422.43	683.44
422.61	613.22
422.80	709.18
422.99	702.16
423.18	683.44
423.37	671.73
423.56	664.71
423.75	760.67
423.94	638.97
424.13	657.69
424.32	683.44
424.50	748.97
424.69	648.33
424.88	699.82
425.07	702.16
425.26	695.14
425.45	695.14
425.64	706.84
425.83	690.46
426.01	692.80
426.20	685.78
426.39	702.16
426.58	655.35
426.77	697.48
426.96	716.20
427.15	695.14
427.33	631.94
427.52	671.73
427.71	730.25
427.90	746.63
428.09	664.71
428.28	603.86
428.46	683.44
428.65	645.99
428.84	594.50
429.03	650.67
429.22	540.66
429.40	592.16
429.59	550.03
429.78	603.86
429.97	557.05
430.16	608.54
430.34	505.56
430.53	550.03
430.72	425.98
430.91	669.39
431.10	608.54
431.28	709.18
431.47	781.74
431.66	793.44
431.85	765.36
432.03	674.07
432.22	688.12
432.41	683.44
432.60	816.85
432.79	770.04
432.97	858.98
433.16	758.33
433.35	678.76
433.54	603.86
433.72	716.20
433.91	741.95
434.10	643.65
434.28	795.78
434.47	772.38
434.66	784.08
434.85	828.55
435.03	816.85
435.22	924.51
435.41	1135.16
435.59	1217.08
435.78	961.96
435.97	882.38
436.16	873.02
436.34	823.87
436.53	767.70
436.72	877.70
436.90	770.04
437.09	746.63
437.28	744.29
437.46	837.91
437.65	802.80
437.84	767.70
438.02	674.07
438.21	727.91
438.40	788.76
438.58	821.53
438.77	856.64
438.96	800.46
439.14	854.30
439.33	826.21
439.52	866.00
439.70	964.30
439.89	873.02
440.08	734.93
440.26	814.51
440.45	908.13
440.63	777.06
440.82	915.15
441.01	880.04
441.19	912.81
441.38	898.77
441.57	889.40
441.75	924.51
441.94	926.85
442.12	910.47
442.31	1001.75
442.50	910.47
442.68	1001.75
442.87	950.26
443.05	924.51
443.24	1032.18
443.43	917.49
443.61	992.39
443.80	952.60
443.98	971.32
444.17	840.25
444.35	992.39
444.54	938.55
444.73	1025.15
444.91	1025.15
445.10	837.91
445.28	861.32
445.47	800.46
445.65	905.79
445.84	823.87
446.02	961.96
446.21	950.26
446.39	924.51
446.58	851.96
446.77	849.61
446.95	971.32
447.14	938.55
447.32	917.49
447.51	901.11
447.69	889.40
447.88	910.47
448.06	980.68
448.25	922.17
448.43	929.19
448.62	1008.77
448.80	978.34
448.99	994.73
449.17	1001.75
449.36	896.43
449.54	903.45
449.73	891.74
449.91	1015.79
450.10	922.17
450.28	1046.22
450.46	987.71
450.65	1036.86
450.83	1086.01
451.02	968.98
451.20	1027.50
451.39	976.00
451.57	950.26
451.76	940.90
451.94	933.87
452.13	1004.09
452.31	1004.09
452.49	922.17
452.68	917.49
452.86	917.49
453.05	966.64
453.23	978.34
453.42	884.72
453.60	1001.75
453.78	1006.43
453.97	1006.43
454.15	943.24
454.34	968.98
454.52	1015.79
454.70	964.30
454.89	961.96
455.07	978.34
455.26	1081.33
455.44	1039.20
455.62	959.62
455.81	1013.45
455.99	957.28
456.17	966.64
456.36	1006.43
456.54	959.62
456.73	994.73
456.91	1018.13
457.09	1062.60
457.28	1055.58
457.46	1100.05
457.64	1076.65
457.83	945.58
458.01	950.26
458.19	1036.86
458.38	1006.43
458.56	1020.47
458.74	983.02
458.93	999.41
459.11	1008.77
459.29	929.19
459.48	1013.45
459.66	1069.62
459.84	1020.47
460.03	1146.86
460.21	1013.45
460.39	1027.50
460.57	1090.69
460.76	1057.92
460.94	1067.28
461.12	1146.86
461.31	1128.14
461.49	1011.11
461.67	1083.67
461.85	1109.41
462.04	1090.69
462.22	1547.09
462.40	1123.46
462.59	1114.10
462.77	1020.47
462.95	1179.63
463.13	990.05
463.32	1083.67
463.50	1032.18
463.68	1078.99
463.86	1090.69
464.05	980.68
464.23	1057.92
464.41	1043.88
464.59	990.05
464.78	1086.01
464.96	1022.81
465.14	950.26
465.32	968.98
465.50	1132.82
465.69	1153.88
465.87	1128.14
466.05	1027.50
466.23	1046.22
466.41	976.00
466.60	1067.28
466.78	1109.41
466.96	1008.77
467.14	973.66
467.32	1111.75
467.51	1125.80
467.69	1083.67
467.87	1062.60
468.05	1039.20
468.23	1018.13
468.41	1107.07
468.60	1053.24
468.78	1135.16
468.96	1142.18
469.14	1006.43
469.32	1036.86
469.50	999.41
469.69	1102.39
469.87	1008.77
470.05	1057.92
470.23	1015.79
470.41	966.64
470.59	1029.84
470.77	1064.94
470.95	1118.78
471.14	1046.22
471.32	961.96
471.50	1062.60
471.68	1109.41
471.86	1071.97
472.04	1123.46
472.22	1095.37
472.40	1081.33
472.58	1022.81
472.77	1020.47
472.95	978.34
473.13	1153.88
473.31	1118.78
473.49	1041.54
473.67	1104.73
473.85	1207.72
474.03	1093.03
474.21	1116.44
474.39	1184.31
474.57	1198.35
474.75	1041.54
474.93	1109.41
475.12	1093.03
475.30	1116.44
475.48	1102.39
475.66	1177.29
475.84	1210.06
476.02	1135.16
476.20	1104.73
476.38	1062.60
476.56	1198.35
476.74	1184.31
476.92	1121.12
477.10	1174.95
477.28	1235.80
477.46	1153.88
477.64	1205.38
477.82	1221.76
478.00	1301.34
478.18	1226.44
478.36	1170.27
478.54	1203.04
478.72	1226.44
478.90	1170.27
479.08	1329.42
479.26	1277.93
479.44	1313.04
479.62	1228.78
479.80	1315.38
479.98	1249.85
480.16	1348.15
480.34	1291.98
480.52	1387.94
480.70	1280.27
480.88	1322.40
481.06	1359.85
481.24	1387.94
481.41	1287.29
481.59	1373.89
481.77	1394.96
481.95	1366.87
482.13	1434.75
482.31	1394.96
482.49	1362.19
482.67	1460.49
482.85	1446.45
483.03	1437.09
483.21	1474.54
483.39	1474.54
483.57	1427.73
483.74	1416.02
483.92	1413.68
484.10	1397.30
484.28	1430.07
484.46	1420.71
484.64	1451.13
484.82	1474.54
485.00	1439.43
485.18	1446.45
485.35	1453.47
485.53	1284.95
485.71	1221.76
485.89	1247.51
486.07	1350.49
486.25	1336.45
486.43	1338.79
486.61	1451.13
486.78	1392.62
486.96	1528.37
487.14	1448.79
487.32	1465.18
487.50	1540.07
487.68	1626.67
487.85	1584.54
488.03	1584.54
488.21	1556.46
488.39	1511.99
488.57	1486.24
488.75	1486.24
488.92	1900.52
489.10	1614.97
489.28	1685.19
489.46	1647.74
489.64	1724.97
489.81	1778.81
489.99	1799.87
490.17	1715.61
490.35	1809.23
490.53	1739.02
490.70	1647.74
490.88	1675.82
491.06	1689.87
491.24	1743.70
491.41	1703.91
491.59	1617.31
491.77	1614.97
491.95	1671.14
492.13	1657.10
492.30	1753.06
492.48	1741.36
492.66	1710.93
492.84	1732.00
493.01	1818.60
493.19	1673.48
493.37	1799.87
493.54	1654.76
493.72	1820.94
493.90	1769.44
494.08	1767.10
494.25	1813.92
494.43	1956.69
494.61	1923.92
494.79	1933.28
494.96	1930.94
495.14	1942.64
495.32	1797.53
495.49	1783.49
495.67	1736.68
495.85	1827.96
496.02	1905.20
496.20	1907.54
496.38	1989.46
496.55	1966.05
496.73	2026.90
496.91	1851.36
497.09	1963.71
497.26	1952.01
497.44	1877.11
497.62	1907.54
497.79	1778.81
497.97	1851.36
498.14	1849.02
498.32	1980.09
498.50	1959.03
498.67	2026.90
498.85	1989.46
499.03	1898.17
499.20	2010.52
499.38	1970.73
499.56	2043.29
499.73	1921.58
499.91	1893.49
500.08	1891.15
500.26	1816.26
500.44	1783.49
500.61	1949.67
500.79	1914.56
500.97	1879.45
501.14	1849.02
501.32	1832.64
501.49	1928.60
501.67	1907.54
501.84	1809.23
502.02	1921.58
502.20	1980.09
502.37	2010.52
502.55	1893.49
502.72	2031.58
502.90	1935.62
503.07	1998.82
503.25	1837.32
503.43	1902.86
503.60	1727.32
503.78	1760.08
503.95	1717.95
504.13	1886.47
504.30	2040.95
504.48	1933.28
504.65	2005.84
504.83	2012.86
505.01	2047.97
505.18	1977.75
505.36	2064.35
505.53	2113.50
505.71	2099.46
505.88	2078.40
506.06	2092.44
506.23	2052.65
506.41	1987.11
506.58	2094.78
506.76	1935.62
506.93	1973.07
507.11	1984.77
507.28	1926.26
507.46	2052.65
507.63	1895.83
507.81	1898.17
507.98	1963.71
508.16	1947.33
508.33	2015.20
508.50	2092.44
508.68	2188.40
508.85	2176.70
509.03	2099.46
509.20	2228.19
509.38	2003.50
509.55	2015.20
509.73	1963.71
509.90	2104.14
510.08	2120.53
510.25	2153.29
510.42	2076.06
510.60	1987.11
510.77	2036.27
510.95	2216.49
511.12	2216.49
511.30	2169.68
511.47	2223.51
511.64	2200.10
511.82	2204.78
511.99	2078.40
512.17	2050.31
512.34	2047.97
512.51	2047.97
512.69	1987.11
512.86	2113.50
513.04	2050.31
513.21	2195.42
513.38	2045.63
513.56	2118.18
513.73	1973.07
513.90	2052.65
514.08	2036.27
514.25	2169.68
514.43	2106.48
514.60	2188.40
514.77	2157.97
514.95	2043.29
515.12	2097.12
515.29	2207.13
515.47	2174.36
515.64	2242.23
515.81	2176.70
515.99	2153.29
516.16	2064.35
516.33	1998.82
516.51	1820.94
516.68	1654.76
516.85	1734.34
517.03	1867.75
517.20	1860.73
517.37	2015.20
517.54	2057.33
517.72	2157.97
517.89	1926.26
518.06	1816.26
518.24	1872.43
518.41	2040.95
518.58	2073.71
518.75	1961.37
518.93	2059.67
519.10	2087.76
519.27	2115.84
519.45	2043.29
519.62	2169.68
519.79	2132.23
519.96	2176.70
520.14	2165.00
520.31	2043.29
520.48	2106.48
520.65	1994.14
520.83	2303.09
521.00	2296.07
521.17	2239.89
521.34	2186.06
521.52	2176.70
521.69	2223.51
521.86	2242.23
522.03	2319.47
522.20	2193.08
522.38	2092.44
522.55	2038.61
522.72	2127.55
522.89	2197.76
523.07	2197.76
523.24	2064.35
523.41	2303.09
523.58	2200.10
523.75	2356.92
523.92	2286.70
524.10	2385.01
524.27	2356.92
524.44	2237.55
524.61	2375.64
524.78	2319.47
524.96	2307.77
525.13	2216.49
525.30	2399.05
525.47	2368.62
525.64	2366.28
525.81	2291.38
525.98	2209.47
526.16	2129.89
526.33	1947.33
526.50	1956.69
526.67	1891.15
526.84	2078.40
527.01	2064.35
527.18	2090.10
527.36	2174.36
527.53	2186.06
527.70	2305.43
527.87	2239.89
528.04	2207.13
528.21	2183.72
528.38	2275.00
528.55	2417.77
528.72	2347.56
528.89	2443.52
529.07	2317.13
529.24	2427.14
529.41	2312.45
529.58	2169.68
529.75	2239.89
529.92	2237.55
530.09	2314.79
530.26	2303.09
530.43	2466.92
530.60	2319.47
530.77	2403.73
530.94	2427.14
531.11	2305.43
531.28	2417.77
531.46	2434.16
531.63	2326.49
531.80	2263.30
531.97	2312.45
532.14	2237.55
532.31	2186.06
532.48	2157.97
532.65	2232.87
532.82	2202.44
532.99	2417.77
533.16	2211.81
533.33	2424.80
533.50	2319.47
533.67	2172.02
533.84	2375.64
534.01	2314.79
534.18	2214.15
534.35	2260.96
534.52	2228.19
534.69	2237.55
534.86	2401.39
535.03	2335.85
535.20	2401.39
535.37	2326.49
535.54	2558.21
535.71	2321.81
535.88	2399.05
536.05	2382.67
536.22	2253.94
536.38	2310.11
536.55	2249.25
536.72	2277.34
536.89	2160.31
537.06	2352.24
537.23	2307.77
537.40	2420.11
537.57	2413.09
537.74	2359.26
537.91	2380.32
538.08	2450.54
538.25	2445.86
538.42	2457.56
538.59	2466.92
538.75	2331.17
538.92	2321.81
539.09	2361.60
539.26	2368.62
539.43	2356.92
539.60	2284.36
539.77	2406.07
539.94	2366.28
540.11	2246.91
540.28	2377.98
540.44	2284.36
540.61	2228.19
540.78	2317.13
540.95	2359.26
541.12	2504.37
541.29	2576.93
541.46	2661.19
541.62	2691.62
541.79	2590.97
541.96	2518.42
542.13	2523.10
542.30	2609.70
542.47	2551.18
542.63	2448.20
542.80	2445.86
542.97	2530.12
543.14	2602.68
543.31	2469.27
543.48	2420.11
543.64	2684.59
543.81	2703.32
543.98	2626.08
544.15	2633.10
544.32	2473.95
544.48	2609.70
544.65	2511.39
544.82	2609.70
544.99	2495.01
545.16	2565.23
545.32	2483.31
545.49	2846.09
545.66	3145.68
545.83	3253.34
546.00	3019.29
546.16	2928.01
546.33	2839.07
546.50	2457.56
546.67	2544.16
546.83	2572.25
547.00	2476.29
547.17	2356.92
547.34	2291.38
547.50	2361.60
547.67	2471.61
547.84	2314.79
548.00	2375.64
548.17	2373.30
548.34	2326.49
548.51	2448.20
548.67	2530.12
548.84	2394.37
549.01	2478.63
549.18	2368.62
549.34	2340.54
549.51	2380.32
549.68	2445.86
549.84	2413.09
550.01	2289.04
550.18	2354.58
550.34	2310.11
550.51	2347.56
550.68	2242.23
550.84	2356.92
551.01	2363.94
551.18	2251.60
551.34	2139.25
551.51	2342.88
551.68	2396.71
551.84	2361.60
552.01	2396.71
552.18	2464.58
552.34	2253.94
552.51	2331.17
552.68	2431.82
552.84	2303.09
553.01	2265.64
553.18	2312.45
553.34	2354.58
553.51	2289.04
553.67	2370.96
553.84	2408.41
554.01	2427.14
554.17	2375.64
554.34	2249.25
554.51	2363.94
554.67	2406.07
554.84	2342.88
555.00	2277.34
555.17	2160.31
555.33	2359.26
555.50	2223.51
555.67	2204.78
555.83	2195.42
556.00	2183.72
556.16	2335.85
556.33	2260.96
556.50	2073.71
556.66	2260.96
556.83	2214.15
556.99	2169.68
557.16	2064.35
557.32	2237.55
557.49	2246.91
557.65	2251.60
557.82	2242.23
557.98	2186.06
558.15	2207.13
558.32	2153.29
558.48	1975.41
558.65	2040.95
558.81	2080.74
558.98	2092.44
559.14	2106.48
559.31	2275.00
559.47	2094.78
559.64	2054.99
559.80	2120.53
559.97	2066.69
560.13	2106.48
560.30	2136.91
560.46	2218.83
560.63	2296.07
560.79	2223.51
560.96	2296.07
561.12	2207.13
561.29	2078.40
561.45	2157.97
561.61	2069.03
561.78	2239.89
561.94	2174.36
562.11	2200.10
562.27	2153.29
562.44	2104.14
562.60	2136.91
562.77	2239.89
562.93	2197.76
563.10	2122.87
563.26	2132.23
563.42	2253.94
563.59	2012.86
563.75	2085.42
563.92	2104.14
564.08	2047.97
564.24	2150.95
564.41	2197.76
564.57	2150.95
564.74	2066.69
564.90	2097.12
565.07	2076.06
565.23	2136.91
565.39	2125.21
565.56	2050.31
565.72	2017.54
565.88	2003.50
566.05	1991.80
566.21	1998.82
566.38	2078.40
566.54	2059.67
566.70	2169.68
566.87	2026.90
567.03	2118.18
567.19	2069.03
567.36	2193.08
567.52	2090.10
567.68	2134.57
567.85	2019.88
568.01	1966.05
568.17	1980.09
568.34	1874.77
568.50	1930.94
568.66	1919.24
568.83	2033.93
568.99	1968.39
569.15	1984.77
569.32	2001.16
569.48	1937.96
569.64	1905.20
569.81	1781.15
569.97	1893.49
570.13	2031.58
570.30	1926.26
570.46	1996.48
570.62	1877.11
570.78	1823.28
570.95	1886.47
571.11	1839.66
571.27	1970.73
571.43	1834.98
571.60	1816.26
571.76	1834.98
571.92	1970.73
572.09	1891.15
572.25	2040.95
572.41	1963.71
572.57	1980.09
572.74	1973.07
572.90	1949.67
573.06	1912.22
573.22	1968.39
573.38	1973.07
573.55	1942.64
573.71	1973.07
573.87	1879.45
574.03	1921.58
574.20	1802.21
574.36	1923.92
574.52	1809.23
574.68	1898.17
574.84	1907.54
575.01	1832.64
575.17	1827.96
575.33	1827.96
575.49	1813.92
575.65	1771.79
575.82	1858.39
575.98	1898.17
576.14	1891.15
576.30	1886.47
576.46	1954.35
576.62	2038.61
576.79	2080.74
576.95	2062.01
577.11	1881.79
577.27	1858.39
577.43	1865.41
577.59	1907.54
577.75	1820.94
577.92	1839.66
578.08	1804.55
578.24	1849.02
578.40	1956.69
578.56	1991.80
578.72	1987.11
578.88	1973.07
579.04	1895.83
579.21	1884.13
579.37	1858.39
579.53	1849.02
579.69	1956.69
579.85	1937.96
580.01	1980.09
580.17	1959.03
580.33	1923.92
580.49	1994.14
580.65	1898.17
580.82	1970.73
580.98	1900.52
581.14	1832.64
581.30	1813.92
581.46	1928.60
581.62	1952.01
581.78	2012.86
581.94	1987.11
582.10	1998.82
582.26	2005.84
582.42	1858.39
582.58	2008.18
582.74	1987.11
582.90	1989.46
583.06	2019.88
583.22	2017.54
583.38	1886.47
583.54	1849.02
583.70	1940.30
583.86	2045.63
584.02	1877.11
584.18	1973.07
584.34	1870.09
584.50	1970.73
584.66	1987.11
584.82	1863.07
584.98	1987.11
585.14	1884.13
585.30	1877.11
585.46	1802.21
585.62	1856.04
585.78	1870.09
585.94	1820.94
586.10	1799.87
586.26	1900.52
586.42	1902.86
586.58	1879.45
586.74	1909.88
586.90	1849.02
587.06	1898.17
587.22	1886.47
587.38	1834.98
587.54	1879.45
587.70	1818.60
587.86	1746.04
588.02	1556.46
588.18	1657.10
588.34	1446.45
588.49	1383.26
588.65	1380.92
588.81	1327.08
588.97	1373.89
589.13	1394.96
589.29	1437.09
589.45	1434.75
589.61	1483.90
589.77	1397.30
589.93	1399.64
590.08	1514.33
590.24	1561.14
590.40	1570.50
590.56	1659.44
590.72	1542.41
590.88	1528.37
591.04	1528.37
591.20	1610.29
591.35	1568.16
591.51	1453.47
591.67	1411.34
591.83	1561.14
591.99	1558.80
592.15	1500.28
592.31	1614.97
592.46	1593.90
592.62	1739.02
592.78	1582.20
592.94	1774.13
593.10	1636.03
593.26	1685.19
593.41	1710.93
593.57	1610.29
593.73	1570.50
593.89	1640.72
594.05	1554.12
594.20	1362.19
594.36	1476.88
594.52	1409.00
594.68	1511.99
594.84	1432.41
594.99	1565.82
595.15	1533.05
595.31	1591.56
595.47	1521.35
595.62	1619.65
595.78	1612.63
595.94	1579.86
596.10	1614.97
596.25	1603.27
596.41	1540.07
596.57	1495.60
596.73	1490.92
596.88	1605.61
597.04	1577.52
597.20	1544.75
597.36	1530.71
597.51	1605.61
597.67	1561.14
597.83	1629.01
597.99	1582.20
598.14	1603.27
598.30	1575.18
598.46	1572.84
598.61	1661.78
598.77	1692.21
598.93	1540.07
599.09	1593.90
599.24	1657.10
599.40	1710.93
599.56	1596.25
599.71	1612.63
599.87	1619.65
600.03	1621.99
600.18	1591.56
600.34	1671.14
600.50	1638.38
600.65	1586.88
600.81	1645.40
600.97	1809.23
601.12	1624.33
