SpectraSuite Data File
++++++++++++++++++++++++++++++++++++
Date: Fri Oct 04 11:44:23 GMT-05:00 2013
User: price-jones
Dark Spectrum Present: No
Reference Spectrum Present: No
Number of Sampled Component Spectra: 1
Spectrometers: USB2+H05261
Integration Time (usec): 100000 (USB2+H05261)
Spectra Averaged: 1 (USB2+H05261)
Boxcar Smoothing: 0 (USB2+H05261)
Correct for Electrical Dark: No (USB2+H05261)
Strobe/Lamp Enabled: No (USB2+H05261)
Correct for Detector Non-linearity: No (USB2+H05261)
Correct for Stray Light: No (USB2+H05261)
Number of Pixels in Processed Spectrum: 2048
>>>>>Begin Processed Spectral Data<<<<<
365.73	32.77
365.92	32.77
366.12	32.77
366.32	0.00
366.52	0.00
366.72	0.00
366.91	0.00
367.11	0.00
367.31	0.00
367.51	7.02
367.70	0.00
367.90	0.00
368.10	0.00
368.30	0.00
368.49	0.00
368.69	0.00
368.89	0.00
369.09	0.00
369.28	0.00
369.48	0.00
369.68	0.00
369.87	0.00
370.07	0.00
370.27	79.58
370.47	110.01
370.66	355.76
370.86	442.36
371.06	428.32
371.25	409.59
371.45	393.21
371.65	383.85
371.84	325.33
372.04	433.00
372.24	437.68
372.44	475.13
372.63	465.77
372.83	484.49
373.03	402.57
373.22	355.76
373.42	379.17
373.62	411.93
373.81	435.34
374.01	404.91
374.21	362.78
374.40	433.00
374.60	451.72
374.79	409.59
374.99	470.45
375.19	498.53
375.38	564.07
375.58	535.98
375.78	568.75
375.97	514.92
376.17	472.79
376.37	545.34
376.56	454.06
376.76	524.28
376.95	575.77
377.15	582.79
377.35	592.16
377.54	674.07
377.74	615.56
377.93	629.60
378.13	678.76
378.33	606.20
378.52	580.45
378.72	629.60
378.91	552.37
379.11	533.64
379.31	500.87
379.50	449.38
379.70	608.54
379.89	645.99
380.09	550.03
380.28	615.56
380.48	585.13
380.68	580.45
380.87	648.33
381.07	589.82
381.26	521.94
381.46	575.77
381.65	496.19
381.85	505.56
382.04	454.06
382.24	407.25
382.43	379.17
382.63	449.38
382.83	376.83
383.02	383.85
383.22	496.19
383.41	393.21
383.61	507.90
383.80	531.30
384.00	592.16
384.19	578.11
384.39	622.58
384.58	657.69
384.78	519.60
384.97	631.94
385.17	636.63
385.36	573.43
385.56	613.22
385.75	603.86
385.95	610.88
386.14	643.65
386.34	610.88
386.53	587.47
386.72	571.09
386.92	613.22
387.11	617.90
387.31	620.24
387.50	571.09
387.70	638.97
387.89	601.52
388.09	594.50
388.28	655.35
388.48	582.79
388.67	674.07
388.86	657.69
389.06	748.97
389.25	814.51
389.45	739.61
389.64	734.93
389.84	816.85
390.03	788.76
390.22	727.91
390.42	739.61
390.61	861.32
390.81	858.98
391.00	896.43
391.19	884.72
391.39	821.53
391.58	847.27
391.78	734.93
391.97	683.44
392.16	596.84
392.36	751.31
392.55	528.96
392.75	514.92
392.94	395.55
393.13	437.68
393.33	416.62
393.52	517.26
393.71	657.69
393.91	664.71
394.10	777.06
394.29	795.78
394.49	861.32
394.68	877.70
394.88	940.90
395.07	983.02
395.26	905.79
395.46	882.38
395.65	772.38
395.84	779.40
396.04	657.69
396.23	620.24
396.42	437.68
396.62	526.62
396.81	620.24
397.00	601.52
397.19	746.63
397.39	828.55
397.58	1001.75
397.77	1062.60
397.97	1057.92
398.16	1123.46
398.35	1121.12
398.55	1097.71
398.74	1191.33
398.93	1191.33
399.12	1219.42
399.32	1125.80
399.51	1137.50
399.70	1256.87
399.90	1313.04
400.09	1186.65
400.28	1205.38
400.47	1228.78
400.67	1366.87
400.86	1345.81
401.05	1366.87
401.24	1357.51
401.44	1331.76
401.63	1357.51
401.82	1282.61
402.01	1287.29
402.21	1280.27
402.40	1336.45
402.59	1308.36
402.78	1282.61
402.97	1296.66
403.17	1301.34
403.36	1348.15
403.55	1404.32
403.74	1373.89
403.93	1481.56
404.13	1394.96
404.32	1401.98
404.51	1399.64
404.70	1409.00
404.89	1399.64
405.09	1310.70
405.28	1310.70
405.47	1387.94
405.66	1308.36
405.85	1287.29
406.05	1289.64
406.24	1291.98
406.43	1355.17
406.62	1324.74
406.81	1432.41
407.00	1334.11
407.20	1191.33
407.39	1296.66
407.58	1404.32
407.77	1301.34
407.96	1448.79
408.15	1420.71
408.34	1575.18
408.54	1465.18
408.73	1572.84
408.92	1511.99
409.11	1535.39
409.30	1458.15
409.49	1301.34
409.68	1268.57
409.87	1196.01
410.07	1240.48
410.26	1373.89
410.45	1366.87
410.64	1465.18
410.83	1549.43
411.02	1479.22
411.21	1633.69
411.40	1479.22
411.59	1549.43
411.78	1565.82
411.98	1497.94
412.17	1563.48
412.36	1621.99
412.55	1554.12
412.74	1476.88
412.93	1556.46
413.12	1563.48
413.31	1685.19
413.50	1722.63
413.69	1603.27
413.88	1607.95
414.07	1558.80
414.26	1556.46
414.45	1519.01
414.64	1682.85
414.83	1678.16
415.02	1593.90
415.22	1724.97
415.41	1713.27
415.60	1671.14
415.79	1799.87
415.98	1865.41
416.17	1717.95
416.36	1720.29
416.55	1764.76
416.74	1682.85
416.93	1685.19
417.12	1685.19
417.31	1582.20
417.50	1598.59
417.69	1799.87
417.88	1743.70
418.07	1673.48
418.26	1675.82
418.45	1638.38
418.64	1813.92
418.83	1736.68
419.02	1746.04
419.21	1774.13
419.39	1708.59
419.58	1614.97
419.77	1659.44
419.96	1724.97
420.15	1764.76
420.34	1767.10
420.53	1839.66
420.72	1977.75
420.91	2001.16
421.10	1923.92
421.29	1956.69
421.48	1762.42
421.67	1930.94
421.86	1858.39
422.05	1778.81
422.24	1540.07
422.43	1511.99
422.61	1596.25
422.80	1755.40
422.99	1778.81
423.18	1743.70
423.37	1659.44
423.56	1783.49
423.75	1902.86
423.94	1729.66
424.13	1701.57
424.32	1652.42
424.50	1830.30
424.69	1853.70
424.88	1820.94
425.07	1692.21
425.26	1743.70
425.45	1610.29
425.64	1713.27
425.83	1668.80
426.01	1750.72
426.20	1795.19
426.39	1774.13
426.58	1610.29
426.77	1465.18
426.96	1544.75
427.15	1497.94
427.33	1617.31
427.52	1603.27
427.71	1741.36
427.90	1699.23
428.09	1617.31
428.28	1610.29
428.46	1626.67
428.65	1577.52
428.84	1636.03
429.03	1682.85
429.22	1540.07
429.40	1472.20
429.59	1437.09
429.78	1284.95
429.97	1172.61
430.16	1231.12
430.34	1343.47
430.53	1263.89
430.72	1277.93
430.91	1437.09
431.10	1633.69
431.28	1874.77
431.47	1959.03
431.66	2038.61
431.85	1858.39
432.03	1748.38
432.22	1722.63
432.41	1755.40
432.60	1811.57
432.79	1980.09
432.97	1968.39
433.16	1853.70
433.35	1760.08
433.54	1549.43
433.72	1504.96
433.91	1668.80
434.10	1767.10
434.28	1760.08
434.47	1954.35
434.66	1895.83
434.85	1839.66
435.03	2045.63
435.22	2319.47
435.41	2897.58
435.59	2970.14
435.78	2682.25
435.97	2354.58
436.16	2319.47
436.34	2062.01
436.53	2024.56
436.72	2003.50
436.90	1933.28
437.09	1933.28
437.28	1877.11
437.46	1935.62
437.65	1923.92
437.84	1940.30
438.02	1692.21
438.21	1680.50
438.40	1739.02
438.58	1837.32
438.77	1895.83
438.96	1989.46
439.14	1902.86
439.33	2157.97
439.52	2010.52
439.70	2022.22
439.89	2031.58
440.08	1907.54
440.26	1935.62
440.45	2064.35
440.63	2090.10
440.82	2197.76
441.01	2251.60
441.19	2134.57
441.38	2228.19
441.57	2298.41
441.75	2230.53
441.94	2328.83
442.12	2303.09
442.31	2190.74
442.50	2431.82
442.68	2289.04
442.87	2239.89
443.05	2169.68
443.24	2289.04
443.43	2361.60
443.61	2403.73
443.80	2377.98
443.98	2396.71
444.17	2230.53
444.35	2417.77
444.54	2424.80
444.73	2321.81
444.91	2319.47
445.10	2139.25
445.28	2036.27
445.47	2045.63
445.65	2193.08
445.84	2064.35
446.02	2172.02
446.21	2214.15
446.39	2282.02
446.58	2310.11
446.77	2377.98
446.95	2389.69
447.14	2375.64
447.32	2359.26
447.51	2373.30
447.69	2251.60
447.88	2289.04
448.06	2520.76
448.25	2368.62
448.43	2387.35
448.62	2373.30
448.80	2436.50
448.99	2424.80
449.17	2394.37
449.36	2408.41
449.54	2588.63
449.73	2525.44
449.91	2633.10
450.10	2455.22
450.28	2766.51
450.46	2637.78
450.65	2590.97
450.83	2602.68
451.02	2544.16
451.20	2509.05
451.39	2516.08
451.57	2499.69
451.76	2464.58
451.94	2450.54
452.13	2420.11
452.31	2335.85
452.49	2312.45
452.68	2246.91
452.86	2298.41
453.05	2408.41
453.23	2385.01
453.42	2459.90
453.60	2438.84
453.78	2436.50
453.97	2499.69
454.15	2345.22
454.34	2333.51
454.52	2471.61
454.70	2438.84
454.89	2413.09
455.07	2464.58
455.26	2352.24
455.44	2600.34
455.62	2555.86
455.81	2628.42
455.99	2541.82
456.17	2530.12
456.36	2583.95
456.54	2548.84
456.73	2567.57
456.91	2649.49
457.09	2644.81
457.28	2750.13
457.46	2532.46
457.64	2686.94
457.83	2480.97
458.01	2511.39
458.19	2572.25
458.38	2429.48
458.56	2595.65
458.74	2546.50
458.93	2619.06
459.11	2621.40
459.29	2555.86
459.48	2574.59
459.66	2661.19
459.84	2532.46
460.03	2670.55
460.21	2640.12
460.39	2452.88
460.57	2729.06
460.76	2642.46
460.94	2644.81
461.12	2675.23
461.31	2658.85
461.49	2649.49
461.67	2665.87
461.85	2782.90
462.04	2750.13
462.22	3087.17
462.40	2743.11
462.59	2710.34
462.77	2649.49
462.95	2731.41
463.13	2708.00
463.32	2623.74
463.50	2579.27
463.68	2663.53
463.86	2623.74
464.05	2675.23
464.23	2590.97
464.41	2649.49
464.59	2478.63
464.78	2597.99
464.96	2541.82
465.14	2590.97
465.32	2602.68
465.50	2635.44
465.69	2764.17
465.87	2656.51
466.05	2614.38
466.23	2406.07
466.41	2539.48
466.60	2485.65
466.78	2471.61
466.96	2637.78
467.14	2651.83
467.32	2621.40
467.51	2743.11
467.69	2473.95
467.87	2534.80
468.05	2513.74
468.23	2642.46
468.41	2722.04
468.60	2605.02
468.78	2654.17
468.96	2649.49
469.14	2623.74
469.32	2583.95
469.50	2495.01
469.69	2581.61
469.87	2551.18
470.05	2600.34
470.23	2553.52
470.41	2544.16
470.59	2663.53
470.77	2544.16
470.95	2675.23
471.14	2771.19
471.32	2548.84
471.50	2679.91
471.68	2771.19
471.86	2787.58
472.04	2857.79
472.22	2848.43
472.40	2733.75
472.58	2719.70
472.77	2717.36
472.95	2581.61
473.13	2820.35
473.31	2780.56
473.49	2691.62
473.67	2743.11
473.85	2836.73
474.03	2822.69
474.21	2869.50
474.39	3000.57
474.57	2848.43
474.75	2909.29
474.93	2785.24
475.12	2853.11
475.30	2799.28
475.48	2935.03
475.66	2883.54
475.84	2782.90
476.02	2778.22
476.20	2649.49
476.38	2724.38
476.56	2899.92
476.74	2951.42
476.92	3042.70
477.10	2913.97
477.28	3047.38
477.46	3033.33
477.64	3028.65
477.82	3126.96
478.00	3038.02
478.18	2958.44
478.36	3061.42
478.54	3033.33
478.72	2995.89
478.90	3068.44
479.08	3194.83
479.26	3255.69
479.44	3246.32
479.62	3286.11
479.80	3337.60
479.98	3194.83
480.16	3279.09
480.34	3101.21
480.52	3309.52
480.70	3283.77
480.88	3218.24
481.06	3309.52
481.24	3304.84
481.41	3496.76
481.59	3393.78
481.77	3506.12
481.95	3456.97
482.13	3431.23
482.31	3389.10
482.49	3527.19
482.67	3485.06
482.85	3499.10
483.03	3559.95
483.21	3714.43
483.39	3672.30
483.57	3426.54
483.74	3562.30
483.92	3534.21
484.10	3604.42
484.28	3623.15
484.46	3740.18
484.64	3705.07
484.82	3550.59
485.00	3672.30
485.18	3496.76
485.35	3435.91
485.53	3183.13
485.71	2963.12
485.89	2904.60
486.07	2949.08
486.25	3283.77
486.43	3520.17
486.61	3602.08
486.78	3555.27
486.96	3459.31
487.14	3709.75
487.32	3639.53
487.50	3798.69
487.68	4025.72
487.85	4046.79
488.03	4007.00
488.21	3875.93
488.39	3854.86
488.57	3815.07
488.75	3791.67
488.92	4196.58
489.10	4166.15
489.28	4229.35
489.46	4390.84
489.64	4369.78
489.81	4374.46
489.99	4227.01
490.17	4542.98
490.35	4386.16
490.53	4376.80
490.70	3988.27
490.88	4365.10
491.06	4425.95
491.24	4418.93
491.41	4245.73
491.59	4091.26
491.77	3871.25
491.95	4152.11
492.13	4201.26
492.30	4243.39
492.48	4376.80
492.66	4624.90
492.84	4521.92
493.01	4477.44
493.19	4440.00
493.37	4395.53
493.54	4449.36
493.72	4381.48
493.90	4559.36
494.08	4709.16
494.25	4800.44
494.43	4896.40
494.61	4774.69
494.79	4772.35
494.96	4667.03
495.14	4652.98
495.32	4678.73
495.49	4449.36
495.67	4777.03
495.85	4723.20
496.02	4786.40
496.20	4973.64
496.38	4844.91
496.55	4795.76
496.73	4821.50
496.91	4915.12
497.09	5149.18
497.26	4997.04
497.44	4919.81
497.62	4863.63
497.79	4830.87
497.97	4547.66
498.14	4617.88
498.32	4737.24
498.50	4706.82
498.67	4936.19
498.85	4901.08
499.03	5022.79
499.20	4931.51
499.38	5022.79
499.56	5015.77
499.73	4959.60
499.91	4767.67
500.08	4732.56
500.26	4650.64
500.44	4631.92
500.61	4816.82
500.79	4674.05
500.97	4652.98
501.14	4755.97
501.32	4575.75
501.49	4685.75
501.67	4596.81
501.84	4711.50
502.02	4791.08
502.20	4784.06
502.37	4961.94
502.55	4713.84
502.72	4968.96
502.90	4868.31
503.07	4868.31
503.25	4664.69
503.43	4486.81
503.60	4362.76
503.78	4327.65
503.95	4383.82
504.13	4580.43
504.30	4912.78
504.48	4983.00
504.65	4938.53
504.83	4931.51
505.01	4964.28
505.18	5041.51
505.36	4945.55
505.53	5121.09
505.71	5144.50
505.88	5252.16
506.06	5015.77
506.23	5020.45
506.41	4999.38
506.58	4863.63
506.76	5004.07
506.93	4870.65
507.11	4908.10
507.28	4833.21
507.46	4826.18
507.63	4809.80
507.81	4678.73
507.98	4777.03
508.16	4865.97
508.33	4950.23
508.50	5081.30
508.68	5109.39
508.85	5158.54
509.03	5301.31
509.20	5207.69
509.38	5125.77
509.55	4957.25
509.73	4919.81
509.90	5043.85
510.08	5200.67
510.25	5207.69
510.42	5104.71
510.60	5036.83
510.77	4978.32
510.95	5252.16
511.12	5198.33
511.30	5235.78
511.47	5287.27
511.64	5320.04
511.82	5399.62
511.99	5139.82
512.17	5125.77
512.34	4891.72
512.51	4992.36
512.69	4961.94
512.86	5104.71
513.04	5090.67
513.21	5167.90
513.38	5240.46
513.56	5074.28
513.73	4868.31
513.90	4952.57
514.08	4994.70
514.25	4936.19
514.43	5074.28
514.60	5076.62
514.77	5193.65
514.95	5025.13
515.12	5167.90
515.29	5191.31
515.47	5469.83
515.64	5217.05
515.81	5322.38
515.99	5210.03
516.16	4854.27
516.33	4542.98
516.51	4355.74
516.68	4255.09
516.85	4142.75
517.03	4194.24
517.20	4566.39
517.37	4936.19
517.54	5109.39
517.72	5048.54
517.89	4816.82
518.06	4458.72
518.24	4411.91
518.41	4730.22
518.58	4865.97
518.75	4819.16
518.93	4901.08
519.10	4975.98
519.27	4779.37
519.45	4983.00
519.62	5156.20
519.79	5310.68
519.96	5226.42
520.14	5158.54
520.31	5212.37
520.48	5102.37
520.65	4985.34
520.83	5146.84
521.00	5408.98
521.17	5142.16
521.34	4997.04
521.52	5184.29
521.69	5235.78
521.86	5479.19
522.03	5586.86
522.20	5177.26
522.38	5020.45
522.55	4863.63
522.72	5174.92
522.89	5177.26
523.07	5076.62
523.24	5039.17
523.41	5247.48
523.58	5411.32
523.75	5453.45
523.92	5418.34
524.10	5430.04
524.27	5343.44
524.44	5434.72
524.61	5444.09
524.78	5266.21
524.96	5270.89
525.13	5390.25
525.30	5266.21
525.47	5397.28
525.64	5423.02
525.81	5336.42
525.98	5071.94
526.16	4739.58
526.33	4568.73
526.50	4690.43
526.67	4512.55
526.84	4629.58
527.01	4858.95
527.18	4847.25
527.36	5050.88
527.53	5200.67
527.70	5327.06
527.87	5116.41
528.04	5153.86
528.21	5224.08
528.38	5348.12
528.55	5434.72
528.72	5511.96
528.89	5497.92
529.07	5432.38
529.24	5488.56
529.41	5345.78
529.58	5125.77
529.75	5181.95
529.92	5373.87
530.09	5479.19
530.26	5584.52
530.43	5540.05
530.60	5439.40
530.77	5413.66
530.94	5643.03
531.11	5486.22
531.28	5427.70
531.46	5308.34
531.63	5352.81
531.80	5373.87
531.97	5359.83
532.14	5071.94
532.31	4938.53
532.48	4784.06
532.65	4744.27
532.82	4957.25
532.99	5093.01
533.16	5298.97
533.33	5411.32
533.50	5366.85
533.67	5371.53
533.84	5198.33
534.01	5476.85
534.18	5275.57
534.35	5247.48
534.52	5303.65
534.69	5406.64
534.86	5259.18
535.03	5509.62
535.20	5514.30
535.37	5699.20
535.54	5530.69
535.71	5565.79
535.88	5465.15
536.05	5345.78
536.22	5158.54
536.38	5181.95
536.55	5210.03
536.72	5032.15
536.89	5039.17
537.06	5259.18
537.23	5327.06
537.40	5383.23
537.57	5313.02
537.74	5472.17
537.91	5446.43
538.08	5359.83
538.25	5289.61
538.42	5294.29
538.59	5455.79
538.75	5352.81
538.92	5373.87
539.09	5397.28
539.26	5177.26
539.43	5277.91
539.60	5355.15
539.77	5418.34
539.94	5263.86
540.11	5177.26
540.28	5193.65
540.44	5071.94
540.61	5240.46
540.78	5420.68
540.95	5544.73
541.12	5673.46
541.29	5809.21
541.46	6106.46
541.62	5820.91
541.79	5858.36
541.96	5935.60
542.13	5959.00
542.30	5820.91
542.47	5877.09
542.63	5701.54
542.80	5605.58
542.97	5767.08
543.14	5776.44
543.31	5671.12
543.48	5755.38
543.64	5771.76
543.81	6010.50
543.98	5949.64
544.15	5727.29
544.32	5743.67
544.48	5755.38
544.65	5706.23
544.82	5820.91
544.99	5795.17
545.16	5823.25
545.32	5792.83
545.49	6452.86
545.66	7197.15
545.83	7616.10
546.00	7391.41
546.16	6448.18
546.33	6085.39
546.50	5734.31
546.67	5540.05
546.83	5769.42
547.00	5413.66
547.17	5593.88
547.34	5195.99
547.50	5390.25
547.67	5416.00
547.84	5376.21
548.00	5451.11
548.17	5465.15
548.34	5460.47
548.51	5544.73
548.67	5467.49
548.84	5507.28
549.01	5348.12
549.18	5320.04
549.34	5284.93
549.51	5310.68
549.68	5287.27
549.84	5280.25
550.01	5256.84
550.18	5296.63
550.34	5287.27
550.51	5327.06
550.68	5313.02
550.84	5224.08
551.01	5233.44
551.18	5039.17
551.34	5107.05
551.51	5268.55
551.68	5235.78
551.84	5357.49
552.01	5198.33
552.18	5231.10
552.34	4952.57
552.51	4844.91
552.68	5039.17
552.84	5083.64
553.01	5097.69
553.18	5006.41
553.34	5090.67
553.51	5027.47
553.67	4957.25
553.84	5158.54
554.01	5149.18
554.17	4966.62
554.34	4919.81
554.51	5172.58
554.67	5107.05
554.84	5109.39
555.00	5090.67
555.17	5048.54
555.33	5060.24
555.50	5088.32
555.67	4833.21
555.83	5053.22
556.00	4957.25
556.16	5048.54
556.33	4784.06
556.50	4812.14
556.66	4849.59
556.83	4713.84
556.99	4800.44
557.16	4908.10
557.32	4830.87
557.49	4868.31
557.65	4896.40
557.82	4751.29
557.98	4807.46
558.15	4741.93
558.32	4697.46
558.48	4538.30
558.65	4496.17
558.81	4542.98
558.98	4578.09
559.14	4676.39
559.31	4674.05
559.47	4664.69
559.64	4629.58
559.80	4599.15
559.97	4594.47
560.13	4629.58
560.30	4814.48
560.46	4828.53
560.63	4990.02
560.79	4957.25
560.96	4882.36
561.12	4723.20
561.29	4744.27
561.45	4615.54
561.61	4564.04
561.78	4720.86
561.94	4603.83
562.11	4702.14
562.27	4798.10
562.44	4779.37
562.60	4741.93
562.77	4896.40
562.93	4851.93
563.10	4882.36
563.26	4688.09
563.42	4711.50
563.59	4702.14
563.75	4652.98
563.92	4641.28
564.08	4585.11
564.24	4503.19
564.41	4683.41
564.57	4667.03
564.74	4533.62
564.90	4615.54
565.07	4622.56
565.23	4582.77
565.39	4496.17
565.56	4402.55
565.72	4353.40
565.88	4535.96
566.05	4430.63
566.21	4479.79
566.38	4585.11
566.54	4514.89
566.70	4554.68
566.87	4573.41
567.03	4468.08
567.19	4615.54
567.36	4409.57
567.52	4599.15
567.68	4411.91
567.85	4404.89
568.01	4327.65
568.17	4257.43
568.34	4203.60
568.50	4224.67
568.66	4152.11
568.83	4292.54
568.99	4376.80
569.15	4395.53
569.32	4393.19
569.48	4243.39
569.64	4119.34
569.81	4180.20
569.97	4175.52
570.13	4280.84
570.30	4173.18
570.46	4161.47
570.62	3997.64
570.78	4212.96
570.95	4121.68
571.11	4269.14
571.27	4259.78
571.43	4067.85
571.60	4248.07
571.76	4222.33
571.92	4215.30
572.09	4201.26
572.25	4299.56
572.41	4325.31
572.57	4215.30
572.74	4402.55
572.90	4264.46
573.06	4311.27
573.22	4177.86
573.38	4219.99
573.55	4215.30
573.71	4320.63
573.87	4248.07
574.03	4259.78
574.20	4142.75
574.36	4173.18
574.52	4201.26
574.68	4219.99
574.84	4177.86
575.01	4121.68
575.17	4100.62
575.33	4154.45
575.49	4107.64
575.65	4070.19
575.82	4084.23
575.98	4035.08
576.14	3974.23
576.30	4159.13
576.46	4248.07
576.62	4437.66
576.79	4636.60
576.95	4278.50
577.11	4381.48
577.27	4180.20
577.43	4187.22
577.59	4187.22
577.75	4079.55
577.92	3995.29
578.08	4009.34
578.24	4046.79
578.40	4142.75
578.56	4124.02
578.72	4414.25
578.88	4580.43
579.04	4290.20
579.21	4383.82
579.37	4395.53
579.53	4205.94
579.69	4191.90
579.85	4301.90
580.01	4285.52
580.17	4227.01
580.33	4117.00
580.49	4287.86
580.65	4313.61
580.82	4196.58
580.98	4229.35
581.14	4217.65
581.30	4304.25
581.46	4397.87
581.62	4222.33
581.78	4145.09
581.94	4318.29
582.10	4287.86
582.26	4299.56
582.42	4355.74
582.58	4334.67
582.74	4369.78
582.90	4203.60
583.06	4442.34
583.22	4283.18
583.38	4465.74
583.54	4372.12
583.70	4262.12
583.86	4386.16
584.02	4416.59
584.18	4227.01
584.34	4217.65
584.50	4177.86
584.66	4337.01
584.82	4154.45
584.98	4138.07
585.14	4067.85
585.30	4133.39
585.46	3934.44
585.62	3960.19
585.78	3929.76
585.94	3936.78
586.10	4021.04
586.26	4084.23
586.42	4095.94
586.58	4170.83
586.74	4156.79
586.90	4114.66
587.06	4119.34
587.22	4079.55
587.38	4018.70
587.54	3967.21
587.70	3880.61
587.86	3702.73
588.02	3585.70
588.18	3552.93
588.34	3414.84
588.49	3166.74
588.65	3056.74
588.81	2932.69
588.97	2864.82
589.13	2979.50
589.29	2909.29
589.45	2918.65
589.61	2998.23
589.77	3000.57
589.93	3215.90
590.08	3255.69
590.24	3377.39
590.40	3489.74
590.56	3431.23
590.72	3353.99
590.88	3384.41
591.04	3353.99
591.20	3384.41
591.35	3405.48
591.51	3487.40
591.67	3176.11
591.83	3236.96
591.99	3290.79
592.15	3332.92
592.31	3508.46
592.46	3578.68
592.62	3590.38
592.78	3550.59
592.94	3613.79
593.10	3552.93
593.26	3651.24
593.41	3737.84
593.57	3634.85
593.73	3471.01
593.89	3318.88
594.05	3208.87
594.20	3178.45
594.36	3119.93
594.52	3068.44
594.68	3087.17
594.84	3323.56
594.99	3393.78
595.15	3356.33
595.31	3447.61
595.47	3520.17
595.62	3393.78
595.78	3466.33
595.94	3536.55
596.10	3405.48
596.25	3466.33
596.41	3440.59
596.57	3393.78
596.73	3339.94
596.88	3368.03
597.04	3473.36
597.20	3396.12
597.36	3346.97
597.51	3365.69
597.67	3353.99
597.83	3494.42
