SpectraSuite Data File
++++++++++++++++++++++++++++++++++++
Date: Fri Oct 04 11:44:27 GMT-05:00 2013
User: price-jones
Dark Spectrum Present: No
Reference Spectrum Present: No
Number of Sampled Component Spectra: 1
Spectrometers: USB2+H05261
Integration Time (usec): 100000 (USB2+H05261)
Spectra Averaged: 1 (USB2+H05261)
Boxcar Smoothing: 0 (USB2+H05261)
Correct for Electrical Dark: No (USB2+H05261)
Strobe/Lamp Enabled: No (USB2+H05261)
Correct for Detector Non-linearity: No (USB2+H05261)
Correct for Stray Light: No (USB2+H05261)
Number of Pixels in Processed Spectrum: 2048
>>>>>Begin Processed Spectral Data<<<<<
365.73	4.68
365.92	4.68
366.12	4.68
366.32	0.00
366.52	0.00
366.72	0.00
366.91	0.00
367.11	0.00
367.31	0.00
367.51	0.00
367.70	0.00
367.90	0.00
368.10	0.00
368.30	0.00
368.49	0.00
368.69	0.00
368.89	0.00
369.09	0.00
369.28	0.00
369.48	0.00
369.68	7.02
369.87	25.75
370.07	0.00
370.27	14.04
370.47	121.71
370.66	444.70
370.86	458.74
371.06	550.03
371.25	566.41
371.45	573.43
371.65	454.06
371.84	486.83
372.04	475.13
372.24	503.22
372.44	596.84
372.63	573.43
372.83	526.62
373.03	512.58
373.22	454.06
373.42	458.74
373.62	477.47
373.81	582.79
374.01	470.45
374.21	533.64
374.40	451.72
374.60	484.49
374.79	465.77
374.99	543.00
375.19	704.50
375.38	669.39
375.58	678.76
375.78	592.16
375.97	624.92
376.17	674.07
376.37	617.90
376.56	678.76
376.76	608.54
376.95	777.06
377.15	763.01
377.35	929.19
377.54	840.25
377.74	828.55
377.93	835.57
378.13	788.76
378.33	798.12
378.52	662.37
378.72	746.63
378.91	791.10
379.11	681.10
379.31	601.52
379.50	596.84
379.70	669.39
379.89	737.27
380.09	821.53
380.28	758.33
380.48	748.97
380.68	755.99
380.87	657.69
381.07	711.52
381.26	681.10
381.46	674.07
381.65	603.86
381.85	559.39
382.04	617.90
382.24	540.66
382.43	479.81
382.63	519.60
382.83	463.43
383.02	514.92
383.22	554.71
383.41	543.00
383.61	596.84
383.80	622.58
384.00	674.07
384.19	763.01
384.39	805.14
384.58	734.93
384.78	725.57
384.97	805.14
385.17	744.29
385.36	704.50
385.56	645.99
385.75	692.80
385.95	737.27
386.14	826.21
386.34	791.10
386.53	667.05
386.72	781.74
386.92	788.76
387.11	734.93
387.31	746.63
387.50	788.76
387.70	718.54
387.89	791.10
388.09	741.95
388.28	854.30
388.48	739.61
388.67	816.85
388.86	889.40
389.06	987.71
389.25	994.73
389.45	980.68
389.64	1041.54
389.84	987.71
390.03	973.66
390.22	1032.18
390.42	1022.81
390.61	1020.47
390.81	1078.99
391.00	1188.99
391.19	1102.39
391.39	1020.47
391.58	1041.54
391.78	978.34
391.97	961.96
392.16	884.72
392.36	851.96
392.55	676.41
392.75	589.82
392.94	550.03
393.13	493.85
393.33	526.62
393.52	599.18
393.71	760.67
393.91	898.77
394.10	875.36
394.29	957.28
394.49	1114.10
394.68	1233.46
394.88	1165.59
395.07	1200.69
395.26	1277.93
395.46	1198.35
395.65	1151.54
395.84	957.28
396.04	891.74
396.23	716.20
396.42	653.01
396.62	589.82
396.81	770.04
397.00	753.65
397.19	1071.97
397.39	1167.93
397.58	1266.23
397.77	1390.28
397.97	1362.19
398.16	1378.58
398.35	1444.11
398.55	1418.36
398.74	1621.99
398.93	1617.31
399.12	1619.65
399.32	1526.03
399.51	1621.99
399.70	1673.48
399.90	1523.69
400.09	1549.43
400.28	1664.12
400.47	1638.38
400.67	1619.65
400.86	1799.87
401.05	1778.81
401.24	1846.68
401.44	1692.21
401.63	1792.85
401.82	1760.08
402.01	1781.15
402.21	1757.74
402.40	1792.85
402.59	1722.63
402.78	1582.20
402.97	1598.59
403.17	1661.78
403.36	1839.66
403.55	1858.39
403.74	1856.04
403.93	1834.98
404.13	1795.19
404.32	1748.38
404.51	1834.98
404.70	1987.11
404.89	1769.44
405.09	1750.72
405.28	1680.50
405.47	1734.34
405.66	1764.76
405.85	1689.87
406.05	1689.87
406.24	1610.29
406.43	1771.79
406.62	1811.57
406.81	1858.39
407.00	1734.34
407.20	1785.83
407.39	1589.22
407.58	1732.00
407.77	1872.43
407.96	1813.92
408.15	1891.15
408.34	1980.09
408.54	1944.99
408.73	1942.64
408.92	1987.11
409.11	1865.41
409.30	1905.20
409.49	1792.85
409.68	1715.61
409.87	1572.84
410.07	1589.22
410.26	1837.32
410.45	1720.29
410.64	1914.56
410.83	2057.33
411.02	2099.46
411.21	2090.10
411.40	2031.58
411.59	2155.63
411.78	2104.14
411.98	2129.89
412.17	2087.76
412.36	2115.84
412.55	1984.77
412.74	2076.06
412.93	1982.43
413.12	1984.77
413.31	2122.87
413.50	2045.63
413.69	2218.83
413.88	2097.12
414.07	2083.08
414.26	2165.00
414.45	2078.40
414.64	2179.04
414.83	2270.32
415.02	2188.40
415.22	2078.40
415.41	2260.96
415.60	2312.45
415.79	2282.02
415.98	2366.28
416.17	2544.16
416.36	2312.45
416.55	2157.97
416.74	2263.30
416.93	2148.61
417.12	2120.53
417.31	2211.81
417.50	2282.02
417.69	2361.60
417.88	2263.30
418.07	2370.96
418.26	2172.02
418.45	2249.25
418.64	2317.13
418.83	2333.51
419.02	2387.35
419.21	2340.54
419.39	2361.60
419.58	2104.14
419.77	2183.72
419.96	2232.87
420.15	2354.58
420.34	2448.20
420.53	2509.05
420.72	2469.27
420.91	2499.69
421.10	2443.52
421.29	2586.29
421.48	2328.83
421.67	2499.69
421.86	2466.92
422.05	2293.72
422.24	2083.08
422.43	2010.52
422.61	2167.34
422.80	2377.98
422.99	2347.56
423.18	2373.30
423.37	2312.45
423.56	2335.85
423.75	2448.20
423.94	2354.58
424.13	2221.17
424.32	2200.10
424.50	2303.09
424.69	2200.10
424.88	2232.87
425.07	2270.32
425.26	2148.61
425.45	2221.17
425.64	2141.59
425.83	2141.59
426.01	2331.17
426.20	2382.67
426.39	2377.98
426.58	2167.34
426.77	2129.89
426.96	2036.27
427.15	2005.84
427.33	2202.44
427.52	2104.14
427.71	2289.04
427.90	2183.72
428.09	2256.28
428.28	2190.74
428.46	2076.06
428.65	2125.21
428.84	2195.42
429.03	2223.51
429.22	2097.12
429.40	1973.07
429.59	1860.73
429.78	1659.44
429.97	1596.25
430.16	1596.25
430.34	1720.29
430.53	1675.82
430.72	1689.87
430.91	1767.10
431.10	2122.87
431.28	2370.96
431.47	2511.39
431.66	2644.81
431.85	2551.18
432.03	2406.07
432.22	2249.25
432.41	2312.45
432.60	2366.28
432.79	2539.48
432.97	2555.86
433.16	2717.36
433.35	2204.78
433.54	2202.44
433.72	2017.54
433.91	2129.89
434.10	2324.15
434.28	2373.30
434.47	2621.40
434.66	2562.89
434.85	2539.48
435.03	2616.72
435.22	3080.14
435.41	3393.78
435.59	3510.80
435.78	3187.81
435.97	3040.36
436.16	2977.16
436.34	2801.62
436.53	2658.85
436.72	2621.40
436.90	2651.83
437.09	2511.39
437.28	2485.65
437.46	2567.57
437.65	2663.53
437.84	2366.28
438.02	2347.56
438.21	2272.66
438.40	2249.25
438.58	2459.90
438.77	2415.43
438.96	2537.14
439.14	2675.23
439.33	2637.78
439.52	2780.56
439.70	2717.36
439.89	2682.25
440.08	2586.29
440.26	2562.89
440.45	2675.23
440.63	2822.69
440.82	3026.31
441.01	2993.55
441.19	2867.16
441.38	2855.45
441.57	2906.95
441.75	3063.76
441.94	3126.96
442.12	3007.59
442.31	3098.87
442.50	3115.25
442.68	3084.83
442.87	3047.38
443.05	3145.68
443.24	3056.74
443.43	3030.99
443.61	3066.10
443.80	3225.26
443.98	3038.02
444.17	2869.50
444.35	3143.34
444.54	3199.51
444.73	3150.36
444.91	3061.42
445.10	2923.33
445.28	2778.22
445.47	2825.03
445.65	2848.43
445.84	2736.09
446.02	2965.46
446.21	2998.23
446.39	3098.87
446.58	3042.70
446.77	3185.47
446.95	3187.81
447.14	3208.87
447.32	3220.58
447.51	3339.94
447.69	3229.94
447.88	3023.97
448.06	3166.74
448.25	3262.71
448.43	3190.15
448.62	3251.00
448.80	3241.64
448.99	3110.57
449.17	3185.47
449.36	3112.91
449.54	3232.28
449.73	3318.88
449.91	3410.16
450.10	3492.08
450.28	3557.61
450.46	3538.89
450.65	3503.78
450.83	3447.61
451.02	3475.70
451.20	3349.31
451.39	3330.58
451.57	3276.75
451.76	3368.03
451.94	3190.15
452.13	3365.69
452.31	3243.98
452.49	2923.33
452.68	3101.21
452.86	3126.96
453.05	3061.42
453.23	3084.83
453.42	3173.77
453.60	3197.17
453.78	3346.97
453.97	3332.92
454.15	3227.60
454.34	3267.39
454.52	3194.83
454.70	3159.72
454.89	3229.94
455.07	3103.55
455.26	3283.77
455.44	3393.78
455.62	3454.63
455.81	3471.01
455.99	3328.24
456.17	3297.81
456.36	3485.06
456.54	3393.78
456.73	3442.93
456.91	3475.70
457.09	3499.10
457.28	3695.71
457.46	3449.95
457.64	3620.81
457.83	3372.71
458.01	3309.52
458.19	3351.65
458.38	3255.69
458.56	3412.50
458.74	3400.80
458.93	3375.05
459.11	3356.33
459.29	3295.47
459.48	3407.82
459.66	3421.86
459.84	3377.39
460.03	3480.38
460.21	3410.16
460.39	3576.34
460.57	3548.25
460.76	3431.23
460.94	3534.21
461.12	3410.16
461.31	3452.29
461.49	3613.79
461.67	3543.57
461.85	3829.12
462.04	3646.55
462.22	3997.64
462.40	3651.24
462.59	3583.36
462.77	3583.36
462.95	3660.60
463.13	3634.85
463.32	3571.66
463.50	3538.89
463.68	3506.12
463.86	3548.25
464.05	3501.44
464.23	3435.91
464.41	3407.82
464.59	3435.91
464.78	3461.65
464.96	3555.27
465.14	3389.10
465.32	3590.38
465.50	3574.00
465.69	3688.68
465.87	3391.44
466.05	3466.33
466.23	3332.92
466.41	3213.56
466.60	3337.60
466.78	3375.05
466.96	3260.37
467.14	3548.25
467.32	3417.18
467.51	3658.26
467.69	3489.74
467.87	3487.40
468.05	3449.95
468.23	3538.89
468.41	3571.66
468.60	3393.78
468.78	3585.70
468.96	3489.74
469.14	3569.32
469.32	3433.57
469.50	3323.56
469.69	3349.31
469.87	3517.83
470.05	3438.25
470.23	3431.23
470.41	3386.76
470.59	3545.91
470.77	3574.00
470.95	3648.90
471.14	3478.04
471.32	3513.14
471.50	3730.81
471.68	3779.97
471.86	3684.00
472.04	3782.31
472.22	3875.93
472.40	3569.32
472.58	3543.57
472.77	3597.40
472.95	3576.34
473.13	3744.86
473.31	3536.55
473.49	3524.85
473.67	3723.79
473.85	3665.28
474.03	3758.90
474.21	3698.05
474.39	3789.33
474.57	3896.99
474.75	3801.03
474.93	4039.76
475.12	3634.85
475.30	3810.39
475.48	3721.45
475.66	3882.95
475.84	3826.78
476.02	3623.15
476.20	3700.39
476.38	3712.09
476.56	3742.52
476.74	3875.93
476.92	3873.59
477.10	3929.76
477.28	4098.28
477.46	4149.77
477.64	4032.74
477.82	4227.01
478.00	4086.58
478.18	3969.55
478.36	4046.79
478.54	4049.13
478.72	4152.11
478.90	4112.32
479.08	4341.69
479.26	4449.36
479.44	4400.21
479.62	4390.84
479.80	4348.72
479.98	4360.42
480.16	4351.06
480.34	4390.84
480.52	4468.08
480.70	4388.50
480.88	4400.21
481.06	4561.70
481.24	4571.07
481.41	4606.17
481.59	4631.92
481.77	4610.86
481.95	4688.09
482.13	4472.76
482.31	4592.13
482.49	4748.95
482.67	4648.30
482.85	4748.95
483.03	4844.91
483.21	4812.14
483.39	4727.88
483.57	4629.58
483.74	4903.42
483.92	4828.53
484.10	4741.93
484.28	4851.93
484.46	4868.31
484.64	4980.66
484.82	4851.93
485.00	4741.93
485.18	4709.16
485.35	4641.28
485.53	4208.28
485.71	4028.06
485.89	3854.86
486.07	4049.13
486.25	4348.72
486.43	4655.33
486.61	4793.42
486.78	4821.50
486.96	4840.23
487.14	4821.50
487.32	4936.19
487.50	5186.63
487.68	5345.78
487.85	5352.81
488.03	5341.10
488.21	5310.68
488.39	5263.86
488.57	5097.69
488.75	5043.85
488.92	5315.36
489.10	5425.36
489.28	5652.39
489.46	5877.09
489.64	5783.46
489.81	5781.12
489.99	5795.17
490.17	5813.89
490.35	5905.17
490.53	5809.21
490.70	5767.08
490.88	5575.16
491.06	5755.38
491.24	5795.17
491.41	5778.78
491.59	5603.24
491.77	5298.97
491.95	5418.34
492.13	5533.03
492.30	5893.47
492.48	5956.66
492.66	6143.91
492.84	6139.23
493.01	5977.73
493.19	6005.81
493.37	5947.30
493.54	5909.85
493.72	5996.45
493.90	6267.95
494.08	6289.02
494.25	6345.19
494.43	6466.90
494.61	6707.98
494.79	6417.75
494.96	6485.62
495.14	6530.09
495.32	6181.35
495.49	6090.07
495.67	6384.98
495.85	6345.19
496.02	6656.48
496.20	6682.23
496.38	6431.79
496.55	6555.84
496.73	6658.82
496.91	6443.49
497.09	6602.65
497.26	6881.18
497.44	6600.31
497.62	6562.86
497.79	6576.91
497.97	6190.72
498.14	6038.58
498.32	6258.59
498.50	6349.87
498.67	6705.63
498.85	6595.63
499.03	6672.87
499.20	6572.22
499.38	6729.04
499.56	6700.95
499.73	6722.02
499.91	6548.82
500.08	6387.32
500.26	6317.11
500.44	6319.45
500.61	6392.00
500.79	6553.50
500.97	6352.21
501.14	6394.34
501.32	6352.21
501.49	6181.35
501.67	6258.59
501.84	6363.92
502.02	6377.96
502.20	6356.90
502.37	6593.29
502.55	6588.61
502.72	6579.25
502.90	6663.51
503.07	6420.09
503.25	6338.17
503.43	6078.37
503.60	6150.93
503.78	5879.43
503.95	5970.71
504.13	6289.02
504.30	6392.00
504.48	6588.61
504.65	6888.20
504.83	6644.78
505.01	6775.85
505.18	6855.43
505.36	6839.05
505.53	7035.65
505.71	6881.18
505.88	7152.68
506.06	7098.84
506.23	6574.56
506.41	6672.87
506.58	6801.60
506.76	6586.27
506.93	6633.08
507.11	6551.16
507.28	6647.12
507.46	6574.56
507.63	6314.77
507.81	6347.53
507.98	6588.61
508.16	6600.31
508.33	6593.29
508.50	6878.83
508.68	6991.18
508.85	7185.44
509.03	6972.46
509.20	7023.95
509.38	6890.54
509.55	6752.45
509.73	6834.36
509.90	6883.52
510.08	6897.56
510.25	6970.12
510.42	6925.65
510.60	6647.12
510.77	6885.86
510.95	6991.18
511.12	7178.42
511.30	7117.57
511.47	7201.83
511.64	7236.94
511.82	7339.92
511.99	7037.99
512.17	6958.41
512.34	6768.83
512.51	6911.60
512.69	6888.20
512.86	6853.09
513.04	7089.48
513.21	7059.06
513.38	6958.41
513.56	6832.02
513.73	6539.46
513.90	6668.19
514.08	6633.08
514.25	6799.26
514.43	6803.94
514.60	6906.92
514.77	6888.20
514.95	6911.60
515.12	6817.98
515.29	6857.77
515.47	7073.10
515.64	7117.57
515.81	7246.30
515.99	6960.75
516.16	6782.87
516.33	6258.59
516.51	5834.96
516.68	5755.38
516.85	5530.69
517.03	5682.82
517.20	6061.99
517.37	6686.91
517.54	6829.68
517.72	6684.57
517.89	6190.72
518.06	5846.66
518.24	5795.17
518.41	6469.24
518.58	6509.03
518.75	6705.63
518.93	6689.25
519.10	6642.44
519.27	6628.40
519.45	6885.86
519.62	6876.49
519.79	7145.66
519.96	7215.87
520.14	7091.82
520.31	6876.49
520.48	6689.25
520.65	6567.54
520.83	7049.69
521.00	7162.04
521.17	7169.06
521.34	6918.62
521.52	7192.47
521.69	7206.51
521.86	7368.01
522.03	7138.63
522.20	6902.24
522.38	6651.80
522.55	6684.57
522.72	6885.86
522.89	6855.43
523.07	7066.08
523.24	7131.61
523.41	6963.09
523.58	7122.25
523.75	7360.98
523.92	7159.70
524.10	7276.73
524.27	7304.81
524.44	7286.09
524.61	7325.88
524.78	7171.40
524.96	7187.79
525.13	7122.25
525.30	7129.27
525.47	7344.60
525.64	7307.15
525.81	7140.97
525.98	6609.67
526.16	6630.74
526.33	6384.98
526.50	6356.90
526.67	6083.05
526.84	6258.59
527.01	6473.92
527.18	6780.53
527.36	6848.41
527.53	7112.89
527.70	7157.36
527.87	7171.40
528.04	7040.33
528.21	7007.56
528.38	7382.05
528.55	7571.63
528.72	7522.48
528.89	7531.84
529.07	7529.50
529.24	7314.17
529.41	7194.81
529.58	7007.56
529.75	6925.65
529.92	7049.69
530.09	7021.61
530.26	7414.82
530.43	7393.75
530.60	7456.95
530.77	7527.16
530.94	7520.14
531.11	7524.82
531.28	7382.05
531.46	7248.64
531.63	7349.28
531.80	7304.81
531.97	7169.06
532.14	7037.99
532.31	6717.34
532.48	6614.35
532.65	6675.21
532.82	6782.87
532.99	6981.82
533.16	7019.27
533.33	7281.41
533.50	7445.24
533.67	7026.29
533.84	6918.62
534.01	7012.24
534.18	7105.87
534.35	7063.74
534.52	7157.36
534.69	7274.38
534.86	7290.77
535.03	7279.07
535.20	7379.71
535.37	7555.25
535.54	7487.37
535.71	7433.54
535.88	7454.61
536.05	7260.34
536.22	7166.72
536.38	6967.77
536.55	7148.00
536.72	6885.86
536.89	6799.26
537.06	6984.16
537.23	7276.73
537.40	7262.68
537.57	7211.19
537.74	7321.20
537.91	7339.92
538.08	7286.09
538.25	7194.81
538.42	7304.81
538.59	7419.50
538.75	7047.35
538.92	6932.67
539.09	7075.44
539.26	6904.58
539.43	7007.56
539.60	6958.41
539.77	7061.40
539.94	7040.33
540.11	6867.13
540.28	6794.58
540.44	6949.05
540.61	6810.96
540.78	7028.63
540.95	7105.87
541.12	7466.31
541.29	7496.74
541.46	7789.30
541.62	7672.28
541.79	7634.83
541.96	7480.35
542.13	7433.54
542.30	7447.58
542.47	7520.14
542.63	7414.82
542.80	7262.68
542.97	7616.10
543.14	7302.47
543.31	7227.57
543.48	7384.39
543.64	7508.44
543.81	7686.32
543.98	7730.79
544.15	7573.97
544.32	7585.68
544.48	7463.97
544.65	7541.21
544.82	7363.33
544.99	7541.21
545.16	7456.95
545.32	7328.22
545.49	8023.36
545.66	8697.43
545.83	8940.85
546.00	8564.02
546.16	8011.65
546.33	7592.70
546.50	7440.56
546.67	7426.52
546.83	7201.83
547.00	7279.07
547.17	7178.42
547.34	6949.05
547.50	7070.76
547.67	6923.30
547.84	7005.22
548.00	7243.96
548.17	7199.49
548.34	7138.63
548.51	7227.57
548.67	7353.96
548.84	7124.59
549.01	6995.86
549.18	7028.63
549.34	7059.06
549.51	6953.73
549.68	7061.40
549.84	6958.41
550.01	6993.52
550.18	7108.21
550.34	6972.46
550.51	7110.55
550.68	7091.82
550.84	6853.09
551.01	6794.58
551.18	6799.26
551.34	6832.02
551.51	7000.54
551.68	7124.59
551.84	7229.91
552.01	7176.08
552.18	6974.80
552.34	6745.42
552.51	6733.72
552.68	6745.42
552.84	6836.70
553.01	7023.95
553.18	6810.96
553.34	6775.85
553.51	7014.59
553.67	6855.43
553.84	6970.12
554.01	6953.73
554.17	6806.28
554.34	6871.81
554.51	6876.49
554.67	6857.77
554.84	7169.06
555.00	6925.65
555.17	6874.15
555.33	6834.36
555.50	6796.92
555.67	6668.19
555.83	6649.46
556.00	6736.06
556.16	6967.77
556.33	6534.78
556.50	6546.48
556.66	6469.24
556.83	6520.73
556.99	6396.68
557.16	6450.52
557.32	6321.79
557.49	6665.85
557.65	6700.95
557.82	6579.25
557.98	6661.16
558.15	6565.20
558.32	6502.01
558.48	6132.20
558.65	6090.07
558.81	6279.66
558.98	6321.79
559.14	6321.79
559.31	6431.79
559.47	6516.05
559.64	6296.04
559.80	6382.64
559.97	6230.51
560.13	6282.00
560.30	6712.66
560.46	6675.21
560.63	6698.61
560.79	6892.88
560.96	6785.21
561.12	6338.17
561.29	6384.98
561.45	6296.04
561.61	6171.99
561.78	6607.33
561.94	6462.22
562.11	6443.49
562.27	6164.97
562.44	6216.46
562.60	6429.45
562.77	6476.26
562.93	6520.73
563.10	6581.59
563.26	6333.49
563.42	6523.07
563.59	6270.30
563.75	6417.75
563.92	6431.79
564.08	6319.45
564.24	6319.45
564.41	6429.45
564.57	6359.24
564.74	6183.70
564.90	6417.75
565.07	6286.68
565.23	6160.29
565.39	6043.26
565.56	6054.97
565.72	5996.45
565.88	6097.10
566.05	6190.72
566.21	6125.18
566.38	6153.27
566.54	6076.03
566.70	6115.82
566.87	6321.79
567.03	6157.95
567.19	6263.27
567.36	6289.02
567.52	6008.16
567.68	6162.63
567.85	6001.13
568.01	5795.17
568.17	5813.89
568.34	5834.96
568.50	5799.85
568.66	5790.49
568.83	5746.02
568.99	5827.93
569.15	5853.68
569.32	5809.21
569.48	5727.29
569.64	5776.44
569.81	5593.88
569.97	5741.33
570.13	5895.81
570.30	5671.12
570.46	5701.54
570.62	5607.92
570.78	5523.66
570.95	5657.07
571.11	5750.70
571.27	5540.05
571.43	5678.14
571.60	5699.20
571.76	5680.48
571.92	5905.17
572.09	5781.12
572.25	5818.57
572.41	5820.91
572.57	5621.97
572.74	5720.27
572.90	5841.98
573.06	5762.40
573.22	5783.46
573.38	5682.82
573.55	5729.63
573.71	5827.93
573.87	5872.40
574.03	5636.01
574.20	5675.80
574.36	5516.64
574.52	5650.05
574.68	5643.03
574.84	5699.20
575.01	5439.40
575.17	5465.15
575.33	5575.16
575.49	5537.71
575.65	5748.36
575.82	5577.50
575.98	5624.31
576.14	5483.88
576.30	5706.23
576.46	5975.39
576.62	5867.72
576.79	5982.41
576.95	5823.25
577.11	5638.35
577.27	5561.11
577.43	5734.31
577.59	5654.73
577.75	5441.75
577.92	5385.57
578.08	5188.97
578.24	5390.25
578.40	5497.92
578.56	5760.06
578.72	5650.05
578.88	5914.53
579.04	5867.72
579.21	5781.12
579.37	5881.77
579.53	5652.39
579.69	5830.27
579.85	5713.25
580.01	5614.95
580.17	5500.26
580.33	5547.07
580.49	5577.50
580.65	5666.44
580.82	5738.99
580.98	5659.42
581.14	5537.71
581.30	5664.10
581.46	5603.24
581.62	5762.40
581.78	5624.31
581.94	5799.85
582.10	5757.72
582.26	5900.49
582.42	5713.25
582.58	5757.72
582.74	5804.53
582.90	5617.29
583.06	5713.25
583.22	5647.71
583.38	5617.29
583.54	5692.18
583.70	5633.67
583.86	5760.06
584.02	5647.71
584.18	5643.03
584.34	5673.46
584.50	5664.10
584.66	5624.31
584.82	5516.64
584.98	5746.02
585.14	5462.81
585.30	5366.85
585.46	5371.53
585.62	5270.89
585.78	5305.99
585.94	5575.16
586.10	5547.07
586.26	5352.81
586.42	5584.52
586.58	5486.22
586.74	5518.98
586.90	5528.35
587.06	5451.11
587.22	5481.53
587.38	5284.93
587.54	5203.01
587.70	5093.01
587.86	4917.47
588.02	4774.69
588.18	4641.28
588.34	4564.04
588.49	4131.05
588.65	3911.04
588.81	3911.04
588.97	3927.42
589.13	3976.57
589.29	3829.12
589.45	3904.01
589.61	3882.95
589.77	4121.68
589.93	4344.03
590.08	4477.44
590.24	4650.64
590.40	4748.95
590.56	4610.86
590.72	4610.86
590.88	4386.16
591.04	4568.73
591.20	4613.20
591.35	4440.00
591.51	4367.44
591.67	4320.63
591.83	4437.66
591.99	4393.19
592.15	4444.68
592.31	4608.51
592.46	4524.26
592.62	4765.33
592.78	4627.24
592.94	4692.77
593.10	4671.71
593.26	4755.97
593.41	4884.70
593.57	4901.08
593.73	4571.07
593.89	4374.46
594.05	4337.01
594.20	4287.86
594.36	4060.83
594.52	4014.02
594.68	4065.51
594.84	4355.74
594.99	4540.64
595.15	4561.70
595.31	4617.88
595.47	4585.11
595.62	4470.42
595.78	4547.66
595.94	4762.99
596.10	4791.08
596.25	4688.09
596.41	4571.07
596.57	4503.19
596.73	4512.55
596.88	4711.50
597.04	4699.80
597.20	4601.49
597.36	4411.91
597.51	4496.17
597.67	4613.20
