SpectraSuite Data File
++++++++++++++++++++++++++++++++++++
Date: Fri Oct 04 11:44:14 GMT-05:00 2013
User: price-jones
Dark Spectrum Present: No
Reference Spectrum Present: No
Number of Sampled Component Spectra: 1
Spectrometers: USB2+H05261
Integration Time (usec): 100000 (USB2+H05261)
Spectra Averaged: 1 (USB2+H05261)
Boxcar Smoothing: 0 (USB2+H05261)
Correct for Electrical Dark: No (USB2+H05261)
Strobe/Lamp Enabled: No (USB2+H05261)
Correct for Detector Non-linearity: No (USB2+H05261)
Correct for Stray Light: No (USB2+H05261)
Number of Pixels in Processed Spectrum: 2048
>>>>>Begin Processed Spectral Data<<<<<
365.73	14.04
365.92	14.04
366.12	14.04
366.32	0.00
366.52	0.00
366.72	0.00
366.91	0.00
367.11	0.00
367.31	0.00
367.51	0.00
367.70	0.00
367.90	0.00
368.10	0.00
368.30	0.00
368.49	0.00
368.69	0.00
368.89	0.00
369.09	0.00
369.28	0.00
369.48	0.00
369.68	0.00
369.87	0.00
370.07	56.17
370.27	44.47
370.47	182.56
370.66	596.84
370.86	641.31
371.06	821.53
371.25	788.76
371.45	739.61
371.65	678.76
371.84	566.41
372.04	653.01
372.24	753.65
372.44	739.61
372.63	835.57
372.83	760.67
373.03	683.44
373.22	645.99
373.42	585.13
373.62	638.97
373.81	828.55
374.01	758.33
374.21	779.40
374.40	685.78
374.60	704.50
374.79	784.08
374.99	964.30
375.19	919.83
375.38	922.17
375.58	858.98
375.78	926.85
375.97	912.81
376.17	875.36
376.37	950.26
376.56	910.47
376.76	985.37
376.95	999.41
377.15	1050.90
377.35	1179.63
377.54	1188.99
377.74	1198.35
377.93	1142.18
378.13	1144.52
378.33	1104.73
378.52	1022.81
378.72	1043.88
378.91	1020.47
379.11	940.90
379.31	884.72
379.50	919.83
379.70	994.73
379.89	1123.46
380.09	1057.92
380.28	1104.73
380.48	1235.80
380.68	1142.18
380.87	1062.60
381.07	1027.50
381.26	1032.18
381.46	931.53
381.65	924.51
381.85	910.47
382.04	849.61
382.24	807.48
382.43	763.01
382.63	786.42
382.83	664.71
383.02	858.98
383.22	734.93
383.41	793.44
383.61	791.10
383.80	919.83
384.00	1004.09
384.19	1025.15
384.39	1128.14
384.58	1076.65
384.78	1008.77
384.97	1123.46
385.17	1006.43
385.36	1097.71
385.56	1053.24
385.75	947.92
385.95	1104.73
386.14	1172.61
386.34	1088.35
386.53	1160.91
386.72	1036.86
386.92	1104.73
387.11	1198.35
387.31	1130.48
387.50	1149.20
387.70	1111.75
387.89	1198.35
388.09	1125.80
388.28	1191.33
388.48	1123.46
388.67	1217.08
388.86	1270.91
389.06	1373.89
389.25	1519.01
389.45	1427.73
389.64	1474.54
389.84	1460.49
390.03	1446.45
390.22	1544.75
390.42	1446.45
390.61	1528.37
390.81	1650.08
391.00	1645.40
391.19	1664.12
391.39	1556.46
391.58	1500.28
391.78	1401.98
391.97	1327.08
392.16	1242.82
392.36	1160.91
392.55	1015.79
392.75	875.36
392.94	699.82
393.13	702.16
393.33	723.23
393.52	908.13
393.71	1156.22
393.91	1196.01
394.10	1334.11
394.29	1563.48
394.49	1575.18
394.68	1619.65
394.88	1750.72
395.07	1750.72
395.26	1708.59
395.46	1631.35
395.65	1671.14
395.84	1488.58
396.04	1320.06
396.23	1104.73
396.42	884.72
396.62	905.79
396.81	1032.18
397.00	1142.18
397.19	1420.71
397.39	1596.25
397.58	1926.26
397.77	1977.75
397.97	1963.71
398.16	2064.35
398.35	2200.10
398.55	2260.96
398.74	2303.09
398.93	2354.58
399.12	2286.70
399.32	2244.57
399.51	2270.32
399.70	2333.51
399.90	2370.96
400.09	2377.98
400.28	2380.32
400.47	2349.90
400.67	2504.37
400.86	2597.99
401.05	2483.31
401.24	2663.53
401.44	2544.16
401.63	2560.55
401.82	2619.06
402.01	2630.76
402.21	2696.30
402.40	2509.05
402.59	2497.35
402.78	2401.39
402.97	2385.01
403.17	2436.50
403.36	2621.40
403.55	2670.55
403.74	2832.05
403.93	2698.64
404.13	2731.41
404.32	2644.81
404.51	2597.99
404.70	2813.32
404.89	2839.07
405.09	2614.38
405.28	2555.86
405.47	2586.29
405.66	2612.04
405.85	2534.80
406.05	2450.54
406.24	2478.63
406.43	2548.84
406.62	2595.65
406.81	2633.10
407.00	2586.29
407.20	2572.25
407.39	2590.97
407.58	2609.70
407.77	2773.53
407.96	2794.60
408.15	2998.23
408.34	2764.17
408.54	3000.57
408.73	3007.59
408.92	2836.73
409.11	2857.79
409.30	2775.88
409.49	2616.72
409.68	2452.88
409.87	2420.11
410.07	2513.74
410.26	2782.90
410.45	2848.43
410.64	2869.50
410.83	2977.16
411.02	3145.68
411.21	3286.11
411.40	3141.00
411.59	3159.72
411.78	3110.57
411.98	3122.27
412.17	3122.27
412.36	3019.29
412.55	3171.43
412.74	3040.36
412.93	3000.57
413.12	2993.55
413.31	3243.98
413.50	3281.43
413.69	3410.16
413.88	3260.37
414.07	3141.00
414.26	3286.11
414.45	3293.13
414.64	3304.84
414.83	3295.47
415.02	3258.03
415.22	3318.88
415.41	3328.24
415.60	3431.23
415.79	3543.57
415.98	3756.56
416.17	3655.92
416.36	3520.17
416.55	3428.88
416.74	3468.67
416.93	3213.56
417.12	3269.73
417.31	3454.63
417.50	3353.99
417.69	3531.87
417.88	3471.01
418.07	3449.95
418.26	3492.08
418.45	3426.54
418.64	3522.51
418.83	3667.62
419.02	3438.25
419.21	3471.01
419.39	3316.54
419.58	3218.24
419.77	3213.56
419.96	3419.52
420.15	3485.06
420.34	3623.15
420.53	3815.07
420.72	3810.39
420.91	3801.03
421.10	3796.35
421.29	3719.11
421.48	3559.95
421.67	3709.75
421.86	3588.04
422.05	3527.19
422.24	3131.64
422.43	3094.19
422.61	3262.71
422.80	3550.59
422.99	3653.58
423.18	3440.59
423.37	3510.80
423.56	3466.33
423.75	3487.40
423.94	3548.25
424.13	3463.99
424.32	3461.65
424.50	3492.08
424.69	3466.33
424.88	3510.80
425.07	3325.90
425.26	3325.90
425.45	3386.76
425.64	3162.06
425.83	3262.71
426.01	3456.97
426.20	3616.13
426.39	3487.40
426.58	3152.70
426.77	3148.02
426.96	3089.51
427.15	3073.12
427.33	3246.32
427.52	3471.01
427.71	3510.80
427.90	3368.03
428.09	3307.18
428.28	3318.88
428.46	3248.66
428.65	3080.14
428.84	3274.41
429.03	3239.30
429.22	3033.33
429.40	2979.50
429.59	2684.59
429.78	2495.01
429.97	2532.46
430.16	2415.43
430.34	2504.37
430.53	2370.96
430.72	2499.69
430.91	2860.13
431.10	3042.70
431.28	3604.42
431.47	3824.44
431.66	3934.44
431.85	3618.47
432.03	3543.57
432.22	3358.67
432.41	3400.80
432.60	3667.62
432.79	3770.60
432.97	3978.91
433.16	3925.08
433.35	3555.27
433.54	3454.63
433.72	3056.74
433.91	3171.43
434.10	3487.40
434.28	3672.30
434.47	3775.28
434.66	3843.16
434.85	3758.90
435.03	4011.68
435.22	4243.39
435.41	5118.75
435.59	5107.05
435.78	4678.73
435.97	4461.06
436.16	4308.93
436.34	4154.45
436.53	4161.47
436.72	4166.15
436.90	3969.55
437.09	3772.94
437.28	3723.79
437.46	3880.61
437.65	3826.78
437.84	3772.94
438.02	3506.12
438.21	3466.33
438.40	3513.14
438.58	3688.68
438.77	3803.37
438.96	3950.82
439.14	4149.77
439.33	4175.52
439.52	4280.84
439.70	4168.49
439.89	4079.55
440.08	3981.25
440.26	3990.61
440.45	4135.73
440.63	4372.12
440.82	4564.04
441.01	4400.21
441.19	4461.06
441.38	4493.83
441.57	4667.03
441.75	4667.03
441.94	4807.46
442.12	4631.92
442.31	4671.71
442.50	4816.82
442.68	4669.37
442.87	4512.55
443.05	4564.04
443.24	4566.39
443.43	4748.95
443.61	4760.65
443.80	4908.10
443.98	4725.54
444.17	4631.92
444.35	4947.89
444.54	5025.13
444.73	4882.36
444.91	4685.75
445.10	4475.10
445.28	4404.89
445.47	4355.74
445.65	4210.62
445.84	4306.59
446.02	4486.81
446.21	4662.35
446.39	4662.35
446.58	4788.74
446.77	4699.80
446.95	4819.16
447.14	4858.95
447.32	5085.98
447.51	4917.47
447.69	4753.63
447.88	4683.41
448.06	4664.69
448.25	4802.78
448.43	4884.70
448.62	4758.31
448.80	4788.74
448.99	4809.80
449.17	4858.95
449.36	4748.95
449.54	5090.67
449.73	4975.98
449.91	5282.59
450.10	5214.71
450.28	5359.83
450.46	5294.29
450.65	5345.78
450.83	5308.34
451.02	5277.91
451.20	5195.99
451.39	5217.05
451.57	5004.07
451.76	5090.67
451.94	5064.92
452.13	4964.28
452.31	4784.06
452.49	4652.98
452.68	4528.94
452.86	4552.34
453.05	4643.62
453.23	4711.50
453.42	4795.76
453.60	5095.35
453.78	5057.90
453.97	4929.17
454.15	5071.94
454.34	4971.30
454.52	4851.93
454.70	4882.36
454.89	4894.06
455.07	4826.18
455.26	4952.57
455.44	5207.69
455.62	5263.86
455.81	5280.25
455.99	5242.80
456.17	5158.54
456.36	5200.67
456.54	5320.04
456.73	5247.48
456.91	5327.06
457.09	5638.35
457.28	5530.69
457.46	5287.27
457.64	5270.89
457.83	5214.71
458.01	5008.75
458.19	5132.79
458.38	5212.37
458.56	5308.34
458.74	5200.67
458.93	5104.71
459.11	5282.59
459.29	5160.88
459.48	5163.22
459.66	5156.20
459.84	5186.63
460.03	5376.21
460.21	5224.08
460.39	5432.38
460.57	5310.68
460.76	5626.65
460.94	5579.84
461.12	5416.00
461.31	5380.89
461.49	5383.23
461.67	5430.04
461.85	5469.83
462.04	5572.82
462.22	5919.21
462.40	5530.69
462.59	5544.73
462.77	5486.22
462.95	5572.82
463.13	5451.11
463.32	5411.32
463.50	5329.40
463.68	5448.77
463.86	5469.83
464.05	5364.51
464.23	5291.95
464.41	5313.02
464.59	5163.22
464.78	5418.34
464.96	5343.44
465.14	5137.48
465.32	5284.93
465.50	5352.81
465.69	5610.26
465.87	5404.30
466.05	5425.36
466.23	5048.54
466.41	4880.02
466.60	5238.12
466.78	5041.51
466.96	5174.92
467.14	5228.76
467.32	5373.87
467.51	5270.89
467.69	5226.42
467.87	5357.49
468.05	5128.11
468.23	5378.55
468.41	5317.70
468.60	5348.12
468.78	5514.30
468.96	5334.08
469.14	5483.88
469.32	5263.86
469.50	5177.26
469.69	5142.16
469.87	5125.77
470.05	5228.76
470.23	5226.42
470.41	5191.31
470.59	5200.67
470.77	5298.97
470.95	5322.38
471.14	5612.60
471.32	5366.85
471.50	5654.73
471.68	5729.63
471.86	5851.34
472.04	5832.62
472.22	5811.55
472.40	5596.22
472.58	5589.20
472.77	5586.86
472.95	5556.43
473.13	5633.67
473.31	5507.28
473.49	5413.66
473.67	5504.94
473.85	5738.99
474.03	5809.21
474.21	5799.85
474.39	5968.37
474.57	6059.65
474.75	5874.74
474.93	6134.54
475.12	5689.84
475.30	5746.02
475.48	5806.87
475.66	6085.39
475.84	5832.62
476.02	5827.93
476.20	5600.90
476.38	5898.15
476.56	5926.24
476.74	5753.04
476.92	6064.33
477.10	6171.99
477.28	6232.85
477.46	6312.42
477.64	6303.06
477.82	6469.24
478.00	6572.22
478.18	6277.32
478.36	6216.46
478.54	6237.53
478.72	6480.94
478.90	6375.62
479.08	6569.88
479.26	6806.28
479.44	6904.58
479.62	6759.47
479.80	6750.10
479.98	6729.04
480.16	6839.05
480.34	6853.09
480.52	6986.50
480.70	6892.88
480.88	6850.75
481.06	6867.13
481.24	7016.93
481.41	7201.83
481.59	7304.81
481.77	7206.51
481.95	7063.74
482.13	7213.53
482.31	7101.19
482.49	7267.36
482.67	7283.75
482.85	7339.92
483.03	7335.24
483.21	7592.70
483.39	7349.28
483.57	7564.61
483.74	7393.75
483.92	7332.90
484.10	7585.68
484.28	7538.87
484.46	7702.70
484.64	7791.64
484.82	7550.57
485.00	7496.74
485.18	7431.20
485.35	7208.85
485.53	6647.12
485.71	6179.01
485.89	5951.98
486.07	6122.84
486.25	6750.10
486.43	7047.35
486.61	7480.35
486.78	7513.12
486.96	7300.13
487.14	7571.63
487.32	7634.83
487.50	7765.90
487.68	8175.49
487.85	8252.73
488.03	8348.69
488.21	8369.76
488.39	8114.64
488.57	7908.67
488.75	7803.35
488.92	8266.77
489.10	8531.25
489.28	9006.38
489.46	9085.96
489.64	8943.19
489.81	9043.83
489.99	8992.34
490.17	9053.19
490.35	9074.26
490.53	8854.25
490.70	8898.72
490.88	8905.74
491.06	9071.92
491.24	9275.54
491.41	8809.78
491.59	8407.20
491.77	8327.63
491.95	8444.65
492.13	8774.67
492.30	9125.75
492.48	9336.40
492.66	9727.27
492.84	9425.34
493.01	9542.36
493.19	9348.10
493.37	9352.78
493.54	9078.94
493.72	9219.37
493.90	9507.26
494.08	9841.95
494.25	9958.98
494.43	10092.39
494.61	10209.42
494.79	10204.74
494.96	9905.15
495.14	10113.45
495.32	9776.42
495.49	9561.09
495.67	9678.12
495.85	10328.78
496.02	10218.78
496.20	10265.59
496.38	10223.46
496.55	10162.61
496.73	10195.37
496.91	10403.68
497.09	10532.41
497.26	10663.48
497.44	10413.04
497.62	10303.04
497.79	10195.37
497.97	9694.50
498.14	9380.87
498.32	10008.13
498.50	10064.30
498.67	10558.16
498.85	10499.64
499.03	10326.44
499.20	10279.63
499.38	10766.46
499.56	10534.75
499.73	10186.01
499.91	10263.25
500.08	10003.45
500.26	9785.78
500.44	9682.80
500.61	10090.05
500.79	10111.11
500.97	9975.36
501.14	9877.06
501.32	9837.27
501.49	9692.16
501.67	9699.18
501.84	10031.54
502.02	10193.03
502.20	10249.21
502.37	10270.27
502.55	10101.75
502.72	10331.12
502.90	10759.44
503.07	10134.52
503.25	10040.90
503.43	9621.94
503.60	9224.05
503.78	9294.27
503.95	9315.33
504.13	9863.02
504.30	10312.40
504.48	10443.47
504.65	10267.93
504.83	10331.12
505.01	10469.22
505.18	10803.91
505.36	10782.85
505.53	10719.65
505.71	10820.30
505.88	10998.18
506.06	10661.14
506.23	10897.53
506.41	10471.56
506.58	10630.71
506.76	10448.15
506.93	10445.81
507.11	10532.41
507.28	10415.38
507.46	10413.04
507.63	10106.43
507.81	10008.13
507.98	10064.30
508.16	10246.87
508.33	10497.30
508.50	10740.72
508.68	10953.71
508.85	11115.20
509.03	11232.23
509.20	11061.37
509.38	10864.77
509.55	10567.52
509.73	10586.24
509.90	10801.57
510.08	10794.55
510.25	10942.00
510.42	10724.33
510.60	10967.75
510.77	10721.99
510.95	10874.13
511.12	11206.48
511.30	11272.02
511.47	11552.88
511.64	11613.74
511.82	11534.16
511.99	11037.97
512.17	10743.06
512.34	10525.39
512.51	10759.44
512.69	10824.98
512.86	10888.17
513.04	10932.64
513.21	11145.63
513.38	10965.41
513.56	10590.92
513.73	10436.45
513.90	10619.01
514.08	10565.18
514.25	10813.28
514.43	10857.75
514.60	10803.91
514.77	10834.34
514.95	10853.06
515.12	10721.99
515.29	10967.75
515.47	11204.14
515.64	11389.05
515.81	11021.58
515.99	11021.58
516.16	10537.09
516.33	9598.54
516.51	9231.07
516.68	8912.76
516.85	8758.28
517.03	8751.26
517.20	9437.04
517.37	10455.17
517.54	10981.79
517.72	11035.63
517.89	9944.94
518.06	9142.13
518.24	9235.75
518.41	9853.66
518.58	10335.81
518.75	10464.54
518.93	10501.98
519.10	10387.30
519.27	10569.86
519.45	10686.89
519.62	10778.17
519.79	11227.55
519.96	11101.16
520.14	11077.76
520.31	10560.50
520.48	10703.27
520.65	10438.79
520.83	11002.86
521.00	11307.13
521.17	11220.53
521.34	10906.90
521.52	11391.39
521.69	11323.51
521.86	11524.80
522.03	11288.40
522.20	10981.79
522.38	10546.45
522.55	10581.56
522.72	10740.72
522.89	10623.69
523.07	11082.44
523.24	11047.33
523.41	11286.06
523.58	11545.86
523.75	11194.78
523.92	11515.44
524.10	11454.58
524.27	11587.99
524.44	11475.65
524.61	11269.68
524.78	11290.74
524.96	11447.56
525.13	11152.65
525.30	11489.69
525.47	11459.26
525.64	11527.14
525.81	11147.97
525.98	10881.15
526.16	10087.71
526.33	9853.66
526.50	9769.40
526.67	9715.56
526.84	9961.32
527.01	10141.54
527.18	10537.09
527.36	10902.22
527.53	11047.33
527.70	11510.75
527.87	10995.84
528.04	10972.43
528.21	11052.01
528.38	11351.60
528.55	11793.96
528.72	11850.13
528.89	11742.47
529.07	11871.20
529.24	11367.98
529.41	11204.14
529.58	10846.04
529.75	11012.22
529.92	10930.30
530.09	11386.71
530.26	11522.46
530.43	11733.11
530.60	11658.21
530.77	11784.60
530.94	11688.64
531.11	11655.87
531.28	11274.36
531.46	11360.96
531.63	11489.69
531.80	11152.65
531.97	11386.71
532.14	10930.30
532.31	10719.65
532.48	10380.28
532.65	10345.17
532.82	10609.65
532.99	11084.78
533.16	11243.93
533.33	11222.87
533.50	11328.19
533.67	10993.50
533.84	10860.09
534.01	11185.42
534.18	11136.27
534.35	11353.94
534.52	11330.53
534.69	11330.53
534.86	11468.62
535.03	11508.41
535.20	11613.74
535.37	11824.39
535.54	11871.20
535.71	11564.59
535.88	11611.40
536.05	11304.79
536.22	11442.88
536.38	11014.56
536.55	10902.22
536.72	10520.71
536.89	10651.78
537.06	10881.15
537.23	11229.89
537.40	11309.47
537.57	11449.90
537.74	11630.12
537.91	11370.32
538.08	11290.74
538.25	11159.67
538.42	11316.49
538.59	11473.31
538.75	11073.07
538.92	11070.73
539.09	11035.63
539.26	10958.39
539.43	10860.09
539.60	10874.13
539.77	11117.54
539.94	10757.10
540.11	10649.44
540.28	10611.99
540.44	10782.85
540.61	10752.42
540.78	10848.38
540.95	11026.26
541.12	11449.90
541.29	11318.83
541.46	11754.17
541.62	11590.33
541.79	11634.80
541.96	11634.80
542.13	11463.94
542.30	11571.61
542.47	11477.99
542.63	11300.11
542.80	11201.80
542.97	11363.30
543.14	10995.84
543.31	10986.47
543.48	11274.36
543.64	11784.60
543.81	11754.17
543.98	11899.28
544.15	11786.94
544.32	11431.18
544.48	11190.10
544.65	11265.00
544.82	11494.37
544.99	11698.00
545.16	11351.60
545.32	11286.06
545.49	12156.74
545.66	13205.30
545.83	13343.39
546.00	12842.52
546.16	11899.28
546.33	11786.94
546.50	11386.71
546.67	11515.44
546.83	11482.67
547.00	11157.33
547.17	11126.91
547.34	10951.37
547.50	10789.87
547.67	10757.10
547.84	10878.81
548.00	11157.33
548.17	11164.36
548.34	11194.78
548.51	11180.74
548.67	11417.13
548.84	11241.59
549.01	11115.20
549.18	11019.24
549.34	10932.64
549.51	10846.04
549.68	11087.12
549.84	10874.13
550.01	10752.42
550.18	11037.97
550.34	10906.90
550.51	10813.28
550.68	10867.11
550.84	10670.50
551.01	10539.43
551.18	10759.44
551.34	10661.14
551.51	10960.73
551.68	11105.84
551.84	11304.79
552.01	11052.01
552.18	10817.96
552.34	10661.14
552.51	10410.70
552.68	10485.60
552.84	10487.94
553.01	10714.97
553.18	10558.16
553.34	10799.23
553.51	10736.04
553.67	10822.64
553.84	10977.11
554.01	10785.19
554.17	10813.28
554.34	10633.05
554.51	10810.93
554.67	10899.87
554.84	10850.72
555.00	10761.78
555.17	10881.15
555.33	10562.84
555.50	10501.98
555.67	10717.31
555.83	10485.60
556.00	10455.17
556.16	10537.09
556.33	10408.36
556.50	10345.17
556.66	10347.51
556.83	9975.36
556.99	10310.06
557.16	10242.18
557.32	10370.91
557.49	10195.37
557.65	10326.44
557.82	10408.36
557.98	10183.67
558.15	10326.44
558.32	9870.04
558.48	9596.20
558.65	9537.68
558.81	9736.63
558.98	9743.65
559.14	9898.13
559.31	10111.11
559.47	9973.02
559.64	10010.47
559.80	9846.63
559.97	9813.87
560.13	10047.92
560.30	10146.22
560.46	10539.43
560.63	10452.83
560.79	10546.45
560.96	10382.62
561.12	9935.57
561.29	9792.80
561.45	9856.00
561.61	9760.03
561.78	10043.24
561.94	9968.34
562.11	10101.75
562.27	9926.21
562.44	10005.79
562.60	9958.98
562.77	10228.14
562.93	10076.01
563.10	10118.14
563.26	9980.04
563.42	10178.99
563.59	9905.15
563.75	10078.35
563.92	10017.49
564.08	9851.31
564.24	10003.45
564.41	9966.00
564.57	10064.30
564.74	10040.90
564.90	10029.20
565.07	9872.38
565.23	9575.13
565.39	9465.13
565.56	9493.21
565.72	9303.63
565.88	9369.16
566.05	9495.55
566.21	9486.19
566.38	9671.09
566.54	9518.96
566.70	9724.93
566.87	9764.72
567.03	9778.76
567.19	9858.34
567.36	9668.75
567.52	9727.27
567.68	9757.69
567.85	9362.14
568.01	9345.76
568.17	8968.93
568.34	8994.68
568.50	9053.19
568.66	8938.51
568.83	9067.24
568.99	9006.38
569.15	9202.99
569.32	9064.89
569.48	8994.68
569.64	9097.66
569.81	8999.36
569.97	8872.97
570.13	9013.40
570.30	9015.74
570.46	8814.46
570.62	9004.04
570.78	8699.77
570.95	8648.28
571.11	8971.27
571.27	9032.13
571.43	8807.44
571.60	8901.06
571.76	8889.35
571.92	9128.09
572.09	9210.01
572.25	9090.64
572.41	9048.51
572.57	9104.68
572.74	9219.37
572.90	9153.84
573.06	8875.31
573.22	8950.21
573.38	9036.81
573.55	9090.64
573.71	8931.48
573.87	9149.15
574.03	8861.27
574.20	9055.53
574.36	8798.07
574.52	8777.01
574.68	8723.18
574.84	8847.22
575.01	8643.60
575.17	8528.91
575.33	8702.11
575.49	8615.51
575.65	8781.69
575.82	8814.46
575.98	8648.28
576.14	8571.04
576.30	8854.25
576.46	9121.07
576.62	9270.86
576.79	9151.49
576.95	8992.34
577.11	9095.32
577.27	8793.39
577.43	8791.05
577.59	8861.27
577.75	8580.40
577.92	8407.20
578.08	8358.05
578.24	8353.37
578.40	8613.17
578.56	8737.22
578.72	8975.95
578.88	9048.51
579.04	8987.66
579.21	9043.83
579.37	8915.10
579.53	8697.43
579.69	8812.12
579.85	8931.48
580.01	9011.06
580.17	8915.10
580.33	8786.37
580.49	8706.79
580.65	8725.52
580.82	8938.51
580.98	8959.57
581.14	8779.35
581.30	8657.64
581.46	8879.99
581.62	9006.38
581.78	8802.75
581.94	8901.06
582.10	8933.82
582.26	8926.80
582.42	9121.07
582.58	9013.40
582.74	8947.87
582.90	9013.40
583.06	8945.53
583.22	8922.12
583.38	8795.73
583.54	9004.04
583.70	9029.79
583.86	9088.30
584.02	8865.95
584.18	8858.93
584.34	9167.88
584.50	8943.19
584.66	8690.41
584.82	8674.03
584.98	8835.52
585.14	8608.49
585.30	8496.14
585.46	8308.90
585.62	8329.97
585.78	8369.76
585.94	8538.27
586.10	8360.39
586.26	8486.78
586.42	8631.90
586.58	8578.06
586.74	8765.31
586.90	8514.87
587.06	8575.72
587.22	8582.74
587.38	8336.99
587.54	8086.55
587.70	8100.59
587.86	7672.28
588.02	7201.83
588.18	7503.76
588.34	7000.54
588.49	6534.78
588.65	6382.64
588.81	6141.57
588.97	6195.40
589.13	6179.01
589.29	5966.03
589.45	6167.31
589.61	6132.20
589.77	6401.37
589.93	6827.34
590.08	6902.24
590.24	6991.18
590.40	7258.00
590.56	7178.42
590.72	7140.97
590.88	7028.63
591.04	6897.56
591.20	7037.99
591.35	6925.65
591.51	6782.87
591.67	6862.45
591.83	6698.61
591.99	6759.47
592.15	7028.63
592.31	7117.57
592.46	7288.43
592.62	7487.37
592.78	7396.09
592.94	7384.39
593.10	7566.95
593.26	7595.04
