SpectraSuite Data File
++++++++++++++++++++++++++++++++++++
Date: Fri Oct 04 11:44:20 GMT-05:00 2013
User: price-jones
Dark Spectrum Present: No
Reference Spectrum Present: No
Number of Sampled Component Spectra: 1
Spectrometers: USB2+H05261
Integration Time (usec): 100000 (USB2+H05261)
Spectra Averaged: 1 (USB2+H05261)
Boxcar Smoothing: 0 (USB2+H05261)
Correct for Electrical Dark: No (USB2+H05261)
Strobe/Lamp Enabled: No (USB2+H05261)
Correct for Detector Non-linearity: No (USB2+H05261)
Correct for Stray Light: No (USB2+H05261)
Number of Pixels in Processed Spectrum: 2048
>>>>>Begin Processed Spectral Data<<<<<
365.73	35.11
365.92	35.11
366.12	35.11
366.32	0.00
366.52	0.00
366.72	0.00
366.91	4.68
367.11	0.00
367.31	0.00
367.51	0.00
367.70	0.00
367.90	7.02
368.10	0.00
368.30	0.00
368.49	0.00
368.69	0.00
368.89	0.00
369.09	0.00
369.28	0.00
369.48	7.02
369.68	18.72
369.87	0.00
370.07	9.36
370.27	30.43
370.47	37.45
370.66	259.80
370.86	425.98
371.06	341.72
371.25	381.51
371.45	346.40
371.65	327.68
371.84	330.02
372.04	353.42
372.24	374.49
372.44	402.57
372.63	547.69
372.83	430.66
373.03	374.49
373.22	315.97
373.42	283.20
373.62	395.55
373.81	348.74
374.01	430.66
374.21	416.62
374.40	344.06
374.60	447.04
374.79	367.46
374.99	493.85
375.19	421.30
375.38	425.98
375.58	493.85
375.78	458.74
375.97	437.68
376.17	475.13
376.37	475.13
376.56	449.38
376.76	475.13
376.95	514.92
377.15	538.32
377.35	615.56
377.54	594.50
377.74	575.77
377.93	617.90
378.13	585.13
378.33	608.54
378.52	514.92
378.72	571.09
378.91	538.32
379.11	470.45
379.31	454.06
379.50	433.00
379.70	519.60
379.89	592.16
380.09	587.47
380.28	519.60
380.48	547.69
380.68	538.32
380.87	475.13
381.07	566.41
381.26	589.82
381.46	470.45
381.65	514.92
381.85	416.62
382.04	423.64
382.24	451.72
382.43	472.79
382.63	428.32
382.83	449.38
383.02	407.25
383.22	444.70
383.41	346.40
383.61	507.90
383.80	496.19
384.00	510.24
384.19	568.75
384.39	629.60
384.58	524.28
384.78	547.69
384.97	585.13
385.17	535.98
385.36	491.51
385.56	521.94
385.75	510.24
385.95	533.64
386.14	636.63
386.34	601.52
386.53	603.86
386.72	500.87
386.92	575.77
387.11	599.18
387.31	543.00
387.50	573.43
387.70	587.47
387.89	608.54
388.09	519.60
388.28	540.66
388.48	603.86
388.67	587.47
388.86	657.69
389.06	678.76
389.25	723.23
389.45	690.46
389.64	664.71
389.84	711.52
390.03	702.16
390.22	774.72
390.42	702.16
390.61	676.41
390.81	716.20
391.00	723.23
391.19	851.96
391.39	816.85
391.58	835.57
391.78	737.27
391.97	702.16
392.16	620.24
392.36	690.46
392.55	521.94
392.75	383.85
392.94	365.12
393.13	454.06
393.33	423.64
393.52	498.53
393.71	585.13
393.91	603.86
394.10	688.12
394.29	711.52
394.49	770.04
394.68	844.93
394.88	894.08
395.07	863.66
395.26	842.59
395.46	816.85
395.65	793.44
395.84	660.03
396.04	688.12
396.23	547.69
396.42	489.17
396.62	435.34
396.81	496.19
397.00	545.34
397.19	713.86
397.39	826.21
397.58	973.66
397.77	992.39
397.97	940.90
398.16	980.68
398.35	1060.26
398.55	1111.75
398.74	1135.16
398.93	1153.88
399.12	1039.20
399.32	1060.26
399.51	1011.11
399.70	1172.61
399.90	1123.46
400.09	1142.18
400.28	1128.14
400.47	1137.50
400.67	1177.29
400.86	1165.59
401.05	1238.14
401.24	1261.55
401.44	1228.78
401.63	1107.07
401.82	1266.23
402.01	1249.85
402.21	1275.59
402.40	1254.53
402.59	1137.50
402.78	1121.12
402.97	1135.16
403.17	1165.59
403.36	1224.10
403.55	1275.59
403.74	1275.59
403.93	1252.19
404.13	1256.87
404.32	1207.72
404.51	1308.36
404.70	1397.30
404.89	1289.64
405.09	1315.38
405.28	1322.40
405.47	1214.74
405.66	1184.31
405.85	1214.74
406.05	1188.99
406.24	1090.69
406.43	1282.61
406.62	1205.38
406.81	1336.45
407.00	1252.19
407.20	1238.14
407.39	1139.84
407.58	1238.14
407.77	1226.44
407.96	1329.42
408.15	1462.83
408.34	1385.60
408.54	1444.11
408.73	1430.07
408.92	1441.77
409.11	1273.25
409.30	1303.68
409.49	1266.23
409.68	1132.82
409.87	1146.86
410.07	1207.72
410.26	1299.00
410.45	1294.32
410.64	1409.00
410.83	1453.47
411.02	1451.13
411.21	1474.54
411.40	1497.94
411.59	1526.03
411.78	1507.30
411.98	1432.41
412.17	1472.20
412.36	1430.07
412.55	1441.77
412.74	1483.90
412.93	1401.98
413.12	1451.13
413.31	1577.52
413.50	1497.94
413.69	1540.07
413.88	1537.73
414.07	1490.92
414.26	1383.26
414.45	1565.82
414.64	1519.01
414.83	1591.56
415.02	1409.00
415.22	1514.33
415.41	1593.90
415.60	1490.92
415.79	1668.80
415.98	1729.66
416.17	1614.97
416.36	1603.27
416.55	1614.97
416.74	1535.39
416.93	1612.63
417.12	1558.80
417.31	1558.80
417.50	1509.65
417.69	1598.59
417.88	1514.33
418.07	1465.18
418.26	1434.75
418.45	1528.37
418.64	1654.76
418.83	1603.27
419.02	1748.38
419.21	1617.31
419.39	1654.76
419.58	1502.62
419.77	1561.14
419.96	1528.37
420.15	1631.35
420.34	1703.91
420.53	1703.91
420.72	1736.68
420.91	1771.79
421.10	1809.23
421.29	1727.32
421.48	1694.55
421.67	1767.10
421.86	1600.93
422.05	1591.56
422.24	1472.20
422.43	1430.07
422.61	1533.05
422.80	1687.53
422.99	1689.87
423.18	1727.32
423.37	1577.52
423.56	1610.29
423.75	1633.69
423.94	1687.53
424.13	1633.69
424.32	1465.18
424.50	1561.14
424.69	1652.42
424.88	1685.19
425.07	1596.25
425.26	1621.99
425.45	1621.99
425.64	1462.83
425.83	1479.22
426.01	1713.27
426.20	1710.93
426.39	1629.01
426.58	1563.48
426.77	1406.66
426.96	1376.24
427.15	1521.35
427.33	1519.01
427.52	1563.48
427.71	1664.12
427.90	1528.37
428.09	1626.67
428.28	1633.69
428.46	1504.96
428.65	1511.99
428.84	1519.01
429.03	1603.27
429.22	1476.88
429.40	1413.68
429.59	1263.89
429.78	1214.74
429.97	1203.04
430.16	1181.97
430.34	1217.08
430.53	1200.69
430.72	1181.97
430.91	1268.57
431.10	1495.60
431.28	1729.66
431.47	1748.38
431.66	1952.01
431.85	1832.64
432.03	1540.07
432.22	1591.56
432.41	1596.25
432.60	1732.00
432.79	1722.63
432.97	1984.77
433.16	1799.87
433.35	1652.42
433.54	1469.86
433.72	1465.18
433.91	1432.41
434.10	1572.84
434.28	1652.42
434.47	1802.21
434.66	1654.76
434.85	1846.68
435.03	1771.79
435.22	2062.01
435.41	2214.15
435.59	2282.02
435.78	2167.34
435.97	2003.50
436.16	1994.14
436.34	1813.92
436.53	1863.07
436.72	1877.11
436.90	1792.85
437.09	1689.87
437.28	1762.42
437.46	1727.32
437.65	1776.47
437.84	1834.98
438.02	1598.59
438.21	1600.93
438.40	1572.84
438.58	1724.97
438.77	1790.51
438.96	1820.94
439.14	1741.36
439.33	1881.79
439.52	1984.77
439.70	1900.52
439.89	1959.03
440.08	1858.39
440.26	1799.87
440.45	1982.43
440.63	1975.41
440.82	2064.35
441.01	2047.97
441.19	2031.58
441.38	2069.03
441.57	2059.67
441.75	2279.68
441.94	2195.42
442.12	2099.46
442.31	2162.66
442.50	2136.91
442.68	2167.34
442.87	2150.95
443.05	2104.14
443.24	2143.93
443.43	2221.17
443.61	2167.34
443.80	2305.43
443.98	2104.14
444.17	2097.12
444.35	2256.28
444.54	2270.32
444.73	2211.81
444.91	2214.15
445.10	2076.06
445.28	2050.31
445.47	2015.20
445.65	2043.29
445.84	2054.99
446.02	2113.50
446.21	2073.71
446.39	2073.71
446.58	2132.23
446.77	2172.02
446.95	2237.55
447.14	2172.02
447.32	2289.04
447.51	2239.89
447.69	2242.23
447.88	2141.59
448.06	2209.47
448.25	2209.47
448.43	2176.70
448.62	2125.21
448.80	2108.82
448.99	2188.40
449.17	2202.44
449.36	2183.72
449.54	2413.09
449.73	2286.70
449.91	2370.96
450.10	2289.04
450.28	2518.42
450.46	2394.37
450.65	2480.97
450.83	2335.85
451.02	2277.34
451.20	2310.11
451.39	2326.49
451.57	2251.60
451.76	2277.34
451.94	2352.24
452.13	2228.19
452.31	2265.64
452.49	2062.01
452.68	2066.69
452.86	2132.23
453.05	2111.16
453.23	2148.61
453.42	2256.28
453.60	2272.66
453.78	2277.34
453.97	2296.07
454.15	2277.34
454.34	2183.72
454.52	2209.47
454.70	2125.21
454.89	2275.00
455.07	2150.95
455.26	2216.49
455.44	2392.03
455.62	2459.90
455.81	2368.62
455.99	2359.26
456.17	2324.15
456.36	2286.70
456.54	2471.61
456.73	2342.88
456.91	2392.03
457.09	2567.57
457.28	2583.95
457.46	2359.26
457.64	2338.20
457.83	2370.96
458.01	2253.94
458.19	2399.05
458.38	2349.90
458.56	2347.56
458.74	2448.20
458.93	2338.20
459.11	2457.56
459.29	2328.83
459.48	2326.49
459.66	2352.24
459.84	2431.82
460.03	2530.12
460.21	2466.92
460.39	2551.18
460.57	2452.88
460.76	2380.32
460.94	2403.73
461.12	2509.05
461.31	2490.33
461.49	2363.94
461.67	2520.76
461.85	2466.92
462.04	2499.69
462.22	2977.16
462.40	2583.95
462.59	2656.51
462.77	2469.27
462.95	2464.58
463.13	2394.37
463.32	2513.74
463.50	2438.84
463.68	2445.86
463.86	2459.90
464.05	2296.07
464.23	2359.26
464.41	2303.09
464.59	2373.30
464.78	2471.61
464.96	2356.92
465.14	2361.60
465.32	2462.24
465.50	2555.86
465.69	2417.77
465.87	2539.48
466.05	2443.52
466.23	2422.45
466.41	2335.85
466.60	2356.92
466.78	2366.28
466.96	2286.70
467.14	2389.69
467.32	2567.57
467.51	2427.14
467.69	2401.39
467.87	2480.97
468.05	2459.90
468.23	2448.20
468.41	2387.35
468.60	2375.64
468.78	2480.97
468.96	2483.31
469.14	2487.99
469.32	2347.56
469.50	2420.11
469.69	2399.05
469.87	2338.20
470.05	2354.58
470.23	2380.32
470.41	2408.41
470.59	2370.96
470.77	2377.98
470.95	2490.33
471.14	2450.54
471.32	2438.84
471.50	2581.61
471.68	2586.29
471.86	2689.28
472.04	2576.93
472.22	2640.12
472.40	2553.52
472.58	2574.59
472.77	2417.77
472.95	2518.42
473.13	2558.21
473.31	2520.76
473.49	2492.67
473.67	2560.55
473.85	2647.15
474.03	2642.46
474.21	2523.10
474.39	2691.62
474.57	2717.36
474.75	2679.91
474.93	2614.38
475.12	2380.32
475.30	2684.59
475.48	2663.53
475.66	2588.63
475.84	2595.65
476.02	2576.93
476.20	2499.69
476.38	2656.51
476.56	2710.34
476.74	2693.96
476.92	2918.65
477.10	2911.63
477.28	2747.79
477.46	2862.48
477.64	3026.31
477.82	2857.79
478.00	2913.97
478.18	2747.79
478.36	2829.71
478.54	2691.62
478.72	2925.67
478.90	2850.77
479.08	2834.39
479.26	3005.25
479.44	3101.21
479.62	3066.10
479.80	3033.33
479.98	2906.95
480.16	3096.53
480.34	3021.63
480.52	2942.05
480.70	3096.53
480.88	3136.32
481.06	3087.17
481.24	3005.25
481.41	3152.70
481.59	3325.90
481.77	3302.50
481.95	3232.28
482.13	3225.26
482.31	3208.87
482.49	3208.87
482.67	3192.49
482.85	3199.51
483.03	3248.66
483.21	3243.98
483.39	3302.50
483.57	3124.62
483.74	3414.84
483.92	3295.47
484.10	3220.58
484.28	3417.18
484.46	3330.58
484.64	3445.27
484.82	3311.86
485.00	3337.60
485.18	3431.23
485.35	3122.27
485.53	2967.80
485.71	2715.02
485.89	2719.70
486.07	2787.58
486.25	3091.85
486.43	3108.23
486.61	3241.64
486.78	3349.31
486.96	3386.76
487.14	3339.94
487.32	3431.23
487.50	3644.21
487.68	3599.74
487.85	3700.39
488.03	3574.00
488.21	3721.45
488.39	3562.30
488.57	3494.42
488.75	3414.84
488.92	3784.65
489.10	4004.66
489.28	3894.65
489.46	4002.32
489.64	4004.66
489.81	4145.09
489.99	3953.16
490.17	4018.70
490.35	4002.32
490.53	4009.34
490.70	3889.97
490.88	4002.32
491.06	4035.08
491.24	4018.70
491.41	4072.53
491.59	3868.91
491.77	3571.66
491.95	3756.56
492.13	3887.63
492.30	4051.47
492.48	4140.41
492.66	4276.16
492.84	4147.43
493.01	4245.73
493.19	4035.08
493.37	4173.18
493.54	4126.36
493.72	4037.42
493.90	4131.05
494.08	4243.39
494.25	4456.38
494.43	4351.06
494.61	4667.03
494.79	4486.81
494.96	4248.07
495.14	4266.80
495.32	4243.39
495.49	4063.17
495.67	4404.89
495.85	4423.61
496.02	4498.51
496.20	4507.87
496.38	4493.83
496.55	4557.02
496.73	4683.41
496.91	4662.35
497.09	4711.50
497.26	4821.50
497.44	4552.34
497.62	4575.75
497.79	4332.33
497.97	4252.75
498.14	4287.86
498.32	4454.04
498.50	4573.41
498.67	4596.81
498.85	4393.19
499.03	4449.36
499.20	4716.18
499.38	4652.98
499.56	4594.47
499.73	4606.17
499.91	4416.59
500.08	4514.89
500.26	4362.76
500.44	4318.29
500.61	4526.60
500.79	4444.68
500.97	4435.32
501.14	4395.53
501.32	4339.35
501.49	4276.16
501.67	4234.03
501.84	4379.14
502.02	4416.59
502.20	4587.45
502.37	4601.49
502.55	4390.84
502.72	4430.63
502.90	4545.32
503.07	4535.96
503.25	4484.47
503.43	4105.30
503.60	4140.41
503.78	4109.98
503.95	4086.58
504.13	4318.29
504.30	4622.56
504.48	4641.28
504.65	4727.88
504.83	4620.22
505.01	4524.26
505.18	4615.54
505.36	4861.29
505.53	4629.58
505.71	4865.97
505.88	4840.23
506.06	4887.04
506.23	4660.01
506.41	4608.51
506.58	4617.88
506.76	4561.70
506.93	4535.96
507.11	4557.02
507.28	4465.74
507.46	4535.96
507.63	4477.44
507.81	4629.58
507.98	4355.74
508.16	4596.81
508.33	4685.75
508.50	4552.34
508.68	4844.91
508.85	4884.70
509.03	4964.28
509.20	4877.68
509.38	4774.69
509.55	4643.62
509.73	4528.94
509.90	4816.82
510.08	4828.53
510.25	5029.81
510.42	4704.48
510.60	4727.88
510.77	4903.42
510.95	4933.85
511.12	4926.83
511.30	5022.79
511.47	5046.20
511.64	5083.64
511.82	5104.71
511.99	4968.96
512.17	4725.54
512.34	4592.13
512.51	4643.62
512.69	4837.89
512.86	4835.55
513.04	4975.98
513.21	4830.87
513.38	4880.02
513.56	4713.84
513.73	4613.20
513.90	4821.50
514.08	4781.71
514.25	4784.06
514.43	4734.90
514.60	4762.99
514.77	4795.76
514.95	5022.79
515.12	4664.69
515.29	4915.12
515.47	5022.79
515.64	4983.00
515.81	5027.47
515.99	4922.15
516.16	4589.79
516.33	4320.63
516.51	4105.30
516.68	3960.19
516.85	3850.18
517.03	3857.20
517.20	4280.84
517.37	4657.67
517.54	4788.74
517.72	4826.18
517.89	4308.93
518.06	4184.88
518.24	4205.94
518.41	4297.22
518.58	4631.92
518.75	4559.36
518.93	4645.96
519.10	4748.95
519.27	4898.74
519.45	4938.53
519.62	4905.76
519.79	4978.32
519.96	4943.21
520.14	4957.25
520.31	4767.67
520.48	4896.40
520.65	4713.84
520.83	4842.57
521.00	5111.73
521.17	4910.44
521.34	4856.61
521.52	4987.68
521.69	5104.71
521.86	5111.73
522.03	5053.22
522.20	5011.09
522.38	4746.61
522.55	4503.19
522.72	4704.48
522.89	4758.31
523.07	4894.06
523.24	4870.65
523.41	4889.38
523.58	5151.52
523.75	5121.09
523.92	5217.05
524.10	5020.45
524.27	5057.90
524.44	5224.08
524.61	5085.98
524.78	5109.39
524.96	5053.22
525.13	5013.43
525.30	4912.78
525.47	4971.30
525.64	5158.54
525.81	5071.94
525.98	4737.24
526.16	4685.75
526.33	4477.44
526.50	4351.06
526.67	4334.67
526.84	4320.63
527.01	4454.04
527.18	4685.75
527.36	4835.55
527.53	4847.25
527.70	5104.71
527.87	4987.68
528.04	4868.31
528.21	4968.96
528.38	5029.81
528.55	5191.31
528.72	5338.76
528.89	5359.83
529.07	5268.55
529.24	5001.72
529.41	4983.00
529.58	4875.34
529.75	4908.10
529.92	5025.13
530.09	5132.79
530.26	5062.58
530.43	5170.24
530.60	5226.42
530.77	5305.99
530.94	5313.02
531.11	5158.54
531.28	5114.07
531.46	5130.45
531.63	5151.52
531.80	5006.41
531.97	5071.94
532.14	4968.96
532.31	4751.29
532.48	4554.68
532.65	4650.64
532.82	4550.00
532.99	4971.30
533.16	4889.38
533.33	5179.61
533.50	5118.75
533.67	5027.47
533.84	4933.85
534.01	4931.51
534.18	4910.44
534.35	4894.06
534.52	4882.36
534.69	5006.41
534.86	5174.92
535.03	5060.24
535.20	5219.39
535.37	5282.59
535.54	5373.87
535.71	5081.30
535.88	5301.31
536.05	5064.92
536.22	4898.74
536.38	5013.43
536.55	5006.41
536.72	4823.84
536.89	4805.12
537.06	4805.12
537.23	5027.47
537.40	5100.03
537.57	5071.94
537.74	5093.01
537.91	5022.79
538.08	5100.03
538.25	5015.77
538.42	5172.58
538.59	5050.88
538.75	4917.47
538.92	4938.53
539.09	5027.47
539.26	5130.45
539.43	4912.78
539.60	4891.72
539.77	4894.06
539.94	4865.97
540.11	4826.18
540.28	4784.06
540.44	4716.18
540.61	4828.53
540.78	4938.53
540.95	5008.75
541.12	5088.32
541.29	5160.88
541.46	5317.70
541.62	5198.33
541.79	5308.34
541.96	5093.01
542.13	5074.28
542.30	5233.44
542.47	5284.93
542.63	5121.09
542.80	5128.11
542.97	5107.05
543.14	4983.00
543.31	5036.83
543.48	5055.56
543.64	5310.68
543.81	5385.57
543.98	5331.74
544.15	5296.63
544.32	5057.90
544.48	5018.11
544.65	5071.94
544.82	5231.10
544.99	5137.48
545.16	5081.30
545.32	5252.16
545.49	5507.28
545.66	6057.31
545.83	6010.50
546.00	5790.49
546.16	5404.30
546.33	5401.96
546.50	5163.22
546.67	5188.97
546.83	5214.71
547.00	5008.75
547.17	4896.40
547.34	4826.18
547.50	4926.83
547.67	4828.53
547.84	4975.98
548.00	4809.80
548.17	4954.91
548.34	5107.05
548.51	5121.09
548.67	5203.01
548.84	4959.60
549.01	5085.98
549.18	4959.60
549.34	5083.64
549.51	4929.17
549.68	4910.44
549.84	4840.23
550.01	4917.47
550.18	5004.07
550.34	4734.90
550.51	4980.66
550.68	4931.51
550.84	4898.74
551.01	4828.53
551.18	4830.87
551.34	4819.16
551.51	4884.70
551.68	4901.08
551.84	4821.50
552.01	4926.83
552.18	5032.15
552.34	4699.80
552.51	4727.88
552.68	4716.18
552.84	4678.73
553.01	4865.97
553.18	4711.50
553.34	4725.54
553.51	4755.97
553.67	4847.25
553.84	4887.04
554.01	4880.02
554.17	4737.24
554.34	4821.50
554.51	4828.53
554.67	4999.38
554.84	4873.00
555.00	5034.49
555.17	4873.00
555.33	4800.44
555.50	4870.65
555.67	4882.36
555.83	4894.06
556.00	4809.80
556.16	4826.18
556.33	4582.77
556.50	4500.85
556.66	4599.15
556.83	4493.83
556.99	4578.09
557.16	4727.88
557.32	4418.93
557.49	4683.41
557.65	4643.62
557.82	4615.54
557.98	4652.98
558.15	4559.36
558.32	4470.42
558.48	4379.14
558.65	4320.63
558.81	4505.53
558.98	4315.95
559.14	4540.64
559.31	4535.96
559.47	4489.15
559.64	4374.46
559.80	4416.59
559.97	4255.09
560.13	4320.63
560.30	4566.39
560.46	4746.61
560.63	4538.30
560.79	4716.18
560.96	4657.67
561.12	4596.81
561.29	4421.27
561.45	4514.89
561.61	4451.70
561.78	4538.30
561.94	4545.32
562.11	4383.82
562.27	4397.87
562.44	4479.79
562.60	4507.87
562.77	4510.21
562.93	4542.98
563.10	4645.96
563.26	4491.49
563.42	4615.54
563.59	4545.32
563.75	4411.91
563.92	4456.38
564.08	4470.42
564.24	4571.07
564.41	4416.59
564.57	4503.19
564.74	4505.53
564.90	4437.66
565.07	4367.44
565.23	4451.70
565.39	4227.01
565.56	4294.88
565.72	4177.86
565.88	4280.84
566.05	4276.16
566.21	4355.74
566.38	4189.56
566.54	4290.20
566.70	4444.68
566.87	4503.19
567.03	4423.61
567.19	4440.00
567.36	4425.95
567.52	4339.35
567.68	4449.36
567.85	4313.61
568.01	4133.39
568.17	4070.19
568.34	3950.82
568.50	3960.19
568.66	4077.21
568.83	4018.70
568.99	4093.60
569.15	4105.30
569.32	3988.27
569.48	4023.38
569.64	4049.13
569.81	4023.38
569.97	4154.45
570.13	4065.51
570.30	4030.40
570.46	3983.59
570.62	4081.89
570.78	3964.87
570.95	3904.01
571.11	4014.02
571.27	4021.04
571.43	4014.02
571.60	3995.29
571.76	4102.96
571.92	4011.68
572.09	3950.82
572.25	4140.41
572.41	4039.76
572.57	3976.57
572.74	4121.68
572.90	3920.40
573.06	4051.47
573.22	4109.98
573.38	4049.13
573.55	4053.81
573.71	4074.87
573.87	4039.76
574.03	3999.98
574.20	3904.01
574.36	4067.85
574.52	3838.48
574.68	4018.70
574.84	3868.91
575.01	3840.82
575.17	3829.12
575.33	3845.50
575.49	3920.40
575.65	3964.87
575.82	3892.31
575.98	3873.59
576.14	3796.35
576.30	3866.56
576.46	4170.83
576.62	4147.43
576.79	4222.33
576.95	3908.69
577.11	4044.45
577.27	4042.11
577.43	4180.20
577.59	3953.16
577.75	4002.32
577.92	3796.35
578.08	3707.41
578.24	3712.09
578.40	3833.80
578.56	4025.72
578.72	4016.36
578.88	4140.41
579.04	3955.51
579.21	4140.41
579.37	4168.49
579.53	4056.15
579.69	3985.93
579.85	3999.98
580.01	3995.29
580.17	3969.55
580.33	3976.57
580.49	3955.51
580.65	3962.53
580.82	4067.85
580.98	3985.93
581.14	3953.16
581.30	3922.74
581.46	3955.51
581.62	3974.23
581.78	3918.06
581.94	4166.15
582.10	3964.87
582.26	4081.89
582.42	4128.70
582.58	4079.55
582.74	4023.38
582.90	4142.75
583.06	3988.27
583.22	4074.87
583.38	4133.39
583.54	4051.47
583.70	4032.74
583.86	4086.58
584.02	3955.51
584.18	4088.92
584.34	4072.53
584.50	4016.36
584.66	3995.29
584.82	3920.40
584.98	3833.80
585.14	3840.82
585.30	3882.95
585.46	3758.90
585.62	3576.34
585.78	3815.07
585.94	3700.39
586.10	3875.93
586.26	3777.62
586.42	3754.22
586.58	3805.71
586.74	3887.63
586.90	3754.22
587.06	3880.61
587.22	3826.78
587.38	3651.24
587.54	3854.86
587.70	3676.98
587.86	3531.87
588.02	3442.93
588.18	3318.88
588.34	3265.05
588.49	2993.55
588.65	2878.86
588.81	2750.13
588.97	2825.03
589.13	2693.96
589.29	2808.64
589.45	2752.47
589.61	2860.13
589.77	2871.84
589.93	2920.99
590.08	3176.11
590.24	3258.03
590.40	3122.27
590.56	3213.56
590.72	3253.34
590.88	3225.26
591.04	3176.11
591.20	3204.19
591.35	3173.77
591.51	3187.81
591.67	3091.85
591.83	3157.38
591.99	3087.17
592.15	3218.24
592.31	3169.09
592.46	3356.33
592.62	3337.60
592.78	3297.81
592.94	3335.26
593.10	3403.14
593.26	3454.63
593.41	3421.86
593.57	3421.86
593.73	3232.28
593.89	3145.68
594.05	3047.38
594.20	2974.82
594.36	2899.92
594.52	2818.00
594.68	2925.67
594.84	3026.31
594.99	3171.43
595.15	3265.05
595.31	3211.22
595.47	3332.92
595.62	3276.75
595.78	3098.87
595.94	3335.26
596.10	3351.65
596.25	3279.09
596.41	3265.05
596.57	3162.06
596.73	3236.96
596.88	3412.50
597.04	3344.63
597.20	3485.06
597.36	3234.62
597.51	3155.04
597.67	3293.13
597.83	3293.13
597.99	3365.69
