SpectraSuite Data File
++++++++++++++++++++++++++++++++++++
Date: Fri Oct 04 11:44:22 GMT-05:00 2013
User: price-jones
Dark Spectrum Present: No
Reference Spectrum Present: No
Number of Sampled Component Spectra: 1
Spectrometers: USB2+H05261
Integration Time (usec): 100000 (USB2+H05261)
Spectra Averaged: 1 (USB2+H05261)
Boxcar Smoothing: 0 (USB2+H05261)
Correct for Electrical Dark: No (USB2+H05261)
Strobe/Lamp Enabled: No (USB2+H05261)
Correct for Detector Non-linearity: No (USB2+H05261)
Correct for Stray Light: No (USB2+H05261)
Number of Pixels in Processed Spectrum: 2048
>>>>>Begin Processed Spectral Data<<<<<
365.73	56.17
365.92	56.17
366.12	56.17
366.32	0.00
366.52	0.00
366.72	0.00
366.91	0.00
367.11	0.00
367.31	0.00
367.51	0.00
367.70	0.00
367.90	0.00
368.10	0.00
368.30	0.00
368.49	0.00
368.69	0.00
368.89	0.00
369.09	0.00
369.28	0.00
369.48	0.00
369.68	0.00
369.87	0.00
370.07	0.00
370.27	2.34
370.47	56.17
370.66	369.80
370.86	442.36
371.06	550.03
371.25	545.34
371.45	435.34
371.65	482.15
371.84	423.64
372.04	514.92
372.24	456.40
372.44	521.94
372.63	528.96
372.83	552.37
373.03	470.45
373.22	428.32
373.42	416.62
373.62	447.04
373.81	500.87
374.01	535.98
374.21	503.22
374.40	493.85
374.60	564.07
374.79	624.92
374.99	610.88
375.19	645.99
375.38	643.65
375.58	678.76
375.78	622.58
375.97	507.90
376.17	734.93
376.37	603.86
376.56	606.20
376.76	622.58
376.95	676.41
377.15	692.80
377.35	781.74
377.54	753.65
377.74	821.53
377.93	777.06
378.13	737.27
378.33	678.76
378.52	664.71
378.72	720.88
378.91	678.76
379.11	573.43
379.31	641.31
379.50	606.20
379.70	662.37
379.89	664.71
380.09	826.21
380.28	751.31
380.48	765.36
380.68	725.57
380.87	692.80
381.07	760.67
381.26	720.88
381.46	695.14
381.65	634.29
381.85	622.58
382.04	566.41
382.24	596.84
382.43	430.66
382.63	526.62
382.83	500.87
383.02	528.96
383.22	578.11
383.41	472.79
383.61	512.58
383.80	575.77
384.00	730.25
384.19	718.54
384.39	716.20
384.58	718.54
384.78	713.86
384.97	688.12
385.17	706.84
385.36	641.31
385.56	732.59
385.75	716.20
385.95	730.25
386.14	805.14
386.34	805.14
386.53	737.27
386.72	723.23
386.92	732.59
387.11	828.55
387.31	779.40
387.50	814.51
387.70	784.08
387.89	739.61
388.09	662.37
388.28	781.74
388.48	720.88
388.67	812.17
388.86	854.30
389.06	887.06
389.25	1006.43
389.45	896.43
389.64	950.26
389.84	816.85
390.03	983.02
390.22	929.19
390.42	910.47
390.61	1043.88
390.81	1036.86
391.00	1156.22
391.19	1165.59
391.39	1076.65
391.58	1029.84
391.78	1001.75
391.97	968.98
392.16	791.10
392.36	866.00
392.55	821.53
392.75	606.20
392.94	454.06
393.13	491.51
393.33	580.45
393.52	662.37
393.71	753.65
393.91	903.45
394.10	791.10
394.29	947.92
394.49	1139.84
394.68	1198.35
394.88	1100.05
395.07	1121.12
395.26	1114.10
395.46	1172.61
395.65	1046.22
395.84	903.45
396.04	880.04
396.23	748.97
396.42	648.33
396.62	648.33
396.81	685.78
397.00	802.80
397.19	999.41
397.39	1088.35
397.58	1313.04
397.77	1301.34
397.97	1427.73
398.16	1418.36
398.35	1437.09
398.55	1465.18
398.74	1617.31
398.93	1629.01
399.12	1481.56
399.32	1523.69
399.51	1458.15
399.70	1591.56
399.90	1631.35
400.09	1598.59
400.28	1495.60
400.47	1516.67
400.67	1671.14
400.86	1724.97
401.05	1680.50
401.24	1755.40
401.44	1806.89
401.63	1715.61
401.82	1694.55
402.01	1666.46
402.21	1750.72
402.40	1706.25
402.59	1682.85
402.78	1664.12
402.97	1591.56
403.17	1579.86
403.36	1692.21
403.55	1743.70
403.74	1739.02
403.93	1792.85
404.13	1715.61
404.32	1584.54
404.51	1710.93
404.70	1818.60
404.89	1797.53
405.09	1809.23
405.28	1680.50
405.47	1671.14
405.66	1720.29
405.85	1713.27
406.05	1624.33
406.24	1797.53
406.43	1767.10
406.62	1694.55
406.81	1774.13
407.00	1703.91
407.20	1631.35
407.39	1783.49
407.58	1818.60
407.77	1827.96
407.96	1874.77
408.15	1954.35
408.34	1839.66
408.54	1968.39
408.73	1994.14
408.92	1987.11
409.11	1954.35
409.30	1781.15
409.49	1750.72
409.68	1643.06
409.87	1617.31
410.07	1626.67
410.26	1753.06
410.45	1888.81
410.64	1930.94
410.83	1980.09
411.02	2015.20
411.21	2148.61
411.40	2097.12
411.59	2176.70
411.78	2031.58
411.98	2078.40
412.17	2165.00
412.36	1991.80
412.55	2118.18
412.74	1968.39
412.93	1973.07
413.12	1994.14
413.31	2228.19
413.50	2162.66
413.69	2169.68
413.88	2190.74
414.07	2092.44
414.26	2059.67
414.45	2090.10
414.64	2150.95
414.83	2275.00
415.02	2197.76
415.22	2169.68
415.41	2073.71
415.60	2167.34
415.79	2333.51
415.98	2300.75
416.17	2363.94
416.36	2260.96
416.55	2300.75
416.74	2174.36
416.93	2186.06
417.12	2146.27
417.31	2207.13
417.50	2186.06
417.69	2207.13
417.88	2169.68
418.07	2263.30
418.26	2232.87
418.45	2195.42
418.64	2312.45
418.83	2363.94
419.02	2326.49
419.21	2399.05
419.39	2347.56
419.58	2099.46
419.77	2043.29
419.96	2183.72
420.15	2375.64
420.34	2403.73
420.53	2410.75
420.72	2509.05
420.91	2438.84
421.10	2394.37
421.29	2450.54
421.48	2317.13
421.67	2361.60
421.86	2380.32
422.05	2307.77
422.24	2169.68
422.43	2052.65
422.61	2228.19
422.80	2392.03
422.99	2385.01
423.18	2286.70
423.37	2324.15
423.56	2298.41
423.75	2275.00
423.94	2333.51
424.13	2251.60
424.32	2263.30
424.50	2296.07
424.69	2251.60
424.88	2228.19
425.07	2249.25
425.26	2204.78
425.45	2202.44
425.64	2111.16
425.83	2279.68
426.01	2237.55
426.20	2342.88
426.39	2380.32
426.58	2153.29
426.77	2181.38
426.96	2036.27
427.15	2024.56
427.33	2148.61
427.52	2331.17
427.71	2256.28
427.90	2239.89
428.09	2319.47
428.28	2200.10
428.46	2111.16
428.65	2106.48
428.84	2099.46
429.03	2106.48
429.22	2010.52
429.40	1975.41
429.59	1827.96
429.78	1659.44
429.97	1570.50
430.16	1647.74
430.34	1687.53
430.53	1596.25
430.72	1790.51
430.91	1820.94
431.10	2026.90
431.28	2340.54
431.47	2626.08
431.66	2583.95
431.85	2452.88
432.03	2298.41
432.22	2270.32
432.41	2235.21
432.60	2466.92
432.79	2541.82
432.97	2703.32
433.16	2450.54
433.35	2347.56
433.54	2150.95
433.72	2129.89
433.91	2106.48
434.10	2244.57
434.28	2366.28
434.47	2469.27
434.66	2495.01
434.85	2537.14
435.03	2551.18
435.22	2600.34
435.41	3026.31
435.59	2930.35
435.78	3075.46
435.97	2944.39
436.16	2822.69
436.34	2700.98
436.53	2700.98
436.72	2745.45
436.90	2473.95
437.09	2459.90
437.28	2478.63
437.46	2450.54
437.65	2548.84
437.84	2455.22
438.02	2392.03
438.21	2186.06
438.40	2249.25
438.58	2466.92
438.77	2539.48
438.96	2525.44
439.14	2855.45
439.33	2757.15
439.52	2822.69
439.70	2715.02
439.89	2722.04
440.08	2576.93
440.26	2539.48
440.45	2775.88
440.63	2855.45
440.82	3002.91
441.01	2953.76
441.19	2967.80
441.38	2991.20
441.57	3012.27
441.75	3103.55
441.94	3155.04
442.12	3005.25
442.31	3061.42
442.50	3061.42
442.68	3075.46
442.87	3054.40
443.05	3068.44
443.24	3070.78
443.43	3087.17
443.61	3309.52
443.80	3206.53
443.98	3012.27
444.17	3077.80
444.35	3103.55
444.54	3145.68
444.73	3269.73
444.91	3075.46
445.10	3009.93
445.28	2813.32
445.47	2888.22
445.65	2705.66
445.84	2878.86
446.02	2951.42
446.21	2979.50
446.39	3089.51
446.58	3143.34
446.77	3038.02
446.95	3112.91
447.14	3232.28
447.32	3255.69
447.51	3173.77
447.69	3124.62
447.88	3098.87
448.06	3187.81
448.25	3138.66
448.43	3176.11
448.62	3045.04
448.80	3232.28
448.99	3176.11
449.17	3204.19
449.36	3094.19
449.54	3169.09
449.73	3286.11
449.91	3496.76
450.10	3501.44
450.28	3527.19
450.46	3510.80
450.65	3588.04
450.83	3524.85
451.02	3363.35
451.20	3412.50
451.39	3363.35
451.57	3187.81
451.76	3398.46
451.94	3293.13
452.13	3279.09
452.31	3258.03
452.49	3038.02
452.68	2972.48
452.86	3073.12
453.05	2988.86
453.23	3049.72
453.42	3122.27
453.60	3162.06
453.78	3213.56
453.97	3332.92
454.15	3279.09
454.34	3169.09
454.52	3199.51
454.70	3251.00
454.89	3162.06
455.07	3199.51
455.26	3232.28
455.44	3349.31
455.62	3328.24
455.81	3365.69
455.99	3400.80
456.17	3286.11
456.36	3349.31
456.54	3377.39
456.73	3555.27
456.91	3513.14
457.09	3485.06
457.28	3508.46
457.46	3496.76
457.64	3356.33
457.83	3323.56
458.01	3255.69
458.19	3538.89
458.38	3363.35
458.56	3581.02
458.74	3508.46
458.93	3513.14
459.11	3461.65
459.29	3318.88
459.48	3445.27
459.66	3461.65
459.84	3538.89
460.03	3478.04
460.21	3428.88
460.39	3468.67
460.57	3548.25
460.76	3452.29
460.94	3623.15
461.12	3623.15
461.31	3627.83
461.49	3545.91
461.67	3496.76
461.85	3634.85
462.04	3627.83
462.22	4086.58
462.40	3691.02
462.59	3698.05
462.77	3569.32
462.95	3634.85
463.13	3681.66
463.32	3534.21
463.50	3637.19
463.68	3496.76
463.86	3510.80
464.05	3325.90
464.23	3527.19
464.41	3459.31
464.59	3342.28
464.78	3396.12
464.96	3478.04
465.14	3454.63
465.32	3506.12
465.50	3534.21
465.69	3529.53
465.87	3445.27
466.05	3527.19
466.23	3431.23
466.41	3283.77
466.60	3377.39
466.78	3279.09
466.96	3417.18
467.14	3421.86
467.32	3506.12
467.51	3487.40
467.69	3445.27
467.87	3403.14
468.05	3419.52
468.23	3548.25
468.41	3475.70
468.60	3365.69
468.78	3384.41
468.96	3506.12
469.14	3559.95
469.32	3660.60
469.50	3449.95
469.69	3396.12
469.87	3489.74
470.05	3412.50
470.23	3428.88
470.41	3293.13
470.59	3384.41
470.77	3246.32
470.95	3445.27
471.14	3442.93
471.32	3440.59
471.50	3721.45
471.68	3833.80
471.86	3632.51
472.04	3801.03
472.22	3850.18
472.40	3719.11
472.58	3433.57
472.77	3571.66
472.95	3630.17
473.13	3700.39
473.31	3613.79
473.49	3616.13
473.67	3646.55
473.85	3681.66
474.03	3812.73
474.21	3794.01
474.39	3833.80
474.57	3852.52
474.75	3798.69
474.93	3817.41
475.12	3726.13
475.30	3737.84
475.48	3751.88
475.66	3808.05
475.84	3751.88
476.02	3824.44
476.20	3747.20
476.38	3836.14
476.56	3906.35
476.74	3915.72
476.92	3803.37
477.10	3880.61
477.28	4140.41
477.46	4098.28
477.64	4201.26
477.82	4231.69
478.00	4266.80
478.18	4016.36
478.36	4149.77
478.54	4117.00
478.72	4159.13
478.90	4156.79
479.08	4358.08
479.26	4367.44
479.44	4477.44
479.62	4447.02
479.80	4325.31
479.98	4407.23
480.16	4355.74
480.34	4395.53
480.52	4418.93
480.70	4435.32
480.88	4395.53
481.06	4496.17
481.24	4617.88
481.41	4744.27
481.59	4603.83
481.77	4741.93
481.95	4725.54
482.13	4629.58
482.31	4681.07
482.49	4667.03
482.67	4868.31
482.85	4830.87
483.03	4791.08
483.21	4898.74
483.39	4777.03
483.57	4837.89
483.74	4631.92
483.92	4767.67
484.10	4652.98
484.28	4919.81
484.46	4908.10
484.64	4933.85
484.82	4966.62
485.00	4727.88
485.18	4758.31
485.35	4585.11
485.53	4451.70
485.71	3920.40
485.89	3927.42
486.07	4056.15
486.25	4444.68
486.43	4601.49
486.61	4861.29
486.78	4805.12
486.96	4641.28
487.14	4917.47
487.32	5104.71
487.50	5090.67
487.68	5399.62
487.85	5308.34
488.03	5390.25
488.21	5413.66
488.39	5172.58
488.57	5193.65
488.75	4983.00
488.92	5390.25
489.10	5500.26
489.28	5760.06
489.46	5724.95
489.64	5921.56
489.81	6003.47
489.99	5872.40
490.17	5860.70
490.35	5944.96
490.53	5839.64
490.70	5757.72
490.88	5689.84
491.06	5820.91
491.24	5825.59
491.41	5825.59
491.59	5540.05
491.77	5322.38
491.95	5427.70
492.13	5612.60
492.30	5816.23
492.48	5998.79
492.66	6061.99
492.84	6059.65
493.01	6136.88
493.19	5944.96
493.37	6008.16
493.54	5886.45
493.72	5870.06
493.90	6153.27
494.08	6445.84
494.25	6518.39
494.43	6443.49
494.61	6633.08
494.79	6408.39
494.96	6434.13
495.14	6520.73
495.32	6347.53
495.49	6127.52
495.67	6216.46
495.85	6581.59
496.02	6693.93
496.20	6745.42
496.38	6527.75
496.55	6539.46
496.73	6656.48
496.91	6619.04
497.09	6642.44
497.26	6843.73
497.44	6670.53
497.62	6759.47
497.79	6333.49
497.97	6193.06
498.14	6090.07
498.32	6413.07
498.50	6661.16
498.67	6925.65
498.85	6607.33
499.03	6691.59
499.20	6855.43
499.38	6778.19
499.56	6881.18
499.73	6803.94
499.91	6768.83
500.08	6380.30
500.26	6129.86
500.44	6310.08
500.61	6525.41
500.79	6520.73
500.97	6450.52
501.14	6462.22
501.32	6270.30
501.49	6291.36
501.67	6377.96
501.84	6417.75
502.02	6452.86
502.20	6726.70
502.37	6443.49
502.55	6494.99
502.72	6717.34
502.90	6822.66
503.07	6686.91
503.25	6499.67
503.43	6303.06
503.60	6050.28
503.78	5905.17
503.95	6179.01
504.13	6396.68
504.30	6822.66
504.48	6689.25
504.65	6752.45
504.83	6600.31
505.01	6895.22
505.18	6724.36
505.36	6780.53
505.53	7094.16
505.71	7030.97
505.88	7042.67
506.06	6946.71
506.23	6836.70
506.41	6766.49
506.58	6862.45
506.76	6869.47
506.93	6668.19
507.11	6558.18
507.28	6661.16
507.46	6679.89
507.63	6518.39
507.81	6485.62
507.98	6399.02
508.16	6572.22
508.33	6904.58
508.50	6932.67
508.68	7061.40
508.85	7056.72
509.03	7117.57
509.20	7110.55
509.38	7066.08
509.55	6885.86
509.73	6803.94
509.90	6986.50
510.08	7045.01
510.25	7026.29
510.42	6974.80
510.60	7045.01
510.77	7052.03
510.95	7159.70
511.12	7302.47
511.30	7286.09
511.47	7548.23
511.64	7602.06
511.82	7440.56
511.99	7255.66
512.17	7206.51
512.34	7162.04
512.51	7035.65
512.69	6953.73
512.86	7037.99
513.04	7077.78
513.21	7080.12
513.38	7152.68
513.56	6920.96
513.73	6855.43
513.90	6848.41
514.08	6710.32
514.25	6923.30
514.43	7016.93
514.60	7101.19
514.77	7035.65
514.95	7169.06
515.12	6970.12
515.29	7005.22
515.47	7274.38
515.64	7344.60
515.81	7215.87
515.99	7211.19
516.16	6829.68
516.33	6417.75
516.51	6033.90
516.68	5727.29
516.85	5813.89
517.03	5771.76
517.20	6267.95
517.37	6789.89
517.54	7066.08
517.72	7054.37
517.89	6569.88
518.06	6031.56
518.24	6026.88
518.41	6345.19
518.58	6834.36
518.75	6986.50
518.93	6972.46
519.10	6729.04
519.27	6834.36
519.45	6911.60
519.62	7180.76
519.79	7171.40
519.96	7199.49
520.14	7150.34
520.31	6817.98
520.48	6890.54
520.65	6813.30
520.83	7117.57
521.00	7318.86
521.17	7302.47
521.34	7250.98
521.52	7131.61
521.69	7508.44
521.86	7421.84
522.03	7396.09
522.20	7211.19
522.38	6888.20
522.55	6794.58
522.72	6829.68
522.89	7096.50
523.07	7042.67
523.24	7094.16
523.41	7187.79
523.58	7438.22
523.75	7410.14
523.92	7456.95
524.10	7606.74
524.27	7625.47
524.44	7267.36
524.61	7407.80
524.78	7398.43
524.96	7215.87
525.13	7307.15
525.30	7494.40
525.47	7541.21
525.64	7775.26
525.81	7368.01
525.98	7105.87
526.16	6698.61
526.33	6429.45
526.50	6455.20
526.67	6296.04
526.84	6438.81
527.01	6672.87
527.18	6916.28
527.36	7077.78
527.53	7183.10
527.70	7559.93
527.87	7302.47
528.04	7152.68
528.21	7082.46
528.38	7456.95
528.55	7674.62
528.72	7735.47
528.89	7632.49
529.07	7590.36
529.24	7573.97
529.41	7356.30
529.58	7187.79
529.75	7040.33
529.92	7314.17
530.09	7407.80
530.26	7414.82
530.43	7529.50
530.60	7571.63
530.77	7611.42
530.94	7648.87
531.11	7653.55
531.28	7644.19
531.46	7606.74
531.63	7466.31
531.80	7641.85
531.97	7463.97
532.14	7248.64
532.31	6991.18
532.48	6881.18
532.65	6808.62
532.82	6944.37
532.99	7112.89
533.16	7304.81
533.33	7344.60
533.50	7496.74
533.67	7316.51
533.84	7033.31
534.01	7258.00
534.18	7222.89
534.35	7527.16
534.52	7337.58
534.69	7272.04
534.86	7522.48
535.03	7463.97
535.20	7569.29
535.37	7606.74
535.54	7510.78
535.71	7627.81
535.88	7730.79
536.05	7424.18
536.22	7639.51
536.38	7318.86
536.55	7162.04
536.72	6946.71
536.89	6939.69
537.06	7023.95
537.23	7431.20
537.40	7517.80
537.57	7468.65
537.74	7522.48
537.91	7377.37
538.08	7229.91
538.25	7300.13
538.42	7328.22
538.59	7548.23
538.75	7288.43
538.92	7262.68
539.09	7192.47
539.26	7272.04
539.43	7145.66
539.60	7056.72
539.77	7187.79
539.94	7171.40
540.11	6942.03
540.28	6857.77
540.44	7047.35
540.61	6871.81
540.78	7108.21
540.95	6960.75
541.12	7185.44
541.29	7503.76
541.46	7667.60
541.62	7562.27
541.79	7428.86
541.96	7407.80
542.13	7222.89
542.30	7372.69
542.47	7595.04
542.63	7424.18
542.80	7213.53
542.97	7346.94
543.14	7152.68
543.31	7126.93
543.48	7405.46
543.64	7651.21
543.81	7903.99
543.98	7597.38
544.15	7611.42
544.32	7288.43
544.48	7407.80
544.65	7466.31
544.82	7384.39
544.99	7281.41
545.16	7227.57
545.32	7290.77
545.49	7953.14
545.66	8140.38
545.83	8547.64
546.00	8147.40
546.16	7744.83
546.33	7485.03
546.50	7332.90
546.67	7391.41
546.83	7431.20
547.00	7344.60
547.17	7084.80
547.34	7164.38
547.50	7005.22
547.67	6956.07
547.84	6979.48
548.00	7363.33
548.17	7262.68
548.34	7316.51
548.51	7318.86
548.67	7283.75
548.84	7403.11
549.01	7272.04
549.18	7255.66
549.34	7349.28
549.51	7229.91
549.68	7316.51
549.84	7192.47
550.01	7136.29
550.18	7157.36
550.34	7269.70
550.51	7222.89
550.68	7225.23
550.84	7112.89
551.01	7187.79
551.18	7007.56
551.34	7084.80
551.51	7082.46
551.68	7159.70
551.84	7232.26
552.01	7199.49
552.18	7220.55
552.34	6937.35
552.51	6789.89
552.68	6876.49
552.84	6839.05
553.01	7143.32
553.18	7075.44
553.34	7037.99
553.51	6967.77
553.67	7059.06
553.84	7236.94
554.01	7253.32
554.17	6963.09
554.34	6981.82
554.51	7105.87
554.67	7178.42
554.84	7143.32
555.00	7187.79
555.17	6979.48
555.33	7171.40
555.50	7068.42
555.67	7126.93
555.83	7091.82
556.00	6984.16
556.16	7047.35
556.33	6661.16
556.50	6953.73
556.66	6843.73
556.83	6626.06
556.99	6775.85
557.16	6860.11
557.32	6862.45
557.49	6869.47
557.65	6628.40
557.82	6881.18
557.98	6853.09
558.15	6616.69
558.32	6555.84
558.48	6434.13
558.65	6349.87
558.81	6473.92
558.98	6396.68
559.14	6502.01
559.31	6572.22
559.47	6560.52
559.64	6743.08
559.80	6431.79
559.97	6427.11
560.13	6581.59
560.30	6736.06
560.46	6715.00
560.63	6881.18
560.79	6899.90
560.96	7002.88
561.12	6703.29
561.29	6572.22
561.45	6422.43
561.61	6574.56
561.78	6778.19
561.94	6417.75
562.11	6593.29
562.27	6619.04
562.44	6544.14
562.60	6745.42
562.77	6707.98
562.93	6642.44
563.10	6665.85
563.26	6647.12
563.42	6745.42
563.59	6558.18
563.75	6553.50
563.92	6642.44
564.08	6499.67
564.24	6516.05
564.41	6471.58
564.57	6614.35
564.74	6616.69
564.90	6387.32
565.07	6590.95
565.23	6420.09
565.39	6394.34
565.56	6335.83
565.72	6232.85
565.88	6001.13
566.05	6179.01
566.21	6291.36
566.38	6338.17
566.54	6366.26
566.70	6382.64
566.87	6544.14
567.03	6450.52
567.19	6384.98
567.36	6579.25
567.52	6317.11
567.68	6289.02
567.85	6106.46
568.01	5928.58
568.17	5977.73
568.34	5966.03
568.50	5935.60
568.66	5930.92
568.83	5928.58
568.99	5982.41
569.15	6097.10
569.32	5881.77
569.48	5928.58
569.64	5881.77
569.81	5916.87
569.97	5966.03
570.13	6043.26
570.30	5802.19
570.46	5830.27
570.62	5689.84
570.78	5621.97
570.95	5734.31
571.11	5870.06
571.27	5781.12
571.43	5961.34
571.60	5940.28
571.76	5977.73
571.92	5825.59
572.09	6188.38
572.25	6029.22
572.41	6031.56
572.57	6038.58
572.74	5757.72
572.90	5954.32
573.06	5984.75
573.22	6017.52
573.38	6087.73
573.55	5870.06
573.71	6031.56
573.87	5947.30
574.03	5895.81
574.20	5867.72
574.36	5856.02
574.52	5736.65
574.68	5827.93
574.84	5685.16
575.01	5687.50
575.17	5715.59
575.33	5659.42
575.49	5774.10
575.65	5888.79
575.82	5738.99
575.98	5713.25
576.14	5750.70
576.30	5738.99
576.46	5975.39
576.62	6064.33
576.79	5970.71
576.95	5991.77
577.11	5706.23
577.27	5851.34
577.43	5870.06
577.59	5771.76
577.75	5715.59
577.92	5643.03
578.08	5547.07
578.24	5575.16
578.40	5851.34
578.56	5664.10
578.72	5809.21
578.88	5900.49
579.04	5764.74
579.21	5746.02
579.37	5818.57
579.53	5748.36
579.69	5795.17
579.85	5813.89
580.01	5715.59
580.17	5827.93
580.33	5816.23
580.49	5760.06
580.65	5769.42
580.82	5811.55
580.98	5809.21
581.14	5731.97
581.30	5720.27
581.46	5694.52
581.62	5975.39
581.78	5951.98
581.94	5937.94
582.10	5930.92
582.26	5994.11
582.42	5792.83
582.58	5844.32
582.74	6090.07
582.90	5994.11
583.06	5921.56
583.22	5891.13
583.38	5748.36
583.54	5781.12
583.70	5790.49
583.86	5968.37
584.02	5881.77
584.18	5907.51
584.34	5816.23
584.50	5813.89
584.66	5788.14
584.82	5767.08
584.98	5645.37
585.14	5755.38
585.30	5558.77
585.46	5561.11
585.62	5483.88
585.78	5589.20
585.94	5472.17
586.10	5481.53
586.26	5451.11
586.42	5760.06
586.58	5710.91
586.74	5628.99
586.90	5535.37
587.06	5593.88
587.22	5551.75
587.38	5488.56
587.54	5526.00
587.70	5296.63
587.86	5078.96
588.02	4793.42
588.18	4926.83
588.34	4627.24
588.49	4339.35
588.65	4173.18
588.81	4072.53
588.97	3878.27
589.13	4053.81
589.29	4016.36
589.45	4060.83
589.61	4147.43
589.77	4362.76
589.93	4418.93
590.08	4617.88
590.24	4812.14
590.40	4587.45
590.56	4889.38
590.72	4685.75
590.88	4667.03
591.04	4624.90
591.20	4561.70
591.35	4542.98
591.51	4559.36
591.67	4512.55
591.83	4566.39
591.99	4468.08
592.15	4585.11
592.31	4702.14
592.46	4957.25
592.62	4971.30
592.78	5055.56
592.94	4980.66
593.10	4924.49
593.26	5046.20
593.41	5060.24
593.57	4830.87
593.73	4854.27
593.89	4493.83
594.05	4454.04
594.20	4287.86
594.36	4231.69
594.52	4126.36
594.68	4189.56
594.84	4449.36
594.99	4800.44
595.15	4620.22
595.31	4685.75
595.47	4795.76
595.62	4683.41
595.78	4924.49
595.94	4891.72
596.10	4940.87
596.25	4889.38
596.41	4585.11
596.57	4472.76
596.73	4880.02
596.88	4737.24
597.04	4868.31
597.20	4814.48
597.36	4674.05
597.51	4575.75
597.67	4812.14
