SpectraSuite Data File
++++++++++++++++++++++++++++++++++++
Date: Fri Oct 04 11:44:13 GMT-05:00 2013
User: price-jones
Dark Spectrum Present: No
Reference Spectrum Present: No
Number of Sampled Component Spectra: 1
Spectrometers: USB2+H05261
Integration Time (usec): 100000 (USB2+H05261)
Spectra Averaged: 1 (USB2+H05261)
Boxcar Smoothing: 0 (USB2+H05261)
Correct for Electrical Dark: No (USB2+H05261)
Strobe/Lamp Enabled: No (USB2+H05261)
Correct for Detector Non-linearity: No (USB2+H05261)
Correct for Stray Light: No (USB2+H05261)
Number of Pixels in Processed Spectrum: 2048
>>>>>Begin Processed Spectral Data<<<<<
365.73	49.15
365.92	49.15
366.12	49.15
366.32	0.00
366.52	0.00
366.72	0.00
366.91	0.00
367.11	0.00
367.31	0.00
367.51	0.00
367.70	0.00
367.90	0.00
368.10	0.00
368.30	0.00
368.49	0.00
368.69	0.00
368.89	0.00
369.09	0.00
369.28	0.00
369.48	0.00
369.68	0.00
369.87	56.17
370.07	32.77
370.27	30.43
370.47	138.09
370.66	514.92
370.86	779.40
371.06	713.86
371.25	844.93
371.45	716.20
371.65	741.95
371.84	650.67
372.04	648.33
372.24	727.91
372.44	746.63
372.63	767.70
372.83	713.86
373.03	671.73
373.22	557.05
373.42	648.33
373.62	716.20
373.81	650.67
374.01	725.57
374.21	734.93
374.40	718.54
374.60	695.14
374.79	779.40
374.99	828.55
375.19	896.43
375.38	873.02
375.58	823.87
375.78	819.19
375.97	856.64
376.17	870.68
376.37	915.15
376.56	891.74
376.76	961.96
376.95	1022.81
377.15	973.66
377.35	1008.77
377.54	1252.19
377.74	1132.82
377.93	1055.58
378.13	1071.97
378.33	1050.90
378.52	954.94
378.72	954.94
378.91	964.30
379.11	891.74
379.31	917.49
379.50	903.45
379.70	997.07
379.89	1036.86
380.09	1020.47
380.28	1027.50
380.48	1027.50
380.68	1142.18
380.87	971.32
381.07	964.30
381.26	940.90
381.46	926.85
381.65	816.85
381.85	819.19
382.04	828.55
382.24	744.29
382.43	772.38
382.63	725.57
382.83	805.14
383.02	713.86
383.22	727.91
383.41	685.78
383.61	816.85
383.80	912.81
384.00	877.70
384.19	985.37
384.39	1041.54
384.58	1043.88
384.78	1008.77
384.97	1034.52
385.17	990.05
385.36	891.74
385.56	992.39
385.75	994.73
385.95	990.05
386.14	1149.20
386.34	1102.39
386.53	1013.45
386.72	1032.18
386.92	1142.18
387.11	1102.39
387.31	1060.26
387.50	1062.60
387.70	1111.75
387.89	952.60
388.09	1055.58
388.28	1097.71
388.48	1090.69
388.67	1125.80
388.86	1256.87
389.06	1427.73
389.25	1465.18
389.45	1331.76
389.64	1310.70
389.84	1322.40
390.03	1364.53
390.22	1392.62
390.42	1369.21
390.61	1359.85
390.81	1519.01
391.00	1563.48
391.19	1582.20
391.39	1528.37
391.58	1453.47
391.78	1308.36
391.97	1256.87
392.16	1163.25
392.36	1076.65
392.55	964.30
392.75	758.33
392.94	676.41
393.13	662.37
393.33	718.54
393.52	849.61
393.71	1111.75
393.91	1261.55
394.10	1306.02
394.29	1404.32
394.49	1486.24
394.68	1565.82
394.88	1629.01
395.07	1818.60
395.26	1668.80
395.46	1565.82
395.65	1528.37
395.84	1350.49
396.04	1212.40
396.23	950.26
396.42	882.38
396.62	952.60
396.81	917.49
397.00	1123.46
397.19	1352.83
397.39	1650.08
397.58	1846.68
397.77	1888.81
397.97	2012.86
398.16	1923.92
398.35	2045.63
398.55	2045.63
398.74	2136.91
398.93	2160.31
399.12	2162.66
399.32	2160.31
399.51	2108.82
399.70	2174.36
399.90	2129.89
400.09	2256.28
400.28	2204.78
400.47	2258.62
400.67	2504.37
400.86	2427.14
401.05	2452.88
401.24	2326.49
401.44	2483.31
401.63	2427.14
401.82	2438.84
402.01	2335.85
402.21	2471.61
402.40	2464.58
402.59	2441.18
402.78	2380.32
402.97	2363.94
403.17	2415.43
403.36	2469.27
403.55	2623.74
403.74	2593.31
403.93	2581.61
404.13	2511.39
404.32	2462.24
404.51	2619.06
404.70	2626.08
404.89	2523.10
405.09	2523.10
405.28	2399.05
405.47	2427.14
405.66	2352.24
405.85	2209.47
406.05	2267.98
406.24	2370.96
406.43	2385.01
406.62	2537.14
406.81	2462.24
407.00	2361.60
407.20	2406.07
407.39	2377.98
407.58	2434.16
407.77	2520.76
407.96	2605.02
408.15	2616.72
408.34	2691.62
408.54	2733.75
408.73	2752.47
408.92	2759.49
409.11	2843.75
409.30	2448.20
409.49	2338.20
409.68	2235.21
409.87	2293.72
410.07	2246.91
410.26	2450.54
410.45	2635.44
410.64	2710.34
410.83	2665.87
411.02	2862.48
411.21	2956.10
411.40	2848.43
411.59	2923.33
411.78	2923.33
411.98	2892.90
412.17	2881.20
412.36	2869.50
412.55	2843.75
412.74	2787.58
412.93	2747.79
413.12	2815.66
413.31	3122.27
413.50	3066.10
413.69	2972.48
413.88	2909.29
414.07	2911.63
414.26	2864.82
414.45	2995.89
414.64	3054.40
414.83	3042.70
415.02	2909.29
415.22	2998.23
415.41	3101.21
415.60	3176.11
415.79	3197.17
415.98	3309.52
416.17	3297.81
416.36	3239.30
416.55	3159.72
416.74	3131.64
416.93	2953.76
417.12	3000.57
417.31	3119.93
417.50	3155.04
417.69	3232.28
417.88	3190.15
418.07	3194.83
418.26	3162.06
418.45	3176.11
418.64	3318.88
418.83	3335.26
419.02	3258.03
419.21	3241.64
419.39	3080.14
419.58	2946.73
419.77	3012.27
419.96	3054.40
420.15	3248.66
420.34	3368.03
420.53	3368.03
420.72	3510.80
420.91	3513.14
421.10	3459.31
421.29	3421.86
421.48	3332.92
421.67	3517.83
421.86	3286.11
422.05	3148.02
422.24	2862.48
422.43	2935.03
422.61	3110.57
422.80	3117.59
422.99	3316.54
423.18	3218.24
423.37	3150.36
423.56	3171.43
423.75	3272.07
423.94	3166.74
424.13	3201.85
424.32	3047.38
424.50	3236.96
424.69	3190.15
424.88	3290.79
425.07	3030.99
425.26	3112.91
425.45	3087.17
425.64	2993.55
425.83	2979.50
426.01	3187.81
426.20	3281.43
426.39	3234.62
426.58	3063.76
426.77	2822.69
426.96	2932.69
427.15	2839.07
427.33	3030.99
427.52	3059.08
427.71	3049.72
427.90	3126.96
428.09	3131.64
428.28	3049.72
428.46	3009.93
428.65	2967.80
428.84	3082.49
429.03	3131.64
429.22	2810.98
429.40	2832.05
429.59	2574.59
429.78	2363.94
429.97	2249.25
430.16	2298.41
430.34	2289.04
430.53	2354.58
430.72	2296.07
430.91	2534.80
431.10	2970.14
431.28	3515.48
431.47	3569.32
431.66	3538.89
431.85	3449.95
432.03	3136.32
432.22	3145.68
432.41	3243.98
432.60	3325.90
432.79	3641.87
432.97	3541.23
433.16	3569.32
433.35	3307.18
433.54	3068.44
433.72	2874.18
433.91	2836.73
434.10	3218.24
434.28	3508.46
434.47	3522.51
434.66	3531.87
434.85	3531.87
435.03	3564.64
435.22	4060.83
435.41	4840.23
435.59	5177.26
435.78	4809.80
435.97	4437.66
436.16	3964.87
436.34	3794.01
436.53	3728.47
436.72	3758.90
436.90	3520.17
437.09	3513.14
437.28	3541.23
437.46	3569.32
437.65	3548.25
437.84	3428.88
438.02	3267.39
438.21	3143.34
438.40	3269.73
438.58	3534.21
438.77	3620.81
438.96	3693.37
439.14	3803.37
439.33	3833.80
439.52	3730.81
439.70	3808.05
439.89	3786.99
440.08	3770.60
440.26	3632.51
440.45	3705.07
440.63	3960.19
440.82	4117.00
441.01	4037.42
441.19	4042.11
441.38	4088.92
441.57	4374.46
441.75	4219.99
441.94	4306.59
442.12	4238.71
442.31	4416.59
442.50	4344.03
442.68	4238.71
442.87	4332.33
443.05	4121.68
443.24	4329.99
443.43	4374.46
443.61	4451.70
443.80	4440.00
443.98	4245.73
444.17	4227.01
444.35	4493.83
444.54	4519.57
444.73	4578.09
444.91	4299.56
445.10	4152.11
445.28	4065.51
445.47	3810.39
445.65	3953.16
445.84	4058.49
446.02	4301.90
446.21	4269.14
446.39	4327.65
446.58	4329.99
446.77	4304.25
446.95	4475.10
447.14	4554.68
447.32	4491.49
447.51	4447.02
447.69	4369.78
447.88	4311.27
448.06	4306.59
448.25	4402.55
448.43	4409.57
448.62	4337.01
448.80	4437.66
448.99	4243.39
449.17	4425.95
449.36	4461.06
449.54	4615.54
449.73	4697.46
449.91	4697.46
450.10	4706.82
450.28	4964.28
450.46	4952.57
450.65	4880.02
450.83	4854.27
451.02	4709.16
451.20	4702.14
451.39	4753.63
451.57	4606.17
451.76	4648.30
451.94	4648.30
452.13	4571.07
452.31	4416.59
452.49	4152.11
452.68	4166.15
452.86	4205.94
453.05	4491.49
453.23	4442.34
453.42	4526.60
453.60	4540.64
453.78	4624.90
453.97	4458.72
454.15	4587.45
454.34	4395.53
454.52	4484.47
454.70	4285.52
454.89	4432.97
455.07	4400.21
455.26	4620.22
455.44	4620.22
455.62	4908.10
455.81	4870.65
455.99	4709.16
456.17	4777.03
456.36	4741.93
456.54	4999.38
456.73	4718.52
456.91	4929.17
457.09	4847.25
457.28	5018.11
457.46	4767.67
457.64	4788.74
457.83	4716.18
458.01	4510.21
458.19	4732.56
458.38	4816.82
458.56	4919.81
458.74	4870.65
458.93	4774.69
459.11	4821.50
459.29	4648.30
459.48	4634.26
459.66	4690.43
459.84	4842.57
460.03	4830.87
460.21	4826.18
460.39	5064.92
460.57	5022.79
460.76	4894.06
460.94	4964.28
461.12	4908.10
461.31	4990.02
461.49	4929.17
461.67	4943.21
461.85	4999.38
462.04	5046.20
462.22	5537.71
462.40	5013.43
462.59	4997.04
462.77	4926.83
462.95	5001.72
463.13	5046.20
463.32	4971.30
463.50	4880.02
463.68	4940.87
463.86	4894.06
464.05	4868.31
464.23	4779.37
464.41	4868.31
464.59	4828.53
464.78	4854.27
464.96	4837.89
465.14	4837.89
465.32	5074.28
465.50	4858.95
465.69	5043.85
465.87	4933.85
466.05	4830.87
466.23	4589.79
466.41	4449.36
466.60	4767.67
466.78	4662.35
466.96	4779.37
467.14	4781.71
467.32	4753.63
467.51	4830.87
467.69	4669.37
467.87	4809.80
468.05	4868.31
468.23	4905.76
468.41	4823.84
468.60	4842.57
468.78	4833.21
468.96	4961.94
469.14	4903.42
469.32	4971.30
469.50	4835.55
469.69	4720.86
469.87	4774.69
470.05	4723.20
470.23	4683.41
470.41	4496.17
470.59	4856.61
470.77	4730.22
470.95	4828.53
471.14	5004.07
471.32	4926.83
471.50	5247.48
471.68	5238.12
471.86	5219.39
472.04	5284.93
472.22	5369.19
472.40	5102.37
472.58	4926.83
472.77	4964.28
472.95	4997.04
473.13	5252.16
473.31	5046.20
473.49	4947.89
473.67	5235.78
473.85	5179.61
474.03	5177.26
474.21	5305.99
474.39	5561.11
474.57	5425.36
474.75	5355.15
474.93	5308.34
475.12	5378.55
475.30	5331.74
475.48	5118.75
475.66	5193.65
475.84	5083.64
476.02	5364.51
476.20	5090.67
476.38	5226.42
476.56	5404.30
476.74	5404.30
476.92	5261.52
477.10	5682.82
477.28	5689.84
477.46	5626.65
477.64	5923.90
477.82	5746.02
478.00	5746.02
478.18	5652.39
478.36	5661.76
478.54	5640.69
478.72	5809.21
478.90	6001.13
479.08	6038.58
479.26	6181.35
479.44	6141.57
479.62	6167.31
479.80	6087.73
479.98	6132.20
480.16	6373.28
480.34	6155.61
480.52	6118.16
480.70	6272.64
480.88	6221.14
481.06	6190.72
481.24	6342.85
481.41	6621.38
481.59	6579.25
481.77	6504.35
481.95	6469.24
482.13	6415.41
482.31	6609.67
482.49	6609.67
482.67	6588.61
482.85	6768.83
483.03	6839.05
483.21	6644.78
483.39	6637.76
483.57	6731.38
483.74	6672.87
483.92	6754.79
484.10	6663.51
484.28	6967.77
484.46	7000.54
484.64	6888.20
484.82	6707.98
485.00	6626.06
485.18	6607.33
485.35	6583.93
485.53	6106.46
485.71	5582.18
485.89	5467.49
486.07	5769.42
486.25	6143.91
486.43	6604.99
486.61	6745.42
486.78	6637.76
486.96	6555.84
487.14	6902.24
487.32	7045.01
487.50	7155.02
487.68	7332.90
487.85	7538.87
488.03	7728.45
488.21	7527.16
488.39	7332.90
488.57	7155.02
488.75	7070.76
488.92	7597.38
489.10	7686.32
489.28	8161.45
489.46	8175.49
489.64	8231.66
489.81	8257.41
489.99	8046.76
490.17	8219.96
490.35	8311.24
490.53	8028.04
490.70	8030.38
490.88	7997.61
491.06	8287.84
491.24	8280.82
491.41	8077.19
491.59	7550.57
491.77	7403.11
491.95	7733.13
492.13	7880.58
492.30	8269.11
492.48	8512.53
492.66	8568.70
492.84	8449.33
493.01	8589.77
493.19	8393.16
493.37	8322.94
493.54	8332.31
493.72	8442.31
493.90	8819.14
494.08	8933.82
494.25	9092.98
494.43	8938.51
494.61	9071.92
494.79	9015.74
494.96	9275.54
495.14	8964.25
495.32	8648.28
495.49	8662.32
495.67	8657.64
495.85	9132.77
496.02	9123.41
496.20	9317.67
496.38	9160.86
496.55	9039.15
496.73	9401.93
496.91	9205.33
497.09	9479.17
497.26	9493.21
497.44	9291.93
497.62	9352.78
497.79	8947.87
497.97	8744.24
498.14	8706.79
498.32	9107.02
498.50	9200.65
498.67	9444.06
498.85	9441.72
499.03	9444.06
499.20	9458.10
499.38	9238.09
499.56	9341.08
499.73	9228.73
499.91	9268.52
500.08	9043.83
500.26	8744.24
500.44	8912.76
500.61	9097.66
500.79	9165.54
500.97	8865.95
501.14	8917.44
501.32	8835.52
501.49	8870.63
501.67	8723.18
501.84	8879.99
502.02	9053.19
502.20	9128.09
502.37	9231.07
502.55	9158.52
502.72	9221.71
502.90	9259.16
503.07	9191.28
503.25	8910.42
503.43	8709.13
503.60	8524.23
503.78	8442.31
503.95	8332.31
504.13	8858.93
504.30	9289.59
504.48	9247.46
504.65	9357.46
504.83	9317.67
505.01	9600.88
505.18	9474.49
505.36	9612.58
505.53	9404.27
505.71	9781.10
505.88	9853.66
506.06	9781.10
506.23	9521.30
506.41	9256.82
506.58	9350.44
506.76	9327.03
506.93	9371.50
507.11	9455.76
507.28	9371.50
507.46	9064.89
507.63	9102.34
507.81	8994.68
507.98	9130.43
508.16	9397.25
508.33	9387.89
508.50	9497.89
508.68	9895.78
508.85	9935.57
509.03	10024.51
509.20	10054.94
509.38	9460.45
509.55	9500.23
509.73	9401.93
509.90	9392.57
510.08	9738.97
510.25	9788.12
510.42	9710.88
510.60	9460.45
510.77	9717.90
510.95	9923.87
511.12	9879.40
511.30	10090.05
511.47	10270.27
511.64	10263.25
511.82	10066.64
511.99	9753.01
512.17	9738.97
512.34	9488.53
512.51	9514.28
512.69	9631.30
512.86	9713.22
513.04	9668.75
513.21	9902.81
513.38	9734.29
513.56	9598.54
513.73	9343.42
513.90	9348.10
514.08	9474.49
514.25	9579.81
514.43	9556.41
514.60	9556.41
514.77	9490.87
514.95	9748.33
515.12	9678.12
515.29	9605.56
515.47	9893.44
515.64	10141.54
515.81	9788.12
515.99	9834.93
516.16	9303.63
516.33	8446.99
516.51	8142.72
516.68	7852.50
516.85	7789.30
517.03	7691.00
517.20	8535.93
517.37	9324.69
517.54	9570.45
517.72	9476.83
517.89	8891.70
518.06	8238.69
518.24	8231.66
518.41	8833.18
518.58	9121.07
518.75	9266.18
518.93	9296.61
519.10	9336.40
519.27	9533.00
519.45	9465.13
519.62	9898.13
519.79	10005.79
519.96	9930.89
520.14	9687.48
520.31	9671.09
520.48	9488.53
520.65	9788.12
520.83	9891.10
521.00	9947.28
521.17	9853.66
521.34	9755.35
521.52	9781.10
521.69	10061.96
521.86	10139.20
522.03	10043.24
522.20	9853.66
522.38	9542.36
522.55	9504.92
522.72	9488.53
522.89	9659.39
523.07	9734.29
523.24	9631.30
523.41	10057.28
523.58	10104.09
523.75	10125.16
523.92	10216.44
524.10	10321.76
524.27	10314.74
524.44	10249.21
524.61	10200.05
524.78	10090.05
524.96	10125.16
525.13	9975.36
525.30	10162.61
525.47	10256.23
525.64	10375.59
525.81	10073.67
525.98	9430.02
526.16	8910.42
526.33	8844.88
526.50	8622.53
526.67	8519.55
526.84	8755.94
527.01	9137.45
527.18	9277.88
527.36	9596.20
527.53	9715.56
527.70	10033.88
527.87	9923.87
528.04	9582.15
528.21	9724.93
528.38	10391.98
528.55	10258.57
528.72	10438.79
528.89	10569.86
529.07	10363.89
529.24	10010.47
529.41	9841.95
529.58	9617.26
529.75	9699.18
529.92	9933.23
530.09	10047.92
530.26	10260.91
530.43	10417.72
530.60	10520.71
530.77	10380.28
530.94	10597.95
531.11	10307.72
531.28	10387.30
531.46	10251.55
531.63	10092.39
531.80	10272.61
531.97	9996.43
532.14	9982.38
532.31	9439.38
532.48	9109.36
532.65	9193.62
532.82	9441.72
532.99	9619.60
533.16	10134.52
533.33	10195.37
533.50	10108.77
533.67	9762.37
533.84	9748.33
534.01	9703.86
534.18	10024.51
534.35	10026.86
534.52	9987.07
534.69	10015.15
534.86	10036.22
535.03	10303.04
535.20	10136.86
535.37	10590.92
535.54	10434.11
535.71	10347.51
535.88	10506.66
536.05	10050.26
536.22	9853.66
536.38	9799.82
536.55	9664.07
536.72	9415.98
536.89	9383.21
537.06	9827.91
537.23	9942.60
537.40	10218.78
537.57	10108.77
537.74	10218.78
537.91	10214.10
538.08	10101.75
538.25	10272.61
538.42	10181.33
538.59	10286.65
538.75	9657.05
538.92	10106.43
539.09	10029.20
539.26	9535.34
539.43	9647.69
539.60	9874.72
539.77	9860.68
539.94	10171.97
540.11	9767.06
540.28	9619.60
540.44	9593.86
540.61	9886.42
540.78	9998.77
540.95	10150.90
541.12	10483.26
541.29	10583.90
541.46	11225.21
541.62	10789.87
541.79	10810.93
541.96	10628.37
542.13	10492.62
542.30	10406.02
542.47	10747.74
542.63	10331.12
542.80	10445.81
542.97	10307.72
543.14	10200.05
543.31	10427.09
543.48	10480.92
543.64	10848.38
543.81	11005.20
543.98	10799.23
544.15	10644.76
544.32	10450.49
544.48	10544.11
544.65	10370.91
544.82	10558.16
544.99	10677.52
545.16	10520.71
545.32	10347.51
545.49	11372.66
545.66	12561.66
545.83	13502.55
546.00	12931.46
546.16	11548.20
546.33	10747.74
546.50	10604.97
546.67	10719.65
546.83	10541.77
547.00	10228.14
547.17	10162.61
547.34	9804.50
547.50	9867.70
547.67	10038.56
547.84	9937.91
548.00	10085.37
548.17	10050.26
548.34	9923.87
548.51	10146.22
548.67	10176.65
548.84	10106.43
549.01	10139.20
549.18	9907.49
549.34	10012.81
549.51	9795.14
549.68	9949.62
549.84	9902.81
550.01	9668.75
550.18	9783.44
550.34	9832.59
550.51	9727.27
550.68	9928.55
550.84	9659.39
551.01	9626.62
551.18	9554.07
551.34	9525.98
551.51	9675.77
551.68	9792.80
551.84	9874.72
552.01	9902.81
552.18	9984.73
552.34	9465.13
552.51	9600.88
552.68	9245.12
552.84	9511.94
553.01	9600.88
553.18	9448.74
553.34	9497.89
553.51	9659.39
553.67	9584.49
553.84	9572.79
554.01	9413.63
554.17	9767.06
554.34	9488.53
554.51	9507.26
554.67	9558.75
554.84	9692.16
555.00	9561.09
555.17	9699.18
555.33	9441.72
555.50	9401.93
555.67	9259.16
555.83	9221.71
556.00	9277.88
556.16	9336.40
556.33	9062.55
556.50	8964.25
556.66	9156.18
556.83	8982.98
556.99	8959.57
557.16	9062.55
557.32	9130.43
557.49	9282.56
557.65	9102.34
557.82	8980.64
557.98	9177.24
558.15	9050.85
558.32	8929.14
558.48	8643.60
558.65	8578.06
558.81	8549.98
558.98	8716.16
559.14	8800.41
559.31	8877.65
559.47	8889.35
559.64	8755.94
559.80	8603.81
559.97	8606.15
560.13	8751.26
560.30	8681.05
560.46	9081.28
560.63	9331.72
560.79	9308.31
560.96	9158.52
561.12	8922.12
561.29	8519.55
561.45	8739.56
561.61	8889.35
561.78	8709.13
561.94	8887.01
562.11	8849.57
562.27	8718.50
562.44	8659.98
562.60	8950.21
562.77	8999.36
562.93	8861.27
563.10	8945.53
563.26	8872.97
563.42	8812.12
563.59	8636.58
563.75	8643.60
563.92	8664.66
564.08	8648.28
564.24	8837.86
564.41	8769.99
564.57	8662.32
564.74	8727.86
564.90	8922.12
565.07	8746.58
565.23	8571.04
565.39	8411.89
565.56	8271.45
565.72	8226.98
565.88	8442.31
566.05	8388.48
566.21	8367.42
566.38	8580.40
566.54	8372.10
566.70	8390.82
566.87	8395.50
567.03	8706.79
567.19	8706.79
567.36	8479.76
567.52	8407.20
567.68	8439.97
567.85	8149.75
568.01	8004.63
568.17	8159.11
568.34	7784.62
568.50	7836.11
568.66	7824.41
568.83	8074.85
568.99	8067.83
569.15	8046.76
569.32	8116.98
569.48	7875.90
569.64	7854.84
569.81	8086.55
569.97	7953.14
570.13	8035.06
570.30	7955.48
570.46	7831.43
570.62	7709.72
570.78	7616.10
570.95	7653.55
571.11	7911.01
571.27	7756.54
571.43	7749.51
571.60	8016.33
571.76	8053.78
571.92	7915.69
572.09	8006.97
572.25	7826.75
572.41	7955.48
572.57	7653.55
572.74	7918.03
572.90	7992.93
573.06	7943.78
573.22	7782.28
573.38	7950.80
573.55	7859.52
573.71	8077.19
573.87	7892.29
574.03	7719.09
574.20	7672.28
574.36	7695.68
574.52	7728.45
574.68	7683.98
574.84	7726.11
575.01	7665.25
575.17	7555.25
575.33	7536.52
575.49	7618.44
575.65	7819.73
575.82	7517.80
575.98	7662.91
576.14	7665.25
576.30	7730.79
576.46	8119.32
576.62	8528.91
576.79	8533.59
576.95	8219.96
577.11	8121.66
577.27	7918.03
577.43	7815.05
577.59	7653.55
577.75	7445.24
577.92	7428.86
578.08	7288.43
578.24	7496.74
578.40	7463.97
578.56	7742.49
578.72	8070.17
578.88	8287.84
579.04	8159.11
579.21	7719.09
579.37	7833.77
579.53	7967.18
579.69	7695.68
579.85	7847.82
580.01	8018.68
580.17	7859.52
580.33	7829.09
580.49	7719.09
580.65	7786.96
580.82	7779.94
580.98	7822.07
581.14	7955.48
581.30	7843.14
581.46	7777.60
581.62	7922.71
581.78	7812.71
581.94	8079.53
582.10	7925.05
582.26	8006.97
582.42	7889.95
582.58	7969.52
582.74	7831.43
582.90	7903.99
583.06	7964.84
583.22	7850.16
583.38	7960.16
583.54	8077.19
583.70	7847.82
583.86	7953.14
584.02	7822.07
584.18	7920.37
584.34	7770.58
584.50	8002.29
584.66	7885.26
584.82	7669.94
584.98	7723.77
585.14	7583.34
585.30	7611.42
585.46	7370.35
585.62	7356.30
585.78	7454.61
585.94	7426.52
586.10	7527.16
586.26	7557.59
586.42	7604.40
586.58	7538.87
586.74	7611.42
586.90	7702.70
587.06	7489.71
587.22	7555.25
587.38	7400.77
587.54	7087.14
587.70	7208.85
587.86	6867.13
588.02	6691.59
588.18	6314.77
588.34	6274.98
588.49	5731.97
588.65	5523.66
588.81	5207.69
588.97	5392.59
589.13	5446.43
589.29	5376.21
589.45	5439.40
589.61	5444.09
589.77	5652.39
589.93	5956.66
590.08	6164.97
590.24	6207.10
590.40	6427.11
590.56	6366.26
590.72	6377.96
590.88	6256.25
591.04	6356.90
591.20	6200.08
591.35	6204.76
591.51	6274.98
591.67	6125.18
591.83	5975.39
591.99	6141.57
592.15	6101.78
592.31	6282.00
592.46	6551.16
592.62	6579.25
592.78	6581.59
592.94	6487.96
593.10	6574.56
593.26	6733.72
593.41	6637.76
593.57	6623.72
593.73	6324.13
593.89	6132.20
594.05	5907.51
594.20	5767.08
594.36	5680.48
594.52	5612.60
594.68	5724.95
594.84	5863.04
594.99	6314.77
595.15	6464.56
595.31	6345.19
595.47	6335.83
595.62	6244.55
595.78	6415.41
595.94	6516.05
