SpectraSuite Data File
++++++++++++++++++++++++++++++++++++
Date: Fri Oct 04 11:44:22 GMT-05:00 2013
User: price-jones
Dark Spectrum Present: No
Reference Spectrum Present: No
Number of Sampled Component Spectra: 1
Spectrometers: USB2+H05261
Integration Time (usec): 100000 (USB2+H05261)
Spectra Averaged: 1 (USB2+H05261)
Boxcar Smoothing: 0 (USB2+H05261)
Correct for Electrical Dark: No (USB2+H05261)
Strobe/Lamp Enabled: No (USB2+H05261)
Correct for Detector Non-linearity: No (USB2+H05261)
Correct for Stray Light: No (USB2+H05261)
Number of Pixels in Processed Spectrum: 2048
>>>>>Begin Processed Spectral Data<<<<<
365.73	16.38
365.92	16.38
366.12	16.38
366.32	0.00
366.52	0.00
366.72	0.00
366.91	0.00
367.11	0.00
367.31	0.00
367.51	0.00
367.70	0.00
367.90	0.00
368.10	0.00
368.30	0.00
368.49	0.00
368.69	0.00
368.89	0.00
369.09	0.00
369.28	0.00
369.48	0.00
369.68	0.00
369.87	0.00
370.07	0.00
370.27	9.36
370.47	182.56
370.66	311.29
370.86	388.53
371.06	379.17
371.25	393.21
371.45	374.49
371.65	379.17
371.84	248.10
372.04	308.95
372.24	421.30
372.44	418.96
372.63	404.91
372.83	472.79
373.03	362.78
373.22	304.27
373.42	409.59
373.62	428.32
373.81	379.17
374.01	505.56
374.21	440.02
374.40	484.49
374.60	372.15
374.79	461.09
374.99	505.56
375.19	580.45
375.38	503.22
375.58	500.87
375.78	507.90
375.97	414.27
376.17	575.77
376.37	472.79
376.56	496.19
376.76	566.41
376.95	601.52
377.15	660.03
377.35	627.26
377.54	610.88
377.74	674.07
377.93	627.26
378.13	674.07
378.33	662.37
378.52	561.73
378.72	608.54
378.91	566.41
379.11	585.13
379.31	468.11
379.50	421.30
379.70	587.47
379.89	589.82
380.09	585.13
380.28	634.29
380.48	580.45
380.68	585.13
380.87	510.24
381.07	547.69
381.26	627.26
381.46	505.56
381.65	503.22
381.85	507.90
382.04	395.55
382.24	500.87
382.43	428.32
382.63	407.25
382.83	444.70
383.02	407.25
383.22	440.02
383.41	414.27
383.61	442.36
383.80	559.39
384.00	580.45
384.19	566.41
384.39	580.45
384.58	564.07
384.78	622.58
384.97	573.43
385.17	554.71
385.36	521.94
385.56	615.56
385.75	575.77
385.95	631.94
386.14	580.45
386.34	545.34
386.53	629.60
386.72	545.34
386.92	552.37
387.11	622.58
387.31	653.01
387.50	603.86
387.70	610.88
387.89	573.43
388.09	620.24
388.28	641.31
388.48	566.41
388.67	690.46
388.86	657.69
389.06	688.12
389.25	683.44
389.45	758.33
389.64	763.01
389.84	833.23
390.03	765.36
390.22	727.91
390.42	821.53
390.61	753.65
390.81	800.46
391.00	807.48
391.19	868.34
391.39	807.48
391.58	781.74
391.78	777.06
391.97	758.33
392.16	678.76
392.36	641.31
392.55	465.77
392.75	425.98
392.94	407.25
393.13	381.51
393.33	337.04
393.52	535.98
393.71	636.63
393.91	697.48
394.10	730.25
394.29	751.31
394.49	727.91
394.68	842.59
394.88	917.49
395.07	971.32
395.26	835.57
395.46	880.04
395.65	875.36
395.84	702.16
396.04	727.91
396.23	578.11
396.42	528.96
396.62	491.51
396.81	566.41
397.00	692.80
397.19	802.80
397.39	884.72
397.58	1018.13
397.77	1011.11
397.97	1027.50
398.16	1083.67
398.35	1116.44
398.55	1041.54
398.74	1125.80
398.93	1205.38
399.12	1116.44
399.32	1093.03
399.51	1109.41
399.70	1231.12
399.90	1188.99
400.09	1268.57
400.28	1203.04
400.47	1224.10
400.67	1350.49
400.86	1266.23
401.05	1287.29
401.24	1282.61
401.44	1282.61
401.63	1320.06
401.82	1341.13
402.01	1219.42
402.21	1411.34
402.40	1240.48
402.59	1324.74
402.78	1273.25
402.97	1125.80
403.17	1341.13
403.36	1345.81
403.55	1317.72
403.74	1371.55
403.93	1488.58
404.13	1383.26
404.32	1486.24
404.51	1425.39
404.70	1313.04
404.89	1441.77
405.09	1341.13
405.28	1289.64
405.47	1341.13
405.66	1200.69
405.85	1188.99
406.05	1219.42
406.24	1280.27
406.43	1315.38
406.62	1329.42
406.81	1350.49
407.00	1282.61
407.20	1231.12
407.39	1273.25
407.58	1334.11
407.77	1324.74
407.96	1334.11
408.15	1481.56
408.34	1406.66
408.54	1523.69
408.73	1397.30
408.92	1502.62
409.11	1444.11
409.30	1348.15
409.49	1240.48
409.68	1224.10
409.87	1167.93
410.07	1198.35
410.26	1418.36
410.45	1514.33
410.64	1338.79
410.83	1458.15
411.02	1556.46
411.21	1582.20
411.40	1441.77
411.59	1652.42
411.78	1497.94
411.98	1497.94
412.17	1528.37
412.36	1617.31
412.55	1561.14
412.74	1481.56
412.93	1448.79
413.12	1427.73
413.31	1572.84
413.50	1666.46
413.69	1652.42
413.88	1636.03
414.07	1521.35
414.26	1554.12
414.45	1687.53
414.64	1603.27
414.83	1624.33
415.02	1551.78
415.22	1533.05
415.41	1577.52
415.60	1572.84
415.79	1629.01
415.98	1769.44
416.17	1724.97
416.36	1799.87
416.55	1598.59
416.74	1633.69
416.93	1549.43
417.12	1547.09
417.31	1699.23
417.50	1603.27
417.69	1631.35
417.88	1706.25
418.07	1717.95
418.26	1673.48
418.45	1778.81
418.64	1778.81
418.83	1755.40
419.02	1732.00
419.21	1720.29
419.39	1729.66
419.58	1572.84
419.77	1579.86
419.96	1680.50
420.15	1694.55
420.34	1732.00
420.53	1809.23
420.72	1769.44
420.91	1795.19
421.10	1797.53
421.29	1898.17
421.48	1687.53
421.67	1781.15
421.86	1795.19
422.05	1636.03
422.24	1523.69
422.43	1472.20
422.61	1771.79
422.80	1785.83
422.99	1715.61
423.18	1638.38
423.37	1771.79
423.56	1755.40
423.75	1804.55
423.94	1774.13
424.13	1757.74
424.32	1682.85
424.50	1657.10
424.69	1673.48
424.88	1668.80
425.07	1596.25
425.26	1668.80
425.45	1575.18
425.64	1570.50
425.83	1671.14
426.01	1720.29
426.20	1729.66
426.39	1654.76
426.58	1617.31
426.77	1362.19
426.96	1577.52
427.15	1568.16
427.33	1600.93
427.52	1671.14
427.71	1678.16
427.90	1671.14
428.09	1591.56
428.28	1645.40
428.46	1607.95
428.65	1516.67
428.84	1528.37
429.03	1551.78
429.22	1540.07
429.40	1420.71
429.59	1336.45
429.78	1247.51
429.97	1172.61
430.16	1240.48
430.34	1240.48
430.53	1273.25
430.72	1158.57
430.91	1343.47
431.10	1600.93
431.28	1806.89
431.47	1921.58
431.66	1895.83
431.85	1743.70
432.03	1612.63
432.22	1692.21
432.41	1696.89
432.60	1865.41
432.79	1930.94
432.97	1914.56
433.16	1804.55
433.35	1701.57
433.54	1586.88
433.72	1619.65
433.91	1519.01
434.10	1699.23
434.28	1856.04
434.47	1893.49
434.66	1994.14
434.85	1661.78
435.03	1940.30
435.22	2293.72
435.41	2960.78
435.59	3091.85
435.78	2750.13
435.97	2345.22
436.16	2223.51
436.34	2066.69
436.53	1902.86
436.72	2019.88
436.90	1900.52
437.09	1816.26
437.28	1839.66
437.46	1886.47
437.65	1956.69
437.84	1809.23
438.02	1699.23
438.21	1729.66
438.40	1746.04
438.58	1837.32
438.77	1916.90
438.96	1860.73
439.14	1973.07
439.33	1970.73
439.52	2036.27
439.70	1984.77
439.89	1994.14
440.08	1916.90
440.26	1930.94
440.45	2033.93
440.63	2115.84
440.82	2190.74
441.01	2275.00
441.19	2113.50
441.38	2047.97
441.57	2272.66
441.75	2396.71
441.94	2282.02
442.12	2225.85
442.31	2354.58
442.50	2207.13
442.68	2225.85
442.87	2249.25
443.05	2197.76
443.24	2258.62
443.43	2317.13
443.61	2380.32
443.80	2342.88
443.98	2176.70
444.17	2211.81
444.35	2373.30
444.54	2382.67
444.73	2321.81
444.91	2195.42
445.10	2090.10
445.28	2232.87
445.47	2069.03
445.65	2143.93
445.84	2125.21
446.02	2235.21
446.21	2249.25
446.39	2111.16
446.58	2305.43
446.77	2389.69
446.95	2417.77
447.14	2380.32
447.32	2469.27
447.51	2293.72
447.69	2221.17
447.88	2253.94
448.06	2275.00
448.25	2228.19
448.43	2314.79
448.62	2310.11
448.80	2305.43
448.99	2445.86
449.17	2317.13
449.36	2275.00
449.54	2408.41
449.73	2361.60
449.91	2499.69
450.10	2410.75
450.28	2518.42
450.46	2677.57
450.65	2586.29
450.83	2438.84
451.02	2492.67
451.20	2438.84
451.39	2448.20
451.57	2319.47
451.76	2445.86
451.94	2363.94
452.13	2207.13
452.31	2246.91
452.49	2136.91
452.68	2204.78
452.86	2186.06
453.05	2202.44
453.23	2279.68
453.42	2345.22
453.60	2427.14
453.78	2354.58
453.97	2382.67
454.15	2368.62
454.34	2310.11
454.52	2385.01
454.70	2340.54
454.89	2342.88
455.07	2373.30
455.26	2312.45
455.44	2356.92
455.62	2389.69
455.81	2452.88
455.99	2497.35
456.17	2471.61
456.36	2487.99
456.54	2452.88
456.73	2490.33
456.91	2546.50
457.09	2614.38
457.28	2682.25
457.46	2473.95
457.64	2523.10
457.83	2497.35
458.01	2300.75
458.19	2352.24
458.38	2464.58
458.56	2504.37
458.74	2576.93
458.93	2480.97
459.11	2516.08
459.29	2504.37
459.48	2469.27
459.66	2651.83
459.84	2487.99
460.03	2619.06
460.21	2399.05
460.39	2523.10
460.57	2612.04
460.76	2647.15
460.94	2703.32
461.12	2609.70
461.31	2581.61
461.49	2581.61
461.67	2607.36
461.85	2562.89
462.04	2658.85
462.22	3089.51
462.40	2717.36
462.59	2633.10
462.77	2647.15
462.95	2647.15
463.13	2602.68
463.32	2668.21
463.50	2708.00
463.68	2558.21
463.86	2525.44
464.05	2462.24
464.23	2565.23
464.41	2513.74
464.59	2401.39
464.78	2502.03
464.96	2513.74
465.14	2417.77
465.32	2572.25
465.50	2633.10
465.69	2607.36
465.87	2473.95
466.05	2497.35
466.23	2394.37
466.41	2413.09
466.60	2424.80
466.78	2497.35
466.96	2560.55
467.14	2621.40
467.32	2630.76
467.51	2637.78
467.69	2464.58
467.87	2387.35
468.05	2504.37
468.23	2597.99
468.41	2466.92
468.60	2516.08
468.78	2567.57
468.96	2546.50
469.14	2579.27
469.32	2427.14
469.50	2464.58
469.69	2490.33
469.87	2476.29
470.05	2413.09
470.23	2396.71
470.41	2436.50
470.59	2448.20
470.77	2471.61
470.95	2504.37
471.14	2661.19
471.32	2590.97
471.50	2731.41
471.68	2719.70
471.86	2712.68
472.04	2738.43
472.22	2698.64
472.40	2523.10
472.58	2651.83
472.77	2593.31
472.95	2546.50
473.13	2696.30
473.31	2558.21
473.49	2588.63
473.67	2628.42
473.85	2696.30
474.03	2785.24
474.21	2750.13
474.39	2813.32
474.57	2939.71
474.75	2810.98
474.93	2665.87
475.12	2700.98
475.30	2658.85
475.48	2773.53
475.66	2850.77
475.84	2731.41
476.02	2605.02
476.20	2553.52
476.38	2661.19
476.56	2878.86
476.74	2855.45
476.92	2818.00
477.10	2979.50
477.28	2986.52
477.46	3016.95
477.64	3084.83
477.82	2991.20
478.00	3030.99
478.18	2970.14
478.36	2972.48
478.54	2911.63
478.72	2963.12
478.90	3063.76
479.08	3192.49
479.26	3028.65
479.44	3187.81
479.62	3145.68
479.80	3126.96
479.98	3187.81
480.16	3225.26
480.34	3075.46
480.52	3145.68
480.70	3243.98
480.88	3192.49
481.06	3243.98
481.24	3321.22
481.41	3325.90
481.59	3358.67
481.77	3337.60
481.95	3358.67
482.13	3349.31
482.31	3412.50
482.49	3377.39
482.67	3403.14
482.85	3468.67
483.03	3581.02
483.21	3473.36
483.39	3459.31
483.57	3485.06
483.74	3447.61
483.92	3588.04
484.10	3482.72
484.28	3480.38
484.46	3707.41
484.64	3719.11
484.82	3562.30
485.00	3517.83
485.18	3487.40
485.35	3370.37
485.53	3136.32
485.71	2974.82
485.89	2925.67
486.07	2974.82
486.25	3201.85
486.43	3454.63
486.61	3389.10
486.78	3592.72
486.96	3466.33
487.14	3665.28
487.32	3634.85
487.50	3620.81
487.68	3775.28
487.85	3922.74
488.03	3983.59
488.21	3990.61
488.39	3957.85
488.57	3824.44
488.75	3637.19
488.92	4117.00
489.10	4107.64
489.28	4147.43
489.46	4219.99
489.64	4203.60
489.81	4264.46
489.99	4395.53
490.17	4147.43
490.35	4318.29
490.53	4236.37
490.70	4051.47
490.88	4203.60
491.06	4290.20
491.24	4177.86
491.41	4276.16
491.59	3899.33
491.77	3866.56
491.95	3978.91
492.13	4095.94
492.30	4161.47
492.48	4498.51
492.66	4418.93
492.84	4397.87
493.01	4430.63
493.19	4437.66
493.37	4250.41
493.54	4297.22
493.72	4414.25
493.90	4552.34
494.08	4397.87
494.25	4655.33
494.43	4662.35
494.61	4734.90
494.79	4709.16
494.96	4734.90
495.14	4695.11
495.32	4306.59
495.49	4231.69
495.67	4540.64
495.85	4706.82
496.02	4802.78
496.20	4685.75
496.38	4652.98
496.55	4746.61
496.73	4833.21
496.91	4791.08
497.09	4975.98
497.26	4875.34
497.44	4737.24
497.62	4823.84
497.79	4622.56
497.97	4451.70
498.14	4542.98
498.32	4571.07
498.50	4580.43
498.67	4655.33
498.85	4844.91
499.03	4830.87
499.20	4755.97
499.38	4741.93
499.56	4809.80
499.73	4746.61
499.91	4720.86
500.08	4559.36
500.26	4484.47
500.44	4468.08
500.61	4645.96
500.79	4643.62
500.97	4648.30
501.14	4564.04
501.32	4531.28
501.49	4472.76
501.67	4472.76
501.84	4732.56
502.02	4622.56
502.20	4791.08
502.37	4767.67
502.55	4652.98
502.72	4699.80
502.90	4774.69
503.07	4678.73
503.25	4517.23
503.43	4601.49
503.60	4311.27
503.78	4280.84
503.95	4411.91
504.13	4589.79
504.30	4805.12
504.48	4870.65
504.65	4741.93
504.83	4870.65
505.01	4999.38
505.18	4896.40
505.36	4851.93
505.53	4910.44
505.71	5027.47
505.88	5085.98
506.06	5001.72
506.23	4840.23
506.41	4805.12
506.58	4767.67
506.76	4905.76
506.93	4856.61
507.11	4856.61
507.28	4898.74
507.46	4554.68
507.63	4629.58
507.81	4697.46
507.98	4599.15
508.16	4793.42
508.33	4851.93
508.50	5165.56
508.68	4950.23
508.85	5139.82
509.03	5167.90
509.20	5160.88
509.38	5135.14
509.55	4865.97
509.73	4880.02
509.90	5074.28
510.08	5041.51
510.25	4809.80
510.42	4910.44
510.60	4985.34
510.77	5043.85
510.95	5186.63
511.12	5114.07
511.30	5214.71
511.47	5238.12
511.64	5256.84
511.82	5081.30
511.99	4830.87
512.17	4933.85
512.34	4933.85
512.51	4854.27
512.69	4915.12
512.86	4858.95
513.04	5071.94
513.21	5268.55
513.38	4844.91
513.56	4819.16
513.73	4781.71
513.90	4807.46
514.08	4882.36
514.25	4952.57
514.43	4961.94
514.60	4905.76
514.77	4947.89
514.95	5062.58
515.12	5041.51
515.29	5006.41
515.47	5165.56
515.64	5128.11
515.81	4898.74
515.99	4917.47
516.16	4807.46
516.33	4425.95
516.51	4212.96
516.68	4142.75
516.85	3948.48
517.03	4051.47
517.20	4500.85
517.37	4709.16
517.54	4898.74
517.72	4849.59
517.89	4461.06
518.06	4301.90
518.24	4327.65
518.41	4645.96
518.58	4798.10
518.75	4711.50
518.93	4908.10
519.10	4814.48
519.27	4788.74
519.45	4826.18
519.62	5083.64
519.79	5076.62
519.96	5050.88
520.14	4943.21
520.31	4950.23
520.48	4791.08
520.65	4947.89
520.83	5107.05
521.00	5116.41
521.17	5128.11
521.34	5041.51
521.52	5090.67
521.69	5308.34
521.86	5298.97
522.03	5158.54
522.20	5020.45
522.38	4842.57
522.55	4732.56
522.72	4880.02
522.89	4840.23
523.07	5121.09
523.24	4873.00
523.41	5128.11
523.58	5125.77
523.75	5291.95
523.92	5317.70
524.10	5315.36
524.27	5137.48
524.44	5210.03
524.61	5217.05
524.78	5081.30
524.96	5132.79
525.13	4915.12
525.30	5219.39
525.47	5315.36
525.64	5320.04
525.81	5301.31
525.98	4767.67
526.16	4648.30
526.33	4552.34
526.50	4580.43
526.67	4329.99
526.84	4690.43
527.01	4620.22
527.18	4683.41
527.36	4940.87
527.53	5144.50
527.70	5181.95
527.87	5041.51
528.04	5081.30
528.21	5004.07
528.38	4964.28
528.55	5383.23
528.72	5266.21
528.89	5317.70
529.07	5210.03
529.24	5392.59
529.41	5069.60
529.58	4910.44
529.75	5004.07
529.92	5074.28
530.09	5135.14
530.26	5224.08
530.43	5345.78
530.60	5256.84
530.77	5338.76
530.94	5544.73
531.11	5380.89
531.28	5315.36
531.46	5205.35
531.63	5254.50
531.80	5090.67
531.97	5128.11
532.14	4971.30
532.31	4952.57
532.48	4809.80
532.65	4896.40
532.82	4840.23
532.99	4985.34
533.16	5266.21
533.33	5378.55
533.50	5324.72
533.67	5020.45
533.84	5130.45
534.01	5156.20
534.18	5083.64
534.35	5107.05
534.52	5144.50
534.69	5291.95
534.86	5320.04
535.03	5284.93
535.20	5242.80
535.37	5369.19
535.54	5350.46
535.71	5371.53
535.88	5366.85
536.05	5212.37
536.22	5165.56
536.38	5043.85
536.55	4840.23
536.72	4854.27
536.89	4887.04
537.06	5128.11
537.23	5032.15
537.40	5205.35
537.57	5303.65
537.74	5296.63
537.91	5301.31
538.08	5329.40
538.25	5158.54
538.42	5186.63
538.59	5284.93
538.75	5111.73
538.92	5071.94
539.09	5081.30
539.26	5046.20
539.43	5188.97
539.60	5193.65
539.77	5291.95
539.94	5317.70
540.11	5226.42
540.28	5177.26
540.44	5263.86
540.61	5130.45
540.78	5289.61
540.95	5486.22
541.12	5710.91
541.29	5795.17
541.46	5834.96
541.62	5928.58
541.79	5877.09
541.96	5860.70
542.13	5755.38
542.30	5837.30
542.47	5694.52
542.63	5673.46
542.80	5666.44
542.97	5715.59
543.14	5406.64
543.31	5643.03
543.48	5673.46
543.64	5657.07
543.81	5930.92
543.98	5767.08
544.15	5722.61
544.32	5579.84
544.48	5795.17
544.65	5731.97
544.82	5799.85
544.99	5717.93
545.16	5713.25
545.32	5544.73
545.49	6307.74
545.66	7272.04
545.83	7709.72
546.00	7435.88
546.16	6553.50
546.33	6064.33
546.50	5776.44
546.67	5755.38
546.83	5598.56
547.00	5526.00
547.17	5371.53
547.34	5210.03
547.50	5287.27
547.67	5317.70
547.84	5266.21
548.00	5413.66
548.17	5336.42
548.34	5331.74
548.51	5366.85
548.67	5308.34
548.84	5313.02
549.01	5408.98
549.18	5259.18
549.34	5137.48
549.51	5158.54
549.68	5355.15
549.84	5139.82
550.01	5132.79
550.18	5090.67
550.34	5235.78
550.51	5093.01
550.68	5191.31
550.84	5004.07
551.01	5006.41
551.18	5048.54
551.34	5186.63
551.51	5093.01
551.68	5172.58
551.84	5210.03
552.01	5076.62
552.18	5142.16
552.34	5027.47
552.51	4746.61
552.68	4919.81
552.84	4863.63
553.01	5048.54
553.18	4917.47
553.34	4959.60
553.51	5001.72
553.67	4903.42
553.84	4910.44
554.01	4983.00
554.17	5008.75
554.34	5029.81
554.51	5018.11
554.67	4985.34
554.84	5064.92
555.00	4964.28
555.17	4704.48
555.33	4870.65
555.50	4765.33
555.67	4901.08
555.83	4854.27
556.00	4847.25
556.16	4936.19
556.33	4716.18
556.50	4671.71
556.66	4720.86
556.83	4599.15
556.99	4617.88
557.16	4744.27
557.32	4643.62
557.49	4744.27
557.65	4573.41
557.82	4819.16
557.98	4704.48
558.15	4695.11
558.32	4568.73
558.48	4496.17
558.65	4404.89
558.81	4418.93
558.98	4620.22
559.14	4430.63
559.31	4484.47
559.47	4547.66
559.64	4486.81
559.80	4531.28
559.97	4514.89
560.13	4386.16
560.30	4704.48
560.46	4753.63
560.63	4945.55
560.79	4643.62
560.96	4784.06
561.12	4571.07
561.29	4465.74
561.45	4465.74
561.61	4414.25
561.78	4557.02
561.94	4470.42
562.11	4461.06
562.27	4395.53
562.44	4662.35
562.60	4582.77
562.77	4723.20
562.93	4601.49
563.10	4533.62
563.26	4624.90
563.42	4631.92
563.59	4470.42
563.75	4535.96
563.92	4362.76
564.08	4528.94
564.24	4479.79
564.41	4650.64
564.57	4482.13
564.74	4550.00
564.90	4678.73
565.07	4540.64
565.23	4358.08
565.39	4245.73
565.56	4381.48
565.72	4311.27
565.88	4250.41
566.05	4255.09
566.21	4266.80
566.38	4531.28
566.54	4510.21
566.70	4432.97
566.87	4627.24
567.03	4423.61
567.19	4521.92
567.36	4264.46
567.52	4329.99
567.68	4292.54
567.85	4215.30
568.01	4093.60
568.17	4102.96
568.34	4077.21
568.50	4086.58
568.66	4109.98
568.83	4259.78
568.99	4121.68
569.15	4156.79
569.32	4234.03
569.48	4044.45
569.64	4152.11
569.81	4077.21
569.97	4117.00
570.13	4194.24
570.30	4065.51
570.46	4032.74
570.62	4088.92
570.78	3953.16
570.95	4046.79
571.11	3981.25
571.27	4187.22
571.43	4014.02
571.60	4191.90
571.76	4056.15
571.92	4114.66
572.09	4402.55
572.25	4175.52
572.41	4109.98
572.57	3990.61
572.74	4133.39
572.90	4219.99
573.06	4290.20
573.22	4131.05
573.38	4252.75
573.55	4140.41
573.71	4184.88
573.87	4084.23
574.03	3992.95
574.20	3999.98
574.36	3988.27
574.52	4030.40
574.68	4002.32
574.84	4161.47
575.01	3941.46
575.17	3850.18
575.33	3878.27
575.49	4077.21
575.65	3936.78
575.82	3943.80
575.98	3854.86
576.14	3997.64
576.30	3955.51
576.46	4201.26
576.62	4393.19
576.79	4552.34
576.95	4369.78
577.11	4205.94
577.27	4180.20
577.43	4135.73
577.59	4074.87
577.75	3901.67
577.92	3915.72
578.08	3854.86
578.24	3918.06
578.40	4049.13
578.56	4145.09
578.72	4252.75
578.88	4311.27
579.04	4273.82
579.21	4107.64
579.37	4035.08
579.53	4007.00
579.69	4067.85
579.85	4128.70
580.01	4189.56
580.17	4135.73
580.33	4042.11
580.49	4147.43
580.65	4053.81
580.82	4088.92
580.98	3983.59
581.14	3960.19
581.30	4154.45
581.46	4070.19
581.62	4102.96
581.78	4126.36
581.94	4327.65
582.10	4304.25
582.26	4236.37
582.42	4238.71
582.58	4243.39
582.74	4222.33
582.90	4315.95
583.06	4264.46
583.22	4290.20
583.38	4320.63
583.54	4138.07
583.70	4180.20
583.86	4156.79
584.02	4018.70
584.18	4266.80
584.34	4203.60
584.50	4056.15
584.66	4102.96
584.82	4086.58
584.98	4002.32
585.14	3960.19
585.30	3904.01
585.46	3911.04
585.62	3829.12
585.78	3920.40
585.94	3932.10
586.10	3892.31
586.26	3822.09
586.42	4004.66
586.58	3946.14
586.74	4002.32
586.90	3978.91
587.06	4049.13
587.22	4007.00
587.38	3929.76
587.54	3784.65
587.70	3604.42
587.86	3646.55
588.02	3449.95
588.18	3351.65
588.34	3279.09
588.49	2988.86
588.65	2855.45
588.81	2820.35
588.97	2944.39
589.13	2881.20
589.29	2836.73
589.45	2808.64
589.61	2993.55
589.77	3077.80
589.93	3063.76
590.08	3049.72
590.24	3286.11
590.40	3290.79
590.56	3368.03
590.72	3304.84
590.88	3316.54
591.04	3222.92
591.20	3236.96
591.35	3393.78
591.51	3253.34
591.67	3269.73
591.83	3353.99
591.99	3094.19
592.15	3279.09
592.31	3393.78
592.46	3574.00
592.62	3606.77
592.78	3485.06
592.94	3485.06
593.10	3433.57
593.26	3548.25
593.41	3698.05
593.57	3489.74
593.73	3339.94
593.89	3180.79
594.05	3108.23
594.20	3073.12
594.36	3101.21
594.52	2920.99
594.68	3009.93
594.84	3150.36
594.99	3365.69
595.15	3307.18
595.31	3323.56
595.47	3372.71
595.62	3157.38
595.78	3290.79
595.94	3473.36
596.10	3475.70
596.25	3335.26
596.41	3351.65
596.57	3159.72
596.73	3180.79
596.88	3246.32
597.04	3382.07
597.20	3398.46
597.36	3339.94
597.51	3337.60
597.67	3276.75
597.83	3335.26
