SpectraSuite Data File
++++++++++++++++++++++++++++++++++++
Date: Fri Oct 04 11:44:17 GMT-05:00 2013
User: price-jones
Dark Spectrum Present: No
Reference Spectrum Present: No
Number of Sampled Component Spectra: 1
Spectrometers: USB2+H05261
Integration Time (usec): 100000 (USB2+H05261)
Spectra Averaged: 1 (USB2+H05261)
Boxcar Smoothing: 0 (USB2+H05261)
Correct for Electrical Dark: No (USB2+H05261)
Strobe/Lamp Enabled: No (USB2+H05261)
Correct for Detector Non-linearity: No (USB2+H05261)
Correct for Stray Light: No (USB2+H05261)
Number of Pixels in Processed Spectrum: 2048
>>>>>Begin Processed Spectral Data<<<<<
365.73	0.00
365.92	0.00
366.12	0.00
366.32	0.00
366.52	0.00
366.72	0.00
366.91	0.00
367.11	0.00
367.31	0.00
367.51	0.00
367.70	0.00
367.90	0.00
368.10	0.00
368.30	0.00
368.49	0.00
368.69	9.36
368.89	0.00
369.09	0.00
369.28	0.00
369.48	0.00
369.68	0.00
369.87	0.00
370.07	0.00
370.27	0.00
370.47	140.43
370.66	557.05
370.86	699.82
371.06	765.36
371.25	772.38
371.45	653.01
371.65	620.24
371.84	554.71
372.04	662.37
372.24	730.25
372.44	755.99
372.63	777.06
372.83	664.71
373.03	643.65
373.22	585.13
373.42	699.82
373.62	685.78
373.81	711.52
374.01	755.99
374.21	723.23
374.40	664.71
374.60	716.20
374.79	662.37
374.99	816.85
375.19	866.00
375.38	877.70
375.58	889.40
375.78	840.25
375.97	861.32
376.17	931.53
376.37	866.00
376.56	910.47
376.76	924.51
376.95	1055.58
377.15	1046.22
377.35	1109.41
377.54	1114.10
377.74	1142.18
377.93	1153.88
378.13	1022.81
378.33	1064.94
378.52	1118.78
378.72	1022.81
378.91	922.17
379.11	933.87
379.31	936.21
379.50	898.77
379.70	968.98
379.89	1018.13
380.09	1046.22
380.28	1008.77
380.48	1036.86
380.68	1095.37
380.87	1004.09
381.07	1025.15
381.26	1006.43
381.46	922.17
381.65	884.72
381.85	812.17
382.04	758.33
382.24	800.46
382.43	786.42
382.63	723.23
382.83	753.65
383.02	758.33
383.22	788.76
383.41	678.76
383.61	828.55
383.80	828.55
384.00	987.71
384.19	931.53
384.39	1076.65
384.58	1078.99
384.78	1128.14
384.97	1139.84
385.17	1001.75
385.36	917.49
385.56	936.21
385.75	929.19
385.95	1001.75
386.14	1149.20
386.34	1151.54
386.53	1107.07
386.72	952.60
386.92	1088.35
387.11	1135.16
387.31	1118.78
387.50	1200.69
387.70	1055.58
387.89	1001.75
388.09	924.51
388.28	999.41
388.48	1050.90
388.67	1135.16
388.86	1135.16
389.06	1226.44
389.25	1329.42
389.45	1306.02
389.64	1345.81
389.84	1467.52
390.03	1416.02
390.22	1345.81
390.42	1359.85
390.61	1465.18
390.81	1469.86
391.00	1540.07
391.19	1476.88
391.39	1591.56
391.58	1378.58
391.78	1409.00
391.97	1390.28
392.16	1118.78
392.36	1203.04
392.55	1008.77
392.75	847.27
392.94	704.50
393.13	634.29
393.33	793.44
393.52	880.04
393.71	1055.58
393.91	1221.76
394.10	1331.76
394.29	1329.42
394.49	1420.71
394.68	1582.20
394.88	1535.39
395.07	1626.67
395.26	1682.85
395.46	1619.65
395.65	1514.33
395.84	1420.71
396.04	1235.80
396.23	966.64
396.42	901.11
396.62	861.32
396.81	1006.43
397.00	1193.67
397.19	1404.32
397.39	1523.69
397.58	2015.20
397.77	1907.54
397.97	1996.48
398.16	2001.16
398.35	2059.67
398.55	2146.27
398.74	2176.70
398.93	2218.83
399.12	2094.78
399.32	2087.76
399.51	2176.70
399.70	2270.32
399.90	2277.34
400.09	2232.87
400.28	2307.77
400.47	2193.08
400.67	2466.92
400.86	2387.35
401.05	2345.22
401.24	2410.75
401.44	2476.29
401.63	2363.94
401.82	2469.27
402.01	2480.97
402.21	2417.77
402.40	2466.92
402.59	2469.27
402.78	2370.96
402.97	2267.98
403.17	2480.97
403.36	2495.01
403.55	2532.46
403.74	2754.81
403.93	2670.55
404.13	2942.05
404.32	2871.84
404.51	2991.20
404.70	2878.86
404.89	2736.09
405.09	2567.57
405.28	2441.18
405.47	2387.35
405.66	2452.88
405.85	2312.45
406.05	2202.44
406.24	2333.51
406.43	2382.67
406.62	2492.67
406.81	2595.65
407.00	2525.44
407.20	2441.18
407.39	2385.01
407.58	2527.78
407.77	2572.25
407.96	2818.00
408.15	2752.47
408.34	2654.17
408.54	2766.51
408.73	2860.13
408.92	2780.56
409.11	2799.28
409.30	2621.40
409.49	2464.58
409.68	2305.43
409.87	2260.96
410.07	2455.22
410.26	2586.29
410.45	2677.57
410.64	2717.36
410.83	2846.09
411.02	2825.03
411.21	2946.73
411.40	2958.44
411.59	2913.97
411.78	2995.89
411.98	2974.82
412.17	2967.80
412.36	2775.88
412.55	2960.78
412.74	2932.69
412.93	2729.06
413.12	2857.79
413.31	3042.70
413.50	3178.45
413.69	3159.72
413.88	2993.55
414.07	2930.35
414.26	3002.91
414.45	3026.31
414.64	3094.19
414.83	3068.44
415.02	3009.93
415.22	3129.30
415.41	3138.66
415.60	3091.85
415.79	3302.50
415.98	3410.16
416.17	3328.24
416.36	3295.47
416.55	3309.52
416.74	3176.11
416.93	3157.38
417.12	3028.65
417.31	3204.19
417.50	3138.66
417.69	3318.88
417.88	3363.35
418.07	3211.22
418.26	3138.66
418.45	3206.53
418.64	3379.73
418.83	3356.33
419.02	3265.05
419.21	3281.43
419.39	3180.79
419.58	2949.08
419.77	3066.10
419.96	3227.60
420.15	3492.08
420.34	3403.14
420.53	3538.89
420.72	3485.06
420.91	3599.74
421.10	3445.27
421.29	3419.52
421.48	3351.65
421.67	3475.70
421.86	3510.80
422.05	3201.85
422.24	2920.99
422.43	2928.01
422.61	3133.98
422.80	3396.12
422.99	3468.67
423.18	3342.28
423.37	3276.75
423.56	3194.83
423.75	3314.20
423.94	3379.73
424.13	3162.06
424.32	3089.51
424.50	3124.62
424.69	3157.38
424.88	3335.26
425.07	3164.40
425.26	3346.97
425.45	3136.32
425.64	2958.44
425.83	3115.25
426.01	3323.56
426.20	3192.49
426.39	3262.71
426.58	3038.02
426.77	2862.48
426.96	2862.48
427.15	2853.11
427.33	3096.53
427.52	3070.78
427.71	3117.59
427.90	3126.96
428.09	3157.38
428.28	3061.42
428.46	3101.21
428.65	2951.42
428.84	3012.27
429.03	3159.72
429.22	2864.82
429.40	2850.77
429.59	2537.14
429.78	2363.94
429.97	2284.36
430.16	2132.23
430.34	2328.83
430.53	2331.17
430.72	2326.49
430.91	2649.49
431.10	2956.10
431.28	3391.44
431.47	3555.27
431.66	3751.88
431.85	3641.87
432.03	3323.56
432.22	3171.43
432.41	3190.15
432.60	3501.44
432.79	3632.51
432.97	3686.34
433.16	3763.58
433.35	3461.65
433.54	3059.08
433.72	2981.84
433.91	2970.14
434.10	3279.09
434.28	3431.23
434.47	3728.47
434.66	3662.94
434.85	3574.00
435.03	3854.86
435.22	4751.29
435.41	6263.27
435.59	6506.69
435.78	5460.47
435.97	4823.84
436.16	4187.22
436.34	3882.95
436.53	3861.88
436.72	3889.97
436.90	3585.70
437.09	3667.62
437.28	3550.59
437.46	3524.85
437.65	3719.11
437.84	3468.67
438.02	3166.74
438.21	3225.26
438.40	3145.68
438.58	3625.49
438.77	3658.26
438.96	3686.34
439.14	3920.40
439.33	3889.97
439.52	3901.67
439.70	4023.38
439.89	3770.60
440.08	3653.58
440.26	3574.00
440.45	3791.67
440.63	4081.89
440.82	4194.24
441.01	4163.81
441.19	4032.74
441.38	4198.92
441.57	4166.15
441.75	4318.29
441.94	4437.66
442.12	4341.69
442.31	4461.06
442.50	4397.87
442.68	4355.74
442.87	4313.61
443.05	4297.22
443.24	4423.61
443.43	4400.21
443.61	4571.07
443.80	4491.49
443.98	4320.63
444.17	4379.14
444.35	4552.34
444.54	4582.77
444.73	4491.49
444.91	4376.80
445.10	4170.83
445.28	4039.76
445.47	4063.17
445.65	4065.51
445.84	4109.98
446.02	4311.27
446.21	4262.12
446.39	4425.95
446.58	4313.61
446.77	4297.22
446.95	4374.46
447.14	4479.79
447.32	4648.30
447.51	4587.45
447.69	4409.57
447.88	4301.90
448.06	4519.57
448.25	4557.02
448.43	4484.47
448.62	4489.15
448.80	4423.61
448.99	4414.25
449.17	4486.81
449.36	4449.36
449.54	4676.39
449.73	4711.50
449.91	4835.55
450.10	4997.04
450.28	5008.75
450.46	4917.47
450.65	4826.18
450.83	4919.81
451.02	4812.14
451.20	4802.78
451.39	4657.67
451.57	4781.71
451.76	4704.48
451.94	4737.24
452.13	4671.71
452.31	4554.68
452.49	4353.40
452.68	4250.41
452.86	4346.37
453.05	4339.35
453.23	4500.85
453.42	4674.05
453.60	4624.90
453.78	4774.69
453.97	4645.96
454.15	4681.07
454.34	4599.15
454.52	4547.66
454.70	4624.90
454.89	4507.87
455.07	4587.45
455.26	4535.96
455.44	4779.37
455.62	4837.89
455.81	4891.72
455.99	4945.55
456.17	4772.35
456.36	4741.93
456.54	4844.91
456.73	4954.91
456.91	4980.66
457.09	4924.49
457.28	5128.11
457.46	4840.23
457.64	4901.08
457.83	4734.90
458.01	4667.03
458.19	4629.58
458.38	4655.33
458.56	4978.32
458.74	5034.49
458.93	4826.18
459.11	4779.37
459.29	4730.22
459.48	4720.86
459.66	4809.80
459.84	4774.69
460.03	4983.00
460.21	4945.55
460.39	5064.92
460.57	5093.01
460.76	5165.56
460.94	5036.83
461.12	4933.85
461.31	4980.66
461.49	5025.13
461.67	4971.30
461.85	5298.97
462.04	5116.41
462.22	5556.43
462.40	5263.86
462.59	5195.99
462.77	5163.22
462.95	5060.24
463.13	5022.79
463.32	5116.41
463.50	5078.96
463.68	4968.96
463.86	5006.41
464.05	4943.21
464.23	4793.42
464.41	4765.33
464.59	4760.65
464.78	4957.25
464.96	4959.60
465.14	4753.63
465.32	5083.64
465.50	4983.00
465.69	5188.97
465.87	5085.98
466.05	4968.96
466.23	4723.20
466.41	4608.51
466.60	4674.05
466.78	4664.69
466.96	4809.80
467.14	4777.03
467.32	5034.49
467.51	5055.56
467.69	4849.59
467.87	4770.01
468.05	4924.49
468.23	4868.31
468.41	4954.91
468.60	4983.00
468.78	4924.49
468.96	4828.53
469.14	4912.78
469.32	5074.28
469.50	4795.76
469.69	4851.93
469.87	4912.78
470.05	4624.90
470.23	4821.50
470.41	4833.21
470.59	4760.65
470.77	4805.12
470.95	5191.31
471.14	5207.69
471.32	4952.57
471.50	5303.65
471.68	5317.70
471.86	5224.08
472.04	5275.57
472.22	5446.43
472.40	5088.32
472.58	5060.24
472.77	5013.43
472.95	5118.75
473.13	5249.82
473.31	5139.82
473.49	5102.37
473.67	5310.68
473.85	5224.08
474.03	5320.04
474.21	5298.97
474.39	5607.92
474.57	5556.43
474.75	5451.11
474.93	5526.00
475.12	5289.61
475.30	5313.02
475.48	5366.85
475.66	5282.59
475.84	5247.48
476.02	5327.06
476.20	5263.86
476.38	5324.72
476.56	5376.21
476.74	5661.76
476.92	5561.11
477.10	5722.61
477.28	5757.72
477.46	5818.57
477.64	5877.09
477.82	5832.62
478.00	5825.59
478.18	6022.20
478.36	5895.81
478.54	5893.47
478.72	5830.27
478.90	5966.03
479.08	6188.38
479.26	6347.53
479.44	6202.42
479.62	6146.25
479.80	6125.18
479.98	6396.68
480.16	6368.60
480.34	6169.65
480.52	6183.70
480.70	6373.28
480.88	6347.53
481.06	6328.81
481.24	6403.71
481.41	6597.97
481.59	6834.36
481.77	6965.43
481.95	6761.81
482.13	6593.29
482.31	6480.94
482.49	6572.22
482.67	6689.25
482.85	6740.74
483.03	6885.86
483.21	6925.65
483.39	7087.14
483.57	6834.36
483.74	6881.18
483.92	6757.13
484.10	6836.70
484.28	7286.09
484.46	7096.50
484.64	7232.26
484.82	7129.27
485.00	7054.37
485.18	7007.56
485.35	6860.11
485.53	6457.54
485.71	5954.32
485.89	5799.85
486.07	6108.80
486.25	6359.24
486.43	6696.27
486.61	6796.92
486.78	6892.88
486.96	6740.74
487.14	7108.21
487.32	7159.70
487.50	7698.02
487.68	7712.07
487.85	7789.30
488.03	7660.57
488.21	7861.86
488.39	7616.10
488.57	7466.31
488.75	7213.53
488.92	7681.64
489.10	7840.79
489.28	8205.92
489.46	8336.99
489.64	8456.36
489.81	8339.33
489.99	8336.99
490.17	8231.66
490.35	8566.36
490.53	8381.46
490.70	8142.72
490.88	8168.47
491.06	8329.97
491.24	8306.56
491.41	8374.44
491.59	7882.92
491.77	7653.55
491.95	7868.88
492.13	8065.49
492.30	8299.54
492.48	8634.24
492.66	8751.26
492.84	8924.46
493.01	8814.46
493.19	8538.27
493.37	8748.92
493.54	8484.44
493.72	8674.03
493.90	9029.79
494.08	9207.67
494.25	9289.59
494.43	9032.13
494.61	9413.63
494.79	9430.02
494.96	9301.29
495.14	9441.72
495.32	8894.04
495.49	8896.38
495.67	8919.78
495.85	9357.46
496.02	9558.75
496.20	9380.87
496.38	9472.15
496.55	9348.10
496.73	9261.50
496.91	9451.08
497.09	9596.20
497.26	9631.30
497.44	9799.82
497.62	9701.52
497.79	9085.96
497.97	8894.04
498.14	8894.04
498.32	9095.32
498.50	9420.66
498.67	9650.03
498.85	9598.54
499.03	9474.49
499.20	9689.82
499.38	9734.29
499.56	9713.22
499.73	9460.45
499.91	9458.10
500.08	9355.12
500.26	8655.30
500.44	9102.34
500.61	9153.84
500.79	9259.16
500.97	9317.67
501.14	8851.91
501.32	8819.14
501.49	8917.44
501.67	8978.30
501.84	9046.17
502.02	9200.65
502.20	9305.97
502.37	9455.76
502.55	9069.58
502.72	9385.55
502.90	9469.81
503.07	9385.55
503.25	9207.67
503.43	8835.52
503.60	8835.52
503.78	8365.07
503.95	8629.56
504.13	8786.37
504.30	9488.53
504.48	9390.23
504.65	9308.31
504.83	9366.82
505.01	9647.69
505.18	9874.72
505.36	9867.70
505.53	9764.72
505.71	9921.53
505.88	10017.49
506.06	9846.63
506.23	9572.79
506.41	9682.80
506.58	9500.23
506.76	9757.69
506.93	9586.83
507.11	9570.45
507.28	9628.96
507.46	9444.06
507.63	9210.01
507.81	9132.77
507.98	9282.56
508.16	9666.41
508.33	9717.90
508.50	9844.29
508.68	10141.54
508.85	10127.50
509.03	9900.47
509.20	10141.54
509.38	10054.94
509.55	9645.35
509.73	9474.49
509.90	9818.55
510.08	9902.81
510.25	9940.26
510.42	9832.59
510.60	9755.35
510.77	9966.00
510.95	10216.44
511.12	10340.49
511.30	10237.50
511.47	10429.43
511.64	10583.90
511.82	10377.94
511.99	10197.71
512.17	9898.13
512.34	9940.26
512.51	9827.91
512.69	9846.63
512.86	9951.96
513.04	10029.20
513.21	10197.71
513.38	9996.43
513.56	9710.88
513.73	9635.99
513.90	9731.95
514.08	9753.01
514.25	9568.11
514.43	9680.46
514.60	9846.63
514.77	9860.68
514.95	10164.95
515.12	9748.33
515.29	9755.35
515.47	10188.35
515.64	10326.44
515.81	10298.36
515.99	9872.38
516.16	9727.27
516.33	8919.78
516.51	8292.52
516.68	8088.89
516.85	8107.62
517.03	8194.22
517.20	8706.79
517.37	9357.46
517.54	9830.25
517.72	9827.91
517.89	9069.58
518.06	8372.10
518.24	8374.44
518.41	9062.55
518.58	9472.15
518.75	9383.21
518.93	9701.52
519.10	9579.81
519.27	9657.05
519.45	9853.66
519.62	10178.99
519.79	10066.64
519.96	9970.68
520.14	10019.83
520.31	9783.44
520.48	9631.30
520.65	9729.61
520.83	10150.90
521.00	10305.38
521.17	10052.60
521.34	9977.70
521.52	10040.90
521.69	10361.55
521.86	10455.17
522.03	10279.63
522.20	10012.81
522.38	9586.83
522.55	9451.08
522.72	9898.13
522.89	10115.80
523.07	9947.28
523.24	10092.39
523.41	9961.32
523.58	10391.98
523.75	10565.18
523.92	10204.74
524.10	10595.61
524.27	10581.56
524.44	10399.00
524.61	10466.88
524.78	10293.68
524.96	10429.43
525.13	10377.94
525.30	10476.24
525.47	10511.35
525.64	10239.84
525.81	10335.81
525.98	9778.76
526.16	9392.57
526.33	8952.55
526.50	8882.33
526.67	8861.27
526.84	8954.89
527.01	9231.07
527.18	9540.02
527.36	9881.74
527.53	10211.76
527.70	10204.74
527.87	10139.20
528.04	9937.91
528.21	9928.55
528.38	10195.37
528.55	10551.14
528.72	10752.42
528.89	10700.93
529.07	10672.84
529.24	10420.06
529.41	10239.84
529.58	9954.30
529.75	10178.99
529.92	10148.56
530.09	10399.00
530.26	10356.87
530.43	10499.64
530.60	10843.70
530.77	10658.80
530.94	10822.64
531.11	10555.82
531.28	10331.12
531.46	10569.86
531.63	10457.51
531.80	10291.34
531.97	10513.69
532.14	10012.81
532.31	9757.69
532.48	9343.42
532.65	9441.72
532.82	9563.43
532.99	10111.11
533.16	10274.95
533.33	10429.43
533.50	10558.16
533.67	10307.72
533.84	10026.86
534.01	10195.37
534.18	9954.30
534.35	10094.73
534.52	10193.03
534.69	10253.89
534.86	10532.41
535.03	10483.26
535.20	10523.05
535.37	10668.16
535.54	10911.58
535.71	10869.45
535.88	10738.38
536.05	10431.77
536.22	10361.55
536.38	10141.54
536.55	9923.87
536.72	10033.88
536.89	9781.10
537.06	10277.29
537.23	10455.17
537.40	10518.37
537.57	10682.20
537.74	10623.69
537.91	10698.59
538.08	10724.33
538.25	10356.87
538.42	10602.63
538.59	10424.75
538.75	10457.51
538.92	10216.44
539.09	10307.72
539.26	10377.94
539.43	10335.81
539.60	10520.71
539.77	10349.85
539.94	10562.84
540.11	10214.10
540.28	10244.52
540.44	10296.02
540.61	10452.83
540.78	10555.82
540.95	11428.84
541.12	11810.34
541.29	11910.99
541.46	12070.14
541.62	11969.50
541.79	12194.19
541.96	11875.88
542.13	11412.45
542.30	11557.57
542.47	11712.04
542.63	11630.12
542.80	11274.36
542.97	11398.41
543.14	11257.98
543.31	11164.36
543.48	11389.05
543.64	11719.06
543.81	11688.64
543.98	11686.29
544.15	11768.21
544.32	11417.13
544.48	11520.12
544.65	11573.95
544.82	11873.54
544.99	11527.14
545.16	11276.70
545.32	11545.86
545.49	12706.77
545.66	15243.91
545.83	16341.62
546.00	15356.25
546.16	13455.74
546.33	12456.33
546.50	11693.32
546.67	11449.90
546.83	11316.49
547.00	11286.06
547.17	10895.19
547.34	10782.85
547.50	10553.48
547.67	10721.99
547.84	10696.25
548.00	10934.98
548.17	10864.77
548.34	10799.23
548.51	10649.44
548.67	10815.62
548.84	10801.57
549.01	10663.48
549.18	10501.98
549.34	10609.65
549.51	10539.43
549.68	10403.68
549.84	10476.24
550.01	10387.30
550.18	10202.40
550.34	10427.09
550.51	10373.25
550.68	10485.60
550.84	10045.58
551.01	9797.48
551.18	10188.35
551.34	10040.90
551.51	10099.41
551.68	10333.47
551.84	10083.03
552.01	10274.95
552.18	10284.31
552.34	9848.97
552.51	9760.03
552.68	9373.85
552.84	9781.10
553.01	9762.37
553.18	9973.02
553.34	9884.08
553.51	9792.80
553.67	10076.01
553.84	10094.73
554.01	9956.64
554.17	9956.64
554.34	9736.63
554.51	9783.44
554.67	10104.09
554.84	9923.87
555.00	10104.09
555.17	9895.78
555.33	9628.96
555.50	9680.46
555.67	9909.83
555.83	9495.55
556.00	9446.40
556.16	9593.86
556.33	9324.69
556.50	9282.56
556.66	9666.41
556.83	9315.33
556.99	9308.31
557.16	9486.19
557.32	9497.89
557.49	9446.40
557.65	9130.43
557.82	9378.53
557.98	9355.12
558.15	9336.40
558.32	9020.42
558.48	8870.63
558.65	8711.47
558.81	9029.79
558.98	9055.53
559.14	8936.17
559.31	9109.36
559.47	9205.33
559.64	9088.30
559.80	9071.92
559.97	8826.16
560.13	8938.51
560.30	9324.69
560.46	9556.41
560.63	9579.81
560.79	9626.62
560.96	9540.02
561.12	9303.63
561.29	8966.59
561.45	8840.20
561.61	9111.71
561.78	9305.97
561.94	9224.05
562.11	8978.30
562.27	9114.05
562.44	8971.27
562.60	9137.45
562.77	9256.82
562.93	9224.05
563.10	9308.31
563.26	9128.09
563.42	8954.89
563.59	8936.17
563.75	8903.40
563.92	9125.75
564.08	9090.64
564.24	9107.02
564.41	9177.24
564.57	9006.38
564.74	9067.24
564.90	8894.04
565.07	8943.19
565.23	8786.37
565.39	8844.88
565.56	8498.49
565.72	8496.14
565.88	8524.23
566.05	8358.05
566.21	8655.30
566.38	8734.88
566.54	8732.54
566.70	8887.01
566.87	8847.22
567.03	8842.54
567.19	9137.45
567.36	8828.50
567.52	8727.86
567.68	8557.00
567.85	8521.89
568.01	8149.75
568.17	8210.60
568.34	8124.00
568.50	8077.19
568.66	8093.57
568.83	8318.26
568.99	8311.24
569.15	8315.92
569.32	8442.31
569.48	8306.56
569.64	8100.59
569.81	8088.89
569.97	7971.86
570.13	8159.11
570.30	8112.30
570.46	8030.38
570.62	7845.48
570.78	7824.41
570.95	7892.29
571.11	7974.21
571.27	8250.39
571.43	7943.78
571.60	8177.83
571.76	8311.24
571.92	8299.54
572.09	8187.19
572.25	8458.70
572.41	8196.56
572.57	8236.35
572.74	8280.82
572.90	8257.41
573.06	8203.58
573.22	8224.64
573.38	8079.53
573.55	8269.11
573.71	8182.51
573.87	8224.64
574.03	8018.68
574.20	8067.83
574.36	8053.78
574.52	7988.25
574.68	8077.19
574.84	7880.58
575.01	7775.26
575.17	7810.37
575.33	7672.28
575.49	8030.38
575.65	8135.70
575.82	7932.08
575.98	7875.90
576.14	8046.76
576.30	8198.90
576.46	8716.16
576.62	8964.25
576.79	9074.26
576.95	8795.73
577.11	8498.49
577.27	8231.66
577.43	8252.73
577.59	8161.45
577.75	7920.37
577.92	7660.57
578.08	7681.64
578.24	7681.64
578.40	7946.12
578.56	8552.32
578.72	8847.22
578.88	8828.50
579.04	8510.19
579.21	8486.78
579.37	8383.80
579.53	8283.16
579.69	8358.05
579.85	8201.24
580.01	8531.25
580.17	8322.94
580.33	8119.32
580.49	8173.15
580.65	8238.69
580.82	8184.85
580.98	8205.92
581.14	8112.30
581.30	8142.72
581.46	8053.78
581.62	8212.94
581.78	8318.26
581.94	8395.50
582.10	8404.86
582.26	8461.04
582.42	8489.12
582.58	8685.73
582.74	8203.58
582.90	8564.02
583.06	8238.69
583.22	8355.71
583.38	8128.68
583.54	8276.13
583.70	8489.12
583.86	8231.66
584.02	8266.77
584.18	8322.94
584.34	8428.27
584.50	8241.03
584.66	8091.23
584.82	8379.12
584.98	8088.89
585.14	8166.13
585.30	7997.61
585.46	7843.14
585.62	7751.85
585.78	7953.14
585.94	7859.52
586.10	7915.69
586.26	7875.90
586.42	8056.12
586.58	8098.25
586.74	8063.15
586.90	8238.69
587.06	8126.34
587.22	8341.67
587.38	7943.78
587.54	7906.33
587.70	7545.89
587.86	7300.13
588.02	7115.23
588.18	6949.05
588.34	6574.56
588.49	6104.12
588.65	5877.09
588.81	5731.97
588.97	5685.16
589.13	5680.48
589.29	5738.99
589.45	5678.14
589.61	5715.59
589.77	5996.45
589.93	6085.39
590.08	6581.59
590.24	6576.91
590.40	6614.35
590.56	6544.14
590.72	6539.46
590.88	6445.84
591.04	6537.12
591.20	6483.28
591.35	6551.16
591.51	6590.95
591.67	6272.64
591.83	6352.21
591.99	6558.18
592.15	6614.35
592.31	6780.53
592.46	6927.99
592.62	7035.65
592.78	7014.59
592.94	7101.19
593.10	7037.99
593.26	7176.08
593.41	7407.80
593.57	7122.25
593.73	6651.80
593.89	6436.47
594.05	6289.02
594.20	6059.65
594.36	6122.84
594.52	6026.88
594.68	5937.94
594.84	6242.21
594.99	6572.22
595.15	6537.12
