SpectraSuite Data File
++++++++++++++++++++++++++++++++++++
Date: Fri Oct 04 11:44:23 GMT-05:00 2013
User: price-jones
Dark Spectrum Present: No
Reference Spectrum Present: No
Number of Sampled Component Spectra: 1
Spectrometers: USB2+H05261
Integration Time (usec): 100000 (USB2+H05261)
Spectra Averaged: 1 (USB2+H05261)
Boxcar Smoothing: 0 (USB2+H05261)
Correct for Electrical Dark: No (USB2+H05261)
Strobe/Lamp Enabled: No (USB2+H05261)
Correct for Detector Non-linearity: No (USB2+H05261)
Correct for Stray Light: No (USB2+H05261)
Number of Pixels in Processed Spectrum: 2048
>>>>>Begin Processed Spectral Data<<<<<
365.73	84.26
365.92	84.26
366.12	84.26
366.32	0.00
366.52	0.00
366.72	2.34
366.91	0.00
367.11	0.00
367.31	0.00
367.51	0.00
367.70	0.00
367.90	0.00
368.10	0.00
368.30	0.00
368.49	0.00
368.69	0.00
368.89	0.00
369.09	0.00
369.28	0.00
369.48	0.00
369.68	28.09
369.87	7.02
370.07	0.00
370.27	0.00
370.47	124.05
370.66	414.27
370.86	435.34
371.06	463.43
371.25	479.81
371.45	416.62
371.65	510.24
371.84	388.53
372.04	327.68
372.24	400.23
372.44	475.13
372.63	411.93
372.83	507.90
373.03	449.38
373.22	334.70
373.42	390.87
373.62	381.51
373.81	435.34
374.01	500.87
374.21	404.91
374.40	418.96
374.60	451.72
374.79	386.19
374.99	416.62
375.19	627.26
375.38	585.13
375.58	470.45
375.78	519.60
375.97	589.82
376.17	615.56
376.37	451.72
376.56	575.77
376.76	505.56
376.95	645.99
377.15	615.56
377.35	653.01
377.54	648.33
377.74	645.99
377.93	657.69
378.13	674.07
378.33	655.35
378.52	643.65
378.72	589.82
378.91	517.26
379.11	603.86
379.31	578.11
379.50	498.53
379.70	578.11
379.89	627.26
380.09	629.60
380.28	596.84
380.48	592.16
380.68	594.50
380.87	688.12
381.07	657.69
381.26	624.92
381.46	547.69
381.65	615.56
381.85	493.85
382.04	477.47
382.24	463.43
382.43	449.38
382.63	386.19
382.83	425.98
383.02	498.53
383.22	447.04
383.41	404.91
383.61	416.62
383.80	547.69
384.00	552.37
384.19	622.58
384.39	650.67
384.58	617.90
384.78	575.77
384.97	620.24
385.17	716.20
385.36	608.54
385.56	582.79
385.75	587.47
385.95	596.84
386.14	695.14
386.34	741.95
386.53	631.94
386.72	631.94
386.92	629.60
387.11	643.65
387.31	557.05
387.50	578.11
387.70	566.41
387.89	615.56
388.09	601.52
388.28	692.80
388.48	676.41
388.67	809.83
388.86	669.39
389.06	856.64
389.25	784.08
389.45	812.17
389.64	805.14
389.84	802.80
390.03	795.78
390.22	760.67
390.42	751.31
390.61	844.93
390.81	898.77
391.00	856.64
391.19	1029.84
391.39	943.24
391.58	823.87
391.78	826.21
391.97	763.01
392.16	610.88
392.36	734.93
392.55	582.79
392.75	557.05
392.94	440.02
393.13	414.27
393.33	479.81
393.52	552.37
393.71	664.71
393.91	704.50
394.10	655.35
394.29	763.01
394.49	884.72
394.68	933.87
394.88	954.94
395.07	1004.09
395.26	997.07
395.46	980.68
395.65	905.79
395.84	791.10
396.04	702.16
396.23	624.92
396.42	475.13
396.62	428.32
396.81	594.50
397.00	732.59
397.19	819.19
397.39	910.47
397.58	1036.86
397.77	1086.01
397.97	1212.40
398.16	1069.62
398.35	1116.44
398.55	1228.78
398.74	1240.48
398.93	1308.36
399.12	1149.20
399.32	1273.25
399.51	1256.87
399.70	1385.60
399.90	1254.53
400.09	1301.34
400.28	1334.11
400.47	1177.29
400.67	1364.53
400.86	1401.98
401.05	1406.66
401.24	1458.15
401.44	1378.58
401.63	1434.75
401.82	1467.52
402.01	1359.85
402.21	1446.45
402.40	1411.34
402.59	1441.77
402.78	1376.24
402.97	1444.11
403.17	1357.51
403.36	1432.41
403.55	1469.86
403.74	1502.62
403.93	1394.96
404.13	1448.79
404.32	1390.28
404.51	1352.83
404.70	1418.36
404.89	1446.45
405.09	1455.81
405.28	1476.88
405.47	1409.00
405.66	1373.89
405.85	1380.92
406.05	1390.28
406.24	1392.62
406.43	1411.34
406.62	1472.20
406.81	1526.03
407.00	1446.45
407.20	1401.98
407.39	1373.89
407.58	1448.79
407.77	1486.24
407.96	1432.41
408.15	1624.33
408.34	1437.09
408.54	1565.82
408.73	1661.78
408.92	1657.10
409.11	1614.97
409.30	1582.20
409.49	1423.05
409.68	1336.45
409.87	1380.92
410.07	1387.94
410.26	1500.28
410.45	1551.78
410.64	1554.12
410.83	1699.23
411.02	1689.87
411.21	1638.38
411.40	1729.66
411.59	1657.10
411.78	1708.59
411.98	1781.15
412.17	1722.63
412.36	1643.06
412.55	1687.53
412.74	1598.59
412.93	1703.91
413.12	1558.80
413.31	1792.85
413.50	1804.55
413.69	1825.62
413.88	1701.57
414.07	1729.66
414.26	1720.29
414.45	1750.72
414.64	1717.95
414.83	1734.34
415.02	1739.02
415.22	1689.87
415.41	1788.17
415.60	1776.47
415.79	1914.56
415.98	1923.92
416.17	1863.07
416.36	1914.56
416.55	1818.60
416.74	1816.26
416.93	1778.81
417.12	1760.08
417.31	1753.06
417.50	1781.15
417.69	1935.62
417.88	1776.47
418.07	1842.00
418.26	1860.73
418.45	1842.00
418.64	1956.69
418.83	1968.39
419.02	1909.88
419.21	1771.79
419.39	1898.17
419.58	1767.10
419.77	1860.73
419.96	1891.15
420.15	1860.73
420.34	1909.88
420.53	1952.01
420.72	2045.63
420.91	2045.63
421.10	1963.71
421.29	2113.50
421.48	1952.01
421.67	2076.06
421.86	1975.41
422.05	1949.67
422.24	1827.96
422.43	1722.63
422.61	1743.70
422.80	1909.88
422.99	2031.58
423.18	1912.22
423.37	1982.43
423.56	1860.73
423.75	1952.01
423.94	1912.22
424.13	1872.43
424.32	1874.77
424.50	1905.20
424.69	1849.02
424.88	1827.96
425.07	1886.47
425.26	1776.47
425.45	1802.21
425.64	1764.76
425.83	1811.57
426.01	1907.54
426.20	1916.90
426.39	1954.35
426.58	1741.36
426.77	1680.50
426.96	1645.40
427.15	1612.63
427.33	1753.06
427.52	1839.66
427.71	1900.52
427.90	1877.11
428.09	1867.75
428.28	1729.66
428.46	1717.95
428.65	1650.08
428.84	1748.38
429.03	1750.72
429.22	1603.27
429.40	1617.31
429.59	1336.45
429.78	1334.11
429.97	1299.00
430.16	1331.76
430.34	1254.53
430.53	1249.85
430.72	1380.92
430.91	1411.34
431.10	1603.27
431.28	1977.75
431.47	2125.21
431.66	2153.29
431.85	2036.27
432.03	1891.15
432.22	1846.68
432.41	1732.00
432.60	1926.26
432.79	2104.14
432.97	2134.57
433.16	2085.42
433.35	1949.67
433.54	1792.85
433.72	1680.50
433.91	1701.57
434.10	1874.77
434.28	1980.09
434.47	1991.80
434.66	2136.91
434.85	2143.93
435.03	2012.86
435.22	2165.00
435.41	2527.78
435.59	2637.78
435.78	2581.61
435.97	2387.35
436.16	2312.45
436.34	2312.45
436.53	2207.13
436.72	2181.38
436.90	2101.80
437.09	2083.08
437.28	2003.50
437.46	2167.34
437.65	2190.74
437.84	2005.84
438.02	1799.87
438.21	1849.02
438.40	1877.11
438.58	1984.77
438.77	2059.67
438.96	2160.31
439.14	2251.60
439.33	2115.84
439.52	2305.43
439.70	2249.25
439.89	2230.53
440.08	2111.16
440.26	2078.40
440.45	2188.40
440.63	2272.66
440.82	2506.71
441.01	2389.69
441.19	2368.62
441.38	2354.58
441.57	2427.14
441.75	2392.03
441.94	2640.12
442.12	2537.14
442.31	2558.21
442.50	2607.36
442.68	2555.86
442.87	2539.48
443.05	2448.20
443.24	2485.65
443.43	2406.07
443.61	2506.71
443.80	2607.36
443.98	2546.50
444.17	2359.26
444.35	2609.70
444.54	2640.12
444.73	2726.72
444.91	2602.68
445.10	2443.52
445.28	2427.14
445.47	2312.45
445.65	2396.71
445.84	2352.24
446.02	2513.74
446.21	2392.03
446.39	2408.41
446.58	2487.99
446.77	2518.42
446.95	2602.68
447.14	2670.55
447.32	2630.76
447.51	2551.18
447.69	2485.65
447.88	2527.78
448.06	2626.08
448.25	2663.53
448.43	2703.32
448.62	2513.74
448.80	2626.08
448.99	2530.12
449.17	2609.70
449.36	2644.81
449.54	2759.49
449.73	2649.49
449.91	2864.82
450.10	2761.83
450.28	2979.50
450.46	2818.00
450.65	2885.88
450.83	2876.52
451.02	2708.00
451.20	2759.49
451.39	2757.15
451.57	2729.06
451.76	2754.81
451.94	2698.64
452.13	2733.75
452.31	2705.66
452.49	2490.33
452.68	2415.43
452.86	2525.44
453.05	2560.55
453.23	2576.93
453.42	2600.34
453.60	2752.47
453.78	2672.89
453.97	2754.81
454.15	2682.25
454.34	2677.57
454.52	2768.85
454.70	2492.67
454.89	2469.27
455.07	2520.76
455.26	2715.02
455.44	2693.96
455.62	2775.88
455.81	2663.53
455.99	2834.39
456.17	2761.83
456.36	2747.79
456.54	2785.24
456.73	2754.81
456.91	2876.52
457.09	2818.00
457.28	3033.33
457.46	2820.35
457.64	2916.31
457.83	2754.81
458.01	2628.42
458.19	2684.59
458.38	2832.05
458.56	2939.71
458.74	2839.07
458.93	2689.28
459.11	2815.66
459.29	2672.89
459.48	2829.71
459.66	2871.84
459.84	2796.94
460.03	2818.00
460.21	2846.09
460.39	2906.95
460.57	2925.67
460.76	2946.73
460.94	3033.33
461.12	2958.44
461.31	2878.86
461.49	2960.78
461.67	2843.75
461.85	2946.73
462.04	2796.94
462.22	3501.44
462.40	2970.14
462.59	2972.48
462.77	2836.73
462.95	2918.65
463.13	2960.78
463.32	3002.91
463.50	2867.16
463.68	2902.26
463.86	2949.08
464.05	2876.52
464.23	2935.03
464.41	2761.83
464.59	2719.70
464.78	2878.86
464.96	2834.39
465.14	2803.96
465.32	2820.35
465.50	2923.33
465.69	3021.63
465.87	2904.60
466.05	2792.26
466.23	2726.72
466.41	2670.55
466.60	2740.77
466.78	2705.66
466.96	2836.73
467.14	2860.13
467.32	2869.50
467.51	2911.63
467.69	2696.30
467.87	2836.73
468.05	2799.28
468.23	2930.35
468.41	2801.62
468.60	2916.31
468.78	2895.24
468.96	2836.73
469.14	2871.84
469.32	2836.73
469.50	2843.75
469.69	2773.53
469.87	2766.51
470.05	2792.26
470.23	2677.57
470.41	2780.56
470.59	2867.16
470.77	2738.43
470.95	2925.67
471.14	2958.44
471.32	2995.89
471.50	3063.76
471.68	3028.65
471.86	3073.12
472.04	3269.73
472.22	3101.21
472.40	2897.58
472.58	2729.06
472.77	3033.33
472.95	3089.51
473.13	3157.38
473.31	3075.46
473.49	2876.52
473.67	2911.63
473.85	3133.98
474.03	3225.26
474.21	3068.44
474.39	3176.11
474.57	3155.04
474.75	3164.40
474.93	3143.34
475.12	2977.16
475.30	3112.91
475.48	3073.12
475.66	3211.22
475.84	3091.85
476.02	3002.91
476.20	3138.66
476.38	3119.93
476.56	3218.24
476.74	3253.34
476.92	3173.77
477.10	3283.77
477.28	3279.09
477.46	3265.05
477.64	3440.59
477.82	3323.56
478.00	3325.90
478.18	3356.33
478.36	3192.49
478.54	3267.39
478.72	3424.20
478.90	3461.65
479.08	3541.23
479.26	3487.40
479.44	3597.40
479.62	3555.27
479.80	3534.21
479.98	3522.51
480.16	3754.22
480.34	3482.72
480.52	3667.62
480.70	3681.66
480.88	3733.15
481.06	3623.15
481.24	3705.07
481.41	3665.28
481.59	3887.63
481.77	3906.35
481.95	3726.13
482.13	3824.44
482.31	3733.15
482.49	3742.52
482.67	3927.42
482.85	3819.75
483.03	3854.86
483.21	3985.93
483.39	3915.72
483.57	3922.74
483.74	3705.07
483.92	3936.78
484.10	3852.52
484.28	3941.46
484.46	4170.83
484.64	4035.08
484.82	3915.72
485.00	3885.29
485.18	3962.53
485.35	3831.46
485.53	3545.91
485.71	3344.63
485.89	3225.26
486.07	3302.50
486.25	3599.74
486.43	3810.39
486.61	3665.28
486.78	3878.27
486.96	3857.20
487.14	3969.55
487.32	4091.26
487.50	4280.84
487.68	4280.84
487.85	4475.10
488.03	4533.62
488.21	4290.20
488.39	4217.65
488.57	4299.56
488.75	4079.55
488.92	4479.79
489.10	4486.81
489.28	4660.01
489.46	4667.03
489.64	4791.08
489.81	4748.95
489.99	4704.48
490.17	4713.84
490.35	4828.53
490.53	4762.99
490.70	4559.36
490.88	4692.77
491.06	4730.22
491.24	4744.27
491.41	4730.22
491.59	4355.74
491.77	4344.03
491.95	4428.29
492.13	4524.26
492.30	4657.67
492.48	4943.21
492.66	4882.36
492.84	5050.88
493.01	4901.08
493.19	4912.78
493.37	4835.55
493.54	4711.50
493.72	4926.83
493.90	4922.15
494.08	5214.71
494.25	5317.70
494.43	5167.90
494.61	5151.52
494.79	5320.04
494.96	5247.48
495.14	5268.55
495.32	5195.99
495.49	4990.02
495.67	5107.05
495.85	5235.78
496.02	5401.96
496.20	5399.62
496.38	5270.89
496.55	5158.54
496.73	5427.70
496.91	5411.32
497.09	5565.79
497.26	5376.21
497.44	5528.35
497.62	5427.70
497.79	5275.57
497.97	5081.30
498.14	5055.56
498.32	5188.97
498.50	5298.97
498.67	5514.30
498.85	5451.11
499.03	5537.71
499.20	5561.11
499.38	5724.95
499.56	5418.34
499.73	5460.47
499.91	5439.40
500.08	5373.87
500.26	5111.73
500.44	5076.62
500.61	5401.96
500.79	5135.14
500.97	5029.81
501.14	5107.05
501.32	5238.12
501.49	5146.84
501.67	5153.86
501.84	5195.99
502.02	5320.04
502.20	5231.10
502.37	5451.11
502.55	5224.08
502.72	5497.92
502.90	5453.45
503.07	5455.79
503.25	4973.64
503.43	4926.83
503.60	4875.34
503.78	4964.28
503.95	4786.40
504.13	5249.82
504.30	5348.12
504.48	5369.19
504.65	5439.40
504.83	5469.83
505.01	5483.88
505.18	5603.24
505.36	5708.57
505.53	5612.60
505.71	5647.71
505.88	5717.93
506.06	5626.65
506.23	5664.10
506.41	5551.75
506.58	5619.63
506.76	5518.98
506.93	5451.11
507.11	5458.13
507.28	5486.22
507.46	5500.26
507.63	5238.12
507.81	5259.18
507.98	5394.93
508.16	5528.35
508.33	5547.07
508.50	5748.36
508.68	5671.12
508.85	5696.86
509.03	5858.36
509.20	5954.32
509.38	5596.22
509.55	5502.60
509.73	5547.07
509.90	5694.52
510.08	5640.69
510.25	5589.20
510.42	5647.71
510.60	5692.18
510.77	5636.01
510.95	5781.12
511.12	5778.78
511.30	5928.58
511.47	5907.51
511.64	6113.48
511.82	6071.35
511.99	5778.78
512.17	5619.63
512.34	5577.50
512.51	5579.84
512.69	5781.12
512.86	5713.25
513.04	5783.46
513.21	5771.76
513.38	5708.57
513.56	5713.25
513.73	5334.08
513.90	5596.22
514.08	5537.71
514.25	5657.07
514.43	5638.35
514.60	5741.33
514.77	5687.50
514.95	5652.39
515.12	5816.23
515.29	5802.19
515.47	5825.59
515.64	5951.98
515.81	5776.44
515.99	5799.85
516.16	5556.43
516.33	5226.42
516.51	4826.18
516.68	4887.04
516.85	4645.96
517.03	4678.73
517.20	5011.09
517.37	5526.00
517.54	5746.02
517.72	5596.22
517.89	5289.61
518.06	4873.00
518.24	4966.62
518.41	5273.23
518.58	5453.45
518.75	5530.69
518.93	5713.25
519.10	5617.29
519.27	5462.81
519.45	5610.26
519.62	5914.53
519.79	5879.43
519.96	5898.15
520.14	5797.51
520.31	5591.54
520.48	5614.95
520.65	5533.03
520.83	5860.70
521.00	6026.88
521.17	5963.68
521.34	5781.12
521.52	5879.43
521.69	5851.34
521.86	6108.80
522.03	6061.99
522.20	5884.11
522.38	5572.82
522.55	5607.92
522.72	5678.14
522.89	5671.12
523.07	5713.25
523.24	5694.52
523.41	5921.56
523.58	5973.05
523.75	5980.07
523.92	6071.35
524.10	6106.46
524.27	5980.07
524.44	6015.18
524.61	6132.20
524.78	6026.88
524.96	5935.60
525.13	5851.34
525.30	5923.90
525.47	6033.90
525.64	6193.06
525.81	5951.98
525.98	5582.18
526.16	5313.02
526.33	5254.50
526.50	5102.37
526.67	5177.26
526.84	5142.16
527.01	5282.59
527.18	5549.41
527.36	5507.28
527.53	6092.41
527.70	5956.66
527.87	5951.98
528.04	5987.09
528.21	5877.09
528.38	6134.54
528.55	6246.89
528.72	6277.32
528.89	6204.76
529.07	6293.70
529.24	6045.60
529.41	5973.05
529.58	5795.17
529.75	5825.59
529.92	5865.38
530.09	5987.09
530.26	6169.65
530.43	6279.66
530.60	6146.25
530.77	6211.78
530.94	6258.59
531.11	6120.50
531.28	6202.42
531.46	6087.73
531.63	6150.93
531.80	6029.22
531.97	5977.73
532.14	5923.90
532.31	5605.58
532.48	5610.26
532.65	5444.09
532.82	5561.11
532.99	5748.36
533.16	6061.99
533.33	6277.32
533.50	6078.37
533.67	5839.64
533.84	5813.89
534.01	5795.17
534.18	5837.30
534.35	6094.76
534.52	5853.68
534.69	5830.27
534.86	6029.22
535.03	6047.94
535.20	6171.99
535.37	6303.06
535.54	6342.85
535.71	6118.16
535.88	6352.21
536.05	6033.90
536.22	6005.81
536.38	6038.58
536.55	5940.28
536.72	5748.36
536.89	5633.67
537.06	5760.06
537.23	5809.21
537.40	6008.16
537.57	6211.78
537.74	5989.43
537.91	6251.57
538.08	5944.96
538.25	6167.31
538.42	6176.67
538.59	5898.15
538.75	5947.30
538.92	5888.79
539.09	6005.81
539.26	5603.24
539.43	5790.49
539.60	5776.44
539.77	5860.70
539.94	5933.26
540.11	5844.32
540.28	5713.25
540.44	5717.93
540.61	5647.71
540.78	5760.06
540.95	5851.34
541.12	5956.66
541.29	6022.20
541.46	6356.90
541.62	6239.87
541.79	6291.36
541.96	6054.97
542.13	6005.81
542.30	6143.91
542.47	6214.12
542.63	6050.28
542.80	6087.73
542.97	6064.33
543.14	6040.92
543.31	5933.26
543.48	6106.46
543.64	6272.64
543.81	6429.45
543.98	6249.23
544.15	6118.16
544.32	6127.52
544.48	6090.07
544.65	6125.18
544.82	6359.24
544.99	6129.86
545.16	6274.98
545.32	5984.75
545.49	6445.84
545.66	6883.52
545.83	6916.28
546.00	6719.68
546.16	6282.00
546.33	6122.84
546.50	5991.77
546.67	5956.66
546.83	6143.91
547.00	6043.26
547.17	5851.34
547.34	5621.97
547.50	5678.14
547.67	5849.00
547.84	5839.64
548.00	5884.11
548.17	5856.02
548.34	6010.50
548.51	6057.31
548.67	5865.38
548.84	6099.44
549.01	5954.32
549.18	5774.10
549.34	6010.50
549.51	5926.24
549.68	5914.53
549.84	5977.73
550.01	5935.60
550.18	5870.06
550.34	5975.39
550.51	5724.95
550.68	5783.46
550.84	5647.71
551.01	5757.72
551.18	5755.38
551.34	5696.86
551.51	5940.28
551.68	5813.89
551.84	5774.10
552.01	5797.51
552.18	6026.88
552.34	5699.20
552.51	5636.01
552.68	5673.46
552.84	5699.20
553.01	5570.48
553.18	5692.18
553.34	5652.39
553.51	5586.86
553.67	6019.86
553.84	5849.00
554.01	5764.74
554.17	5682.82
554.34	5673.46
554.51	5860.70
554.67	5806.87
554.84	5699.20
555.00	5582.18
555.17	5687.50
555.33	5795.17
555.50	5659.42
555.67	5764.74
555.83	5593.88
556.00	5486.22
556.16	5703.89
556.33	5551.75
556.50	5682.82
556.66	5540.05
556.83	5568.13
556.99	5619.63
557.16	5565.79
557.32	5413.66
557.49	5619.63
557.65	5542.39
557.82	5481.53
557.98	5535.37
558.15	5434.72
558.32	5369.19
558.48	5139.82
558.65	5165.56
558.81	5259.18
558.98	5153.86
559.14	5128.11
559.31	5427.70
559.47	5376.21
559.64	5460.47
559.80	5294.29
559.97	5298.97
560.13	5446.43
560.30	5483.88
560.46	5551.75
560.63	5413.66
560.79	5603.24
560.96	5568.13
561.12	5406.64
561.29	5310.68
561.45	5121.09
561.61	5296.63
561.78	5446.43
561.94	5455.79
562.11	5270.89
562.27	5411.32
562.44	5327.06
562.60	5465.15
562.77	5488.56
562.93	5495.58
563.10	5530.69
563.26	5441.75
563.42	5427.70
563.59	5315.36
563.75	5259.18
563.92	5320.04
564.08	5317.70
564.24	5172.58
564.41	5268.55
564.57	5348.12
564.74	5212.37
564.90	5324.72
565.07	5181.95
565.23	5146.84
565.39	4980.66
565.56	5268.55
565.72	4999.38
565.88	5048.54
566.05	5022.79
566.21	5067.26
566.38	5057.90
566.54	5310.68
566.70	5235.78
566.87	5252.16
567.03	5277.91
567.19	5249.82
567.36	5057.90
567.52	5071.94
567.68	5093.01
567.85	5146.84
568.01	4943.21
568.17	4814.48
568.34	4648.30
568.50	4812.14
568.66	4854.27
568.83	4774.69
568.99	4901.08
569.15	4891.72
569.32	4952.57
569.48	5008.75
569.64	4784.06
569.81	4833.21
569.97	4891.72
570.13	4779.37
570.30	4833.21
570.46	4688.09
570.62	4751.29
570.78	4578.09
570.95	4580.43
571.11	4748.95
571.27	4805.12
571.43	4912.78
571.60	4767.67
571.76	4737.24
571.92	4905.76
572.09	4943.21
572.25	4896.40
572.41	4858.95
572.57	4835.55
572.74	4975.98
572.90	4765.33
573.06	4936.19
573.22	4985.34
573.38	4915.12
573.55	4889.38
573.71	4985.34
573.87	4887.04
574.03	4774.69
574.20	4723.20
574.36	4758.31
574.52	4713.84
574.68	4784.06
574.84	4842.57
575.01	4713.84
575.17	4648.30
575.33	4533.62
575.49	4624.90
575.65	4800.44
575.82	4781.71
575.98	4641.28
576.14	4510.21
576.30	4669.37
576.46	4821.50
576.62	5015.77
576.79	4943.21
576.95	4868.31
577.11	4730.22
577.27	4648.30
577.43	4622.56
577.59	4638.94
577.75	4580.43
577.92	4568.73
578.08	4554.68
578.24	4606.17
578.40	4479.79
578.56	4816.82
578.72	4847.25
578.88	4842.57
579.04	4807.46
579.21	4765.33
579.37	4528.94
579.53	4688.09
579.69	4805.12
579.85	4767.67
580.01	4938.53
580.17	4767.67
580.33	4751.29
580.49	4737.24
580.65	4552.34
580.82	4664.69
580.98	4720.86
581.14	4755.97
581.30	4784.06
581.46	4788.74
581.62	4744.27
581.78	4847.25
581.94	4873.00
582.10	4947.89
582.26	4889.38
582.42	4807.46
582.58	4849.59
582.74	4837.89
582.90	4816.82
583.06	4678.73
583.22	4734.90
583.38	4819.16
583.54	4732.56
583.70	4800.44
583.86	4830.87
584.02	4791.08
584.18	4849.59
584.34	4720.86
584.50	4858.95
584.66	4826.18
584.82	4489.15
584.98	4596.81
585.14	4571.07
585.30	4568.73
585.46	4578.09
585.62	4376.80
585.78	4454.04
585.94	4482.13
586.10	4484.47
586.26	4606.17
586.42	4484.47
586.58	4667.03
586.74	4648.30
586.90	4561.70
587.06	4559.36
587.22	4425.95
587.38	4341.69
587.54	4411.91
587.70	4337.01
587.86	4182.54
588.02	3995.29
588.18	3904.01
588.34	3831.46
588.49	3506.12
588.65	3293.13
588.81	3236.96
588.97	3290.79
589.13	3178.45
589.29	3286.11
589.45	3283.77
589.61	3332.92
589.77	3349.31
589.93	3524.85
590.08	3609.11
590.24	3794.01
590.40	4014.02
590.56	3859.54
590.72	3850.18
590.88	3801.03
591.04	3747.20
591.20	3859.54
591.35	3730.81
591.51	3726.13
591.67	3721.45
591.83	3719.11
591.99	3599.74
592.15	3803.37
592.31	3779.97
592.46	3929.76
592.62	4018.70
592.78	3896.99
592.94	4053.81
593.10	4018.70
593.26	4086.58
593.41	4091.26
593.57	3971.89
593.73	3974.23
593.89	3684.00
594.05	3639.53
594.20	3524.85
594.36	3599.74
594.52	3555.27
594.68	3435.91
594.84	3740.18
594.99	3995.29
595.15	3871.25
595.31	3957.85
595.47	3819.75
595.62	3850.18
595.78	3960.19
595.94	3976.57
596.10	4042.11
596.25	3765.92
596.41	3918.06
596.57	3735.50
596.73	3899.33
596.88	4095.94
597.04	4051.47
597.20	3932.10
597.36	3850.18
597.51	3873.59
597.67	3824.44
597.83	3803.37
