SpectraSuite Data File
++++++++++++++++++++++++++++++++++++
Date: Fri Oct 04 11:44:18 GMT-05:00 2013
User: price-jones
Dark Spectrum Present: No
Reference Spectrum Present: No
Number of Sampled Component Spectra: 1
Spectrometers: USB2+H05261
Integration Time (usec): 100000 (USB2+H05261)
Spectra Averaged: 1 (USB2+H05261)
Boxcar Smoothing: 0 (USB2+H05261)
Correct for Electrical Dark: No (USB2+H05261)
Strobe/Lamp Enabled: No (USB2+H05261)
Correct for Detector Non-linearity: No (USB2+H05261)
Correct for Stray Light: No (USB2+H05261)
Number of Pixels in Processed Spectrum: 2048
>>>>>Begin Processed Spectral Data<<<<<
365.73	7.02
365.92	7.02
366.12	7.02
366.32	0.00
366.52	0.00
366.72	0.00
366.91	0.00
367.11	0.00
367.31	0.00
367.51	0.00
367.70	0.00
367.90	0.00
368.10	0.00
368.30	0.00
368.49	0.00
368.69	0.00
368.89	0.00
369.09	0.00
369.28	2.34
369.48	9.36
369.68	0.00
369.87	9.36
370.07	11.70
370.27	0.00
370.47	128.73
370.66	463.43
370.86	650.67
371.06	664.71
371.25	720.88
371.45	521.94
371.65	559.39
371.84	608.54
372.04	521.94
372.24	603.86
372.44	683.44
372.63	603.86
372.83	620.24
373.03	564.07
373.22	440.02
373.42	547.69
373.62	660.03
373.81	645.99
374.01	641.31
374.21	557.05
374.40	599.18
374.60	568.75
374.79	608.54
374.99	704.50
375.19	781.74
375.38	772.38
375.58	730.25
375.78	723.23
375.97	706.84
376.17	807.48
376.37	755.99
376.56	770.04
376.76	809.83
376.95	678.76
377.15	912.81
377.35	856.64
377.54	868.34
377.74	929.19
377.93	933.87
378.13	901.11
378.33	898.77
378.52	805.14
378.72	873.02
378.91	802.80
379.11	706.84
379.31	676.41
379.50	755.99
379.70	870.68
379.89	849.61
380.09	877.70
380.28	870.68
380.48	931.53
380.68	854.30
380.87	898.77
381.07	772.38
381.26	835.57
381.46	781.74
381.65	725.57
381.85	716.20
382.04	620.24
382.24	657.69
382.43	653.01
382.63	568.75
382.83	592.16
383.02	573.43
383.22	706.84
383.41	608.54
383.61	727.91
383.80	676.41
384.00	821.53
384.19	880.04
384.39	898.77
384.58	884.72
384.78	856.64
384.97	877.70
385.17	784.08
385.36	819.19
385.56	849.61
385.75	805.14
385.95	868.34
386.14	1015.79
386.34	917.49
386.53	947.92
386.72	800.46
386.92	889.40
387.11	903.45
387.31	915.15
387.50	882.38
387.70	866.00
387.89	828.55
388.09	866.00
388.28	884.72
388.48	945.58
388.67	999.41
388.86	997.07
389.06	1020.47
389.25	1167.93
389.45	1149.20
389.64	1071.97
389.84	1128.14
390.03	1107.07
390.22	1188.99
390.42	1146.86
390.61	1219.42
390.81	1294.32
391.00	1242.82
391.19	1226.44
391.39	1214.74
391.58	1170.27
391.78	1123.46
391.97	1046.22
392.16	978.34
392.36	1020.47
392.55	851.96
392.75	622.58
392.94	592.16
393.13	573.43
393.33	641.31
393.52	744.29
393.71	856.64
393.91	1013.45
394.10	1004.09
394.29	1196.01
394.49	1144.52
394.68	1331.76
394.88	1390.28
395.07	1462.83
395.26	1334.11
395.46	1221.76
395.65	1200.69
395.84	1205.38
396.04	1081.33
396.23	819.19
396.42	723.23
396.62	702.16
396.81	781.74
397.00	915.15
397.19	1198.35
397.39	1247.51
397.58	1444.11
397.77	1467.52
397.97	1570.50
398.16	1572.84
398.35	1629.01
398.55	1549.43
398.74	1778.81
398.93	1790.51
399.12	1851.36
399.32	1769.44
399.51	1715.61
399.70	1952.01
399.90	1942.64
400.09	1846.68
400.28	1818.60
400.47	1774.13
400.67	1891.15
400.86	1853.70
401.05	1874.77
401.24	2054.99
401.44	1949.67
401.63	1942.64
401.82	2073.71
402.01	1963.71
402.21	2033.93
402.40	2052.65
402.59	1933.28
402.78	1935.62
402.97	1921.58
403.17	1851.36
403.36	1996.48
403.55	2099.46
403.74	2289.04
403.93	2265.64
404.13	2450.54
404.32	2586.29
404.51	2647.15
404.70	2401.39
404.89	2169.68
405.09	2111.16
405.28	1970.73
405.47	1949.67
405.66	2017.54
405.85	1937.96
406.05	1942.64
406.24	1884.13
406.43	1996.48
406.62	2012.86
406.81	2038.61
407.00	1928.60
407.20	1998.82
407.39	2052.65
407.58	2181.38
407.77	2279.68
407.96	2155.63
408.15	2139.25
408.34	2230.53
408.54	2363.94
408.73	2310.11
408.92	2195.42
409.11	2200.10
409.30	2106.48
409.49	1987.11
409.68	1947.33
409.87	1844.34
410.07	1874.77
410.26	2094.78
410.45	2195.42
410.64	2284.36
410.83	2319.47
411.02	2356.92
411.21	2581.61
411.40	2340.54
411.59	2483.31
411.78	2427.14
411.98	2284.36
412.17	2356.92
412.36	2340.54
412.55	2356.92
412.74	2340.54
412.93	2312.45
413.12	2310.11
413.31	2532.46
413.50	2614.38
413.69	2490.33
413.88	2478.63
414.07	2406.07
414.26	2338.20
414.45	2541.82
414.64	2476.29
414.83	2427.14
415.02	2401.39
415.22	2457.56
415.41	2532.46
415.60	2445.86
415.79	2616.72
415.98	2803.96
416.17	2715.02
416.36	2675.23
416.55	2684.59
416.74	2562.89
416.93	2415.43
417.12	2539.48
417.31	2555.86
417.50	2560.55
417.69	2668.21
417.88	2466.92
418.07	2462.24
418.26	2520.76
418.45	2464.58
418.64	2740.77
418.83	2726.72
419.02	2698.64
419.21	2700.98
419.39	2597.99
419.58	2445.86
419.77	2504.37
419.96	2623.74
420.15	2724.38
420.34	2715.02
420.53	2855.45
420.72	2867.16
420.91	2850.77
421.10	2839.07
421.29	2801.62
421.48	2822.69
421.67	2860.13
421.86	2745.45
422.05	2689.28
422.24	2506.71
422.43	2382.67
422.61	2565.23
422.80	2724.38
422.99	2789.92
423.18	2705.66
423.37	2708.00
423.56	2703.32
423.75	2668.21
423.94	2684.59
424.13	2485.65
424.32	2562.89
424.50	2672.89
424.69	2602.68
424.88	2628.42
425.07	2567.57
425.26	2583.95
425.45	2609.70
425.64	2389.69
425.83	2553.52
426.01	2628.42
426.20	2637.78
426.39	2668.21
426.58	2495.01
426.77	2394.37
426.96	2333.51
427.15	2347.56
427.33	2490.33
427.52	2520.76
427.71	2602.68
427.90	2705.66
428.09	2602.68
428.28	2490.33
428.46	2480.97
428.65	2431.82
428.84	2490.33
429.03	2534.80
429.22	2399.05
429.40	2293.72
429.59	2057.33
429.78	1933.28
429.97	1891.15
430.16	1902.86
430.34	1825.62
430.53	1727.32
430.72	1952.01
430.91	2115.84
431.10	2492.67
431.28	2808.64
431.47	2998.23
431.66	3014.61
431.85	2792.26
432.03	2537.14
432.22	2525.44
432.41	2654.17
432.60	2909.29
432.79	2979.50
432.97	3000.57
433.16	2977.16
433.35	2658.85
433.54	2504.37
433.72	2429.48
433.91	2401.39
434.10	2679.91
434.28	2960.78
434.47	2822.69
434.66	2965.46
434.85	2836.73
435.03	3169.09
435.22	4170.83
435.41	6012.84
435.59	6661.16
435.78	5413.66
435.97	4386.16
436.16	3564.64
436.34	3197.17
436.53	3178.45
436.72	3133.98
436.90	2977.16
437.09	3007.59
437.28	2923.33
437.46	3000.57
437.65	2918.65
437.84	2818.00
438.02	2527.78
438.21	2597.99
438.40	2733.75
438.58	2855.45
438.77	3103.55
438.96	2932.69
439.14	3016.95
439.33	3110.57
439.52	3295.47
439.70	3164.40
439.89	2974.82
440.08	3059.08
440.26	3068.44
440.45	3045.04
440.63	3267.39
440.82	3494.42
441.01	3356.33
441.19	3251.00
441.38	3314.20
441.57	3400.80
441.75	3545.91
441.94	3660.60
442.12	3557.61
442.31	3658.26
442.50	3506.12
442.68	3370.37
442.87	3471.01
443.05	3461.65
443.24	3475.70
443.43	3618.47
443.61	3597.40
443.80	3735.50
443.98	3510.80
444.17	3403.14
444.35	3772.94
444.54	3826.78
444.73	3653.58
444.91	3506.12
445.10	3258.03
445.28	3246.32
445.47	3173.77
445.65	3286.11
445.84	3318.88
446.02	3515.48
446.21	3548.25
446.39	3578.68
446.58	3695.71
446.77	3616.13
446.95	3468.67
447.14	3644.21
447.32	3695.71
447.51	3751.88
447.69	3524.85
447.88	3559.95
448.06	3646.55
448.25	3674.64
448.43	3515.48
448.62	3590.38
448.80	3529.53
448.99	3658.26
449.17	3634.85
449.36	3578.68
449.54	3768.26
449.73	3833.80
449.91	3908.69
450.10	3983.59
450.28	4095.94
450.46	3941.46
450.65	4063.17
450.83	3962.53
451.02	3985.93
451.20	3833.80
451.39	3941.46
451.57	3824.44
451.76	3845.50
451.94	3831.46
452.13	3796.35
452.31	3763.58
452.49	3503.78
452.68	3529.53
452.86	3499.10
453.05	3616.13
453.23	3557.61
453.42	3688.68
453.60	3784.65
453.78	3772.94
453.97	3679.32
454.15	3735.50
454.34	3609.11
454.52	3555.27
454.70	3569.32
454.89	3604.42
455.07	3639.53
455.26	3873.59
455.44	3908.69
455.62	3936.78
455.81	3906.35
455.99	3948.48
456.17	3744.86
456.36	3822.09
456.54	3920.40
456.73	4014.02
456.91	4058.49
457.09	4098.28
457.28	4088.92
457.46	4044.45
457.64	4077.21
457.83	3819.75
458.01	3653.58
458.19	3941.46
458.38	4016.36
458.56	4056.15
458.74	4044.45
458.93	3864.22
459.11	3871.25
459.29	3770.60
459.48	3913.38
459.66	3976.57
459.84	3889.97
460.03	4016.36
460.21	3911.04
460.39	4065.51
460.57	4095.94
460.76	4147.43
460.94	4184.88
461.12	4042.11
461.31	4271.48
461.49	4065.51
461.67	3904.01
461.85	4016.36
462.04	4173.18
462.22	4517.23
462.40	4259.78
462.59	4142.75
462.77	4159.13
462.95	4215.30
463.13	4035.08
463.32	4028.06
463.50	4063.17
463.68	4042.11
463.86	4011.68
464.05	4095.94
464.23	4009.34
464.41	3845.50
464.59	3744.86
464.78	4042.11
464.96	3936.78
465.14	3990.61
465.32	4065.51
465.50	4280.84
465.69	4187.22
465.87	4114.66
466.05	3960.19
466.23	3737.84
466.41	3730.81
466.60	3775.28
466.78	3761.24
466.96	3845.50
467.14	3971.89
467.32	3868.91
467.51	3925.08
467.69	3922.74
467.87	3925.08
468.05	4021.04
468.23	3981.25
468.41	3854.86
468.60	4074.87
468.78	3939.12
468.96	4009.34
469.14	4126.36
469.32	4009.34
469.50	3999.98
469.69	3927.42
469.87	3946.14
470.05	3967.21
470.23	3819.75
470.41	3822.09
470.59	3831.46
470.77	3852.52
470.95	3838.48
471.14	3971.89
471.32	4004.66
471.50	4217.65
471.68	4379.14
471.86	4311.27
472.04	4411.91
472.22	4341.69
472.40	4112.32
472.58	3974.23
472.77	3939.12
472.95	4128.70
473.13	4140.41
473.31	4124.02
473.49	4138.07
473.67	4201.26
473.85	4194.24
474.03	4409.57
474.21	4360.42
474.39	4358.08
474.57	4545.32
474.75	4461.06
474.93	4421.27
475.12	4208.28
475.30	4318.29
475.48	4224.67
475.66	4435.32
475.84	4365.10
476.02	4236.37
476.20	4337.01
476.38	4142.75
476.56	4512.55
476.74	4547.66
476.92	4482.13
477.10	4592.13
477.28	4695.11
477.46	4695.11
477.64	4706.82
477.82	4652.98
478.00	4784.06
478.18	4821.50
478.36	4676.39
478.54	4671.71
478.72	4678.73
478.90	4814.48
479.08	4978.32
479.26	4805.12
479.44	5025.13
479.62	5151.52
479.80	4980.66
479.98	4973.64
480.16	5055.56
480.34	5144.50
480.52	5081.30
480.70	5188.97
480.88	5046.20
481.06	5191.31
481.24	5205.35
481.41	5556.43
481.59	5296.63
481.77	5383.23
481.95	5163.22
482.13	5240.46
482.31	5198.33
482.49	5383.23
482.67	5305.99
482.85	5570.48
483.03	5495.58
483.21	5657.07
483.39	5680.48
483.57	5483.88
483.74	5448.77
483.92	5551.75
484.10	5378.55
484.28	5640.69
484.46	5881.77
484.64	5792.83
484.82	5673.46
485.00	5715.59
485.18	5610.26
485.35	5270.89
485.53	5022.79
485.71	4690.43
485.89	4610.86
486.07	4807.46
486.25	5280.25
486.43	5474.51
486.61	5640.69
486.78	5465.15
486.96	5696.86
487.14	5942.62
487.32	5870.06
487.50	6066.67
487.68	6223.48
487.85	6239.87
488.03	6305.40
488.21	6387.32
488.39	6146.25
488.57	6012.84
488.75	5944.96
488.92	6265.61
489.10	6511.37
489.28	6635.42
489.46	6792.23
489.64	6825.00
489.81	6855.43
489.99	6799.26
490.17	6586.27
490.35	7087.14
490.53	6738.40
490.70	6712.66
490.88	6497.33
491.06	6867.13
491.24	6960.75
491.41	6792.23
491.59	6455.20
491.77	6368.60
491.95	6190.72
492.13	6476.26
492.30	6771.17
492.48	6977.14
492.66	7101.19
492.84	7325.88
493.01	7016.93
493.19	6902.24
493.37	7000.54
493.54	6696.27
493.72	6874.15
493.90	7279.07
494.08	7363.33
494.25	7468.65
494.43	7475.67
494.61	7592.70
494.79	7417.16
494.96	7534.18
495.14	7478.01
495.32	7080.12
495.49	7021.61
495.67	7180.76
495.85	7389.07
496.02	7700.36
496.20	7480.35
496.38	7353.96
496.55	7386.73
496.73	7527.16
496.91	7679.30
497.09	7658.23
497.26	7868.88
497.44	7737.81
497.62	7506.10
497.79	7407.80
497.97	7066.08
498.14	7059.06
498.32	7475.67
498.50	7407.80
498.67	7618.44
498.85	7676.96
499.03	7613.76
499.20	7653.55
499.38	7648.87
499.56	7756.54
499.73	7552.91
499.91	7454.61
500.08	7337.58
500.26	7110.55
500.44	7208.85
500.61	7543.55
500.79	7293.11
500.97	7218.21
501.14	7129.27
501.32	7241.62
501.49	7138.63
501.67	7304.81
501.84	7290.77
502.02	7473.33
502.20	7557.59
502.37	7419.50
502.55	7473.33
502.72	7578.65
502.90	7655.89
503.07	7405.46
503.25	7363.33
503.43	7040.33
503.60	6693.93
503.78	6616.69
503.95	6715.00
504.13	7103.53
504.30	7674.62
504.48	7674.62
504.65	7482.69
504.83	7674.62
505.01	7583.34
505.18	7686.32
505.36	7723.77
505.53	7857.18
505.71	7866.54
505.88	8044.42
506.06	7943.78
506.23	7723.77
506.41	7475.67
506.58	7499.08
506.76	7662.91
506.93	7557.59
507.11	7449.93
507.28	7459.29
507.46	7536.52
507.63	7410.14
507.81	7213.53
507.98	7248.64
508.16	7520.14
508.33	7665.25
508.50	7978.89
508.68	7772.92
508.85	8147.40
509.03	8018.68
509.20	8056.12
509.38	7817.39
509.55	7618.44
509.73	7557.59
509.90	7915.69
510.08	7660.57
510.25	7908.67
510.42	7920.37
510.60	7873.56
510.77	8072.51
510.95	8145.06
511.12	7953.14
511.30	8217.62
511.47	8145.06
511.64	8245.71
511.82	8194.22
511.99	8002.29
512.17	8009.31
512.34	7908.67
512.51	7840.79
512.69	7726.11
512.86	7899.31
513.04	7971.86
513.21	8006.97
513.38	7911.01
513.56	7681.64
513.73	7461.63
513.90	7609.08
514.08	7637.17
514.25	7747.17
514.43	7859.52
514.60	7857.18
514.77	7826.75
514.95	7843.14
515.12	7815.05
515.29	7786.96
515.47	8210.60
515.64	8266.77
515.81	7932.08
515.99	7798.66
516.16	7585.68
516.33	7066.08
516.51	6654.14
516.68	6513.71
516.85	6335.83
517.03	6572.22
517.20	6796.92
517.37	7538.87
517.54	7990.59
517.72	7770.58
517.89	7307.15
518.06	6609.67
518.24	6736.06
518.41	7162.04
518.58	7442.90
518.75	7522.48
518.93	7555.25
519.10	7581.00
519.27	7892.29
519.45	7756.54
519.62	8002.29
519.79	8013.99
519.96	7920.37
520.14	7950.80
520.31	7667.60
520.48	7733.13
520.65	7824.41
520.83	7957.82
521.00	8131.02
521.17	8074.85
521.34	7772.92
521.52	8016.33
521.69	8187.19
521.86	8203.58
522.03	8489.12
522.20	7960.16
522.38	7552.91
522.55	7623.12
522.72	7941.44
522.89	7646.53
523.07	8098.25
523.24	7903.99
523.41	7988.25
523.58	8369.76
523.75	8376.78
523.92	8472.74
524.10	8135.70
524.27	8348.69
524.44	8187.19
524.61	8222.30
524.78	8011.65
524.96	8039.74
525.13	8046.76
525.30	8140.38
525.47	8264.43
525.64	8336.99
525.81	8266.77
525.98	7822.07
526.16	7323.54
526.33	7300.13
526.50	7145.66
526.67	6930.33
526.84	7110.55
527.01	7389.07
527.18	7669.94
527.36	8060.80
527.53	7899.31
527.70	8145.06
527.87	8018.68
528.04	7906.33
528.21	7941.44
528.38	8229.32
528.55	8402.52
528.72	8486.78
528.89	8732.54
529.07	8463.38
529.24	8264.43
529.41	8159.11
529.58	7934.42
529.75	7978.89
529.92	8093.57
530.09	8351.03
530.26	8397.84
530.43	8299.54
530.60	8446.99
530.77	8425.93
530.94	8510.19
531.11	8437.63
531.28	8163.79
531.46	8280.82
531.63	8306.56
531.80	8304.22
531.97	8147.40
532.14	7772.92
532.31	7819.73
532.48	7616.10
532.65	7646.53
532.82	7669.94
532.99	7915.69
533.16	8283.16
533.33	8154.43
533.50	8416.57
533.67	8077.19
533.84	7882.92
534.01	8107.62
534.18	7990.59
534.35	8006.97
534.52	8210.60
534.69	8212.94
534.86	8360.39
535.03	8411.89
535.20	8512.53
535.37	8552.32
535.54	8772.33
535.71	8557.00
535.88	8606.15
536.05	8271.45
536.22	8070.17
536.38	8124.00
536.55	7892.29
536.72	7957.82
536.89	7768.24
537.06	7950.80
537.23	8454.02
537.40	8589.77
537.57	8439.97
537.74	8496.14
537.91	8505.51
538.08	8519.55
538.25	8601.47
538.42	8552.32
538.59	8386.14
538.75	8280.82
538.92	8320.60
539.09	8222.30
539.26	8528.91
539.43	8446.99
539.60	8425.93
539.77	8475.08
539.94	8774.67
540.11	8718.50
540.28	8613.17
540.44	8706.79
540.61	8980.64
540.78	9036.81
540.95	9909.83
541.12	10136.86
541.29	10373.25
541.46	10836.68
541.62	10736.04
541.79	10539.43
541.96	10312.40
542.13	9998.77
542.30	10052.60
542.47	9898.13
542.63	9781.10
542.80	9717.90
542.97	9715.56
543.14	9544.70
543.31	9364.48
543.48	9797.48
543.64	10001.11
543.81	10150.90
543.98	9987.07
544.15	9928.55
544.32	9816.21
544.48	9825.57
544.65	9795.14
544.82	9731.95
544.99	10076.01
545.16	9926.21
545.32	9776.42
545.49	11054.35
545.66	14253.86
545.83	16449.28
546.00	15440.51
546.16	12725.49
546.33	11267.34
546.50	10597.95
546.67	9891.10
546.83	9554.07
547.00	9509.60
547.17	9053.19
547.34	8861.27
547.50	9013.40
547.67	8872.97
547.84	8910.42
548.00	9004.04
548.17	9116.39
548.34	9004.04
548.51	8905.74
548.67	9142.13
548.84	9078.94
549.01	9022.77
549.18	8791.05
549.34	8681.05
549.51	8549.98
549.68	8493.80
549.84	8629.56
550.01	8620.19
550.18	8606.15
550.34	8407.20
550.51	8428.27
550.68	8313.58
550.84	8255.07
551.01	8318.26
551.18	8053.78
551.34	8306.56
551.51	8425.93
551.68	8425.93
551.84	8393.16
552.01	8201.24
552.18	8116.98
552.34	8018.68
552.51	7695.68
552.68	7962.50
552.84	7955.48
553.01	7815.05
553.18	8264.43
553.34	7805.69
553.51	7922.71
553.67	8074.85
553.84	8138.04
554.01	8084.21
554.17	7911.01
554.34	8021.02
554.51	7948.46
554.67	8107.62
554.84	7850.16
555.00	7906.33
555.17	7791.64
555.33	7793.98
555.50	7583.34
555.67	7585.68
555.83	7616.10
556.00	7709.72
556.16	7808.03
556.33	7637.17
556.50	7548.23
556.66	7461.63
556.83	7260.34
556.99	7431.20
557.16	7389.07
557.32	7379.71
557.49	7466.31
557.65	7456.95
557.82	7538.87
557.98	7478.01
558.15	7581.00
558.32	7145.66
558.48	7012.24
558.65	6965.43
558.81	6951.39
558.98	7105.87
559.14	7236.94
559.31	7246.30
559.47	7229.91
559.64	7096.50
559.80	6991.18
559.97	7115.23
560.13	7234.60
560.30	7412.48
560.46	7562.27
560.63	7541.21
560.79	7648.87
560.96	7414.82
561.12	7220.55
561.29	7140.97
561.45	7119.91
561.61	7075.44
561.78	7321.20
561.94	7204.17
562.11	7194.81
562.27	7241.62
562.44	7176.08
562.60	7279.07
562.77	7358.64
562.93	7272.04
563.10	7229.91
563.26	6967.77
563.42	7239.28
563.59	7094.16
563.75	6970.12
563.92	7192.47
564.08	7080.12
564.24	7145.66
564.41	7115.23
564.57	7258.00
564.74	7077.78
564.90	7066.08
565.07	7033.31
565.23	6923.30
565.39	6988.84
565.56	6780.53
565.72	6825.00
565.88	6647.12
566.05	6881.18
566.21	7028.63
566.38	6930.33
566.54	6935.01
566.70	6853.09
566.87	7243.96
567.03	6885.86
567.19	7070.76
567.36	7124.59
567.52	6815.64
567.68	6899.90
567.85	6553.50
568.01	6672.87
568.17	6377.96
568.34	6373.28
568.50	6366.26
568.66	6340.51
568.83	6548.82
568.99	6452.86
569.15	6509.03
569.32	6588.61
569.48	6319.45
569.64	6356.90
569.81	6403.71
569.97	6394.34
570.13	6612.01
570.30	6466.90
570.46	6265.61
570.62	6047.94
570.78	6260.93
570.95	6211.78
571.11	6354.55
571.27	6520.73
571.43	6221.14
571.60	6469.24
571.76	6558.18
571.92	6207.10
572.09	6471.58
572.25	6553.50
572.41	6476.26
572.57	6455.20
572.74	6476.26
572.90	6434.13
573.06	6455.20
573.22	6502.01
573.38	6497.33
573.55	6392.00
573.71	6473.92
573.87	6480.94
574.03	6342.85
574.20	6394.34
574.36	6249.23
574.52	6265.61
574.68	6253.91
574.84	6246.89
575.01	6380.30
575.17	6237.53
575.33	6291.36
575.49	6408.39
575.65	6359.24
575.82	6258.59
575.98	6232.85
576.14	6377.96
576.30	6338.17
576.46	7012.24
576.62	7669.94
576.79	8074.85
576.95	7321.20
577.11	6939.69
577.27	6686.91
577.43	6436.47
577.59	6422.43
577.75	6328.81
577.92	6043.26
578.08	5907.51
578.24	6019.86
578.40	6052.63
578.56	6867.13
578.72	7110.55
578.88	7459.29
579.04	7440.56
579.21	6820.32
579.37	6684.57
579.53	6392.00
579.69	6413.07
579.85	6698.61
580.01	6764.15
580.17	6710.32
580.33	6649.46
580.49	6602.65
580.65	6558.18
580.82	6637.76
580.98	6516.05
581.14	6420.09
581.30	6555.84
581.46	6502.01
581.62	6698.61
581.78	6722.02
581.94	6782.87
582.10	6796.92
582.26	6771.17
582.42	6806.28
582.58	6825.00
582.74	6927.99
582.90	6904.58
583.06	6825.00
583.22	6623.72
583.38	6778.19
583.54	6581.59
583.70	6661.16
583.86	6794.58
584.02	6689.25
584.18	6754.79
584.34	6494.99
584.50	6722.02
584.66	6602.65
584.82	6612.01
584.98	6626.06
585.14	6511.37
585.30	6345.19
585.46	6251.57
585.62	6349.87
585.78	6417.75
585.94	6377.96
586.10	6307.74
586.26	6380.30
586.42	6420.09
586.58	6537.12
586.74	6616.69
586.90	6890.54
587.06	6911.60
587.22	6743.08
587.38	6480.94
587.54	6490.31
587.70	6296.04
587.86	5832.62
588.02	5696.86
588.18	5542.39
588.34	5184.29
588.49	4865.97
588.65	4681.07
588.81	4447.02
588.97	4650.64
589.13	4664.69
589.29	4372.12
589.45	4472.76
589.61	4674.05
589.77	4882.36
589.93	4912.78
590.08	5184.29
590.24	5329.40
590.40	5308.34
590.56	5387.91
590.72	5322.38
590.88	5315.36
591.04	5322.38
591.20	5132.79
591.35	5186.63
591.51	5137.48
591.67	5055.56
591.83	5090.67
591.99	5289.61
592.15	5327.06
592.31	5420.68
592.46	5902.83
592.62	5706.23
592.78	5839.64
592.94	5823.25
593.10	5905.17
593.26	5919.21
593.41	6017.52
593.57	5724.95
593.73	5502.60
593.89	5362.17
594.05	5018.11
594.20	4868.31
594.36	4751.29
594.52	4739.58
594.68	4898.74
594.84	5020.45
594.99	5280.25
595.15	5455.79
595.31	5413.66
595.47	5315.36
595.62	5165.56
595.78	5474.51
595.94	5451.11
596.10	5495.58
596.25	5350.46
596.41	5132.79
596.57	5228.76
596.73	5228.76
596.88	5245.14
597.04	5364.51
597.20	5291.95
597.36	5303.65
