SpectraSuite Data File
++++++++++++++++++++++++++++++++++++
Date: Fri Oct 04 11:44:20 GMT-05:00 2013
User: price-jones
Dark Spectrum Present: No
Reference Spectrum Present: No
Number of Sampled Component Spectra: 1
Spectrometers: USB2+H05261
Integration Time (usec): 100000 (USB2+H05261)
Spectra Averaged: 1 (USB2+H05261)
Boxcar Smoothing: 0 (USB2+H05261)
Correct for Electrical Dark: No (USB2+H05261)
Strobe/Lamp Enabled: No (USB2+H05261)
Correct for Detector Non-linearity: No (USB2+H05261)
Correct for Stray Light: No (USB2+H05261)
Number of Pixels in Processed Spectrum: 2048
>>>>>Begin Processed Spectral Data<<<<<
365.73	4.68
365.92	4.68
366.12	4.68
366.32	0.00
366.52	0.00
366.72	0.00
366.91	0.00
367.11	0.00
367.31	0.00
367.51	0.00
367.70	0.00
367.90	0.00
368.10	0.00
368.30	0.00
368.49	0.00
368.69	0.00
368.89	0.00
369.09	0.00
369.28	0.00
369.48	0.00
369.68	18.72
369.87	0.00
370.07	0.00
370.27	0.00
370.47	72.56
370.66	271.50
370.86	320.65
371.06	383.85
371.25	395.55
371.45	257.46
371.65	369.80
371.84	294.91
372.04	311.29
372.24	395.55
372.44	393.21
372.63	404.91
372.83	479.81
373.03	306.61
373.22	290.23
373.42	250.44
373.62	402.57
373.81	379.17
374.01	383.85
374.21	320.65
374.40	348.74
374.60	365.12
374.79	320.65
374.99	407.25
375.19	404.91
375.38	428.32
375.58	514.92
375.78	423.64
375.97	521.94
376.17	449.38
376.37	451.72
376.56	468.11
376.76	482.15
376.95	447.04
377.15	596.84
377.35	582.79
377.54	601.52
377.74	580.45
377.93	575.77
378.13	540.66
378.33	624.92
378.52	505.56
378.72	580.45
378.91	500.87
379.11	461.09
379.31	498.53
379.50	489.17
379.70	535.98
379.89	479.81
380.09	402.57
380.28	571.09
380.48	596.84
380.68	482.15
380.87	454.06
381.07	425.98
381.26	437.68
381.46	468.11
381.65	425.98
381.85	425.98
382.04	411.93
382.24	482.15
382.43	365.12
382.63	362.78
382.83	355.76
383.02	411.93
383.22	512.58
383.41	390.87
383.61	374.49
383.80	379.17
384.00	472.79
384.19	538.32
384.39	573.43
384.58	507.90
384.78	491.51
384.97	526.62
385.17	493.85
385.36	514.92
385.56	594.50
385.75	435.34
385.95	500.87
386.14	561.73
386.34	503.22
386.53	489.17
386.72	535.98
386.92	594.50
387.11	538.32
387.31	575.77
387.50	559.39
387.70	528.96
387.89	447.04
388.09	566.41
388.28	505.56
388.48	468.11
388.67	531.30
388.86	557.05
389.06	638.97
389.25	660.03
389.45	631.94
389.64	620.24
389.84	732.59
390.03	648.33
390.22	648.33
390.42	676.41
390.61	655.35
390.81	716.20
391.00	802.80
391.19	840.25
391.39	695.14
391.58	713.86
391.78	594.50
391.97	634.29
392.16	641.31
392.36	578.11
392.55	500.87
392.75	379.17
392.94	320.65
393.13	463.43
393.33	416.62
393.52	512.58
393.71	615.56
393.91	634.29
394.10	638.97
394.29	641.31
394.49	723.23
394.68	723.23
394.88	851.96
395.07	861.32
395.26	828.55
395.46	702.16
395.65	730.25
395.84	681.10
396.04	688.12
396.23	486.83
396.42	475.13
396.62	496.19
396.81	505.56
397.00	519.60
397.19	746.63
397.39	763.01
397.58	884.72
397.77	929.19
397.97	954.94
398.16	978.34
398.35	1008.77
398.55	992.39
398.74	992.39
398.93	1102.39
399.12	994.73
399.32	1043.88
399.51	1008.77
399.70	1074.31
399.90	1034.52
400.09	1036.86
400.28	1090.69
400.47	1151.54
400.67	1156.22
400.86	1212.40
401.05	1191.33
401.24	1217.08
401.44	1254.53
401.63	1193.67
401.82	1191.33
402.01	1196.01
402.21	1226.44
402.40	1163.25
402.59	1090.69
402.78	1158.57
402.97	1128.14
403.17	1081.33
403.36	1153.88
403.55	1235.80
403.74	1228.78
403.93	1128.14
404.13	1226.44
404.32	1198.35
404.51	1179.63
404.70	1181.97
404.89	1210.06
405.09	1228.78
405.28	1203.04
405.47	1266.23
405.66	1088.35
405.85	1226.44
406.05	1188.99
406.24	1172.61
406.43	1086.01
406.62	1167.93
406.81	1254.53
407.00	1184.31
407.20	1118.78
407.39	1181.97
407.58	1088.35
407.77	1235.80
407.96	1315.38
408.15	1334.11
408.34	1275.59
408.54	1364.53
408.73	1315.38
408.92	1320.06
409.11	1357.51
409.30	1268.57
409.49	1235.80
409.68	1095.37
409.87	1088.35
410.07	1156.22
410.26	1322.40
410.45	1252.19
410.64	1277.93
410.83	1299.00
411.02	1409.00
411.21	1341.13
411.40	1425.39
411.59	1462.83
411.78	1474.54
411.98	1355.17
412.17	1479.22
412.36	1352.83
412.55	1380.92
412.74	1383.26
412.93	1329.42
413.12	1383.26
413.31	1369.21
413.50	1490.92
413.69	1448.79
413.88	1495.60
414.07	1448.79
414.26	1458.15
414.45	1460.49
414.64	1455.81
414.83	1533.05
415.02	1373.89
415.22	1444.11
415.41	1535.39
415.60	1528.37
415.79	1603.27
415.98	1610.29
416.17	1509.65
416.36	1685.19
416.55	1521.35
416.74	1600.93
416.93	1516.67
417.12	1383.26
417.31	1488.58
417.50	1619.65
417.69	1579.86
417.88	1554.12
418.07	1535.39
418.26	1451.13
418.45	1533.05
418.64	1687.53
418.83	1579.86
419.02	1500.28
419.21	1600.93
419.39	1600.93
419.58	1453.47
419.77	1519.01
419.96	1528.37
420.15	1633.69
420.34	1629.01
420.53	1710.93
420.72	1743.70
420.91	1708.59
421.10	1645.40
421.29	1664.12
421.48	1661.78
421.67	1636.03
421.86	1652.42
422.05	1614.97
422.24	1446.45
422.43	1406.66
422.61	1521.35
422.80	1544.75
422.99	1596.25
423.18	1579.86
423.37	1607.95
423.56	1500.28
423.75	1533.05
423.94	1664.12
424.13	1568.16
424.32	1591.56
424.50	1528.37
424.69	1490.92
424.88	1542.41
425.07	1535.39
425.26	1500.28
425.45	1554.12
425.64	1455.81
425.83	1444.11
426.01	1547.09
426.20	1596.25
426.39	1565.82
426.58	1441.77
426.77	1432.41
426.96	1376.24
427.15	1397.30
427.33	1497.94
427.52	1458.15
427.71	1418.36
427.90	1556.46
428.09	1526.03
428.28	1416.02
428.46	1399.64
428.65	1509.65
428.84	1479.22
429.03	1437.09
429.22	1401.98
429.40	1350.49
429.59	1221.76
429.78	1184.31
429.97	1090.69
430.16	1086.01
430.34	1116.44
430.53	1160.91
430.72	1116.44
430.91	1287.29
431.10	1378.58
431.28	1652.42
431.47	1708.59
431.66	1760.08
431.85	1764.76
432.03	1610.29
432.22	1519.01
432.41	1481.56
432.60	1692.21
432.79	1701.57
432.97	1799.87
433.16	1678.16
433.35	1645.40
433.54	1511.99
433.72	1308.36
433.91	1406.66
434.10	1495.60
434.28	1654.76
434.47	1717.95
434.66	1799.87
434.85	1746.04
435.03	1654.76
435.22	1912.22
435.41	2064.35
435.59	2183.72
435.78	2043.29
435.97	1858.39
436.16	1905.20
436.34	1858.39
436.53	1809.23
436.72	1877.11
436.90	1753.06
437.09	1654.76
437.28	1722.63
437.46	1825.62
437.65	1675.82
437.84	1643.06
438.02	1638.38
438.21	1540.07
438.40	1603.27
438.58	1699.23
438.77	1792.85
438.96	1839.66
439.14	1696.89
439.33	1916.90
439.52	1928.60
439.70	1762.42
439.89	1797.53
440.08	1699.23
440.26	1734.34
440.45	1827.96
440.63	1923.92
440.82	2012.86
441.01	1905.20
441.19	1902.86
441.38	1907.54
441.57	2015.20
441.75	1982.43
441.94	2052.65
442.12	2019.88
442.31	1968.39
442.50	2073.71
442.68	1994.14
442.87	1970.73
443.05	2017.54
443.24	2050.31
443.43	2246.91
443.61	2122.87
443.80	2148.61
443.98	1935.62
444.17	2010.52
444.35	2176.70
444.54	2127.55
444.73	2111.16
444.91	2050.31
445.10	2019.88
445.28	1942.64
445.47	1863.07
445.65	1839.66
445.84	1748.38
446.02	2050.31
446.21	1973.07
446.39	2080.74
446.58	2099.46
446.77	2073.71
446.95	2101.80
447.14	2190.74
447.32	2183.72
447.51	2197.76
447.69	2111.16
447.88	2108.82
448.06	2223.51
448.25	2059.67
448.43	2143.93
448.62	2078.40
448.80	2071.37
448.99	2153.29
449.17	2104.14
449.36	2059.67
449.54	2183.72
449.73	2249.25
449.91	2253.94
450.10	2352.24
450.28	2307.77
450.46	2352.24
450.65	2218.83
450.83	2298.41
451.02	2230.53
451.20	2305.43
451.39	2197.76
451.57	2188.40
451.76	2085.42
451.94	2237.55
452.13	2265.64
452.31	2099.46
452.49	1952.01
452.68	2019.88
452.86	2045.63
453.05	2120.53
453.23	2160.31
453.42	2118.18
453.60	2232.87
453.78	2148.61
453.97	2223.51
454.15	2150.95
454.34	2059.67
454.52	2232.87
454.70	2260.96
454.89	2289.04
455.07	2169.68
455.26	2190.74
455.44	2324.15
455.62	2307.77
455.81	2438.84
455.99	2235.21
456.17	2211.81
456.36	2356.92
456.54	2401.39
456.73	2317.13
456.91	2307.77
457.09	2417.77
457.28	2361.60
457.46	2326.49
457.64	2277.34
457.83	2289.04
458.01	2179.04
458.19	2225.85
458.38	2319.47
458.56	2349.90
458.74	2382.67
458.93	2300.75
459.11	2272.66
459.29	2256.28
459.48	2204.78
459.66	2455.22
459.84	2244.57
460.03	2345.22
460.21	2317.13
460.39	2380.32
460.57	2345.22
460.76	2429.48
460.94	2368.62
461.12	2389.69
461.31	2396.71
461.49	2396.71
461.67	2335.85
461.85	2370.96
462.04	2457.56
462.22	2916.31
462.40	2473.95
462.59	2462.24
462.77	2392.03
462.95	2403.73
463.13	2377.98
463.32	2424.80
463.50	2410.75
463.68	2396.71
463.86	2392.03
464.05	2216.49
464.23	2338.20
464.41	2232.87
464.59	2251.60
464.78	2293.72
464.96	2317.13
465.14	2340.54
465.32	2382.67
465.50	2438.84
465.69	2436.50
465.87	2431.82
466.05	2359.26
466.23	2289.04
466.41	2256.28
466.60	2239.89
466.78	2326.49
466.96	2345.22
467.14	2237.55
467.32	2352.24
467.51	2392.03
467.69	2209.47
467.87	2340.54
468.05	2361.60
468.23	2406.07
468.41	2303.09
468.60	2253.94
468.78	2298.41
468.96	2291.38
469.14	2436.50
469.32	2490.33
469.50	2333.51
469.69	2237.55
469.87	2246.91
470.05	2148.61
470.23	2223.51
470.41	2356.92
470.59	2296.07
470.77	2296.07
470.95	2394.37
471.14	2340.54
471.32	2380.32
471.50	2661.19
471.68	2434.16
471.86	2462.24
472.04	2621.40
472.22	2574.59
472.40	2401.39
472.58	2443.52
472.77	2377.98
472.95	2382.67
473.13	2607.36
473.31	2483.31
473.49	2495.01
473.67	2485.65
473.85	2476.29
474.03	2544.16
474.21	2476.29
474.39	2518.42
474.57	2609.70
474.75	2637.78
474.93	2623.74
475.12	2539.48
475.30	2583.95
475.48	2506.71
475.66	2502.03
475.84	2448.20
476.02	2485.65
476.20	2445.86
476.38	2593.31
476.56	2527.78
476.74	2675.23
476.92	2546.50
477.10	2647.15
477.28	2792.26
477.46	2782.90
477.64	2761.83
477.82	2775.88
478.00	2796.94
478.18	2672.89
478.36	2738.43
478.54	2712.68
478.72	2773.53
478.90	2794.60
479.08	2897.58
479.26	2981.84
479.44	2949.08
479.62	2869.50
479.80	2801.62
479.98	3002.91
480.16	2993.55
480.34	2925.67
480.52	2892.90
480.70	3038.02
480.88	2984.18
481.06	2998.23
481.24	3094.19
481.41	3155.04
481.59	3159.72
481.77	3283.77
481.95	3110.57
482.13	3152.70
482.31	3009.93
482.49	3068.44
482.67	3089.51
482.85	3220.58
483.03	3164.40
483.21	3269.73
483.39	3124.62
483.57	3262.71
483.74	3218.24
483.92	3206.53
484.10	3141.00
484.28	3332.92
484.46	3375.05
484.64	3330.58
484.82	3117.59
485.00	3314.20
485.18	3157.38
485.35	3089.51
485.53	2911.63
485.71	2572.25
485.89	2532.46
486.07	2642.46
486.25	3016.95
486.43	3143.34
486.61	3253.34
486.78	3162.06
486.96	3122.27
487.14	3323.56
487.32	3281.43
487.50	3342.28
487.68	3541.23
487.85	3590.38
488.03	3562.30
488.21	3566.98
488.39	3492.08
488.57	3520.17
488.75	3339.94
488.92	3754.22
489.10	3749.54
489.28	3709.75
489.46	3950.82
489.64	3815.07
489.81	3887.63
489.99	3904.01
490.17	3791.67
490.35	3925.08
490.53	3948.48
490.70	3885.29
490.88	3819.75
491.06	3854.86
491.24	3934.44
491.41	3887.63
491.59	3548.25
491.77	3536.55
491.95	3574.00
492.13	3822.09
492.30	3918.06
492.48	3955.51
492.66	3957.85
492.84	4067.85
493.01	4016.36
493.19	4030.40
493.37	3978.91
493.54	3967.21
493.72	3995.29
493.90	3941.46
494.08	4126.36
494.25	4222.33
494.43	4285.52
494.61	4397.87
494.79	4351.06
494.96	4372.12
495.14	4339.35
495.32	4138.07
495.49	4131.05
495.67	4095.94
495.85	4465.74
496.02	4308.93
496.20	4386.16
496.38	4308.93
496.55	4241.05
496.73	4353.40
496.91	4322.97
497.09	4372.12
497.26	4451.70
497.44	4423.61
497.62	4346.37
497.79	4243.39
497.97	4241.05
498.14	4070.19
498.32	4093.60
498.50	4409.57
498.67	4444.68
498.85	4533.62
499.03	4472.76
499.20	4507.87
499.38	4369.78
499.56	4468.08
499.73	4381.48
499.91	4355.74
500.08	4250.41
500.26	4053.81
500.44	4264.46
500.61	4241.05
500.79	4411.91
500.97	4273.82
501.14	4269.14
501.32	4205.94
501.49	4304.25
501.67	4159.13
501.84	4271.48
502.02	4346.37
502.20	4306.59
502.37	4400.21
502.55	4311.27
502.72	4512.55
502.90	4540.64
503.07	4519.57
503.25	4234.03
503.43	4107.64
503.60	4126.36
503.78	3908.69
503.95	4128.70
504.13	4159.13
504.30	4514.89
504.48	4280.84
504.65	4561.70
504.83	4430.63
505.01	4615.54
505.18	4650.64
505.36	4713.84
505.53	4624.90
505.71	4589.79
505.88	4706.82
506.06	4781.71
506.23	4524.26
506.41	4456.38
506.58	4535.96
506.76	4344.03
506.93	4629.58
507.11	4449.36
507.28	4491.49
507.46	4500.85
507.63	4337.01
507.81	4353.40
507.98	4383.82
508.16	4435.32
508.33	4692.77
508.50	4603.83
508.68	4695.11
508.85	4849.59
509.03	4753.63
509.20	4788.74
509.38	4587.45
509.55	4592.13
509.73	4475.10
509.90	4699.80
510.08	4697.46
510.25	4697.46
510.42	4678.73
510.60	4641.28
510.77	4573.41
510.95	4940.87
511.12	4667.03
511.30	4865.97
511.47	5071.94
511.64	5088.32
511.82	4856.61
511.99	4814.48
512.17	4603.83
512.34	4671.71
512.51	4730.22
512.69	4624.90
512.86	4727.88
513.04	4748.95
513.21	4884.70
513.38	4695.11
513.56	4608.51
513.73	4482.13
513.90	4554.68
514.08	4582.77
514.25	4615.54
514.43	4683.41
514.60	4748.95
514.77	4643.62
514.95	4608.51
515.12	4781.71
515.29	4903.42
515.47	4826.18
515.64	4992.36
515.81	4983.00
515.99	4660.01
516.16	4547.66
516.33	4283.18
516.51	3962.53
516.68	3948.48
516.85	3723.79
517.03	3775.28
517.20	4058.49
517.37	4643.62
517.54	4861.29
517.72	4777.03
517.89	4325.31
518.06	4154.45
518.24	3908.69
518.41	4266.80
518.58	4440.00
518.75	4468.08
518.93	4362.76
519.10	4484.47
519.27	4533.62
519.45	4617.88
519.62	4596.81
519.79	4903.42
519.96	4875.34
520.14	4774.69
520.31	4582.77
520.48	4664.69
520.65	4706.82
520.83	4688.09
521.00	4699.80
521.17	4875.34
521.34	4807.46
521.52	4870.65
521.69	4943.21
521.86	5018.11
522.03	4971.30
522.20	4880.02
522.38	4449.36
522.55	4568.73
522.72	4629.58
522.89	4770.01
523.07	4748.95
523.24	4706.82
523.41	4931.51
523.58	4933.85
523.75	5093.01
523.92	4943.21
524.10	4985.34
524.27	5032.15
524.44	4992.36
524.61	5069.60
524.78	4966.62
524.96	4940.87
525.13	5060.24
525.30	5114.07
525.47	5083.64
525.64	5060.24
525.81	4950.23
525.98	4772.35
526.16	4428.29
526.33	4418.93
526.50	4329.99
526.67	4149.77
526.84	4175.52
527.01	4332.33
527.18	4594.47
527.36	4561.70
527.53	4898.74
527.70	5011.09
527.87	4985.34
528.04	4791.08
528.21	4795.76
528.38	4889.38
528.55	5025.13
528.72	5158.54
528.89	5090.67
529.07	5275.57
529.24	5025.13
529.41	4908.10
529.58	4718.52
529.75	4704.48
529.92	4870.65
530.09	4961.94
530.26	5057.90
530.43	5200.67
530.60	5188.97
530.77	5198.33
530.94	5226.42
531.11	5121.09
531.28	4961.94
531.46	4844.91
531.63	5139.82
531.80	4950.23
531.97	4898.74
532.14	4807.46
532.31	4828.53
532.48	4545.32
532.65	4470.42
532.82	4657.67
532.99	4875.34
533.16	5048.54
533.33	5179.61
533.50	4968.96
533.67	4908.10
533.84	4844.91
534.01	4896.40
534.18	4826.18
534.35	4826.18
534.52	5177.26
534.69	4950.23
534.86	4980.66
535.03	5027.47
535.20	5118.75
535.37	5123.43
535.54	5256.84
535.71	5263.86
535.88	5116.41
536.05	4983.00
536.22	5046.20
536.38	4905.76
536.55	4873.00
536.72	4760.65
536.89	4648.30
537.06	4851.93
537.23	4929.17
537.40	5015.77
537.57	5116.41
537.74	5008.75
537.91	5076.62
538.08	5022.79
538.25	4954.91
538.42	5004.07
538.59	4985.34
538.75	4973.64
538.92	4865.97
539.09	4819.16
539.26	4889.38
539.43	4861.29
539.60	4954.91
539.77	4744.27
539.94	4835.55
540.11	4774.69
540.28	4650.64
540.44	4636.60
540.61	4615.54
540.78	4599.15
540.95	4912.78
541.12	5043.85
541.29	4922.15
541.46	5240.46
541.62	5130.45
541.79	5004.07
541.96	5128.11
542.13	4865.97
542.30	5039.17
542.47	5132.79
542.63	5107.05
542.80	4980.66
542.97	5093.01
543.14	5036.83
543.31	4844.91
543.48	4999.38
543.64	5174.92
543.81	5245.14
543.98	5296.63
544.15	5184.29
544.32	4971.30
544.48	5107.05
544.65	5085.98
544.82	5125.77
544.99	5135.14
545.16	5055.56
545.32	4901.08
545.49	5408.98
545.66	5598.56
545.83	5659.42
546.00	5518.98
546.16	5235.78
546.33	5153.86
546.50	5144.50
546.67	5083.64
546.83	4919.81
547.00	5085.98
547.17	4908.10
547.34	4800.44
547.50	4695.11
547.67	4842.57
547.84	4814.48
548.00	4760.65
548.17	4793.42
548.34	4943.21
548.51	4945.55
548.67	5008.75
548.84	4887.04
549.01	5013.43
549.18	4961.94
549.34	4915.12
549.51	5050.88
549.68	4936.19
549.84	4863.63
550.01	4662.35
550.18	4975.98
550.34	4863.63
550.51	4835.55
550.68	4922.15
550.84	4795.76
551.01	4737.24
551.18	4767.67
551.34	4798.10
551.51	4936.19
551.68	4936.19
551.84	4950.23
552.01	4959.60
552.18	4863.63
552.34	4870.65
552.51	4669.37
552.68	4573.41
552.84	4734.90
553.01	4856.61
553.18	4779.37
553.34	4718.52
553.51	4800.44
553.67	4681.07
553.84	4896.40
554.01	4826.18
554.17	4758.31
554.34	4861.29
554.51	4685.75
554.67	4957.25
554.84	4793.42
555.00	4774.69
555.17	4706.82
555.33	4753.63
555.50	4816.82
555.67	4634.26
555.83	4816.82
556.00	4690.43
556.16	4751.29
556.33	4528.94
556.50	4660.01
556.66	4615.54
556.83	4526.60
556.99	4645.96
557.16	4660.01
557.32	4573.41
557.49	4447.02
557.65	4610.86
557.82	4547.66
557.98	4798.10
558.15	4559.36
558.32	4421.27
558.48	4355.74
558.65	4280.84
558.81	4379.14
558.98	4306.59
559.14	4454.04
559.31	4367.44
559.47	4458.72
559.64	4308.93
559.80	4308.93
559.97	4397.87
560.13	4421.27
560.30	4524.26
560.46	4748.95
560.63	4606.17
560.79	4575.75
560.96	4704.48
561.12	4571.07
561.29	4425.95
561.45	4498.51
561.61	4306.59
561.78	4559.36
561.94	4416.59
562.11	4418.93
562.27	4390.84
562.44	4449.36
562.60	4678.73
562.77	4690.43
562.93	4606.17
563.10	4367.44
563.26	4400.21
563.42	4486.81
563.59	4299.56
563.75	4395.53
563.92	4470.42
564.08	4533.62
564.24	4428.29
564.41	4367.44
564.57	4198.92
564.74	4393.19
564.90	4465.74
565.07	4507.87
565.23	4212.96
565.39	4271.48
565.56	4269.14
565.72	4145.09
565.88	4173.18
566.05	4269.14
566.21	4271.48
566.38	4315.95
566.54	4255.09
566.70	4280.84
566.87	4329.99
567.03	4304.25
567.19	4538.30
567.36	4255.09
567.52	4393.19
567.68	4362.76
567.85	4182.54
568.01	4011.68
568.17	4124.02
568.34	3971.89
568.50	3941.46
568.66	4037.42
568.83	4060.83
568.99	3948.48
569.15	4053.81
569.32	4077.21
569.48	3889.97
569.64	3985.93
569.81	3946.14
569.97	3946.14
570.13	4173.18
570.30	4084.23
570.46	3985.93
570.62	3967.21
570.78	3808.05
570.95	3901.67
571.11	3997.64
571.27	3936.78
571.43	3901.67
571.60	4098.28
571.76	4049.13
571.92	3824.44
572.09	4018.70
572.25	4177.86
572.41	4053.81
572.57	4074.87
572.74	4170.83
572.90	3999.98
573.06	3957.85
573.22	4142.75
573.38	4002.32
573.55	4042.11
573.71	4074.87
573.87	3953.16
574.03	3967.21
574.20	3904.01
574.36	3967.21
574.52	4007.00
574.68	3894.65
574.84	3892.31
575.01	3815.07
575.17	3763.58
575.33	3801.03
575.49	3878.27
575.65	3866.56
575.82	3927.42
575.98	3880.61
576.14	3920.40
576.30	3913.38
576.46	3997.64
576.62	4100.62
576.79	4126.36
576.95	4105.30
577.11	3887.63
577.27	4039.76
577.43	4004.66
577.59	3843.16
577.75	3845.50
577.92	3779.97
578.08	3805.71
578.24	3751.88
578.40	3953.16
578.56	3995.29
578.72	4007.00
578.88	4028.06
579.04	3882.95
579.21	4049.13
579.37	3964.87
579.53	3836.14
579.69	4081.89
579.85	4032.74
580.01	4107.64
580.17	4084.23
580.33	3974.23
580.49	3894.65
580.65	3922.74
580.82	4077.21
580.98	3829.12
581.14	3908.69
581.30	3976.57
581.46	3969.55
581.62	3859.54
581.78	3812.73
581.94	4032.74
582.10	4030.40
582.26	3971.89
582.42	4121.68
582.58	4086.58
582.74	4051.47
582.90	3915.72
583.06	3922.74
583.22	4046.79
583.38	4049.13
583.54	4025.72
583.70	4044.45
583.86	3889.97
584.02	3889.97
584.18	3906.35
584.34	4016.36
584.50	3939.12
584.66	3988.27
584.82	3913.38
584.98	3868.91
585.14	3840.82
585.30	3721.45
585.46	3700.39
585.62	3534.21
585.78	3742.52
585.94	3679.32
586.10	3929.76
586.26	3796.35
586.42	3786.99
586.58	3716.77
586.74	3850.18
586.90	3889.97
587.06	3822.09
587.22	3735.50
587.38	3730.81
587.54	3588.04
587.70	3648.90
587.86	3454.63
588.02	3229.94
588.18	3344.63
588.34	3267.39
588.49	2899.92
588.65	2778.22
588.81	2778.22
588.97	2794.60
589.13	2726.72
589.29	2689.28
589.45	2679.91
589.61	2750.13
589.77	2881.20
589.93	2979.50
590.08	3243.98
590.24	3077.80
590.40	3162.06
590.56	3105.89
590.72	3155.04
590.88	3103.55
591.04	3119.93
591.20	3101.21
591.35	3260.37
591.51	2981.84
591.67	3014.61
591.83	3122.27
591.99	3122.27
592.15	3075.46
592.31	3197.17
592.46	3335.26
592.62	3442.93
592.78	3461.65
592.94	3344.63
593.10	3351.65
593.26	3520.17
593.41	3529.53
593.57	3288.45
593.73	3183.13
593.89	3218.24
594.05	2995.89
594.20	3014.61
594.36	3077.80
594.52	3000.57
594.68	2939.71
594.84	3087.17
594.99	3206.53
595.15	3218.24
595.31	3311.86
595.47	3159.72
595.62	3204.19
595.78	3258.03
595.94	3452.29
596.10	3328.24
596.25	3262.71
596.41	3150.36
596.57	3122.27
596.73	3162.06
596.88	3255.69
597.04	3243.98
597.20	3215.90
597.36	3185.47
597.51	3215.90
597.67	3208.87
597.83	3323.56
597.99	3269.73
