SpectraSuite Data File
++++++++++++++++++++++++++++++++++++
Date: Fri Oct 04 11:44:14 GMT-05:00 2013
User: price-jones
Dark Spectrum Present: No
Reference Spectrum Present: No
Number of Sampled Component Spectra: 1
Spectrometers: USB2+H05261
Integration Time (usec): 100000 (USB2+H05261)
Spectra Averaged: 1 (USB2+H05261)
Boxcar Smoothing: 0 (USB2+H05261)
Correct for Electrical Dark: No (USB2+H05261)
Strobe/Lamp Enabled: No (USB2+H05261)
Correct for Detector Non-linearity: No (USB2+H05261)
Correct for Stray Light: No (USB2+H05261)
Number of Pixels in Processed Spectrum: 2048
>>>>>Begin Processed Spectral Data<<<<<
365.73	39.79
365.92	39.79
366.12	39.79
366.32	0.00
366.52	0.00
366.72	0.00
366.91	0.00
367.11	0.00
367.31	0.00
367.51	0.00
367.70	0.00
367.90	0.00
368.10	0.00
368.30	0.00
368.49	0.00
368.69	0.00
368.89	0.00
369.09	0.00
369.28	0.00
369.48	0.00
369.68	0.00
369.87	0.00
370.07	0.00
370.27	0.00
370.47	135.75
370.66	496.19
370.86	725.57
371.06	730.25
371.25	730.25
371.45	744.29
371.65	638.97
371.84	557.05
372.04	641.31
372.24	706.84
372.44	786.42
372.63	723.23
372.83	718.54
373.03	620.24
373.22	650.67
373.42	650.67
373.62	758.33
373.81	793.44
374.01	828.55
374.21	758.33
374.40	645.99
374.60	702.16
374.79	734.93
374.99	830.89
375.19	917.49
375.38	950.26
375.58	908.13
375.78	922.17
375.97	884.72
376.17	898.77
376.37	798.12
376.56	828.55
376.76	1020.47
376.95	999.41
377.15	1050.90
377.35	1123.46
377.54	1053.24
377.74	1165.59
377.93	1188.99
378.13	1130.48
378.33	1100.05
378.52	1025.15
378.72	933.87
378.91	1036.86
379.11	947.92
379.31	840.25
379.50	861.32
379.70	959.62
379.89	1069.62
380.09	999.41
380.28	1093.03
380.48	1076.65
380.68	997.07
380.87	992.39
381.07	1011.11
381.26	1008.77
381.46	968.98
381.65	866.00
381.85	816.85
382.04	760.67
382.24	812.17
382.43	770.04
382.63	709.18
382.83	669.39
383.02	758.33
383.22	713.86
383.41	697.48
383.61	763.01
383.80	880.04
384.00	884.72
384.19	1046.22
384.39	1100.05
384.58	1015.79
384.78	1004.09
384.97	1008.77
385.17	1057.92
385.36	992.39
385.56	983.02
385.75	1156.22
385.95	1013.45
386.14	1142.18
386.34	1149.20
386.53	1118.78
386.72	1036.86
386.92	1097.71
387.11	1121.12
387.31	1165.59
387.50	990.05
387.70	1034.52
387.89	1123.46
388.09	1078.99
388.28	1034.52
388.48	1067.28
388.67	1214.74
388.86	1256.87
389.06	1315.38
389.25	1345.81
389.45	1320.06
389.64	1439.43
389.84	1448.79
390.03	1401.98
390.22	1437.09
390.42	1331.76
390.61	1495.60
390.81	1526.03
391.00	1575.18
391.19	1612.63
391.39	1439.43
391.58	1504.96
391.78	1474.54
391.97	1359.85
392.16	1235.80
392.36	1219.42
392.55	1027.50
392.75	809.83
392.94	678.76
393.13	725.57
393.33	793.44
393.52	933.87
393.71	1153.88
393.91	1233.46
394.10	1453.47
394.29	1514.33
394.49	1437.09
394.68	1706.25
394.88	1636.03
395.07	1682.85
395.26	1654.76
395.46	1579.86
395.65	1614.97
395.84	1439.43
396.04	1294.32
396.23	992.39
396.42	910.47
396.62	830.89
396.81	936.21
397.00	1067.28
397.19	1313.04
397.39	1671.14
397.58	1858.39
397.77	1989.46
397.97	2001.16
398.16	2064.35
398.35	2076.06
398.55	2155.63
398.74	2193.08
398.93	2289.04
399.12	2347.56
399.32	2251.60
399.51	2363.94
399.70	2307.77
399.90	2368.62
400.09	2303.09
400.28	2441.18
400.47	2335.85
400.67	2448.20
400.86	2471.61
401.05	2448.20
401.24	2480.97
401.44	2473.95
401.63	2560.55
401.82	2574.59
402.01	2408.41
402.21	2579.27
402.40	2555.86
402.59	2621.40
402.78	2443.52
402.97	2237.55
403.17	2387.35
403.36	2595.65
403.55	2555.86
403.74	2635.44
403.93	2668.21
404.13	2532.46
404.32	2644.81
404.51	2649.49
404.70	2691.62
404.89	2609.70
405.09	2672.89
405.28	2504.37
405.47	2394.37
405.66	2539.48
405.85	2420.11
406.05	2305.43
406.24	2567.57
406.43	2600.34
406.62	2644.81
406.81	2588.63
407.00	2572.25
407.20	2590.97
407.39	2495.01
407.58	2630.76
407.77	2595.65
407.96	2750.13
408.15	2773.53
408.34	2747.79
408.54	2986.52
408.73	2860.13
408.92	2902.26
409.11	2768.85
409.30	2588.63
409.49	2658.85
409.68	2429.48
409.87	2317.13
410.07	2413.09
410.26	2525.44
410.45	2829.71
410.64	2724.38
410.83	3026.31
411.02	2956.10
411.21	3145.68
411.40	3075.46
411.59	3082.49
411.78	3077.80
411.98	2963.12
412.17	3150.36
412.36	2977.16
412.55	3023.97
412.74	2871.84
412.93	2862.48
413.12	2944.39
413.31	3251.00
413.50	3129.30
413.69	3258.03
413.88	3187.81
414.07	3115.25
414.26	3026.31
414.45	3016.95
414.64	3173.77
414.83	3227.60
415.02	3075.46
415.22	3087.17
415.41	3215.90
415.60	3330.58
415.79	3332.92
415.98	3520.17
416.17	3522.51
416.36	3552.93
416.55	3382.07
416.74	3262.71
416.93	3126.96
417.12	3166.74
417.31	3288.45
417.50	3251.00
417.69	3461.65
417.88	3307.18
418.07	3243.98
418.26	3213.56
418.45	3274.41
418.64	3384.41
418.83	3492.08
419.02	3510.80
419.21	3311.86
419.39	3318.88
419.58	3141.00
419.77	3162.06
419.96	3276.75
420.15	3435.91
420.34	3496.76
420.53	3712.09
420.72	3749.54
420.91	3639.53
421.10	3550.59
421.29	3623.15
421.48	3588.04
421.67	3508.46
421.86	3665.28
422.05	3356.33
422.24	3049.72
422.43	3087.17
422.61	3365.69
422.80	3585.70
422.99	3602.08
423.18	3407.82
423.37	3433.57
423.56	3332.92
423.75	3316.54
423.94	3541.23
424.13	3358.67
424.32	3328.24
424.50	3482.72
424.69	3332.92
424.88	3356.33
425.07	3375.05
425.26	3325.90
425.45	3248.66
425.64	3166.74
425.83	3251.00
426.01	3463.99
426.20	3438.25
426.39	3377.39
426.58	3314.20
426.77	3049.72
426.96	2958.44
427.15	3091.85
427.33	3162.06
427.52	3328.24
427.71	3382.07
427.90	3330.58
428.09	3307.18
428.28	3260.37
428.46	3082.49
428.65	3033.33
428.84	3000.57
429.03	3265.05
429.22	3075.46
429.40	2953.76
429.59	2789.92
429.78	2527.78
429.97	2370.96
430.16	2431.82
430.34	2487.99
430.53	2431.82
430.72	2509.05
430.91	2647.15
431.10	3197.17
431.28	3524.85
431.47	3789.33
431.66	3906.35
431.85	3581.02
432.03	3405.48
432.22	3197.17
432.41	3265.05
432.60	3559.95
432.79	3733.15
432.97	3943.80
433.16	3925.08
433.35	3569.32
433.54	3183.13
433.72	3150.36
433.91	2981.84
434.10	3487.40
434.28	3527.19
434.47	3892.31
434.66	3779.97
434.85	3786.99
435.03	3817.41
435.22	4217.65
435.41	4814.48
435.59	4858.95
435.78	4664.69
435.97	4332.33
436.16	4173.18
436.34	4067.85
436.53	4011.68
436.72	3946.14
436.90	3882.95
437.09	3913.38
437.28	3658.26
437.46	3756.56
437.65	3974.23
437.84	3637.19
438.02	3255.69
438.21	3375.05
438.40	3482.72
438.58	3639.53
438.77	3815.07
438.96	3896.99
439.14	4079.55
439.33	4126.36
439.52	4140.41
439.70	4032.74
439.89	4025.72
440.08	3829.12
440.26	3955.51
440.45	4124.02
440.63	4177.86
440.82	4388.50
441.01	4498.51
441.19	4196.58
441.38	4346.37
441.57	4519.57
441.75	4564.04
441.94	4505.53
442.12	4706.82
442.31	4589.79
442.50	4762.99
442.68	4552.34
442.87	4519.57
443.05	4458.72
443.24	4477.44
443.43	4568.73
443.61	4748.95
443.80	4816.82
443.98	4489.15
444.17	4477.44
444.35	4730.22
444.54	4737.24
444.73	4755.97
444.91	4720.86
445.10	4437.66
445.28	4215.30
445.47	4107.64
445.65	4196.58
445.84	4292.54
446.02	4393.19
446.21	4432.97
446.39	4423.61
446.58	4660.01
446.77	4552.34
446.95	4711.50
447.14	4744.27
447.32	4802.78
447.51	4870.65
447.69	4699.80
447.88	4519.57
448.06	4617.88
448.25	4678.73
448.43	4718.52
448.62	4678.73
448.80	4568.73
448.99	4739.58
449.17	4620.22
449.36	4816.82
449.54	5198.33
449.73	4968.96
449.91	5118.75
450.10	5111.73
450.28	5210.03
450.46	5179.61
450.65	5137.48
450.83	5275.57
451.02	5139.82
451.20	4926.83
451.39	5100.03
451.57	4931.51
451.76	4957.25
451.94	5020.45
452.13	4751.29
452.31	4835.55
452.49	4538.30
452.68	4554.68
452.86	4524.26
453.05	4526.60
453.23	4713.84
453.42	4690.43
453.60	4762.99
453.78	4863.63
453.97	4924.49
454.15	4983.00
454.34	4718.52
454.52	4730.22
454.70	4657.67
454.89	4695.11
455.07	4795.76
455.26	4901.08
455.44	5078.96
455.62	5247.48
455.81	5245.14
455.99	5114.07
456.17	5004.07
456.36	5046.20
456.54	4997.04
456.73	5214.71
456.91	5291.95
457.09	5231.10
457.28	5350.46
457.46	5158.54
457.64	5158.54
457.83	5048.54
458.01	4854.27
458.19	5048.54
458.38	5060.24
458.56	5252.16
458.74	5170.24
458.93	5116.41
459.11	5004.07
459.29	4983.00
459.48	4947.89
459.66	5025.13
459.84	5055.56
460.03	5142.16
460.21	5156.20
460.39	5310.68
460.57	5490.90
460.76	5188.97
460.94	5397.28
461.12	5432.38
461.31	5401.96
461.49	5392.59
461.67	5078.96
461.85	5467.49
462.04	5329.40
462.22	5966.03
462.40	5364.51
462.59	5338.76
462.77	5479.19
462.95	5315.36
463.13	5231.10
463.32	5341.10
463.50	5322.38
463.68	5268.55
463.86	5413.66
464.05	5273.23
464.23	5130.45
464.41	5186.63
464.59	4922.15
464.78	5174.92
464.96	5207.69
465.14	5184.29
465.32	5432.38
465.50	5287.27
465.69	5558.77
465.87	5451.11
466.05	5139.82
466.23	5011.09
466.41	4819.16
466.60	5006.41
466.78	5027.47
466.96	5160.88
467.14	5139.82
467.32	5170.24
467.51	5242.80
467.69	5224.08
467.87	5193.65
468.05	5261.52
468.23	5186.63
468.41	5149.18
468.60	5245.14
468.78	5212.37
468.96	5167.90
469.14	5298.97
469.32	5455.79
469.50	5050.88
469.69	5088.32
469.87	5064.92
470.05	4999.38
470.23	5034.49
470.41	5249.82
470.59	5046.20
470.77	5149.18
470.95	5181.95
471.14	5378.55
471.32	5313.02
471.50	5467.49
471.68	5568.13
471.86	5577.50
472.04	5654.73
472.22	5767.08
472.40	5446.43
472.58	5453.45
472.77	5294.29
472.95	5305.99
473.13	5715.59
473.31	5533.03
473.49	5331.74
473.67	5561.11
473.85	5565.79
474.03	5893.47
474.21	5778.78
474.39	5830.27
474.57	5834.96
474.75	5734.31
474.93	5710.91
475.12	5776.44
475.30	5584.52
475.48	5603.24
475.66	5884.11
475.84	5556.43
476.02	5734.31
476.20	5497.92
476.38	5706.23
476.56	5849.00
476.74	5919.21
476.92	5863.04
477.10	6186.04
477.28	6057.31
477.46	5980.07
477.64	6253.91
477.82	6354.55
478.00	6108.80
478.18	6207.10
478.36	6005.81
478.54	6167.31
478.72	6059.65
478.90	6384.98
479.08	6361.58
479.26	6726.70
479.44	6686.91
479.62	6572.22
479.80	6532.44
479.98	6466.90
480.16	6612.01
480.34	6520.73
480.52	6452.86
480.70	6626.06
480.88	6604.99
481.06	6836.70
481.24	6918.62
481.41	7218.21
481.59	7183.10
481.77	7101.19
481.95	6967.77
482.13	7152.68
482.31	6932.67
482.49	7241.62
482.67	6984.16
482.85	7157.36
483.03	7246.30
483.21	7206.51
483.39	7197.15
483.57	7068.42
483.74	7220.55
483.92	7215.87
484.10	7272.04
484.28	7461.63
484.46	7602.06
484.64	7480.35
484.82	7337.58
485.00	7503.76
485.18	7166.72
485.35	7136.29
485.53	6572.22
485.71	6061.99
485.89	5820.91
486.07	6218.80
486.25	6693.93
486.43	7045.01
486.61	7101.19
486.78	7176.08
486.96	7110.55
487.14	7344.60
487.32	7555.25
487.50	7948.46
487.68	7976.55
487.85	8255.07
488.03	8175.49
488.21	8044.42
488.39	7864.20
488.57	7707.38
488.75	7597.38
488.92	8084.21
489.10	8320.60
489.28	8774.67
489.46	8990.00
489.64	9046.17
489.81	9156.18
489.99	8830.84
490.17	8772.33
490.35	8919.78
490.53	8896.38
490.70	8711.47
490.88	8542.96
491.06	8786.37
491.24	9022.77
491.41	8681.05
491.59	8231.66
491.77	8294.86
491.95	8341.67
492.13	8751.26
492.30	9130.43
492.48	8980.64
492.66	9289.59
492.84	9458.10
493.01	9500.23
493.19	9118.73
493.37	9100.00
493.54	8917.44
493.72	9015.74
493.90	9603.22
494.08	9671.09
494.25	9493.21
494.43	9617.26
494.61	10054.94
494.79	9872.38
494.96	9631.30
495.14	9846.63
495.32	9380.87
495.49	9331.72
495.67	9633.64
495.85	9928.55
496.02	10129.84
496.20	10272.61
496.38	9998.77
496.55	9673.43
496.73	9991.75
496.91	9930.89
497.09	10307.72
497.26	10298.36
497.44	10066.64
497.62	9781.10
497.79	9624.28
497.97	9430.02
498.14	9280.22
498.32	9394.91
498.50	10012.81
498.67	10209.42
498.85	10139.20
499.03	10083.03
499.20	10078.35
499.38	10265.59
499.56	10342.83
499.73	10225.80
499.91	10068.98
500.08	9668.75
500.26	9415.98
500.44	9799.82
500.61	9720.24
500.79	9617.26
500.97	9804.50
501.14	9713.22
501.32	9624.28
501.49	9596.20
501.67	9507.26
501.84	9731.95
502.02	9745.99
502.20	10022.17
502.37	9753.01
502.55	9935.57
502.72	9982.38
502.90	10160.27
503.07	9996.43
503.25	9729.61
503.43	9224.05
503.60	9305.97
503.78	9130.43
503.95	9057.87
504.13	9582.15
504.30	10104.09
504.48	10094.73
504.65	10167.29
504.83	10029.20
505.01	10382.62
505.18	10289.00
505.36	10509.01
505.53	10296.02
505.71	10731.36
505.88	10782.85
506.06	10408.36
506.23	10298.36
506.41	10108.77
506.58	10207.08
506.76	10209.42
506.93	10099.41
507.11	10083.03
507.28	10106.43
507.46	10317.08
507.63	9877.06
507.81	9762.37
507.98	9923.87
508.16	9947.28
508.33	10328.78
508.50	10504.32
508.68	10494.96
508.85	10892.85
509.03	10745.40
509.20	10939.66
509.38	10614.33
509.55	10281.97
509.73	10228.14
509.90	10445.81
510.08	10808.59
510.25	10656.46
510.42	10633.05
510.60	10696.25
510.77	10399.00
510.95	10864.77
511.12	10832.00
511.30	10965.41
511.47	11133.93
511.64	11082.44
511.82	10956.05
511.99	10696.25
512.17	10597.95
512.34	10263.25
512.51	10478.58
512.69	10525.39
512.86	10794.55
513.04	10614.33
513.21	10745.40
513.38	10731.36
513.56	10658.80
513.73	10525.39
513.90	10221.12
514.08	10347.51
514.25	10558.16
514.43	10480.92
514.60	10497.30
514.77	10413.04
514.95	10586.24
515.12	10478.58
515.29	10628.37
515.47	10925.62
515.64	10963.07
515.81	10750.08
515.99	10754.76
516.16	10054.94
516.33	9610.24
516.51	8851.91
516.68	8706.79
516.85	8557.00
517.03	8568.70
517.20	9490.87
517.37	10354.53
517.54	10579.22
517.72	10406.02
517.89	9755.35
518.06	9146.81
518.24	8987.66
518.41	9507.26
518.58	9982.38
518.75	10073.67
518.93	10012.81
519.10	10251.55
519.27	10394.32
519.45	10216.44
519.62	10729.02
519.79	10878.81
519.96	10913.92
520.14	10565.18
520.31	10375.59
520.48	10141.54
520.65	10345.17
520.83	10560.50
521.00	10981.79
521.17	10752.42
521.34	10857.75
521.52	10946.69
521.69	11082.44
521.86	11183.08
522.03	11190.10
522.20	10792.21
522.38	10349.85
522.55	10113.45
522.72	10466.88
522.89	10342.83
523.07	10782.85
523.24	10565.18
523.41	10824.98
523.58	10995.84
523.75	11400.75
523.92	10918.60
524.10	11260.32
524.27	11321.17
524.44	11342.24
524.61	10991.16
524.78	11187.76
524.96	11012.22
525.13	10939.66
525.30	10967.75
525.47	11215.85
525.64	11447.56
525.81	11173.72
525.98	10593.26
526.16	10015.15
526.33	9802.16
526.50	9561.09
526.67	9308.31
526.84	9603.22
527.01	9942.60
527.18	10118.14
527.36	10532.41
527.53	10892.85
527.70	11033.29
527.87	10761.78
528.04	10616.67
528.21	11115.20
528.38	11054.35
528.55	11485.01
528.72	11557.57
528.89	11609.06
529.07	11449.90
529.24	11169.04
529.41	10991.16
529.58	10679.86
529.75	10843.70
529.92	10946.69
530.09	11066.05
530.26	11164.36
530.43	11157.33
530.60	11321.17
530.77	11459.26
530.94	11335.21
531.11	11609.06
531.28	11192.44
531.46	11171.38
531.63	10991.16
531.80	11180.74
531.97	10946.69
532.14	10782.85
532.31	10399.00
532.48	10019.83
532.65	10052.60
532.82	10204.74
532.99	10780.51
533.16	10771.15
533.33	11211.17
533.50	11140.95
533.67	10920.94
533.84	10824.98
534.01	10693.91
534.18	10993.50
534.35	11070.73
534.52	10860.09
534.69	10944.34
534.86	11473.31
535.03	11122.23
535.20	11538.84
535.37	11417.13
535.54	11428.84
535.71	11515.44
535.88	11143.29
536.05	10932.64
536.22	10939.66
536.38	10871.79
536.55	10675.18
536.72	10494.96
536.89	10406.02
537.06	10656.46
537.23	11117.54
537.40	11098.82
537.57	11190.10
537.74	11056.69
537.91	11094.14
538.08	10871.79
538.25	11073.07
538.42	11052.01
538.59	11265.00
538.75	10808.59
538.92	10698.59
539.09	10602.63
539.26	10864.77
539.43	10558.16
539.60	10396.66
539.77	10806.25
539.94	10640.08
540.11	10331.12
540.28	10333.47
540.44	10026.86
540.61	10394.32
540.78	10370.91
540.95	10768.80
541.12	11150.31
541.29	11407.77
541.46	11164.36
541.62	11356.28
541.79	11405.43
541.96	10991.16
542.13	11056.69
542.30	11101.16
542.47	11293.08
542.63	11009.88
542.80	11119.89
542.97	11094.14
543.14	10843.70
543.31	10792.21
543.48	11059.03
543.64	11468.62
543.81	11552.88
543.98	11501.39
544.15	11407.77
544.32	11101.16
544.48	11047.33
544.65	11255.64
544.82	11391.39
544.99	11117.54
545.16	11040.31
545.32	10876.47
545.49	11737.79
545.66	12788.69
545.83	12968.91
546.00	12233.98
546.16	11815.02
546.33	11000.52
546.50	11201.80
546.67	11164.36
546.83	10789.87
547.00	10752.42
547.17	10808.59
547.34	10689.23
547.50	10384.96
547.67	10406.02
547.84	10581.56
548.00	10562.84
548.17	10892.85
548.34	10824.98
548.51	10832.00
548.67	10876.47
548.84	10984.13
549.01	10930.30
549.18	10909.24
549.34	10780.51
549.51	10759.44
549.68	10841.36
549.84	10759.44
550.01	10656.46
550.18	10736.04
550.34	10822.64
550.51	10485.60
550.68	10736.04
550.84	10305.38
551.01	10368.57
551.18	10586.24
551.34	10424.75
551.51	10663.48
551.68	10644.76
551.84	10993.50
552.01	10623.69
552.18	10759.44
552.34	10389.64
552.51	10399.00
552.68	10326.44
552.84	10251.55
553.01	10370.91
553.18	10377.94
553.34	10448.15
553.51	10469.22
553.67	10581.56
553.84	10876.47
554.01	10703.27
554.17	10359.21
554.34	10410.70
554.51	10457.51
554.67	10431.77
554.84	10588.58
555.00	10345.17
555.17	10471.56
555.33	10403.68
555.50	10384.96
555.67	10399.00
555.83	10427.09
556.00	10349.85
556.16	10321.76
556.33	10064.30
556.50	9919.19
556.66	9825.57
556.83	9860.68
556.99	10263.25
557.16	10066.64
557.32	9935.57
557.49	9930.89
557.65	10125.16
557.82	9881.74
557.98	10190.69
558.15	9860.68
558.32	9717.90
558.48	9390.23
558.65	9544.70
558.81	9643.01
558.98	9659.39
559.14	9921.53
559.31	9788.12
559.47	9806.84
559.64	9708.54
559.80	9750.67
559.97	9633.64
560.13	9685.14
560.30	9802.16
560.46	10066.64
560.63	10104.09
560.79	10235.16
560.96	10047.92
561.12	9750.67
561.29	9371.50
561.45	9525.98
561.61	9757.69
561.78	9825.57
561.94	9825.57
562.11	9605.56
562.27	9509.60
562.44	9781.10
562.60	9848.97
562.77	9853.66
562.93	9973.02
563.10	9881.74
563.26	9715.56
563.42	9760.03
563.59	9692.16
563.75	9521.30
563.92	9790.46
564.08	9584.49
564.24	9703.86
564.41	9731.95
564.57	9743.65
564.74	9495.55
564.90	9776.42
565.07	9591.52
565.23	9558.75
565.39	9111.71
565.56	9123.41
565.72	9259.16
565.88	9114.05
566.05	9273.20
566.21	9483.85
566.38	9322.35
566.54	9397.25
566.70	9392.57
566.87	9537.68
567.03	9699.18
567.19	9397.25
567.36	9593.86
567.52	9371.50
567.68	9476.83
567.85	9240.44
568.01	8992.34
568.17	8784.03
568.34	8819.14
568.50	8697.43
568.66	8517.21
568.83	8842.54
568.99	8678.71
569.15	8802.75
569.32	8830.84
569.48	8777.01
569.64	8744.24
569.81	8608.49
569.97	8830.84
570.13	8971.27
570.30	8741.90
570.46	8678.71
570.62	8514.87
570.78	8318.26
570.95	8505.51
571.11	8676.37
571.27	8571.04
571.43	8603.81
571.60	8603.81
571.76	8744.24
571.92	8910.42
572.09	8837.86
572.25	8767.65
572.41	8777.01
572.57	8964.25
572.74	8767.65
572.90	8807.44
573.06	8777.01
573.22	8840.20
573.38	8891.70
573.55	8667.00
573.71	9008.72
573.87	8854.25
574.03	8723.18
574.20	8620.19
574.36	8535.93
574.52	8617.85
574.68	8458.70
574.84	8540.61
575.01	8449.33
575.17	8315.92
575.33	8449.33
575.49	8685.73
575.65	8613.17
575.82	8374.44
575.98	8519.55
576.14	8475.08
576.30	8704.45
576.46	8753.60
576.62	9081.28
576.79	9011.06
576.95	8622.53
577.11	8751.26
577.27	8596.79
577.43	8599.13
577.59	8662.32
577.75	8351.03
577.92	8353.37
578.08	8219.96
578.24	8119.32
578.40	8252.73
578.56	8411.89
578.72	8547.64
578.88	8748.92
579.04	8706.79
579.21	8753.60
579.37	8599.13
579.53	8746.58
579.69	8559.34
579.85	8615.51
580.01	8650.62
580.17	8533.59
580.33	8514.87
580.49	8578.06
580.65	8779.35
580.82	8830.84
580.98	8517.21
581.14	8681.05
581.30	8594.45
581.46	8589.77
581.62	8648.28
581.78	8716.16
581.94	8685.73
582.10	8631.90
582.26	8706.79
582.42	8812.12
582.58	8952.55
582.74	8732.54
582.90	8758.28
583.06	8816.80
583.22	8709.13
583.38	8655.30
583.54	8753.60
583.70	8690.41
583.86	8816.80
584.02	8847.22
584.18	8868.29
584.34	8542.96
584.50	8683.39
584.66	8571.04
584.82	8451.67
584.98	8444.65
585.14	8416.57
585.30	8311.24
585.46	8140.38
585.62	8028.04
585.78	8348.69
585.94	8180.17
586.10	8217.62
586.26	8351.03
586.42	8500.83
586.58	8372.10
586.74	8458.70
586.90	8423.59
587.06	8257.41
587.22	8346.35
587.38	8021.02
587.54	7908.67
587.70	7770.58
587.86	7623.12
588.02	7185.44
588.18	7178.42
588.34	6817.98
588.49	6413.07
588.65	6230.51
588.81	5844.32
588.97	5996.45
589.13	6080.71
589.29	5996.45
589.45	5989.43
589.61	5968.37
589.77	6265.61
589.93	6506.69
590.08	6726.70
590.24	6787.55
590.40	6993.52
590.56	7136.29
590.72	6836.70
590.88	6857.77
591.04	6913.94
591.20	6862.45
591.35	6726.70
591.51	6853.09
591.67	6401.37
591.83	6541.80
591.99	6691.59
592.15	6668.19
592.31	7059.06
592.46	7105.87
592.62	7218.21
592.78	7304.81
592.94	7101.19
593.10	7407.80
593.26	7482.69
593.41	7328.22
593.57	7300.13
593.73	7000.54
593.89	6551.16
