SpectraSuite Data File
++++++++++++++++++++++++++++++++++++
Date: Fri Oct 04 11:44:19 GMT-05:00 2013
User: price-jones
Dark Spectrum Present: No
Reference Spectrum Present: No
Number of Sampled Component Spectra: 1
Spectrometers: USB2+H05261
Integration Time (usec): 100000 (USB2+H05261)
Spectra Averaged: 1 (USB2+H05261)
Boxcar Smoothing: 0 (USB2+H05261)
Correct for Electrical Dark: No (USB2+H05261)
Strobe/Lamp Enabled: No (USB2+H05261)
Correct for Detector Non-linearity: No (USB2+H05261)
Correct for Stray Light: No (USB2+H05261)
Number of Pixels in Processed Spectrum: 2048
>>>>>Begin Processed Spectral Data<<<<<
365.73	93.62
365.92	93.62
366.12	93.62
366.32	0.00
366.52	0.00
366.72	0.00
366.91	0.00
367.11	0.00
367.31	0.00
367.51	0.00
367.70	0.00
367.90	0.00
368.10	0.00
368.30	0.00
368.49	0.00
368.69	0.00
368.89	0.00
369.09	0.00
369.28	0.00
369.48	4.68
369.68	0.00
369.87	0.00
370.07	7.02
370.27	25.75
370.47	119.37
370.66	330.02
370.86	355.76
371.06	393.21
371.25	500.87
371.45	337.04
371.65	292.57
371.84	442.36
372.04	367.46
372.24	409.59
372.44	437.68
372.63	435.34
372.83	454.06
373.03	369.80
373.22	351.08
373.42	337.04
373.62	451.72
373.81	397.89
374.01	507.90
374.21	428.32
374.40	362.78
374.60	397.89
374.79	482.15
374.99	552.37
375.19	486.83
375.38	571.09
375.58	433.00
375.78	444.70
375.97	458.74
376.17	603.86
376.37	493.85
376.56	547.69
376.76	540.66
376.95	479.81
377.15	594.50
377.35	643.65
377.54	622.58
377.74	566.41
377.93	575.77
378.13	589.82
378.33	601.52
378.52	578.11
378.72	552.37
378.91	512.58
379.11	550.03
379.31	566.41
379.50	507.90
379.70	559.39
379.89	573.43
380.09	608.54
380.28	531.30
380.48	543.00
380.68	608.54
380.87	500.87
381.07	538.32
381.26	517.26
381.46	552.37
381.65	503.22
381.85	423.64
382.04	463.43
382.24	493.85
382.43	383.85
382.63	409.59
382.83	477.47
383.02	381.51
383.22	390.87
383.41	381.51
383.61	503.22
383.80	475.13
384.00	589.82
384.19	510.24
384.39	543.00
384.58	575.77
384.78	554.71
384.97	613.22
385.17	545.34
385.36	538.32
385.56	580.45
385.75	608.54
385.95	641.31
386.14	645.99
386.34	540.66
386.53	564.07
386.72	550.03
386.92	631.94
387.11	564.07
387.31	615.56
387.50	514.92
387.70	603.86
387.89	545.34
388.09	559.39
388.28	599.18
388.48	561.73
388.67	573.43
388.86	760.67
389.06	751.31
389.25	777.06
389.45	772.38
389.64	833.23
389.84	858.98
390.03	739.61
390.22	730.25
390.42	718.54
390.61	741.95
390.81	830.89
391.00	805.14
391.19	840.25
391.39	777.06
391.58	725.57
391.78	718.54
391.97	674.07
392.16	641.31
392.36	627.26
392.55	564.07
392.75	503.22
392.94	454.06
393.13	421.30
393.33	456.40
393.52	507.90
393.71	681.10
393.91	692.80
394.10	734.93
394.29	800.46
394.49	821.53
394.68	901.11
394.88	880.04
395.07	877.70
395.26	915.15
395.46	950.26
395.65	922.17
395.84	786.42
396.04	704.50
396.23	552.37
396.42	512.58
396.62	493.85
396.81	568.75
397.00	695.14
397.19	730.25
397.39	887.06
397.58	987.71
397.77	1018.13
397.97	1050.90
398.16	1053.24
398.35	1132.82
398.55	1078.99
398.74	1114.10
398.93	1221.76
399.12	1233.46
399.32	1135.16
399.51	1167.93
399.70	1238.14
399.90	1196.01
400.09	1151.54
400.28	1158.57
400.47	1184.31
400.67	1327.08
400.86	1235.80
401.05	1249.85
401.24	1226.44
401.44	1301.34
401.63	1320.06
401.82	1291.98
402.01	1277.93
402.21	1324.74
402.40	1387.94
402.59	1233.46
402.78	1242.82
402.97	1200.69
403.17	1263.89
403.36	1357.51
403.55	1261.55
403.74	1348.15
403.93	1317.72
404.13	1343.47
404.32	1345.81
404.51	1259.21
404.70	1364.53
404.89	1310.70
405.09	1385.60
405.28	1217.08
405.47	1280.27
405.66	1282.61
405.85	1289.64
406.05	1259.21
406.24	1256.87
406.43	1259.21
406.62	1238.14
406.81	1343.47
407.00	1282.61
407.20	1188.99
407.39	1329.42
407.58	1331.76
407.77	1418.36
407.96	1465.18
408.15	1387.94
408.34	1397.30
408.54	1427.73
408.73	1528.37
408.92	1526.03
409.11	1380.92
409.30	1341.13
409.49	1296.66
409.68	1270.91
409.87	1172.61
410.07	1324.74
410.26	1249.85
410.45	1397.30
410.64	1409.00
410.83	1540.07
411.02	1523.69
411.21	1596.25
411.40	1519.01
411.59	1540.07
411.78	1638.38
411.98	1533.05
412.17	1528.37
412.36	1558.80
412.55	1469.86
412.74	1497.94
412.93	1488.58
413.12	1483.90
413.31	1633.69
413.50	1561.14
413.69	1612.63
413.88	1605.61
414.07	1549.43
414.26	1535.39
414.45	1575.18
414.64	1666.46
414.83	1593.90
415.02	1542.41
415.22	1540.07
415.41	1511.99
415.60	1724.97
415.79	1696.89
415.98	1741.36
416.17	1652.42
416.36	1727.32
416.55	1717.95
416.74	1717.95
416.93	1661.78
417.12	1619.65
417.31	1710.93
417.50	1575.18
417.69	1811.57
417.88	1621.99
418.07	1626.67
418.26	1701.57
418.45	1703.91
418.64	1778.81
418.83	1682.85
419.02	1790.51
419.21	1746.04
419.39	1762.42
419.58	1593.90
419.77	1621.99
419.96	1682.85
420.15	1678.16
420.34	1750.72
420.53	1830.30
420.72	1837.32
420.91	1858.39
421.10	1926.26
421.29	1834.98
421.48	1748.38
421.67	1888.81
421.86	1811.57
422.05	1659.44
422.24	1514.33
422.43	1533.05
422.61	1748.38
422.80	1799.87
422.99	1844.34
423.18	1732.00
423.37	1692.21
423.56	1638.38
423.75	1717.95
423.94	1769.44
424.13	1703.91
424.32	1647.74
424.50	1610.29
424.69	1696.89
424.88	1678.16
425.07	1645.40
425.26	1612.63
425.45	1659.44
425.64	1671.14
425.83	1654.76
426.01	1788.17
426.20	1757.74
426.39	1837.32
426.58	1593.90
426.77	1600.93
426.96	1537.73
427.15	1589.22
427.33	1654.76
427.52	1631.35
427.71	1675.82
427.90	1764.76
428.09	1654.76
428.28	1650.08
428.46	1556.46
428.65	1682.85
428.84	1561.14
429.03	1582.20
429.22	1434.75
429.40	1413.68
429.59	1315.38
429.78	1188.99
429.97	1196.01
430.16	1203.04
430.34	1259.21
430.53	1214.74
430.72	1315.38
430.91	1416.02
431.10	1563.48
431.28	1710.93
431.47	1888.81
431.66	1959.03
431.85	1926.26
432.03	1682.85
432.22	1610.29
432.41	1626.67
432.60	1809.23
432.79	1907.54
432.97	1858.39
433.16	1865.41
433.35	1776.47
433.54	1650.08
433.72	1540.07
433.91	1572.84
434.10	1713.27
434.28	1809.23
434.47	1781.15
434.66	1802.21
434.85	1870.09
435.03	1881.79
435.22	2125.21
435.41	2422.45
435.59	2427.14
435.78	2314.79
435.97	2113.50
436.16	2019.88
436.34	2003.50
436.53	2012.86
436.72	2017.54
436.90	1839.66
437.09	1954.35
437.28	1799.87
437.46	1874.77
437.65	1954.35
437.84	1764.76
438.02	1713.27
438.21	1706.25
438.40	1680.50
438.58	1809.23
438.77	1902.86
438.96	1947.33
439.14	1944.99
439.33	2101.80
439.52	2160.31
439.70	2050.31
439.89	1968.39
440.08	1942.64
440.26	1881.79
440.45	1877.11
440.63	2129.89
440.82	2132.23
441.01	2293.72
441.19	2108.82
441.38	2139.25
441.57	2263.30
441.75	2186.06
441.94	2387.35
442.12	2251.60
442.31	2289.04
442.50	2286.70
442.68	2319.47
442.87	2242.23
443.05	2282.02
443.24	2207.13
443.43	2251.60
443.61	2408.41
443.80	2256.28
443.98	2214.15
444.17	2172.02
444.35	2328.83
444.54	2356.92
444.73	2338.20
444.91	2286.70
445.10	2083.08
445.28	2106.48
445.47	2090.10
445.65	2036.27
445.84	2195.42
446.02	2258.62
446.21	2157.97
446.39	2314.79
446.58	2260.96
446.77	2237.55
446.95	2258.62
447.14	2413.09
447.32	2410.75
447.51	2368.62
447.69	2221.17
447.88	2375.64
448.06	2319.47
448.25	2277.34
448.43	2314.79
448.62	2293.72
448.80	2286.70
448.99	2258.62
449.17	2324.15
449.36	2312.45
449.54	2307.77
449.73	2401.39
449.91	2448.20
450.10	2473.95
450.28	2595.65
450.46	2651.83
450.65	2656.51
450.83	2424.80
451.02	2502.03
451.20	2443.52
451.39	2464.58
451.57	2375.64
451.76	2429.48
451.94	2394.37
452.13	2427.14
452.31	2354.58
452.49	2211.81
452.68	2293.72
452.86	2263.30
453.05	2319.47
453.23	2342.88
453.42	2340.54
453.60	2422.45
453.78	2473.95
453.97	2448.20
454.15	2399.05
454.34	2417.77
454.52	2389.69
454.70	2361.60
454.89	2373.30
455.07	2377.98
455.26	2389.69
455.44	2504.37
455.62	2422.45
455.81	2408.41
455.99	2539.48
456.17	2597.99
456.36	2370.96
456.54	2597.99
456.73	2455.22
456.91	2377.98
457.09	2670.55
457.28	2642.46
457.46	2588.63
457.64	2614.38
457.83	2455.22
458.01	2459.90
458.19	2413.09
458.38	2410.75
458.56	2686.94
458.74	2558.21
458.93	2551.18
459.11	2506.71
459.29	2401.39
459.48	2410.75
459.66	2516.08
459.84	2548.84
460.03	2647.15
460.21	2523.10
460.39	2647.15
460.57	2616.72
460.76	2626.08
460.94	2682.25
461.12	2619.06
461.31	2626.08
461.49	2506.71
461.67	2581.61
461.85	2637.78
462.04	2560.55
462.22	3075.46
462.40	2684.59
462.59	2689.28
462.77	2663.53
462.95	2616.72
463.13	2553.52
463.32	2668.21
463.50	2523.10
463.68	2651.83
463.86	2691.62
464.05	2548.84
464.23	2436.50
464.41	2434.16
464.59	2377.98
464.78	2471.61
464.96	2560.55
465.14	2619.06
465.32	2640.12
465.50	2668.21
465.69	2710.34
465.87	2654.17
466.05	2424.80
466.23	2436.50
466.41	2483.31
466.60	2509.05
466.78	2466.92
466.96	2532.46
467.14	2579.27
467.32	2635.44
467.51	2731.41
467.69	2438.84
467.87	2558.21
468.05	2527.78
468.23	2553.52
468.41	2469.27
468.60	2548.84
468.78	2534.80
468.96	2534.80
469.14	2476.29
469.32	2530.12
469.50	2471.61
469.69	2513.74
469.87	2642.46
470.05	2459.90
470.23	2403.73
470.41	2450.54
470.59	2567.57
470.77	2588.63
470.95	2586.29
471.14	2679.91
471.32	2541.82
471.50	2708.00
471.68	2782.90
471.86	2754.81
472.04	2827.37
472.22	2810.98
472.40	2562.89
472.58	2597.99
472.77	2626.08
472.95	2682.25
473.13	2906.95
473.31	2675.23
473.49	2715.02
473.67	2691.62
473.85	2705.66
474.03	2796.94
474.21	2715.02
474.39	2766.51
474.57	2881.20
474.75	2871.84
474.93	2820.35
475.12	2822.69
475.30	2663.53
475.48	2682.25
475.66	2792.26
475.84	2640.12
476.02	2656.51
476.20	2759.49
476.38	2754.81
476.56	2799.28
476.74	2846.09
476.92	2825.03
477.10	2960.78
477.28	2935.03
477.46	3007.59
477.64	3016.95
477.82	2958.44
478.00	2911.63
478.18	3105.89
478.36	2986.52
478.54	2899.92
478.72	2965.46
478.90	3028.65
479.08	3112.91
479.26	3260.37
479.44	3159.72
479.62	3138.66
479.80	3213.56
479.98	3346.97
480.16	3307.18
480.34	3239.30
480.52	3162.06
480.70	3325.90
480.88	3145.68
481.06	3274.41
481.24	3232.28
481.41	3386.76
481.59	3459.31
481.77	3461.65
481.95	3414.84
482.13	3349.31
482.31	3379.73
482.49	3426.54
482.67	3363.35
482.85	3307.18
483.03	3529.53
483.21	3737.84
483.39	3566.98
483.57	3339.94
483.74	3543.57
483.92	3424.20
484.10	3501.44
484.28	3632.51
484.46	3632.51
484.64	3620.81
484.82	3627.83
485.00	3442.93
485.18	3269.73
485.35	3396.12
485.53	3119.93
485.71	3042.70
485.89	2902.26
486.07	2822.69
486.25	3337.60
486.43	3396.12
486.61	3468.67
486.78	3478.04
486.96	3342.28
487.14	3592.72
487.32	3627.83
487.50	3735.50
487.68	3908.69
487.85	3829.12
488.03	3957.85
488.21	3894.65
488.39	3941.46
488.57	3674.64
488.75	3693.37
488.92	3948.48
489.10	4084.23
489.28	4234.03
489.46	4322.97
489.64	4147.43
489.81	4381.48
489.99	4236.37
490.17	4131.05
490.35	4447.02
490.53	4114.66
490.70	4301.90
490.88	4145.09
491.06	4325.31
491.24	4238.71
491.41	4142.75
491.59	3955.51
491.77	3967.21
491.95	3995.29
492.13	3974.23
492.30	4262.12
492.48	4409.57
492.66	4411.91
492.84	4461.06
493.01	4524.26
493.19	4411.91
493.37	4414.25
493.54	4327.65
493.72	4140.41
493.90	4432.97
494.08	4704.48
494.25	4762.99
494.43	4741.93
494.61	4758.31
494.79	4777.03
494.96	4748.95
495.14	4550.00
495.32	4414.25
495.49	4409.57
495.67	4667.03
495.85	4868.31
496.02	4959.60
496.20	4865.97
496.38	4608.51
496.55	4809.80
496.73	4788.74
496.91	4793.42
497.09	5055.56
497.26	5008.75
497.44	4716.18
497.62	4702.14
497.79	4711.50
497.97	4599.15
498.14	4376.80
498.32	4657.67
498.50	4688.09
498.67	4905.76
498.85	4840.23
499.03	4755.97
499.20	4833.21
499.38	4842.57
499.56	4851.93
499.73	4915.12
499.91	4727.88
500.08	4648.30
500.26	4575.75
500.44	4713.84
500.61	4662.35
500.79	4594.47
500.97	4645.96
501.14	4746.61
501.32	4699.80
501.49	4627.24
501.67	4552.34
501.84	4573.41
502.02	4732.56
502.20	4795.76
502.37	4772.35
502.55	4716.18
502.72	4863.63
502.90	4802.78
503.07	4842.57
503.25	4770.01
503.43	4493.83
503.60	4545.32
503.78	4472.76
503.95	4531.28
504.13	4617.88
504.30	4840.23
504.48	4865.97
504.65	4723.20
504.83	4884.70
505.01	4882.36
505.18	4980.66
505.36	5055.56
505.53	5102.37
505.71	5111.73
505.88	5263.86
506.06	5093.01
506.23	5004.07
506.41	4947.89
506.58	4919.81
506.76	4840.23
506.93	4964.28
507.11	4835.55
507.28	4774.69
507.46	4812.14
507.63	4821.50
507.81	4645.96
507.98	4617.88
508.16	4851.93
508.33	5008.75
508.50	4950.23
508.68	5029.81
508.85	5121.09
509.03	5085.98
509.20	5118.75
509.38	5132.79
509.55	4924.49
509.73	4985.34
509.90	4968.96
510.08	5123.43
510.25	5083.64
510.42	5210.03
510.60	5048.54
510.77	5280.25
510.95	5181.95
511.12	5355.15
511.30	5207.69
511.47	5378.55
511.64	5460.47
511.82	5334.08
511.99	5137.48
512.17	5034.49
512.34	4973.64
512.51	4898.74
512.69	5100.03
512.86	5032.15
513.04	5097.69
513.21	5198.33
513.38	5057.90
513.56	4985.34
513.73	4901.08
513.90	4887.04
514.08	5004.07
514.25	5001.72
514.43	4971.30
514.60	5081.30
514.77	5048.54
514.95	5093.01
515.12	5022.79
515.29	5217.05
515.47	5343.44
515.64	5167.90
515.81	5273.23
515.99	5158.54
516.16	4795.76
516.33	4465.74
516.51	4390.84
516.68	4114.66
516.85	4194.24
517.03	4245.73
517.20	4503.19
517.37	5022.79
517.54	4966.62
517.72	4940.87
517.89	4741.93
518.06	4397.87
518.24	4227.01
518.41	4634.26
518.58	4877.68
518.75	4922.15
518.93	4950.23
519.10	4980.66
519.27	5011.09
519.45	5083.64
519.62	5238.12
519.79	5238.12
519.96	5036.83
520.14	5060.24
520.31	4861.29
520.48	4833.21
520.65	4865.97
520.83	5153.86
521.00	5198.33
521.17	5273.23
521.34	5163.22
521.52	5238.12
521.69	5348.12
521.86	5259.18
522.03	5416.00
522.20	5195.99
522.38	4957.25
522.55	5015.77
522.72	4940.87
522.89	5011.09
523.07	5245.14
523.24	5188.97
523.41	5062.58
523.58	5170.24
523.75	5476.85
523.92	5490.90
524.10	5320.04
524.27	5345.78
524.44	5317.70
524.61	5165.56
524.78	5334.08
524.96	5338.76
525.13	5195.99
525.30	5441.75
525.47	5488.56
525.64	5453.45
525.81	5195.99
525.98	5121.09
526.16	4894.06
526.33	4575.75
526.50	4531.28
526.67	4535.96
526.84	4695.11
527.01	4699.80
527.18	4940.87
527.36	5104.71
527.53	5210.03
527.70	5362.17
527.87	5177.26
528.04	5214.71
528.21	5282.59
528.38	5345.78
528.55	5434.72
528.72	5497.92
528.89	5699.20
529.07	5547.07
529.24	5378.55
529.41	5259.18
529.58	5123.43
529.75	5149.18
529.92	5359.83
530.09	5247.48
530.26	5390.25
530.43	5483.88
530.60	5535.37
530.77	5397.28
530.94	5420.68
531.11	5500.26
531.28	5425.36
531.46	5345.78
531.63	5385.57
531.80	5397.28
531.97	5418.34
532.14	5121.09
532.31	5057.90
532.48	4833.21
532.65	4821.50
532.82	4975.98
532.99	5025.13
533.16	5226.42
533.33	5373.87
533.50	5420.68
533.67	5139.82
533.84	5046.20
534.01	5165.56
534.18	5088.32
534.35	5247.48
534.52	5235.78
534.69	5291.95
534.86	5355.15
535.03	5390.25
535.20	5584.52
535.37	5731.97
535.54	5516.64
535.71	5331.74
535.88	5554.09
536.05	5392.59
536.22	5383.23
536.38	5179.61
536.55	5186.63
536.72	5095.35
536.89	4968.96
537.06	5062.58
537.23	5331.74
537.40	5350.46
537.57	5313.02
537.74	5357.49
537.91	5455.79
538.08	5275.57
538.25	5284.93
538.42	5287.27
538.59	5313.02
538.75	5261.52
538.92	5226.42
539.09	5221.74
539.26	5167.90
539.43	5064.92
539.60	5315.36
539.77	5298.97
539.94	5294.29
540.11	5118.75
540.28	5081.30
540.44	5095.35
540.61	4975.98
540.78	5125.77
540.95	5144.50
541.12	5504.94
541.29	5446.43
541.46	5511.96
541.62	5500.26
541.79	5589.20
541.96	5345.78
542.13	5528.35
542.30	5614.95
542.47	5465.15
542.63	5406.64
542.80	5261.52
542.97	5366.85
543.14	5327.06
543.31	5399.62
543.48	5486.22
543.64	5654.73
543.81	5636.01
543.98	5647.71
544.15	5486.22
544.32	5423.02
544.48	5303.65
544.65	5535.37
544.82	5631.33
544.99	5359.83
545.16	5373.87
545.32	5350.46
545.49	5717.93
545.66	6202.42
545.83	6363.92
546.00	6069.01
546.16	5727.29
546.33	5652.39
546.50	5537.71
546.67	5380.89
546.83	5394.93
547.00	5373.87
547.17	5214.71
547.34	5191.31
547.50	5013.43
547.67	5259.18
547.84	5160.88
548.00	5167.90
548.17	5235.78
548.34	5294.29
548.51	5406.64
548.67	5327.06
548.84	5359.83
549.01	5336.42
549.18	5362.17
549.34	5191.31
549.51	5128.11
549.68	5151.52
549.84	5240.46
550.01	5095.35
550.18	5397.28
550.34	5245.14
550.51	5144.50
550.68	5280.25
550.84	5097.69
551.01	5020.45
551.18	5039.17
551.34	5181.95
551.51	5219.39
551.68	5104.71
551.84	5191.31
552.01	5210.03
552.18	5163.22
552.34	5013.43
552.51	5011.09
552.68	4830.87
552.84	4999.38
553.01	5076.62
553.18	5020.45
553.34	4973.64
553.51	5046.20
553.67	5097.69
553.84	5104.71
554.01	5254.50
554.17	5111.73
554.34	5095.35
554.51	5022.79
554.67	5128.11
554.84	5177.26
555.00	5095.35
555.17	5100.03
555.33	5055.56
555.50	5163.22
555.67	5102.37
555.83	4807.46
556.00	4999.38
556.16	5181.95
556.33	4823.84
556.50	4718.52
556.66	4968.96
556.83	4840.23
556.99	4847.25
557.16	4821.50
557.32	4798.10
557.49	4835.55
557.65	4821.50
557.82	4795.76
557.98	4812.14
558.15	4828.53
558.32	4765.33
558.48	4613.20
558.65	4681.07
558.81	4748.95
558.98	4573.41
559.14	4755.97
559.31	4716.18
559.47	4631.92
559.64	4762.99
559.80	4641.28
559.97	4606.17
560.13	4823.84
560.30	4807.46
560.46	4997.04
560.63	5027.47
560.79	4957.25
560.96	5050.88
561.12	4809.80
561.29	4655.33
561.45	4465.74
561.61	4695.11
561.78	4819.16
561.94	4844.91
562.11	4786.40
562.27	4585.11
562.44	4791.08
562.60	4823.84
562.77	4723.20
562.93	4905.76
563.10	4924.49
563.26	4725.54
563.42	4704.48
563.59	4690.43
563.75	4758.31
563.92	4770.01
564.08	4550.00
564.24	4650.64
564.41	4805.12
564.57	4779.37
564.74	4676.39
564.90	4770.01
565.07	4645.96
565.23	4615.54
565.39	4615.54
565.56	4587.45
565.72	4456.38
565.88	4376.80
566.05	4447.02
566.21	4461.06
566.38	4517.23
566.54	4559.36
566.70	4643.62
566.87	4568.73
567.03	4479.79
567.19	4711.50
567.36	4643.62
567.52	4613.20
567.68	4564.04
567.85	4470.42
568.01	4306.59
568.17	4306.59
568.34	4180.20
568.50	4210.62
568.66	4257.43
568.83	4290.20
568.99	4219.99
569.15	4337.01
569.32	4290.20
569.48	4229.35
569.64	4208.28
569.81	4245.73
569.97	4231.69
570.13	4262.12
570.30	4304.25
570.46	4161.47
570.62	4065.51
570.78	4128.70
570.95	4032.74
571.11	4278.50
571.27	4238.71
571.43	4276.16
571.60	4203.60
571.76	4241.05
571.92	4215.30
572.09	4367.44
572.25	4255.09
572.41	4308.93
572.57	4224.67
572.74	4381.48
572.90	4266.80
573.06	4376.80
573.22	4177.86
573.38	4280.84
573.55	4245.73
573.71	4393.19
573.87	4245.73
574.03	4098.28
574.20	4217.65
574.36	4238.71
574.52	4079.55
574.68	4049.13
574.84	4145.09
575.01	4072.53
575.17	4086.58
575.33	4044.45
575.49	4344.03
575.65	4173.18
575.82	4142.75
575.98	4081.89
576.14	4203.60
576.30	4292.54
576.46	4351.06
576.62	4372.12
576.79	4313.61
576.95	4411.91
577.11	4205.94
577.27	4147.43
577.43	4250.41
577.59	4098.28
577.75	4156.79
577.92	4077.21
578.08	3882.95
578.24	4067.85
578.40	4060.83
578.56	4227.01
578.72	4299.56
578.88	4308.93
579.04	4182.54
579.21	4187.22
579.37	4259.78
579.53	4276.16
579.69	4219.99
579.85	4105.30
580.01	4278.50
580.17	4194.24
580.33	4175.52
580.49	4112.32
580.65	4109.98
580.82	4198.92
580.98	4276.16
581.14	4166.15
581.30	4329.99
581.46	4189.56
581.62	4234.03
581.78	4346.37
581.94	4191.90
582.10	4365.10
582.26	4252.75
582.42	4325.31
582.58	4271.48
582.74	4252.75
582.90	4257.43
583.06	4346.37
583.22	4264.46
583.38	4180.20
583.54	4341.69
583.70	4341.69
583.86	4294.88
584.02	4180.20
584.18	4236.37
584.34	4259.78
584.50	4238.71
584.66	4184.88
584.82	4250.41
584.98	4163.81
585.14	4060.83
585.30	4093.60
585.46	3964.87
585.62	3932.10
585.78	3892.31
585.94	3892.31
586.10	3955.51
586.26	3985.93
586.42	4035.08
586.58	4159.13
586.74	4205.94
586.90	3927.42
587.06	4079.55
587.22	4011.68
587.38	4016.36
587.54	4002.32
587.70	3794.01
587.86	3630.17
588.02	3541.23
588.18	3424.20
588.34	3398.46
588.49	3112.91
588.65	2972.48
588.81	2843.75
588.97	2825.03
589.13	2813.32
589.29	2848.43
589.45	2974.82
589.61	3012.27
589.77	3077.80
589.93	3138.66
590.08	3141.00
590.24	3421.86
590.40	3356.33
590.56	3442.93
590.72	3323.56
590.88	3368.03
591.04	3365.69
591.20	3379.73
591.35	3215.90
591.51	3311.86
591.67	3234.62
591.83	3253.34
591.99	3183.13
592.15	3309.52
592.31	3424.20
592.46	3419.52
592.62	3541.23
592.78	3574.00
592.94	3494.42
593.10	3543.57
593.26	3520.17
593.41	3627.83
593.57	3513.14
593.73	3400.80
593.89	3372.71
594.05	3281.43
594.20	3047.38
594.36	3171.43
594.52	3007.59
594.68	3169.09
594.84	3255.69
594.99	3494.42
595.15	3435.91
595.31	3459.31
595.47	3386.76
595.62	3356.33
595.78	3524.85
595.94	3648.90
596.10	3559.95
596.25	3536.55
596.41	3353.99
596.57	3410.16
596.73	3461.65
596.88	3473.36
597.04	3569.32
597.20	3471.01
597.36	3262.71
597.51	3328.24
597.67	3382.07
597.83	3527.19
