SpectraSuite Data File
++++++++++++++++++++++++++++++++++++
Date: Fri Oct 04 11:44:11 GMT-05:00 2013
User: price-jones
Dark Spectrum Present: No
Reference Spectrum Present: No
Number of Sampled Component Spectra: 1
Spectrometers: USB2+H05261
Integration Time (usec): 100000 (USB2+H05261)
Spectra Averaged: 1 (USB2+H05261)
Boxcar Smoothing: 0 (USB2+H05261)
Correct for Electrical Dark: No (USB2+H05261)
Strobe/Lamp Enabled: No (USB2+H05261)
Correct for Detector Non-linearity: No (USB2+H05261)
Correct for Stray Light: No (USB2+H05261)
Number of Pixels in Processed Spectrum: 2048
>>>>>Begin Processed Spectral Data<<<<<
365.73	16.38
365.92	16.38
366.12	16.38
366.32	4.68
366.52	0.00
366.72	0.00
366.91	0.00
367.11	0.00
367.31	0.00
367.51	0.00
367.70	0.00
367.90	0.00
368.10	0.00
368.30	0.00
368.49	0.00
368.69	0.00
368.89	0.00
369.09	0.00
369.28	0.00
369.48	0.00
369.68	0.00
369.87	16.38
370.07	0.00
370.27	0.00
370.47	126.39
370.66	374.49
370.86	547.69
371.06	564.07
371.25	514.92
371.45	524.28
371.65	500.87
371.84	425.98
372.04	388.53
372.24	505.56
372.44	528.96
372.63	500.87
372.83	568.75
373.03	475.13
373.22	409.59
373.42	475.13
373.62	559.39
373.81	528.96
374.01	543.00
374.21	479.81
374.40	456.40
374.60	489.17
374.79	561.73
374.99	599.18
375.19	655.35
375.38	634.29
375.58	592.16
375.78	662.37
375.97	610.88
376.17	681.10
376.37	606.20
376.56	580.45
376.76	718.54
376.95	599.18
377.15	760.67
377.35	772.38
377.54	695.14
377.74	821.53
377.93	753.65
378.13	786.42
378.33	753.65
378.52	681.10
378.72	629.60
378.91	671.73
379.11	622.58
379.31	592.16
379.50	596.84
379.70	695.14
379.89	711.52
380.09	781.74
380.28	760.67
380.48	807.48
380.68	711.52
380.87	704.50
381.07	688.12
381.26	641.31
381.46	641.31
381.65	641.31
381.85	540.66
382.04	589.82
382.24	543.00
382.43	524.28
382.63	491.51
382.83	531.30
383.02	472.79
383.22	641.31
383.41	561.73
383.61	547.69
383.80	594.50
384.00	627.26
384.19	727.91
384.39	802.80
384.58	713.86
384.78	763.01
384.97	821.53
385.17	671.73
385.36	704.50
385.56	603.86
385.75	613.22
385.95	718.54
386.14	758.33
386.34	812.17
386.53	755.99
386.72	699.82
386.92	741.95
387.11	748.97
387.31	730.25
387.50	727.91
387.70	706.84
387.89	681.10
388.09	798.12
388.28	788.76
388.48	734.93
388.67	816.85
388.86	908.13
389.06	847.27
389.25	1008.77
389.45	922.17
389.64	957.28
389.84	954.94
390.03	919.83
390.22	964.30
390.42	980.68
390.61	1062.60
390.81	1097.71
391.00	1095.37
391.19	1062.60
391.39	978.34
391.58	1022.81
391.78	950.26
391.97	882.38
392.16	849.61
392.36	819.19
392.55	676.41
392.75	571.09
392.94	496.19
393.13	503.22
393.33	531.30
393.52	657.69
393.71	774.72
393.91	849.61
394.10	976.00
394.29	999.41
394.49	1041.54
394.68	1139.84
394.88	1139.84
395.07	1240.48
395.26	1177.29
395.46	1123.46
395.65	1090.69
395.84	1006.43
396.04	903.45
396.23	758.33
396.42	571.09
396.62	704.50
396.81	741.95
397.00	758.33
397.19	933.87
397.39	1149.20
397.58	1291.98
397.77	1317.72
397.97	1390.28
398.16	1420.71
398.35	1441.77
398.55	1444.11
398.74	1486.24
398.93	1526.03
399.12	1371.55
399.32	1488.58
399.51	1462.83
399.70	1549.43
399.90	1579.86
400.09	1584.54
400.28	1551.78
400.47	1544.75
400.67	1647.74
400.86	1713.27
401.05	1678.16
401.24	1717.95
401.44	1746.04
401.63	1727.32
401.82	1753.06
402.01	1767.10
402.21	1811.57
402.40	1750.72
402.59	1624.33
402.78	1647.74
402.97	1549.43
403.17	1682.85
403.36	1757.74
403.55	1778.81
403.74	1809.23
403.93	1736.68
404.13	1746.04
404.32	1629.01
404.51	1584.54
404.70	1884.13
404.89	1788.17
405.09	1746.04
405.28	1893.49
405.47	1685.19
405.66	1750.72
405.85	1706.25
406.05	1619.65
406.24	1701.57
406.43	1703.91
406.62	1687.53
406.81	1806.89
407.00	1743.70
407.20	1612.63
407.39	1806.89
407.58	1764.76
407.77	1687.53
407.96	1853.70
408.15	1856.04
408.34	1963.71
408.54	1944.99
408.73	1912.22
408.92	1952.01
409.11	1954.35
409.30	1844.34
409.49	1678.16
409.68	1584.54
409.87	1514.33
410.07	1732.00
410.26	1717.95
410.45	1774.13
410.64	1853.70
410.83	1937.96
411.02	2101.80
411.21	2101.80
411.40	2083.08
411.59	2090.10
411.78	2090.10
411.98	2008.18
412.17	2125.21
412.36	2010.52
412.55	2022.22
412.74	2029.24
412.93	1994.14
413.12	1987.11
413.31	2139.25
413.50	2087.76
413.69	2230.53
413.88	2045.63
414.07	2120.53
414.26	1947.33
414.45	2146.27
414.64	2155.63
414.83	2179.04
415.02	2143.93
415.22	2085.42
415.41	2092.44
415.60	2202.44
415.79	2258.62
415.98	2345.22
416.17	2296.07
416.36	2272.66
416.55	2181.38
416.74	2155.63
416.93	2134.57
417.12	2127.55
417.31	2172.02
417.50	2263.30
417.69	2289.04
417.88	2260.96
418.07	2279.68
418.26	2186.06
418.45	2244.57
418.64	2406.07
418.83	2235.21
419.02	2333.51
419.21	2270.32
419.39	2172.02
419.58	2019.88
419.77	2134.57
419.96	2167.34
420.15	2368.62
420.34	2385.01
420.53	2495.01
420.72	2424.80
420.91	2382.67
421.10	2485.65
421.29	2560.55
421.48	2429.48
421.67	2408.41
421.86	2413.09
422.05	2267.98
422.24	1947.33
422.43	2057.33
422.61	2172.02
422.80	2373.30
422.99	2392.03
423.18	2275.00
423.37	2303.09
423.56	2251.60
423.75	2207.13
423.94	2286.70
424.13	2129.89
424.32	2181.38
424.50	2221.17
424.69	2183.72
424.88	2319.47
425.07	2218.83
425.26	2174.36
425.45	2059.67
425.64	2153.29
425.83	2155.63
426.01	2279.68
426.20	2267.98
426.39	2200.10
426.58	2230.53
426.77	2047.97
426.96	2080.74
427.15	2101.80
427.33	2080.74
427.52	2237.55
427.71	2209.47
427.90	2207.13
428.09	2125.21
428.28	2204.78
428.46	2120.53
428.65	2122.87
428.84	2218.83
429.03	2169.68
429.22	2015.20
429.40	2022.22
429.59	1771.79
429.78	1631.35
429.97	1600.93
430.16	1624.33
430.34	1610.29
430.53	1701.57
430.72	1689.87
430.91	1907.54
431.10	2026.90
431.28	2347.56
431.47	2541.82
431.66	2612.04
431.85	2342.88
432.03	2314.79
432.22	2270.32
432.41	2167.34
432.60	2431.82
432.79	2518.42
432.97	2621.40
433.16	2532.46
433.35	2408.41
433.54	2272.66
433.72	2176.70
433.91	2136.91
434.10	2218.83
434.28	2464.58
434.47	2434.16
434.66	2520.76
434.85	2523.10
435.03	2565.23
435.22	2696.30
435.41	2876.52
435.59	2963.12
435.78	2836.73
435.97	2832.05
436.16	2754.81
436.34	2768.85
436.53	2717.36
436.72	2757.15
436.90	2644.81
437.09	2590.97
437.28	2511.39
437.46	2478.63
437.65	2537.14
437.84	2427.14
438.02	2335.85
438.21	2253.94
438.40	2232.87
438.58	2511.39
438.77	2466.92
438.96	2565.23
439.14	2621.40
439.33	2651.83
439.52	2773.53
439.70	2757.15
439.89	2668.21
440.08	2602.68
440.26	2560.55
440.45	2595.65
440.63	2729.06
440.82	2871.84
441.01	2995.89
441.19	2935.03
441.38	2974.82
441.57	2981.84
441.75	3045.04
441.94	3021.63
442.12	3138.66
442.31	3052.06
442.50	3063.76
442.68	3162.06
442.87	3005.25
443.05	3054.40
443.24	2963.12
443.43	3138.66
443.61	3152.70
443.80	3197.17
443.98	3110.57
444.17	2977.16
444.35	3229.94
444.54	3229.94
444.73	3166.74
444.91	3042.70
445.10	2939.71
445.28	2885.88
445.47	2715.02
445.65	2689.28
445.84	2930.35
446.02	2928.01
446.21	3173.77
446.39	2942.05
446.58	3157.38
446.77	3073.12
446.95	3194.83
447.14	3265.05
447.32	3258.03
447.51	3187.81
447.69	3089.51
447.88	2981.84
448.06	3108.23
448.25	3063.76
448.43	3038.02
448.62	3040.36
448.80	3007.59
448.99	3229.94
449.17	3150.36
449.36	3187.81
449.54	3178.45
449.73	3346.97
449.91	3424.20
450.10	3293.13
450.28	3452.29
450.46	3459.31
450.65	3454.63
450.83	3475.70
451.02	3421.86
451.20	3297.81
451.39	3190.15
451.57	3363.35
451.76	3370.37
451.94	3332.92
452.13	3361.01
452.31	3262.71
452.49	3068.44
452.68	3023.97
452.86	3012.27
453.05	3187.81
453.23	3105.89
453.42	3148.02
453.60	3335.26
453.78	3307.18
453.97	3255.69
454.15	3283.77
454.34	3042.70
454.52	3131.64
454.70	3033.33
454.89	3302.50
455.07	3274.41
455.26	3344.63
455.44	3424.20
455.62	3314.20
455.81	3379.73
455.99	3445.27
456.17	3494.42
456.36	3400.80
456.54	3440.59
456.73	3578.68
456.91	3463.99
457.09	3536.55
457.28	3606.77
457.46	3478.04
457.64	3524.85
457.83	3407.82
458.01	3297.81
458.19	3321.22
458.38	3382.07
458.56	3506.12
458.74	3515.48
458.93	3581.02
459.11	3332.92
459.29	3363.35
459.48	3375.05
459.66	3356.33
459.84	3515.48
460.03	3522.51
460.21	3478.04
460.39	3548.25
460.57	3449.95
460.76	3637.19
460.94	3583.36
461.12	3501.44
461.31	3672.30
461.49	3623.15
461.67	3538.89
461.85	3705.07
462.04	3653.58
462.22	4070.19
462.40	3665.28
462.59	3747.20
462.77	3489.74
462.95	3541.23
463.13	3555.27
463.32	3531.87
463.50	3435.91
463.68	3571.66
463.86	3669.96
464.05	3363.35
464.23	3468.67
464.41	3407.82
464.59	3473.36
464.78	3389.10
464.96	3466.33
465.14	3375.05
465.32	3365.69
465.50	3597.40
465.69	3705.07
465.87	3545.91
466.05	3585.70
466.23	3414.84
466.41	3386.76
466.60	3325.90
466.78	3466.33
466.96	3300.16
467.14	3396.12
467.32	3566.98
467.51	3576.34
467.69	3321.22
467.87	3471.01
468.05	3513.14
468.23	3548.25
468.41	3468.67
468.60	3365.69
468.78	3620.81
468.96	3440.59
469.14	3618.47
469.32	3475.70
469.50	3279.09
469.69	3463.99
469.87	3485.06
470.05	3403.14
470.23	3232.28
470.41	3356.33
470.59	3351.65
470.77	3311.86
470.95	3534.21
471.14	3630.17
471.32	3534.21
471.50	3728.47
471.68	3651.24
471.86	3873.59
472.04	3786.99
472.22	3838.48
472.40	3524.85
472.58	3496.76
472.77	3459.31
472.95	3496.76
473.13	3543.57
473.31	3672.30
473.49	3611.45
473.67	3730.81
473.85	3716.77
474.03	3826.78
474.21	3808.05
474.39	3875.93
474.57	3868.91
474.75	3964.87
474.93	3728.47
475.12	3686.34
475.30	3606.77
475.48	3733.15
475.66	3871.25
475.84	3726.13
476.02	3691.02
476.20	3695.71
476.38	3758.90
476.56	3955.51
476.74	3932.10
476.92	3794.01
477.10	3826.78
477.28	3988.27
477.46	4128.70
477.64	4149.77
477.82	4095.94
478.00	4245.73
478.18	4102.96
478.36	4081.89
478.54	3997.64
478.72	4105.30
478.90	4046.79
479.08	4344.03
479.26	4374.46
479.44	4304.25
479.62	4374.46
479.80	4301.90
479.98	4374.46
480.16	4498.51
480.34	4390.84
480.52	4400.21
480.70	4409.57
480.88	4411.91
481.06	4566.39
481.24	4594.47
481.41	4596.81
481.59	4732.56
481.77	4709.16
481.95	4685.75
482.13	4678.73
482.31	4678.73
482.49	4629.58
482.67	4751.29
482.85	4727.88
483.03	4634.26
483.21	4805.12
483.39	4877.68
483.57	4765.33
483.74	4617.88
483.92	4788.74
484.10	4667.03
484.28	4774.69
484.46	4943.21
484.64	5039.17
484.82	4842.57
485.00	4819.16
485.18	4690.43
485.35	4582.77
485.53	4269.14
485.71	3906.35
485.89	3815.07
486.07	4081.89
486.25	4414.25
486.43	4475.10
486.61	4695.11
486.78	4699.80
486.96	4606.17
487.14	4931.51
487.32	5011.09
487.50	5050.88
487.68	5416.00
487.85	5224.08
488.03	5385.57
488.21	5289.61
488.39	5195.99
488.57	5055.56
488.75	5097.69
488.92	5310.68
489.10	5380.89
489.28	5746.02
489.46	5895.81
489.64	5888.79
489.81	5898.15
489.99	5783.46
490.17	5612.60
490.35	5720.27
490.53	5907.51
490.70	5724.95
490.88	5664.10
491.06	5790.49
491.24	5900.49
491.41	5764.74
491.59	5390.25
491.77	5315.36
491.95	5479.19
492.13	5472.17
492.30	5928.58
492.48	5881.77
492.66	6097.10
492.84	6153.27
493.01	5893.47
493.19	6047.94
493.37	5956.66
493.54	6038.58
493.72	5966.03
493.90	6155.61
494.08	6408.39
494.25	6345.19
494.43	6370.94
494.61	6565.20
494.79	6415.41
494.96	6300.72
495.14	6380.30
495.32	6216.46
495.49	6193.06
495.67	6223.48
495.85	6455.20
496.02	6642.44
496.20	6670.53
496.38	6658.82
496.55	6452.86
496.73	6614.35
496.91	6654.14
497.09	6609.67
497.26	6878.83
497.44	6626.06
497.62	6722.02
497.79	6506.69
497.97	6167.31
498.14	6188.38
498.32	6441.15
498.50	6459.88
498.67	6534.78
498.85	6619.04
499.03	6731.38
499.20	6796.92
499.38	6806.28
499.56	6558.18
499.73	6677.55
499.91	6686.91
500.08	6448.18
500.26	6223.48
500.44	6216.46
500.61	6579.25
500.79	6300.72
500.97	6420.09
501.14	6319.45
501.32	6244.55
501.49	6277.32
501.67	6359.24
501.84	6373.28
502.02	6384.98
502.20	6546.48
502.37	6511.37
502.55	6445.84
502.72	6494.99
502.90	6726.70
503.07	6719.68
503.25	6345.19
503.43	6090.07
503.60	6214.12
503.78	5923.90
503.95	5980.07
504.13	6469.24
504.30	6647.12
504.48	6799.26
504.65	6581.59
504.83	6771.17
505.01	6738.40
505.18	6768.83
505.36	7028.63
505.53	6834.36
505.71	6843.73
505.88	7260.34
506.06	6967.77
506.23	6827.34
506.41	6672.87
506.58	6764.15
506.76	6572.22
506.93	6642.44
507.11	6560.52
507.28	6691.59
507.46	6530.09
507.63	6377.96
507.81	6452.86
507.98	6387.32
508.16	6668.19
508.33	6705.63
508.50	7140.97
508.68	7028.63
508.85	7162.04
509.03	7068.42
509.20	7023.95
509.38	7068.42
509.55	6771.17
509.73	6892.88
509.90	7021.61
510.08	7047.35
510.25	7077.78
510.42	6799.26
510.60	7066.08
510.77	7014.59
510.95	7061.40
511.12	7265.02
511.30	7311.83
511.47	7368.01
511.64	7321.20
511.82	7368.01
511.99	7180.76
512.17	7033.31
512.34	6768.83
512.51	6817.98
512.69	7131.61
512.86	6937.35
513.04	6963.09
513.21	7204.17
513.38	7103.53
513.56	6658.82
513.73	6567.54
513.90	6911.60
514.08	6843.73
514.25	6782.87
514.43	6902.24
514.60	6925.65
514.77	6949.05
514.95	6846.07
515.12	6981.82
515.29	7047.35
515.47	7091.82
515.64	7260.34
515.81	7002.88
515.99	7136.29
516.16	6876.49
516.33	6235.19
516.51	5781.12
516.68	5675.80
516.85	5689.84
517.03	5668.78
517.20	6071.35
517.37	6597.97
517.54	6871.81
517.72	7045.01
517.89	6544.14
518.06	5961.34
518.24	5947.30
518.41	6235.19
518.58	6520.73
518.75	6717.34
518.93	6792.23
519.10	6806.28
519.27	6909.26
519.45	6864.79
519.62	7033.31
519.79	7187.79
519.96	7234.60
520.14	7045.01
520.31	7023.95
520.48	6946.71
520.65	7033.31
520.83	7253.32
521.00	7250.98
521.17	7042.67
521.34	7112.89
521.52	7101.19
521.69	7337.58
521.86	7449.93
522.03	7325.88
522.20	7077.78
522.38	6724.36
522.55	6644.78
522.72	6892.88
522.89	6867.13
523.07	6977.14
523.24	6998.20
523.41	7180.76
523.58	7199.49
523.75	7400.77
523.92	7489.71
524.10	7461.63
524.27	7435.88
524.44	7482.69
524.61	7372.69
524.78	7255.66
524.96	7204.17
525.13	7229.91
525.30	7482.69
525.47	7412.48
525.64	7627.81
525.81	7307.15
525.98	7101.19
526.16	6560.52
526.33	6434.13
526.50	6293.70
526.67	6293.70
526.84	6310.08
527.01	6600.31
527.18	6773.51
527.36	6890.54
527.53	7227.57
527.70	7356.30
527.87	7164.38
528.04	7042.67
528.21	7227.57
528.38	7363.33
528.55	7641.85
528.72	7658.23
528.89	7882.92
529.07	7482.69
529.24	7283.75
529.41	7372.69
529.58	7136.29
529.75	7091.82
529.92	7349.28
530.09	7269.70
530.26	7508.44
530.43	7501.42
530.60	7463.97
530.77	7550.57
530.94	7515.46
531.11	7400.77
531.28	7342.26
531.46	7480.35
531.63	7281.41
531.80	7410.14
531.97	7234.60
532.14	7077.78
532.31	6960.75
532.48	6785.21
532.65	6583.93
532.82	6918.62
532.99	7087.14
533.16	7152.68
533.33	7393.75
533.50	7482.69
533.67	7234.60
533.84	7119.91
534.01	7129.27
534.18	7030.97
534.35	7162.04
534.52	7246.30
534.69	7246.30
534.86	7262.68
535.03	7419.50
535.20	7557.59
535.37	7501.42
535.54	7602.06
535.71	7485.03
535.88	7452.27
536.05	7208.85
536.22	7339.92
536.38	7148.00
536.55	7045.01
536.72	7166.72
536.89	6892.88
537.06	6953.73
537.23	7346.94
537.40	7353.96
537.57	7318.86
537.74	7293.11
537.91	7398.43
538.08	7133.95
538.25	7267.36
538.42	7517.80
538.59	7279.07
538.75	7281.41
538.92	7143.32
539.09	7094.16
539.26	7110.55
539.43	6991.18
539.60	6869.47
539.77	7171.40
539.94	7002.88
540.11	6853.09
540.28	6822.66
540.44	6710.32
540.61	6913.94
540.78	6761.81
540.95	6984.16
541.12	7084.80
541.29	7192.47
541.46	7386.73
541.62	7375.03
541.79	7159.70
541.96	7176.08
542.13	7143.32
542.30	7150.34
542.47	7239.28
542.63	7290.77
542.80	7211.19
542.97	7412.48
543.14	7108.21
543.31	7021.61
543.48	7236.94
543.64	7410.14
543.81	7662.91
543.98	7566.95
544.15	7330.56
544.32	7250.98
544.48	7098.84
544.65	7236.94
544.82	7375.03
544.99	7190.13
545.16	7241.62
545.32	7070.76
545.49	7595.04
545.66	8121.66
545.83	7913.35
546.00	7733.13
546.16	7328.22
546.33	7220.55
546.50	7171.40
546.67	7318.86
546.83	7145.66
547.00	7129.27
547.17	6920.96
547.34	6911.60
547.50	6815.64
547.67	6920.96
547.84	7068.42
548.00	6981.82
548.17	7145.66
548.34	7082.46
548.51	7157.36
548.67	6998.20
548.84	7239.28
549.01	7103.53
549.18	7082.46
549.34	7014.59
549.51	7124.59
549.68	7068.42
549.84	7119.91
550.01	7091.82
550.18	7145.66
550.34	6988.84
550.51	7030.97
550.68	7108.21
550.84	6951.39
551.01	6862.45
551.18	6862.45
551.34	6972.46
551.51	7103.53
551.68	6935.01
551.84	7272.04
552.01	6871.81
552.18	7173.74
552.34	6925.65
552.51	6787.55
552.68	6663.51
552.84	6794.58
553.01	6860.11
553.18	6902.24
553.34	6864.79
553.51	7068.42
553.67	7054.37
553.84	6977.14
554.01	6984.16
554.17	6949.05
554.34	6892.88
554.51	6920.96
554.67	7087.14
554.84	6977.14
555.00	6984.16
555.17	6913.94
555.33	6876.49
555.50	6918.62
555.67	6827.34
555.83	6813.30
556.00	6782.87
556.16	6803.94
556.33	6780.53
556.50	6616.69
556.66	6754.79
556.83	6640.10
556.99	6815.64
557.16	6590.95
557.32	6597.97
557.49	6719.68
557.65	6729.04
557.82	6712.66
557.98	6633.08
558.15	6595.63
558.32	6483.28
558.48	6150.93
558.65	6200.08
558.81	6457.54
558.98	6291.36
559.14	6471.58
559.31	6459.88
559.47	6623.72
559.64	6614.35
559.80	6448.18
559.97	6342.85
560.13	6590.95
560.30	6677.55
560.46	6656.48
560.63	6745.42
560.79	6808.62
560.96	6787.55
561.12	6506.69
561.29	6249.23
561.45	6335.83
561.61	6544.14
561.78	6502.01
561.94	6415.41
562.11	6562.86
562.27	6417.75
562.44	6544.14
562.60	6719.68
562.77	6651.80
562.93	6958.41
563.10	6691.59
563.26	6567.54
563.42	6469.24
563.59	6441.15
563.75	6539.46
563.92	6399.02
564.08	6473.92
564.24	6413.07
564.41	6513.71
564.57	6427.11
564.74	6366.26
564.90	6492.65
565.07	6413.07
565.23	6157.95
565.39	6106.46
565.56	6143.91
565.72	6209.44
565.88	6230.51
566.05	6010.50
566.21	6195.40
566.38	6272.64
566.54	6331.15
566.70	6389.66
566.87	6331.15
567.03	6284.34
567.19	6511.37
567.36	6480.94
567.52	6342.85
567.68	5893.47
567.85	5947.30
568.01	6005.81
568.17	5771.76
568.34	5870.06
568.50	5764.74
568.66	5710.91
568.83	6022.20
568.99	5998.79
569.15	5858.36
569.32	5989.43
569.48	5891.13
569.64	5877.09
569.81	5830.27
569.97	5628.99
570.13	5867.72
570.30	5713.25
570.46	5715.59
570.62	5771.76
570.78	5636.01
570.95	5680.48
571.11	5769.42
571.27	5593.88
571.43	5738.99
571.60	5837.30
571.76	5888.79
571.92	5837.30
572.09	5994.11
572.25	6066.67
572.41	5816.23
572.57	5966.03
572.74	5930.92
572.90	5867.72
573.06	6019.86
573.22	5893.47
573.38	5951.98
573.55	5884.11
573.71	5996.45
573.87	5928.58
574.03	5746.02
574.20	5795.17
574.36	5746.02
574.52	5746.02
574.68	5598.56
574.84	5783.46
575.01	5727.29
575.17	5430.04
575.33	5605.58
575.49	5729.63
575.65	5678.14
575.82	5668.78
575.98	5673.46
576.14	5631.33
576.30	5746.02
576.46	5797.51
576.62	5818.57
576.79	5975.39
576.95	5706.23
577.11	5813.89
577.27	5755.38
577.43	5797.51
577.59	5750.70
577.75	5696.86
577.92	5528.35
578.08	5343.44
578.24	5638.35
578.40	5563.45
578.56	5570.48
578.72	5699.20
578.88	5729.63
579.04	5671.12
579.21	5783.46
579.37	5741.33
579.53	5659.42
579.69	5865.38
579.85	5790.49
580.01	5659.42
580.17	5767.08
580.33	5837.30
580.49	5575.16
580.65	5872.40
580.82	5636.01
580.98	5846.66
581.14	5741.33
581.30	5790.49
581.46	5696.86
581.62	5748.36
581.78	5738.99
581.94	5778.78
582.10	5797.51
582.26	5954.32
582.42	5811.55
582.58	5750.70
582.74	5685.16
582.90	5785.80
583.06	5914.53
583.22	5870.06
583.38	5753.04
583.54	5678.14
583.70	5724.95
583.86	5837.30
584.02	5746.02
584.18	5846.66
584.34	5893.47
584.50	5851.34
584.66	5584.52
584.82	5647.71
584.98	5781.12
585.14	5467.49
585.30	5509.62
585.46	5357.49
585.62	5394.93
585.78	5322.38
585.94	5331.74
586.10	5516.64
586.26	5390.25
586.42	5476.85
586.58	5385.57
586.74	5526.00
586.90	5507.28
587.06	5390.25
587.22	5448.77
587.38	5345.78
587.54	5369.19
587.70	5055.56
587.86	4997.04
588.02	4915.12
588.18	4704.48
588.34	4603.83
588.49	4301.90
588.65	4086.58
588.81	3873.59
588.97	4032.74
589.13	3964.87
589.29	3894.65
589.45	4023.38
589.61	4007.00
589.77	4250.41
589.93	4355.74
590.08	4521.92
590.24	4814.48
590.40	4695.11
590.56	4645.96
590.72	4620.22
590.88	4547.66
591.04	4550.00
591.20	4582.77
591.35	4540.64
591.51	4409.57
591.67	4477.44
591.83	4510.21
591.99	4486.81
592.15	4578.09
592.31	4645.96
592.46	4643.62
592.62	4685.75
592.78	4573.41
592.94	4732.56
593.10	4940.87
593.26	4952.57
593.41	4997.04
593.57	4758.31
593.73	4737.24
593.89	4407.23
594.05	4372.12
594.20	4362.76
594.36	4140.41
594.52	4138.07
594.68	4159.13
594.84	4465.74
594.99	4470.42
595.15	4770.01
595.31	4631.92
595.47	4636.60
595.62	4596.81
595.78	4667.03
595.94	4814.48
596.10	4809.80
596.25	4711.50
596.41	4671.71
596.57	4718.52
596.73	4554.68
596.88	4737.24
597.04	4613.20
597.20	4774.69
597.36	4622.56
597.51	4587.45
597.67	4690.43
