SpectraSuite Data File
++++++++++++++++++++++++++++++++++++
Date: Fri Oct 04 11:44:26 GMT-05:00 2013
User: price-jones
Dark Spectrum Present: No
Reference Spectrum Present: No
Number of Sampled Component Spectra: 1
Spectrometers: USB2+H05261
Integration Time (usec): 100000 (USB2+H05261)
Spectra Averaged: 1 (USB2+H05261)
Boxcar Smoothing: 0 (USB2+H05261)
Correct for Electrical Dark: No (USB2+H05261)
Strobe/Lamp Enabled: No (USB2+H05261)
Correct for Detector Non-linearity: No (USB2+H05261)
Correct for Stray Light: No (USB2+H05261)
Number of Pixels in Processed Spectrum: 2048
>>>>>Begin Processed Spectral Data<<<<<
365.73	53.83
365.92	53.83
366.12	53.83
366.32	0.00
366.52	0.00
366.72	0.00
366.91	0.00
367.11	0.00
367.31	0.00
367.51	0.00
367.70	0.00
367.90	0.00
368.10	0.00
368.30	0.00
368.49	0.00
368.69	0.00
368.89	0.00
369.09	0.00
369.28	0.00
369.48	0.00
369.68	0.00
369.87	25.75
370.07	0.00
370.27	25.75
370.47	14.04
370.66	77.24
370.86	159.16
371.06	159.16
371.25	114.69
371.45	175.54
371.65	140.43
371.84	147.45
372.04	194.26
372.24	135.75
372.44	170.86
372.63	196.60
372.83	135.75
373.03	142.77
373.22	245.76
373.42	170.86
373.62	201.29
373.81	257.46
374.01	252.78
374.21	227.03
374.40	121.71
374.60	276.18
374.79	217.67
374.99	182.56
375.19	168.52
375.38	236.39
375.58	205.97
375.78	241.08
375.97	194.26
376.17	313.63
376.37	198.95
376.56	182.56
376.76	187.24
376.95	196.60
377.15	243.42
377.35	238.73
377.54	294.91
377.74	264.48
377.93	234.05
378.13	187.24
378.33	264.48
378.52	142.77
378.72	177.88
378.91	297.25
379.11	208.31
379.31	161.50
379.50	248.10
379.70	257.46
379.89	212.99
380.09	222.35
380.28	259.80
380.48	224.69
380.68	262.14
380.87	177.88
381.07	201.29
381.26	322.99
381.46	194.26
381.65	182.56
381.85	224.69
382.04	140.43
382.24	203.63
382.43	180.22
382.63	142.77
382.83	243.42
383.02	238.73
383.22	198.95
383.41	173.20
383.61	210.65
383.80	152.13
384.00	189.58
384.19	252.78
384.39	262.14
384.58	271.50
384.78	280.86
384.97	220.01
385.17	189.58
385.36	184.90
385.56	287.89
385.75	294.91
385.95	182.56
386.14	201.29
386.34	205.97
386.53	177.88
386.72	266.82
386.92	241.08
387.11	220.01
387.31	217.67
387.50	238.73
387.70	229.37
387.89	227.03
388.09	182.56
388.28	222.35
388.48	269.16
388.67	262.14
388.86	297.25
389.06	262.14
389.25	313.63
389.45	372.15
389.64	294.91
389.84	262.14
390.03	227.03
390.22	290.23
390.42	283.20
390.61	248.10
390.81	245.76
391.00	248.10
391.19	306.61
391.39	285.55
391.58	273.84
391.78	236.39
391.97	257.46
392.16	212.99
392.36	257.46
392.55	210.65
392.75	182.56
392.94	201.29
393.13	203.63
393.33	191.92
393.52	271.50
393.71	285.55
393.91	241.08
394.10	236.39
394.29	203.63
394.49	315.97
394.68	299.59
394.88	348.74
395.07	334.70
395.26	397.89
395.46	358.10
395.65	332.36
395.84	257.46
396.04	304.27
396.23	215.33
396.42	205.97
396.62	264.48
396.81	280.86
397.00	269.16
397.19	229.37
397.39	273.84
397.58	299.59
397.77	238.73
397.97	318.31
398.16	346.40
398.35	458.74
398.55	416.62
398.74	425.98
398.93	365.12
399.12	379.17
399.32	400.23
399.51	383.85
399.70	379.17
399.90	404.91
400.09	437.68
400.28	374.49
400.47	320.65
400.67	465.77
400.86	395.55
401.05	425.98
401.24	475.13
401.44	463.43
401.63	500.87
401.82	496.19
402.01	418.96
402.21	454.06
402.40	428.32
402.59	388.53
402.78	381.51
402.97	433.00
403.17	456.40
403.36	402.57
403.55	404.91
403.74	449.38
403.93	407.25
404.13	479.81
404.32	475.13
404.51	414.27
404.70	454.06
404.89	451.72
405.09	416.62
405.28	423.64
405.47	315.97
405.66	458.74
405.85	449.38
406.05	442.36
406.24	358.10
406.43	428.32
406.62	486.83
406.81	472.79
407.00	383.85
407.20	393.21
407.39	351.08
407.58	491.51
407.77	498.53
407.96	468.11
408.15	503.22
408.34	477.47
408.54	482.15
408.73	550.03
408.92	449.38
409.11	507.90
409.30	458.74
409.49	372.15
409.68	468.11
409.87	472.79
410.07	334.70
410.26	423.64
410.45	451.72
410.64	430.66
410.83	500.87
411.02	496.19
411.21	587.47
411.40	463.43
411.59	489.17
411.78	461.09
411.98	451.72
412.17	510.24
412.36	475.13
412.55	489.17
412.74	463.43
412.93	538.32
413.12	470.45
413.31	550.03
413.50	559.39
413.69	521.94
413.88	489.17
414.07	472.79
414.26	531.30
414.45	484.49
414.64	482.15
414.83	500.87
415.02	528.96
415.22	533.64
415.41	580.45
415.60	547.69
415.79	575.77
415.98	613.22
416.17	660.03
416.36	575.77
416.55	500.87
416.74	507.90
416.93	547.69
417.12	512.58
417.31	545.34
417.50	620.24
417.69	533.64
417.88	634.29
418.07	510.24
418.26	547.69
418.45	491.51
418.64	561.73
418.83	566.41
419.02	503.22
419.21	547.69
419.39	610.88
419.58	428.32
419.77	535.98
419.96	547.69
420.15	582.79
420.34	566.41
420.53	545.34
420.72	660.03
420.91	566.41
421.10	617.90
421.29	641.31
421.48	627.26
421.67	540.66
421.86	580.45
422.05	552.37
422.24	524.28
422.43	491.51
422.61	568.75
422.80	531.30
422.99	582.79
423.18	472.79
423.37	510.24
423.56	550.03
423.75	503.22
423.94	535.98
424.13	519.60
424.32	493.85
424.50	580.45
424.69	559.39
424.88	655.35
425.07	573.43
425.26	510.24
425.45	587.47
425.64	500.87
425.83	514.92
426.01	566.41
426.20	613.22
426.39	589.82
426.58	482.15
426.77	550.03
426.96	559.39
427.15	477.47
427.33	528.96
427.52	594.50
427.71	507.90
427.90	554.71
428.09	573.43
428.28	521.94
428.46	477.47
428.65	554.71
428.84	486.83
429.03	531.30
429.22	571.09
429.40	479.81
429.59	451.72
429.78	409.59
429.97	496.19
430.16	465.77
430.34	437.68
430.53	454.06
430.72	428.32
430.91	550.03
431.10	409.59
431.28	631.94
431.47	657.69
431.66	613.22
431.85	545.34
432.03	528.96
432.22	596.84
432.41	566.41
432.60	606.20
432.79	521.94
432.97	594.50
433.16	603.86
433.35	512.58
433.54	545.34
433.72	603.86
433.91	578.11
434.10	491.51
434.28	603.86
434.47	559.39
434.66	660.03
434.85	594.50
435.03	622.58
435.22	833.23
435.41	1036.86
435.59	978.34
435.78	866.00
435.97	702.16
436.16	662.37
436.34	596.84
436.53	704.50
436.72	660.03
436.90	550.03
437.09	613.22
437.28	564.07
437.46	573.43
437.65	648.33
437.84	648.33
438.02	627.26
438.21	517.26
438.40	526.62
438.58	531.30
438.77	589.82
438.96	631.94
439.14	650.67
439.33	653.01
439.52	706.84
439.70	678.76
439.89	688.12
440.08	613.22
440.26	587.47
440.45	657.69
440.63	653.01
440.82	723.23
441.01	685.78
441.19	631.94
441.38	720.88
441.57	758.33
441.75	727.91
441.94	770.04
442.12	718.54
442.31	657.69
442.50	784.08
442.68	767.70
442.87	678.76
443.05	772.38
443.24	706.84
443.43	816.85
443.61	763.01
443.80	767.70
443.98	744.29
444.17	681.10
444.35	774.72
444.54	777.06
444.73	690.46
444.91	770.04
445.10	741.95
445.28	571.09
445.47	662.37
445.65	702.16
445.84	734.93
446.02	777.06
446.21	688.12
446.39	748.97
446.58	699.82
446.77	734.93
446.95	699.82
447.14	753.65
447.32	755.99
447.51	774.72
447.69	793.44
447.88	800.46
448.06	812.17
448.25	720.88
448.43	671.73
448.62	699.82
448.80	781.74
448.99	805.14
449.17	645.99
449.36	716.20
449.54	709.18
449.73	840.25
449.91	833.23
450.10	770.04
450.28	826.21
450.46	910.47
450.65	840.25
450.83	826.21
451.02	828.55
451.20	791.10
451.39	772.38
451.57	755.99
451.76	699.82
451.94	737.27
452.13	784.08
452.31	816.85
452.49	688.12
452.68	744.29
452.86	727.91
453.05	772.38
453.23	748.97
453.42	770.04
453.60	730.25
453.78	788.76
453.97	730.25
454.15	807.48
454.34	788.76
454.52	784.08
454.70	695.14
454.89	802.80
455.07	807.48
455.26	741.95
455.44	765.36
455.62	688.12
455.81	882.38
455.99	894.08
456.17	809.83
456.36	816.85
456.54	844.93
456.73	786.42
456.91	791.10
457.09	837.91
457.28	903.45
457.46	781.74
457.64	894.08
457.83	861.32
458.01	809.83
458.19	800.46
458.38	816.85
458.56	795.78
458.74	854.30
458.93	805.14
459.11	786.42
459.29	763.01
459.48	802.80
459.66	837.91
459.84	784.08
460.03	858.98
460.21	833.23
460.39	802.80
460.57	912.81
460.76	849.61
460.94	753.65
461.12	894.08
461.31	781.74
461.49	821.53
461.67	851.96
461.85	828.55
462.04	896.43
462.22	1315.38
462.40	844.93
462.59	844.93
462.77	896.43
462.95	847.27
463.13	828.55
463.32	947.92
463.50	915.15
463.68	791.10
463.86	861.32
464.05	868.34
464.23	854.30
464.41	821.53
464.59	770.04
464.78	725.57
464.96	793.44
465.14	816.85
465.32	833.23
465.50	868.34
465.69	896.43
465.87	828.55
466.05	840.25
466.23	751.31
466.41	765.36
466.60	847.27
466.78	720.88
466.96	826.21
467.14	835.57
467.32	936.21
467.51	770.04
467.69	835.57
467.87	929.19
468.05	828.55
468.23	856.64
468.41	856.64
468.60	788.76
468.78	784.08
468.96	791.10
469.14	833.23
469.32	751.31
469.50	795.78
469.69	854.30
469.87	713.86
470.05	781.74
470.23	755.99
470.41	814.51
470.59	835.57
470.77	828.55
470.95	842.59
471.14	966.64
471.32	840.25
471.50	889.40
471.68	889.40
471.86	891.74
472.04	884.72
472.22	891.74
472.40	739.61
472.58	901.11
472.77	858.98
472.95	898.77
473.13	933.87
473.31	875.36
473.49	844.93
473.67	858.98
473.85	884.72
474.03	873.02
474.21	903.45
474.39	884.72
474.57	901.11
474.75	910.47
474.93	866.00
475.12	800.46
475.30	887.06
475.48	851.96
475.66	954.94
475.84	889.40
476.02	828.55
476.20	833.23
476.38	931.53
476.56	1062.60
476.74	868.34
476.92	861.32
477.10	837.91
477.28	985.37
477.46	968.98
477.64	1064.94
477.82	898.77
478.00	917.49
478.18	931.53
478.36	816.85
478.54	1004.09
478.72	968.98
478.90	947.92
479.08	1043.88
479.26	1036.86
479.44	1015.79
479.62	1086.01
479.80	973.66
479.98	950.26
480.16	961.96
480.34	987.71
480.52	1055.58
480.70	933.87
480.88	1006.43
481.06	1020.47
481.24	1067.28
481.41	1076.65
481.59	1198.35
481.77	1027.50
481.95	1104.73
482.13	1083.67
482.31	1036.86
482.49	1100.05
482.67	1174.95
482.85	1046.22
483.03	1146.86
483.21	1095.37
483.39	1163.25
483.57	1074.31
483.74	1132.82
483.92	1102.39
484.10	1100.05
484.28	1083.67
484.46	1198.35
484.64	1097.71
484.82	1177.29
485.00	999.41
485.18	1142.18
485.35	1104.73
485.53	1025.15
485.71	985.37
485.89	889.40
486.07	926.85
486.25	1090.69
486.43	1203.04
486.61	1114.10
486.78	1132.82
486.96	1137.50
487.14	1196.01
487.32	1170.27
487.50	1196.01
487.68	1224.10
487.85	1252.19
488.03	1320.06
488.21	1294.32
488.39	1238.14
488.57	1226.44
488.75	1200.69
488.92	1455.81
489.10	1329.42
489.28	1336.45
489.46	1366.87
489.64	1289.64
489.81	1416.02
489.99	1343.47
490.17	1359.85
490.35	1397.30
490.53	1334.11
490.70	1280.27
490.88	1369.21
491.06	1359.85
491.24	1394.96
491.41	1317.72
491.59	1338.79
491.77	1170.27
491.95	1263.89
492.13	1193.67
492.30	1404.32
492.48	1406.66
492.66	1387.94
492.84	1490.92
493.01	1430.07
493.19	1334.11
493.37	1336.45
493.54	1343.47
493.72	1439.43
493.90	1432.41
494.08	1437.09
494.25	1514.33
494.43	1509.65
494.61	1483.90
494.79	1530.71
494.96	1458.15
495.14	1481.56
495.32	1383.26
495.49	1226.44
495.67	1516.67
495.85	1486.24
496.02	1526.03
496.20	1561.14
496.38	1432.41
496.55	1507.30
496.73	1483.90
496.91	1462.83
497.09	1460.49
497.26	1479.22
497.44	1448.79
497.62	1488.58
497.79	1483.90
497.97	1355.17
498.14	1423.05
498.32	1416.02
498.50	1528.37
498.67	1556.46
498.85	1558.80
499.03	1568.16
499.20	1575.18
499.38	1551.78
499.56	1596.25
499.73	1533.05
499.91	1444.11
500.08	1521.35
500.26	1521.35
500.44	1460.49
500.61	1416.02
500.79	1497.94
500.97	1558.80
501.14	1500.28
501.32	1453.47
501.49	1490.92
501.67	1504.96
501.84	1490.92
502.02	1544.75
502.20	1540.07
502.37	1544.75
502.55	1467.52
502.72	1500.28
502.90	1507.30
503.07	1444.11
503.25	1533.05
503.43	1502.62
503.60	1439.43
503.78	1446.45
503.95	1483.90
504.13	1460.49
504.30	1556.46
504.48	1572.84
504.65	1598.59
504.83	1640.72
505.01	1500.28
505.18	1561.14
505.36	1493.26
505.53	1619.65
505.71	1607.95
505.88	1736.68
506.06	1549.43
506.23	1619.65
506.41	1488.58
506.58	1687.53
506.76	1640.72
506.93	1638.38
507.11	1598.59
507.28	1579.86
507.46	1549.43
507.63	1540.07
507.81	1537.73
507.98	1502.62
508.16	1558.80
508.33	1575.18
508.50	1647.74
508.68	1603.27
508.85	1671.14
509.03	1533.05
509.20	1563.48
509.38	1603.27
509.55	1640.72
509.73	1680.50
509.90	1629.01
510.08	1619.65
510.25	1626.67
510.42	1582.20
510.60	1638.38
510.77	1706.25
510.95	1643.06
511.12	1694.55
511.30	1668.80
511.47	1734.34
511.64	1675.82
511.82	1680.50
511.99	1633.69
512.17	1600.93
512.34	1624.33
512.51	1680.50
512.69	1591.56
512.86	1638.38
513.04	1624.33
513.21	1741.36
513.38	1526.03
513.56	1638.38
513.73	1603.27
513.90	1533.05
514.08	1619.65
514.25	1661.78
514.43	1640.72
514.60	1736.68
514.77	1645.40
514.95	1703.91
515.12	1680.50
515.29	1720.29
515.47	1720.29
515.64	1724.97
515.81	1720.29
515.99	1612.63
516.16	1572.84
516.33	1481.56
516.51	1434.75
516.68	1270.91
516.85	1359.85
517.03	1394.96
517.20	1479.22
517.37	1605.61
517.54	1643.06
517.72	1694.55
517.89	1453.47
518.06	1373.89
518.24	1479.22
518.41	1610.29
518.58	1636.03
518.75	1668.80
518.93	1654.76
519.10	1626.67
519.27	1647.74
519.45	1563.48
519.62	1650.08
519.79	1771.79
519.96	1729.66
520.14	1685.19
520.31	1664.12
520.48	1703.91
520.65	1617.31
520.83	1659.44
521.00	1792.85
521.17	1736.68
521.34	1708.59
521.52	1764.76
521.69	1799.87
521.86	1724.97
522.03	1792.85
522.20	1753.06
522.38	1638.38
522.55	1664.12
522.72	1734.34
522.89	1708.59
523.07	1734.34
523.24	1741.36
523.41	1750.72
523.58	1895.83
523.75	1809.23
523.92	1849.02
524.10	1762.42
524.27	1788.17
524.44	1849.02
524.61	1844.34
524.78	1891.15
524.96	1825.62
525.13	1865.41
525.30	1877.11
525.47	1858.39
525.64	1844.34
525.81	1771.79
525.98	1685.19
526.16	1652.42
526.33	1535.39
526.50	1537.73
526.67	1444.11
526.84	1626.67
527.01	1633.69
527.18	1645.40
527.36	1732.00
527.53	1785.83
527.70	1839.66
527.87	1856.04
528.04	1851.36
528.21	1799.87
528.38	1933.28
528.55	1916.90
528.72	1921.58
528.89	1872.43
529.07	1905.20
529.24	1975.41
529.41	1830.30
529.58	1788.17
529.75	1755.40
529.92	1818.60
530.09	1884.13
530.26	1970.73
530.43	1907.54
530.60	1895.83
530.77	1933.28
530.94	1884.13
531.11	1916.90
531.28	1839.66
531.46	1909.88
531.63	1952.01
531.80	1891.15
531.97	1874.77
532.14	1741.36
532.31	1760.08
532.48	1764.76
532.65	1750.72
532.82	1813.92
532.99	1827.96
533.16	1902.86
533.33	1820.94
533.50	1886.47
533.67	1839.66
533.84	1895.83
534.01	1912.22
534.18	1844.34
534.35	1785.83
534.52	1874.77
534.69	1973.07
534.86	1827.96
535.03	1806.89
535.20	1891.15
535.37	1989.46
535.54	1998.82
535.71	1863.07
535.88	1926.26
536.05	1937.96
536.22	1830.30
536.38	1816.26
536.55	1851.36
536.72	1806.89
536.89	1750.72
537.06	1834.98
537.23	1830.30
537.40	1863.07
537.57	1884.13
537.74	1898.17
537.91	1865.41
538.08	1865.41
538.25	1916.90
538.42	2008.18
538.59	1921.58
538.75	1921.58
538.92	1820.94
539.09	1949.67
539.26	1959.03
539.43	1898.17
539.60	1853.70
539.77	1916.90
539.94	1996.48
540.11	1952.01
540.28	1937.96
540.44	1956.69
540.61	1952.01
540.78	1989.46
540.95	1865.41
541.12	2090.10
541.29	2005.84
541.46	2230.53
541.62	2172.02
541.79	2167.34
541.96	2134.57
542.13	2087.76
542.30	2153.29
542.47	2195.42
542.63	2127.55
542.80	2085.42
542.97	2043.29
543.14	1977.75
543.31	1998.82
543.48	2024.56
543.64	2047.97
543.81	2132.23
543.98	2108.82
544.15	2188.40
544.32	2181.38
544.48	2080.74
544.65	2104.14
544.82	2099.46
544.99	2125.21
545.16	2127.55
545.32	2001.16
545.49	2464.58
545.66	2775.88
545.83	2738.43
546.00	2590.97
546.16	2450.54
546.33	2232.87
546.50	2080.74
546.67	2062.01
546.83	2085.42
547.00	2059.67
547.17	1984.77
547.34	2024.56
547.50	1937.96
547.67	2029.24
547.84	1935.62
548.00	2057.33
548.17	1912.22
548.34	2022.22
548.51	2106.48
548.67	1935.62
548.84	2017.54
549.01	1998.82
549.18	1935.62
549.34	2001.16
549.51	1930.94
549.68	2012.86
549.84	1980.09
550.01	1853.70
550.18	1954.35
550.34	1916.90
550.51	1987.11
550.68	1991.80
550.84	1891.15
551.01	1980.09
551.18	1881.79
551.34	1891.15
551.51	1930.94
551.68	1898.17
551.84	1863.07
552.01	1867.75
552.18	1865.41
552.34	1886.47
552.51	1839.66
552.68	1888.81
552.84	1837.32
553.01	1872.43
553.18	1853.70
553.34	1916.90
553.51	1818.60
553.67	1907.54
553.84	1982.43
554.01	1963.71
554.17	1834.98
554.34	1865.41
554.51	1802.21
554.67	1928.60
554.84	1902.86
555.00	1877.11
555.17	1867.75
555.33	1858.39
555.50	1820.94
555.67	1776.47
555.83	1802.21
556.00	1806.89
556.16	1820.94
556.33	1823.28
556.50	1715.61
556.66	1818.60
556.83	1776.47
556.99	1713.27
557.16	1626.67
557.32	1870.09
557.49	1746.04
557.65	1804.55
557.82	1813.92
557.98	1720.29
558.15	1743.70
558.32	1689.87
558.48	1638.38
558.65	1694.55
558.81	1720.29
558.98	1755.40
559.14	1760.08
559.31	1708.59
559.47	1741.36
559.64	1736.68
559.80	1699.23
559.97	1692.21
560.13	1785.83
560.30	1734.34
560.46	1818.60
560.63	1874.77
560.79	1673.48
560.96	1757.74
561.12	1687.53
561.29	1689.87
561.45	1650.08
561.61	1776.47
561.78	1722.63
561.94	1724.97
562.11	1750.72
562.27	1769.44
562.44	1746.04
562.60	1654.76
562.77	1832.64
562.93	1874.77
563.10	1748.38
563.26	1696.89
563.42	1696.89
563.59	1715.61
563.75	1575.18
563.92	1781.15
564.08	1734.34
564.24	1746.04
564.41	1790.51
564.57	1781.15
564.74	1629.01
564.90	1629.01
565.07	1645.40
565.23	1654.76
565.39	1631.35
565.56	1600.93
565.72	1664.12
565.88	1554.12
566.05	1589.22
566.21	1612.63
566.38	1619.65
566.54	1626.67
566.70	1732.00
566.87	1682.85
567.03	1685.19
567.19	1631.35
567.36	1687.53
567.52	1558.80
567.68	1678.16
567.85	1696.89
568.01	1561.14
568.17	1621.99
568.34	1633.69
568.50	1469.86
568.66	1523.69
568.83	1633.69
568.99	1526.03
569.15	1605.61
569.32	1483.90
569.48	1589.22
569.64	1495.60
569.81	1554.12
569.97	1469.86
570.13	1638.38
570.30	1530.71
570.46	1582.20
570.62	1430.07
570.78	1458.15
570.95	1413.68
571.11	1544.75
571.27	1568.16
571.43	1469.86
571.60	1502.62
571.76	1554.12
571.92	1582.20
572.09	1507.30
572.25	1521.35
572.41	1699.23
572.57	1533.05
572.74	1542.41
572.90	1579.86
573.06	1600.93
573.22	1537.73
573.38	1544.75
573.55	1551.78
573.71	1535.39
573.87	1495.60
574.03	1533.05
574.20	1621.99
574.36	1453.47
574.52	1547.09
574.68	1507.30
574.84	1577.52
575.01	1511.99
575.17	1483.90
575.33	1570.50
575.49	1526.03
575.65	1572.84
575.82	1533.05
575.98	1420.71
576.14	1516.67
576.30	1514.33
576.46	1699.23
576.62	1706.25
576.79	1764.76
576.95	1619.65
577.11	1495.60
577.27	1593.90
577.43	1507.30
577.59	1432.41
577.75	1504.96
577.92	1591.56
578.08	1411.34
578.24	1376.24
578.40	1575.18
578.56	1633.69
578.72	1640.72
578.88	1689.87
579.04	1657.10
579.21	1624.33
579.37	1607.95
579.53	1631.35
579.69	1509.65
579.85	1556.46
580.01	1547.09
580.17	1437.09
580.33	1486.24
580.49	1554.12
580.65	1533.05
580.82	1563.48
580.98	1521.35
581.14	1528.37
581.30	1554.12
581.46	1563.48
581.62	1638.38
581.78	1441.77
581.94	1603.27
582.10	1519.01
582.26	1668.80
582.42	1598.59
582.58	1652.42
582.74	1479.22
582.90	1561.14
583.06	1537.73
583.22	1610.29
583.38	1544.75
583.54	1584.54
583.70	1586.88
583.86	1598.59
584.02	1504.96
584.18	1643.06
584.34	1586.88
584.50	1434.75
584.66	1547.09
584.82	1511.99
584.98	1547.09
585.14	1551.78
585.30	1558.80
585.46	1554.12
585.62	1390.28
585.78	1455.81
585.94	1533.05
586.10	1509.65
586.26	1455.81
586.42	1516.67
586.58	1451.13
586.74	1561.14
586.90	1570.50
587.06	1500.28
587.22	1462.83
587.38	1458.15
587.54	1432.41
587.70	1439.43
587.86	1345.81
588.02	1369.21
588.18	1355.17
588.34	1217.08
588.49	1219.42
588.65	1104.73
588.81	1025.15
588.97	1121.12
589.13	1121.12
589.29	1114.10
589.45	1132.82
589.61	1118.78
589.77	1212.40
589.93	1146.86
590.08	1240.48
590.24	1167.93
590.40	1240.48
590.56	1167.93
590.72	1266.23
590.88	1256.87
591.04	1228.78
591.20	1289.64
591.35	1233.46
591.51	1179.63
591.67	1123.46
591.83	1219.42
591.99	1277.93
592.15	1205.38
592.31	1275.59
592.46	1261.55
592.62	1411.34
592.78	1357.51
592.94	1387.94
593.10	1432.41
593.26	1371.55
593.41	1352.83
593.57	1362.19
593.73	1399.64
593.89	1254.53
594.05	1139.84
594.20	1116.44
594.36	1172.61
594.52	1107.07
594.68	1158.57
594.84	1231.12
594.99	1324.74
595.15	1238.14
595.31	1179.63
595.47	1284.95
595.62	1188.99
595.78	1315.38
595.94	1392.62
596.10	1296.66
596.25	1268.57
596.41	1284.95
596.57	1273.25
596.73	1146.86
596.88	1282.61
597.04	1252.19
597.20	1329.42
597.36	1317.72
597.51	1324.74
597.67	1219.42
597.83	1313.04
597.99	1322.40
598.14	1315.38
598.30	1336.45
598.46	1266.23
598.61	1369.21
598.77	1268.57
598.93	1301.34
599.09	1341.13
599.24	1282.61
599.40	1430.07
599.56	1350.49
599.71	1324.74
599.87	1313.04
600.03	1453.47
600.18	1341.13
600.34	1376.24
600.50	1376.24
600.65	1268.57
600.81	1341.13
600.97	1219.42
601.12	1282.61
601.28	1254.53
601.44	1301.34
601.59	1294.32
601.75	1252.19
601.91	1102.39
602.06	1334.11
602.22	1373.89
602.37	1310.70
602.53	1291.98
