SpectraSuite Data File
++++++++++++++++++++++++++++++++++++
Date: Fri Oct 04 11:44:27 GMT-05:00 2013
User: price-jones
Dark Spectrum Present: No
Reference Spectrum Present: No
Number of Sampled Component Spectra: 1
Spectrometers: USB2+H05261
Integration Time (usec): 100000 (USB2+H05261)
Spectra Averaged: 1 (USB2+H05261)
Boxcar Smoothing: 0 (USB2+H05261)
Correct for Electrical Dark: No (USB2+H05261)
Strobe/Lamp Enabled: No (USB2+H05261)
Correct for Detector Non-linearity: No (USB2+H05261)
Correct for Stray Light: No (USB2+H05261)
Number of Pixels in Processed Spectrum: 2048
>>>>>Begin Processed Spectral Data<<<<<
365.73	4.68
365.92	4.68
366.12	4.68
366.32	0.00
366.52	0.00
366.72	0.00
366.91	0.00
367.11	16.38
367.31	0.00
367.51	0.00
367.70	0.00
367.90	0.00
368.10	0.00
368.30	0.00
368.49	0.00
368.69	18.72
368.89	0.00
369.09	0.00
369.28	0.00
369.48	0.00
369.68	0.00
369.87	0.00
370.07	0.00
370.27	21.06
370.47	65.54
370.66	224.69
370.86	217.67
371.06	386.19
371.25	388.53
371.45	301.93
371.65	407.25
371.84	278.52
372.04	290.23
372.24	301.93
372.44	365.12
372.63	297.25
372.83	390.87
373.03	322.99
373.22	245.76
373.42	344.06
373.62	418.96
373.81	273.84
374.01	414.27
374.21	400.23
374.40	322.99
374.60	454.06
374.79	365.12
374.99	395.55
375.19	428.32
375.38	402.57
375.58	433.00
375.78	444.70
375.97	360.44
376.17	442.36
376.37	383.85
376.56	367.46
376.76	386.19
376.95	449.38
377.15	430.66
377.35	491.51
377.54	486.83
377.74	444.70
377.93	505.56
378.13	545.34
378.33	454.06
378.52	381.51
378.72	456.40
378.91	454.06
379.11	414.27
379.31	444.70
379.50	381.51
379.70	470.45
379.89	526.62
380.09	458.74
380.28	507.90
380.48	524.28
380.68	470.45
380.87	425.98
381.07	404.91
381.26	496.19
381.46	348.74
381.65	381.51
381.85	381.51
382.04	388.53
382.24	315.97
382.43	264.48
382.63	325.33
382.83	262.14
383.02	477.47
383.22	365.12
383.41	332.36
383.61	400.23
383.80	341.72
384.00	454.06
384.19	482.15
384.39	477.47
384.58	500.87
384.78	470.45
384.97	475.13
385.17	500.87
385.36	451.72
385.56	456.40
385.75	397.89
385.95	374.49
386.14	486.83
386.34	416.62
386.53	449.38
386.72	456.40
386.92	519.60
387.11	468.11
387.31	482.15
387.50	437.68
387.70	465.77
387.89	447.04
388.09	369.80
388.28	442.36
388.48	475.13
388.67	603.86
388.86	615.56
389.06	585.13
389.25	568.75
389.45	573.43
389.64	594.50
389.84	587.47
390.03	653.01
390.22	615.56
390.42	655.35
390.61	629.60
390.81	561.73
391.00	690.46
391.19	671.73
391.39	657.69
391.58	690.46
391.78	667.05
391.97	620.24
392.16	568.75
392.36	493.85
392.55	463.43
392.75	433.00
392.94	264.48
393.13	299.59
393.33	355.76
393.52	430.66
393.71	468.11
393.91	543.00
394.10	592.16
394.29	594.50
394.49	676.41
394.68	816.85
394.88	786.42
395.07	674.07
395.26	744.29
395.46	741.95
395.65	629.60
395.84	596.84
396.04	613.22
396.23	407.25
396.42	449.38
396.62	470.45
396.81	442.36
397.00	496.19
397.19	594.50
397.39	826.21
397.58	777.06
397.77	765.36
397.97	814.51
398.16	844.93
398.35	877.70
398.55	910.47
398.74	959.62
398.93	952.60
399.12	987.71
399.32	926.85
399.51	954.94
399.70	950.26
399.90	966.64
400.09	985.37
400.28	973.66
400.47	926.85
400.67	997.07
400.86	994.73
401.05	1156.22
401.24	1006.43
401.44	1006.43
401.63	1020.47
401.82	1027.50
402.01	999.41
402.21	1036.86
402.40	915.15
402.59	1078.99
402.78	1046.22
402.97	943.24
403.17	976.00
403.36	1069.62
403.55	1144.52
403.74	1102.39
403.93	1043.88
404.13	1107.07
404.32	952.60
404.51	966.64
404.70	1057.92
404.89	999.41
405.09	1093.03
405.28	1034.52
405.47	1043.88
405.66	992.39
405.85	1008.77
406.05	894.08
406.24	968.98
406.43	1100.05
406.62	1121.12
406.81	1006.43
407.00	1100.05
407.20	1067.28
407.39	1020.47
407.58	959.62
407.77	1046.22
407.96	1074.31
408.15	1123.46
408.34	1179.63
408.54	1249.85
408.73	1212.40
408.92	1097.71
409.11	1151.54
409.30	1109.41
409.49	999.41
409.68	1018.13
409.87	1013.45
410.07	976.00
410.26	1107.07
410.45	1153.88
410.64	1151.54
410.83	1144.52
411.02	1188.99
411.21	1266.23
411.40	1233.46
411.59	1256.87
411.78	1301.34
411.98	1228.78
412.17	1203.04
412.36	1268.57
412.55	1224.10
412.74	1160.91
412.93	1231.12
413.12	1132.82
413.31	1235.80
413.50	1280.27
413.69	1287.29
413.88	1329.42
414.07	1214.74
414.26	1315.38
414.45	1336.45
414.64	1249.85
414.83	1242.82
415.02	1268.57
415.22	1252.19
415.41	1310.70
415.60	1313.04
415.79	1355.17
415.98	1444.11
416.17	1465.18
416.36	1343.47
416.55	1359.85
416.74	1373.89
416.93	1277.93
417.12	1273.25
417.31	1181.97
417.50	1373.89
417.69	1404.32
417.88	1327.08
418.07	1308.36
418.26	1313.04
418.45	1401.98
418.64	1387.94
418.83	1399.64
419.02	1460.49
419.21	1341.13
419.39	1355.17
419.58	1282.61
419.77	1329.42
419.96	1322.40
420.15	1455.81
420.34	1345.81
420.53	1542.41
420.72	1544.75
420.91	1507.30
421.10	1413.68
421.29	1502.62
421.48	1474.54
421.67	1490.92
421.86	1380.92
422.05	1336.45
422.24	1284.95
422.43	1277.93
422.61	1263.89
422.80	1266.23
422.99	1420.71
423.18	1315.38
423.37	1462.83
423.56	1369.21
423.75	1364.53
423.94	1439.43
424.13	1394.96
424.32	1357.51
424.50	1390.28
424.69	1310.70
424.88	1291.98
425.07	1315.38
425.26	1247.51
425.45	1373.89
425.64	1343.47
425.83	1315.38
426.01	1329.42
426.20	1252.19
426.39	1378.58
426.58	1268.57
426.77	1217.08
426.96	1196.01
427.15	1207.72
427.33	1282.61
427.52	1355.17
427.71	1357.51
427.90	1242.82
428.09	1273.25
428.28	1289.64
428.46	1249.85
428.65	1282.61
428.84	1280.27
429.03	1294.32
429.22	1228.78
429.40	1228.78
429.59	1004.09
429.78	983.02
429.97	901.11
430.16	1015.79
430.34	957.28
430.53	1004.09
430.72	983.02
430.91	1121.12
431.10	1270.91
431.28	1565.82
431.47	1593.90
431.66	1572.84
431.85	1418.36
432.03	1446.45
432.22	1343.47
432.41	1303.68
432.60	1430.07
432.79	1528.37
432.97	1537.73
433.16	1451.13
433.35	1291.98
433.54	1287.29
433.72	1181.97
433.91	1167.93
434.10	1383.26
434.28	1479.22
434.47	1533.05
434.66	1516.67
434.85	1554.12
435.03	1439.43
435.22	1696.89
435.41	1816.26
435.59	1949.67
435.78	1769.44
435.97	1732.00
436.16	1685.19
436.34	1526.03
436.53	1593.90
436.72	1708.59
436.90	1614.97
437.09	1448.79
437.28	1444.11
437.46	1593.90
437.65	1533.05
437.84	1509.65
438.02	1306.02
438.21	1306.02
438.40	1387.94
438.58	1507.30
438.77	1549.43
438.96	1519.01
439.14	1547.09
439.33	1659.44
439.52	1621.99
439.70	1530.71
439.89	1619.65
440.08	1596.25
440.26	1558.80
440.45	1584.54
440.63	1636.03
440.82	1774.13
441.01	1834.98
441.19	1694.55
441.38	1736.68
441.57	1753.06
441.75	1902.86
441.94	1858.39
442.12	1769.44
442.31	1872.43
442.50	1816.26
442.68	1750.72
442.87	1832.64
443.05	1820.94
443.24	1853.70
443.43	1811.57
443.61	1970.73
443.80	1989.46
443.98	1851.36
444.17	1720.29
444.35	1895.83
444.54	1984.77
444.73	1860.73
444.91	2050.31
445.10	1703.91
445.28	1741.36
445.47	1699.23
445.65	1757.74
445.84	1760.08
446.02	1703.91
446.21	1713.27
446.39	1832.64
446.58	1778.81
446.77	1858.39
446.95	1895.83
447.14	1853.70
447.32	2047.97
447.51	1879.45
447.69	1849.02
447.88	1832.64
448.06	1891.15
448.25	1827.96
448.43	1837.32
448.62	1905.20
448.80	1830.30
448.99	1926.26
449.17	1865.41
449.36	1811.57
449.54	1940.30
449.73	1888.81
449.91	2146.27
450.10	2029.24
450.28	2207.13
450.46	2015.20
450.65	2073.71
450.83	2085.42
451.02	1952.01
451.20	2024.56
451.39	1982.43
451.57	2015.20
451.76	1996.48
451.94	1942.64
452.13	2012.86
452.31	1823.28
452.49	1743.70
452.68	1753.06
452.86	1734.34
453.05	1870.09
453.23	1860.73
453.42	1863.07
453.60	1928.60
453.78	2050.31
453.97	1959.03
454.15	1975.41
454.34	1825.62
454.52	1895.83
454.70	1891.15
454.89	1874.77
455.07	1891.15
455.26	2073.71
455.44	2001.16
455.62	2083.08
455.81	1912.22
455.99	1996.48
456.17	1996.48
456.36	1991.80
456.54	2015.20
456.73	2050.31
456.91	2071.37
457.09	2062.01
457.28	2155.63
457.46	1980.09
457.64	2026.90
457.83	1984.77
458.01	1898.17
458.19	2024.56
458.38	1919.24
458.56	2052.65
458.74	2078.40
458.93	2043.29
459.11	2080.74
459.29	1989.46
459.48	2094.78
459.66	1952.01
459.84	2073.71
460.03	2066.69
460.21	1998.82
460.39	2090.10
460.57	2022.22
460.76	2127.55
460.94	2108.82
461.12	2146.27
461.31	2127.55
461.49	2202.44
461.67	2059.67
461.85	2172.02
462.04	2235.21
462.22	2616.72
462.40	2153.29
462.59	2132.23
462.77	2097.12
462.95	2115.84
463.13	1949.67
463.32	2174.36
463.50	2174.36
463.68	2052.65
463.86	2033.93
464.05	2024.56
464.23	2040.95
464.41	2106.48
464.59	1959.03
464.78	2122.87
464.96	2193.08
465.14	2094.78
465.32	2122.87
465.50	2155.63
465.69	2267.98
465.87	2071.37
466.05	2076.06
466.23	2026.90
466.41	1935.62
466.60	1996.48
466.78	2017.54
466.96	1961.37
467.14	2069.03
467.32	1987.11
467.51	2073.71
467.69	2017.54
467.87	2054.99
468.05	2097.12
468.23	2129.89
468.41	2052.65
468.60	2033.93
468.78	2094.78
468.96	2092.44
469.14	2038.61
469.32	1989.46
469.50	2010.52
469.69	2054.99
469.87	1916.90
470.05	1963.71
470.23	1935.62
470.41	1987.11
470.59	2066.69
470.77	1977.75
470.95	1987.11
471.14	2083.08
471.32	1977.75
471.50	2272.66
471.68	2263.30
471.86	2333.51
472.04	2225.85
472.22	2242.23
472.40	2031.58
472.58	2085.42
472.77	2132.23
472.95	2230.53
473.13	2214.15
473.31	2162.66
473.49	2162.66
473.67	2155.63
473.85	2162.66
474.03	2209.47
474.21	2253.94
474.39	2195.42
474.57	2195.42
474.75	2300.75
474.93	2174.36
475.12	2246.91
475.30	2232.87
475.48	2275.00
475.66	2239.89
475.84	2242.23
476.02	2249.25
476.20	2193.08
476.38	2246.91
476.56	2328.83
476.74	2256.28
476.92	2335.85
477.10	2396.71
477.28	2438.84
477.46	2497.35
477.64	2403.73
477.82	2492.67
478.00	2487.99
478.18	2349.90
478.36	2349.90
478.54	2399.05
478.72	2420.11
478.90	2417.77
479.08	2565.23
479.26	2616.72
479.44	2562.89
479.62	2593.31
479.80	2509.05
479.98	2619.06
480.16	2607.36
480.34	2518.42
480.52	2602.68
480.70	2654.17
480.88	2588.63
481.06	2750.13
481.24	2684.59
481.41	2789.92
481.59	2754.81
481.77	2869.50
481.95	2747.79
482.13	2810.98
482.31	2743.11
482.49	2766.51
482.67	2813.32
482.85	2876.52
483.03	2864.82
483.21	2888.22
483.39	2810.98
483.57	2740.77
483.74	2967.80
483.92	2792.26
484.10	2916.31
484.28	2857.79
484.46	2970.14
484.64	2913.97
484.82	2792.26
485.00	2860.13
485.18	2785.24
485.35	2733.75
485.53	2597.99
485.71	2300.75
485.89	2282.02
486.07	2410.75
486.25	2609.70
486.43	2738.43
486.61	2773.53
486.78	2899.92
486.96	2747.79
487.14	2918.65
487.32	2963.12
487.50	3012.27
487.68	3133.98
487.85	3084.83
488.03	3171.43
488.21	3115.25
488.39	3105.89
488.57	3082.49
488.75	2979.50
488.92	3241.64
489.10	3332.92
489.28	3412.50
489.46	3393.78
489.64	3431.23
489.81	3377.39
489.99	3403.14
490.17	3349.31
490.35	3597.40
490.53	3541.23
490.70	3449.95
490.88	3162.06
491.06	3356.33
491.24	3501.44
491.41	3489.74
491.59	3283.77
491.77	3260.37
491.95	3225.26
492.13	3346.97
492.30	3370.37
492.48	3536.55
492.66	3588.04
492.84	3576.34
493.01	3599.74
493.19	3480.38
493.37	3468.67
493.54	3447.61
493.72	3569.32
493.90	3801.03
494.08	3742.52
494.25	3735.50
494.43	3861.88
494.61	3817.41
494.79	3805.71
494.96	3847.84
495.14	3728.47
495.32	3691.02
495.49	3536.55
495.67	3693.37
495.85	3936.78
496.02	3927.42
496.20	3992.95
496.38	3838.48
496.55	3887.63
496.73	3929.76
496.91	3866.56
497.09	3974.23
497.26	3992.95
497.44	3873.59
497.62	3953.16
497.79	3887.63
497.97	3651.24
498.14	3588.04
498.32	3698.05
498.50	3808.05
498.67	3918.06
498.85	3927.42
499.03	3990.61
499.20	4018.70
499.38	3957.85
499.56	4025.72
499.73	4030.40
499.91	3845.50
500.08	3889.97
500.26	3695.71
500.44	3651.24
500.61	3730.81
500.79	3726.13
500.97	3819.75
501.14	3721.45
501.32	3779.97
501.49	3695.71
501.67	3679.32
501.84	3742.52
502.02	3726.13
502.20	3812.73
502.37	3920.40
502.55	3838.48
502.72	3887.63
502.90	3962.53
503.07	3803.37
503.25	3819.75
503.43	3585.70
503.60	3468.67
503.78	3520.17
503.95	3393.78
504.13	3707.41
504.30	4042.11
504.48	3939.12
504.65	3969.55
504.83	3971.89
505.01	3971.89
505.18	4163.81
505.36	4081.89
505.53	4093.60
505.71	4056.15
505.88	4016.36
506.06	4063.17
506.23	4119.34
506.41	3906.35
506.58	4032.74
506.76	3934.44
506.93	3978.91
507.11	3960.19
507.28	3922.74
507.46	3861.88
507.63	3756.56
507.81	3728.47
507.98	3871.25
508.16	3819.75
508.33	4074.87
508.50	4126.36
508.68	4070.19
508.85	4109.98
509.03	4098.28
509.20	4245.73
509.38	4156.79
509.55	3995.29
509.73	4198.92
509.90	4091.26
510.08	4044.45
510.25	3978.91
510.42	4196.58
510.60	4100.62
510.77	4112.32
510.95	4264.46
511.12	4234.03
511.30	4205.94
511.47	4337.01
511.64	4257.43
511.82	4271.48
511.99	4243.39
512.17	3999.98
512.34	4177.86
512.51	4114.66
512.69	4135.73
512.86	4227.01
513.04	4156.79
513.21	4238.71
513.38	4189.56
513.56	4023.38
513.73	4063.17
513.90	4058.49
514.08	4170.83
514.25	3985.93
514.43	3995.29
514.60	4070.19
514.77	4245.73
514.95	4236.37
515.12	4234.03
515.29	4163.81
515.47	4283.18
515.64	4152.11
515.81	4365.10
515.99	4224.67
516.16	4182.54
516.33	3737.84
516.51	3545.91
516.68	3370.37
516.85	3342.28
517.03	3527.19
517.20	3637.19
517.37	4056.15
517.54	4255.09
517.72	4201.26
517.89	3946.14
518.06	3510.80
518.24	3606.77
518.41	3960.19
518.58	4074.87
518.75	4035.08
518.93	4021.04
519.10	4035.08
519.27	4093.60
519.45	4049.13
519.62	4180.20
519.79	4285.52
519.96	4248.07
520.14	4262.12
520.31	4133.39
520.48	4079.55
520.65	4140.41
520.83	4252.75
521.00	4290.20
521.17	4163.81
521.34	4170.83
521.52	4180.20
521.69	4533.62
521.86	4440.00
522.03	4456.38
522.20	4365.10
522.38	4039.76
522.55	4121.68
522.72	4030.40
522.89	4311.27
523.07	4227.01
523.24	4175.52
523.41	4381.48
523.58	4339.35
523.75	4526.60
523.92	4493.83
524.10	4393.19
524.27	4482.13
524.44	4568.73
524.61	4542.98
524.78	4414.25
524.96	4390.84
525.13	4304.25
525.30	4294.88
525.47	4418.93
525.64	4372.12
525.81	4418.93
525.98	4227.01
526.16	4044.45
526.33	3836.14
526.50	3918.06
526.67	3758.90
526.84	3667.62
527.01	3948.48
527.18	4065.51
527.36	4018.70
527.53	4421.27
527.70	4329.99
527.87	4283.18
528.04	4341.69
528.21	4344.03
528.38	4535.96
528.55	4535.96
528.72	4620.22
528.89	4704.48
529.07	4550.00
529.24	4290.20
529.41	4320.63
529.58	4135.73
529.75	4355.74
529.92	4180.20
530.09	4292.54
530.26	4503.19
530.43	4524.26
530.60	4585.11
530.77	4411.91
530.94	4575.75
531.11	4627.24
531.28	4468.08
531.46	4489.15
531.63	4514.89
531.80	4355.74
531.97	4386.16
532.14	4358.08
532.31	4187.22
532.48	3997.64
532.65	3908.69
532.82	4149.77
532.99	4266.80
533.16	4334.67
533.33	4578.09
533.50	4599.15
533.67	4358.08
533.84	4175.52
534.01	4212.96
534.18	4299.56
534.35	4404.89
534.52	4325.31
534.69	4479.79
534.86	4461.06
535.03	4395.53
535.20	4643.62
535.37	4580.43
535.54	4713.84
535.71	4559.36
535.88	4575.75
536.05	4468.08
536.22	4367.44
536.38	4402.55
536.55	4304.25
536.72	4257.43
536.89	4081.89
537.06	4346.37
537.23	4442.34
537.40	4262.12
537.57	4348.72
537.74	4376.80
537.91	4468.08
538.08	4486.81
538.25	4493.83
538.42	4486.81
538.59	4526.60
538.75	4308.93
538.92	4449.36
539.09	4400.21
539.26	4442.34
539.43	4271.48
539.60	4266.80
539.77	4255.09
539.94	4358.08
540.11	4306.59
540.28	4259.78
540.44	4128.70
540.61	4170.83
540.78	4222.33
540.95	4142.75
541.12	4329.99
541.29	4435.32
541.46	4568.73
541.62	4692.77
541.79	4566.39
541.96	4573.41
542.13	4472.76
542.30	4596.81
542.47	4582.77
542.63	4662.35
542.80	4531.28
542.97	4507.87
543.14	4505.53
543.31	4327.65
543.48	4568.73
543.64	4748.95
543.81	4737.24
543.98	4709.16
544.15	4669.37
544.32	4533.62
544.48	4521.92
544.65	4437.66
544.82	4496.17
544.99	4545.32
545.16	4592.13
545.32	4564.04
545.49	4994.70
545.66	5231.10
545.83	5151.52
546.00	4938.53
546.16	4784.06
546.33	4573.41
546.50	4447.02
546.67	4617.88
546.83	4664.69
547.00	4442.34
547.17	4332.33
547.34	4332.33
547.50	4175.52
547.67	4301.90
547.84	4262.12
548.00	4404.89
548.17	4348.72
548.34	4461.06
548.51	4409.57
548.67	4475.10
548.84	4662.35
549.01	4475.10
549.18	4369.78
549.34	4273.82
549.51	4348.72
549.68	4332.33
549.84	4329.99
550.01	4468.08
550.18	4325.31
550.34	4306.59
550.51	4322.97
550.68	4329.99
550.84	4212.96
551.01	4227.01
551.18	4264.46
551.34	4142.75
551.51	4248.07
551.68	4327.65
551.84	4484.47
552.01	4266.80
552.18	4344.03
552.34	4327.65
552.51	4147.43
552.68	4086.58
552.84	4163.81
553.01	4212.96
553.18	4276.16
553.34	4266.80
553.51	4227.01
553.67	4273.82
553.84	4362.76
554.01	4224.67
554.17	4149.77
554.34	4255.09
554.51	4308.93
554.67	4341.69
554.84	4234.03
555.00	4346.37
555.17	4189.56
555.33	4440.00
555.50	4283.18
555.67	4166.15
555.83	4231.69
556.00	4194.24
556.16	4168.49
556.33	4030.40
556.50	4175.52
556.66	4044.45
556.83	3992.95
556.99	4088.92
557.16	4159.13
557.32	3964.87
557.49	4215.30
557.65	4077.21
557.82	4124.02
557.98	4168.49
558.15	4042.11
558.32	3941.46
558.48	3885.29
558.65	3819.75
558.81	3875.93
558.98	3981.25
559.14	4037.42
559.31	4037.42
559.47	3922.74
559.64	3946.14
559.80	3981.25
559.97	3861.88
560.13	3892.31
560.30	3995.29
560.46	4095.94
560.63	4124.02
560.79	4201.26
560.96	4152.11
561.12	4028.06
561.29	4046.79
561.45	3845.50
561.61	3983.59
561.78	4035.08
561.94	4037.42
562.11	4161.47
562.27	3992.95
562.44	3943.80
562.60	4011.68
562.77	4056.15
562.93	4159.13
563.10	4042.11
563.26	4046.79
563.42	4044.45
563.59	4035.08
563.75	4072.53
563.92	3957.85
564.08	4060.83
564.24	4037.42
564.41	3953.16
564.57	3983.59
564.74	3904.01
564.90	3861.88
565.07	3969.55
565.23	3911.04
565.39	3728.47
565.56	3782.31
565.72	3609.11
565.88	3803.37
566.05	3779.97
566.21	3784.65
566.38	3719.11
566.54	3840.82
566.70	3789.33
566.87	3866.56
567.03	3854.86
567.19	3934.44
567.36	3782.31
567.52	3871.25
567.68	3817.41
567.85	3695.71
568.01	3618.47
568.17	3653.58
568.34	3581.02
568.50	3618.47
568.66	3391.44
568.83	3637.19
568.99	3515.48
569.15	3581.02
569.32	3749.54
569.48	3599.74
569.64	3576.34
569.81	3492.08
569.97	3440.59
570.13	3562.30
570.30	3592.72
570.46	3667.62
570.62	3522.51
570.78	3403.14
570.95	3421.86
571.11	3588.04
571.27	3564.64
571.43	3592.72
571.60	3569.32
571.76	3510.80
571.92	3564.64
572.09	3606.77
572.25	3651.24
572.41	3564.64
572.57	3655.92
572.74	3676.98
572.90	3445.27
573.06	3473.36
573.22	3669.96
573.38	3609.11
573.55	3627.83
573.71	3611.45
573.87	3606.77
574.03	3506.12
574.20	3473.36
574.36	3527.19
574.52	3590.38
574.68	3536.55
574.84	3515.48
575.01	3501.44
575.17	3405.48
575.33	3325.90
575.49	3452.29
575.65	3520.17
575.82	3438.25
575.98	3480.38
576.14	3382.07
576.30	3466.33
576.46	3548.25
576.62	3639.53
576.79	3620.81
576.95	3751.88
577.11	3445.27
577.27	3447.61
577.43	3611.45
577.59	3562.30
577.75	3361.01
577.92	3353.99
578.08	3290.79
578.24	3353.99
578.40	3330.58
578.56	3440.59
578.72	3662.94
578.88	3524.85
579.04	3637.19
579.21	3456.97
579.37	3489.74
579.53	3566.98
579.69	3597.40
579.85	3555.27
580.01	3473.36
580.17	3524.85
580.33	3499.10
580.49	3543.57
580.65	3534.21
580.82	3522.51
580.98	3520.17
581.14	3620.81
581.30	3674.64
581.46	3499.10
581.62	3627.83
581.78	3599.74
581.94	3639.53
582.10	3510.80
582.26	3522.51
582.42	3548.25
582.58	3672.30
582.74	3562.30
582.90	3543.57
583.06	3543.57
583.22	3613.79
583.38	3482.72
583.54	3557.61
583.70	3637.19
583.86	3620.81
584.02	3564.64
584.18	3515.48
584.34	3548.25
584.50	3574.00
584.66	3529.53
584.82	3501.44
584.98	3421.86
585.14	3426.54
585.30	3346.97
585.46	3288.45
585.62	3328.24
585.78	3248.66
585.94	3293.13
586.10	3342.28
586.26	3389.10
586.42	3461.65
586.58	3384.41
586.74	3314.20
586.90	3377.39
587.06	3295.47
587.22	3323.56
587.38	3386.76
587.54	3255.69
587.70	3265.05
587.86	3169.09
588.02	3091.85
588.18	2888.22
588.34	2906.95
588.49	2600.34
588.65	2457.56
588.81	2356.92
588.97	2382.67
589.13	2448.20
589.29	2473.95
589.45	2490.33
589.61	2525.44
589.77	2572.25
589.93	2647.15
590.08	2867.16
590.24	2848.43
590.40	2855.45
590.56	2717.36
590.72	2654.17
590.88	2855.45
591.04	2698.64
591.20	2881.20
591.35	2825.03
591.51	2752.47
591.67	2829.71
591.83	2771.19
591.99	2799.28
592.15	2810.98
592.31	2888.22
592.46	2935.03
592.62	3012.27
592.78	2834.39
592.94	3040.36
593.10	2965.46
593.26	2998.23
593.41	3171.43
593.57	2864.82
593.73	2857.79
593.89	2820.35
594.05	2644.81
594.20	2574.59
594.36	2628.42
594.52	2579.27
594.68	2682.25
594.84	2703.32
594.99	2902.26
595.15	2789.92
595.31	2869.50
595.47	2843.75
595.62	2871.84
595.78	2834.39
595.94	2932.69
596.10	2979.50
596.25	3014.61
596.41	3019.29
596.57	2696.30
596.73	2970.14
596.88	3002.91
597.04	2913.97
597.20	3033.33
597.36	2846.09
597.51	2822.69
597.67	2780.56
597.83	2944.39
597.99	2951.42
598.14	2928.01
598.30	2930.35
