SpectraSuite Data File
++++++++++++++++++++++++++++++++++++
Date: Fri Oct 04 11:44:18 GMT-05:00 2013
User: price-jones
Dark Spectrum Present: No
Reference Spectrum Present: No
Number of Sampled Component Spectra: 1
Spectrometers: USB2+H05261
Integration Time (usec): 100000 (USB2+H05261)
Spectra Averaged: 1 (USB2+H05261)
Boxcar Smoothing: 0 (USB2+H05261)
Correct for Electrical Dark: No (USB2+H05261)
Strobe/Lamp Enabled: No (USB2+H05261)
Correct for Detector Non-linearity: No (USB2+H05261)
Correct for Stray Light: No (USB2+H05261)
Number of Pixels in Processed Spectrum: 2048
>>>>>Begin Processed Spectral Data<<<<<
365.73	49.15
365.92	49.15
366.12	49.15
366.32	0.00
366.52	0.00
366.72	0.00
366.91	0.00
367.11	0.00
367.31	0.00
367.51	0.00
367.70	0.00
367.90	0.00
368.10	0.00
368.30	0.00
368.49	0.00
368.69	0.00
368.89	0.00
369.09	0.00
369.28	0.00
369.48	0.00
369.68	0.00
369.87	4.68
370.07	0.00
370.27	2.34
370.47	100.64
370.66	409.59
370.86	470.45
371.06	528.96
371.25	585.13
371.45	500.87
371.65	489.17
371.84	421.30
372.04	421.30
372.24	463.43
372.44	472.79
372.63	435.34
372.83	503.22
373.03	383.85
373.22	479.81
373.42	437.68
373.62	543.00
373.81	500.87
374.01	547.69
374.21	388.53
374.40	435.34
374.60	531.30
374.79	557.05
374.99	531.30
375.19	613.22
375.38	540.66
375.58	582.79
375.78	629.60
375.97	564.07
376.17	660.03
376.37	610.88
376.56	561.73
376.76	603.86
376.95	587.47
377.15	746.63
377.35	760.67
377.54	741.95
377.74	814.51
377.93	765.36
378.13	723.23
378.33	660.03
378.52	641.31
378.72	631.94
378.91	725.57
379.11	683.44
379.31	641.31
379.50	610.88
379.70	662.37
379.89	723.23
380.09	716.20
380.28	709.18
380.48	800.46
380.68	770.04
380.87	739.61
381.07	674.07
381.26	650.67
381.46	671.73
381.65	543.00
381.85	547.69
382.04	533.64
382.24	489.17
382.43	538.32
382.63	465.77
382.83	440.02
383.02	505.56
383.22	514.92
383.41	538.32
383.61	580.45
383.80	599.18
384.00	669.39
384.19	695.14
384.39	734.93
384.58	835.57
384.78	653.01
384.97	653.01
385.17	669.39
385.36	662.37
385.56	706.84
385.75	615.56
385.95	833.23
386.14	751.31
386.34	739.61
386.53	615.56
386.72	685.78
386.92	723.23
387.11	758.33
387.31	695.14
387.50	711.52
387.70	603.86
387.89	685.78
388.09	688.12
388.28	660.03
388.48	734.93
388.67	851.96
388.86	777.06
389.06	912.81
389.25	896.43
389.45	964.30
389.64	901.11
389.84	840.25
390.03	926.85
390.22	912.81
390.42	912.81
390.61	1074.31
390.81	1055.58
391.00	933.87
391.19	1076.65
391.39	933.87
391.58	1043.88
391.78	842.59
391.97	922.17
392.16	772.38
392.36	772.38
392.55	730.25
392.75	575.77
392.94	416.62
393.13	416.62
393.33	573.43
393.52	631.94
393.71	716.20
393.91	777.06
394.10	891.74
394.29	929.19
394.49	971.32
394.68	1093.03
394.88	1029.84
395.07	1107.07
395.26	1137.50
395.46	1022.81
395.65	1025.15
395.84	912.81
396.04	882.38
396.23	709.18
396.42	575.77
396.62	594.50
396.81	592.16
397.00	770.04
397.19	997.07
397.39	1018.13
397.58	1226.44
397.77	1146.86
397.97	1268.57
398.16	1205.38
398.35	1320.06
398.55	1336.45
398.74	1420.71
398.93	1451.13
399.12	1329.42
399.32	1350.49
399.51	1476.88
399.70	1497.94
399.90	1369.21
400.09	1434.75
400.28	1427.73
400.47	1465.18
400.67	1636.03
400.86	1582.20
401.05	1551.78
401.24	1533.05
401.44	1542.41
401.63	1678.16
401.82	1668.80
402.01	1629.01
402.21	1643.06
402.40	1540.07
402.59	1666.46
402.78	1521.35
402.97	1521.35
403.17	1600.93
403.36	1605.61
403.55	1687.53
403.74	1743.70
403.93	1715.61
404.13	1701.57
404.32	1729.66
404.51	1809.23
404.70	1834.98
404.89	1689.87
405.09	1739.02
405.28	1619.65
405.47	1579.86
405.66	1554.12
405.85	1486.24
406.05	1486.24
406.24	1488.58
406.43	1554.12
406.62	1605.61
406.81	1743.70
407.00	1621.99
407.20	1643.06
407.39	1607.95
407.58	1732.00
407.77	1687.53
407.96	1734.34
408.15	1778.81
408.34	1732.00
408.54	1727.32
408.73	1820.94
408.92	1825.62
409.11	1788.17
409.30	1713.27
409.49	1584.54
409.68	1394.96
409.87	1528.37
410.07	1570.50
410.26	1692.21
410.45	1736.68
410.64	1764.76
410.83	1783.49
411.02	1781.15
411.21	2050.31
411.40	1926.26
411.59	1811.57
411.78	1823.28
411.98	1837.32
412.17	1923.92
412.36	1832.64
412.55	1886.47
412.74	1886.47
412.93	1813.92
413.12	1785.83
413.31	1930.94
413.50	1863.07
413.69	2026.90
413.88	1937.96
414.07	1900.52
414.26	1902.86
414.45	1994.14
414.64	1998.82
414.83	2036.27
415.02	1914.56
415.22	1771.79
415.41	2080.74
415.60	2080.74
415.79	2036.27
415.98	2134.57
416.17	2062.01
416.36	2104.14
416.55	2078.40
416.74	1989.46
416.93	1942.64
417.12	1989.46
417.31	1987.11
417.50	2024.56
417.69	2148.61
417.88	2078.40
418.07	2176.70
418.26	1994.14
418.45	2026.90
418.64	2045.63
418.83	2087.76
419.02	2176.70
419.21	2181.38
419.39	1994.14
419.58	1909.88
419.77	1886.47
419.96	2012.86
420.15	2120.53
420.34	2277.34
420.53	2155.63
420.72	2216.49
420.91	2165.00
421.10	2291.38
421.29	2141.59
421.48	2153.29
421.67	2277.34
421.86	2267.98
422.05	1914.56
422.24	1947.33
422.43	1989.46
422.61	1980.09
422.80	2174.36
422.99	2167.34
423.18	2050.31
423.37	2218.83
423.56	2097.12
423.75	2097.12
423.94	2223.51
424.13	2099.46
424.32	2024.56
424.50	2059.67
424.69	2087.76
424.88	2040.95
425.07	1980.09
425.26	2054.99
425.45	2127.55
425.64	1947.33
425.83	1987.11
426.01	2246.91
426.20	2097.12
426.39	2040.95
426.58	1947.33
426.77	1806.89
426.96	1884.13
427.15	1994.14
427.33	2015.20
427.52	1919.24
427.71	2043.29
427.90	2080.74
428.09	2026.90
428.28	2005.84
428.46	1940.30
428.65	1928.60
428.84	1963.71
429.03	2087.76
429.22	1825.62
429.40	1732.00
429.59	1584.54
429.78	1540.07
429.97	1418.36
430.16	1596.25
430.34	1540.07
430.53	1467.52
430.72	1563.48
430.91	1668.80
431.10	1874.77
431.28	2092.44
431.47	2286.70
431.66	2349.90
431.85	2235.21
432.03	2040.95
432.22	1996.48
432.41	2064.35
432.60	2162.66
432.79	2406.07
432.97	2328.83
433.16	2305.43
433.35	2179.04
433.54	1984.77
433.72	1888.81
433.91	1954.35
434.10	2127.55
434.28	2165.00
434.47	2377.98
434.66	2352.24
434.85	2279.68
435.03	2623.74
435.22	3112.91
435.41	4009.34
435.59	4154.45
435.78	3485.06
435.97	3063.76
436.16	2691.62
436.34	2478.63
436.53	2368.62
436.72	2569.91
436.90	2431.82
437.09	2396.71
437.28	2373.30
437.46	2417.77
437.65	2314.79
437.84	2214.15
438.02	1963.71
438.21	2026.90
438.40	2115.84
438.58	2235.21
438.77	2298.41
438.96	2347.56
439.14	2497.35
439.33	2455.22
439.52	2511.39
439.70	2443.52
439.89	2356.92
440.08	2368.62
440.26	2420.11
440.45	2551.18
440.63	2586.29
440.82	2719.70
441.01	2567.57
441.19	2562.89
441.38	2686.94
441.57	2750.13
441.75	2780.56
441.94	2834.39
442.12	2787.58
442.31	2710.34
442.50	2836.73
442.68	2775.88
442.87	2778.22
443.05	2712.68
443.24	2710.34
443.43	2782.90
443.61	2939.71
443.80	2902.26
443.98	2722.04
444.17	2708.00
444.35	2836.73
444.54	2843.75
444.73	2916.31
444.91	2878.86
445.10	2513.74
445.28	2525.44
445.47	2619.06
445.65	2520.76
445.84	2651.83
446.02	2693.96
446.21	2569.91
446.39	2722.04
446.58	2904.60
446.77	2888.22
446.95	2778.22
447.14	2888.22
447.32	2946.73
447.51	3021.63
447.69	2696.30
447.88	2696.30
448.06	2813.32
448.25	2794.60
448.43	2810.98
448.62	2747.79
448.80	2953.76
448.99	2822.69
449.17	2775.88
449.36	2965.46
449.54	2925.67
449.73	2942.05
449.91	3087.17
450.10	3016.95
450.28	2967.80
450.46	3133.98
450.65	3049.72
450.83	3014.61
451.02	3075.46
451.20	3030.99
451.39	3035.67
451.57	2958.44
451.76	3040.36
451.94	2951.42
452.13	2869.50
452.31	2761.83
452.49	2635.44
452.68	2780.56
452.86	2768.85
453.05	2810.98
453.23	2860.13
453.42	2820.35
453.60	2906.95
453.78	3049.72
453.97	2984.18
454.15	3033.33
454.34	2881.20
454.52	2874.18
454.70	2832.05
454.89	2841.41
455.07	2928.01
455.26	2928.01
455.44	3056.74
455.62	3091.85
455.81	3035.67
455.99	3052.06
456.17	3054.40
456.36	2956.10
456.54	3035.67
456.73	3122.27
456.91	3103.55
457.09	3260.37
457.28	3232.28
457.46	2972.48
457.64	3155.04
457.83	3005.25
458.01	2906.95
458.19	3077.80
458.38	2963.12
458.56	2981.84
458.74	3089.51
458.93	3103.55
459.11	3094.19
459.29	3052.06
459.48	2902.26
459.66	3073.12
459.84	3173.77
460.03	3169.09
460.21	3173.77
460.39	3267.39
460.57	3246.32
460.76	3339.94
460.94	3110.57
461.12	3173.77
461.31	3112.91
461.49	3126.96
461.67	3199.51
461.85	3190.15
462.04	3204.19
462.22	3620.81
462.40	3281.43
462.59	3187.81
462.77	3243.98
462.95	3302.50
463.13	3185.47
463.32	3159.72
463.50	3133.98
463.68	3124.62
463.86	3157.38
464.05	3169.09
464.23	3007.59
464.41	2979.50
464.59	2974.82
464.78	3269.73
464.96	3325.90
465.14	3094.19
465.32	3080.14
465.50	3255.69
465.69	3248.66
465.87	3150.36
466.05	3171.43
466.23	3012.27
466.41	3030.99
466.60	3056.74
466.78	3073.12
466.96	3162.06
467.14	3124.62
467.32	3176.11
467.51	3267.39
467.69	3133.98
467.87	3030.99
468.05	2991.20
468.23	3089.51
468.41	3133.98
468.60	3194.83
468.78	3056.74
468.96	3094.19
469.14	3098.87
469.32	3276.75
469.50	2967.80
469.69	3141.00
469.87	2878.86
470.05	2970.14
470.23	2993.55
470.41	2960.78
470.59	3023.97
470.77	3117.59
470.95	3052.06
471.14	3241.64
471.32	3190.15
471.50	3435.91
471.68	3370.37
471.86	3447.61
472.04	3454.63
472.22	3314.20
472.40	3274.41
472.58	3164.40
472.77	3122.27
472.95	3337.60
473.13	3281.43
473.31	3248.66
473.49	3241.64
473.67	3187.81
473.85	3295.47
474.03	3377.39
474.21	3253.34
474.39	3419.52
474.57	3489.74
474.75	3461.65
474.93	3375.05
475.12	3445.27
475.30	3417.18
475.48	3438.25
475.66	3389.10
475.84	3281.43
476.02	3346.97
476.20	3407.82
476.38	3272.07
476.56	3258.03
476.74	3531.87
476.92	3496.76
477.10	3480.38
477.28	3754.22
477.46	3749.54
477.64	3599.74
477.82	3630.17
478.00	3765.92
478.18	3658.26
478.36	3566.98
478.54	3611.45
478.72	3648.90
478.90	3782.31
479.08	3911.04
479.26	3829.12
479.44	3815.07
479.62	3882.95
479.80	3934.44
479.98	3765.92
480.16	3962.53
480.34	3939.12
480.52	3934.44
480.70	3852.52
480.88	3995.29
481.06	3990.61
481.24	4124.02
481.41	4105.30
481.59	4196.58
481.77	4205.94
481.95	4105.30
482.13	4159.13
482.31	4159.13
482.49	4177.86
482.67	4212.96
482.85	4337.01
483.03	4266.80
483.21	4248.07
483.39	4154.45
483.57	4292.54
483.74	4229.35
483.92	4318.29
484.10	4231.69
484.28	4423.61
484.46	4390.84
484.64	4416.59
484.82	4297.22
485.00	4297.22
485.18	4484.47
485.35	4173.18
485.53	4016.36
485.71	3686.34
485.89	3637.19
486.07	3688.68
486.25	4070.19
486.43	4390.84
486.61	4299.56
486.78	4346.37
486.96	4383.82
487.14	4454.04
487.32	4603.83
487.50	4739.58
487.68	4795.76
487.85	4861.29
488.03	4830.87
488.21	4823.84
488.39	4723.20
488.57	4737.24
488.75	4491.49
488.92	4983.00
489.10	5011.09
489.28	5132.79
489.46	5259.18
489.64	5149.18
489.81	5338.76
489.99	5231.10
490.17	5284.93
490.35	5317.70
490.53	5179.61
490.70	5093.01
490.88	5146.84
491.06	5245.14
491.24	5324.72
491.41	5118.75
491.59	5011.09
491.77	4905.76
491.95	5064.92
492.13	5048.54
492.30	5303.65
492.48	5430.04
492.66	5408.98
492.84	5455.79
493.01	5575.16
493.19	5219.39
493.37	5537.71
493.54	5315.36
493.72	5444.09
493.90	5387.91
494.08	5858.36
494.25	5706.23
494.43	5799.85
494.61	5708.57
494.79	5907.51
494.96	5837.30
495.14	5680.48
495.32	5479.19
495.49	5434.72
495.67	5654.73
495.85	5867.72
496.02	5837.30
496.20	5998.79
496.38	5959.00
496.55	5839.64
496.73	5877.09
496.91	6031.56
497.09	6059.65
497.26	6104.12
497.44	6024.54
497.62	5951.98
497.79	5694.52
497.97	5568.13
498.14	5591.54
498.32	5687.50
498.50	5816.23
498.67	5802.19
498.85	5778.78
499.03	5914.53
499.20	6099.44
499.38	6267.95
499.56	6024.54
499.73	5802.19
499.91	5799.85
500.08	5830.27
500.26	5465.15
500.44	5507.28
500.61	5778.78
500.79	5753.04
500.97	5516.64
501.14	5633.67
501.32	5507.28
501.49	5544.73
501.67	5638.35
501.84	5771.76
502.02	5694.52
502.20	6050.28
502.37	5696.86
502.55	5767.08
502.72	5750.70
502.90	5928.58
503.07	5802.19
503.25	5640.69
503.43	5579.84
503.60	5252.16
503.78	5266.21
503.95	5242.80
504.13	5572.82
504.30	5959.00
504.48	6024.54
504.65	5959.00
504.83	5891.13
505.01	6017.52
505.18	5982.41
505.36	6076.03
505.53	6029.22
505.71	6207.10
505.88	6183.70
506.06	6083.05
506.23	6001.13
506.41	5846.66
506.58	5914.53
506.76	5820.91
506.93	5851.34
507.11	6026.88
507.28	5898.15
507.46	5909.85
507.63	5598.56
507.81	5636.01
507.98	5804.53
508.16	5781.12
508.33	5926.24
508.50	6164.97
508.68	6286.68
508.85	6410.73
509.03	6321.79
509.20	6181.35
509.38	6087.73
509.55	5909.85
509.73	5963.68
509.90	6122.84
510.08	6200.08
510.25	6059.65
510.42	6139.23
510.60	5980.07
510.77	6164.97
510.95	6265.61
511.12	6303.06
511.30	6539.46
511.47	6462.22
511.64	6588.61
511.82	6408.39
511.99	6169.65
512.17	6181.35
512.34	6193.06
512.51	6071.35
512.69	6033.90
512.86	6104.12
513.04	6146.25
513.21	6317.11
513.38	6104.12
513.56	6052.63
513.73	5893.47
513.90	6008.16
514.08	5951.98
514.25	5966.03
514.43	6221.14
514.60	6029.22
514.77	6101.78
514.95	6054.97
515.12	6101.78
515.29	6129.86
515.47	6265.61
515.64	6296.04
515.81	6211.78
515.99	6057.31
516.16	5881.77
516.33	5371.53
516.51	5193.65
516.68	5020.45
516.85	4999.38
517.03	4999.38
517.20	5497.92
517.37	5954.32
517.54	6120.50
517.72	5968.37
517.89	5582.18
518.06	5184.29
518.24	5179.61
518.41	5474.51
518.58	5816.23
518.75	5813.89
518.93	5891.13
519.10	5870.06
519.27	5884.11
519.45	5973.05
519.62	6415.41
519.79	6410.73
519.96	6289.02
520.14	6200.08
520.31	5987.09
520.48	5923.90
520.65	6087.73
520.83	6223.48
521.00	6181.35
521.17	6319.45
521.34	6232.85
521.52	6197.74
521.69	6375.62
521.86	6452.86
522.03	6354.55
522.20	6094.76
522.38	5982.41
522.55	5872.40
522.72	6001.13
522.89	6132.20
523.07	6237.53
523.24	6263.27
523.41	6256.25
523.58	6410.73
523.75	6504.35
523.92	6389.66
524.10	6441.15
524.27	6492.65
524.44	6314.77
524.61	6431.79
524.78	6473.92
524.96	6216.46
525.13	6326.47
525.30	6305.40
525.47	6441.15
525.64	6459.88
525.81	6389.66
525.98	6052.63
526.16	5671.12
526.33	5657.07
526.50	5565.79
526.67	5322.38
526.84	5643.03
527.01	5645.37
527.18	5823.25
527.36	6127.52
527.53	6286.68
527.70	6314.77
527.87	6160.29
528.04	6118.16
528.21	6260.93
528.38	6487.96
528.55	6494.99
528.72	6494.99
528.89	6607.33
529.07	6506.69
529.24	6338.17
529.41	6300.72
529.58	6258.59
529.75	6017.52
529.92	6298.38
530.09	6361.58
530.26	6408.39
530.43	6698.61
530.60	6569.88
530.77	6565.20
530.94	6469.24
531.11	6422.43
531.28	6740.74
531.46	6483.28
531.63	6403.71
531.80	6555.84
531.97	6181.35
532.14	6197.74
532.31	6050.28
532.48	5769.42
532.65	5856.02
532.82	6019.86
532.99	6228.17
533.16	6338.17
533.33	6340.51
533.50	6471.58
533.67	6235.19
533.84	6064.33
534.01	6338.17
534.18	6443.49
534.35	6340.51
534.52	6200.08
534.69	6354.55
534.86	6417.75
535.03	6438.81
535.20	6546.48
535.37	6511.37
535.54	6445.84
535.71	6455.20
535.88	6410.73
536.05	6459.88
536.22	6270.30
536.38	6076.03
536.55	6127.52
536.72	6087.73
536.89	6043.26
537.06	6293.70
537.23	6324.13
537.40	6413.07
537.57	6562.86
537.74	6504.35
537.91	6612.01
538.08	6581.59
538.25	6452.86
538.42	6530.09
538.59	6626.06
538.75	6406.05
538.92	6331.15
539.09	6347.53
539.26	6235.19
539.43	6506.69
539.60	6317.11
539.77	6530.09
539.94	6459.88
540.11	6485.62
540.28	6338.17
540.44	6511.37
540.61	6558.18
540.78	6597.97
540.95	6820.32
541.12	7056.72
541.29	7183.10
541.46	7473.33
541.62	7599.72
541.79	7679.30
541.96	7323.54
542.13	7269.70
542.30	7318.86
542.47	7190.13
542.63	7094.16
542.80	7089.48
542.97	7124.59
543.14	6836.70
543.31	7119.91
543.48	6988.84
543.64	7480.35
543.81	7400.77
543.98	7218.21
544.15	7290.77
544.32	7073.10
544.48	7012.24
544.65	7176.08
544.82	7009.90
544.99	7073.10
545.16	7105.87
545.32	7293.11
545.49	8325.29
545.66	9568.11
545.83	10225.80
546.00	9769.40
546.16	8325.29
546.33	7630.15
546.50	7335.24
546.67	7201.83
546.83	6993.52
547.00	6813.30
547.17	6705.63
547.34	6478.60
547.50	6406.05
547.67	6609.67
547.84	6647.12
548.00	6595.63
548.17	6810.96
548.34	6670.53
548.51	6750.10
548.67	6654.14
548.84	6679.89
549.01	6710.32
549.18	6537.12
549.34	6600.31
549.51	6642.44
549.68	6485.62
549.84	6272.64
550.01	6384.98
550.18	6333.49
550.34	6492.65
550.51	6326.47
550.68	6424.77
550.84	6408.39
551.01	6164.97
551.18	6129.86
551.34	6260.93
551.51	6333.49
551.68	6267.95
551.84	6326.47
552.01	6317.11
552.18	6319.45
552.34	6069.01
552.51	5865.38
552.68	5980.07
552.84	6047.94
553.01	6132.20
553.18	6083.05
553.34	5909.85
553.51	5968.37
553.67	6225.82
553.84	6270.30
554.01	6071.35
554.17	5942.62
554.34	6204.76
554.51	6083.05
554.67	6083.05
554.84	6274.98
555.00	6108.80
555.17	5949.64
555.33	6080.71
555.50	5926.24
555.67	5799.85
555.83	5975.39
556.00	5933.26
556.16	6036.24
556.33	5701.54
556.50	5802.19
556.66	5741.33
556.83	5657.07
556.99	5647.71
557.16	5809.21
557.32	5717.93
557.49	5846.66
557.65	5891.13
557.82	5706.23
557.98	5870.06
558.15	5753.04
558.32	5556.43
558.48	5518.98
558.65	5593.88
558.81	5437.06
558.98	5385.57
559.14	5710.91
559.31	5638.35
559.47	5600.90
559.64	5577.50
559.80	5621.97
559.97	5654.73
560.13	5579.84
560.30	5680.48
560.46	5741.33
560.63	5844.32
560.79	5928.58
560.96	5863.04
561.12	5628.99
561.29	5526.00
561.45	5504.94
561.61	5675.80
561.78	5738.99
561.94	5540.05
562.11	5516.64
562.27	5369.19
562.44	5465.15
562.60	5738.99
562.77	5678.14
562.93	5628.99
563.10	5570.48
563.26	5753.04
563.42	5692.18
563.59	5495.58
563.75	5668.78
563.92	5561.11
564.08	5530.69
564.24	5490.90
564.41	5640.69
564.57	5481.53
564.74	5493.24
564.90	5624.31
565.07	5359.83
565.23	5280.25
565.39	5523.66
565.56	5198.33
565.72	5109.39
565.88	5305.99
566.05	5224.08
566.21	5336.42
566.38	5439.40
566.54	5357.49
566.70	5420.68
566.87	5516.64
567.03	5437.06
567.19	5584.52
567.36	5493.24
567.52	5572.82
567.68	5287.27
567.85	5254.50
568.01	5046.20
568.17	5081.30
568.34	5071.94
568.50	5011.09
568.66	4973.64
568.83	5142.16
568.99	5039.17
569.15	5263.86
569.32	5011.09
569.48	5018.11
569.64	5008.75
569.81	4997.04
569.97	4994.70
570.13	5114.07
570.30	5266.21
570.46	4992.36
570.62	5018.11
570.78	4868.31
570.95	4814.48
571.11	4973.64
571.27	5057.90
571.43	4931.51
571.60	5050.88
571.76	4997.04
571.92	4987.68
572.09	5179.61
572.25	5177.26
572.41	5006.41
572.57	5048.54
572.74	4938.53
572.90	5043.85
573.06	4999.38
573.22	5090.67
573.38	5022.79
573.55	5055.56
573.71	5004.07
573.87	5050.88
574.03	4980.66
574.20	4837.89
574.36	4858.95
574.52	4854.27
574.68	4905.76
574.84	4732.56
575.01	4777.03
575.17	4936.19
575.33	4826.18
575.49	5041.51
575.65	4865.97
575.82	4851.93
575.98	4833.21
576.14	4994.70
576.30	4940.87
576.46	5320.04
576.62	5476.85
576.79	5610.26
576.95	5331.74
577.11	5165.56
577.27	5018.11
577.43	5085.98
577.59	4964.28
577.75	4821.50
577.92	4807.46
578.08	4865.97
578.24	4861.29
578.40	4990.02
578.56	5181.95
578.72	5481.53
578.88	5465.15
579.04	5268.55
579.21	5153.86
579.37	5177.26
579.53	5191.31
579.69	4952.57
579.85	5062.58
580.01	5135.14
580.17	5130.45
580.33	5081.30
580.49	4971.30
580.65	5102.37
580.82	4964.28
580.98	5039.17
581.14	5034.49
581.30	5135.14
581.46	5102.37
581.62	5146.84
581.78	4980.66
581.94	5219.39
582.10	5317.70
582.26	5036.83
582.42	5069.60
582.58	5132.79
582.74	5193.65
582.90	5195.99
583.06	5128.11
583.22	5074.28
583.38	5280.25
583.54	5207.69
583.70	5228.76
583.86	5081.30
584.02	5315.36
584.18	5071.94
584.34	5057.90
584.50	5011.09
584.66	5022.79
584.82	4915.12
584.98	4908.10
585.14	4905.76
585.30	4910.44
585.46	4758.31
585.62	4805.12
585.78	4905.76
585.94	4699.80
586.10	4648.30
586.26	4791.08
586.42	5074.28
586.58	4990.02
586.74	5055.56
586.90	5252.16
587.06	5076.62
587.22	5081.30
587.38	4896.40
587.54	4730.22
587.70	4685.75
587.86	4482.13
588.02	4252.75
588.18	4297.22
588.34	3983.59
588.49	3852.52
588.65	3527.19
588.81	3517.83
588.97	3456.97
589.13	3438.25
589.29	3522.51
589.45	3480.38
589.61	3562.30
589.77	3646.55
589.93	3854.86
590.08	3878.27
590.24	4093.60
590.40	4105.30
590.56	4196.58
590.72	4100.62
590.88	3992.95
591.04	3967.21
591.20	4025.72
591.35	4079.55
591.51	4042.11
591.67	3892.31
591.83	3946.14
591.99	4109.98
592.15	4084.23
592.31	4042.11
592.46	4269.14
592.62	4334.67
592.78	4285.52
592.94	4500.85
593.10	4461.06
593.26	4542.98
593.41	4535.96
593.57	4374.46
593.73	4196.58
593.89	4079.55
594.05	3904.01
594.20	3789.33
594.36	3536.55
594.52	3574.00
594.68	3822.09
594.84	3918.06
594.99	3995.29
595.15	3974.23
595.31	4074.87
595.47	4156.79
595.62	4007.00
595.78	4086.58
595.94	4042.11
596.10	4149.77
596.25	4210.62
596.41	4112.32
596.57	3978.91
596.73	4037.42
596.88	4138.07
597.04	4173.18
597.20	3913.38
597.36	4070.19
597.51	4014.02
597.67	4266.80
597.83	4086.58
