SpectraSuite Data File
++++++++++++++++++++++++++++++++++++
Date: Fri Oct 04 11:44:14 GMT-05:00 2013
User: price-jones
Dark Spectrum Present: No
Reference Spectrum Present: No
Number of Sampled Component Spectra: 1
Spectrometers: USB2+H05261
Integration Time (usec): 100000 (USB2+H05261)
Spectra Averaged: 1 (USB2+H05261)
Boxcar Smoothing: 0 (USB2+H05261)
Correct for Electrical Dark: No (USB2+H05261)
Strobe/Lamp Enabled: No (USB2+H05261)
Correct for Detector Non-linearity: No (USB2+H05261)
Correct for Stray Light: No (USB2+H05261)
Number of Pixels in Processed Spectrum: 2048
>>>>>Begin Processed Spectral Data<<<<<
365.73	32.77
365.92	32.77
366.12	32.77
366.32	0.00
366.52	0.00
366.72	0.00
366.91	0.00
367.11	0.00
367.31	0.00
367.51	0.00
367.70	0.00
367.90	0.00
368.10	0.00
368.30	0.00
368.49	0.00
368.69	0.00
368.89	0.00
369.09	0.00
369.28	0.00
369.48	0.00
369.68	0.00
369.87	4.68
370.07	0.00
370.27	49.15
370.47	145.11
370.66	592.16
370.86	697.48
371.06	739.61
371.25	873.02
371.45	690.46
371.65	685.78
371.84	622.58
372.04	622.58
372.24	690.46
372.44	716.20
372.63	763.01
372.83	683.44
373.03	683.44
373.22	566.41
373.42	638.97
373.62	620.24
373.81	713.86
374.01	779.40
374.21	730.25
374.40	620.24
374.60	718.54
374.79	695.14
374.99	823.87
375.19	912.81
375.38	877.70
375.58	844.93
375.78	720.88
375.97	828.55
376.17	870.68
376.37	805.14
376.56	880.04
376.76	912.81
376.95	1015.79
377.15	1022.81
377.35	1043.88
377.54	1032.18
377.74	1100.05
377.93	1095.37
378.13	1076.65
378.33	1074.31
378.52	926.85
378.72	1039.20
378.91	929.19
379.11	880.04
379.31	891.74
379.50	898.77
379.70	938.55
379.89	1025.15
380.09	933.87
380.28	1032.18
380.48	1041.54
380.68	1118.78
380.87	961.96
381.07	964.30
381.26	889.40
381.46	908.13
381.65	830.89
381.85	821.53
382.04	807.48
382.24	702.16
382.43	695.14
382.63	653.01
382.83	653.01
383.02	760.67
383.22	781.74
383.41	702.16
383.61	788.76
383.80	854.30
384.00	884.72
384.19	922.17
384.39	1046.22
384.58	1078.99
384.78	1086.01
384.97	1062.60
385.17	936.21
385.36	877.70
385.56	926.85
385.75	1015.79
385.95	1043.88
386.14	1193.67
386.34	1050.90
386.53	1123.46
386.72	917.49
386.92	1029.84
387.11	1053.24
387.31	1071.97
387.50	980.68
387.70	1186.65
387.89	1008.77
388.09	1039.20
388.28	1121.12
388.48	1165.59
388.67	1142.18
388.86	1284.95
389.06	1289.64
389.25	1362.19
389.45	1465.18
389.64	1350.49
389.84	1409.00
390.03	1423.05
390.22	1343.47
390.42	1390.28
390.61	1345.81
390.81	1504.96
391.00	1451.13
391.19	1544.75
391.39	1476.88
391.58	1406.66
391.78	1411.34
391.97	1380.92
392.16	1282.61
392.36	1198.35
392.55	940.90
392.75	802.80
392.94	629.60
393.13	645.99
393.33	868.34
393.52	994.73
393.71	1149.20
393.91	1291.98
394.10	1249.85
394.29	1345.81
394.49	1444.11
394.68	1589.22
394.88	1591.56
395.07	1624.33
395.26	1703.91
395.46	1629.01
395.65	1598.59
395.84	1378.58
396.04	1235.80
396.23	992.39
396.42	891.74
396.62	837.91
396.81	973.66
397.00	1074.31
397.19	1331.76
397.39	1565.82
397.58	1729.66
397.77	1893.49
397.97	1982.43
398.16	2008.18
398.35	2008.18
398.55	2143.93
398.74	2106.48
398.93	2169.68
399.12	2284.36
399.32	2115.84
399.51	2181.38
399.70	2291.38
399.90	2275.00
400.09	2242.23
400.28	2183.72
400.47	2235.21
400.67	2345.22
400.86	2387.35
401.05	2434.16
401.24	2385.01
401.44	2354.58
401.63	2455.22
401.82	2471.61
402.01	2436.50
402.21	2429.48
402.40	2478.63
402.59	2457.56
402.78	2408.41
402.97	2368.62
403.17	2450.54
403.36	2424.80
403.55	2574.59
403.74	2609.70
403.93	2595.65
404.13	2579.27
404.32	2513.74
404.51	2480.97
404.70	2597.99
404.89	2581.61
405.09	2523.10
405.28	2380.32
405.47	2424.80
405.66	2455.22
405.85	2307.77
406.05	2300.75
406.24	2368.62
406.43	2537.14
406.62	2539.48
406.81	2541.82
407.00	2499.69
407.20	2352.24
407.39	2448.20
407.58	2523.10
407.77	2665.87
407.96	2633.10
408.15	2682.25
408.34	2729.06
408.54	2712.68
408.73	2810.98
408.92	2712.68
409.11	2810.98
409.30	2670.55
409.49	2410.75
409.68	2188.40
409.87	2223.51
410.07	2443.52
410.26	2361.60
410.45	2621.40
410.64	2752.47
410.83	2822.69
411.02	2860.13
411.21	3061.42
411.40	3019.29
411.59	3059.08
411.78	3009.93
411.98	2869.50
412.17	2888.22
412.36	2939.71
412.55	2874.18
412.74	2843.75
412.93	2729.06
413.12	2773.53
413.31	3089.51
413.50	3000.57
413.69	3162.06
413.88	3206.53
414.07	2998.23
414.26	2897.58
414.45	3105.89
414.64	3164.40
414.83	3164.40
415.02	3126.96
415.22	3066.10
415.41	3115.25
415.60	3148.02
415.79	3382.07
415.98	3405.48
416.17	3361.01
416.36	3452.29
416.55	3220.58
416.74	3258.03
416.93	3042.70
417.12	3091.85
417.31	3112.91
417.50	3047.38
417.69	3365.69
417.88	3251.00
418.07	3155.04
418.26	3082.49
418.45	3199.51
418.64	3456.97
418.83	3403.14
419.02	3332.92
419.21	3281.43
419.39	3148.02
419.58	3138.66
419.77	3096.53
419.96	3201.85
420.15	3412.50
420.34	3349.31
420.53	3346.97
420.72	3719.11
420.91	3606.77
421.10	3501.44
421.29	3480.38
421.48	3524.85
421.67	3604.42
421.86	3386.76
422.05	3328.24
422.24	2888.22
422.43	2911.63
422.61	3124.62
422.80	3351.65
422.99	3391.44
423.18	3463.99
423.37	3342.28
423.56	3346.97
423.75	3255.69
423.94	3424.20
424.13	3232.28
424.32	3239.30
424.50	3375.05
424.69	3213.56
424.88	3148.02
425.07	3220.58
425.26	3101.21
425.45	3148.02
425.64	3056.74
425.83	3063.76
426.01	3363.35
426.20	3218.24
426.39	3370.37
426.58	3143.34
426.77	2993.55
426.96	2972.48
427.15	2988.86
427.33	3068.44
427.52	3251.00
427.71	3187.81
427.90	3173.77
428.09	3143.34
428.28	3112.91
428.46	3033.33
428.65	3033.33
428.84	3138.66
429.03	3087.17
429.22	2974.82
429.40	2675.23
429.59	2684.59
429.78	2427.14
429.97	2389.69
430.16	2340.54
430.34	2466.92
430.53	2389.69
430.72	2394.37
430.91	2715.02
431.10	2939.71
431.28	3604.42
431.47	3728.47
431.66	3808.05
431.85	3471.01
432.03	3272.07
432.22	3176.11
432.41	3253.34
432.60	3487.40
432.79	3599.74
432.97	3794.01
433.16	3581.02
433.35	3321.22
433.54	3180.79
433.72	2958.44
433.91	3007.59
434.10	3262.71
434.28	3447.61
434.47	3602.08
434.66	3613.79
434.85	3646.55
435.03	3749.54
435.22	3918.06
435.41	4730.22
435.59	4514.89
435.78	4470.42
435.97	4227.01
436.16	4170.83
436.34	4058.49
436.53	3831.46
436.72	3843.16
436.90	3822.09
437.09	3632.51
437.28	3555.27
437.46	3735.50
437.65	3599.74
437.84	3508.46
438.02	3222.92
438.21	3248.66
438.40	3442.93
438.58	3691.02
438.77	3756.56
438.96	3826.78
439.14	3889.97
439.33	3915.72
439.52	4016.36
439.70	3845.50
439.89	3824.44
440.08	3852.52
440.26	3721.45
440.45	3728.47
440.63	4056.15
440.82	4180.20
441.01	4170.83
441.19	4149.77
441.38	4276.16
441.57	4449.36
441.75	4503.19
441.94	4477.44
442.12	4390.84
442.31	4423.61
442.50	4411.91
442.68	4416.59
442.87	4379.14
443.05	4402.55
443.24	4390.84
443.43	4608.51
443.61	4610.86
443.80	4575.75
443.98	4386.16
444.17	4271.48
444.35	4634.26
444.54	4671.71
444.73	4484.47
444.91	4468.08
445.10	4215.30
445.28	4203.60
445.47	4044.45
445.65	4128.70
445.84	4135.73
446.02	4278.50
446.21	4355.74
446.39	4248.07
446.58	4397.87
446.77	4341.69
446.95	4468.08
447.14	4641.28
447.32	4711.50
447.51	4844.91
447.69	4554.68
447.88	4479.79
448.06	4617.88
448.25	4526.60
448.43	4580.43
448.62	4404.89
448.80	4498.51
448.99	4678.73
449.17	4533.62
449.36	4587.45
449.54	4601.49
449.73	4849.59
449.91	4882.36
450.10	4922.15
450.28	5060.24
450.46	5081.30
450.65	5097.69
450.83	4919.81
451.02	4844.91
451.20	4891.72
451.39	4795.76
451.57	4959.60
451.76	4793.42
451.94	4788.74
452.13	4727.88
452.31	4554.68
452.49	4442.34
452.68	4395.53
452.86	4505.53
453.05	4596.81
453.23	4641.28
453.42	4601.49
453.60	4770.01
453.78	4816.82
453.97	4777.03
454.15	4772.35
454.34	4603.83
454.52	4702.14
454.70	4702.14
454.89	4582.77
455.07	4568.73
455.26	4777.03
455.44	4968.96
455.62	4917.47
455.81	4994.70
455.99	4837.89
456.17	4851.93
456.36	4922.15
456.54	5053.22
456.73	4926.83
456.91	4924.49
457.09	5060.24
457.28	5308.34
457.46	5144.50
457.64	5041.51
457.83	4767.67
458.01	4805.12
458.19	4833.21
458.38	4938.53
458.56	5001.72
458.74	4971.30
458.93	5195.99
459.11	4894.06
459.29	4809.80
459.48	4999.38
459.66	4999.38
459.84	4856.61
460.03	5076.62
460.21	4987.68
460.39	5125.77
460.57	5334.08
460.76	5259.18
460.94	5296.63
461.12	5191.31
461.31	5060.24
461.49	5146.84
461.67	5055.56
461.85	5338.76
462.04	5149.18
462.22	5696.86
462.40	5366.85
462.59	5200.67
462.77	5118.75
462.95	5224.08
463.13	5153.86
463.32	5179.61
463.50	5048.54
463.68	5050.88
463.86	5135.14
464.05	5013.43
464.23	5050.88
464.41	4929.17
464.59	4699.80
464.78	5027.47
464.96	5043.85
465.14	5053.22
465.32	5198.33
465.50	5263.86
465.69	5411.32
465.87	5294.29
466.05	5015.77
466.23	4830.87
466.41	4877.68
466.60	4901.08
466.78	4919.81
466.96	4980.66
467.14	5057.90
467.32	5146.84
467.51	5270.89
467.69	4795.76
467.87	5104.71
468.05	5308.34
468.23	5177.26
468.41	5153.86
468.60	5057.90
468.78	5256.84
468.96	5055.56
469.14	5289.61
469.32	5149.18
469.50	5008.75
469.69	4994.70
469.87	4959.60
470.05	4971.30
470.23	4905.76
470.41	4940.87
470.59	4851.93
470.77	5013.43
470.95	5130.45
471.14	5123.43
471.32	5043.85
471.50	5577.50
471.68	5530.69
471.86	5378.55
472.04	5540.05
472.22	5507.28
472.40	5210.03
472.58	5135.14
472.77	5142.16
472.95	5156.20
473.13	5406.64
473.31	5116.41
473.49	5214.71
473.67	5242.80
473.85	5413.66
474.03	5584.52
474.21	5659.42
474.39	5551.75
474.57	5483.88
474.75	5710.91
474.93	5584.52
475.12	5345.78
475.30	5523.66
475.48	5418.34
475.66	5577.50
475.84	5432.38
476.02	5523.66
476.20	5392.59
476.38	5502.60
476.56	5743.67
476.74	5607.92
476.92	5607.92
477.10	5785.80
477.28	6141.57
477.46	5933.26
477.64	6017.52
477.82	6195.40
478.00	6061.99
478.18	5912.19
478.36	5998.79
478.54	5947.30
478.72	5900.49
478.90	6052.63
479.08	6232.85
479.26	6476.26
479.44	6450.52
479.62	6368.60
479.80	6335.83
479.98	6612.01
480.16	6626.06
480.34	6520.73
480.52	6361.58
480.70	6441.15
480.88	6485.62
481.06	6511.37
481.24	6920.96
481.41	6679.89
481.59	6958.41
481.77	6923.30
481.95	6810.96
482.13	6951.39
482.31	6813.30
482.49	6911.60
482.67	6843.73
482.85	6846.07
483.03	7035.65
483.21	7105.87
483.39	7068.42
483.57	6918.62
483.74	6942.03
483.92	7117.57
484.10	6918.62
484.28	7169.06
484.46	7213.53
484.64	7328.22
484.82	7171.40
485.00	7009.90
485.18	6977.14
485.35	6717.34
485.53	6373.28
485.71	5741.33
485.89	5659.42
486.07	5764.74
486.25	6242.21
486.43	6586.27
486.61	6960.75
486.78	6883.52
486.96	6888.20
487.14	7197.15
487.32	7325.88
487.50	7555.25
487.68	7648.87
487.85	7925.05
488.03	7831.43
488.21	7784.62
488.39	7501.42
488.57	7527.16
488.75	7396.09
488.92	7726.11
489.10	8023.36
489.28	8318.26
489.46	8557.00
489.64	8304.22
489.81	8559.34
489.99	8482.10
490.17	8491.46
490.35	8678.71
490.53	8444.65
490.70	8311.24
490.88	8353.37
491.06	8519.55
491.24	8688.07
491.41	8587.43
491.59	7906.33
491.77	7918.03
491.95	8058.46
492.13	8250.39
492.30	8538.27
492.48	8704.45
492.66	8985.32
492.84	9118.73
493.01	8830.84
493.19	8655.30
493.37	8627.21
493.54	8547.64
493.72	8704.45
493.90	9179.58
494.08	9238.09
494.25	9479.17
494.43	9502.58
494.61	9699.18
494.79	9823.23
494.96	9661.73
495.14	9380.87
495.32	9102.34
495.49	9034.47
495.67	9109.36
495.85	9493.21
496.02	9715.56
496.20	9600.88
496.38	9551.73
496.55	9472.15
496.73	9628.96
496.91	9874.72
497.09	9991.75
497.26	9811.53
497.44	9888.76
497.62	9706.20
497.79	9446.40
497.97	9104.68
498.14	8992.34
498.32	9270.86
498.50	9591.52
498.67	9755.35
498.85	9771.74
499.03	9937.91
499.20	10076.01
499.38	10125.16
499.56	9841.95
499.73	9736.63
499.91	9540.02
500.08	9493.21
500.26	9160.86
500.44	9158.52
500.61	9624.28
500.79	9462.79
500.97	9329.38
501.14	9472.15
501.32	9226.39
501.49	9315.33
501.67	9280.22
501.84	9355.12
502.02	9591.52
502.20	9659.39
502.37	9371.50
502.55	9699.18
502.72	9542.36
502.90	9834.93
503.07	9774.08
503.25	9411.29
503.43	9191.28
503.60	8889.35
503.78	8795.73
503.95	8760.63
504.13	9284.91
504.30	9645.35
504.48	9731.95
504.65	9689.82
504.83	9891.10
505.01	10076.01
505.18	9856.00
505.36	10230.48
505.53	10087.71
505.71	10068.98
505.88	10459.85
506.06	10164.95
506.23	10181.33
506.41	9767.06
506.58	9846.63
506.76	9961.32
506.93	9968.34
507.11	9664.07
507.28	9678.12
507.46	9647.69
507.63	9701.52
507.81	9502.58
507.98	9425.34
508.16	9834.93
508.33	10153.24
508.50	10352.19
508.68	10305.38
508.85	10321.76
509.03	10668.16
509.20	10553.48
509.38	10277.29
509.55	9977.70
509.73	9785.78
509.90	10256.23
510.08	10342.83
510.25	10305.38
510.42	10120.48
510.60	10097.07
510.77	10267.93
510.95	10560.50
511.12	10511.35
511.30	10565.18
511.47	10733.70
511.64	11009.88
511.82	10752.42
511.99	10424.75
512.17	10209.42
512.34	10253.89
512.51	10244.52
512.69	10106.43
512.86	10029.20
513.04	10195.37
513.21	10324.10
513.38	10085.37
513.56	10148.56
513.73	9806.84
513.90	9949.62
514.08	9907.49
514.25	9870.04
514.43	10225.80
514.60	10193.03
514.77	10267.93
514.95	10225.80
515.12	10363.89
515.29	10115.80
515.47	10630.71
515.64	10541.77
515.81	10377.94
515.99	10223.46
516.16	10078.35
516.33	9097.66
516.51	8594.45
516.68	8514.87
516.85	8435.29
517.03	8273.79
517.20	9008.72
517.37	9846.63
517.54	10003.45
517.72	10160.27
517.89	9685.14
518.06	8737.22
518.24	8730.20
518.41	9357.46
518.58	9575.13
518.75	9954.30
518.93	9851.31
519.10	9919.19
519.27	10155.58
519.45	10036.22
519.62	10377.94
519.79	10340.49
519.96	10448.15
520.14	10462.19
520.31	10066.64
520.48	9907.49
520.65	10047.92
520.83	10420.06
521.00	10466.88
521.17	10497.30
521.34	10403.68
521.52	10504.32
521.69	10649.44
521.86	10864.77
522.03	10560.50
522.20	10438.79
522.38	10047.92
522.55	9785.78
522.72	10080.69
522.89	10228.14
523.07	10228.14
523.24	10258.57
523.41	10537.09
523.58	10775.83
523.75	10923.28
523.92	10897.53
524.10	10867.11
524.27	10956.05
524.44	10951.37
524.61	10668.16
524.78	10602.63
524.96	10649.44
525.13	10562.84
525.30	10609.65
525.47	10869.45
525.64	11028.60
525.81	10846.04
525.98	10118.14
526.16	9696.84
526.33	9537.68
526.50	9298.95
526.67	8917.44
526.84	9343.42
527.01	9710.88
527.18	9832.59
527.36	10260.91
527.53	10480.92
527.70	10775.83
527.87	10410.70
528.04	10221.12
528.21	10478.58
528.38	10766.46
528.55	11077.76
528.72	11044.99
528.89	11405.43
529.07	11199.46
529.24	10792.21
529.41	10651.78
529.58	10511.35
529.75	10471.56
529.92	10410.70
530.09	10764.12
530.26	10843.70
530.43	10967.75
530.60	11143.29
530.77	11213.51
530.94	11260.32
531.11	10892.85
531.28	10815.62
531.46	10911.58
531.63	10848.38
531.80	10881.15
531.97	10579.22
532.14	10413.04
532.31	10076.01
532.48	9802.16
532.65	9734.29
532.82	9867.70
532.99	10391.98
533.16	10670.50
533.33	10738.38
533.50	10832.00
533.67	10534.75
533.84	10265.59
534.01	10539.43
534.18	10607.31
534.35	10452.83
534.52	10469.22
534.69	10661.14
534.86	10682.20
535.03	10754.76
535.20	11140.95
535.37	11061.37
535.54	11164.36
535.71	10970.09
535.88	11035.63
536.05	10932.64
536.22	10480.92
536.38	10473.90
536.55	10321.76
536.72	10038.56
536.89	9942.60
537.06	10289.00
537.23	10724.33
537.40	10782.85
537.57	10906.90
537.74	10834.34
537.91	10729.02
538.08	10663.48
538.25	10616.67
538.42	10633.05
538.59	10780.51
538.75	10384.96
538.92	10377.94
539.09	10427.09
539.26	10352.19
539.43	10118.14
539.60	10300.70
539.77	10459.85
539.94	10256.23
540.11	10296.02
540.28	10251.55
540.44	9980.04
540.61	10080.69
540.78	10258.57
540.95	10338.15
541.12	10663.48
541.29	10930.30
541.46	10846.04
541.62	10827.32
541.79	10848.38
541.96	10698.59
542.13	10670.50
542.30	10963.07
542.47	10803.91
542.63	10721.99
542.80	10590.92
542.97	10829.66
543.14	10438.79
543.31	10487.94
543.48	10679.86
543.64	11028.60
543.81	11323.51
543.98	11122.23
544.15	11077.76
544.32	10647.10
544.48	10679.86
544.65	10621.35
544.82	11213.51
544.99	10717.31
545.16	10684.55
545.32	10614.33
545.49	11477.99
545.66	12348.67
545.83	12482.08
546.00	11976.52
546.16	11211.17
546.33	11059.03
546.50	10876.47
546.67	10939.66
546.83	10766.46
547.00	10621.35
547.17	10462.19
547.34	10237.50
547.50	10303.04
547.67	10487.94
547.84	10146.22
548.00	10417.72
548.17	10644.76
548.34	10476.24
548.51	10710.29
548.67	10450.49
548.84	10553.48
549.01	10424.75
549.18	10651.78
549.34	10352.19
549.51	10569.86
549.68	10347.51
549.84	10389.64
550.01	10370.91
550.18	10244.52
550.34	10431.77
550.51	10263.25
550.68	10399.00
550.84	9795.14
551.01	10010.47
551.18	10265.59
551.34	10097.07
551.51	10394.32
551.68	10434.11
551.84	10490.28
552.01	10333.47
552.18	10251.55
552.34	9975.36
552.51	9989.41
552.68	9694.50
552.84	9907.49
553.01	10326.44
553.18	10160.27
553.34	9844.29
553.51	10127.50
553.67	10305.38
553.84	10317.08
554.01	10064.30
554.17	10115.80
554.34	10260.91
554.51	10015.15
554.67	10256.23
554.84	10296.02
555.00	10111.11
555.17	10078.35
555.33	10202.40
555.50	10232.82
555.67	10057.28
555.83	9823.23
556.00	9937.91
556.16	9966.00
556.33	9933.23
556.50	9731.95
556.66	9844.29
556.83	9589.17
556.99	9687.48
557.16	9575.13
557.32	9745.99
557.49	9877.06
557.65	9500.23
557.82	9738.97
557.98	9692.16
558.15	9837.27
558.32	9420.66
558.48	9088.30
558.65	9184.26
558.81	9378.53
558.98	9235.75
559.14	9425.34
559.31	9273.20
559.47	9329.38
559.64	9474.49
559.80	9294.27
559.97	9355.12
560.13	9411.29
560.30	9619.60
560.46	9750.67
560.63	9818.55
560.79	10012.81
560.96	9710.88
561.12	9385.55
561.29	9095.32
561.45	9184.26
561.61	9217.03
561.78	9537.68
561.94	9600.88
562.11	9359.80
562.27	9217.03
562.44	9427.68
562.60	9540.02
562.77	9710.88
562.93	9745.99
563.10	9727.27
563.26	9427.68
563.42	9591.52
563.59	9291.93
563.75	9167.88
563.92	9504.92
564.08	9254.48
564.24	9465.13
564.41	9486.19
564.57	9432.36
564.74	9294.27
564.90	9235.75
565.07	9256.82
565.23	9135.11
565.39	9078.94
565.56	8978.30
565.72	8786.37
565.88	8774.67
566.05	8968.93
566.21	8968.93
566.38	9034.47
566.54	9146.81
566.70	9048.51
566.87	9273.20
567.03	9104.68
567.19	9364.48
567.36	9177.24
567.52	9032.13
567.68	9118.73
567.85	8978.30
568.01	8720.84
568.17	8587.43
568.34	8608.49
568.50	8444.65
568.66	8322.94
568.83	8554.66
568.99	8540.61
569.15	8636.58
569.32	8512.53
569.48	8554.66
569.64	8542.96
569.81	8428.27
569.97	8533.59
570.13	8592.11
570.30	8458.70
570.46	8346.35
570.62	8255.07
570.78	8044.42
570.95	8128.68
571.11	8432.95
571.27	8423.59
571.43	8376.78
571.60	8585.08
571.76	8437.63
571.92	8503.17
572.09	8540.61
572.25	8503.17
572.41	8510.19
572.57	8435.29
572.74	8428.27
572.90	8423.59
573.06	8315.92
573.22	8535.93
573.38	8709.13
573.55	8409.54
573.71	8479.76
573.87	8472.74
574.03	8414.23
574.20	8224.64
574.36	8463.38
574.52	8236.35
574.68	8229.32
574.84	8320.60
575.01	8133.36
575.17	8135.70
575.33	8313.58
575.49	8147.40
575.65	8299.54
575.82	8285.50
575.98	8154.43
576.14	8177.83
576.30	8346.35
576.46	8423.59
576.62	8599.13
576.79	8608.49
576.95	8645.94
577.11	8470.40
577.27	8367.42
577.43	8224.64
577.59	8369.76
577.75	8011.65
577.92	7911.01
578.08	7801.01
578.24	7967.18
578.40	8107.62
578.56	8458.70
578.72	8496.14
578.88	8578.06
579.04	8285.50
579.21	8568.70
579.37	8315.92
579.53	8454.02
579.69	8451.67
579.85	8430.61
580.01	8355.71
580.17	8472.74
580.33	8465.72
580.49	8325.29
580.65	8325.29
580.82	8395.50
580.98	8390.82
581.14	8212.94
581.30	8486.78
581.46	8297.20
581.62	8283.16
581.78	8402.52
581.94	8498.49
582.10	8428.27
582.26	8395.50
582.42	8346.35
582.58	8360.39
582.74	8503.17
582.90	8580.40
583.06	8575.72
583.22	8334.65
583.38	8376.78
583.54	8334.65
583.70	8421.25
583.86	8381.46
584.02	8252.73
584.18	8489.12
584.34	8320.60
584.50	8353.37
584.66	8376.78
584.82	8093.57
584.98	8196.56
585.14	8215.28
585.30	8044.42
585.46	7983.57
585.62	7864.20
585.78	7775.26
585.94	7920.37
586.10	7801.01
586.26	8016.33
586.42	8107.62
586.58	8154.43
586.74	7950.80
586.90	8030.38
587.06	8114.64
587.22	7903.99
587.38	7927.39
587.54	7723.77
587.70	7475.67
587.86	7236.94
588.02	7061.40
588.18	7054.37
588.34	6647.12
588.49	6293.70
588.65	5940.28
588.81	5776.44
588.97	5827.93
589.13	5708.57
589.29	5535.37
589.45	5551.75
589.61	5930.92
589.77	6115.82
589.93	6244.55
590.08	6644.78
590.24	6778.19
590.40	6937.35
590.56	6722.02
590.72	6626.06
590.88	6703.29
591.04	6654.14
591.20	6642.44
591.35	6539.46
591.51	6663.51
591.67	6363.92
591.83	6384.98
591.99	6450.52
592.15	6658.82
592.31	6808.62
592.46	7005.22
592.62	7080.12
592.78	7119.91
592.94	6937.35
593.10	7178.42
593.26	7105.87
593.41	7143.32
593.57	7026.29
593.73	6827.34
593.89	6504.35
594.05	6406.05
594.20	6080.71
594.36	6141.57
594.52	6237.53
