SpectraSuite Data File
++++++++++++++++++++++++++++++++++++
Date: Fri Oct 04 11:44:25 GMT-05:00 2013
User: price-jones
Dark Spectrum Present: No
Reference Spectrum Present: No
Number of Sampled Component Spectra: 1
Spectrometers: USB2+H05261
Integration Time (usec): 100000 (USB2+H05261)
Spectra Averaged: 1 (USB2+H05261)
Boxcar Smoothing: 0 (USB2+H05261)
Correct for Electrical Dark: No (USB2+H05261)
Strobe/Lamp Enabled: No (USB2+H05261)
Correct for Detector Non-linearity: No (USB2+H05261)
Correct for Stray Light: No (USB2+H05261)
Number of Pixels in Processed Spectrum: 2048
>>>>>Begin Processed Spectral Data<<<<<
365.73	4.68
365.92	4.68
366.12	4.68
366.32	0.00
366.52	0.00
366.72	0.00
366.91	0.00
367.11	0.00
367.31	0.00
367.51	0.00
367.70	0.00
367.90	0.00
368.10	0.00
368.30	0.00
368.49	0.00
368.69	0.00
368.89	0.00
369.09	0.00
369.28	0.00
369.48	0.00
369.68	0.00
369.87	0.00
370.07	0.00
370.27	0.00
370.47	35.11
370.66	86.60
370.86	234.05
371.06	315.97
371.25	301.93
371.45	283.20
371.65	215.33
371.84	243.42
372.04	280.86
372.24	224.69
372.44	280.86
372.63	243.42
372.83	306.61
373.03	280.86
373.22	198.95
373.42	210.65
373.62	283.20
373.81	276.18
374.01	276.18
374.21	264.48
374.40	248.10
374.60	285.55
374.79	269.16
374.99	369.80
375.19	318.31
375.38	311.29
375.58	248.10
375.78	374.49
375.97	353.42
376.17	369.80
376.37	339.38
376.56	322.99
376.76	332.36
376.95	313.63
377.15	332.36
377.35	414.27
377.54	442.36
377.74	355.76
377.93	325.33
378.13	337.04
378.33	353.42
378.52	346.40
378.72	304.27
378.91	294.91
379.11	339.38
379.31	304.27
379.50	304.27
379.70	330.02
379.89	390.87
380.09	353.42
380.28	346.40
380.48	374.49
380.68	411.93
380.87	381.51
381.07	381.51
381.26	360.44
381.46	358.10
381.65	362.78
381.85	264.48
382.04	306.61
382.24	362.78
382.43	290.23
382.63	180.22
382.83	280.86
383.02	234.05
383.22	273.84
383.41	252.78
383.61	393.21
383.80	306.61
384.00	304.27
384.19	327.68
384.39	402.57
384.58	468.11
384.78	477.47
384.97	269.16
385.17	327.68
385.36	346.40
385.56	376.83
385.75	339.38
385.95	334.70
386.14	372.15
386.34	372.15
386.53	374.49
386.72	330.02
386.92	461.09
387.11	383.85
387.31	400.23
387.50	404.91
387.70	381.51
387.89	367.46
388.09	367.46
388.28	318.31
388.48	337.04
388.67	458.74
388.86	395.55
389.06	416.62
389.25	505.56
389.45	444.70
389.64	418.96
389.84	416.62
390.03	479.81
390.22	479.81
390.42	449.38
390.61	449.38
390.81	500.87
391.00	503.22
391.19	491.51
391.39	468.11
391.58	463.43
391.78	500.87
391.97	440.02
392.16	397.89
392.36	425.98
392.55	322.99
392.75	313.63
392.94	306.61
393.13	304.27
393.33	210.65
393.52	308.95
393.71	388.53
393.91	386.19
394.10	454.06
394.29	475.13
394.49	461.09
394.68	507.90
394.88	517.26
395.07	491.51
395.26	456.40
395.46	484.49
395.65	596.84
395.84	519.60
396.04	498.53
396.23	344.06
396.42	308.95
396.62	388.53
396.81	337.04
397.00	381.51
397.19	538.32
397.39	519.60
397.58	561.73
397.77	585.13
397.97	641.31
398.16	662.37
398.35	664.71
398.55	699.82
398.74	664.71
398.93	671.73
399.12	582.79
399.32	744.29
399.51	704.50
399.70	704.50
399.90	692.80
400.09	784.08
400.28	716.20
400.47	741.95
400.67	723.23
400.86	725.57
401.05	720.88
401.24	702.16
401.44	788.76
401.63	781.74
401.82	725.57
402.01	744.29
402.21	765.36
402.40	709.18
402.59	645.99
402.78	699.82
402.97	723.23
403.17	690.46
403.36	791.10
403.55	819.19
403.74	842.59
403.93	767.70
404.13	847.27
404.32	898.77
404.51	800.46
404.70	809.83
404.89	856.64
405.09	844.93
405.28	833.23
405.47	706.84
405.66	741.95
405.85	716.20
406.05	697.48
406.24	657.69
406.43	798.12
406.62	732.59
406.81	741.95
407.00	734.93
407.20	699.82
407.39	732.59
407.58	807.48
407.77	805.14
407.96	891.74
408.15	805.14
408.34	781.74
408.54	830.89
408.73	1020.47
408.92	727.91
409.11	791.10
409.30	763.01
409.49	732.59
409.68	662.37
409.87	660.03
410.07	692.80
410.26	723.23
410.45	823.87
410.64	746.63
410.83	835.57
411.02	877.70
411.21	889.40
411.40	781.74
411.59	844.93
411.78	816.85
411.98	842.59
412.17	793.44
412.36	924.51
412.55	826.21
412.74	903.45
412.93	830.89
413.12	866.00
413.31	947.92
413.50	926.85
413.69	938.55
413.88	875.36
414.07	816.85
414.26	976.00
414.45	964.30
414.64	968.98
414.83	961.96
415.02	891.74
415.22	833.23
415.41	896.43
415.60	976.00
415.79	983.02
415.98	1053.24
416.17	1020.47
416.36	1008.77
416.55	936.21
416.74	875.36
416.93	898.77
417.12	896.43
417.31	976.00
417.50	947.92
417.69	936.21
417.88	1015.79
418.07	940.90
418.26	980.68
418.45	894.08
418.64	983.02
418.83	950.26
419.02	919.83
419.21	1029.84
419.39	1034.52
419.58	870.68
419.77	919.83
419.96	931.53
420.15	1076.65
420.34	1011.11
420.53	1118.78
420.72	1160.91
420.91	936.21
421.10	1015.79
421.29	926.85
421.48	940.90
421.67	1128.14
421.86	1025.15
422.05	933.87
422.24	873.02
422.43	933.87
422.61	976.00
422.80	985.37
422.99	1032.18
423.18	987.71
423.37	976.00
423.56	973.66
423.75	1034.52
423.94	1011.11
424.13	992.39
424.32	926.85
424.50	983.02
424.69	926.85
424.88	915.15
425.07	999.41
425.26	880.04
425.45	924.51
425.64	903.45
425.83	966.64
426.01	978.34
426.20	983.02
426.39	978.34
426.58	1018.13
426.77	849.61
426.96	840.25
427.15	807.48
427.33	844.93
427.52	915.15
427.71	912.81
427.90	912.81
428.09	950.26
428.28	887.06
428.46	828.55
428.65	926.85
428.84	936.21
429.03	994.73
429.22	901.11
429.40	730.25
429.59	683.44
429.78	737.27
429.97	676.41
430.16	631.94
430.34	746.63
430.53	741.95
430.72	763.01
430.91	816.85
431.10	863.66
431.28	1060.26
431.47	990.05
431.66	1086.01
431.85	1039.20
432.03	919.83
432.22	1006.43
432.41	971.32
432.60	1064.94
432.79	1036.86
432.97	1116.44
433.16	1025.15
433.35	919.83
433.54	821.53
433.72	884.72
433.91	947.92
434.10	978.34
434.28	1067.28
434.47	1057.92
434.66	1053.24
434.85	1050.90
435.03	1102.39
435.22	1441.77
435.41	1872.43
435.59	1888.81
435.78	1675.82
435.97	1476.88
436.16	1324.74
436.34	1149.20
436.53	1055.58
436.72	1177.29
436.90	1083.67
437.09	1069.62
437.28	1046.22
437.46	1018.13
437.65	1081.33
437.84	1008.77
438.02	985.37
438.21	957.28
438.40	971.32
438.58	999.41
438.77	1076.65
438.96	1095.37
439.14	1055.58
439.33	1095.37
439.52	1193.67
439.70	1165.59
439.89	1139.84
440.08	1142.18
440.26	1109.41
440.45	1181.97
440.63	1118.78
440.82	1167.93
441.01	1224.10
441.19	1170.27
441.38	1282.61
441.57	1254.53
441.75	1313.04
441.94	1280.27
442.12	1247.51
442.31	1301.34
442.50	1228.78
442.68	1214.74
442.87	1231.12
443.05	1139.84
443.24	1231.12
443.43	1362.19
443.61	1315.38
443.80	1371.55
443.98	1200.69
444.17	1245.16
444.35	1320.06
444.54	1263.89
444.73	1329.42
444.91	1240.48
445.10	1266.23
445.28	1235.80
445.47	1128.14
445.65	1219.42
445.84	1193.67
446.02	1270.91
446.21	1261.55
446.39	1252.19
446.58	1277.93
446.77	1315.38
446.95	1217.08
447.14	1366.87
447.32	1383.26
447.51	1317.72
447.69	1315.38
447.88	1158.57
448.06	1284.95
448.25	1310.70
448.43	1329.42
448.62	1369.21
448.80	1352.83
448.99	1357.51
449.17	1270.91
449.36	1224.10
449.54	1291.98
449.73	1275.59
449.91	1425.39
450.10	1455.81
450.28	1472.20
450.46	1420.71
450.65	1427.73
450.83	1352.83
451.02	1383.26
451.20	1394.96
451.39	1432.41
451.57	1404.32
451.76	1371.55
451.94	1327.08
452.13	1359.85
452.31	1256.87
452.49	1179.63
452.68	1217.08
452.86	1270.91
453.05	1294.32
453.23	1308.36
453.42	1334.11
453.60	1261.55
453.78	1366.87
453.97	1299.00
454.15	1306.02
454.34	1308.36
454.52	1289.64
454.70	1313.04
454.89	1359.85
455.07	1291.98
455.26	1334.11
455.44	1373.89
455.62	1432.41
455.81	1383.26
455.99	1371.55
456.17	1320.06
456.36	1280.27
456.54	1376.24
456.73	1343.47
456.91	1378.58
457.09	1392.62
457.28	1481.56
457.46	1413.68
457.64	1444.11
457.83	1364.53
458.01	1242.82
458.19	1418.36
458.38	1401.98
458.56	1418.36
458.74	1406.66
458.93	1397.30
459.11	1430.07
459.29	1284.95
459.48	1341.13
459.66	1317.72
459.84	1448.79
460.03	1458.15
460.21	1497.94
460.39	1380.92
460.57	1406.66
460.76	1427.73
460.94	1413.68
461.12	1455.81
461.31	1369.21
461.49	1483.90
461.67	1462.83
461.85	1439.43
462.04	1416.02
462.22	1994.14
462.40	1446.45
462.59	1315.38
462.77	1350.49
462.95	1504.96
463.13	1497.94
463.32	1437.09
463.50	1341.13
463.68	1399.64
463.86	1467.52
464.05	1329.42
464.23	1409.00
464.41	1394.96
464.59	1366.87
464.78	1453.47
464.96	1261.55
465.14	1350.49
465.32	1385.60
465.50	1460.49
465.69	1544.75
465.87	1373.89
466.05	1465.18
466.23	1331.76
466.41	1362.19
466.60	1364.53
466.78	1409.00
466.96	1331.76
467.14	1460.49
467.32	1301.34
467.51	1479.22
467.69	1441.77
467.87	1481.56
468.05	1437.09
468.23	1458.15
468.41	1500.28
468.60	1439.43
468.78	1437.09
468.96	1413.68
469.14	1455.81
469.32	1371.55
469.50	1373.89
469.69	1401.98
469.87	1366.87
470.05	1338.79
470.23	1327.08
470.41	1308.36
470.59	1303.68
470.77	1425.39
470.95	1418.36
471.14	1401.98
471.32	1430.07
471.50	1521.35
471.68	1556.46
471.86	1467.52
472.04	1465.18
472.22	1511.99
472.40	1490.92
472.58	1427.73
472.77	1455.81
472.95	1350.49
473.13	1551.78
473.31	1519.01
473.49	1413.68
473.67	1418.36
473.85	1383.26
474.03	1469.86
474.21	1521.35
474.39	1629.01
474.57	1558.80
474.75	1514.33
474.93	1514.33
475.12	1469.86
475.30	1488.58
475.48	1591.56
475.66	1563.48
475.84	1584.54
476.02	1451.13
476.20	1451.13
476.38	1458.15
476.56	1544.75
476.74	1502.62
476.92	1610.29
477.10	1500.28
477.28	1746.04
477.46	1605.61
477.64	1636.03
477.82	1753.06
478.00	1652.42
478.18	1614.97
478.36	1678.16
478.54	1556.46
478.72	1577.52
478.90	1696.89
479.08	1732.00
479.26	1626.67
479.44	1682.85
479.62	1643.06
479.80	1720.29
479.98	1710.93
480.16	1713.27
480.34	1837.32
480.52	1706.25
480.70	1729.66
480.88	1809.23
481.06	1729.66
481.24	1853.70
481.41	1966.05
481.59	1879.45
481.77	1860.73
481.95	1853.70
482.13	1844.34
482.31	1853.70
482.49	1872.43
482.67	1825.62
482.85	1867.75
483.03	1928.60
483.21	1947.33
483.39	1921.58
483.57	1930.94
483.74	1902.86
483.92	1877.11
484.10	1856.04
484.28	2054.99
484.46	2073.71
484.64	2059.67
484.82	2062.01
485.00	1856.04
485.18	1921.58
485.35	1830.30
485.53	1753.06
485.71	1743.70
485.89	1724.97
486.07	1633.69
486.25	1727.32
486.43	1984.77
486.61	1949.67
486.78	1902.86
486.96	1879.45
487.14	1970.73
487.32	2050.31
487.50	1970.73
487.68	2188.40
487.85	2120.53
488.03	2314.79
488.21	2111.16
488.39	2076.06
488.57	2193.08
488.75	2097.12
488.92	2387.35
489.10	2204.78
489.28	2361.60
489.46	2420.11
489.64	2319.47
489.81	2377.98
489.99	2291.38
490.17	2413.09
490.35	2387.35
490.53	2326.49
490.70	2326.49
490.88	2228.19
491.06	2303.09
491.24	2349.90
491.41	2253.94
491.59	2188.40
491.77	2244.57
491.95	2165.00
492.13	2232.87
492.30	2317.13
492.48	2427.14
492.66	2396.71
492.84	2422.45
493.01	2499.69
493.19	2356.92
493.37	2377.98
493.54	2321.81
493.72	2298.41
493.90	2420.11
494.08	2473.95
494.25	2427.14
494.43	2541.82
494.61	2532.46
494.79	2551.18
494.96	2574.59
495.14	2485.65
495.32	2392.03
495.49	2406.07
495.67	2492.67
495.85	2607.36
496.02	2616.72
496.20	2509.05
496.38	2541.82
496.55	2513.74
496.73	2607.36
496.91	2555.86
497.09	2534.80
497.26	2640.12
497.44	2509.05
497.62	2693.96
497.79	2651.83
497.97	2490.33
498.14	2415.43
498.32	2534.80
498.50	2511.39
498.67	2642.46
498.85	2555.86
499.03	2525.44
499.20	2579.27
499.38	2649.49
499.56	2651.83
499.73	2719.70
499.91	2548.84
500.08	2499.69
500.26	2490.33
500.44	2511.39
500.61	2546.50
500.79	2502.03
500.97	2567.57
501.14	2495.01
501.32	2537.14
501.49	2476.29
501.67	2539.48
501.84	2476.29
502.02	2518.42
502.20	2740.77
502.37	2576.93
502.55	2551.18
502.72	2616.72
502.90	2663.53
503.07	2567.57
503.25	2473.95
503.43	2394.37
503.60	2298.41
503.78	2211.81
503.95	2359.26
504.13	2527.78
504.30	2782.90
504.48	2518.42
504.65	2605.02
504.83	2686.94
505.01	2644.81
505.18	2743.11
505.36	2682.25
505.53	2717.36
505.71	2633.10
505.88	2764.17
506.06	2684.59
506.23	2609.70
506.41	2635.44
506.58	2724.38
506.76	2621.40
506.93	2637.78
507.11	2623.74
507.28	2572.25
507.46	2612.04
507.63	2560.55
507.81	2471.61
507.98	2424.80
508.16	2473.95
508.33	2647.15
508.50	2740.77
508.68	2689.28
508.85	2754.81
509.03	2771.19
509.20	2640.12
509.38	2691.62
509.55	2595.65
509.73	2586.29
509.90	2710.34
510.08	2682.25
510.25	2705.66
510.42	2796.94
510.60	2778.22
510.77	2813.32
510.95	2782.90
511.12	2693.96
511.30	2836.73
511.47	2818.00
511.64	2775.88
511.82	2810.98
511.99	2743.11
512.17	2796.94
512.34	2698.64
512.51	2630.76
512.69	2656.51
512.86	2761.83
513.04	2825.03
513.21	2801.62
513.38	2733.75
513.56	2647.15
513.73	2567.57
513.90	2593.31
514.08	2708.00
514.25	2665.87
514.43	2623.74
514.60	2658.85
514.77	2677.57
514.95	2738.43
515.12	2588.63
515.29	2693.96
515.47	2782.90
515.64	2761.83
515.81	2691.62
515.99	2637.78
516.16	2476.29
516.33	2415.43
516.51	2237.55
516.68	2235.21
516.85	2202.44
517.03	2284.36
517.20	2441.18
517.37	2635.44
517.54	2738.43
517.72	2586.29
517.89	2478.63
518.06	2363.94
518.24	2356.92
518.41	2429.48
518.58	2520.76
518.75	2565.23
518.93	2612.04
519.10	2534.80
519.27	2654.17
519.45	2764.17
519.62	2757.15
519.79	2768.85
519.96	2724.38
520.14	2738.43
520.31	2672.89
520.48	2651.83
520.65	2705.66
520.83	2771.19
521.00	2820.35
521.17	2651.83
521.34	2693.96
521.52	2738.43
521.69	2759.49
521.86	2747.79
522.03	2710.34
522.20	2712.68
522.38	2607.36
522.55	2719.70
522.72	2609.70
522.89	2663.53
523.07	2754.81
523.24	2801.62
523.41	2860.13
523.58	2815.66
523.75	2942.05
523.92	2815.66
524.10	2815.66
524.27	2803.96
524.44	2792.26
524.61	2825.03
524.78	2729.06
524.96	2733.75
525.13	2820.35
525.30	2857.79
525.47	2911.63
525.64	2803.96
525.81	2787.58
525.98	2675.23
526.16	2499.69
526.33	2502.03
526.50	2431.82
526.67	2403.73
526.84	2471.61
527.01	2478.63
527.18	2621.40
527.36	2537.14
527.53	2860.13
527.70	2785.24
527.87	2628.42
528.04	2766.51
528.21	2719.70
528.38	2813.32
528.55	2911.63
528.72	2883.54
528.89	2909.29
529.07	2822.69
529.24	2825.03
529.41	2726.72
529.58	2818.00
529.75	2708.00
529.92	2736.09
530.09	2813.32
530.26	2857.79
530.43	2920.99
530.60	2956.10
530.77	2832.05
530.94	2897.58
531.11	2839.07
531.28	2764.17
531.46	2752.47
531.63	2899.92
531.80	2822.69
531.97	2815.66
532.14	2665.87
532.31	2527.78
532.48	2693.96
532.65	2754.81
532.82	2773.53
532.99	2794.60
533.16	2913.97
533.33	2904.60
533.50	3007.59
533.67	2771.19
533.84	2724.38
534.01	2789.92
534.18	2782.90
534.35	2778.22
534.52	2773.53
534.69	2860.13
534.86	2818.00
535.03	3012.27
535.20	2815.66
535.37	2967.80
535.54	2977.16
535.71	3040.36
535.88	2892.90
536.05	2832.05
536.22	2878.86
536.38	2757.15
536.55	2761.83
536.72	2715.02
536.89	2747.79
537.06	2902.26
537.23	2827.37
537.40	2841.41
537.57	2874.18
537.74	2860.13
537.91	2939.71
538.08	2801.62
538.25	2829.71
538.42	2942.05
538.59	2988.86
538.75	2888.22
538.92	2806.30
539.09	2792.26
539.26	2810.98
539.43	2958.44
539.60	2846.09
539.77	2963.12
539.94	2925.67
540.11	2902.26
540.28	2869.50
540.44	2939.71
540.61	3023.97
540.78	3117.59
540.95	3101.21
541.12	3412.50
541.29	3398.46
541.46	3548.25
541.62	3438.25
541.79	3538.89
541.96	3342.28
542.13	3325.90
542.30	3370.37
542.47	3304.84
542.63	3260.37
542.80	3201.85
542.97	3269.73
543.14	3159.72
543.31	3187.81
543.48	3215.90
543.64	3325.90
543.81	3368.03
543.98	3389.10
544.15	3234.62
544.32	3218.24
544.48	3152.70
544.65	3136.32
544.82	3391.44
544.99	3267.39
545.16	3232.28
545.32	3148.02
545.49	3644.21
545.66	4526.60
545.83	4894.06
546.00	4596.81
546.16	3934.44
546.33	3564.64
546.50	3363.35
546.67	3342.28
546.83	3300.16
547.00	3131.64
547.17	2979.50
547.34	2951.42
547.50	2883.54
547.67	3012.27
547.84	2935.03
548.00	2897.58
548.17	3019.29
548.34	2984.18
548.51	3009.93
548.67	3000.57
548.84	2995.89
549.01	2972.48
549.18	2993.55
549.34	2897.58
549.51	2895.24
549.68	2998.23
549.84	2855.45
550.01	2913.97
550.18	2939.71
550.34	2930.35
550.51	2909.29
550.68	2888.22
550.84	2806.30
551.01	2864.82
551.18	2750.13
551.34	2710.34
551.51	2708.00
551.68	2782.90
551.84	3098.87
552.01	2888.22
552.18	2789.92
552.34	2630.76
552.51	2682.25
552.68	2562.89
552.84	2651.83
553.01	2654.17
553.18	2668.21
553.34	2757.15
553.51	2808.64
553.67	2801.62
553.84	2768.85
554.01	2752.47
554.17	2658.85
554.34	2710.34
554.51	2654.17
554.67	2733.75
554.84	2663.53
555.00	2693.96
555.17	2757.15
555.33	2771.19
555.50	2518.42
555.67	2712.68
555.83	2562.89
556.00	2562.89
556.16	2825.03
556.33	2551.18
556.50	2569.91
556.66	2506.71
556.83	2672.89
556.99	2544.16
557.16	2649.49
557.32	2588.63
557.49	2558.21
557.65	2532.46
557.82	2600.34
557.98	2513.74
558.15	2574.59
558.32	2389.69
558.48	2368.62
558.65	2408.41
558.81	2464.58
558.98	2349.90
559.14	2480.97
559.31	2548.84
559.47	2511.39
559.64	2289.04
559.80	2368.62
559.97	2282.02
560.13	2476.29
560.30	2445.86
560.46	2609.70
560.63	2548.84
560.79	2605.02
560.96	2614.38
561.12	2567.57
561.29	2569.91
561.45	2450.54
561.61	2457.56
561.78	2656.51
561.94	2506.71
562.11	2509.05
562.27	2455.22
562.44	2448.20
562.60	2499.69
562.77	2471.61
562.93	2513.74
563.10	2516.08
563.26	2457.56
563.42	2434.16
563.59	2401.39
563.75	2415.43
563.92	2403.73
564.08	2560.55
564.24	2504.37
564.41	2614.38
564.57	2363.94
564.74	2394.37
564.90	2511.39
565.07	2410.75
565.23	2443.52
565.39	2392.03
565.56	2303.09
565.72	2207.13
565.88	2296.07
566.05	2321.81
566.21	2296.07
566.38	2363.94
566.54	2394.37
566.70	2441.18
566.87	2403.73
567.03	2380.32
567.19	2385.01
567.36	2406.07
567.52	2279.68
567.68	2370.96
567.85	2321.81
568.01	2237.55
568.17	2155.63
568.34	2165.00
568.50	2160.31
568.66	2214.15
568.83	2303.09
568.99	2214.15
569.15	2221.17
569.32	2230.53
569.48	2293.72
569.64	2230.53
569.81	2207.13
569.97	2176.70
570.13	2246.91
570.30	2141.59
570.46	2165.00
570.62	2157.97
570.78	2214.15
570.95	2153.29
571.11	2221.17
571.27	2214.15
571.43	2094.78
571.60	2172.02
571.76	2204.78
571.92	2366.28
572.09	2349.90
572.25	2331.17
572.41	2218.83
572.57	2230.53
572.74	2211.81
572.90	2342.88
573.06	2251.60
573.22	2183.72
573.38	2181.38
573.55	2246.91
573.71	2174.36
573.87	2263.30
574.03	2101.80
574.20	2195.42
574.36	2146.27
574.52	2165.00
574.68	2153.29
574.84	2146.27
575.01	2174.36
575.17	2267.98
575.33	2141.59
575.49	2195.42
575.65	2153.29
575.82	2059.67
575.98	2256.28
576.14	2076.06
576.30	2265.64
576.46	2331.17
576.62	2429.48
576.79	2630.76
576.95	2410.75
577.11	2282.02
577.27	2314.79
577.43	2218.83
577.59	2214.15
577.75	2183.72
577.92	2071.37
578.08	2031.58
578.24	2111.16
578.40	2139.25
578.56	2356.92
578.72	2499.69
578.88	2590.97
579.04	2387.35
579.21	2394.37
579.37	2340.54
579.53	2237.55
579.69	2286.70
579.85	2366.28
580.01	2345.22
580.17	2286.70
580.33	2260.96
580.49	2331.17
580.65	2251.60
580.82	2225.85
580.98	2277.34
581.14	2216.49
581.30	2188.40
581.46	2232.87
581.62	2361.60
581.78	2232.87
581.94	2260.96
582.10	2375.64
582.26	2260.96
582.42	2333.51
582.58	2392.03
582.74	2291.38
582.90	2403.73
583.06	2359.26
583.22	2188.40
583.38	2333.51
583.54	2370.96
583.70	2354.58
583.86	2298.41
584.02	2328.83
584.18	2356.92
584.34	2333.51
584.50	2249.25
584.66	2338.20
584.82	2186.06
584.98	2260.96
585.14	2242.23
585.30	2228.19
585.46	2193.08
585.62	2167.34
585.78	2125.21
585.94	2157.97
586.10	2136.91
586.26	2146.27
586.42	2244.57
586.58	2214.15
586.74	2284.36
586.90	2242.23
587.06	2321.81
587.22	2338.20
587.38	2092.44
587.54	2090.10
587.70	2188.40
587.86	2047.97
588.02	1872.43
588.18	1940.30
588.34	1755.40
588.49	1748.38
588.65	1612.63
588.81	1610.29
588.97	1636.03
589.13	1565.82
589.29	1614.97
589.45	1610.29
589.61	1589.22
589.77	1605.61
589.93	1797.53
590.08	1713.27
590.24	1846.68
590.40	1797.53
590.56	1863.07
590.72	1795.19
590.88	1739.02
591.04	1795.19
591.20	1790.51
591.35	1753.06
591.51	1757.74
591.67	1916.90
591.83	1734.34
591.99	1757.74
592.15	1804.55
592.31	2031.58
592.46	1898.17
592.62	1952.01
592.78	1968.39
592.94	2092.44
593.10	1998.82
593.26	2085.42
593.41	2026.90
593.57	1949.67
593.73	1867.75
593.89	1930.94
594.05	1776.47
594.20	1680.50
594.36	1678.16
594.52	1551.78
594.68	1668.80
594.84	1806.89
594.99	1947.33
595.15	1867.75
595.31	1806.89
595.47	1834.98
595.62	1685.19
595.78	1949.67
595.94	1956.69
596.10	1919.24
596.25	1818.60
596.41	1830.30
596.57	1722.63
596.73	1839.66
596.88	1853.70
597.04	1842.00
597.20	1863.07
597.36	1757.74
597.51	1818.60
597.67	1863.07
597.83	1820.94
597.99	1872.43
598.14	1827.96
598.30	1788.17
598.46	1877.11
598.61	1799.87
598.77	1858.39
598.93	2022.22
599.09	1937.96
599.24	1937.96
599.40	1963.71
599.56	1963.71
599.71	1984.77
