SpectraSuite Data File
++++++++++++++++++++++++++++++++++++
Date: Fri Oct 04 11:44:20 GMT-05:00 2013
User: price-jones
Dark Spectrum Present: No
Reference Spectrum Present: No
Number of Sampled Component Spectra: 1
Spectrometers: USB2+H05261
Integration Time (usec): 100000 (USB2+H05261)
Spectra Averaged: 1 (USB2+H05261)
Boxcar Smoothing: 0 (USB2+H05261)
Correct for Electrical Dark: No (USB2+H05261)
Strobe/Lamp Enabled: No (USB2+H05261)
Correct for Detector Non-linearity: No (USB2+H05261)
Correct for Stray Light: No (USB2+H05261)
Number of Pixels in Processed Spectrum: 2048
>>>>>Begin Processed Spectral Data<<<<<
365.73	23.41
365.92	23.41
366.12	23.41
366.32	0.00
366.52	0.00
366.72	0.00
366.91	0.00
367.11	0.00
367.31	0.00
367.51	0.00
367.70	0.00
367.90	0.00
368.10	0.00
368.30	0.00
368.49	0.00
368.69	0.00
368.89	0.00
369.09	0.00
369.28	2.34
369.48	0.00
369.68	4.68
369.87	0.00
370.07	11.70
370.27	35.11
370.47	35.11
370.66	278.52
370.86	271.50
371.06	358.10
371.25	395.55
371.45	297.25
371.65	271.50
371.84	299.59
372.04	341.72
372.24	315.97
372.44	395.55
372.63	311.29
372.83	407.25
373.03	294.91
373.22	360.44
373.42	301.93
373.62	278.52
373.81	400.23
374.01	416.62
374.21	461.09
374.40	318.31
374.60	299.59
374.79	407.25
374.99	379.17
375.19	507.90
375.38	482.15
375.58	454.06
375.78	451.72
375.97	465.77
376.17	526.62
376.37	437.68
376.56	470.45
376.76	526.62
376.95	489.17
377.15	552.37
377.35	526.62
377.54	528.96
377.74	486.83
377.93	561.73
378.13	514.92
378.33	535.98
378.52	526.62
378.72	477.47
378.91	468.11
379.11	458.74
379.31	423.64
379.50	416.62
379.70	423.64
379.89	463.43
380.09	437.68
380.28	482.15
380.48	479.81
380.68	451.72
380.87	430.66
381.07	519.60
381.26	491.51
381.46	491.51
381.65	465.77
381.85	315.97
382.04	388.53
382.24	365.12
382.43	379.17
382.63	355.76
382.83	404.91
383.02	353.42
383.22	423.64
383.41	362.78
383.61	416.62
383.80	411.93
384.00	433.00
384.19	550.03
384.39	554.71
384.58	606.20
384.78	568.75
384.97	580.45
385.17	425.98
385.36	468.11
385.56	477.47
385.75	430.66
385.95	428.32
386.14	615.56
386.34	475.13
386.53	540.66
386.72	472.79
386.92	496.19
387.11	517.26
387.31	540.66
387.50	575.77
387.70	486.83
387.89	507.90
388.09	533.64
388.28	538.32
388.48	524.28
388.67	603.86
388.86	547.69
389.06	645.99
389.25	683.44
389.45	664.71
389.64	641.31
389.84	706.84
390.03	601.52
390.22	615.56
390.42	622.58
390.61	697.48
390.81	784.08
391.00	758.33
391.19	751.31
391.39	781.74
391.58	669.39
391.78	655.35
391.97	690.46
392.16	575.77
392.36	580.45
392.55	519.60
392.75	414.27
392.94	334.70
393.13	348.74
393.33	430.66
393.52	447.04
393.71	606.20
393.91	564.07
394.10	636.63
394.29	678.76
394.49	699.82
394.68	774.72
394.88	727.91
395.07	826.21
395.26	667.05
395.46	779.40
395.65	767.70
395.84	685.78
396.04	692.80
396.23	442.36
396.42	395.55
396.62	440.02
396.81	475.13
397.00	568.75
397.19	727.91
397.39	737.27
397.58	863.66
397.77	903.45
397.97	898.77
398.16	842.59
398.35	990.05
398.55	943.24
398.74	990.05
398.93	1095.37
399.12	1046.22
399.32	978.34
399.51	940.90
399.70	1064.94
399.90	1050.90
400.09	1074.31
400.28	983.02
400.47	1114.10
400.67	1137.50
400.86	1097.71
401.05	1125.80
401.24	1104.73
401.44	1221.76
401.63	1153.88
401.82	1100.05
402.01	1219.42
402.21	1041.54
402.40	1198.35
402.59	1121.12
402.78	1081.33
402.97	1153.88
403.17	1146.86
403.36	1160.91
403.55	1158.57
403.74	1128.14
403.93	1170.27
404.13	1203.04
404.32	1107.07
404.51	1217.08
404.70	1198.35
404.89	1111.75
405.09	1179.63
405.28	1163.25
405.47	1144.52
405.66	1165.59
405.85	1095.37
406.05	1132.82
406.24	1102.39
406.43	1111.75
406.62	1128.14
406.81	1160.91
407.00	1167.93
407.20	1205.38
407.39	1158.57
407.58	1196.01
407.77	1167.93
407.96	1282.61
408.15	1320.06
408.34	1249.85
408.54	1313.04
408.73	1341.13
408.92	1366.87
409.11	1226.44
409.30	1200.69
409.49	1249.85
409.68	1109.41
409.87	1039.20
410.07	1057.92
410.26	1095.37
410.45	1219.42
410.64	1245.16
410.83	1371.55
411.02	1282.61
411.21	1359.85
411.40	1355.17
411.59	1334.11
411.78	1301.34
411.98	1322.40
412.17	1387.94
412.36	1369.21
412.55	1324.74
412.74	1291.98
412.93	1371.55
413.12	1254.53
413.31	1488.58
413.50	1416.02
413.69	1493.26
413.88	1357.51
414.07	1369.21
414.26	1306.02
414.45	1446.45
414.64	1448.79
414.83	1537.73
415.02	1434.75
415.22	1383.26
415.41	1481.56
415.60	1488.58
415.79	1495.60
415.98	1497.94
416.17	1570.50
416.36	1507.30
416.55	1411.34
416.74	1495.60
416.93	1371.55
417.12	1439.43
417.31	1343.47
417.50	1409.00
417.69	1483.90
417.88	1488.58
418.07	1488.58
418.26	1376.24
418.45	1420.71
418.64	1558.80
418.83	1554.12
419.02	1547.09
419.21	1542.41
419.39	1507.30
419.58	1378.58
419.77	1458.15
419.96	1481.56
420.15	1563.48
420.34	1570.50
420.53	1537.73
420.72	1547.09
420.91	1666.46
421.10	1638.38
421.29	1509.65
421.48	1610.29
421.67	1565.82
421.86	1488.58
422.05	1446.45
422.24	1315.38
422.43	1390.28
422.61	1507.30
422.80	1582.20
422.99	1549.43
423.18	1514.33
423.37	1439.43
423.56	1549.43
423.75	1643.06
423.94	1465.18
424.13	1493.26
424.32	1439.43
424.50	1521.35
424.69	1544.75
424.88	1479.22
425.07	1373.89
425.26	1504.96
425.45	1476.88
425.64	1448.79
425.83	1439.43
426.01	1563.48
426.20	1528.37
426.39	1425.39
426.58	1453.47
426.77	1345.81
426.96	1315.38
427.15	1282.61
427.33	1373.89
427.52	1502.62
427.71	1521.35
427.90	1455.81
428.09	1439.43
428.28	1446.45
428.46	1387.94
428.65	1418.36
428.84	1373.89
429.03	1390.28
429.22	1387.94
429.40	1263.89
429.59	1163.25
429.78	1102.39
429.97	997.07
430.16	1064.94
430.34	1088.35
430.53	1032.18
430.72	1053.24
430.91	1221.76
431.10	1397.30
431.28	1565.82
431.47	1720.29
431.66	1750.72
431.85	1610.29
432.03	1490.92
432.22	1502.62
432.41	1537.73
432.60	1523.69
432.79	1549.43
432.97	1720.29
433.16	1645.40
433.35	1643.06
433.54	1432.41
433.72	1313.04
433.91	1348.15
434.10	1540.07
434.28	1563.48
434.47	1584.54
434.66	1654.76
434.85	1586.88
435.03	1671.14
435.22	1942.64
435.41	2073.71
435.59	2019.88
435.78	1956.69
435.97	1933.28
436.16	1865.41
436.34	1755.40
436.53	1842.00
436.72	1832.64
436.90	1708.59
437.09	1638.38
437.28	1703.91
437.46	1650.08
437.65	1790.51
437.84	1650.08
438.02	1500.28
438.21	1502.62
438.40	1579.86
438.58	1600.93
438.77	1680.50
438.96	1729.66
439.14	1647.74
439.33	1813.92
439.52	1851.36
439.70	1872.43
439.89	1860.73
440.08	1657.10
440.26	1631.35
440.45	1797.53
440.63	1888.81
440.82	1853.70
441.01	1937.96
441.19	1860.73
441.38	1923.92
441.57	1970.73
441.75	1949.67
441.94	2008.18
442.12	1966.05
442.31	2050.31
442.50	1994.14
442.68	2038.61
442.87	1947.33
443.05	1921.58
443.24	2094.78
443.43	2073.71
443.61	2153.29
443.80	2157.97
443.98	2040.95
444.17	2064.35
444.35	2064.35
444.54	1980.09
444.73	2022.22
444.91	1984.77
445.10	1870.09
445.28	1888.81
445.47	1755.40
445.65	1792.85
445.84	1884.13
446.02	1900.52
446.21	1930.94
446.39	2083.08
446.58	2008.18
446.77	2085.42
446.95	2059.67
447.14	2141.59
447.32	2230.53
447.51	2066.69
447.69	2090.10
447.88	2026.90
448.06	2071.37
448.25	2059.67
448.43	2085.42
448.62	2062.01
448.80	2050.31
448.99	2026.90
449.17	2094.78
449.36	2024.56
449.54	2085.42
449.73	2050.31
449.91	2195.42
450.10	2289.04
450.28	2438.84
450.46	2326.49
450.65	2333.51
450.83	2239.89
451.02	2141.59
451.20	2207.13
451.39	2223.51
451.57	2143.93
451.76	2031.58
451.94	2195.42
452.13	2223.51
452.31	2045.63
452.49	1928.60
452.68	1994.14
452.86	2008.18
453.05	1991.80
453.23	2029.24
453.42	1959.03
453.60	2129.89
453.78	2282.02
453.97	2181.38
454.15	2094.78
454.34	2038.61
454.52	2097.12
454.70	2148.61
454.89	2059.67
455.07	2008.18
455.26	2022.22
455.44	2218.83
455.62	2169.68
455.81	2200.10
455.99	2319.47
456.17	2216.49
456.36	2181.38
456.54	2237.55
456.73	2169.68
456.91	2190.74
457.09	2326.49
457.28	2377.98
457.46	2127.55
457.64	2244.57
457.83	2153.29
458.01	2157.97
458.19	2225.85
458.38	2181.38
458.56	2153.29
458.74	2235.21
458.93	2251.60
459.11	2260.96
459.29	2183.72
459.48	2216.49
459.66	2200.10
459.84	2303.09
460.03	2370.96
460.21	2253.94
460.39	2272.66
460.57	2366.28
460.76	2293.72
460.94	2310.11
461.12	2356.92
461.31	2403.73
461.49	2277.34
461.67	2216.49
461.85	2321.81
462.04	2310.11
462.22	2850.77
462.40	2373.30
462.59	2476.29
462.77	2307.77
462.95	2452.88
463.13	2347.56
463.32	2387.35
463.50	2399.05
463.68	2232.87
463.86	2167.34
464.05	2352.24
464.23	2286.70
464.41	2129.89
464.59	2267.98
464.78	2328.83
464.96	2275.00
465.14	2366.28
465.32	2228.19
465.50	2410.75
465.69	2452.88
465.87	2352.24
466.05	2216.49
466.23	2242.23
466.41	2214.15
466.60	2235.21
466.78	2139.25
466.96	2303.09
467.14	2197.76
467.32	2232.87
467.51	2275.00
467.69	2216.49
467.87	2197.76
468.05	2267.98
468.23	2289.04
468.41	2300.75
468.60	2239.89
468.78	2282.02
468.96	2251.60
469.14	2312.45
469.32	2321.81
469.50	2176.70
469.69	2242.23
469.87	2202.44
470.05	2267.98
470.23	2150.95
470.41	2202.44
470.59	2209.47
470.77	2207.13
470.95	2303.09
471.14	2457.56
471.32	2223.51
471.50	2406.07
471.68	2476.29
471.86	2499.69
472.04	2469.27
472.22	2466.92
472.40	2282.02
472.58	2317.13
472.77	2267.98
472.95	2197.76
473.13	2408.41
473.31	2303.09
473.49	2307.77
473.67	2392.03
473.85	2368.62
474.03	2509.05
474.21	2581.61
474.39	2457.56
474.57	2511.39
474.75	2492.67
474.93	2511.39
475.12	2389.69
475.30	2436.50
475.48	2422.45
475.66	2541.82
475.84	2417.77
476.02	2441.18
476.20	2370.96
476.38	2431.82
476.56	2588.63
476.74	2495.01
476.92	2548.84
477.10	2614.38
477.28	2700.98
477.46	2630.76
477.64	2689.28
477.82	2759.49
478.00	2539.48
478.18	2708.00
478.36	2651.83
478.54	2658.85
478.72	2647.15
478.90	2750.13
479.08	2808.64
479.26	2944.39
479.44	2836.73
479.62	2672.89
479.80	2902.26
479.98	2808.64
480.16	2871.84
480.34	2810.98
480.52	2860.13
480.70	2995.89
480.88	2843.75
481.06	3021.63
481.24	2965.46
481.41	2899.92
481.59	3096.53
481.77	3009.93
481.95	3019.29
482.13	3028.65
482.31	2956.10
482.49	3023.97
482.67	2951.42
482.85	2986.52
483.03	3089.51
483.21	3082.49
483.39	3026.31
483.57	3040.36
483.74	3110.57
483.92	3091.85
484.10	3110.57
484.28	3225.26
484.46	3213.56
484.64	3332.92
484.82	3119.93
485.00	3232.28
485.18	3164.40
485.35	2871.84
485.53	2855.45
485.71	2658.85
485.89	2509.05
486.07	2541.82
486.25	2733.75
486.43	2846.09
486.61	3077.80
486.78	3082.49
486.96	3119.93
487.14	3260.37
487.32	3288.45
487.50	3311.86
487.68	3454.63
487.85	3410.16
488.03	3506.12
488.21	3459.31
488.39	3407.82
488.57	3342.28
488.75	3279.09
488.92	3583.36
489.10	3501.44
489.28	3735.50
489.46	3646.55
489.64	3721.45
489.81	3756.56
489.99	3653.58
490.17	3794.01
490.35	3948.48
490.53	3791.67
490.70	3756.56
490.88	3723.79
491.06	3833.80
491.24	3887.63
491.41	3768.26
491.59	3536.55
491.77	3349.31
491.95	3538.89
492.13	3574.00
492.30	3805.71
492.48	3969.55
492.66	3840.82
492.84	4051.47
493.01	3955.51
493.19	3861.88
493.37	3899.33
493.54	3784.65
493.72	3845.50
493.90	3957.85
494.08	4119.34
494.25	4018.70
494.43	4168.49
494.61	4229.35
494.79	4138.07
494.96	4189.56
495.14	4191.90
495.32	4095.94
495.49	3908.69
495.67	4184.88
495.85	4196.58
496.02	4259.78
496.20	4322.97
496.38	4383.82
496.55	4203.60
496.73	4334.67
496.91	4227.01
497.09	4538.30
497.26	4386.16
497.44	4334.67
497.62	4229.35
497.79	4210.62
497.97	3981.25
498.14	3983.59
498.32	3978.91
498.50	4095.94
498.67	4432.97
498.85	4376.80
499.03	4325.31
499.20	4311.27
499.38	4528.94
499.56	4376.80
499.73	4348.72
499.91	4353.40
500.08	4210.62
500.26	4067.85
500.44	4100.62
500.61	4234.03
500.79	4189.56
500.97	4184.88
501.14	4032.74
501.32	4002.32
501.49	4077.21
501.67	4109.98
501.84	4014.02
502.02	4112.32
502.20	4245.73
502.37	4234.03
502.55	4149.77
502.72	4301.90
502.90	4327.65
503.07	4294.88
503.25	4135.73
503.43	4014.02
503.60	3950.82
503.78	3817.41
503.95	3906.35
504.13	4046.79
504.30	4283.18
504.48	4287.86
504.65	4395.53
504.83	4306.59
505.01	4245.73
505.18	4372.12
505.36	4507.87
505.53	4458.72
505.71	4645.96
505.88	4669.37
506.06	4442.34
506.23	4599.15
506.41	4388.50
506.58	4283.18
506.76	4346.37
506.93	4435.32
507.11	4390.84
507.28	4308.93
507.46	4252.75
507.63	4285.52
507.81	4201.26
507.98	4212.96
508.16	4170.83
508.33	4437.66
508.50	4376.80
508.68	4606.17
508.85	4517.23
509.03	4533.62
509.20	4613.20
509.38	4617.88
509.55	4320.63
509.73	4304.25
509.90	4451.70
510.08	4538.30
510.25	4503.19
510.42	4531.28
510.60	4578.09
510.77	4587.45
510.95	4617.88
511.12	4734.90
511.30	4744.27
511.47	4858.95
511.64	4767.67
511.82	4819.16
511.99	4636.60
512.17	4624.90
512.34	4531.28
512.51	4561.70
512.69	4372.12
512.86	4638.94
513.04	4531.28
513.21	4685.75
513.38	4507.87
513.56	4400.21
513.73	4390.84
513.90	4397.87
514.08	4278.50
514.25	4650.64
514.43	4554.68
514.60	4552.34
514.77	4571.07
514.95	4737.24
515.12	4533.62
515.29	4564.04
515.47	4676.39
515.64	4697.46
515.81	4617.88
515.99	4746.61
516.16	4500.85
516.33	4212.96
516.51	3868.91
516.68	3772.94
516.85	3688.68
517.03	3840.82
517.20	4091.26
517.37	4355.74
517.54	4554.68
517.72	4367.44
517.89	4269.14
518.06	3908.69
518.24	3950.82
518.41	4145.09
518.58	4404.89
518.75	4512.55
518.93	4531.28
519.10	4582.77
519.27	4440.00
519.45	4514.89
519.62	4702.14
519.79	4718.52
519.96	4765.33
520.14	4784.06
520.31	4531.28
520.48	4470.42
520.65	4444.68
520.83	4603.83
521.00	4737.24
521.17	4725.54
521.34	4725.54
521.52	4603.83
521.69	4741.93
521.86	4786.40
522.03	4765.33
522.20	4781.71
522.38	4475.10
522.55	4395.53
522.72	4486.81
522.89	4552.34
523.07	4681.07
523.24	4603.83
523.41	4765.33
523.58	4730.22
523.75	4887.04
523.92	4887.04
524.10	4947.89
524.27	4880.02
524.44	4929.17
524.61	4908.10
524.78	4833.21
524.96	4688.09
525.13	4690.43
525.30	4770.01
525.47	4910.44
525.64	4933.85
525.81	4713.84
525.98	4648.30
526.16	4503.19
526.33	4304.25
526.50	4161.47
526.67	4269.14
526.84	4189.56
527.01	4315.95
527.18	4418.93
527.36	4552.34
527.53	4690.43
527.70	4833.21
527.87	4702.14
528.04	4826.18
528.21	4765.33
528.38	4983.00
528.55	4882.36
528.72	4891.72
528.89	5116.41
529.07	5081.30
529.24	5029.81
529.41	4833.21
529.58	4805.12
529.75	4643.62
529.92	4748.95
530.09	4814.48
530.26	4936.19
530.43	5130.45
530.60	4835.55
530.77	4795.76
530.94	5048.54
531.11	4903.42
531.28	5067.26
531.46	4730.22
531.63	4938.53
531.80	4910.44
531.97	4891.72
532.14	4837.89
532.31	4610.86
532.48	4423.61
532.65	4358.08
532.82	4367.44
532.99	4629.58
533.16	4655.33
533.33	4767.67
533.50	4994.70
533.67	4798.10
533.84	4681.07
534.01	4716.18
534.18	4737.24
534.35	4882.36
534.52	4505.53
534.69	4875.34
534.86	4819.16
535.03	4800.44
535.20	5025.13
535.37	5060.24
535.54	5034.49
535.71	4990.02
535.88	4880.02
536.05	4919.81
536.22	4819.16
536.38	4788.74
536.55	4582.77
536.72	4575.75
536.89	4470.42
537.06	4697.46
537.23	4765.33
537.40	4835.55
537.57	4784.06
537.74	4884.70
537.91	4884.70
538.08	4994.70
538.25	4884.70
538.42	5062.58
538.59	4830.87
538.75	4821.50
538.92	4648.30
539.09	4723.20
539.26	4638.94
539.43	4688.09
539.60	4500.85
539.77	4758.31
539.94	4844.91
540.11	4662.35
540.28	4493.83
540.44	4489.15
540.61	4610.86
540.78	4610.86
540.95	4926.83
541.12	4784.06
541.29	4926.83
541.46	4994.70
541.62	5004.07
541.79	4887.04
541.96	4788.74
542.13	4826.18
542.30	4924.49
542.47	4919.81
542.63	4961.94
542.80	4950.23
542.97	4772.35
543.14	4840.23
543.31	4762.99
543.48	5093.01
543.64	5118.75
543.81	5224.08
543.98	5034.49
544.15	5085.98
544.32	4905.76
544.48	4856.61
544.65	4943.21
544.82	5029.81
544.99	4868.31
545.16	4966.62
545.32	4966.62
545.49	5235.78
545.66	5521.32
545.83	5715.59
546.00	5334.08
546.16	4983.00
546.33	4795.76
546.50	4882.36
546.67	4819.16
546.83	4629.58
547.00	4713.84
547.17	4765.33
547.34	4716.18
547.50	4795.76
547.67	4730.22
547.84	4622.56
548.00	4755.97
548.17	4760.65
548.34	4741.93
548.51	4805.12
548.67	4877.68
548.84	4732.56
549.01	4844.91
549.18	4681.07
549.34	4734.90
549.51	4847.25
549.68	4615.54
549.84	4615.54
550.01	4837.89
550.18	4730.22
550.34	4830.87
550.51	4652.98
550.68	4931.51
550.84	4547.66
551.01	4695.11
551.18	4641.28
551.34	4554.68
551.51	4753.63
551.68	4777.03
551.84	4777.03
552.01	4774.69
552.18	4634.26
552.34	4765.33
552.51	4582.77
552.68	4442.34
552.84	4624.90
553.01	4676.39
553.18	4636.60
553.34	4589.79
553.51	4709.16
553.67	4741.93
553.84	4716.18
554.01	4622.56
554.17	4550.00
554.34	4615.54
554.51	4671.71
554.67	4795.76
554.84	4910.44
555.00	4711.50
555.17	4643.62
555.33	4704.48
555.50	4652.98
555.67	4660.01
555.83	4643.62
556.00	4454.04
556.16	4720.86
556.33	4435.32
556.50	4512.55
556.66	4561.70
556.83	4585.11
556.99	4444.68
557.16	4533.62
557.32	4444.68
557.49	4559.36
557.65	4573.41
557.82	4554.68
557.98	4432.97
558.15	4435.32
558.32	4367.44
558.48	4278.50
558.65	4095.94
558.81	4304.25
558.98	4238.71
559.14	4339.35
559.31	4358.08
559.47	4498.51
559.64	4301.90
559.80	4292.54
559.97	4311.27
560.13	4346.37
560.30	4489.15
560.46	4477.44
560.63	4468.08
560.79	4571.07
560.96	4489.15
561.12	4437.66
561.29	4355.74
561.45	4276.16
561.61	4381.48
561.78	4418.93
561.94	4493.83
562.11	4358.08
562.27	4362.76
562.44	4329.99
562.60	4430.63
562.77	4348.72
562.93	4458.72
563.10	4355.74
563.26	4262.12
563.42	4355.74
563.59	4311.27
563.75	4297.22
563.92	4283.18
564.08	4341.69
564.24	4313.61
564.41	4386.16
564.57	4404.89
564.74	4390.84
564.90	4229.35
565.07	4241.05
565.23	4234.03
565.39	4159.13
565.56	4128.70
565.72	4004.66
565.88	4166.15
566.05	4208.28
566.21	4133.39
566.38	4138.07
566.54	4208.28
566.70	4156.79
566.87	4292.54
567.03	4287.86
567.19	4264.46
567.36	4287.86
567.52	4091.26
567.68	4072.53
567.85	4023.38
568.01	3882.95
568.17	3962.53
568.34	3887.63
568.50	3859.54
568.66	3775.28
568.83	3995.29
568.99	4011.68
569.15	3925.08
569.32	3962.53
569.48	3925.08
569.64	3875.93
569.81	3873.59
569.97	3911.04
570.13	3815.07
570.30	4002.32
570.46	3852.52
570.62	3712.09
570.78	3705.07
570.95	3742.52
571.11	3852.52
571.27	3995.29
571.43	3873.59
571.60	3899.33
571.76	3829.12
571.92	3899.33
572.09	3974.23
572.25	3997.64
572.41	4046.79
572.57	4042.11
572.74	3976.57
572.90	3955.51
573.06	4002.32
573.22	3920.40
573.38	4095.94
573.55	3985.93
573.71	3936.78
573.87	3927.42
574.03	3808.05
574.20	3854.86
574.36	3779.97
574.52	3894.65
574.68	3775.28
574.84	3850.18
575.01	3733.15
575.17	3847.84
575.33	3751.88
575.49	3955.51
575.65	3908.69
575.82	3913.38
575.98	4028.06
576.14	3688.68
576.30	3899.33
576.46	3896.99
576.62	3981.25
576.79	3913.38
576.95	4018.70
577.11	3838.48
577.27	3875.93
577.43	3920.40
577.59	3836.14
577.75	3721.45
577.92	3693.37
578.08	3684.00
578.24	3684.00
578.40	3721.45
578.56	3915.72
578.72	4018.70
578.88	3894.65
579.04	3866.56
579.21	3901.67
579.37	3735.50
579.53	3794.01
579.69	3822.09
579.85	3791.67
580.01	3946.14
580.17	3852.52
580.33	3887.63
580.49	3901.67
580.65	3981.25
580.82	3948.48
580.98	3861.88
581.14	3971.89
581.30	3775.28
581.46	3798.69
581.62	3803.37
581.78	3808.05
581.94	3906.35
582.10	3824.44
582.26	3812.73
582.42	3962.53
582.58	4018.70
582.74	4004.66
582.90	3808.05
583.06	3950.82
583.22	3847.84
583.38	3873.59
583.54	3983.59
583.70	4011.68
583.86	3901.67
584.02	3957.85
584.18	3936.78
584.34	3857.20
584.50	3981.25
584.66	3829.12
584.82	3822.09
584.98	3772.94
585.14	3707.41
585.30	3721.45
585.46	3599.74
585.62	3714.43
585.78	3669.96
585.94	3684.00
586.10	3681.66
586.26	3695.71
586.42	3744.86
586.58	3749.54
586.74	3754.22
586.90	3651.24
587.06	3672.30
587.22	3709.75
587.38	3644.21
587.54	3623.15
587.70	3447.61
587.86	3288.45
588.02	3325.90
588.18	3328.24
588.34	3073.12
588.49	2775.88
588.65	2708.00
588.81	2649.49
588.97	2654.17
589.13	2686.94
589.29	2661.19
589.45	2672.89
589.61	2635.44
589.77	2876.52
589.93	2953.76
590.08	2979.50
590.24	3112.91
590.40	3197.17
590.56	3176.11
590.72	3126.96
590.88	3096.53
591.04	3063.76
591.20	3082.49
591.35	3215.90
591.51	3131.64
591.67	2986.52
591.83	2970.14
591.99	2991.20
592.15	3042.70
592.31	3307.18
592.46	3178.45
592.62	3204.19
592.78	3199.51
592.94	3068.44
593.10	3356.33
593.26	3290.79
593.41	3365.69
593.57	3288.45
593.73	3108.23
593.89	3108.23
594.05	2965.46
594.20	2764.17
594.36	2878.86
594.52	2878.86
594.68	2869.50
594.84	3014.61
594.99	3108.23
595.15	3211.22
595.31	3227.60
595.47	3187.81
595.62	3176.11
595.78	3314.20
595.94	3213.56
596.10	3145.68
596.25	3197.17
596.41	3080.14
596.57	3007.59
596.73	3171.43
596.88	3194.83
597.04	3253.34
597.20	3232.28
597.36	3030.99
597.51	3141.00
597.67	3180.79
597.83	3206.53
597.99	3365.69
