SpectraSuite Data File
++++++++++++++++++++++++++++++++++++
Date: Fri Oct 04 11:44:17 GMT-05:00 2013
User: price-jones
Dark Spectrum Present: No
Reference Spectrum Present: No
Number of Sampled Component Spectra: 1
Spectrometers: USB2+H05261
Integration Time (usec): 100000 (USB2+H05261)
Spectra Averaged: 1 (USB2+H05261)
Boxcar Smoothing: 0 (USB2+H05261)
Correct for Electrical Dark: No (USB2+H05261)
Strobe/Lamp Enabled: No (USB2+H05261)
Correct for Detector Non-linearity: No (USB2+H05261)
Correct for Stray Light: No (USB2+H05261)
Number of Pixels in Processed Spectrum: 2048
>>>>>Begin Processed Spectral Data<<<<<
365.73	0.00
365.92	0.00
366.12	0.00
366.32	0.00
366.52	0.00
366.72	0.00
366.91	0.00
367.11	42.13
367.31	0.00
367.51	0.00
367.70	0.00
367.90	0.00
368.10	0.00
368.30	0.00
368.49	0.00
368.69	0.00
368.89	0.00
369.09	0.00
369.28	0.00
369.48	0.00
369.68	0.00
369.87	0.00
370.07	0.00
370.27	0.00
370.47	194.26
370.66	772.38
370.86	847.27
371.06	1060.26
371.25	936.21
371.45	924.51
371.65	819.19
371.84	854.30
372.04	826.21
372.24	866.00
372.44	1034.52
372.63	943.24
372.83	973.66
373.03	875.36
373.22	777.06
373.42	788.76
373.62	863.66
373.81	978.34
374.01	968.98
374.21	961.96
374.40	877.70
374.60	877.70
374.79	919.83
374.99	1074.31
375.19	1200.69
375.38	1210.06
375.58	1064.94
375.78	1146.86
375.97	1153.88
376.17	1177.29
376.37	1078.99
376.56	1200.69
376.76	1186.65
376.95	1247.51
377.15	1378.58
377.35	1376.24
377.54	1404.32
377.74	1490.92
377.93	1507.30
378.13	1392.62
378.33	1423.05
378.52	1256.87
378.72	1273.25
378.91	1226.44
379.11	1196.01
379.31	1198.35
379.50	1165.59
379.70	1306.02
379.89	1252.19
380.09	1413.68
380.28	1460.49
380.48	1423.05
380.68	1418.36
380.87	1420.71
381.07	1366.87
381.26	1273.25
381.46	1231.12
381.65	1170.27
381.85	1032.18
382.04	1006.43
382.24	889.40
382.43	973.66
382.63	833.23
382.83	938.55
383.02	882.38
383.22	950.26
383.41	896.43
383.61	973.66
383.80	1076.65
384.00	1338.79
384.19	1404.32
384.39	1331.76
384.58	1474.54
384.78	1409.00
384.97	1334.11
385.17	1366.87
385.36	1315.38
385.56	1207.72
385.75	1352.83
385.95	1462.83
386.14	1469.86
386.34	1476.88
386.53	1287.29
386.72	1362.19
386.92	1317.72
387.11	1411.34
387.31	1483.90
387.50	1409.00
387.70	1394.96
387.89	1392.62
388.09	1394.96
388.28	1348.15
388.48	1364.53
388.67	1549.43
388.86	1547.09
389.06	1767.10
389.25	1760.08
389.45	1734.34
389.64	1743.70
389.84	1767.10
390.03	1785.83
390.22	1795.19
390.42	1743.70
390.61	1893.49
390.81	2005.84
391.00	2052.65
391.19	2038.61
391.39	1954.35
391.58	1959.03
391.78	1746.04
391.97	1694.55
392.16	1624.33
392.36	1533.05
392.55	1289.64
392.75	985.37
392.94	833.23
393.13	870.68
393.33	1001.75
393.52	1205.38
393.71	1448.79
393.91	1673.48
394.10	1584.54
394.29	1886.47
394.49	1970.73
394.68	1970.73
394.88	2134.57
395.07	2108.82
395.26	2160.31
395.46	2188.40
395.65	2022.22
395.84	1900.52
396.04	1507.30
396.23	1341.13
396.42	1118.78
396.62	1177.29
396.81	1212.40
397.00	1579.86
397.19	1891.15
397.39	2134.57
397.58	2490.33
397.77	2502.03
397.97	2637.78
398.16	2574.59
398.35	2696.30
398.55	2752.47
398.74	2867.16
398.93	2965.46
399.12	2806.30
399.32	2825.03
399.51	2860.13
399.70	3014.61
399.90	3019.29
400.09	2972.48
400.28	2869.50
400.47	2988.86
400.67	3265.05
400.86	3014.61
401.05	3171.43
401.24	3176.11
401.44	3241.64
401.63	3290.79
401.82	3288.45
402.01	3180.79
402.21	3351.65
402.40	3384.41
402.59	3248.66
402.78	3049.72
402.97	3136.32
403.17	3166.74
403.36	3187.81
403.55	3356.33
403.74	3478.04
403.93	3269.73
404.13	3014.61
404.32	3101.21
404.51	3143.34
404.70	3304.84
404.89	3251.00
405.09	3286.11
405.28	3143.34
405.47	3152.70
405.66	3080.14
405.85	3110.57
406.05	2881.20
406.24	3075.46
406.43	3265.05
406.62	3351.65
406.81	3330.58
407.00	3201.85
407.20	3166.74
407.39	3220.58
407.58	3372.71
407.77	3353.99
407.96	3499.10
408.15	3599.74
408.34	3658.26
408.54	3669.96
408.73	3740.18
408.92	3698.05
409.11	3515.48
409.30	3314.20
409.49	3117.59
409.68	3101.21
409.87	2897.58
410.07	3150.36
410.26	3454.63
410.45	3466.33
410.64	3538.89
410.83	3658.26
411.02	3777.62
411.21	3859.54
411.40	3786.99
411.59	3885.29
411.78	3911.04
411.98	3798.69
412.17	3974.23
412.36	3850.18
412.55	3801.03
412.74	3812.73
412.93	3702.73
413.12	3691.02
413.31	4156.79
413.50	4081.89
413.69	4028.06
413.88	4002.32
414.07	4053.81
414.26	4007.00
414.45	3922.74
414.64	4175.52
414.83	4255.09
415.02	3866.56
415.22	3967.21
415.41	4088.92
415.60	4168.49
415.79	4404.89
415.98	4442.34
416.17	4430.63
416.36	4320.63
416.55	4131.05
416.74	4135.73
416.93	3922.74
417.12	4072.53
417.31	4056.15
417.50	4084.23
417.69	4241.05
417.88	4407.23
418.07	4086.58
418.26	4236.37
418.45	4142.75
418.64	4449.36
418.83	4479.79
419.02	4278.50
419.21	4407.23
419.39	4252.75
419.58	3929.76
419.77	4044.45
419.96	4131.05
420.15	4475.10
420.34	4542.98
420.53	4496.17
420.72	4737.24
420.91	4674.05
421.10	4524.26
421.29	4685.75
421.48	4381.48
421.67	4760.65
421.86	4372.12
422.05	4255.09
422.24	3922.74
422.43	3939.12
422.61	4156.79
422.80	4437.66
422.99	4617.88
423.18	4308.93
423.37	4430.63
423.56	4325.31
423.75	4332.33
423.94	4461.06
424.13	4140.41
424.32	4142.75
424.50	4184.88
424.69	4210.62
424.88	4238.71
425.07	4084.23
425.26	4224.67
425.45	4117.00
425.64	4088.92
425.83	4049.13
426.01	4344.03
426.20	4383.82
426.39	4280.84
426.58	4056.15
426.77	3892.31
426.96	3548.25
427.15	3885.29
427.33	3955.51
427.52	4131.05
427.71	4301.90
427.90	4273.82
428.09	4152.11
428.28	4166.15
428.46	3922.74
428.65	3927.42
428.84	3908.69
429.03	3995.29
429.22	3838.48
429.40	3578.68
429.59	3363.35
429.78	3052.06
429.97	2986.52
430.16	2998.23
430.34	3023.97
430.53	3054.40
430.72	3162.06
430.91	3290.79
431.10	3840.82
431.28	4470.42
431.47	4856.61
431.66	4985.34
431.85	4542.98
432.03	4292.54
432.22	4121.68
432.41	4259.78
432.60	4440.00
432.79	4615.54
432.97	4739.58
433.16	4718.52
433.35	4297.22
433.54	3974.23
433.72	3889.97
433.91	3885.29
434.10	4231.69
434.28	4418.93
434.47	4723.20
434.66	4645.96
434.85	4512.55
435.03	4564.04
435.22	4933.85
435.41	5139.82
435.59	5167.90
435.78	5273.23
435.97	5259.18
436.16	5212.37
436.34	5186.63
436.53	4873.00
436.72	4912.78
436.90	4634.26
437.09	4734.90
437.28	4617.88
437.46	4662.35
437.65	4744.27
437.84	4592.13
438.02	4217.65
438.21	4266.80
438.40	4369.78
438.58	4690.43
438.77	4791.08
438.96	4837.89
439.14	5125.77
439.33	5088.32
439.52	5186.63
439.70	5027.47
439.89	4973.64
440.08	4903.42
440.26	4858.95
440.45	5027.47
440.63	5242.80
440.82	5518.98
441.01	5540.05
441.19	5240.46
441.38	5451.11
441.57	5640.69
441.75	5804.53
441.94	5893.47
442.12	5710.91
442.31	5804.53
442.50	5788.14
442.68	5731.97
442.87	5624.31
443.05	5647.71
443.24	5671.12
443.43	5912.19
443.61	6024.54
443.80	6061.99
443.98	5526.00
444.17	5507.28
444.35	6045.60
444.54	6008.16
444.73	5968.37
444.91	5905.17
445.10	5528.35
445.28	5530.69
445.47	5385.57
445.65	5336.42
445.84	5448.77
446.02	5631.33
446.21	5657.07
446.39	5617.29
446.58	5706.23
446.77	5820.91
446.95	5853.68
447.14	6017.52
447.32	6209.44
447.51	6061.99
447.69	5841.98
447.88	5666.44
448.06	5916.87
448.25	5813.89
448.43	5874.74
448.62	5895.81
448.80	5839.64
448.99	5902.83
449.17	5886.45
449.36	6010.50
449.54	6069.01
449.73	6223.48
449.91	6134.54
450.10	6509.03
450.28	6502.01
450.46	6546.48
450.65	6539.46
450.83	6471.58
451.02	6310.08
451.20	6406.05
451.39	6291.36
451.57	6148.59
451.76	6321.79
451.94	6183.70
452.13	6148.59
452.31	5846.66
452.49	5678.14
452.68	5715.59
452.86	5664.10
453.05	5872.40
453.23	5975.39
453.42	5916.87
453.60	6015.18
453.78	6153.27
453.97	6221.14
454.15	6169.65
454.34	6031.56
454.52	6005.81
454.70	5928.58
454.89	6064.33
455.07	5970.71
455.26	6186.04
455.44	6300.72
455.62	6427.11
455.81	6307.74
455.99	6431.79
456.17	6284.34
456.36	6466.90
456.54	6459.88
456.73	6518.39
456.91	6633.08
457.09	6464.56
457.28	6773.51
457.46	6541.80
457.64	6384.98
457.83	6352.21
458.01	6115.82
458.19	6235.19
458.38	6354.55
458.56	6647.12
458.74	6480.94
458.93	6408.39
459.11	6263.27
459.29	6338.17
459.48	6356.90
459.66	6071.35
459.84	6396.68
460.03	6427.11
460.21	6452.86
460.39	6473.92
460.57	6534.78
460.76	6820.32
460.94	6733.72
461.12	6663.51
461.31	6691.59
461.49	6494.99
461.67	6586.27
461.85	6937.35
462.04	6722.02
462.22	7225.23
462.40	6848.41
462.59	6822.66
462.77	6836.70
462.95	6888.20
463.13	6679.89
463.32	6686.91
463.50	6619.04
463.68	6640.10
463.86	6780.53
464.05	6633.08
464.23	6300.72
464.41	6401.37
464.59	6176.67
464.78	6593.29
464.96	6452.86
465.14	6452.86
465.32	6743.08
465.50	6754.79
465.69	6799.26
465.87	6612.01
466.05	6609.67
466.23	6244.55
466.41	6160.29
466.60	6401.37
466.78	6296.04
466.96	6382.64
467.14	6354.55
467.32	6623.72
467.51	6595.63
467.69	6345.19
467.87	6593.29
468.05	6562.86
468.23	6609.67
468.41	6532.44
468.60	6558.18
468.78	6722.02
468.96	6590.95
469.14	6438.81
469.32	6581.59
469.50	6370.94
469.69	6427.11
469.87	6183.70
470.05	6455.20
470.23	6279.66
470.41	6284.34
470.59	6436.47
470.77	6445.84
470.95	6574.56
471.14	6686.91
471.32	6574.56
471.50	6960.75
471.68	6895.22
471.86	7075.44
472.04	7124.59
472.22	7030.97
472.40	6637.76
472.58	6469.24
472.77	6462.22
472.95	6890.54
473.13	6986.50
473.31	6705.63
473.49	6752.45
473.67	6956.07
473.85	7000.54
474.03	7119.91
474.21	7236.94
474.39	7295.45
474.57	7265.02
474.75	7302.47
474.93	7180.76
475.12	7054.37
475.30	6998.20
475.48	6902.24
475.66	7021.61
475.84	7054.37
476.02	6970.12
476.20	6743.08
476.38	7056.72
476.56	7229.91
476.74	7300.13
476.92	7428.86
477.10	7496.74
477.28	7665.25
477.46	7721.43
477.64	7698.02
477.82	7606.74
478.00	7801.01
478.18	7665.25
478.36	7768.24
478.54	7501.42
478.72	7585.68
478.90	7824.41
479.08	8241.03
479.26	8346.35
479.44	8255.07
479.62	8180.17
479.80	8187.19
479.98	8276.13
480.16	8236.35
480.34	8374.44
480.52	8292.52
480.70	8297.20
480.88	8191.88
481.06	8458.70
481.24	8624.87
481.41	8769.99
481.59	8952.55
481.77	8875.31
481.95	8936.17
482.13	8645.94
482.31	8456.36
482.49	8800.41
482.67	8774.67
482.85	8805.10
483.03	8997.02
483.21	9060.21
483.39	9207.67
483.57	8758.28
483.74	8760.63
483.92	8931.48
484.10	8952.55
484.28	9064.89
484.46	9242.78
484.64	9261.50
484.82	9060.21
485.00	8917.44
485.18	8973.61
485.35	8610.83
485.53	8074.85
485.71	7527.16
485.89	7124.59
486.07	7463.97
486.25	8032.72
486.43	8620.19
486.61	8709.13
486.78	8762.97
486.96	8678.71
487.14	9102.34
487.32	9259.16
487.50	9694.50
487.68	9853.66
487.85	10132.18
488.03	10094.73
488.21	9785.78
488.39	9750.67
488.57	9563.43
488.75	9465.13
488.92	9795.14
489.10	10314.74
489.28	10726.68
489.46	10960.73
489.64	10729.02
489.81	10932.64
489.99	10834.34
490.17	10787.53
490.35	11260.32
490.53	10843.70
490.70	10665.82
490.88	10682.20
491.06	10885.83
491.24	11140.95
491.41	10848.38
491.59	10335.81
491.77	10097.07
491.95	10148.56
492.13	10497.30
492.30	11023.92
492.48	11103.50
492.66	11426.50
492.84	11492.03
493.01	11356.28
493.19	11162.01
493.37	10890.51
493.54	11049.67
493.72	11260.32
493.90	11548.20
494.08	11864.18
494.25	12058.44
494.43	12119.29
494.61	12297.17
494.79	12325.26
494.96	12283.13
495.14	12060.78
495.32	11669.91
495.49	11419.47
495.67	11950.78
495.85	12503.14
496.02	12594.42
496.20	12437.61
496.38	12100.57
496.55	12084.19
496.73	12416.54
496.91	12568.68
497.09	12664.64
497.26	12765.28
497.44	12767.62
497.62	12475.06
497.79	12100.57
497.97	11552.88
498.14	11864.18
498.32	11957.80
498.50	12208.23
498.67	12334.62
498.85	12657.62
499.03	12592.08
499.20	12664.64
499.38	12674.00
499.56	12781.67
499.73	12372.07
499.91	12519.53
500.08	12009.29
500.26	11819.71
500.44	11866.52
500.61	12145.04
500.79	12009.29
500.97	12077.16
501.14	11859.49
501.32	11749.49
501.49	11800.98
501.67	11555.22
501.84	12016.31
502.02	12451.65
502.20	12397.82
502.37	12475.06
502.55	12449.31
502.72	12571.02
502.90	12671.66
503.07	12566.34
503.25	12063.12
503.43	11843.11
503.60	11105.84
503.78	11154.99
503.95	11272.02
504.13	12046.74
504.30	12519.53
504.48	12725.49
504.65	12540.59
504.83	12638.89
505.01	12741.88
505.18	13004.02
505.36	13315.31
505.53	13027.42
505.71	13277.86
505.88	13453.40
506.06	12884.65
506.23	12961.89
506.41	12762.94
506.58	12870.61
506.76	12652.94
506.93	12816.77
507.11	12629.53
507.28	12737.20
507.46	12608.47
507.63	12318.24
507.81	12156.74
507.98	12287.81
508.16	12341.64
508.33	12898.69
508.50	12971.25
508.68	13275.52
508.85	13444.04
509.03	13467.44
509.20	13738.94
509.38	13249.77
509.55	12643.57
509.73	12800.39
509.90	13231.05
510.08	13060.19
510.25	13341.05
510.42	13207.64
510.60	13111.68
510.77	13167.85
510.95	13661.71
511.12	13692.13
511.30	13584.47
511.47	14057.26
511.64	13832.57
511.82	13619.58
511.99	13432.33
512.17	13352.76
512.34	12961.89
512.51	12940.82
512.69	13116.36
512.86	13226.37
513.04	13408.93
513.21	13401.91
513.38	13315.31
513.56	12954.87
513.73	12690.38
513.90	12727.83
514.08	12849.54
514.25	12978.27
514.43	13008.70
514.60	13114.02
514.77	13289.56
514.95	13315.31
515.12	13259.13
515.29	13425.31
515.47	13439.36
515.64	13738.94
515.81	13549.36
515.99	13125.72
516.16	12765.28
516.33	11829.07
516.51	10864.77
516.68	10979.45
516.85	10604.97
517.03	10832.00
517.20	11426.50
517.37	12802.73
517.54	13137.43
517.72	13156.15
517.89	12121.63
518.06	11108.18
518.24	11199.46
518.41	11882.90
518.58	12416.54
518.75	12760.60
518.93	12940.82
519.10	12615.49
519.27	12709.11
519.45	13238.07
519.62	13188.92
519.79	13532.98
519.96	13518.93
520.14	13231.05
520.31	12826.14
520.48	12650.60
520.65	12975.93
520.83	13401.91
521.00	13631.28
521.17	13584.47
521.34	13444.04
521.52	13642.98
521.69	13502.55
521.86	13811.50
522.03	13804.48
522.20	13191.26
522.38	12765.28
522.55	12989.97
522.72	12894.01
522.89	13195.94
523.07	13132.75
523.24	13205.30
523.41	13537.66
523.58	13820.86
523.75	14073.64
523.92	13870.01
524.10	14024.49
524.27	13760.01
524.44	13722.56
524.61	13530.64
524.78	13720.22
524.96	13455.74
525.13	13504.89
525.30	13865.33
525.47	13884.06
525.64	13977.68
525.81	13647.66
525.98	12753.58
526.16	12320.58
526.33	12049.08
526.50	11899.28
526.67	11531.82
526.84	11889.92
527.01	12177.81
527.18	12599.10
527.36	13053.17
527.53	13469.78
527.70	13570.43
527.87	13495.53
528.04	13319.99
528.21	13270.84
528.38	13621.92
528.55	14310.04
528.72	14211.73
528.89	14326.42
529.07	13963.64
529.24	13900.44
529.41	13390.20
529.58	13270.84
529.75	13202.96
529.92	13820.86
530.09	13722.56
530.26	13895.76
530.43	14120.45
530.60	14181.31
530.77	14050.24
530.94	14111.09
531.11	14040.87
531.28	13591.49
531.46	13870.01
531.63	13476.80
531.80	13720.22
531.97	13659.37
532.14	13387.86
532.31	12676.34
532.48	12535.91
532.65	12325.26
532.82	12540.59
532.99	13069.55
533.16	13549.36
533.33	13664.05
533.50	13666.39
533.67	13568.09
533.84	13193.60
534.01	13200.62
534.18	13415.95
534.35	13621.92
534.52	13256.79
534.69	13467.44
534.86	13439.36
535.03	13872.36
535.20	14258.54
535.37	14434.08
535.54	14256.20
535.71	14090.02
535.88	14061.94
536.05	13682.77
536.22	13390.20
536.38	13359.78
536.55	13083.59
536.72	12975.93
536.89	12933.80
537.06	13090.62
537.23	13720.22
537.40	13675.75
537.57	13680.43
537.74	13867.67
537.91	13483.83
538.08	13497.87
538.25	13596.17
538.42	13640.64
538.59	13703.84
538.75	13343.39
538.92	13013.38
539.09	13121.04
539.26	13048.49
539.43	12765.28
539.60	12971.25
539.77	12999.34
539.94	12896.35
540.11	12697.41
540.28	12538.25
540.44	12290.15
540.61	12470.37
540.78	12456.33
540.95	12463.35
541.12	13167.85
541.29	12968.91
541.46	13453.40
541.62	13270.84
541.79	13277.86
541.96	13142.11
542.13	13188.92
542.30	13238.07
542.47	13429.99
542.63	13121.04
542.80	13041.46
542.97	13022.74
543.14	12882.31
543.31	12788.69
543.48	13034.44
543.64	13811.50
543.81	13811.50
543.98	13668.73
544.15	13446.38
544.32	13221.69
544.48	12952.52
544.65	13378.50
544.82	13305.95
544.99	13174.88
545.16	13186.58
545.32	12917.42
545.49	13767.03
545.66	14167.26
545.83	14005.77
546.00	13516.59
546.16	13235.73
546.33	13542.34
546.50	12950.18
546.67	13275.52
546.83	13041.46
547.00	13036.78
547.17	12800.39
547.34	12531.23
547.50	12652.94
547.67	12608.47
547.84	12798.05
548.00	13053.17
548.17	13451.06
548.34	13099.98
548.51	13329.35
548.67	13273.18
548.84	13301.26
549.01	13282.54
549.18	12901.03
549.34	12901.03
549.51	13090.62
549.68	13095.30
549.84	13027.42
550.01	12741.88
550.18	12741.88
550.34	12840.18
550.51	13081.25
550.68	13055.51
550.84	12791.03
551.01	12746.56
551.18	12793.37
551.34	12879.97
551.51	13085.94
551.68	13273.18
551.84	13352.76
552.01	13371.48
552.18	13041.46
552.34	12671.66
552.51	12627.19
552.68	12564.00
552.84	12645.91
553.01	12847.20
553.18	12767.62
553.34	12634.21
553.51	12655.28
553.67	12945.50
553.84	13064.87
554.01	12681.02
554.17	13039.12
554.34	12744.22
554.51	12975.93
554.67	12926.78
554.84	13235.73
555.00	12716.13
555.17	12629.53
555.33	12795.71
555.50	12784.01
555.67	12819.11
555.83	12746.56
556.00	12549.95
556.16	12697.41
556.33	12568.68
556.50	12435.27
556.66	12404.84
556.83	12175.47
556.99	12336.96
557.16	12250.36
557.32	12322.92
557.49	12442.29
557.65	12311.22
557.82	12397.82
557.98	12285.47
558.15	12407.18
558.32	12037.38
558.48	11517.78
558.65	11414.79
558.81	11817.36
558.98	11964.82
559.14	11859.49
559.31	11779.92
559.47	12184.83
559.64	11866.52
559.80	11758.85
559.97	11899.28
560.13	11758.85
560.30	12496.12
560.46	12702.09
560.63	12692.73
560.79	12821.45
560.96	12306.54
561.12	12095.89
561.29	11562.25
561.45	11822.05
561.61	11906.31
561.78	12128.66
561.94	11969.50
562.11	11957.80
562.27	11812.68
562.44	11932.05
562.60	12081.85
562.77	12379.09
562.93	12259.73
563.10	12449.31
563.26	12273.77
563.42	11997.59
563.59	12006.95
563.75	11936.73
563.92	11887.58
564.08	11735.45
564.24	11896.94
564.41	12016.31
564.57	12091.21
564.74	11920.35
564.90	11985.88
565.07	11765.87
565.23	11805.66
565.39	11527.14
565.56	11220.53
565.72	11037.97
565.88	11260.32
566.05	11138.61
566.21	11543.52
566.38	11508.41
566.54	11501.39
566.70	11843.11
566.87	11756.51
567.03	11569.27
567.19	11632.46
567.36	11705.02
567.52	11375.00
567.68	11489.69
567.85	11087.12
568.01	11054.35
568.17	10668.16
568.34	10803.91
568.50	10745.40
568.66	10345.17
568.83	10815.62
568.99	10654.12
569.15	10932.64
569.32	10967.75
569.48	10841.36
569.64	10480.92
569.81	10775.83
569.97	10841.36
570.13	10867.11
570.30	10848.38
570.46	10607.31
570.62	10391.98
570.78	10171.97
570.95	10328.78
571.11	10619.01
571.27	10778.17
571.43	10736.04
571.60	10539.43
571.76	10808.59
571.92	10724.33
572.09	10920.94
572.25	11068.39
572.41	10834.34
572.57	10448.15
572.74	10920.94
572.90	10885.83
573.06	11091.80
573.22	10883.49
573.38	10712.63
573.55	10843.70
573.71	10705.61
573.87	10712.63
574.03	10628.37
574.20	10808.59
574.36	10516.03
574.52	10490.28
574.68	10366.23
574.84	10572.20
575.01	10319.42
575.17	10324.10
575.33	10256.23
575.49	10300.70
575.65	10389.64
575.82	10277.29
575.98	10298.36
576.14	10434.11
576.30	10518.37
576.46	10623.69
576.62	10733.70
576.79	10546.45
576.95	10654.12
577.11	10544.11
577.27	10537.09
577.43	10518.37
577.59	10555.82
577.75	10251.55
577.92	10148.56
578.08	10071.33
578.24	10061.96
578.40	10277.29
578.56	10391.98
578.72	10413.04
578.88	10471.56
579.04	10509.01
579.21	10420.06
579.37	10546.45
579.53	10560.50
579.69	10518.37
579.85	10583.90
580.01	10724.33
580.17	10314.74
580.33	10490.28
580.49	10609.65
580.65	10377.94
580.82	10551.14
580.98	10445.81
581.14	10621.35
581.30	10342.83
581.46	10633.05
581.62	10607.31
581.78	10487.94
581.94	10672.84
582.10	10724.33
582.26	10729.02
582.42	10672.84
582.58	10672.84
582.74	10759.44
582.90	10696.25
583.06	10623.69
583.22	10516.03
583.38	10401.34
583.54	10504.32
583.70	10462.19
583.86	10644.76
584.02	10391.98
584.18	10513.69
584.34	10621.35
584.50	10565.18
584.66	10448.15
584.82	10153.24
584.98	10223.46
585.14	10134.52
585.30	10076.01
585.46	9944.94
585.62	9724.93
585.78	10036.22
585.94	9944.94
586.10	9937.91
586.26	9853.66
586.42	9984.73
586.58	10122.82
586.74	10045.58
586.90	10008.13
587.06	9949.62
587.22	9682.80
587.38	9820.89
587.54	9659.39
587.70	9446.40
587.86	9022.77
588.02	8713.81
588.18	8578.06
588.34	8196.56
588.49	7763.56
588.65	7288.43
588.81	7178.42
588.97	7164.38
589.13	7349.28
589.29	7260.34
589.45	7049.69
589.61	7260.34
589.77	7634.83
589.93	7815.05
590.08	8304.22
590.24	8390.82
590.40	8489.12
590.56	8423.59
590.72	8248.05
