SpectraSuite Data File
++++++++++++++++++++++++++++++++++++
Date: Fri Oct 04 11:44:16 GMT-05:00 2013
User: price-jones
Dark Spectrum Present: No
Reference Spectrum Present: No
Number of Sampled Component Spectra: 1
Spectrometers: USB2+H05261
Integration Time (usec): 100000 (USB2+H05261)
Spectra Averaged: 1 (USB2+H05261)
Boxcar Smoothing: 0 (USB2+H05261)
Correct for Electrical Dark: No (USB2+H05261)
Strobe/Lamp Enabled: No (USB2+H05261)
Correct for Detector Non-linearity: No (USB2+H05261)
Correct for Stray Light: No (USB2+H05261)
Number of Pixels in Processed Spectrum: 2048
>>>>>Begin Processed Spectral Data<<<<<
365.73	0.00
365.92	0.00
366.12	0.00
366.32	0.00
366.52	0.00
366.72	0.00
366.91	0.00
367.11	0.00
367.31	0.00
367.51	0.00
367.70	0.00
367.90	0.00
368.10	0.00
368.30	0.00
368.49	0.00
368.69	0.00
368.89	0.00
369.09	0.00
369.28	0.00
369.48	0.00
369.68	0.00
369.87	9.36
370.07	21.06
370.27	0.00
370.47	154.48
370.66	416.62
370.86	425.98
371.06	561.73
371.25	573.43
371.45	468.11
371.65	465.77
371.84	468.11
372.04	430.66
372.24	517.26
372.44	638.97
372.63	512.58
372.83	475.13
373.03	472.79
373.22	423.64
373.42	514.92
373.62	561.73
373.81	484.49
374.01	559.39
374.21	454.06
374.40	475.13
374.60	517.26
374.79	533.64
374.99	615.56
375.19	650.67
375.38	617.90
375.58	669.39
375.78	610.88
375.97	641.31
376.17	648.33
376.37	575.77
376.56	643.65
376.76	671.73
376.95	674.07
377.15	718.54
377.35	755.99
377.54	767.70
377.74	823.87
377.93	760.67
378.13	798.12
378.33	737.27
378.52	723.23
378.72	664.71
378.91	662.37
379.11	596.84
379.31	660.03
379.50	631.94
379.70	688.12
379.89	650.67
380.09	683.44
380.28	755.99
380.48	763.01
380.68	791.10
380.87	702.16
381.07	699.82
381.26	674.07
381.46	596.84
381.65	681.10
381.85	575.77
382.04	613.22
382.24	521.94
382.43	514.92
382.63	491.51
382.83	484.49
383.02	479.81
383.22	514.92
383.41	587.47
383.61	519.60
383.80	561.73
384.00	664.71
384.19	770.04
384.39	755.99
384.58	706.84
384.78	709.18
384.97	643.65
385.17	688.12
385.36	678.76
385.56	624.92
385.75	685.78
385.95	699.82
386.14	793.44
386.34	755.99
386.53	676.41
386.72	753.65
386.92	812.17
387.11	744.29
387.31	741.95
387.50	739.61
387.70	648.33
387.89	725.57
388.09	704.50
388.28	755.99
388.48	746.63
388.67	772.38
388.86	791.10
389.06	807.48
389.25	861.32
389.45	915.15
389.64	866.00
389.84	994.73
390.03	788.76
390.22	861.32
390.42	968.98
390.61	980.68
390.81	1076.65
391.00	983.02
391.19	1076.65
391.39	978.34
391.58	945.58
391.78	894.08
391.97	926.85
392.16	873.02
392.36	760.67
392.55	653.01
392.75	514.92
392.94	470.45
393.13	589.82
393.33	557.05
393.52	526.62
393.71	763.01
393.91	802.80
394.10	875.36
394.29	908.13
394.49	971.32
394.68	1043.88
394.88	1032.18
395.07	1177.29
395.26	1050.90
395.46	994.73
395.65	915.15
395.84	915.15
396.04	870.68
396.23	681.10
396.42	535.98
396.62	634.29
396.81	676.41
397.00	877.70
397.19	835.57
397.39	1097.71
397.58	1261.55
397.77	1249.85
397.97	1310.70
398.16	1352.83
398.35	1390.28
398.55	1467.52
398.74	1366.87
398.93	1453.47
399.12	1409.00
399.32	1331.76
399.51	1404.32
399.70	1488.58
399.90	1554.12
400.09	1530.71
400.28	1500.28
400.47	1502.62
400.67	1600.93
400.86	1561.14
401.05	1631.35
401.24	1673.48
401.44	1701.57
401.63	1631.35
401.82	1685.19
402.01	1542.41
402.21	1717.95
402.40	1640.72
402.59	1589.22
402.78	1582.20
402.97	1511.99
403.17	1530.71
403.36	1596.25
403.55	1626.67
403.74	1720.29
403.93	1743.70
404.13	1715.61
404.32	1596.25
404.51	1617.31
404.70	1678.16
404.89	1689.87
405.09	1654.76
405.28	1727.32
405.47	1563.48
405.66	1537.73
405.85	1631.35
406.05	1500.28
406.24	1540.07
406.43	1636.03
406.62	1680.50
406.81	1678.16
407.00	1713.27
407.20	1493.26
407.39	1603.27
407.58	1713.27
407.77	1720.29
407.96	1788.17
408.15	1837.32
408.34	1806.89
408.54	1736.68
408.73	1823.28
408.92	1722.63
409.11	1823.28
409.30	1748.38
409.49	1619.65
409.68	1572.84
409.87	1523.69
410.07	1591.56
410.26	1736.68
410.45	1813.92
410.64	1832.64
410.83	1858.39
411.02	1834.98
411.21	2022.22
411.40	1923.92
411.59	1930.94
411.78	2019.88
411.98	1982.43
412.17	1954.35
412.36	1949.67
412.55	1916.90
412.74	1900.52
412.93	1827.96
413.12	1860.73
413.31	1963.71
413.50	2080.74
413.69	2106.48
413.88	1942.64
414.07	1839.66
414.26	1872.43
414.45	1947.33
414.64	2029.24
414.83	1987.11
415.02	2015.20
415.22	2019.88
415.41	2024.56
415.60	2064.35
415.79	2083.08
415.98	2216.49
416.17	2253.94
416.36	2083.08
416.55	2050.31
416.74	2047.97
416.93	2054.99
417.12	2097.12
417.31	2045.63
417.50	2050.31
417.69	2132.23
417.88	2083.08
418.07	2092.44
418.26	1919.24
418.45	2066.69
418.64	2193.08
418.83	2190.74
419.02	2186.06
419.21	2097.12
419.39	2059.67
419.58	1921.58
419.77	2090.10
419.96	2157.97
420.15	2120.53
420.34	2204.78
420.53	2293.72
420.72	2466.92
420.91	2251.60
421.10	2335.85
421.29	2221.17
421.48	2167.34
421.67	2265.64
421.86	2230.53
422.05	2125.21
422.24	1886.47
422.43	1947.33
422.61	2087.76
422.80	2279.68
422.99	2195.42
423.18	2092.44
423.37	2263.30
423.56	2132.23
423.75	2214.15
423.94	2162.66
424.13	1975.41
424.32	2115.84
424.50	2169.68
424.69	2045.63
424.88	2143.93
425.07	2057.33
425.26	1961.37
425.45	2104.14
425.64	1996.48
425.83	2118.18
426.01	1966.05
426.20	2186.06
426.39	2071.37
426.58	2001.16
426.77	1816.26
426.96	1881.79
427.15	1905.20
427.33	2029.24
427.52	2010.52
427.71	2066.69
427.90	2017.54
428.09	2059.67
428.28	2047.97
428.46	1802.21
428.65	1977.75
428.84	1982.43
429.03	2036.27
429.22	1874.77
429.40	1764.76
429.59	1633.69
429.78	1540.07
429.97	1481.56
430.16	1493.26
430.34	1511.99
430.53	1556.46
430.72	1526.03
430.91	1678.16
431.10	1989.46
431.28	2202.44
431.47	2406.07
431.66	2513.74
431.85	2146.27
432.03	2134.57
432.22	2118.18
432.41	2029.24
432.60	2146.27
432.79	2312.45
432.97	2450.54
433.16	2333.51
433.35	2202.44
433.54	1991.80
433.72	2026.90
433.91	1956.69
434.10	2169.68
434.28	2209.47
434.47	2289.04
434.66	2422.45
434.85	2202.44
435.03	2319.47
435.22	2668.21
435.41	3108.23
435.59	3232.28
435.78	3042.70
435.97	2813.32
436.16	2668.21
436.34	2445.86
436.53	2469.27
436.72	2537.14
436.90	2436.50
437.09	2373.30
437.28	2331.17
437.46	2284.36
437.65	2333.51
437.84	2209.47
438.02	2101.80
438.21	2015.20
438.40	2104.14
438.58	2450.54
438.77	2265.64
438.96	2319.47
439.14	2392.03
439.33	2509.05
439.52	2576.93
439.70	2457.56
439.89	2471.61
440.08	2452.88
440.26	2464.58
440.45	2546.50
440.63	2548.84
440.82	2647.15
441.01	2635.44
441.19	2700.98
441.38	2665.87
441.57	2864.82
441.75	2862.48
441.94	2890.56
442.12	2815.66
442.31	2843.75
442.50	2857.79
442.68	2839.07
442.87	2825.03
443.05	2715.02
443.24	2775.88
443.43	2803.96
443.61	2904.60
443.80	2860.13
443.98	2705.66
444.17	2801.62
444.35	2850.77
444.54	2942.05
444.73	2958.44
444.91	2829.71
445.10	2736.09
445.28	2747.79
445.47	2607.36
445.65	2520.76
445.84	2686.94
446.02	2614.38
446.21	2827.37
446.39	2813.32
446.58	2766.51
446.77	2916.31
446.95	2775.88
447.14	2867.16
447.32	2995.89
447.51	2920.99
447.69	2839.07
447.88	2818.00
448.06	2925.67
448.25	2916.31
448.43	2834.39
448.62	2801.62
448.80	2862.48
448.99	2913.97
449.17	2916.31
449.36	2928.01
449.54	2935.03
449.73	3061.42
449.91	3150.36
450.10	3155.04
450.28	3094.19
450.46	3253.34
450.65	3173.77
450.83	3101.21
451.02	3042.70
451.20	3084.83
451.39	3143.34
451.57	2986.52
451.76	3028.65
451.94	3028.65
452.13	2988.86
452.31	2895.24
452.49	2764.17
452.68	2726.72
452.86	2729.06
453.05	2775.88
453.23	2953.76
453.42	2888.22
453.60	2911.63
453.78	3040.36
453.97	2960.78
454.15	2937.37
454.34	2752.47
454.52	2883.54
454.70	2909.29
454.89	2888.22
455.07	2956.10
455.26	2923.33
455.44	3000.57
455.62	3047.38
455.81	3124.62
455.99	3052.06
456.17	3014.61
456.36	3082.49
456.54	3087.17
456.73	3094.19
456.91	3150.36
457.09	3206.53
457.28	3370.37
457.46	3122.27
457.64	3255.69
457.83	3075.46
458.01	3005.25
458.19	3016.95
458.38	3077.80
458.56	3265.05
458.74	3166.74
458.93	3187.81
459.11	3019.29
459.29	3094.19
459.48	3101.21
459.66	3094.19
459.84	3190.15
460.03	3122.27
460.21	3246.32
460.39	3038.02
460.57	3180.79
460.76	3201.85
460.94	3138.66
461.12	3300.16
461.31	3293.13
461.49	3190.15
461.67	3190.15
461.85	3262.71
462.04	3335.26
462.22	3822.09
462.40	3349.31
462.59	3192.49
462.77	3314.20
462.95	3171.43
463.13	3201.85
463.32	3206.53
463.50	3178.45
463.68	3105.89
463.86	3232.28
464.05	3208.87
464.23	3145.68
464.41	3136.32
464.59	3033.33
464.78	3133.98
464.96	3180.79
465.14	3190.15
465.32	3194.83
465.50	3337.60
465.69	3276.75
465.87	3208.87
466.05	3166.74
466.23	3007.59
466.41	3063.76
466.60	3040.36
466.78	3019.29
466.96	3169.09
467.14	3124.62
467.32	3145.68
467.51	3155.04
467.69	3059.08
467.87	3166.74
468.05	2972.48
468.23	3206.53
468.41	3246.32
468.60	3040.36
468.78	3239.30
468.96	3215.90
469.14	3311.86
469.32	3307.18
469.50	3066.10
469.69	3038.02
469.87	3110.57
470.05	3166.74
470.23	3063.76
470.41	3176.11
470.59	3026.31
470.77	3159.72
470.95	3000.57
471.14	3262.71
471.32	3236.96
471.50	3372.71
471.68	3361.01
471.86	3311.86
472.04	3389.10
472.22	3342.28
472.40	3251.00
472.58	3262.71
472.77	3225.26
472.95	3239.30
473.13	3251.00
473.31	3255.69
473.49	3204.19
473.67	3208.87
473.85	3241.64
474.03	3342.28
474.21	3459.31
474.39	3733.15
474.57	3527.19
474.75	3403.14
474.93	3449.95
475.12	3361.01
475.30	3258.03
475.48	3433.57
475.66	3349.31
475.84	3386.76
476.02	3356.33
476.20	3300.16
476.38	3393.78
476.56	3515.48
476.74	3466.33
476.92	3433.57
477.10	3651.24
477.28	3597.40
477.46	3541.23
477.64	3749.54
477.82	3698.05
478.00	3796.35
478.18	3623.15
478.36	3651.24
478.54	3571.66
478.72	3611.45
478.90	3812.73
479.08	3906.35
479.26	3962.53
479.44	3887.63
479.62	4030.40
479.80	3889.97
479.98	3941.46
480.16	4119.34
480.34	3957.85
480.52	3983.59
480.70	3957.85
480.88	4037.42
481.06	4011.68
481.24	4203.60
481.41	4222.33
481.59	4287.86
481.77	4294.88
481.95	4203.60
482.13	4315.95
482.31	4067.85
482.49	4154.45
482.67	4201.26
482.85	4236.37
483.03	4334.67
483.21	4351.06
483.39	4320.63
483.57	4161.47
483.74	4440.00
483.92	4376.80
484.10	4409.57
484.28	4393.19
484.46	4414.25
484.64	4521.92
484.82	4374.46
485.00	4313.61
485.18	4217.65
485.35	4170.83
485.53	3751.88
485.71	3667.62
485.89	3431.23
486.07	3634.85
486.25	4126.36
486.43	4227.01
486.61	4313.61
486.78	4203.60
486.96	4198.92
487.14	4381.48
487.32	4498.51
487.50	4681.07
487.68	4877.68
487.85	4873.00
488.03	4816.82
488.21	4828.53
488.39	4624.90
488.57	4517.23
488.75	4648.30
488.92	5008.75
489.10	4985.34
489.28	5029.81
489.46	5350.46
489.64	5350.46
489.81	5425.36
489.99	5373.87
490.17	5221.74
490.35	5439.40
490.53	5217.05
490.70	5121.09
490.88	5200.67
491.06	5200.67
491.24	5266.21
491.41	5167.90
491.59	4861.29
491.77	4863.63
491.95	4896.40
492.13	5149.18
492.30	5249.82
492.48	5364.51
492.66	5654.73
492.84	5504.94
493.01	5533.03
493.19	5371.53
493.37	5425.36
493.54	5266.21
493.72	5490.90
493.90	5390.25
494.08	5774.10
494.25	5781.12
494.43	5738.99
494.61	5858.36
494.79	5741.33
494.96	5818.57
495.14	5806.87
495.32	5561.11
495.49	5490.90
495.67	5568.13
495.85	5823.25
496.02	5891.13
496.20	5856.02
496.38	6045.60
496.55	5874.74
496.73	5984.75
496.91	5912.19
497.09	5959.00
497.26	6022.20
497.44	5959.00
497.62	5947.30
497.79	5638.35
497.97	5497.92
498.14	5523.66
498.32	5713.25
498.50	5809.21
498.67	5928.58
498.85	5888.79
499.03	5919.21
499.20	6108.80
499.38	5959.00
499.56	5900.49
499.73	5987.09
499.91	5858.36
500.08	5713.25
500.26	5657.07
500.44	5776.44
500.61	5820.91
500.79	5823.25
500.97	5584.52
501.14	5643.03
501.32	5551.75
501.49	5572.82
501.67	5596.22
501.84	5933.26
502.02	5713.25
502.20	6197.74
502.37	5860.70
502.55	5870.06
502.72	6015.18
502.90	5991.77
503.07	5762.40
503.25	5870.06
503.43	5540.05
503.60	5495.58
503.78	5315.36
503.95	5378.55
504.13	5893.47
504.30	5977.73
504.48	5844.32
504.65	5881.77
504.83	6066.67
505.01	6054.97
505.18	5975.39
505.36	6214.12
505.53	6108.80
505.71	6375.62
505.88	6431.79
506.06	6104.12
506.23	6008.16
506.41	5998.79
506.58	6202.42
506.76	5944.96
506.93	5951.98
507.11	6005.81
507.28	5867.72
507.46	5930.92
507.63	5769.42
507.81	5823.25
507.98	5895.81
508.16	5898.15
508.33	6071.35
508.50	6190.72
508.68	6286.68
508.85	6347.53
509.03	6459.88
509.20	6347.53
509.38	6246.89
509.55	5949.64
509.73	6080.71
509.90	6094.76
510.08	6267.95
510.25	6127.52
510.42	6242.21
510.60	6132.20
510.77	6225.82
510.95	6490.31
511.12	6443.49
511.30	6340.51
511.47	6562.86
511.64	6555.84
511.82	6583.93
511.99	6382.64
512.17	6296.04
512.34	6228.17
512.51	6118.16
512.69	6129.86
512.86	6190.72
513.04	6370.94
513.21	6267.95
513.38	6211.78
513.56	5973.05
513.73	6059.65
513.90	6036.24
514.08	6092.41
514.25	5980.07
514.43	6136.88
514.60	6267.95
514.77	6150.93
514.95	6427.11
515.12	6171.99
515.29	6263.27
515.47	6314.77
515.64	6450.52
515.81	6296.04
515.99	6235.19
516.16	5921.56
516.33	5437.06
516.51	5322.38
516.68	5174.92
516.85	5109.39
517.03	5256.84
517.20	5488.56
517.37	5884.11
517.54	6153.27
517.72	6087.73
517.89	5628.99
518.06	5226.42
518.24	5280.25
518.41	5706.23
518.58	5844.32
518.75	5923.90
518.93	6024.54
519.10	5856.02
519.27	6043.26
519.45	6010.50
519.62	6099.44
519.79	6296.04
519.96	6207.10
520.14	6340.51
520.31	5884.11
520.48	6001.13
520.65	6223.48
520.83	6279.66
521.00	6588.61
521.17	6384.98
521.34	6066.67
521.52	6326.47
521.69	6375.62
521.86	6457.54
522.03	6438.81
522.20	6331.15
522.38	6045.60
522.55	5949.64
522.72	6179.01
522.89	6193.06
523.07	6258.59
523.24	6183.70
523.41	6565.20
523.58	6289.02
523.75	6658.82
523.92	6483.28
524.10	6532.44
524.27	6555.84
524.44	6487.96
524.61	6644.78
524.78	6389.66
524.96	6399.02
525.13	6396.68
525.30	6590.95
525.47	6619.04
525.64	6621.38
525.81	6436.47
525.98	6139.23
526.16	5640.69
526.33	5511.96
526.50	5605.58
526.67	5411.32
526.84	5666.44
527.01	5806.87
527.18	6005.81
527.36	6272.64
527.53	6235.19
527.70	6534.78
527.87	6272.64
528.04	6324.13
528.21	6267.95
528.38	6558.18
528.55	6593.29
528.72	6883.52
528.89	6747.76
529.07	6717.34
529.24	6553.50
529.41	6216.46
529.58	6251.57
529.75	6274.98
529.92	6293.70
530.09	6509.03
530.26	6541.80
530.43	6675.21
530.60	6567.54
530.77	6693.93
530.94	6616.69
531.11	6691.59
531.28	6389.66
531.46	6511.37
531.63	6513.71
531.80	6628.40
531.97	6473.92
532.14	6382.64
532.31	6097.10
532.48	5841.98
532.65	5795.17
532.82	6092.41
532.99	6207.10
533.16	6434.13
533.33	6399.02
533.50	6258.59
533.67	6150.93
533.84	6230.51
534.01	6366.26
534.18	6497.33
534.35	6338.17
534.52	6394.34
534.69	6188.38
534.86	6368.60
535.03	6242.21
535.20	6544.14
535.37	6616.69
535.54	6597.97
535.71	6700.95
535.88	6604.99
536.05	6445.84
536.22	6410.73
536.38	6352.21
536.55	6127.52
536.72	6211.78
536.89	6127.52
537.06	6399.02
537.23	6427.11
537.40	6431.79
537.57	6562.86
537.74	6572.22
537.91	6450.52
538.08	6289.02
538.25	6396.68
538.42	6443.49
538.59	6422.43
538.75	6389.66
538.92	6169.65
539.09	6352.21
539.26	6167.31
539.43	6202.42
539.60	6279.66
539.77	6399.02
539.94	6300.72
540.11	6026.88
540.28	6059.65
540.44	6345.19
540.61	6164.97
540.78	6239.87
540.95	6513.71
541.12	6593.29
541.29	7009.90
541.46	6745.42
541.62	6944.37
541.79	6841.39
541.96	6661.16
542.13	6722.02
542.30	6637.76
542.47	6614.35
542.63	6546.48
542.80	6576.91
542.97	6679.89
543.14	6487.96
543.31	6719.68
543.48	6715.00
543.64	6789.89
543.81	6654.14
543.98	6839.05
544.15	6696.27
544.32	6635.42
544.48	6626.06
544.65	6663.51
544.82	6745.42
544.99	6740.74
545.16	6829.68
545.32	6651.80
545.49	7382.05
545.66	7761.22
545.83	7999.95
546.00	7838.45
546.16	7052.03
546.33	6794.58
546.50	6558.18
546.67	6759.47
546.83	6380.30
547.00	6516.05
547.17	6502.01
547.34	6195.40
547.50	6202.42
547.67	6359.24
547.84	6363.92
548.00	6377.96
548.17	6464.56
548.34	6370.94
548.51	6410.73
548.67	6448.18
548.84	6441.15
549.01	6424.77
549.18	6380.30
549.34	6324.13
549.51	6380.30
549.68	6347.53
549.84	6171.99
550.01	6122.84
550.18	6431.79
550.34	6235.19
550.51	6146.25
550.68	6171.99
550.84	6207.10
551.01	6171.99
551.18	5973.05
551.34	6043.26
551.51	6366.26
551.68	6242.21
551.84	6300.72
552.01	6076.03
552.18	6153.27
552.34	6094.76
552.51	5970.71
552.68	6090.07
552.84	5959.00
553.01	5973.05
553.18	6132.20
553.34	6157.95
553.51	6073.69
553.67	6015.18
553.84	6324.13
554.01	6179.01
554.17	6097.10
554.34	6047.94
554.51	6040.92
554.67	6319.45
554.84	6036.24
555.00	6139.23
555.17	6171.99
555.33	6005.81
555.50	5994.11
555.67	6061.99
555.83	5788.14
556.00	5912.19
556.16	6069.01
556.33	5884.11
556.50	5851.34
556.66	5877.09
556.83	5720.27
556.99	5881.77
557.16	5727.29
557.32	5755.38
557.49	5706.23
557.65	5860.70
557.82	5825.59
557.98	5820.91
558.15	5769.42
558.32	5530.69
558.48	5432.38
558.65	5369.19
558.81	5453.45
558.98	5507.28
559.14	5619.63
559.31	5598.56
559.47	5621.97
559.64	5626.65
559.80	5537.71
559.97	5540.05
560.13	5666.44
560.30	5708.57
560.46	5937.94
560.63	6071.35
560.79	5893.47
560.96	5839.64
561.12	5643.03
561.29	5490.90
561.45	5472.17
561.61	5631.33
561.78	5837.30
561.94	5682.82
562.11	5617.29
562.27	5563.45
562.44	5659.42
562.60	5647.71
562.77	5664.10
562.93	5837.30
563.10	5619.63
563.26	5657.07
563.42	5755.38
563.59	5507.28
563.75	5493.24
563.92	5526.00
564.08	5631.33
564.24	5675.80
564.41	5792.83
564.57	5366.85
564.74	5657.07
564.90	5572.82
565.07	5514.30
565.23	5448.77
565.39	5212.37
565.56	5348.12
565.72	5153.86
565.88	5317.70
566.05	5341.10
566.21	5334.08
566.38	5352.81
566.54	5427.70
566.70	5420.68
566.87	5621.97
567.03	5549.41
567.19	5504.94
567.36	5495.58
567.52	5432.38
567.68	5479.19
567.85	5345.78
568.01	5130.45
568.17	5142.16
568.34	5039.17
568.50	5121.09
568.66	4997.04
568.83	5181.95
568.99	5144.50
569.15	5245.14
569.32	5315.36
569.48	5015.77
569.64	5062.58
569.81	5034.49
569.97	5022.79
570.13	5142.16
570.30	4882.36
570.46	5055.56
570.62	4760.65
570.78	4894.06
570.95	4671.71
571.11	4945.55
571.27	5050.88
571.43	4842.57
571.60	4966.62
571.76	5029.81
571.92	5130.45
572.09	5008.75
572.25	5224.08
572.41	5050.88
572.57	5078.96
572.74	5156.20
572.90	4868.31
573.06	4975.98
573.22	5205.35
573.38	5102.37
573.55	5081.30
573.71	5050.88
573.87	5088.32
574.03	5104.71
574.20	5107.05
574.36	4884.70
574.52	4865.97
574.68	5018.11
574.84	4973.64
575.01	5039.17
575.17	4887.04
575.33	4903.42
575.49	4863.63
575.65	4924.49
575.82	4809.80
575.98	4795.76
576.14	4943.21
576.30	4896.40
576.46	4999.38
576.62	5247.48
576.79	5263.86
576.95	5186.63
577.11	5011.09
577.27	4870.65
577.43	4868.31
577.59	4943.21
577.75	4856.61
577.92	4725.54
578.08	4809.80
578.24	4667.03
578.40	4851.93
578.56	4992.36
578.72	5188.97
578.88	5214.71
579.04	5013.43
579.21	5001.72
579.37	5128.11
579.53	4922.15
579.69	4971.30
579.85	5090.67
580.01	4973.64
580.17	5107.05
580.33	5116.41
580.49	4931.51
580.65	5043.85
580.82	5085.98
580.98	4978.32
581.14	4971.30
581.30	4880.02
581.46	4905.76
581.62	5090.67
581.78	5032.15
581.94	5015.77
582.10	5083.64
582.26	4999.38
582.42	4933.85
582.58	5029.81
582.74	5076.62
582.90	5146.84
583.06	5163.22
583.22	5160.88
583.38	5085.98
583.54	5060.24
583.70	5146.84
583.86	5048.54
584.02	5123.43
584.18	5212.37
584.34	4983.00
584.50	4863.63
584.66	4994.70
584.82	4833.21
584.98	4966.62
585.14	4870.65
585.30	4772.35
585.46	4802.78
585.62	4765.33
585.78	4748.95
585.94	4702.14
586.10	4732.56
586.26	4781.71
586.42	4938.53
586.58	4809.80
586.74	4961.94
586.90	4851.93
587.06	4791.08
587.22	4950.23
587.38	4636.60
587.54	4734.90
587.70	4507.87
587.86	4259.78
588.02	4304.25
588.18	4173.18
588.34	4028.06
588.49	3749.54
588.65	3541.23
588.81	3564.64
588.97	3461.65
589.13	3433.57
589.29	3508.46
589.45	3349.31
589.61	3529.53
589.77	3658.26
589.93	3794.01
590.08	3887.63
590.24	4023.38
590.40	4088.92
590.56	4023.38
590.72	3922.74
590.88	4074.87
591.04	3957.85
591.20	4011.68
591.35	3967.21
591.51	3953.16
591.67	3915.72
591.83	3777.62
591.99	3864.22
592.15	3836.14
592.31	4119.34
592.46	4217.65
592.62	4191.90
592.78	4147.43
592.94	4112.32
593.10	4203.60
593.26	4290.20
593.41	4238.71
593.57	4325.31
593.73	3967.21
593.89	3836.14
594.05	3758.90
594.20	3679.32
594.36	3499.10
594.52	3590.38
594.68	3709.75
594.84	3882.95
594.99	4046.79
595.15	3967.21
595.31	3997.64
595.47	3988.27
595.62	3992.95
595.78	4086.58
595.94	4219.99
596.10	4262.12
596.25	4056.15
596.41	4060.83
596.57	3913.38
596.73	3889.97
596.88	4088.92
597.04	4180.20
597.20	3943.80
597.36	3971.89
597.51	4063.17
597.67	4105.30
597.83	4156.79
