SpectraSuite Data File
++++++++++++++++++++++++++++++++++++
Date: Fri Oct 04 11:44:15 GMT-05:00 2013
User: price-jones
Dark Spectrum Present: No
Reference Spectrum Present: No
Number of Sampled Component Spectra: 1
Spectrometers: USB2+H05261
Integration Time (usec): 100000 (USB2+H05261)
Spectra Averaged: 1 (USB2+H05261)
Boxcar Smoothing: 0 (USB2+H05261)
Correct for Electrical Dark: No (USB2+H05261)
Strobe/Lamp Enabled: No (USB2+H05261)
Correct for Detector Non-linearity: No (USB2+H05261)
Correct for Stray Light: No (USB2+H05261)
Number of Pixels in Processed Spectrum: 2048
>>>>>Begin Processed Spectral Data<<<<<
365.73	53.83
365.92	53.83
366.12	53.83
366.32	0.00
366.52	0.00
366.72	0.00
366.91	0.00
367.11	0.00
367.31	0.00
367.51	0.00
367.70	0.00
367.90	0.00
368.10	0.00
368.30	0.00
368.49	0.00
368.69	0.00
368.89	0.00
369.09	0.00
369.28	0.00
369.48	4.68
369.68	0.00
369.87	0.00
370.07	0.00
370.27	0.00
370.47	194.26
370.66	538.32
370.86	685.78
371.06	772.38
371.25	711.52
371.45	645.99
371.65	716.20
371.84	617.90
372.04	678.76
372.24	734.93
372.44	746.63
372.63	753.65
372.83	723.23
373.03	648.33
373.22	573.43
373.42	573.43
373.62	641.31
373.81	779.40
374.01	835.57
374.21	690.46
374.40	655.35
374.60	702.16
374.79	781.74
374.99	823.87
375.19	826.21
375.38	936.21
375.58	830.89
375.78	805.14
375.97	849.61
376.17	868.34
376.37	861.32
376.56	814.51
376.76	910.47
376.95	891.74
377.15	961.96
377.35	992.39
377.54	1036.86
377.74	1076.65
377.93	1004.09
378.13	1107.07
378.33	1057.92
378.52	1039.20
378.72	849.61
378.91	926.85
379.11	823.87
379.31	835.57
379.50	786.42
379.70	849.61
379.89	1006.43
380.09	997.07
380.28	1067.28
380.48	1121.12
380.68	1048.56
380.87	1022.81
381.07	1020.47
381.26	791.10
381.46	922.17
381.65	777.06
381.85	849.61
382.04	863.66
382.24	741.95
382.43	692.80
382.63	669.39
382.83	788.76
383.02	793.44
383.22	664.71
383.41	645.99
383.61	833.23
383.80	882.38
384.00	882.38
384.19	999.41
384.39	1020.47
384.58	1055.58
384.78	1034.52
384.97	1053.24
385.17	933.87
385.36	912.81
385.56	943.24
385.75	880.04
385.95	1015.79
386.14	1018.13
386.34	1050.90
386.53	1069.62
386.72	966.64
386.92	1100.05
387.11	1027.50
387.31	1060.26
387.50	1142.18
387.70	985.37
387.89	1067.28
388.09	1069.62
388.28	1039.20
388.48	1015.79
388.67	1095.37
388.86	1240.48
389.06	1184.31
389.25	1294.32
389.45	1348.15
389.64	1387.94
389.84	1359.85
390.03	1221.76
390.22	1310.70
390.42	1420.71
390.61	1479.22
390.81	1453.47
391.00	1474.54
391.19	1593.90
391.39	1504.96
391.58	1420.71
391.78	1268.57
391.97	1226.44
392.16	1200.69
392.36	1142.18
392.55	940.90
392.75	828.55
392.94	704.50
393.13	702.16
393.33	755.99
393.52	866.00
393.71	1060.26
393.91	1142.18
394.10	1245.16
394.29	1348.15
394.49	1490.92
394.68	1703.91
394.88	1610.29
395.07	1654.76
395.26	1692.21
395.46	1537.73
395.65	1519.01
395.84	1355.17
396.04	1306.02
396.23	952.60
396.42	772.38
396.62	858.98
396.81	1001.75
397.00	1043.88
397.19	1334.11
397.39	1589.22
397.58	1689.87
397.77	1813.92
397.97	2010.52
398.16	1984.77
398.35	2003.50
398.55	2010.52
398.74	2282.02
398.93	2249.25
399.12	2183.72
399.32	2031.58
399.51	2136.91
399.70	2275.00
399.90	2165.00
400.09	2242.23
400.28	2160.31
400.47	2232.87
400.67	2331.17
400.86	2417.77
401.05	2443.52
401.24	2342.88
401.44	2438.84
401.63	2389.69
401.82	2476.29
402.01	2305.43
402.21	2476.29
402.40	2448.20
402.59	2267.98
402.78	2307.77
402.97	2277.34
403.17	2352.24
403.36	2504.37
403.55	2499.69
403.74	2633.10
403.93	2614.38
404.13	2527.78
404.32	2445.86
404.51	2359.26
404.70	2614.38
404.89	2609.70
405.09	2539.48
405.28	2387.35
405.47	2502.03
405.66	2352.24
405.85	2258.62
406.05	2305.43
406.24	2293.72
406.43	2478.63
406.62	2466.92
406.81	2609.70
407.00	2513.74
407.20	2342.88
407.39	2396.71
407.58	2410.75
407.77	2600.34
407.96	2607.36
408.15	2658.85
408.34	2698.64
408.54	2757.15
408.73	2787.58
408.92	2726.72
409.11	2544.16
409.30	2612.04
409.49	2415.43
409.68	2335.85
409.87	2239.89
410.07	2448.20
410.26	2438.84
410.45	2635.44
410.64	2759.49
410.83	2752.47
411.02	2782.90
411.21	2960.78
411.40	2850.77
411.59	2991.20
411.78	2904.60
411.98	2820.35
412.17	2878.86
412.36	2890.56
412.55	2848.43
412.74	2895.24
412.93	2752.47
413.12	2722.04
413.31	2939.71
413.50	2925.67
413.69	3061.42
413.88	2960.78
414.07	3000.57
414.26	3014.61
414.45	2932.69
414.64	2988.86
414.83	3087.17
415.02	2998.23
415.22	3124.62
415.41	3157.38
415.60	3033.33
415.79	3328.24
415.98	3410.16
416.17	3279.09
416.36	3136.32
416.55	3183.13
416.74	3173.77
416.93	3052.06
417.12	3117.59
417.31	3023.97
417.50	3119.93
417.69	3180.79
417.88	3103.55
418.07	3215.90
418.26	3246.32
418.45	3094.19
418.64	3227.60
418.83	3379.73
419.02	3279.09
419.21	3185.47
419.39	3122.27
419.58	2920.99
419.77	3056.74
419.96	3119.93
420.15	3290.79
420.34	3419.52
420.53	3428.88
420.72	3674.64
420.91	3581.02
421.10	3382.07
421.29	3316.54
421.48	3435.91
421.67	3531.87
421.86	3468.67
422.05	3145.68
422.24	3052.06
422.43	2897.58
422.61	3056.74
422.80	3316.54
422.99	3393.78
423.18	3227.60
423.37	3215.90
423.56	3204.19
423.75	3342.28
423.94	3353.99
424.13	3206.53
424.32	3014.61
424.50	3236.96
424.69	3204.19
424.88	3155.04
425.07	3117.59
425.26	3096.53
425.45	3014.61
425.64	2963.12
425.83	3061.42
426.01	3194.83
426.20	3396.12
426.39	3398.46
426.58	3096.53
426.77	2850.77
426.96	2778.22
427.15	3002.91
427.33	3007.59
427.52	3087.17
427.71	3220.58
427.90	3126.96
428.09	3190.15
428.28	3023.97
428.46	2974.82
428.65	2935.03
428.84	2965.46
429.03	3091.85
429.22	2899.92
429.40	2911.63
429.59	2635.44
429.78	2326.49
429.97	2246.91
430.16	2272.66
430.34	2237.55
430.53	2361.60
430.72	2289.04
430.91	2495.01
431.10	2822.69
431.28	3279.09
431.47	3632.51
431.66	3646.55
431.85	3398.46
432.03	3218.24
432.22	3164.40
432.41	3054.40
432.60	3346.97
432.79	3620.81
432.97	3574.00
433.16	3548.25
433.35	3314.20
433.54	3143.34
433.72	2960.78
433.91	2939.71
434.10	3274.41
434.28	3503.78
434.47	3517.83
434.66	3658.26
434.85	3452.29
435.03	3674.64
435.22	4140.41
435.41	4587.45
435.59	4608.51
435.78	4397.87
435.97	4030.40
436.16	4039.76
436.34	3775.28
436.53	3695.71
436.72	3735.50
436.90	3662.94
437.09	3562.30
437.28	3623.15
437.46	3623.15
437.65	3758.90
437.84	3524.85
438.02	3094.19
438.21	3208.87
438.40	3309.52
438.58	3609.11
438.77	3541.23
438.96	3667.62
439.14	3669.96
439.33	3896.99
439.52	3983.59
439.70	3906.35
439.89	3805.71
440.08	3646.55
440.26	3700.39
440.45	3796.35
440.63	4039.76
440.82	4217.65
441.01	4088.92
441.19	4126.36
441.38	4182.54
441.57	4098.28
441.75	4367.44
441.94	4463.40
442.12	4184.88
442.31	4318.29
442.50	4369.78
442.68	4318.29
442.87	4367.44
443.05	4292.54
443.24	4196.58
443.43	4273.82
443.61	4421.27
443.80	4423.61
443.98	4196.58
444.17	4280.84
444.35	4580.43
444.54	4425.95
444.73	4510.21
444.91	4479.79
445.10	4287.86
445.28	3985.93
445.47	3971.89
445.65	4007.00
445.84	4121.68
446.02	4266.80
446.21	4205.94
446.39	4320.63
446.58	4425.95
446.77	4402.55
446.95	4409.57
447.14	4557.02
447.32	4676.39
447.51	4526.60
447.69	4423.61
447.88	4416.59
448.06	4360.42
448.25	4535.96
448.43	4475.10
448.62	4381.48
448.80	4337.01
448.99	4409.57
449.17	4599.15
449.36	4568.73
449.54	4690.43
449.73	4784.06
449.91	4767.67
450.10	4910.44
450.28	4968.96
450.46	4973.64
450.65	4910.44
450.83	4833.21
451.02	4793.42
451.20	4568.73
451.39	4589.79
451.57	4596.81
451.76	4723.20
451.94	4610.86
452.13	4758.31
452.31	4566.39
452.49	4264.46
452.68	4201.26
452.86	4437.66
453.05	4404.89
453.23	4531.28
453.42	4568.73
453.60	4617.88
453.78	4652.98
453.97	4746.61
454.15	4723.20
454.34	4421.27
454.52	4641.28
454.70	4557.02
454.89	4622.56
455.07	4500.85
455.26	4737.24
455.44	4732.56
455.62	4910.44
455.81	4894.06
455.99	4814.48
456.17	4777.03
456.36	4725.54
456.54	4912.78
456.73	4999.38
456.91	4994.70
457.09	4922.15
457.28	5090.67
457.46	4983.00
457.64	4884.70
457.83	4699.80
458.01	4695.11
458.19	4880.02
458.38	4861.29
458.56	4938.53
458.74	4875.34
458.93	4877.68
459.11	4954.91
459.29	4741.93
459.48	4692.77
459.66	4842.57
459.84	4905.76
460.03	4894.06
460.21	4966.62
460.39	5053.22
460.57	5132.79
460.76	5076.62
460.94	5144.50
461.12	5018.11
461.31	5093.01
461.49	5069.60
461.67	5020.45
461.85	5219.39
462.04	5123.43
462.22	5591.54
462.40	5242.80
462.59	5085.98
462.77	5111.73
462.95	5034.49
463.13	5207.69
463.32	5132.79
463.50	5083.64
463.68	5088.32
463.86	4968.96
464.05	5097.69
464.23	4926.83
464.41	4795.76
464.59	4758.31
464.78	5167.90
464.96	4929.17
465.14	4880.02
465.32	4901.08
465.50	5067.26
465.69	5280.25
465.87	5128.11
466.05	5074.28
466.23	4894.06
466.41	4638.94
466.60	4875.34
466.78	4891.72
466.96	4805.12
467.14	4931.51
467.32	5083.64
467.51	5057.90
467.69	4812.14
467.87	4912.78
468.05	5015.77
468.23	4847.25
468.41	4887.04
468.60	5018.11
468.78	4903.42
468.96	5046.20
469.14	5020.45
469.32	5001.72
469.50	4952.57
469.69	4889.38
469.87	4830.87
470.05	4720.86
470.23	4713.84
470.41	4734.90
470.59	4931.51
470.77	4978.32
470.95	5116.41
471.14	5046.20
471.32	5158.54
471.50	5233.44
471.68	5416.00
471.86	5411.32
472.04	5359.83
472.22	5390.25
472.40	5186.63
472.58	5071.94
472.77	5046.20
472.95	5191.31
473.13	5172.58
473.31	5256.84
473.49	5067.26
473.67	5217.05
473.85	5336.42
474.03	5336.42
474.21	5380.89
474.39	5406.64
474.57	5460.47
474.75	5497.92
474.93	5444.09
475.12	5369.19
475.30	5303.65
475.48	5380.89
475.66	5504.94
475.84	5535.37
476.02	5355.15
476.20	5261.52
476.38	5444.09
476.56	5591.54
476.74	5638.35
476.92	5603.24
477.10	5769.42
477.28	5804.53
477.46	5802.19
477.64	5820.91
477.82	6024.54
478.00	5895.81
478.18	6012.84
478.36	5764.74
478.54	5884.11
478.72	5916.87
478.90	6136.88
479.08	6207.10
479.26	6249.23
479.44	6282.00
479.62	6263.27
479.80	6370.94
479.98	6279.66
480.16	6197.74
480.34	6291.36
480.52	6366.26
480.70	6298.38
480.88	6352.21
481.06	6665.85
481.24	6366.26
481.41	6635.42
481.59	6574.56
481.77	6686.91
481.95	6567.54
482.13	6541.80
482.31	6532.44
482.49	6679.89
482.67	6930.33
482.85	6778.19
483.03	6913.94
483.21	6761.81
483.39	7077.78
483.57	6754.79
483.74	6658.82
483.92	6773.51
484.10	6707.98
484.28	7059.06
484.46	7047.35
484.64	7150.34
484.82	6789.89
485.00	6874.15
485.18	6899.90
485.35	6860.11
485.53	6148.59
485.71	5680.48
485.89	5638.35
486.07	5809.21
486.25	6443.49
486.43	6595.63
486.61	6778.19
486.78	6691.59
486.96	6703.29
487.14	7023.95
487.32	7171.40
487.50	7616.10
487.68	7543.55
487.85	7784.62
488.03	7728.45
488.21	7578.65
488.39	7698.02
488.57	7431.20
488.75	7335.24
488.92	7508.44
489.10	7840.79
489.28	8231.66
489.46	8500.83
489.64	8255.07
489.81	8535.93
489.99	8379.12
490.17	8411.89
490.35	8648.28
490.53	8152.09
490.70	8205.92
490.88	8226.98
491.06	8486.78
491.24	8535.93
491.41	8346.35
491.59	7885.26
491.77	7581.00
491.95	7737.81
492.13	7981.23
492.30	8482.10
492.48	8592.11
492.66	8901.06
492.84	8833.18
493.01	8758.28
493.19	8643.60
493.37	8552.32
493.54	8196.56
493.72	8606.15
493.90	8709.13
494.08	9165.54
494.25	9020.42
494.43	9331.72
494.61	9380.87
494.79	9537.68
494.96	9266.18
495.14	9020.42
495.32	8931.48
495.49	8758.28
495.67	9083.62
495.85	9284.91
496.02	9500.23
496.20	9589.17
496.38	9535.34
496.55	9404.27
496.73	9390.23
496.91	9643.01
497.09	9645.35
497.26	9607.90
497.44	9671.09
497.62	9689.82
497.79	9027.45
497.97	9055.53
498.14	8638.92
498.32	9125.75
498.50	9334.06
498.67	9607.90
498.85	9633.64
499.03	9804.50
499.20	9820.89
499.38	9568.11
499.56	9570.45
499.73	9408.95
499.91	9128.09
500.08	9128.09
500.26	9039.15
500.44	9048.51
500.61	9355.12
500.79	9266.18
500.97	9107.02
501.14	9050.85
501.32	8903.40
501.49	9104.68
501.67	9050.85
501.84	9231.07
502.02	9296.61
502.20	9455.76
502.37	9425.34
502.55	9336.40
502.72	9369.16
502.90	9650.03
503.07	9640.67
503.25	9249.80
503.43	8933.82
503.60	8821.48
503.78	8381.46
503.95	8585.08
504.13	9043.83
504.30	9584.49
504.48	9544.70
504.65	9423.00
504.83	9678.12
505.01	9863.02
505.18	9722.59
505.36	9994.09
505.53	9816.21
505.71	10012.81
505.88	10118.14
506.06	10033.88
506.23	9994.09
506.41	9472.15
506.58	9638.33
506.76	9617.26
506.93	9586.83
507.11	9755.35
507.28	9596.20
507.46	9633.64
507.63	9226.39
507.81	9231.07
507.98	9488.53
508.16	9678.12
508.33	9757.69
508.50	9994.09
508.68	10094.73
508.85	10230.48
509.03	10200.05
509.20	10190.69
509.38	9970.68
509.55	9778.76
509.73	9729.61
509.90	10043.24
510.08	10118.14
510.25	9919.19
510.42	9830.25
510.60	9659.39
510.77	10068.98
510.95	10211.76
511.12	10150.90
511.30	10258.57
511.47	10670.50
511.64	10544.11
511.82	10375.59
511.99	10167.29
512.17	9954.30
512.34	9689.82
512.51	9858.34
512.69	10073.67
512.86	9893.44
513.04	10209.42
513.21	10260.91
513.38	10094.73
513.56	9811.53
513.73	9659.39
513.90	9633.64
514.08	9884.08
514.25	9841.95
514.43	9961.32
514.60	10176.65
514.77	10066.64
514.95	9987.07
515.12	10024.51
515.29	10176.65
515.47	10452.83
515.64	10380.28
515.81	10228.14
515.99	10108.77
516.16	9720.24
516.33	8858.93
516.51	8535.93
516.68	8297.20
516.85	8152.09
517.03	8112.30
517.20	8875.31
517.37	9495.55
517.54	9745.99
517.72	9942.60
517.89	9128.09
518.06	8367.42
518.24	8613.17
518.41	9324.69
518.58	9530.66
518.75	9638.33
518.93	9757.69
519.10	9528.32
519.27	9671.09
519.45	10001.11
519.62	10078.35
519.79	10450.49
519.96	10223.46
520.14	10092.39
520.31	9755.35
520.48	9783.44
520.65	9659.39
520.83	10127.50
521.00	10450.49
521.17	10424.75
521.34	10188.35
521.52	10076.01
521.69	10230.48
521.86	10700.93
522.03	10469.22
522.20	9958.98
522.38	9575.13
522.55	9582.15
522.72	9692.16
522.89	9923.87
523.07	10097.07
523.24	10200.05
523.41	10539.43
523.58	10548.79
523.75	10658.80
523.92	10581.56
524.10	10614.33
524.27	10745.40
524.44	10394.32
524.61	10469.22
524.78	10345.17
524.96	10249.21
525.13	10310.06
525.30	10438.79
525.47	10356.87
525.64	10752.42
525.81	10415.38
525.98	10115.80
526.16	9467.47
526.33	9334.06
526.50	9074.26
526.67	8903.40
526.84	8975.95
527.01	9528.32
527.18	9731.95
527.36	9823.23
527.53	10321.76
527.70	10586.24
527.87	10162.61
528.04	10139.20
528.21	10129.84
528.38	10448.15
528.55	10862.43
528.72	10897.53
528.89	10906.90
529.07	11075.42
529.24	10483.26
529.41	10232.82
529.58	10015.15
529.75	10242.18
529.92	10244.52
530.09	10375.59
530.26	10569.86
530.43	10700.93
530.60	10675.18
530.77	10766.46
530.94	10761.78
531.11	10951.37
531.28	10593.26
531.46	10413.04
531.63	10417.72
531.80	10628.37
531.97	10296.02
532.14	10214.10
532.31	9591.52
532.48	9715.56
532.65	9584.49
532.82	9853.66
532.99	10052.60
533.16	10317.08
533.33	10663.48
533.50	10139.20
533.67	10223.46
533.84	10101.75
534.01	10183.67
534.18	10359.21
534.35	10511.35
534.52	10312.40
534.69	10352.19
534.86	10342.83
535.03	10485.60
535.20	10736.04
535.37	10743.06
535.54	11037.97
535.71	10799.23
535.88	10525.39
536.05	10525.39
536.22	10387.30
536.38	10242.18
536.55	10078.35
536.72	9760.03
536.89	9865.36
537.06	9987.07
537.23	10611.99
537.40	10396.66
537.57	10682.20
537.74	10689.23
537.91	10714.97
538.08	10600.29
538.25	10499.64
538.42	10452.83
538.59	10567.52
538.75	10178.99
538.92	10200.05
539.09	10026.86
539.26	10113.45
539.43	9982.38
539.60	9851.31
539.77	10047.92
539.94	9865.36
540.11	9935.57
540.28	9762.37
540.44	9937.91
540.61	9867.70
540.78	9874.72
540.95	10160.27
541.12	10359.21
541.29	10459.85
541.46	10890.51
541.62	10630.71
541.79	10759.44
541.96	10427.09
542.13	10513.69
542.30	10553.48
542.47	10485.60
542.63	10441.13
542.80	10200.05
542.97	10314.74
543.14	10223.46
543.31	9923.87
543.48	10267.93
543.64	10668.16
543.81	10895.19
543.98	11159.67
544.15	10700.93
544.32	10483.26
544.48	10396.66
544.65	10581.56
544.82	10616.67
544.99	10778.17
545.16	10705.61
545.32	10593.26
545.49	11274.36
545.66	12374.41
545.83	12285.47
546.00	11641.82
546.16	10970.09
546.33	10560.50
546.50	10691.57
546.67	10686.89
546.83	10274.95
547.00	10382.62
547.17	10267.93
547.34	10022.17
547.50	10104.09
547.67	10090.05
547.84	10207.08
548.00	10246.87
548.17	10317.08
548.34	10186.01
548.51	10150.90
548.67	10057.28
548.84	10235.16
549.01	10457.51
549.18	10207.08
549.34	10118.14
549.51	10274.95
549.68	10232.82
549.84	10097.07
550.01	10118.14
550.18	10033.88
550.34	10087.71
550.51	9937.91
550.68	10057.28
550.84	9909.83
551.01	9942.60
551.18	9804.50
551.34	9937.91
551.51	10256.23
551.68	10094.73
551.84	10289.00
552.01	10148.56
552.18	10176.65
552.34	9729.61
552.51	9907.49
552.68	9451.08
552.84	9598.54
553.01	9895.78
553.18	9818.55
553.34	9947.28
553.51	9966.00
553.67	9991.75
553.84	10073.67
554.01	10153.24
554.17	9912.17
554.34	9797.48
554.51	9923.87
554.67	9886.42
554.84	10066.64
555.00	9928.55
555.17	9809.19
555.33	9970.68
555.50	9734.29
555.67	9785.78
555.83	9673.43
556.00	9837.27
556.16	9589.17
556.33	9551.73
556.50	9373.85
556.66	9465.13
556.83	9247.46
556.99	9493.21
557.16	9483.85
557.32	9284.91
557.49	9689.82
557.65	9577.47
557.82	9432.36
557.98	9626.62
558.15	9514.28
558.32	9298.95
558.48	8877.65
558.65	8896.38
558.81	8990.00
558.98	9060.21
559.14	8952.55
559.31	8887.01
559.47	9228.73
559.64	9156.18
559.80	9121.07
559.97	9067.24
560.13	9107.02
560.30	9493.21
560.46	9694.50
560.63	9591.52
560.79	9610.24
560.96	9551.73
561.12	9273.20
561.29	8985.32
561.45	9100.00
561.61	8973.61
561.78	9284.91
561.94	9305.97
562.11	9041.49
562.27	8992.34
562.44	9057.87
562.60	9308.31
562.77	9380.87
562.93	9315.33
563.10	9380.87
563.26	9020.42
563.42	9334.06
563.59	9195.96
563.75	9128.09
563.92	9217.03
564.08	8968.93
564.24	9114.05
564.41	9252.14
564.57	9284.91
564.74	8987.66
564.90	8889.35
565.07	9184.26
565.23	9100.00
565.39	8851.91
565.56	8861.27
565.72	8709.13
565.88	8589.77
566.05	8615.51
566.21	8779.35
566.38	8793.39
566.54	9174.90
566.70	8926.80
566.87	9156.18
567.03	9076.60
567.19	9083.62
567.36	8990.00
567.52	8840.20
567.68	8997.02
567.85	8603.81
568.01	8245.71
568.17	8313.58
568.34	8266.77
568.50	8416.57
568.66	8086.55
568.83	8346.35
568.99	8299.54
569.15	8423.59
569.32	8500.83
569.48	8245.71
569.64	8222.30
569.81	8229.32
569.97	8367.42
570.13	8313.58
570.30	8542.96
570.46	8074.85
570.62	8067.83
570.78	7957.82
570.95	8042.08
571.11	8039.74
571.27	8334.65
571.43	8231.66
571.60	8442.31
571.76	8292.52
571.92	8128.68
572.09	8297.20
572.25	8510.19
572.41	8348.69
572.57	8428.27
572.74	8491.46
572.90	8294.86
573.06	8388.48
573.22	8369.76
573.38	8191.88
573.55	8306.56
573.71	8559.34
573.87	8381.46
574.03	8299.54
574.20	8203.58
574.36	8070.17
574.52	8009.31
574.68	7997.61
574.84	8030.38
575.01	7967.18
575.17	7927.39
575.33	7925.05
575.49	7859.52
575.65	8060.80
575.82	7948.46
575.98	8039.74
576.14	7801.01
576.30	8226.98
576.46	8510.19
576.62	8313.58
576.79	8388.48
576.95	8290.18
577.11	8154.43
577.27	8198.90
577.43	8203.58
577.59	8018.68
577.75	8011.65
577.92	7691.00
578.08	7712.07
578.24	7812.71
578.40	7824.41
578.56	8116.98
578.72	8465.72
578.88	8451.67
579.04	8334.65
579.21	8112.30
579.37	8084.21
579.53	8067.83
579.69	8149.75
579.85	8100.59
580.01	8259.75
580.17	7988.25
580.33	7906.33
580.49	8098.25
580.65	7997.61
580.82	8170.81
580.98	8109.96
581.14	8201.24
581.30	8138.04
581.46	8205.92
581.62	8229.32
581.78	8329.97
581.94	8135.70
582.10	8308.90
582.26	8203.58
582.42	8154.43
582.58	8325.29
582.74	8365.07
582.90	8252.73
583.06	8278.47
583.22	8313.58
583.38	8159.11
583.54	8105.28
583.70	8381.46
583.86	8177.83
584.02	8248.05
584.18	8507.85
584.34	8081.87
584.50	8074.85
584.66	8152.09
584.82	8100.59
584.98	8011.65
585.14	7936.76
585.30	7880.58
585.46	7679.30
585.62	7625.47
585.78	7604.40
585.94	7576.31
586.10	7761.22
586.26	7653.55
586.42	8009.31
586.58	7894.63
586.74	7822.07
586.90	7742.49
587.06	7908.67
587.22	7754.19
587.38	7583.34
587.54	7403.11
587.70	7159.70
587.86	6988.84
588.02	6867.13
588.18	6766.49
588.34	6558.18
588.49	6057.31
588.65	5689.84
588.81	5640.69
588.97	5813.89
589.13	5600.90
589.29	5685.16
589.45	5610.26
589.61	5701.54
589.77	6022.20
589.93	6045.60
590.08	6389.66
590.24	6579.25
590.40	6642.44
590.56	6677.55
590.72	6656.48
590.88	6532.44
591.04	6485.62
591.20	6291.36
591.35	6586.27
591.51	6408.39
591.67	6256.25
591.83	6497.33
591.99	6202.42
592.15	6422.43
592.31	6719.68
592.46	6717.34
592.62	7033.31
592.78	6937.35
592.94	6843.73
593.10	6895.22
593.26	7112.89
593.41	7143.32
593.57	6892.88
593.73	6738.40
593.89	6497.33
594.05	6246.89
594.20	5937.94
594.36	5959.00
594.52	5762.40
594.68	5877.09
594.84	6392.00
594.99	6548.82
595.15	6630.74
