SpectraSuite Data File
++++++++++++++++++++++++++++++++++++
Date: Fri Oct 04 11:44:28 GMT-05:00 2013
User: price-jones
Dark Spectrum Present: No
Reference Spectrum Present: No
Number of Sampled Component Spectra: 1
Spectrometers: USB2+H05261
Integration Time (usec): 100000 (USB2+H05261)
Spectra Averaged: 1 (USB2+H05261)
Boxcar Smoothing: 0 (USB2+H05261)
Correct for Electrical Dark: No (USB2+H05261)
Strobe/Lamp Enabled: No (USB2+H05261)
Correct for Detector Non-linearity: No (USB2+H05261)
Correct for Stray Light: No (USB2+H05261)
Number of Pixels in Processed Spectrum: 2048
>>>>>Begin Processed Spectral Data<<<<<
365.73	23.41
365.92	23.41
366.12	23.41
366.32	0.00
366.52	0.00
366.72	0.00
366.91	0.00
367.11	0.00
367.31	0.00
367.51	0.00
367.70	0.00
367.90	0.00
368.10	0.00
368.30	0.00
368.49	0.00
368.69	0.00
368.89	0.00
369.09	0.00
369.28	0.00
369.48	0.00
369.68	0.00
369.87	0.00
370.07	25.75
370.27	42.13
370.47	154.48
370.66	592.16
370.86	524.28
371.06	718.54
371.25	800.46
371.45	688.12
371.65	629.60
371.84	599.18
372.04	667.05
372.24	727.91
372.44	709.18
372.63	688.12
372.83	746.63
373.03	561.73
373.22	613.22
373.42	638.97
373.62	718.54
373.81	816.85
374.01	816.85
374.21	650.67
374.40	685.78
374.60	753.65
374.79	695.14
374.99	912.81
375.19	884.72
375.38	917.49
375.58	929.19
375.78	929.19
375.97	819.19
376.17	851.96
376.37	826.21
376.56	945.58
376.76	940.90
376.95	1011.11
377.15	1018.13
377.35	1102.39
377.54	1135.16
377.74	1114.10
377.93	1146.86
378.13	1186.65
378.33	1114.10
378.52	968.98
378.72	999.41
378.91	938.55
379.11	959.62
379.31	924.51
379.50	905.79
379.70	887.06
379.89	1041.54
380.09	1076.65
380.28	1064.94
380.48	1125.80
380.68	1102.39
380.87	1029.84
381.07	987.71
381.26	1001.75
381.46	866.00
381.65	819.19
381.85	856.64
382.04	861.32
382.24	837.91
382.43	699.82
382.63	683.44
382.83	685.78
383.02	730.25
383.22	786.42
383.41	753.65
383.61	755.99
383.80	847.27
384.00	947.92
384.19	1160.91
384.39	1181.97
384.58	1022.81
384.78	1076.65
384.97	1149.20
385.17	1158.57
385.36	964.30
385.56	994.73
385.75	952.60
385.95	1008.77
386.14	1083.67
386.34	1139.84
386.53	1004.09
386.72	1039.20
386.92	1041.54
387.11	1235.80
387.31	1142.18
387.50	1048.56
387.70	1022.81
387.89	1055.58
388.09	1013.45
388.28	1025.15
388.48	1156.22
388.67	1301.34
388.86	1308.36
389.06	1320.06
389.25	1448.79
389.45	1336.45
389.64	1493.26
389.84	1493.26
390.03	1373.89
390.22	1430.07
390.42	1427.73
390.61	1474.54
390.81	1570.50
391.00	1689.87
391.19	1661.78
391.39	1624.33
391.58	1540.07
391.78	1315.38
391.97	1394.96
392.16	1320.06
392.36	1200.69
392.55	1022.81
392.75	877.70
392.94	812.17
393.13	676.41
393.33	774.72
393.52	961.96
393.71	1163.25
393.91	1317.72
394.10	1362.19
394.29	1378.58
394.49	1507.30
394.68	1673.48
394.88	1568.16
395.07	1724.97
395.26	1722.63
395.46	1724.97
395.65	1607.95
395.84	1364.53
396.04	1214.74
396.23	987.71
396.42	924.51
396.62	851.96
396.81	987.71
397.00	1203.04
397.19	1418.36
397.39	1558.80
397.58	1888.81
397.77	1944.99
397.97	1987.11
398.16	2022.22
398.35	2094.78
398.55	2235.21
398.74	2275.00
398.93	2235.21
399.12	2193.08
399.32	2235.21
399.51	2225.85
399.70	2342.88
399.90	2317.13
400.09	2244.57
400.28	2291.38
400.47	2303.09
400.67	2422.45
400.86	2434.16
401.05	2452.88
401.24	2473.95
401.44	2565.23
401.63	2499.69
401.82	2621.40
402.01	2537.14
402.21	2565.23
402.40	2640.12
402.59	2572.25
402.78	2380.32
402.97	2298.41
403.17	2338.20
403.36	2588.63
403.55	2710.34
403.74	2684.59
403.93	2572.25
404.13	2534.80
404.32	2525.44
404.51	2628.42
404.70	2754.81
404.89	2619.06
405.09	2579.27
405.28	2516.08
405.47	2459.90
405.66	2441.18
405.85	2410.75
406.05	2495.01
406.24	2335.85
406.43	2443.52
406.62	2581.61
406.81	2586.29
407.00	2427.14
407.20	2492.67
407.39	2518.42
407.58	2473.95
407.77	2614.38
407.96	2677.57
408.15	2782.90
408.34	2745.45
408.54	2892.90
408.73	2991.20
408.92	2841.41
409.11	2878.86
409.30	2583.95
409.49	2438.84
409.68	2361.60
409.87	2249.25
410.07	2422.45
410.26	2525.44
410.45	2635.44
410.64	2738.43
410.83	2923.33
411.02	2862.48
411.21	3016.95
411.40	3014.61
411.59	2977.16
411.78	3042.70
411.98	2911.63
412.17	2979.50
412.36	2743.11
412.55	3063.76
412.74	2916.31
412.93	2918.65
413.12	2939.71
413.31	3084.83
413.50	3197.17
413.69	3300.16
413.88	3089.51
414.07	2984.18
414.26	3077.80
414.45	3014.61
414.64	3215.90
414.83	3185.47
415.02	3148.02
415.22	3131.64
415.41	3054.40
415.60	3232.28
415.79	3375.05
415.98	3522.51
416.17	3421.86
416.36	3407.82
416.55	3304.84
416.74	3199.51
416.93	3131.64
417.12	3054.40
417.31	3164.40
417.50	3063.76
417.69	3318.88
417.88	3318.88
418.07	3215.90
418.26	3239.30
418.45	3246.32
418.64	3279.09
418.83	3311.86
419.02	3384.41
419.21	3438.25
419.39	3204.19
419.58	3197.17
419.77	3117.59
419.96	3089.51
420.15	3414.84
420.34	3627.83
420.53	3599.74
420.72	3665.28
420.91	3595.06
421.10	3639.53
421.29	3653.58
421.48	3520.17
421.67	3648.90
421.86	3440.59
422.05	3304.84
422.24	3112.91
422.43	3009.93
422.61	3143.34
422.80	3468.67
422.99	3463.99
423.18	3407.82
423.37	3297.81
423.56	3332.92
423.75	3393.78
423.94	3328.24
424.13	3246.32
424.32	3208.87
424.50	3323.56
424.69	3372.71
424.88	3335.26
425.07	3157.38
425.26	3222.92
425.45	3243.98
425.64	3164.40
425.83	3166.74
426.01	3281.43
426.20	3426.54
426.39	3321.22
426.58	3197.17
426.77	2963.12
426.96	2841.41
427.15	3012.27
427.33	3225.26
427.52	3208.87
427.71	3162.06
427.90	3220.58
428.09	3311.86
428.28	3080.14
428.46	3131.64
428.65	3089.51
428.84	2977.16
429.03	3173.77
429.22	3045.04
429.40	2869.50
429.59	2616.72
429.78	2394.37
429.97	2349.90
430.16	2415.43
430.34	2476.29
430.53	2427.14
430.72	2455.22
430.91	2705.66
431.10	3016.95
431.28	3639.53
431.47	3763.58
431.66	3861.88
431.85	3599.74
432.03	3288.45
432.22	3243.98
432.41	3234.62
432.60	3618.47
432.79	3655.92
432.97	3744.86
433.16	3686.34
433.35	3419.52
433.54	3201.85
433.72	3040.36
433.91	3075.46
434.10	3248.66
434.28	3517.83
434.47	3686.34
434.66	3749.54
434.85	3655.92
435.03	3716.77
435.22	4077.21
435.41	4851.93
435.59	5085.98
435.78	4938.53
435.97	4435.32
436.16	4227.01
436.34	4037.42
436.53	3941.46
436.72	3861.88
436.90	3756.56
437.09	3555.27
437.28	3548.25
437.46	3702.73
437.65	3751.88
437.84	3487.40
438.02	3243.98
438.21	3243.98
438.40	3346.97
438.58	3646.55
438.77	3777.62
438.96	3791.67
439.14	3953.16
439.33	4135.73
439.52	4035.08
439.70	3971.89
439.89	3843.16
440.08	3801.03
440.26	3833.80
440.45	4070.19
440.63	4147.43
440.82	4283.18
441.01	4142.75
441.19	4327.65
441.38	4252.75
441.57	4416.59
441.75	4531.28
441.94	4596.81
442.12	4528.94
442.31	4545.32
442.50	4514.89
442.68	4573.41
442.87	4367.44
443.05	4341.69
443.24	4465.74
443.43	4461.06
443.61	4643.62
443.80	4711.50
443.98	4451.70
444.17	4344.03
444.35	4596.81
444.54	4737.24
444.73	4748.95
444.91	4463.40
445.10	4166.15
445.28	4121.68
445.47	4177.86
445.65	4117.00
445.84	4407.23
446.02	4285.52
446.21	4418.93
446.39	4351.06
446.58	4484.47
446.77	4526.60
446.95	4512.55
447.14	4755.97
447.32	4741.93
447.51	4826.18
447.69	4547.66
447.88	4418.93
448.06	4608.51
448.25	4638.94
448.43	4601.49
448.62	4652.98
448.80	4554.68
448.99	4657.67
449.17	4645.96
449.36	4482.13
449.54	4737.24
449.73	4821.50
449.91	5018.11
450.10	4994.70
450.28	5081.30
450.46	5074.28
450.65	5177.26
450.83	5060.24
451.02	4938.53
451.20	4894.06
451.39	4875.34
451.57	4889.38
451.76	4851.93
451.94	4933.85
452.13	4898.74
452.31	4554.68
452.49	4337.01
452.68	4444.68
452.86	4320.63
453.05	4589.79
453.23	4512.55
453.42	4669.37
453.60	4690.43
453.78	4947.89
453.97	4737.24
454.15	4861.29
454.34	4716.18
454.52	4805.12
454.70	4760.65
454.89	4674.05
455.07	4575.75
455.26	4760.65
455.44	4875.34
455.62	4856.61
455.81	5011.09
455.99	4929.17
456.17	4898.74
456.36	5036.83
456.54	5067.26
456.73	5055.56
456.91	4987.68
457.09	5174.92
457.28	5275.57
457.46	5179.61
457.64	5060.24
457.83	4793.42
458.01	4723.20
458.19	4966.62
458.38	4884.70
458.56	5050.88
458.74	5195.99
458.93	4884.70
459.11	5036.83
459.29	4947.89
459.48	4887.04
459.66	5055.56
459.84	4905.76
460.03	5102.37
460.21	5128.11
460.39	5067.26
460.57	5018.11
460.76	5046.20
460.94	5343.44
461.12	5181.95
461.31	5118.75
461.49	5203.01
461.67	5263.86
461.85	5359.83
462.04	5210.03
462.22	5858.36
462.40	5331.74
462.59	5341.10
462.77	5291.95
462.95	5151.52
463.13	5064.92
463.32	5097.69
463.50	5081.30
463.68	5158.54
463.86	5200.67
464.05	5123.43
464.23	4978.32
464.41	4926.83
464.59	4800.44
464.78	5195.99
464.96	5034.49
465.14	4884.70
465.32	5069.60
465.50	5284.93
465.69	5343.44
465.87	5249.82
466.05	4997.04
466.23	4795.76
466.41	4854.27
466.60	4882.36
466.78	4954.91
466.96	4922.15
467.14	5013.43
467.32	5048.54
467.51	5263.86
467.69	4929.17
467.87	5102.37
468.05	5125.77
468.23	5217.05
468.41	5233.44
468.60	5083.64
468.78	5090.67
468.96	5095.35
469.14	5146.84
469.32	5193.65
469.50	5074.28
469.69	5135.14
469.87	4966.62
470.05	4840.23
470.23	4833.21
470.41	5071.94
470.59	4973.64
470.77	4957.25
470.95	5167.90
471.14	5085.98
471.32	5160.88
471.50	5303.65
471.68	5390.25
471.86	5305.99
472.04	5568.13
472.22	5528.35
472.40	5327.06
472.58	5172.58
472.77	5137.48
472.95	5270.89
473.13	5441.75
473.31	5214.71
473.49	5163.22
473.67	5469.83
473.85	5570.48
474.03	5575.16
474.21	5673.46
474.39	5666.44
474.57	5619.63
474.75	5692.18
474.93	5558.77
475.12	5502.60
475.30	5570.48
475.48	5378.55
475.66	5451.11
475.84	5441.75
476.02	5369.19
476.20	5289.61
476.38	5448.77
476.56	5781.12
476.74	5647.71
476.92	5790.49
477.10	5839.64
477.28	6031.56
477.46	5809.21
477.64	6033.90
477.82	6108.80
478.00	5984.75
478.18	6024.54
478.36	5937.94
478.54	5851.34
478.72	5921.56
478.90	6059.65
479.08	6282.00
479.26	6401.37
479.44	6349.87
479.62	6352.21
479.80	6321.79
479.98	6214.12
480.16	6434.13
480.34	6347.53
480.52	6354.55
480.70	6541.80
480.88	6331.15
481.06	6693.93
481.24	6574.56
481.41	6780.53
481.59	6981.82
481.77	6799.26
481.95	6825.00
482.13	6764.15
482.31	6771.17
482.49	6911.60
482.67	6782.87
482.85	6995.86
483.03	6986.50
483.21	6981.82
483.39	7131.61
483.57	6972.46
483.74	7019.27
483.92	6991.18
484.10	6977.14
484.28	7227.57
484.46	7307.15
484.64	7260.34
484.82	7227.57
485.00	7211.19
485.18	7119.91
485.35	6647.12
485.53	6115.82
485.71	5851.34
485.89	5717.93
486.07	5729.63
486.25	6427.11
486.43	6773.51
486.61	6956.07
486.78	6829.68
486.96	6913.94
487.14	7190.13
487.32	7330.56
487.50	7431.20
487.68	7681.64
487.85	7868.88
488.03	7915.69
488.21	7873.56
488.39	7566.95
488.57	7492.05
488.75	7417.16
488.92	7777.60
489.10	7967.18
489.28	8451.67
489.46	8636.58
489.64	8622.53
489.81	8667.00
489.99	8557.00
490.17	8610.83
490.35	8685.73
490.53	8624.87
490.70	8446.99
490.88	8393.16
491.06	8461.04
491.24	8645.94
491.41	8449.33
491.59	8037.40
491.77	7791.64
491.95	7950.80
492.13	8278.47
492.30	8491.46
492.48	8912.76
492.66	9116.39
492.84	8870.63
493.01	8940.85
493.19	8870.63
493.37	8769.99
493.54	8557.00
493.72	8755.94
493.90	8997.02
494.08	9305.97
494.25	9165.54
494.43	9308.31
494.61	9458.10
494.79	9584.49
494.96	9334.06
495.14	9387.89
495.32	9057.87
495.49	8990.00
495.67	9018.08
495.85	9500.23
496.02	9708.54
496.20	9343.42
496.38	9394.91
496.55	9366.82
496.73	9657.05
496.91	9628.96
497.09	9984.73
497.26	10139.20
497.44	9605.56
497.62	9631.30
497.79	9298.95
497.97	9097.66
498.14	9015.74
498.32	9158.52
498.50	9570.45
498.67	9785.78
498.85	9736.63
499.03	9867.70
499.20	9970.68
499.38	10242.18
499.56	9881.74
499.73	9783.44
499.91	9481.51
500.08	9483.85
500.26	9167.88
500.44	9294.27
500.61	9495.55
500.79	9617.26
500.97	9334.06
501.14	9163.20
501.32	9331.72
501.49	9074.26
501.67	8994.68
501.84	9504.92
502.02	9411.29
502.20	9600.88
502.37	9530.66
502.55	9554.07
502.72	9610.24
502.90	9902.81
503.07	9544.70
503.25	9320.01
503.43	9097.66
503.60	8870.63
503.78	8573.38
503.95	8798.07
504.13	9188.94
504.30	9603.22
504.48	9841.95
504.65	9617.26
504.83	9741.31
505.01	9687.48
505.18	9848.97
505.36	10225.80
505.53	10008.13
505.71	10169.63
505.88	10324.10
506.06	10099.41
506.23	10076.01
506.41	9767.06
506.58	9713.22
506.76	9844.29
506.93	9717.90
507.11	9643.01
507.28	9673.43
507.46	9858.34
507.63	9507.26
507.81	9226.39
507.98	9516.62
508.16	9577.47
508.33	9827.91
508.50	10073.67
508.68	10427.09
508.85	10401.34
509.03	10476.24
509.20	10223.46
509.38	10214.10
509.55	9891.10
509.73	10036.22
509.90	10090.05
510.08	10146.22
510.25	10106.43
510.42	10200.05
510.60	10090.05
510.77	10078.35
510.95	10401.34
511.12	10382.62
511.30	10370.91
511.47	10640.08
511.64	10619.01
511.82	10438.79
511.99	10087.71
512.17	10125.16
512.34	9923.87
512.51	10059.62
512.69	10178.99
512.86	10178.99
513.04	10209.42
513.21	10380.28
513.38	10092.39
513.56	9966.00
513.73	9621.94
513.90	9783.44
514.08	9593.86
514.25	10022.17
514.43	10211.76
514.60	10003.45
514.77	10113.45
514.95	10277.29
515.12	10324.10
515.29	10054.94
515.47	10415.38
515.64	10630.71
515.81	10265.59
515.99	10443.47
516.16	9905.15
516.33	9123.41
516.51	8386.14
516.68	8301.88
516.85	8383.80
517.03	8311.24
517.20	8816.80
517.37	9813.87
517.54	10061.96
517.72	9994.09
517.89	9371.50
518.06	8650.62
518.24	8746.58
518.41	9062.55
518.58	9643.01
518.75	9713.22
518.93	9834.93
519.10	9783.44
519.27	9820.89
519.45	9846.63
519.62	10314.74
519.79	10406.02
519.96	10235.16
520.14	10143.88
520.31	9799.82
520.48	9785.78
520.65	9949.62
520.83	10375.59
521.00	10335.81
521.17	10532.41
521.34	10272.61
521.52	10396.66
521.69	10335.81
521.86	10764.12
522.03	10420.06
522.20	10097.07
522.38	10022.17
522.55	9734.29
522.72	10008.13
522.89	10047.92
523.07	10160.27
523.24	9994.09
523.41	10377.94
523.58	10427.09
523.75	10771.15
523.92	10867.11
524.10	10822.64
524.27	10927.96
524.44	10562.84
524.61	10471.56
524.78	10583.90
524.96	10328.78
525.13	10499.64
525.30	10551.14
525.47	10677.52
525.64	10881.15
525.81	10700.93
525.98	10291.34
526.16	9617.26
526.33	9334.06
526.50	9228.73
526.67	8779.35
526.84	9217.03
527.01	9614.92
527.18	9858.34
527.36	10045.58
527.53	10317.08
527.70	10480.92
527.87	10399.00
528.04	10310.06
528.21	10321.76
528.38	10471.56
528.55	10747.74
528.72	10949.03
528.89	11012.22
529.07	10841.36
529.24	10560.50
529.41	10391.98
529.58	10244.52
529.75	10300.70
529.92	10389.64
530.09	10494.96
530.26	10616.67
530.43	10775.83
530.60	10827.32
530.77	10705.61
530.94	11047.33
531.11	10918.60
531.28	10672.84
531.46	10672.84
531.63	10855.40
531.80	10616.67
531.97	10466.88
532.14	10228.14
532.31	9853.66
532.48	9680.46
532.65	9659.39
532.82	9900.47
532.99	10260.91
533.16	10494.96
533.33	10721.99
533.50	10668.16
533.67	10085.37
533.84	10251.55
534.01	10115.80
534.18	10263.25
534.35	10466.88
534.52	10242.18
534.69	10626.03
534.86	10600.29
535.03	10626.03
535.20	10672.84
535.37	10902.22
535.54	10883.49
535.71	10729.02
535.88	10675.18
536.05	10721.99
536.22	10438.79
536.38	10223.46
536.55	10171.97
536.72	10263.25
536.89	9867.70
537.06	10115.80
537.23	10569.86
537.40	10698.59
537.57	10586.24
537.74	10635.39
537.91	10661.14
538.08	10518.37
538.25	10523.05
538.42	10471.56
538.59	10527.73
538.75	10394.32
538.92	10298.36
539.09	10101.75
539.26	10054.94
539.43	10120.48
539.60	10211.76
539.77	10289.00
539.94	10202.40
540.11	10026.86
540.28	9858.34
540.44	9921.53
540.61	9891.10
540.78	10310.06
540.95	10609.65
541.12	10853.06
541.29	11049.67
541.46	11049.67
541.62	11246.27
541.79	10892.85
541.96	10803.91
542.13	10724.33
542.30	11033.29
542.47	11049.67
542.63	10829.66
542.80	10562.84
542.97	10913.92
543.14	10647.10
543.31	10621.35
543.48	10829.66
543.64	11002.86
543.81	11159.67
543.98	11138.61
544.15	11330.53
544.32	10876.47
544.48	10686.89
544.65	10780.51
544.82	10913.92
544.99	11052.01
545.16	10881.15
545.32	10686.89
545.49	11653.53
545.66	12975.93
545.83	13266.16
546.00	12865.92
546.16	11637.14
546.33	11248.61
546.50	10698.59
546.67	10806.25
546.83	10707.95
547.00	10658.80
547.17	10394.32
547.34	10391.98
547.50	10160.27
547.67	10235.16
547.84	10384.96
548.00	10569.86
548.17	10396.66
548.34	10593.26
548.51	10586.24
548.67	10296.02
548.84	10534.75
549.01	10511.35
549.18	10410.70
549.34	10087.71
549.51	10501.98
549.68	10228.14
549.84	10363.89
550.01	10059.62
550.18	10338.15
550.34	10204.74
550.51	10169.63
550.68	10181.33
550.84	10118.14
551.01	10071.33
551.18	9977.70
551.34	10057.28
551.51	10094.73
551.68	10214.10
551.84	10202.40
552.01	10289.00
552.18	10223.46
552.34	9867.70
552.51	9813.87
552.68	9745.99
552.84	9839.61
553.01	9870.04
553.18	9799.82
553.34	9774.08
553.51	9912.17
553.67	10406.02
553.84	10155.58
554.01	10052.60
554.17	10108.77
554.34	9762.37
554.51	9982.38
554.67	10083.03
554.84	9928.55
555.00	10045.58
555.17	10031.54
555.33	9975.36
555.50	9928.55
555.67	9706.20
555.83	9781.10
556.00	9652.37
556.16	9727.27
556.33	9483.85
556.50	9411.29
556.66	9556.41
556.83	9383.21
556.99	9603.22
557.16	9467.47
557.32	9537.68
557.49	9563.43
557.65	9434.70
557.82	9549.39
557.98	9444.06
558.15	9312.99
558.32	9305.97
558.48	8994.68
558.65	8905.74
558.81	9172.56
558.98	9090.64
559.14	9294.27
559.31	9221.71
559.47	9228.73
559.64	9259.16
559.80	9062.55
559.97	8926.80
560.13	9469.81
560.30	9509.60
560.46	9579.81
560.63	9806.84
560.79	9687.48
560.96	9516.62
561.12	9280.22
561.29	8795.73
561.45	8912.76
561.61	9263.84
561.78	9303.63
561.94	9380.87
562.11	9441.72
562.27	9006.38
562.44	9397.25
562.60	9310.65
562.77	9334.06
562.93	9256.82
563.10	9490.87
563.26	9242.78
563.42	9476.83
563.59	9467.47
563.75	9018.08
563.92	9181.92
564.08	9034.47
564.24	9097.66
564.41	9074.26
564.57	9301.29
564.74	9142.13
564.90	9205.33
565.07	9050.85
565.23	8990.00
565.39	8723.18
565.56	8669.34
565.72	8575.72
565.88	8688.07
566.05	8786.37
566.21	8648.28
566.38	8758.28
566.54	8933.82
566.70	9121.07
566.87	9146.81
567.03	8940.85
567.19	9132.77
567.36	9085.96
567.52	8952.55
567.68	8861.27
567.85	8669.34
568.01	8498.49
568.17	8222.30
568.34	8341.67
568.50	8161.45
568.66	8124.00
568.83	8421.25
568.99	8224.64
569.15	8313.58
569.32	8325.29
569.48	8367.42
569.64	8259.75
569.81	8271.45
569.97	8255.07
570.13	8449.33
570.30	8540.61
570.46	8271.45
570.62	8145.06
570.78	8013.99
570.95	7864.20
571.11	8313.58
571.27	8161.45
571.43	8189.53
571.60	8273.79
571.76	8154.43
571.92	8411.89
572.09	8547.64
572.25	8636.58
572.41	8334.65
572.57	8149.75
572.74	8344.01
572.90	8463.38
573.06	8152.09
573.22	8379.12
573.38	8339.33
573.55	8402.52
573.71	8344.01
573.87	8360.39
574.03	8367.42
574.20	8287.84
574.36	7974.21
574.52	8264.43
574.68	8177.83
574.84	8208.26
575.01	8095.91
575.17	7962.50
575.33	7925.05
575.49	8095.91
575.65	8037.40
575.82	7878.24
575.98	7885.26
576.14	8079.53
576.30	8053.78
576.46	8278.47
576.62	8557.00
576.79	8662.32
576.95	8442.31
577.11	8210.60
577.27	8269.11
577.43	8175.49
577.59	8100.59
577.75	8133.36
577.92	7892.29
578.08	7880.58
578.24	8009.31
578.40	8081.87
578.56	8149.75
578.72	8287.84
578.88	8608.49
579.04	8425.93
579.21	8219.96
579.37	8388.48
579.53	8152.09
579.69	8025.70
579.85	8372.10
580.01	8379.12
580.17	8264.43
580.33	8264.43
580.49	8175.49
580.65	8287.84
580.82	8386.14
580.98	8266.77
581.14	8163.79
581.30	8187.19
581.46	8058.46
581.62	8116.98
581.78	8252.73
581.94	8292.52
582.10	8107.62
582.26	8290.18
582.42	8348.69
582.58	8369.76
582.74	8336.99
582.90	8306.56
583.06	8329.97
583.22	8086.55
583.38	8269.11
583.54	8102.93
583.70	8191.88
583.86	8201.24
584.02	8287.84
584.18	8329.97
584.34	8184.85
584.50	8210.60
584.66	8168.47
584.82	7943.78
584.98	7953.14
585.14	7819.73
585.30	7875.90
585.46	7585.68
585.62	7878.24
585.78	7592.70
585.94	7850.16
586.10	7796.32
586.26	7836.11
586.42	7882.92
586.58	7840.79
586.74	7885.26
586.90	7903.99
587.06	8039.74
587.22	7716.75
587.38	7733.13
587.54	7538.87
587.70	7414.82
587.86	7023.95
588.02	7035.65
588.18	6724.36
588.34	6480.94
588.49	5951.98
588.65	5769.42
588.81	5696.86
588.97	5685.16
589.13	5640.69
589.29	5710.91
589.45	5610.26
589.61	5722.61
589.77	5984.75
589.93	6134.54
590.08	6319.45
590.24	6532.44
590.40	6469.24
590.56	6466.90
590.72	6511.37
590.88	6532.44
591.04	6590.95
591.20	6717.34
591.35	6530.09
591.51	6431.79
591.67	6249.23
591.83	6270.30
591.99	6260.93
592.15	6375.62
592.31	6686.91
592.46	6766.49
592.62	6984.16
592.78	7009.90
592.94	6810.96
593.10	6820.32
593.26	7133.95
593.41	7007.56
593.57	6956.07
593.73	6581.59
593.89	6555.84
594.05	6059.65
594.20	5977.73
594.36	5996.45
594.52	6005.81
594.68	6038.58
