SpectraSuite Data File
++++++++++++++++++++++++++++++++++++
Date: Fri Oct 04 11:44:22 GMT-05:00 2013
User: price-jones
Dark Spectrum Present: No
Reference Spectrum Present: No
Number of Sampled Component Spectra: 1
Spectrometers: USB2+H05261
Integration Time (usec): 100000 (USB2+H05261)
Spectra Averaged: 1 (USB2+H05261)
Boxcar Smoothing: 0 (USB2+H05261)
Correct for Electrical Dark: No (USB2+H05261)
Strobe/Lamp Enabled: No (USB2+H05261)
Correct for Detector Non-linearity: No (USB2+H05261)
Correct for Stray Light: No (USB2+H05261)
Number of Pixels in Processed Spectrum: 2048
>>>>>Begin Processed Spectral Data<<<<<
365.73	42.13
365.92	42.13
366.12	42.13
366.32	35.11
366.52	0.00
366.72	0.00
366.91	0.00
367.11	0.00
367.31	0.00
367.51	0.00
367.70	0.00
367.90	0.00
368.10	0.00
368.30	0.00
368.49	0.00
368.69	0.00
368.89	0.00
369.09	0.00
369.28	0.00
369.48	0.00
369.68	0.00
369.87	11.70
370.07	0.00
370.27	42.13
370.47	128.73
370.66	489.17
370.86	716.20
371.06	599.18
371.25	653.01
371.45	575.77
371.65	592.16
371.84	554.71
372.04	571.09
372.24	610.88
372.44	620.24
372.63	589.82
372.83	561.73
373.03	559.39
373.22	484.49
373.42	543.00
373.62	622.58
373.81	685.78
374.01	685.78
374.21	643.65
374.40	557.05
374.60	543.00
374.79	671.73
374.99	758.33
375.19	793.44
375.38	744.29
375.58	664.71
375.78	741.95
375.97	709.18
376.17	802.80
376.37	732.59
376.56	784.08
376.76	770.04
376.95	777.06
377.15	985.37
377.35	919.83
377.54	889.40
377.74	938.55
377.93	940.90
378.13	931.53
378.33	828.55
378.52	784.08
378.72	798.12
378.91	861.32
379.11	737.27
379.31	746.63
379.50	777.06
379.70	816.85
379.89	763.01
380.09	912.81
380.28	926.85
380.48	882.38
380.68	844.93
380.87	826.21
381.07	816.85
381.26	788.76
381.46	760.67
381.65	706.84
381.85	723.23
382.04	643.65
382.24	685.78
382.43	643.65
382.63	613.22
382.83	678.76
383.02	697.48
383.22	667.05
383.41	634.29
383.61	596.84
383.80	730.25
384.00	737.27
384.19	835.57
384.39	837.91
384.58	887.06
384.78	905.79
384.97	842.59
385.17	793.44
385.36	765.36
385.56	936.21
385.75	760.67
385.95	891.74
386.14	1039.20
386.34	992.39
386.53	894.08
386.72	842.59
386.92	931.53
387.11	940.90
387.31	1008.77
387.50	898.77
387.70	908.13
387.89	880.04
388.09	880.04
388.28	877.70
388.48	875.36
388.67	1043.88
388.86	1086.01
389.06	1165.59
389.25	1069.62
389.45	1186.65
389.64	1069.62
389.84	1125.80
390.03	1100.05
390.22	1137.50
390.42	1174.95
390.61	1266.23
390.81	1254.53
391.00	1289.64
391.19	1322.40
391.39	1212.40
391.58	1193.67
391.78	1165.59
391.97	1104.73
392.16	1011.11
392.36	990.05
392.55	793.44
392.75	695.14
392.94	636.63
393.13	557.05
393.33	622.58
393.52	800.46
393.71	968.98
393.91	1006.43
394.10	1095.37
394.29	1224.10
394.49	1261.55
394.68	1359.85
394.88	1315.38
395.07	1437.09
395.26	1514.33
395.46	1350.49
395.65	1313.04
395.84	1207.72
396.04	1130.48
396.23	877.70
396.42	755.99
396.62	737.27
396.81	830.89
397.00	931.53
397.19	1191.33
397.39	1394.96
397.58	1453.47
397.77	1528.37
397.97	1579.86
398.16	1565.82
398.35	1743.70
398.55	1727.32
398.74	1764.76
398.93	1753.06
399.12	1769.44
399.32	1795.19
399.51	1778.81
399.70	1884.13
399.90	1839.66
400.09	1930.94
400.28	1853.70
400.47	1916.90
400.67	2015.20
400.86	1977.75
401.05	2019.88
401.24	2033.93
401.44	2071.37
401.63	2062.01
401.82	2029.24
402.01	1984.77
402.21	2001.16
402.40	2064.35
402.59	2036.27
402.78	2008.18
402.97	1961.37
403.17	2008.18
403.36	2092.44
403.55	2165.00
403.74	2176.70
403.93	2148.61
404.13	2097.12
404.32	2148.61
404.51	2207.13
404.70	2307.77
404.89	2057.33
405.09	2155.63
405.28	2083.08
405.47	1930.94
405.66	1994.14
405.85	1987.11
406.05	2026.90
406.24	1959.03
406.43	2071.37
406.62	2134.57
406.81	2101.80
407.00	1982.43
407.20	1996.48
407.39	1947.33
407.58	2139.25
407.77	2169.68
407.96	2300.75
408.15	2249.25
408.34	2284.36
408.54	2293.72
408.73	2319.47
408.92	2148.61
409.11	2237.55
409.30	2122.87
409.49	2019.88
409.68	1982.43
409.87	1886.47
410.07	1940.30
410.26	2167.34
410.45	2157.97
410.64	2293.72
410.83	2321.81
411.02	2326.49
411.21	2492.67
411.40	2527.78
411.59	2490.33
411.78	2480.97
411.98	2284.36
412.17	2445.86
412.36	2401.39
412.55	2324.15
412.74	2459.90
412.93	2406.07
413.12	2380.32
413.31	2574.59
413.50	2506.71
413.69	2483.31
413.88	2473.95
414.07	2487.99
414.26	2473.95
414.45	2593.31
414.64	2476.29
414.83	2548.84
415.02	2480.97
415.22	2417.77
415.41	2597.99
415.60	2642.46
415.79	2724.38
415.98	2815.66
416.17	2738.43
416.36	2663.53
416.55	2649.49
416.74	2778.22
416.93	2548.84
417.12	2471.61
417.31	2553.52
417.50	2640.12
417.69	2796.94
417.88	2663.53
418.07	2640.12
418.26	2569.91
418.45	2693.96
418.64	2712.68
418.83	2846.09
419.02	2771.19
419.21	2649.49
419.39	2562.89
419.58	2513.74
419.77	2597.99
419.96	2717.36
420.15	2768.85
420.34	2815.66
420.53	2923.33
420.72	2871.84
420.91	2953.76
421.10	2881.20
421.29	2913.97
421.48	2761.83
421.67	2836.73
421.86	2827.37
422.05	2628.42
422.24	2427.14
422.43	2431.82
422.61	2579.27
422.80	2689.28
422.99	2757.15
423.18	2630.76
423.37	2717.36
423.56	2724.38
423.75	2663.53
423.94	2754.81
424.13	2626.08
424.32	2703.32
424.50	2593.31
424.69	2509.05
424.88	2586.29
425.07	2576.93
425.26	2677.57
425.45	2586.29
425.64	2586.29
425.83	2537.14
426.01	2722.04
426.20	2829.71
426.39	2731.41
426.58	2541.82
426.77	2469.27
426.96	2359.26
427.15	2286.70
427.33	2492.67
427.52	2572.25
427.71	2658.85
427.90	2644.81
428.09	2593.31
428.28	2602.68
428.46	2455.22
428.65	2389.69
428.84	2392.03
429.03	2602.68
429.22	2263.30
429.40	2356.92
429.59	2125.21
429.78	1954.35
429.97	1895.83
430.16	1916.90
430.34	1802.21
430.53	1842.00
430.72	2015.20
430.91	2080.74
431.10	2478.63
431.28	2801.62
431.47	3009.93
431.66	3199.51
431.85	2750.13
432.03	2651.83
432.22	2623.74
432.41	2738.43
432.60	2764.17
432.79	2920.99
432.97	3035.67
433.16	2923.33
433.35	2663.53
433.54	2537.14
433.72	2377.98
433.91	2462.24
434.10	2663.53
434.28	2951.42
434.47	2937.37
434.66	3089.51
434.85	2923.33
435.03	2993.55
435.22	3461.65
435.41	4297.22
435.59	4706.82
435.78	4084.23
435.97	3602.08
436.16	3349.31
436.34	3265.05
436.53	3052.06
436.72	3267.39
436.90	3063.76
437.09	2953.76
437.28	2981.84
437.46	2885.88
437.65	2984.18
437.84	2841.41
438.02	2759.49
438.21	2588.63
438.40	2679.91
438.58	2855.45
438.77	3035.67
438.96	3030.99
439.14	3162.06
439.33	3187.81
439.52	3187.81
439.70	3253.34
439.89	3056.74
440.08	3066.10
440.26	2974.82
440.45	3241.64
440.63	3206.53
440.82	3407.82
441.01	3342.28
441.19	3246.32
441.38	3503.78
441.57	3641.87
441.75	3648.90
441.94	3574.00
442.12	3578.68
442.31	3648.90
442.50	3634.85
442.68	3485.06
442.87	3578.68
443.05	3522.51
443.24	3463.99
443.43	3693.37
443.61	3742.52
443.80	3733.15
443.98	3555.27
444.17	3496.76
444.35	3749.54
444.54	3904.01
444.73	3817.41
444.91	3684.00
445.10	3513.14
445.28	3309.52
445.47	3241.64
445.65	3300.16
445.84	3407.82
446.02	3482.72
446.21	3562.30
446.39	3634.85
446.58	3557.61
446.77	3588.04
446.95	3630.17
447.14	3777.62
447.32	3829.12
447.51	3735.50
447.69	3604.42
447.88	3588.04
448.06	3599.74
448.25	3574.00
448.43	3735.50
448.62	3583.36
448.80	3634.85
448.99	3866.56
449.17	3754.22
449.36	3693.37
449.54	3698.05
449.73	3850.18
449.91	3843.16
450.10	4018.70
450.28	4138.07
450.46	3896.99
450.65	4102.96
450.83	3988.27
451.02	3887.63
451.20	4025.72
451.39	3908.69
451.57	3875.93
451.76	3904.01
451.94	3801.03
452.13	3665.28
452.31	3660.60
452.49	3538.89
452.68	3440.59
452.86	3473.36
453.05	3688.68
453.23	3777.62
453.42	3754.22
453.60	3833.80
453.78	3995.29
453.97	3826.78
454.15	3840.82
454.34	3749.54
454.52	3632.51
454.70	3618.47
454.89	3794.01
455.07	3744.86
455.26	3817.41
455.44	3971.89
455.62	3911.04
455.81	3894.65
455.99	3990.61
456.17	3922.74
456.36	4007.00
456.54	4032.74
456.73	4060.83
456.91	4025.72
457.09	4147.43
457.28	4259.78
457.46	3922.74
457.64	4011.68
457.83	3899.33
458.01	3808.05
458.19	3817.41
458.38	3927.42
458.56	4142.75
458.74	3873.59
458.93	4046.79
459.11	4009.34
459.29	4025.72
459.48	3840.82
459.66	3878.27
459.84	3939.12
460.03	4021.04
460.21	3941.46
460.39	4163.81
460.57	4032.74
460.76	4030.40
460.94	4124.02
461.12	4126.36
461.31	4177.86
461.49	4046.79
461.67	4093.60
461.85	4224.67
462.04	4196.58
462.22	4690.43
462.40	4278.50
462.59	4149.77
462.77	4037.42
462.95	4191.90
463.13	4152.11
463.32	4208.28
463.50	4138.07
463.68	4114.66
463.86	4131.05
464.05	4163.81
464.23	4058.49
464.41	4004.66
464.59	3927.42
464.78	4105.30
464.96	3981.25
465.14	4039.76
465.32	4079.55
465.50	4166.15
465.69	4156.79
465.87	4138.07
466.05	4098.28
466.23	3859.54
466.41	3833.80
466.60	3901.67
466.78	3981.25
466.96	3957.85
467.14	4004.66
467.32	4074.87
467.51	4138.07
467.69	3946.14
467.87	4025.72
468.05	4007.00
468.23	4105.30
468.41	3941.46
468.60	4011.68
468.78	4063.17
468.96	4021.04
469.14	4028.06
469.32	3990.61
469.50	3997.64
469.69	3913.38
469.87	3964.87
470.05	3899.33
470.23	3911.04
470.41	3985.93
470.59	3962.53
470.77	3985.93
470.95	4142.75
471.14	4348.72
471.32	4002.32
471.50	4365.10
471.68	4262.12
471.86	4353.40
472.04	4318.29
472.22	4435.32
472.40	4049.13
472.58	4035.08
472.77	4051.47
472.95	4252.75
473.13	4390.84
473.31	4107.64
473.49	4166.15
473.67	4215.30
473.85	4351.06
474.03	4306.59
474.21	4353.40
474.39	4402.55
474.57	4566.39
474.75	4484.47
474.93	4507.87
475.12	4262.12
475.30	4521.92
475.48	4491.49
475.66	4496.17
475.84	4334.67
476.02	4344.03
476.20	4418.93
476.38	4397.87
476.56	4505.53
476.74	4505.53
476.92	4568.73
477.10	4622.56
477.28	4739.58
477.46	4840.23
477.64	4828.53
477.82	4877.68
478.00	4915.12
478.18	4833.21
478.36	4823.84
478.54	4800.44
478.72	4723.20
478.90	4851.93
479.08	5057.90
479.26	5060.24
479.44	5046.20
479.62	5097.69
479.80	4985.34
479.98	5107.05
480.16	5163.22
480.34	4931.51
480.52	5153.86
480.70	5193.65
480.88	5142.16
481.06	5217.05
481.24	5266.21
481.41	5308.34
481.59	5605.58
481.77	5537.71
481.95	5259.18
482.13	5373.87
482.31	5322.38
482.49	5378.55
482.67	5446.43
482.85	5497.92
483.03	5551.75
483.21	5694.52
483.39	5699.20
483.57	5530.69
483.74	5645.37
483.92	5593.88
484.10	5528.35
484.28	5715.59
484.46	5727.29
484.64	5898.15
484.82	5818.57
485.00	5664.10
485.18	5458.13
485.35	5376.21
485.53	5064.92
485.71	4575.75
485.89	4524.26
486.07	4994.70
486.25	5093.01
486.43	5516.64
486.61	5434.72
486.78	5577.50
486.96	5572.82
487.14	5778.78
487.32	5930.92
487.50	6050.28
487.68	6272.64
487.85	6300.72
488.03	6267.95
488.21	6193.06
488.39	6076.03
488.57	6022.20
488.75	5809.21
488.92	6403.71
489.10	6485.62
489.28	6738.40
489.46	6944.37
489.64	6761.81
489.81	6808.62
489.99	6717.34
490.17	6909.26
490.35	6927.99
490.53	6878.83
490.70	6726.70
490.88	6628.40
491.06	6939.69
491.24	6925.65
491.41	6665.85
491.59	6394.34
491.77	6146.25
491.95	6380.30
492.13	6565.20
492.30	6698.61
492.48	7068.42
492.66	7103.53
492.84	7215.87
493.01	7014.59
493.19	7042.67
493.37	6979.48
493.54	6693.93
493.72	7047.35
493.90	7227.57
494.08	7199.49
494.25	7620.78
494.43	7407.80
494.61	7761.22
494.79	7445.24
494.96	7456.95
495.14	7290.77
495.32	7124.59
495.49	6984.16
495.67	7389.07
495.85	7456.95
496.02	7859.52
496.20	7573.97
496.38	7513.12
496.55	7449.93
496.73	7676.96
496.91	7749.51
497.09	7831.43
497.26	7779.94
497.44	7667.60
497.62	7705.04
497.79	7440.56
497.97	7169.06
498.14	7372.69
498.32	7269.70
498.50	7555.25
498.67	7714.41
498.85	7595.04
499.03	7803.35
499.20	7981.23
499.38	7955.48
499.56	7894.63
499.73	7686.32
499.91	7588.02
500.08	7276.73
500.26	7330.56
500.44	7323.54
500.61	7566.95
500.79	7199.49
500.97	7581.00
501.14	7330.56
501.32	7183.10
501.49	7232.26
501.67	7187.79
501.84	7335.24
502.02	7632.49
502.20	7576.31
502.37	7524.82
502.55	7508.44
502.72	7655.89
502.90	7763.56
503.07	7421.84
503.25	7454.61
503.43	7122.25
503.60	7014.59
503.78	6862.45
503.95	6977.14
504.13	7447.58
504.30	7770.58
504.48	7625.47
504.65	7620.78
504.83	7688.66
505.01	7871.22
505.18	7969.52
505.36	7955.48
505.53	7981.23
505.71	8189.53
505.88	8236.35
506.06	7997.61
506.23	7726.11
506.41	7815.05
506.58	7707.38
506.76	7658.23
506.93	7840.79
507.11	7695.68
507.28	7845.48
507.46	7681.64
507.63	7616.10
507.81	7487.37
507.98	7470.99
508.16	7623.12
508.33	7871.22
508.50	7882.92
508.68	8159.11
508.85	8262.09
509.03	8287.84
509.20	7967.18
509.38	8025.70
509.55	7826.75
509.73	7885.26
509.90	8051.44
510.08	7971.86
510.25	7892.29
510.42	7999.95
510.60	8032.72
510.77	8023.36
510.95	8264.43
511.12	8140.38
511.30	8262.09
511.47	8463.38
511.64	8482.10
511.82	8180.17
511.99	8173.15
512.17	7896.97
512.34	7929.74
512.51	7866.54
512.69	7885.26
512.86	8086.55
513.04	7997.61
513.21	8056.12
513.38	7906.33
513.56	8063.15
513.73	7726.11
513.90	7756.54
514.08	7826.75
514.25	8107.62
514.43	7953.14
514.60	7918.03
514.77	8149.75
514.95	8191.88
515.12	7929.74
515.29	8100.59
515.47	8280.82
515.64	8369.76
515.81	8028.04
515.99	8023.36
516.16	7578.65
516.33	7019.27
516.51	6871.81
516.68	6614.35
516.85	6452.86
517.03	6562.86
517.20	7150.34
517.37	7707.38
517.54	7889.95
517.72	8044.42
517.89	7274.38
518.06	6546.48
518.24	6970.12
518.41	7435.88
518.58	7749.51
518.75	7510.78
518.93	7730.79
519.10	7602.06
519.27	7761.22
519.45	7906.33
519.62	8121.66
519.79	8273.79
519.96	8166.13
520.14	7971.86
520.31	8046.76
520.48	7946.12
520.65	8009.31
520.83	8133.36
521.00	8276.13
521.17	8215.28
521.34	7857.18
521.52	8259.75
521.69	8463.38
521.86	8407.20
522.03	8266.77
522.20	8086.55
522.38	7726.11
522.55	7702.70
522.72	7812.71
522.89	7903.99
523.07	8009.31
523.24	8278.47
523.41	8234.00
523.58	8264.43
523.75	8381.46
523.92	8535.93
524.10	8446.99
524.27	8444.65
524.44	8493.80
524.61	8278.47
524.78	8257.41
524.96	8425.93
525.13	8159.11
525.30	8381.46
525.47	8344.01
525.64	8559.34
525.81	8271.45
525.98	8081.87
526.16	7515.46
526.33	7318.86
526.50	7206.51
526.67	7075.44
526.84	7171.40
527.01	7452.27
527.18	7838.45
527.36	8025.70
527.53	8142.72
527.70	8454.02
527.87	8154.43
528.04	8285.50
528.21	8079.53
528.38	8287.84
528.55	8620.19
528.72	8615.51
528.89	8533.59
529.07	8725.52
529.24	8381.46
529.41	8109.96
529.58	7901.65
529.75	7936.76
529.92	8170.81
530.09	8231.66
530.26	8503.17
530.43	8564.02
530.60	8521.89
530.77	8575.72
530.94	8662.32
531.11	8638.92
531.28	8482.10
531.46	8414.23
531.63	8381.46
531.80	8339.33
531.97	8299.54
532.14	8086.55
532.31	7803.35
532.48	7470.99
532.65	7513.12
532.82	7859.52
532.99	8086.55
533.16	8339.33
533.33	8517.21
533.50	8339.33
533.67	8044.42
533.84	8133.36
534.01	8086.55
534.18	8105.28
534.35	8208.26
534.52	8280.82
534.69	8493.80
534.86	8397.84
535.03	8470.40
535.20	8505.51
535.37	8615.51
535.54	8793.39
535.71	8463.38
535.88	8837.86
536.05	8294.86
536.22	8184.85
536.38	8201.24
536.55	8009.31
536.72	7840.79
536.89	7840.79
537.06	8287.84
537.23	8287.84
537.40	8486.78
537.57	8437.63
537.74	8444.65
537.91	8362.73
538.08	8353.37
538.25	8236.35
538.42	8386.14
538.59	8451.67
538.75	8243.37
538.92	8142.72
539.09	8393.16
539.26	8102.93
539.43	8229.32
539.60	8210.60
539.77	8264.43
539.94	8250.39
540.11	8217.62
540.28	8042.08
540.44	8077.19
540.61	8166.13
540.78	8379.12
540.95	8559.34
541.12	8931.48
541.29	9130.43
541.46	9186.60
541.62	9212.35
541.79	9202.99
541.96	8938.51
542.13	8931.48
542.30	9144.47
542.47	8872.97
542.63	8727.86
542.80	8875.31
542.97	8980.64
543.14	8730.20
543.31	8568.70
543.48	8805.10
543.64	8980.64
543.81	9280.22
543.98	9032.13
544.15	8905.74
544.32	8865.95
544.48	8688.07
544.65	8840.20
544.82	8842.54
544.99	8809.78
545.16	8826.16
545.32	8901.06
545.49	9675.77
545.66	10813.28
545.83	11728.42
546.00	11272.02
546.16	9898.13
546.33	9289.59
546.50	9015.74
546.67	8997.02
546.83	8692.75
547.00	8674.03
547.17	8645.94
547.34	8081.87
547.50	8180.17
547.67	8592.11
547.84	8224.64
548.00	8549.98
548.17	8503.17
548.34	8526.57
548.51	8280.82
548.67	8468.06
548.84	8573.38
549.01	8308.90
549.18	8304.22
549.34	8245.71
549.51	8212.94
549.68	8250.39
549.84	8175.49
550.01	8131.02
550.18	8353.37
550.34	8299.54
550.51	8098.25
550.68	8273.79
550.84	7941.44
551.01	7831.43
551.18	7906.33
551.34	7857.18
551.51	8196.56
551.68	8219.96
551.84	8336.99
552.01	8297.20
552.18	8004.63
552.34	7920.37
552.51	7772.92
552.68	7714.41
552.84	7728.45
553.01	7957.82
553.18	8006.97
553.34	7824.41
553.51	7929.74
553.67	7880.58
553.84	7960.16
554.01	7927.39
554.17	7971.86
554.34	8002.29
554.51	7852.50
554.67	7925.05
554.84	8166.13
555.00	7740.15
555.17	7651.21
555.33	7845.48
555.50	7761.22
555.67	7843.14
555.83	7578.65
556.00	7480.35
556.16	7735.47
556.33	7548.23
556.50	7550.57
556.66	7487.37
556.83	7445.24
556.99	7410.14
557.16	7309.49
557.32	7454.61
557.49	7573.97
557.65	7634.83
557.82	7627.81
557.98	7618.44
558.15	7524.82
558.32	7253.32
558.48	7119.91
558.65	7054.37
558.81	7164.38
558.98	7190.13
559.14	7393.75
559.31	7248.64
559.47	7384.39
559.64	7124.59
559.80	7075.44
559.97	7325.88
560.13	7206.51
560.30	7475.67
560.46	7520.14
560.63	7641.85
560.79	7611.42
560.96	7630.15
561.12	7283.75
561.29	7080.12
561.45	7073.10
561.61	7379.71
561.78	7297.79
561.94	7438.22
562.11	7360.98
562.27	7211.19
562.44	7148.00
562.60	7382.05
562.77	7288.43
562.93	7578.65
563.10	7461.63
563.26	7325.88
563.42	7468.65
563.59	7246.30
563.75	7094.16
563.92	7321.20
564.08	7192.47
564.24	7339.92
564.41	7222.89
564.57	7222.89
564.74	7101.19
564.90	7309.49
565.07	7314.17
565.23	7021.61
565.39	6853.09
565.56	7140.97
565.72	6761.81
565.88	6869.47
566.05	6717.34
566.21	6963.09
566.38	6984.16
566.54	7073.10
566.70	7096.50
566.87	7023.95
567.03	7159.70
567.19	7225.23
567.36	7187.79
567.52	6927.99
567.68	7002.88
567.85	6892.88
568.01	6628.40
568.17	6541.80
568.34	6630.74
568.50	6679.89
568.66	6487.96
568.83	6555.84
568.99	6513.71
569.15	6593.29
569.32	6647.12
569.48	6487.96
569.64	6581.59
569.81	6579.25
569.97	6600.31
570.13	6736.06
570.30	6569.88
570.46	6511.37
570.62	6326.47
570.78	6216.46
570.95	6293.70
571.11	6448.18
571.27	6590.95
571.43	6544.14
571.60	6399.02
571.76	6403.71
571.92	6768.83
572.09	6506.69
572.25	6497.33
572.41	6586.27
572.57	6579.25
572.74	6593.29
572.90	6469.24
573.06	6670.53
573.22	6544.14
573.38	6431.79
573.55	6569.88
573.71	6492.65
573.87	6576.91
574.03	6506.69
574.20	6422.43
574.36	6417.75
574.52	6361.58
574.68	6324.13
574.84	6431.79
575.01	6387.32
575.17	6150.93
575.33	6284.34
575.49	6478.60
575.65	6506.69
575.82	6338.17
575.98	6256.25
576.14	6310.08
576.30	6525.41
576.46	6799.26
576.62	7012.24
576.79	7000.54
576.95	6691.59
577.11	6658.82
577.27	6602.65
577.43	6401.37
577.59	6427.11
577.75	6387.32
577.92	6176.67
578.08	6164.97
578.24	6146.25
578.40	6342.85
578.56	6506.69
578.72	6832.02
578.88	6682.23
579.04	6619.04
579.21	6579.25
579.37	6452.86
579.53	6455.20
579.69	6635.42
579.85	6750.10
580.01	6490.31
580.17	6602.65
580.33	6441.15
580.49	6623.72
580.65	6490.31
580.82	6513.71
580.98	6499.67
581.14	6396.68
581.30	6527.75
581.46	6380.30
581.62	6242.21
581.78	6492.65
581.94	6745.42
582.10	6527.75
582.26	6548.82
582.42	6607.33
582.58	6719.68
582.74	6595.63
582.90	6579.25
583.06	6647.12
583.22	6511.37
583.38	6476.26
583.54	6532.44
583.70	6715.00
583.86	6469.24
584.02	6516.05
584.18	6534.78
584.34	6630.74
584.50	6574.56
584.66	6354.55
584.82	6452.86
584.98	6340.51
585.14	6342.85
585.30	6424.77
585.46	6104.12
585.62	6071.35
585.78	6274.98
585.94	6193.06
586.10	6181.35
586.26	6111.14
586.42	6366.26
586.58	6408.39
586.74	6520.73
586.90	6354.55
587.06	6406.05
587.22	6338.17
587.38	6160.29
587.54	5954.32
587.70	5853.68
587.86	5673.46
588.02	5455.79
588.18	5465.15
588.34	5130.45
588.49	4772.35
588.65	4596.81
588.81	4397.87
588.97	4477.44
589.13	4404.89
589.29	4533.62
589.45	4599.15
589.61	4477.44
589.77	4737.24
589.93	5004.07
590.08	5121.09
590.24	5336.42
590.40	5205.35
590.56	5231.10
590.72	5256.84
590.88	5144.50
591.04	5144.50
591.20	5334.08
591.35	5146.84
591.51	4931.51
591.67	4975.98
591.83	5130.45
591.99	5121.09
592.15	5034.49
592.31	5366.85
592.46	5378.55
592.62	5490.90
592.78	5502.60
592.94	5657.07
593.10	5502.60
593.26	5537.71
593.41	5713.25
593.57	5558.77
593.73	5416.00
593.89	5151.52
594.05	4954.91
594.20	4823.84
594.36	4819.16
594.52	4851.93
594.68	4727.88
594.84	4947.89
594.99	5179.61
595.15	5242.80
595.31	5289.61
595.47	5308.34
595.62	5294.29
595.78	5399.62
595.94	5418.34
596.10	5425.36
596.25	5317.70
596.41	5352.81
596.57	5137.48
596.73	5277.91
596.88	5472.17
597.04	5359.83
597.20	5184.29
597.36	5184.29
597.51	5102.37
