SpectraSuite Data File
++++++++++++++++++++++++++++++++++++
Date: Fri Oct 04 11:44:17 GMT-05:00 2013
User: price-jones
Dark Spectrum Present: No
Reference Spectrum Present: No
Number of Sampled Component Spectra: 1
Spectrometers: USB2+H05261
Integration Time (usec): 100000 (USB2+H05261)
Spectra Averaged: 1 (USB2+H05261)
Boxcar Smoothing: 0 (USB2+H05261)
Correct for Electrical Dark: No (USB2+H05261)
Strobe/Lamp Enabled: No (USB2+H05261)
Correct for Detector Non-linearity: No (USB2+H05261)
Correct for Stray Light: No (USB2+H05261)
Number of Pixels in Processed Spectrum: 2048
>>>>>Begin Processed Spectral Data<<<<<
365.73	37.45
365.92	37.45
366.12	37.45
366.32	0.00
366.52	0.00
366.72	0.00
366.91	0.00
367.11	0.00
367.31	0.00
367.51	0.00
367.70	0.00
367.90	0.00
368.10	0.00
368.30	0.00
368.49	0.00
368.69	0.00
368.89	0.00
369.09	0.00
369.28	2.34
369.48	0.00
369.68	32.77
369.87	9.36
370.07	0.00
370.27	0.00
370.47	187.24
370.66	784.08
370.86	1008.77
371.06	1043.88
371.25	1057.92
371.45	901.11
371.65	922.17
371.84	849.61
372.04	849.61
372.24	1020.47
372.44	1027.50
372.63	1018.13
372.83	961.96
373.03	849.61
373.22	737.27
373.42	814.51
373.62	840.25
373.81	950.26
374.01	1062.60
374.21	931.53
374.40	844.93
374.60	945.58
374.79	938.55
374.99	1158.57
375.19	1277.93
375.38	1184.31
375.58	1137.50
375.78	1090.69
375.97	1137.50
376.17	1158.57
376.37	1144.52
376.56	1188.99
376.76	1196.01
376.95	1320.06
377.15	1369.21
377.35	1427.73
377.54	1582.20
377.74	1490.92
377.93	1619.65
378.13	1453.47
378.33	1507.30
378.52	1259.21
378.72	1385.60
378.91	1200.69
379.11	1184.31
379.31	1212.40
379.50	1224.10
379.70	1369.21
379.89	1404.32
380.09	1343.47
380.28	1500.28
380.48	1451.13
380.68	1387.94
380.87	1455.81
381.07	1406.66
381.26	1212.40
381.46	1118.78
381.65	1123.46
381.85	1142.18
382.04	1039.20
382.24	983.02
382.43	952.60
382.63	898.77
382.83	973.66
383.02	1001.75
383.22	973.66
383.41	968.98
383.61	1109.41
383.80	1153.88
384.00	1252.19
384.19	1380.92
384.39	1593.90
384.58	1458.15
384.78	1488.58
384.97	1497.94
385.17	1266.23
385.36	1397.30
385.56	1336.45
385.75	1371.55
385.95	1446.45
386.14	1495.60
386.34	1462.83
386.53	1490.92
386.72	1411.34
386.92	1390.28
387.11	1511.99
387.31	1413.68
387.50	1430.07
387.70	1378.58
387.89	1500.28
388.09	1446.45
388.28	1460.49
388.48	1420.71
388.67	1570.50
388.86	1577.52
389.06	1774.13
389.25	1895.83
389.45	1912.22
389.64	1825.62
389.84	1956.69
390.03	1816.26
390.22	1928.60
390.42	1944.99
390.61	1984.77
390.81	2127.55
391.00	2169.68
391.19	2071.37
391.39	2078.40
391.58	2019.88
391.78	1898.17
391.97	1816.26
392.16	1666.46
392.36	1593.90
392.55	1394.96
392.75	1053.24
392.94	891.74
393.13	976.00
393.33	952.60
393.52	1383.26
393.71	1521.35
393.91	1605.61
394.10	1701.57
394.29	1928.60
394.49	2052.65
394.68	2265.64
394.88	2181.38
395.07	2352.24
395.26	2249.25
395.46	2188.40
395.65	2052.65
395.84	1891.15
396.04	1610.29
396.23	1418.36
396.42	1242.82
396.62	1144.52
396.81	1231.12
397.00	1547.09
397.19	1963.71
397.39	2232.87
397.58	2565.23
397.77	2574.59
397.97	2595.65
398.16	2647.15
398.35	2843.75
398.55	2850.77
398.74	2988.86
398.93	3131.64
399.12	3112.91
399.32	2974.82
399.51	3012.27
399.70	3124.62
399.90	3098.87
400.09	3243.98
400.28	3260.37
400.47	3187.81
400.67	3283.77
400.86	3342.28
401.05	3335.26
401.24	3389.10
401.44	3445.27
401.63	3466.33
401.82	3398.46
402.01	3400.80
402.21	3478.04
402.40	3548.25
402.59	3295.47
402.78	3274.41
402.97	3232.28
403.17	3318.88
403.36	3588.04
403.55	3637.19
403.74	3674.64
403.93	3384.41
404.13	3361.01
404.32	3122.27
404.51	3208.87
404.70	3531.87
404.89	3461.65
405.09	3426.54
405.28	3220.58
405.47	3410.16
405.66	3396.12
405.85	3241.64
406.05	3190.15
406.24	3272.07
406.43	3407.82
406.62	3365.69
406.81	3499.10
407.00	3288.45
407.20	3309.52
407.39	3222.92
407.58	3454.63
407.77	3655.92
407.96	3616.13
408.15	3613.79
408.34	3730.81
408.54	3927.42
408.73	3845.50
408.92	3864.22
409.11	3698.05
409.30	3473.36
409.49	3438.25
409.68	3215.90
409.87	3141.00
410.07	3248.66
410.26	3485.06
410.45	3775.28
410.64	3742.52
410.83	3918.06
411.02	3978.91
411.21	4189.56
411.40	4028.06
411.59	4138.07
411.78	4217.65
411.98	4032.74
412.17	4072.53
412.36	4102.96
412.55	4093.60
412.74	3838.48
412.93	3983.59
413.12	3978.91
413.31	4276.16
413.50	4175.52
413.69	4248.07
413.88	4203.60
414.07	4219.99
414.26	4149.77
414.45	4241.05
414.64	4241.05
414.83	4224.67
415.02	4273.82
415.22	4236.37
415.41	4252.75
415.60	4390.84
415.79	4498.51
415.98	4704.48
416.17	4800.44
416.36	4617.88
416.55	4435.32
416.74	4505.53
416.93	4219.99
417.12	4294.88
417.31	4212.96
417.50	4231.69
417.69	4482.13
417.88	4404.89
418.07	4489.15
418.26	4498.51
418.45	4451.70
418.64	4704.48
418.83	4671.71
419.02	4594.47
419.21	4613.20
419.39	4430.63
419.58	4152.11
419.77	4215.30
419.96	4299.56
420.15	4589.79
420.34	4774.69
420.53	4870.65
420.72	5029.81
420.91	4898.74
421.10	4835.55
421.29	4936.19
421.48	4718.52
421.67	4901.08
421.86	4772.35
422.05	4376.80
422.24	3988.27
422.43	4004.66
422.61	4447.02
422.80	4634.26
422.99	4774.69
423.18	4550.00
423.37	4454.04
423.56	4409.57
423.75	4535.96
423.94	4538.30
424.13	4248.07
424.32	4437.66
424.50	4517.23
424.69	4414.25
424.88	4404.89
425.07	4355.74
425.26	4362.76
425.45	4290.20
425.64	4332.33
425.83	4215.30
426.01	4582.77
426.20	4559.36
426.39	4524.26
426.58	4252.75
426.77	4046.79
426.96	3908.69
427.15	3995.29
427.33	4191.90
427.52	4318.29
427.71	4411.91
427.90	4360.42
428.09	4290.20
428.28	4182.54
428.46	4152.11
428.65	4112.32
428.84	4161.47
429.03	4170.83
429.22	4079.55
429.40	3889.97
429.59	3527.19
429.78	3248.66
429.97	3232.28
430.16	3042.70
430.34	3150.36
430.53	3117.59
430.72	3225.26
430.91	3454.63
431.10	4044.45
431.28	4774.69
431.47	5083.64
431.66	5050.88
431.85	4858.95
432.03	4578.09
432.22	4308.93
432.41	4461.06
432.60	4601.49
432.79	5097.69
432.97	5076.62
433.16	5046.20
433.35	4669.37
433.54	4241.05
433.72	4081.89
433.91	4126.36
434.10	4430.63
434.28	4648.30
434.47	5013.43
434.66	4896.40
434.85	4896.40
435.03	4833.21
435.22	5116.41
435.41	5343.44
435.59	5563.45
435.78	5406.64
435.97	5488.56
436.16	5322.38
436.34	5584.52
436.53	5224.08
436.72	5214.71
436.90	5046.20
437.09	5069.60
437.28	4973.64
437.46	4954.91
437.65	5095.35
437.84	4711.50
438.02	4531.28
438.21	4292.54
438.40	4510.21
438.58	4863.63
438.77	4908.10
438.96	5060.24
439.14	5249.82
439.33	5294.29
439.52	5418.34
439.70	5526.00
439.89	5153.86
440.08	5245.14
440.26	5085.98
440.45	5345.78
440.63	5418.34
440.82	5966.03
441.01	5930.92
441.19	5760.06
441.38	5703.89
441.57	6169.65
441.75	6090.07
441.94	6122.84
442.12	5980.07
442.31	6113.48
442.50	6169.65
442.68	6043.26
442.87	5987.09
443.05	5809.21
443.24	5980.07
443.43	6064.33
443.61	6235.19
443.80	6335.83
443.98	6057.31
444.17	5947.30
444.35	6202.42
444.54	6417.75
444.73	6424.77
444.91	6104.12
445.10	5795.17
445.28	5383.23
445.47	5514.30
445.65	5631.33
445.84	5561.11
446.02	5839.64
446.21	5961.34
446.39	5968.37
446.58	5884.11
446.77	6260.93
446.95	6167.31
447.14	6389.66
447.32	6394.34
447.51	6324.13
447.69	6038.58
447.88	6015.18
448.06	6090.07
448.25	5980.07
448.43	6193.06
448.62	6314.77
448.80	6099.44
448.99	6153.27
449.17	6256.25
449.36	6195.40
449.54	6373.28
449.73	6630.74
449.91	6523.07
450.10	6787.55
450.28	6736.06
450.46	6871.81
450.65	6803.94
450.83	6836.70
451.02	6581.59
451.20	6558.18
451.39	6663.51
451.57	6558.18
451.76	6546.48
451.94	6658.82
452.13	6457.54
452.31	6040.92
452.49	5870.06
452.68	6101.78
452.86	5823.25
453.05	6106.46
453.23	6384.98
453.42	6511.37
453.60	6431.79
453.78	6427.11
453.97	6384.98
454.15	6352.21
454.34	6286.68
454.52	6202.42
454.70	6150.93
454.89	6274.98
455.07	6438.81
455.26	6382.64
455.44	6686.91
455.62	6768.83
455.81	6822.66
455.99	6771.17
456.17	6743.08
456.36	6516.05
456.54	6808.62
456.73	6771.17
456.91	6778.19
457.09	6949.05
457.28	7164.38
457.46	6733.72
457.64	6717.34
457.83	6656.48
458.01	6459.88
458.19	6597.97
458.38	6759.47
458.56	6796.92
458.74	6855.43
458.93	6677.55
459.11	6778.19
459.29	6670.53
459.48	6771.17
459.66	6637.76
459.84	6663.51
460.03	6780.53
460.21	6888.20
460.39	6775.85
460.57	6855.43
460.76	7002.88
460.94	6899.90
461.12	7023.95
461.31	6967.77
461.49	7000.54
461.67	7066.08
461.85	7070.76
462.04	7166.72
462.22	7405.46
462.40	7192.47
462.59	6984.16
462.77	6984.16
462.95	7068.42
463.13	7035.65
463.32	7087.14
463.50	6995.86
463.68	7000.54
463.86	6857.77
464.05	6698.61
464.23	6715.00
464.41	6640.10
464.59	6672.87
464.78	7012.24
464.96	6902.24
465.14	6792.23
465.32	6878.83
465.50	7112.89
465.69	7316.51
465.87	7066.08
466.05	6876.49
466.23	6609.67
466.41	6530.09
466.60	6626.06
466.78	6654.14
466.96	6815.64
467.14	6789.89
467.32	6717.34
467.51	6993.52
467.69	6822.66
467.87	6829.68
468.05	6853.09
468.23	6693.93
468.41	6848.41
468.60	6960.75
468.78	6813.30
468.96	6743.08
469.14	6787.55
469.32	6911.60
469.50	6647.12
469.69	6775.85
469.87	6848.41
470.05	6574.56
470.23	6747.76
470.41	6525.41
470.59	6801.60
470.77	6775.85
470.95	6640.10
471.14	7007.56
471.32	7009.90
471.50	7227.57
471.68	7248.64
471.86	7281.41
472.04	7527.16
472.22	7625.47
472.40	7115.23
472.58	7023.95
472.77	6867.13
472.95	7112.89
473.13	7529.50
473.31	7187.79
473.49	6857.77
473.67	7290.77
473.85	7419.50
474.03	7555.25
474.21	7435.88
474.39	7583.34
474.57	7655.89
474.75	7655.89
474.93	7559.93
475.12	7344.60
475.30	7421.84
475.48	7391.41
475.66	7466.31
475.84	7548.23
476.02	7391.41
476.20	7250.98
476.38	7396.09
476.56	7728.45
476.74	7683.98
476.92	7756.54
477.10	8016.33
477.28	8124.00
477.46	7932.08
477.64	8234.00
477.82	8299.54
478.00	8191.88
478.18	8114.64
478.36	7969.52
478.54	8170.81
478.72	8079.53
478.90	8407.20
479.08	8716.16
479.26	8629.56
479.44	8601.47
479.62	8564.02
479.80	8741.90
479.98	8643.60
480.16	8847.22
480.34	8812.12
480.52	8971.27
480.70	8844.88
480.88	8954.89
481.06	8842.54
481.24	9013.40
481.41	9275.54
481.59	9275.54
481.77	9280.22
481.95	9100.00
482.13	8950.21
482.31	8912.76
482.49	9153.84
482.67	9245.12
482.85	9493.21
483.03	9502.58
483.21	9701.52
483.39	9706.20
483.57	9474.49
483.74	9502.58
483.92	9394.91
484.10	9542.36
484.28	9547.05
484.46	9776.42
484.64	9750.67
484.82	9729.61
485.00	9413.63
485.18	9235.75
485.35	9214.69
485.53	8369.76
485.71	7756.54
485.89	7655.89
486.07	8006.97
486.25	8662.32
486.43	9025.11
486.61	9238.09
486.78	9104.68
486.96	9008.72
487.14	9598.54
487.32	9680.46
487.50	9975.36
487.68	10410.70
487.85	10513.69
488.03	10604.97
488.21	10691.57
488.39	10225.80
488.57	10036.22
488.75	9851.31
488.92	10494.96
489.10	10932.64
489.28	11185.42
489.46	11485.01
489.64	11501.39
489.81	11653.53
489.99	11620.76
490.17	11494.37
490.35	11714.38
490.53	11548.20
490.70	11358.62
490.88	11215.85
491.06	11515.44
491.24	11552.88
491.41	11358.62
491.59	10710.29
491.77	10415.38
491.95	10789.87
492.13	10820.30
492.30	11611.40
492.48	11981.20
492.66	12067.80
492.84	12098.23
493.01	11969.50
493.19	11990.56
493.37	11768.21
493.54	11400.75
493.72	11800.98
493.90	12250.36
494.08	12472.71
494.25	12528.89
494.43	12851.88
494.61	12933.80
494.79	12833.16
494.96	12858.90
495.14	12718.47
495.32	12393.14
495.49	11735.45
495.67	12332.28
495.85	13018.06
496.02	13050.83
496.20	12966.57
496.38	12945.50
496.55	12835.50
496.73	13029.76
496.91	13153.81
497.09	13549.36
497.26	13324.67
497.44	13341.05
497.62	12999.34
497.79	12798.05
497.97	12304.20
498.14	12161.42
498.32	12713.79
498.50	12992.31
498.67	12929.12
498.85	13181.90
499.03	13376.16
499.20	13355.10
499.38	13462.76
499.56	13650.00
499.73	13312.97
499.91	13132.75
500.08	12734.85
500.26	12290.15
500.44	12629.53
500.61	12704.43
500.79	13184.24
500.97	12608.47
501.14	12823.80
501.32	12538.25
501.49	12439.95
501.67	12418.88
501.84	12821.45
502.02	12767.62
502.20	12924.44
502.37	13046.15
502.55	13139.77
502.72	12996.99
502.90	13114.02
503.07	12945.50
503.25	12674.00
503.43	12182.49
503.60	12126.32
503.78	11651.19
503.95	11779.92
504.13	12741.88
504.30	13427.65
504.48	13153.81
504.65	13233.39
504.83	13270.84
505.01	13179.56
505.18	13359.78
505.36	13680.43
505.53	13752.99
505.71	14087.68
505.88	14118.11
506.06	13621.92
506.23	13640.64
506.41	13259.13
506.58	13465.10
506.76	13240.41
506.93	13317.65
507.11	13355.10
507.28	13511.91
507.46	13151.47
507.63	12844.86
507.81	12879.97
507.98	12798.05
508.16	13043.81
508.33	13310.63
508.50	13977.68
508.68	13886.40
508.85	14342.80
509.03	14326.42
509.20	14157.90
509.38	13858.31
509.55	13427.65
509.73	13486.17
509.90	13914.48
510.08	13968.32
510.25	13685.11
510.42	13757.67
510.60	13870.01
510.77	13853.63
510.95	14176.62
511.12	14242.16
511.30	14342.80
511.47	14572.18
511.64	14750.06
511.82	14422.38
511.99	14136.84
512.17	13865.33
512.34	13872.36
512.51	13760.01
512.69	13673.41
512.86	13792.78
513.04	14026.83
513.21	13963.64
513.38	14038.53
513.56	13682.77
513.73	13390.20
513.90	13385.52
514.08	13399.57
514.25	13631.28
514.43	13717.88
514.60	13902.78
514.77	13961.30
514.95	13935.55
515.12	13855.97
515.29	13734.26
515.47	14249.18
515.64	14221.10
515.81	14387.27
515.99	13884.06
516.16	13153.81
516.33	12065.46
516.51	11618.42
516.68	11428.84
516.85	11365.64
517.03	11365.64
517.20	12283.13
517.37	13104.66
517.54	13984.70
517.72	13561.06
517.89	12683.36
518.06	11864.18
518.24	11545.86
518.41	12683.36
518.58	12947.84
518.75	13252.11
518.93	13441.70
519.10	13540.00
519.27	13680.43
519.45	13652.34
519.62	13965.98
519.79	14167.26
519.96	14012.79
520.14	13818.52
520.31	13453.40
520.48	13312.97
520.65	13614.90
520.83	14150.88
521.00	14410.68
521.17	14097.05
521.34	14068.96
521.52	13970.66
521.69	14429.40
521.86	14590.90
522.03	14363.87
522.20	13820.86
522.38	13331.69
522.55	13324.67
522.72	13582.13
522.89	13795.12
523.07	13884.06
523.24	13731.92
523.41	14317.06
523.58	14403.66
523.75	14623.67
523.92	14740.69
524.10	14621.33
524.27	14768.78
524.44	14614.30
524.61	14312.38
524.78	14317.06
524.96	14197.69
525.13	14403.66
525.30	14345.14
525.47	14857.72
525.64	14576.86
525.81	14366.21
525.98	13762.35
526.16	13116.36
526.33	12828.48
526.50	12444.63
526.67	12250.36
526.84	12430.59
527.01	13060.19
527.18	13324.67
527.36	13593.83
527.53	14031.51
527.70	14396.64
527.87	14284.29
528.04	13886.40
528.21	13855.97
528.38	14134.50
528.55	14778.14
528.72	14808.57
528.89	15030.92
529.07	14920.92
529.24	14593.24
529.41	14092.37
529.58	13994.06
529.75	14066.62
529.92	13900.44
530.09	14345.14
530.26	14583.88
530.43	15262.63
530.60	14862.40
530.77	15075.39
530.94	15204.12
531.11	14539.41
531.28	14427.06
531.46	14743.03
531.63	14420.04
531.80	14773.46
531.97	14408.34
532.14	13895.76
532.31	13497.87
532.48	13284.88
532.65	13209.98
532.82	13350.42
532.99	13975.34
533.16	14232.80
533.33	14462.17
533.50	14436.42
533.67	14223.44
533.84	13893.42
534.01	14017.47
534.18	13898.10
534.35	14277.27
534.52	14085.34
534.69	14272.59
534.86	14401.32
535.03	14609.62
535.20	14633.03
535.37	15171.35
535.54	15005.17
535.71	14836.66
535.88	14860.06
536.05	14211.73
536.22	14214.07
536.38	14230.46
536.55	14122.79
536.72	13570.43
536.89	13432.33
537.06	13984.70
537.23	14193.01
537.40	14193.01
537.57	14530.05
537.74	14333.44
537.91	14169.60
538.08	14284.29
538.25	14406.00
538.42	14204.71
538.59	14265.57
538.75	13750.65
538.92	13923.85
539.09	14200.03
539.26	13921.51
539.43	13488.51
539.60	13774.05
539.77	13713.20
539.94	13626.60
540.11	13146.79
540.28	13090.62
540.44	13107.00
540.61	13111.68
540.78	13095.30
540.95	13284.88
541.12	13617.24
541.29	13720.22
541.46	13980.02
541.62	14118.11
541.79	13830.23
541.96	13692.13
542.13	13729.58
542.30	13820.86
542.47	14185.99
542.63	14022.15
542.80	13472.12
542.97	13727.24
543.14	13425.31
543.31	13488.51
543.48	13942.57
543.64	14331.10
543.81	14326.42
543.98	14197.69
544.15	14167.26
544.32	13928.53
544.48	13755.33
544.65	14094.71
544.82	14326.42
544.99	14171.94
545.16	13792.78
545.32	13633.62
545.49	14413.02
545.66	14853.04
545.83	14633.03
546.00	14235.14
546.16	13914.48
546.33	13898.10
546.50	13764.69
546.67	13949.59
546.83	13762.35
547.00	13642.98
547.17	13748.31
547.34	13364.46
547.50	13217.01
547.67	13338.71
547.84	13582.13
548.00	13762.35
548.17	13926.19
548.34	13645.32
548.51	14019.81
548.67	14017.47
548.84	14001.08
549.01	13888.74
549.18	13930.87
549.34	13657.03
549.51	13547.02
549.68	13638.30
549.84	13483.83
550.01	13558.72
550.18	13708.52
550.34	13624.26
550.51	13394.89
550.68	13415.95
550.84	13612.56
551.01	13448.72
551.18	13158.49
551.34	13687.45
551.51	13462.76
551.68	13565.74
551.84	13650.00
552.01	13965.98
552.18	13839.59
552.34	13277.86
552.51	13039.12
552.68	12968.91
552.84	13226.37
553.01	13277.86
553.18	13270.84
553.34	13270.84
553.51	13422.97
553.67	13654.69
553.84	13804.48
554.01	13708.52
554.17	13469.78
554.34	13748.31
554.51	13678.09
554.67	13650.00
554.84	13617.24
555.00	13783.41
555.17	13394.89
555.33	13294.24
555.50	13298.92
555.67	13479.15
555.83	13277.86
556.00	13069.55
556.16	13355.10
556.33	12879.97
556.50	12713.79
556.66	12849.54
556.83	12486.76
556.99	12807.41
557.16	13011.04
557.32	13261.48
557.49	13167.85
557.65	12938.48
557.82	13041.46
557.98	13137.43
558.15	13221.69
558.32	12299.52
558.48	12070.14
558.65	12152.06
558.81	12524.21
558.98	12479.74
559.14	12727.83
559.31	12549.95
559.47	12601.44
559.64	12437.61
559.80	12409.52
559.97	12397.82
560.13	12641.23
560.30	13060.19
560.46	13146.79
560.63	12896.35
560.79	13224.03
560.96	13315.31
561.12	12744.22
561.29	12311.22
561.45	12327.60
561.61	12468.03
561.78	12774.64
561.94	12699.75
562.11	12472.71
562.27	12568.68
562.44	12559.31
562.60	12767.62
562.77	12868.27
562.93	12812.09
563.10	12978.27
563.26	12524.21
563.42	12774.64
563.59	12400.16
563.75	12285.47
563.92	12343.99
564.08	12461.01
564.24	12556.97
564.41	12290.15
564.57	12477.40
564.74	12341.64
564.90	12566.34
565.07	12458.67
565.23	12255.04
565.39	12121.63
565.56	11744.81
565.72	11730.76
565.88	11726.08
566.05	11873.54
566.21	12016.31
566.38	12208.23
566.54	12049.08
566.70	12173.13
566.87	12503.14
567.03	12318.24
567.19	12404.84
567.36	12393.14
567.52	12145.04
567.68	11983.54
567.85	11709.70
568.01	11517.78
568.17	11293.08
568.34	11183.08
568.50	11171.38
568.66	11052.01
568.83	11187.76
568.99	11552.88
569.15	11646.51
569.32	11260.32
569.48	11246.27
569.64	11342.24
569.81	11143.29
569.97	11349.26
570.13	11367.98
570.30	11405.43
570.46	11192.44
570.62	11007.54
570.78	10902.22
570.95	10841.36
571.11	11208.83
571.27	11316.49
571.43	11211.17
571.60	11199.46
571.76	11597.35
571.92	11328.19
572.09	11236.91
572.25	11698.00
572.41	11578.63
572.57	11410.11
572.74	11623.10
572.90	11421.81
573.06	11194.78
573.22	11641.82
573.38	11410.11
573.55	11400.75
573.71	11286.06
573.87	11363.30
574.03	11103.50
574.20	11288.40
574.36	11260.32
574.52	11208.83
574.68	11080.10
574.84	10998.18
575.01	10635.39
575.17	10707.95
575.33	11171.38
575.49	11068.39
575.65	11042.65
575.82	10953.71
575.98	10729.02
576.14	10951.37
576.30	11047.33
576.46	11103.50
576.62	11403.09
576.79	11213.51
576.95	10895.19
577.11	10911.58
577.27	11166.70
577.43	11047.33
577.59	10909.24
577.75	10815.62
577.92	10504.32
578.08	10527.73
578.24	10537.09
578.40	10682.20
578.56	10874.13
578.72	10916.26
578.88	10981.79
579.04	10953.71
579.21	10834.34
579.37	11077.76
579.53	10953.71
579.69	11049.67
579.85	11054.35
580.01	11407.77
580.17	10895.19
580.33	11037.97
580.49	10841.36
580.65	11176.06
580.82	11044.99
580.98	11236.91
581.14	11087.12
581.30	10913.92
581.46	11005.20
581.62	11091.80
581.78	11192.44
581.94	11110.52
582.10	11070.73
582.26	11185.42
582.42	11199.46
582.58	11290.74
582.74	11187.76
582.90	11068.39
583.06	11052.01
583.22	10944.34
583.38	11190.10
583.54	11199.46
583.70	11133.93
583.86	11215.85
584.02	10923.28
584.18	11183.08
584.34	10897.53
584.50	11171.38
584.66	10881.15
584.82	10703.27
584.98	10614.33
585.14	10754.76
585.30	10476.24
585.46	10490.28
585.62	10150.90
585.78	10415.38
585.94	10450.49
586.10	10289.00
586.26	10698.59
586.42	10518.37
586.58	10413.04
586.74	10565.18
586.90	10366.23
587.06	10373.25
587.22	10452.83
587.38	10333.47
587.54	9905.15
587.70	9825.57
587.86	9511.94
588.02	9191.28
588.18	9111.71
588.34	8594.45
588.49	8044.42
588.65	7679.30
588.81	7456.95
588.97	7641.85
589.13	7730.79
589.29	7665.25
589.45	7604.40
589.61	7644.19
589.77	7920.37
589.93	8264.43
590.08	8624.87
590.24	8870.63
590.40	8877.65
