SpectraSuite Data File
++++++++++++++++++++++++++++++++++++
Date: Fri Oct 04 11:44:26 GMT-05:00 2013
User: price-jones
Dark Spectrum Present: No
Reference Spectrum Present: No
Number of Sampled Component Spectra: 1
Spectrometers: USB2+H05261
Integration Time (usec): 100000 (USB2+H05261)
Spectra Averaged: 1 (USB2+H05261)
Boxcar Smoothing: 0 (USB2+H05261)
Correct for Electrical Dark: No (USB2+H05261)
Strobe/Lamp Enabled: No (USB2+H05261)
Correct for Detector Non-linearity: No (USB2+H05261)
Correct for Stray Light: No (USB2+H05261)
Number of Pixels in Processed Spectrum: 2048
>>>>>Begin Processed Spectral Data<<<<<
365.73	0.00
365.92	0.00
366.12	0.00
366.32	0.00
366.52	0.00
366.72	42.13
366.91	0.00
367.11	0.00
367.31	0.00
367.51	0.00
367.70	0.00
367.90	0.00
368.10	0.00
368.30	0.00
368.49	0.00
368.69	0.00
368.89	0.00
369.09	14.04
369.28	0.00
369.48	0.00
369.68	0.00
369.87	11.70
370.07	0.00
370.27	51.49
370.47	16.38
370.66	7.02
370.86	102.98
371.06	126.39
371.25	166.18
371.45	135.75
371.65	98.30
371.84	140.43
372.04	79.58
372.24	117.03
372.44	100.64
372.63	140.43
372.83	208.31
373.03	182.56
373.22	112.35
373.42	191.92
373.62	149.79
373.81	229.37
374.01	173.20
374.21	182.56
374.40	210.65
374.60	297.25
374.79	177.88
374.99	229.37
375.19	156.82
375.38	220.01
375.58	189.58
375.78	173.20
375.97	203.63
376.17	308.95
376.37	133.41
376.56	262.14
376.76	173.20
376.95	156.82
377.15	236.39
377.35	205.97
377.54	264.48
377.74	248.10
377.93	224.69
378.13	142.77
378.33	248.10
378.52	252.78
378.72	184.90
378.91	248.10
379.11	238.73
379.31	187.24
379.50	147.45
379.70	252.78
379.89	292.57
380.09	243.42
380.28	241.08
380.48	205.97
380.68	145.11
380.87	203.63
381.07	210.65
381.26	271.50
381.46	262.14
381.65	161.50
381.85	180.22
382.04	182.56
382.24	154.48
382.43	114.69
382.63	191.92
382.83	131.07
383.02	194.26
383.22	238.73
383.41	187.24
383.61	175.54
383.80	159.16
384.00	182.56
384.19	187.24
384.39	231.71
384.58	177.88
384.78	248.10
384.97	238.73
385.17	215.33
385.36	227.03
385.56	222.35
385.75	210.65
385.95	203.63
386.14	184.90
386.34	201.29
386.53	189.58
386.72	154.48
386.92	248.10
387.11	196.60
387.31	294.91
387.50	222.35
387.70	189.58
387.89	285.55
388.09	170.86
388.28	163.84
388.48	198.95
388.67	224.69
388.86	257.46
389.06	222.35
389.25	262.14
389.45	306.61
389.64	262.14
389.84	283.20
390.03	266.82
390.22	269.16
390.42	252.78
390.61	227.03
390.81	278.52
391.00	234.05
391.19	353.42
391.39	297.25
391.58	301.93
391.78	278.52
391.97	191.92
392.16	290.23
392.36	241.08
392.55	203.63
392.75	168.52
392.94	131.07
393.13	208.31
393.33	182.56
393.52	156.82
393.71	196.60
393.91	241.08
394.10	168.52
394.29	255.12
394.49	238.73
394.68	308.95
394.88	306.61
395.07	332.36
395.26	362.78
395.46	311.29
395.65	285.55
395.84	280.86
396.04	241.08
396.23	215.33
396.42	212.99
396.62	212.99
396.81	170.86
397.00	191.92
397.19	278.52
397.39	269.16
397.58	358.10
397.77	315.97
397.97	318.31
398.16	315.97
398.35	388.53
398.55	311.29
398.74	353.42
398.93	430.66
399.12	341.72
399.32	430.66
399.51	383.85
399.70	425.98
399.90	362.78
400.09	449.38
400.28	374.49
400.47	346.40
400.67	425.98
400.86	362.78
401.05	407.25
401.24	421.30
401.44	355.76
401.63	388.53
401.82	402.57
402.01	339.38
402.21	451.72
402.40	442.36
402.59	374.49
402.78	411.93
402.97	407.25
403.17	327.68
403.36	465.77
403.55	482.15
403.74	442.36
403.93	425.98
404.13	423.64
404.32	379.17
404.51	498.53
404.70	416.62
404.89	418.96
405.09	386.19
405.28	440.02
405.47	449.38
405.66	437.68
405.85	409.59
406.05	358.10
406.24	393.21
406.43	477.47
406.62	470.45
406.81	470.45
407.00	437.68
407.20	458.74
407.39	395.55
407.58	479.81
407.77	493.85
407.96	451.72
408.15	451.72
408.34	437.68
408.54	521.94
408.73	496.19
408.92	479.81
409.11	465.77
409.30	503.22
409.49	433.00
409.68	369.80
409.87	433.00
410.07	381.51
410.26	440.02
410.45	404.91
410.64	507.90
410.83	538.32
411.02	461.09
411.21	477.47
411.40	514.92
411.59	449.38
411.78	512.58
411.98	468.11
412.17	456.40
412.36	477.47
412.55	423.64
412.74	507.90
412.93	500.87
413.12	416.62
413.31	519.60
413.50	503.22
413.69	533.64
413.88	500.87
414.07	477.47
414.26	526.62
414.45	533.64
414.64	554.71
414.83	489.17
415.02	493.85
415.22	479.81
415.41	568.75
415.60	465.77
415.79	505.56
415.98	568.75
416.17	512.58
416.36	528.96
416.55	505.56
416.74	571.09
416.93	465.77
417.12	463.43
417.31	454.06
417.50	512.58
417.69	596.84
417.88	461.09
418.07	557.05
418.26	545.34
418.45	470.45
418.64	559.39
418.83	500.87
419.02	503.22
419.21	557.05
419.39	486.83
419.58	472.79
419.77	486.83
419.96	568.75
420.15	601.52
420.34	507.90
420.53	545.34
420.72	582.79
420.91	554.71
421.10	589.82
421.29	617.90
421.48	533.64
421.67	585.13
421.86	561.73
422.05	561.73
422.24	514.92
422.43	540.66
422.61	561.73
422.80	517.26
422.99	519.60
423.18	571.09
423.37	610.88
423.56	479.81
423.75	606.20
423.94	517.26
424.13	547.69
424.32	521.94
424.50	496.19
424.69	425.98
424.88	557.05
425.07	550.03
425.26	498.53
425.45	535.98
425.64	573.43
425.83	533.64
426.01	514.92
426.20	496.19
426.39	533.64
426.58	519.60
426.77	517.26
426.96	561.73
427.15	496.19
427.33	505.56
427.52	582.79
427.71	519.60
427.90	552.37
428.09	500.87
428.28	521.94
428.46	454.06
428.65	510.24
428.84	566.41
429.03	514.92
429.22	528.96
429.40	442.36
429.59	486.83
429.78	444.70
429.97	409.59
430.16	393.21
430.34	397.89
430.53	421.30
430.72	428.32
430.91	423.64
431.10	444.70
431.28	526.62
431.47	557.05
431.66	631.94
431.85	517.26
432.03	564.07
432.22	592.16
432.41	482.15
432.60	552.37
432.79	552.37
432.97	624.92
433.16	547.69
433.35	601.52
433.54	512.58
433.72	423.64
433.91	547.69
434.10	491.51
434.28	535.98
434.47	638.97
434.66	585.13
434.85	657.69
435.03	692.80
435.22	809.83
435.41	964.30
435.59	898.77
435.78	823.87
435.97	688.12
436.16	624.92
436.34	589.82
436.53	650.67
436.72	610.88
436.90	599.18
437.09	580.45
437.28	587.47
437.46	578.11
437.65	603.86
437.84	592.16
438.02	617.90
438.21	505.56
438.40	477.47
438.58	517.26
438.77	535.98
438.96	524.28
439.14	603.86
439.33	608.54
439.52	617.90
439.70	582.79
439.89	627.26
440.08	636.63
440.26	535.98
440.45	641.31
440.63	594.50
440.82	795.78
441.01	739.61
441.19	681.10
441.38	695.14
441.57	739.61
441.75	720.88
441.94	737.27
442.12	596.84
442.31	674.07
442.50	699.82
442.68	685.78
442.87	620.24
443.05	690.46
443.24	711.52
443.43	779.40
443.61	734.93
443.80	681.10
443.98	653.01
444.17	671.73
444.35	699.82
444.54	725.57
444.73	692.80
444.91	664.71
445.10	589.82
445.28	596.84
445.47	676.41
445.65	650.67
445.84	657.69
446.02	545.34
446.21	596.84
446.39	608.54
446.58	732.59
446.77	779.40
446.95	709.18
447.14	704.50
447.32	791.10
447.51	755.99
447.69	777.06
447.88	657.69
448.06	755.99
448.25	676.41
448.43	718.54
448.62	683.44
448.80	709.18
448.99	695.14
449.17	725.57
449.36	692.80
449.54	739.61
449.73	697.48
449.91	685.78
450.10	760.67
450.28	880.04
450.46	765.36
450.65	755.99
450.83	734.93
451.02	732.59
451.20	727.91
451.39	763.01
451.57	678.76
451.76	746.63
451.94	664.71
452.13	716.20
452.31	678.76
452.49	690.46
452.68	634.29
452.86	709.18
453.05	718.54
453.23	720.88
453.42	723.23
453.60	802.80
453.78	683.44
453.97	751.31
454.15	755.99
454.34	758.33
454.52	716.20
454.70	758.33
454.89	695.14
455.07	800.46
455.26	655.35
455.44	753.65
455.62	734.93
455.81	781.74
455.99	732.59
456.17	763.01
456.36	763.01
456.54	730.25
456.73	760.67
456.91	671.73
457.09	770.04
457.28	837.91
457.46	772.38
457.64	730.25
457.83	706.84
458.01	725.57
458.19	765.36
458.38	704.50
458.56	952.60
458.74	809.83
458.93	791.10
459.11	847.27
459.29	816.85
459.48	744.29
459.66	791.10
459.84	758.33
460.03	901.11
460.21	819.19
460.39	755.99
460.57	793.44
460.76	835.57
460.94	781.74
461.12	882.38
461.31	805.14
461.49	770.04
461.67	650.67
461.85	777.06
462.04	774.72
462.22	1196.01
462.40	821.53
462.59	800.46
462.77	854.30
462.95	821.53
463.13	844.93
463.32	814.51
463.50	723.23
463.68	842.59
463.86	788.76
464.05	765.36
464.23	763.01
464.41	880.04
464.59	755.99
464.78	760.67
464.96	727.91
465.14	727.91
465.32	772.38
465.50	840.25
465.69	807.48
465.87	758.33
466.05	826.21
466.23	690.46
466.41	723.23
466.60	727.91
466.78	772.38
466.96	854.30
467.14	767.70
467.32	791.10
467.51	760.67
467.69	791.10
467.87	786.42
468.05	802.80
468.23	849.61
468.41	767.70
468.60	709.18
468.78	702.16
468.96	767.70
469.14	805.14
469.32	847.27
469.50	788.76
469.69	770.04
469.87	706.84
470.05	809.83
470.23	772.38
470.41	699.82
470.59	774.72
470.77	716.20
470.95	763.01
471.14	753.65
471.32	781.74
471.50	847.27
471.68	809.83
471.86	844.93
472.04	788.76
472.22	870.68
472.40	777.06
472.58	765.36
472.77	814.51
472.95	821.53
473.13	856.64
473.31	821.53
473.49	821.53
473.67	821.53
473.85	882.38
474.03	812.17
474.21	870.68
474.39	866.00
474.57	856.64
474.75	779.40
474.93	795.78
475.12	795.78
475.30	772.38
475.48	861.32
475.66	830.89
475.84	833.23
476.02	814.51
476.20	760.67
476.38	889.40
476.56	866.00
476.74	889.40
476.92	795.78
477.10	926.85
477.28	929.19
477.46	945.58
477.64	814.51
477.82	943.24
478.00	891.74
478.18	870.68
478.36	793.44
478.54	901.11
478.72	891.74
478.90	1022.81
479.08	936.21
479.26	971.32
479.44	1025.15
479.62	926.85
479.80	952.60
479.98	940.90
480.16	968.98
480.34	990.05
480.52	994.73
480.70	954.94
480.88	992.39
481.06	954.94
481.24	1013.45
481.41	917.49
481.59	1060.26
481.77	1086.01
481.95	1018.13
482.13	1067.28
482.31	1043.88
482.49	1048.56
482.67	1022.81
482.85	999.41
483.03	1132.82
483.21	1046.22
483.39	1053.24
483.57	1015.79
483.74	1064.94
483.92	1020.47
484.10	978.34
484.28	1039.20
484.46	1165.59
484.64	1118.78
484.82	1048.56
485.00	957.28
485.18	1123.46
485.35	1015.79
485.53	1020.47
485.71	854.30
485.89	898.77
486.07	931.53
486.25	1053.24
486.43	1032.18
486.61	1053.24
486.78	1135.16
486.96	1053.24
487.14	1071.97
487.32	1123.46
487.50	1109.41
487.68	1219.42
487.85	1100.05
488.03	1233.46
488.21	1165.59
488.39	1139.84
488.57	1086.01
488.75	1095.37
488.92	1378.58
489.10	1172.61
489.28	1315.38
489.46	1336.45
489.64	1172.61
489.81	1277.93
489.99	1296.66
490.17	1226.44
490.35	1336.45
490.53	1306.02
490.70	1231.12
490.88	1233.46
491.06	1303.68
491.24	1277.93
491.41	1397.30
491.59	1277.93
491.77	1118.78
491.95	1219.42
492.13	1165.59
492.30	1416.02
492.48	1317.72
492.66	1338.79
492.84	1299.00
493.01	1378.58
493.19	1275.59
493.37	1310.70
493.54	1336.45
493.72	1303.68
493.90	1320.06
494.08	1345.81
494.25	1392.62
494.43	1521.35
494.61	1376.24
494.79	1359.85
494.96	1352.83
495.14	1411.34
495.32	1383.26
495.49	1282.61
495.67	1469.86
495.85	1430.07
496.02	1488.58
496.20	1380.92
496.38	1441.77
496.55	1401.98
496.73	1476.88
496.91	1460.49
497.09	1399.64
497.26	1500.28
497.44	1444.11
497.62	1397.30
497.79	1406.66
497.97	1378.58
498.14	1366.87
498.32	1399.64
498.50	1434.75
498.67	1420.71
498.85	1451.13
499.03	1444.11
499.20	1413.68
499.38	1474.54
499.56	1434.75
499.73	1483.90
499.91	1427.73
500.08	1385.60
500.26	1310.70
500.44	1394.96
500.61	1439.43
500.79	1425.39
500.97	1427.73
501.14	1481.56
501.32	1331.76
501.49	1277.93
501.67	1380.92
501.84	1359.85
502.02	1448.79
502.20	1481.56
502.37	1399.64
502.55	1446.45
502.72	1425.39
502.90	1551.78
503.07	1521.35
503.25	1458.15
503.43	1385.60
503.60	1371.55
503.78	1376.24
503.95	1315.38
504.13	1313.04
504.30	1409.00
504.48	1425.39
504.65	1455.81
504.83	1423.05
505.01	1516.67
505.18	1591.56
505.36	1444.11
505.53	1486.24
505.71	1610.29
505.88	1652.42
506.06	1530.71
506.23	1483.90
506.41	1469.86
506.58	1437.09
506.76	1430.07
506.93	1460.49
507.11	1483.90
507.28	1500.28
507.46	1472.20
507.63	1486.24
507.81	1359.85
507.98	1495.60
508.16	1413.68
508.33	1540.07
508.50	1614.97
508.68	1605.61
508.85	1624.33
509.03	1575.18
509.20	1474.54
509.38	1500.28
509.55	1500.28
509.73	1565.82
509.90	1570.50
510.08	1467.52
510.25	1654.76
510.42	1526.03
510.60	1558.80
510.77	1542.41
510.95	1563.48
511.12	1472.20
511.30	1722.63
511.47	1715.61
511.64	1668.80
511.82	1591.56
511.99	1542.41
512.17	1467.52
512.34	1493.26
512.51	1511.99
512.69	1544.75
512.86	1631.35
513.04	1603.27
513.21	1659.44
513.38	1430.07
513.56	1540.07
513.73	1497.94
513.90	1430.07
514.08	1439.43
514.25	1507.30
514.43	1650.08
514.60	1579.86
514.77	1614.97
514.95	1607.95
515.12	1563.48
515.29	1631.35
515.47	1568.16
515.64	1720.29
515.81	1781.15
515.99	1610.29
516.16	1535.39
516.33	1551.78
516.51	1404.32
516.68	1294.32
516.85	1287.29
517.03	1352.83
517.20	1441.77
517.37	1654.76
517.54	1732.00
517.72	1514.33
517.89	1544.75
518.06	1296.66
518.24	1411.34
518.41	1516.67
518.58	1563.48
518.75	1514.33
518.93	1535.39
519.10	1554.12
519.27	1696.89
519.45	1664.12
519.62	1600.93
519.79	1631.35
519.96	1654.76
520.14	1610.29
520.31	1715.61
520.48	1607.95
520.65	1629.01
520.83	1624.33
521.00	1657.10
521.17	1561.14
521.34	1732.00
521.52	1664.12
521.69	1736.68
521.86	1776.47
522.03	1626.67
522.20	1631.35
522.38	1537.73
522.55	1619.65
522.72	1664.12
522.89	1530.71
523.07	1589.22
523.24	1710.93
523.41	1696.89
523.58	1760.08
523.75	1790.51
523.92	1741.36
524.10	1739.02
524.27	1720.29
524.44	1685.19
524.61	1842.00
524.78	1645.40
524.96	1750.72
525.13	1678.16
525.30	1795.19
525.47	1734.34
525.64	1764.76
525.81	1699.23
525.98	1600.93
526.16	1584.54
526.33	1455.81
526.50	1565.82
526.67	1472.20
526.84	1488.58
527.01	1645.40
527.18	1636.03
527.36	1626.67
527.53	1699.23
527.70	1703.91
527.87	1685.19
528.04	1657.10
528.21	1671.14
528.38	1699.23
528.55	1902.86
528.72	1865.41
528.89	1877.11
529.07	1830.30
529.24	1783.49
529.41	1699.23
529.58	1706.25
529.75	1722.63
529.92	1750.72
530.09	1846.68
530.26	1872.43
530.43	1874.77
530.60	1865.41
530.77	1788.17
530.94	1806.89
531.11	1851.36
531.28	1755.40
531.46	1732.00
531.63	1804.55
531.80	1790.51
531.97	1682.85
532.14	1696.89
532.31	1727.32
532.48	1675.82
532.65	1610.29
532.82	1668.80
532.99	1689.87
533.16	1872.43
533.33	1877.11
533.50	1785.83
533.67	1776.47
533.84	1720.29
534.01	1760.08
534.18	1757.74
534.35	1837.32
534.52	1650.08
534.69	1827.96
534.86	1797.53
535.03	1849.02
535.20	1846.68
535.37	2010.52
535.54	2003.50
535.71	1900.52
535.88	1909.88
536.05	1760.08
536.22	1816.26
536.38	1806.89
536.55	1823.28
536.72	1888.81
536.89	1689.87
537.06	1818.60
537.23	1729.66
537.40	1816.26
537.57	1778.81
537.74	1872.43
537.91	1909.88
538.08	1809.23
538.25	1930.94
538.42	1944.99
538.59	1792.85
538.75	1652.42
538.92	1743.70
539.09	1825.62
539.26	1746.04
539.43	1825.62
539.60	1853.70
539.77	1781.15
539.94	1895.83
540.11	1797.53
540.28	1863.07
540.44	1846.68
540.61	1774.13
540.78	1764.76
540.95	1928.60
541.12	2008.18
541.29	1968.39
541.46	2078.40
541.62	2064.35
541.79	1994.14
541.96	1952.01
542.13	2076.06
542.30	2038.61
542.47	2031.58
542.63	1996.48
542.80	2038.61
542.97	2064.35
543.14	1919.24
543.31	2038.61
543.48	1942.64
543.64	2183.72
543.81	2071.37
543.98	2087.76
544.15	2069.03
544.32	2022.22
544.48	1991.80
544.65	1923.92
544.82	1959.03
544.99	2026.90
545.16	2019.88
545.32	2001.16
545.49	2401.39
545.66	2553.52
545.83	2708.00
546.00	2497.35
546.16	2333.51
546.33	2153.29
546.50	2146.27
546.67	2047.97
546.83	1947.33
547.00	1954.35
547.17	1762.42
547.34	1856.04
547.50	1963.71
547.67	1905.20
547.84	1762.42
548.00	1952.01
548.17	1825.62
548.34	1968.39
548.51	2083.08
548.67	2001.16
548.84	1940.30
549.01	2012.86
549.18	1970.73
549.34	1741.36
549.51	1888.81
549.68	1834.98
549.84	1832.64
550.01	1755.40
550.18	1989.46
550.34	1898.17
550.51	1774.13
550.68	1825.62
550.84	1825.62
551.01	1816.26
551.18	1818.60
551.34	1757.74
551.51	1834.98
551.68	1813.92
551.84	1760.08
552.01	1755.40
552.18	1757.74
552.34	1741.36
552.51	1816.26
552.68	1858.39
552.84	1729.66
553.01	1776.47
553.18	1703.91
553.34	1746.04
553.51	1809.23
553.67	1778.81
553.84	1919.24
554.01	1853.70
554.17	1832.64
554.34	1750.72
554.51	1682.85
554.67	1886.47
554.84	1764.76
555.00	1675.82
555.17	1755.40
555.33	1820.94
555.50	1778.81
555.67	1724.97
555.83	1734.34
556.00	1664.12
556.16	1851.36
556.33	1652.42
556.50	1736.68
556.66	1685.19
556.83	1673.48
556.99	1703.91
557.16	1729.66
557.32	1680.50
557.49	1774.13
557.65	1645.40
557.82	1636.03
557.98	1713.27
558.15	1671.14
558.32	1685.19
558.48	1647.74
558.65	1584.54
558.81	1591.56
558.98	1661.78
559.14	1652.42
559.31	1741.36
559.47	1732.00
559.64	1617.31
559.80	1593.90
559.97	1621.99
560.13	1654.76
560.30	1607.95
560.46	1727.32
560.63	1710.93
560.79	1809.23
560.96	1671.14
561.12	1657.10
561.29	1607.95
561.45	1528.37
561.61	1757.74
561.78	1795.19
561.94	1629.01
562.11	1685.19
562.27	1652.42
562.44	1664.12
562.60	1724.97
562.77	1741.36
562.93	1652.42
563.10	1682.85
563.26	1666.46
563.42	1671.14
563.59	1621.99
563.75	1603.27
563.92	1724.97
564.08	1575.18
564.24	1685.19
564.41	1696.89
564.57	1645.40
564.74	1612.63
564.90	1673.48
565.07	1666.46
565.23	1647.74
565.39	1563.48
565.56	1497.94
565.72	1488.58
565.88	1593.90
566.05	1540.07
566.21	1446.45
566.38	1577.52
566.54	1629.01
566.70	1617.31
566.87	1654.76
567.03	1694.55
567.19	1605.61
567.36	1593.90
567.52	1600.93
567.68	1636.03
567.85	1561.14
568.01	1504.96
568.17	1460.49
568.34	1558.80
568.50	1521.35
568.66	1490.92
568.83	1554.12
568.99	1528.37
569.15	1528.37
569.32	1427.73
569.48	1516.67
569.64	1497.94
569.81	1591.56
569.97	1568.16
570.13	1589.22
570.30	1509.65
570.46	1537.73
570.62	1338.79
570.78	1446.45
570.95	1448.79
571.11	1446.45
571.27	1556.46
571.43	1437.09
571.60	1462.83
571.76	1521.35
571.92	1502.62
572.09	1521.35
572.25	1600.93
572.41	1523.69
572.57	1437.09
572.74	1444.11
572.90	1467.52
573.06	1500.28
573.22	1439.43
573.38	1516.67
573.55	1427.73
573.71	1448.79
573.87	1533.05
574.03	1458.15
574.20	1500.28
574.36	1479.22
574.52	1547.09
574.68	1418.36
574.84	1409.00
575.01	1439.43
575.17	1406.66
575.33	1394.96
575.49	1540.07
575.65	1514.33
575.82	1444.11
575.98	1448.79
576.14	1387.94
576.30	1598.59
576.46	1603.27
576.62	1603.27
576.79	1636.03
576.95	1488.58
577.11	1554.12
577.27	1455.81
577.43	1591.56
577.59	1493.26
577.75	1406.66
577.92	1416.02
578.08	1469.86
578.24	1404.32
578.40	1600.93
578.56	1593.90
578.72	1621.99
578.88	1596.25
579.04	1479.22
579.21	1474.54
579.37	1579.86
579.53	1500.28
579.69	1526.03
579.85	1427.73
580.01	1563.48
580.17	1528.37
580.33	1488.58
580.49	1610.29
580.65	1582.20
580.82	1460.49
580.98	1486.24
581.14	1373.89
581.30	1502.62
581.46	1432.41
581.62	1528.37
581.78	1568.16
581.94	1511.99
582.10	1540.07
582.26	1526.03
582.42	1465.18
582.58	1549.43
582.74	1528.37
582.90	1493.26
583.06	1514.33
583.22	1462.83
583.38	1568.16
583.54	1572.84
583.70	1544.75
583.86	1432.41
584.02	1451.13
584.18	1554.12
584.34	1549.43
584.50	1526.03
584.66	1526.03
584.82	1430.07
584.98	1568.16
585.14	1416.02
585.30	1476.88
585.46	1334.11
585.62	1425.39
585.78	1418.36
585.94	1345.81
586.10	1554.12
586.26	1348.15
586.42	1556.46
586.58	1439.43
586.74	1462.83
586.90	1474.54
587.06	1488.58
587.22	1455.81
587.38	1516.67
587.54	1437.09
587.70	1397.30
587.86	1287.29
588.02	1212.40
588.18	1252.19
588.34	1196.01
588.49	1116.44
588.65	1022.81
588.81	1062.60
588.97	1057.92
589.13	1022.81
589.29	1060.26
589.45	1081.33
589.61	1053.24
589.77	1078.99
589.93	1219.42
590.08	1207.72
590.24	1252.19
590.40	1160.91
590.56	1270.91
590.72	1306.02
590.88	1226.44
591.04	1207.72
591.20	1282.61
591.35	1240.48
591.51	1226.44
591.67	1165.59
591.83	1238.14
591.99	1121.12
592.15	1188.99
592.31	1315.38
592.46	1219.42
592.62	1301.34
592.78	1273.25
592.94	1369.21
593.10	1268.57
593.26	1338.79
593.41	1439.43
593.57	1217.08
593.73	1273.25
593.89	1191.33
594.05	1247.51
594.20	1130.48
594.36	1137.50
594.52	990.05
594.68	1097.71
594.84	1196.01
594.99	1217.08
595.15	1256.87
595.31	1263.89
595.47	1245.16
595.62	1151.54
595.78	1308.36
595.94	1109.41
596.10	1266.23
596.25	1270.91
596.41	1151.54
596.57	1146.86
596.73	1217.08
596.88	1268.57
597.04	1247.51
597.20	1123.46
597.36	1224.10
597.51	1224.10
597.67	1165.59
597.83	1179.63
597.99	1252.19
598.14	1231.12
598.30	1273.25
598.46	1172.61
598.61	1273.25
598.77	1240.48
598.93	1306.02
599.09	1252.19
599.24	1291.98
599.40	1366.87
599.56	1329.42
599.71	1322.40
599.87	1270.91
600.03	1219.42
600.18	1266.23
600.34	1245.16
600.50	1231.12
600.65	1252.19
600.81	1233.46
600.97	1228.78
601.12	1301.34
601.28	1282.61
601.44	1198.35
601.59	1291.98
601.75	1219.42
601.91	1263.89
602.06	1247.51
602.22	1245.16
602.37	1287.29
602.53	1324.74
602.69	1331.76
