SpectraSuite Data File
++++++++++++++++++++++++++++++++++++
Date: Fri Oct 04 11:44:21 GMT-05:00 2013
User: price-jones
Dark Spectrum Present: No
Reference Spectrum Present: No
Number of Sampled Component Spectra: 1
Spectrometers: USB2+H05261
Integration Time (usec): 100000 (USB2+H05261)
Spectra Averaged: 1 (USB2+H05261)
Boxcar Smoothing: 0 (USB2+H05261)
Correct for Electrical Dark: No (USB2+H05261)
Strobe/Lamp Enabled: No (USB2+H05261)
Correct for Detector Non-linearity: No (USB2+H05261)
Correct for Stray Light: No (USB2+H05261)
Number of Pixels in Processed Spectrum: 2048
>>>>>Begin Processed Spectral Data<<<<<
365.73	16.38
365.92	16.38
366.12	16.38
366.32	0.00
366.52	0.00
366.72	0.00
366.91	0.00
367.11	0.00
367.31	0.00
367.51	0.00
367.70	0.00
367.90	0.00
368.10	0.00
368.30	0.00
368.49	0.00
368.69	14.04
368.89	0.00
369.09	0.00
369.28	9.36
369.48	0.00
369.68	0.00
369.87	0.00
370.07	0.00
370.27	37.45
370.47	23.41
370.66	25.75
370.86	79.58
371.06	154.48
371.25	124.05
371.45	70.22
371.65	49.15
371.84	81.92
372.04	86.60
372.24	39.79
372.44	107.66
372.63	131.07
372.83	177.88
373.03	149.79
373.22	63.19
373.42	145.11
373.62	126.39
373.81	168.52
374.01	166.18
374.21	119.37
374.40	88.94
374.60	149.79
374.79	128.73
374.99	93.62
375.19	133.41
375.38	128.73
375.58	152.13
375.78	187.24
375.97	138.09
376.17	220.01
376.37	107.66
376.56	161.50
376.76	114.69
376.95	133.41
377.15	229.37
377.35	205.97
377.54	177.88
377.74	119.37
377.93	227.03
378.13	152.13
378.33	205.97
378.52	147.45
378.72	196.60
378.91	74.90
379.11	147.45
379.31	72.56
379.50	112.35
379.70	138.09
379.89	222.35
380.09	135.75
380.28	170.86
380.48	161.50
380.68	140.43
380.87	95.96
381.07	163.84
381.26	147.45
381.46	112.35
381.65	159.16
381.85	133.41
382.04	110.01
382.24	191.92
382.43	110.01
382.63	142.77
382.83	93.62
383.02	133.41
383.22	180.22
383.41	112.35
383.61	142.77
383.80	142.77
384.00	159.16
384.19	224.69
384.39	84.26
384.58	182.56
384.78	161.50
384.97	173.20
385.17	63.19
385.36	154.48
385.56	182.56
385.75	159.16
385.95	163.84
386.14	142.77
386.34	159.16
386.53	138.09
386.72	135.75
386.92	194.26
387.11	198.95
387.31	149.79
387.50	102.98
387.70	121.71
387.89	124.05
388.09	140.43
388.28	149.79
388.48	175.54
388.67	135.75
388.86	191.92
389.06	177.88
389.25	128.73
389.45	114.69
389.64	154.48
389.84	191.92
390.03	168.52
390.22	215.33
390.42	107.66
390.61	182.56
390.81	93.62
391.00	217.67
391.19	173.20
391.39	196.60
391.58	208.31
391.78	170.86
391.97	121.71
392.16	49.15
392.36	110.01
392.55	105.32
392.75	131.07
392.94	81.92
393.13	95.96
393.33	142.77
393.52	149.79
393.71	147.45
393.91	208.31
394.10	81.92
394.29	184.90
394.49	205.97
394.68	191.92
394.88	250.44
395.07	180.22
395.26	203.63
395.46	170.86
395.65	187.24
395.84	154.48
396.04	220.01
396.23	205.97
396.42	170.86
396.62	110.01
396.81	98.30
397.00	135.75
397.19	238.73
397.39	208.31
397.58	238.73
397.77	208.31
397.97	182.56
398.16	135.75
398.35	196.60
398.55	264.48
398.74	273.84
398.93	201.29
399.12	156.82
399.32	227.03
399.51	168.52
399.70	245.76
399.90	212.99
400.09	241.08
400.28	262.14
400.47	203.63
400.67	212.99
400.86	318.31
401.05	285.55
401.24	238.73
401.44	238.73
401.63	215.33
401.82	257.46
402.01	229.37
402.21	248.10
402.40	269.16
402.59	252.78
402.78	243.42
402.97	170.86
403.17	245.76
403.36	224.69
403.55	215.33
403.74	278.52
403.93	449.38
404.13	564.07
404.32	571.09
404.51	475.13
404.70	430.66
404.89	320.65
405.09	283.20
405.28	205.97
405.47	259.80
405.66	220.01
405.85	280.86
406.05	264.48
406.24	184.90
406.43	262.14
406.62	215.33
406.81	252.78
407.00	269.16
407.20	248.10
407.39	273.84
407.58	245.76
407.77	273.84
407.96	311.29
408.15	262.14
408.34	217.67
408.54	234.05
408.73	245.76
408.92	227.03
409.11	250.44
409.30	212.99
409.49	182.56
409.68	210.65
409.87	208.31
410.07	245.76
410.26	280.86
410.45	215.33
410.64	313.63
410.83	241.08
411.02	322.99
411.21	367.46
411.40	301.93
411.59	299.59
411.78	231.71
411.98	255.12
412.17	320.65
412.36	313.63
412.55	191.92
412.74	245.76
412.93	292.57
413.12	241.08
413.31	306.61
413.50	238.73
413.69	301.93
413.88	390.87
414.07	276.18
414.26	351.08
414.45	243.42
414.64	330.02
414.83	292.57
415.02	308.95
415.22	299.59
415.41	271.50
415.60	224.69
415.79	266.82
415.98	372.15
416.17	280.86
416.36	299.59
416.55	278.52
416.74	299.59
416.93	376.83
417.12	280.86
417.31	266.82
417.50	276.18
417.69	264.48
417.88	337.04
418.07	280.86
418.26	292.57
418.45	320.65
418.64	440.02
418.83	367.46
419.02	229.37
419.21	299.59
419.39	318.31
419.58	217.67
419.77	259.80
419.96	358.10
420.15	330.02
420.34	346.40
420.53	301.93
420.72	276.18
420.91	315.97
421.10	344.06
421.29	395.55
421.48	283.20
421.67	278.52
421.86	245.76
422.05	276.18
422.24	283.20
422.43	285.55
422.61	224.69
422.80	248.10
422.99	369.80
423.18	255.12
423.37	367.46
423.56	327.68
423.75	327.68
423.94	285.55
424.13	259.80
424.32	184.90
424.50	234.05
424.69	315.97
424.88	353.42
425.07	217.67
425.26	327.68
425.45	236.39
425.64	252.78
425.83	243.42
426.01	330.02
426.20	287.89
426.39	238.73
426.58	290.23
426.77	318.31
426.96	334.70
427.15	334.70
427.33	234.05
427.52	297.25
427.71	276.18
427.90	339.38
428.09	280.86
428.28	269.16
428.46	262.14
428.65	252.78
428.84	299.59
429.03	290.23
429.22	266.82
429.40	262.14
429.59	180.22
429.78	229.37
429.97	224.69
430.16	299.59
430.34	271.50
430.53	250.44
430.72	234.05
430.91	191.92
431.10	236.39
431.28	346.40
431.47	332.36
431.66	348.74
431.85	395.55
432.03	325.33
432.22	355.76
432.41	374.49
432.60	315.97
432.79	313.63
432.97	301.93
433.16	313.63
433.35	292.57
433.54	285.55
433.72	346.40
433.91	315.97
434.10	379.17
434.28	318.31
434.47	339.38
434.66	381.51
434.85	360.44
435.03	500.87
435.22	1394.96
435.41	2015.20
435.59	1870.09
435.78	1373.89
435.97	805.14
436.16	568.75
436.34	393.21
436.53	346.40
436.72	369.80
436.90	393.21
437.09	360.44
437.28	330.02
437.46	304.27
437.65	304.27
437.84	337.04
438.02	360.44
438.21	315.97
438.40	313.63
438.58	292.57
438.77	388.53
438.96	365.12
439.14	273.84
439.33	280.86
439.52	344.06
439.70	421.30
439.89	297.25
440.08	241.08
440.26	376.83
440.45	285.55
440.63	290.23
440.82	393.21
441.01	386.19
441.19	276.18
441.38	322.99
441.57	423.64
441.75	407.25
441.94	322.99
442.12	376.83
442.31	433.00
442.50	395.55
442.68	346.40
442.87	344.06
443.05	409.59
443.24	430.66
443.43	400.23
443.61	372.15
443.80	397.89
443.98	372.15
444.17	341.72
444.35	407.25
444.54	365.12
444.73	388.53
444.91	411.93
445.10	411.93
445.28	383.85
445.47	313.63
445.65	334.70
445.84	376.83
446.02	402.57
446.21	330.02
446.39	397.89
446.58	351.08
446.77	407.25
446.95	383.85
447.14	482.15
447.32	411.93
447.51	416.62
447.69	414.27
447.88	322.99
448.06	407.25
448.25	376.83
448.43	418.96
448.62	355.76
448.80	404.91
448.99	475.13
449.17	404.91
449.36	367.46
449.54	423.64
449.73	390.87
449.91	414.27
450.10	395.55
450.28	470.45
450.46	461.09
450.65	372.15
450.83	341.72
451.02	454.06
451.20	390.87
451.39	386.19
451.57	360.44
451.76	337.04
451.94	341.72
452.13	400.23
452.31	386.19
452.49	383.85
452.68	334.70
452.86	402.57
453.05	428.32
453.23	425.98
453.42	362.78
453.60	414.27
453.78	386.19
453.97	423.64
454.15	442.36
454.34	346.40
454.52	381.51
454.70	367.46
454.89	390.87
455.07	367.46
455.26	433.00
455.44	367.46
455.62	365.12
455.81	400.23
455.99	404.91
456.17	414.27
456.36	402.57
456.54	388.53
456.73	414.27
456.91	449.38
457.09	423.64
457.28	416.62
457.46	435.34
457.64	461.09
457.83	393.21
458.01	435.34
458.19	318.31
458.38	362.78
458.56	425.98
458.74	339.38
458.93	411.93
459.11	383.85
459.29	362.78
459.48	334.70
459.66	454.06
459.84	390.87
460.03	528.96
460.21	369.80
460.39	414.27
460.57	362.78
460.76	423.64
460.94	395.55
461.12	418.96
461.31	433.00
461.49	393.21
461.67	334.70
461.85	402.57
462.04	376.83
462.22	798.12
462.40	390.87
462.59	430.66
462.77	435.34
462.95	414.27
463.13	425.98
463.32	498.53
463.50	411.93
463.68	376.83
463.86	381.51
464.05	447.04
464.23	442.36
464.41	463.43
464.59	320.65
464.78	355.76
464.96	353.42
465.14	454.06
465.32	402.57
465.50	440.02
465.69	397.89
465.87	374.49
466.05	472.79
466.23	376.83
466.41	393.21
466.60	416.62
466.78	390.87
466.96	411.93
467.14	390.87
467.32	386.19
467.51	425.98
467.69	489.17
467.87	433.00
468.05	332.36
468.23	449.38
468.41	463.43
468.60	346.40
468.78	470.45
468.96	397.89
469.14	465.77
469.32	355.76
469.50	355.76
469.69	386.19
469.87	367.46
470.05	409.59
470.23	400.23
470.41	390.87
470.59	358.10
470.77	414.27
470.95	348.74
471.14	383.85
471.32	397.89
471.50	510.24
471.68	386.19
471.86	404.91
472.04	435.34
472.22	463.43
472.40	346.40
472.58	404.91
472.77	372.15
472.95	463.43
473.13	477.47
473.31	454.06
473.49	390.87
473.67	425.98
473.85	416.62
474.03	411.93
474.21	458.74
474.39	435.34
474.57	475.13
474.75	437.68
474.93	386.19
475.12	414.27
475.30	409.59
475.48	500.87
475.66	468.11
475.84	435.34
476.02	433.00
476.20	414.27
476.38	372.15
476.56	592.16
476.74	379.17
476.92	351.08
477.10	423.64
477.28	463.43
477.46	414.27
477.64	489.17
477.82	451.72
478.00	503.22
478.18	486.83
478.36	409.59
478.54	437.68
478.72	505.56
478.90	435.34
479.08	479.81
479.26	519.60
479.44	437.68
479.62	440.02
479.80	451.72
479.98	505.56
480.16	449.38
480.34	517.26
480.52	575.77
480.70	479.81
480.88	510.24
481.06	484.49
481.24	550.03
481.41	507.90
481.59	575.77
481.77	510.24
481.95	500.87
482.13	575.77
482.31	559.39
482.49	568.75
482.67	514.92
482.85	543.00
483.03	566.41
483.21	540.66
483.39	585.13
483.57	608.54
483.74	561.73
483.92	606.20
484.10	566.41
484.28	585.13
484.46	636.63
484.64	571.09
484.82	657.69
485.00	568.75
485.18	580.45
485.35	554.71
485.53	550.03
485.71	571.09
485.89	599.18
486.07	594.50
486.25	709.18
486.43	648.33
486.61	564.07
486.78	697.48
486.96	580.45
487.14	615.56
487.32	641.31
487.50	671.73
487.68	578.11
487.85	699.82
488.03	702.16
488.21	739.61
488.39	650.67
488.57	690.46
488.75	578.11
488.92	870.68
489.10	678.76
489.28	732.59
489.46	711.52
489.64	692.80
489.81	627.26
489.99	706.84
490.17	692.80
490.35	816.85
490.53	655.35
490.70	683.44
490.88	587.47
491.06	643.65
491.24	730.25
491.41	713.86
491.59	599.18
491.77	697.48
491.95	617.90
492.13	676.41
492.30	748.97
492.48	730.25
492.66	692.80
492.84	660.03
493.01	697.48
493.19	634.29
493.37	760.67
493.54	695.14
493.72	795.78
493.90	678.76
494.08	674.07
494.25	685.78
494.43	788.76
494.61	744.29
494.79	760.67
494.96	629.60
495.14	802.80
495.32	765.36
495.49	727.91
495.67	760.67
495.85	730.25
496.02	709.18
496.20	704.50
496.38	793.44
496.55	723.23
496.73	702.16
496.91	711.52
497.09	655.35
497.26	683.44
497.44	603.86
497.62	676.41
497.79	739.61
497.97	706.84
498.14	737.27
498.32	770.04
498.50	664.71
498.67	770.04
498.85	688.12
499.03	624.92
499.20	737.27
499.38	688.12
499.56	671.73
499.73	730.25
499.91	739.61
500.08	683.44
500.26	676.41
500.44	704.50
500.61	699.82
500.79	669.39
500.97	589.82
501.14	737.27
501.32	622.58
501.49	608.54
501.67	655.35
501.84	599.18
502.02	692.80
502.20	791.10
502.37	730.25
502.55	608.54
502.72	662.37
502.90	744.29
503.07	685.78
503.25	676.41
503.43	641.31
503.60	669.39
503.78	561.73
503.95	592.16
504.13	650.67
504.30	681.10
504.48	655.35
504.65	685.78
504.83	660.03
505.01	730.25
505.18	660.03
505.36	706.84
505.53	643.65
505.71	746.63
505.88	608.54
506.06	692.80
506.23	690.46
506.41	681.10
506.58	709.18
506.76	610.88
506.93	704.50
507.11	662.37
507.28	624.92
507.46	615.56
507.63	650.67
507.81	617.90
507.98	615.56
508.16	688.12
508.33	681.10
508.50	753.65
508.68	697.48
508.85	678.76
509.03	688.12
509.20	662.37
509.38	660.03
509.55	657.69
509.73	636.63
509.90	774.72
510.08	699.82
510.25	720.88
510.42	667.05
510.60	748.97
510.77	709.18
510.95	725.57
511.12	699.82
511.30	664.71
511.47	594.50
511.64	699.82
511.82	699.82
511.99	648.33
512.17	622.58
512.34	681.10
512.51	674.07
512.69	655.35
512.86	763.01
513.04	669.39
513.21	674.07
513.38	676.41
513.56	711.52
513.73	690.46
513.90	695.14
514.08	638.97
514.25	643.65
514.43	709.18
514.60	695.14
514.77	660.03
514.95	685.78
515.12	685.78
515.29	699.82
515.47	674.07
515.64	709.18
515.81	723.23
515.99	734.93
516.16	582.79
516.33	582.79
516.51	660.03
516.68	608.54
516.85	535.98
517.03	564.07
517.20	634.29
517.37	641.31
517.54	610.88
517.72	699.82
517.89	573.43
518.06	550.03
518.24	676.41
518.41	638.97
518.58	613.22
518.75	645.99
518.93	664.71
519.10	667.05
519.27	615.56
519.45	617.90
519.62	807.48
519.79	760.67
519.96	704.50
520.14	681.10
520.31	585.13
520.48	664.71
520.65	746.63
520.83	660.03
521.00	755.99
521.17	688.12
521.34	692.80
521.52	688.12
521.69	734.93
521.86	716.20
522.03	774.72
522.20	823.87
522.38	587.47
522.55	692.80
522.72	645.99
522.89	713.86
523.07	720.88
523.24	664.71
523.41	690.46
523.58	784.08
523.75	770.04
523.92	697.48
524.10	638.97
524.27	681.10
524.44	734.93
524.61	770.04
524.78	671.73
524.96	718.54
525.13	702.16
525.30	777.06
525.47	748.97
525.64	683.44
525.81	601.52
525.98	734.93
526.16	678.76
526.33	685.78
526.50	664.71
526.67	589.82
526.84	709.18
527.01	669.39
527.18	732.59
527.36	720.88
527.53	772.38
527.70	706.84
527.87	634.29
528.04	610.88
528.21	713.86
528.38	760.67
528.55	788.76
528.72	791.10
528.89	788.76
529.07	711.52
529.24	697.48
529.41	767.70
529.58	727.91
529.75	699.82
529.92	699.82
530.09	713.86
530.26	734.93
530.43	711.52
530.60	716.20
530.77	748.97
530.94	781.74
531.11	725.57
531.28	758.33
531.46	725.57
531.63	716.20
531.80	636.63
531.97	777.06
532.14	793.44
532.31	711.52
532.48	662.37
532.65	599.18
532.82	716.20
532.99	732.59
533.16	809.83
533.33	723.23
533.50	758.33
533.67	683.44
533.84	685.78
534.01	713.86
534.18	664.71
534.35	688.12
534.52	805.14
534.69	774.72
534.86	753.65
535.03	786.42
535.20	727.91
535.37	784.08
535.54	779.40
535.71	779.40
535.88	847.27
536.05	725.57
536.22	779.40
536.38	753.65
536.55	765.36
536.72	751.31
536.89	737.27
537.06	828.55
537.23	795.78
537.40	858.98
537.57	844.93
537.74	945.58
537.91	877.70
538.08	997.07
538.25	961.96
538.42	933.87
538.59	931.53
538.75	889.40
538.92	868.34
539.09	992.39
539.26	990.05
539.43	992.39
539.60	1034.52
539.77	1046.22
539.94	1071.97
540.11	1153.88
540.28	1167.93
540.44	1275.59
540.61	1324.74
540.78	1425.39
540.95	1479.22
541.12	1701.57
541.29	1790.51
541.46	1956.69
541.62	1879.45
541.79	1823.28
541.96	1874.77
542.13	1689.87
542.30	1762.42
542.47	1703.91
542.63	1638.38
542.80	1568.16
542.97	1708.59
543.14	1638.38
543.31	1586.88
543.48	1579.86
543.64	1600.93
543.81	1650.08
543.98	1575.18
544.15	1572.84
544.32	1692.21
544.48	1645.40
544.65	1582.20
544.82	1558.80
544.99	1591.56
545.16	1530.71
545.32	1626.67
545.49	2399.05
545.66	3485.06
545.83	3962.53
546.00	3431.23
546.16	2525.44
546.33	2040.95
546.50	1710.93
546.67	1511.99
546.83	1439.43
547.00	1212.40
547.17	1301.34
547.34	1287.29
547.50	1235.80
547.67	1275.59
547.84	1217.08
548.00	1144.52
548.17	1165.59
548.34	1184.31
548.51	1207.72
548.67	1170.27
548.84	1160.91
549.01	1086.01
549.18	1104.73
549.34	1139.84
549.51	1135.16
549.68	1095.37
549.84	983.02
550.01	1011.11
550.18	1034.52
550.34	973.66
550.51	947.92
550.68	922.17
550.84	959.62
551.01	856.64
551.18	919.83
551.34	978.34
551.51	901.11
551.68	894.08
551.84	1001.75
552.01	828.55
552.18	849.61
552.34	858.98
552.51	858.98
552.68	863.66
552.84	798.12
553.01	788.76
553.18	784.08
553.34	765.36
553.51	730.25
553.67	915.15
553.84	894.08
554.01	819.19
554.17	786.42
554.34	727.91
554.51	678.76
554.67	774.72
554.84	781.74
555.00	784.08
555.17	795.78
555.33	821.53
555.50	727.91
555.67	718.54
555.83	671.73
556.00	685.78
556.16	781.74
556.33	734.93
556.50	699.82
556.66	755.99
556.83	573.43
556.99	596.84
557.16	671.73
557.32	671.73
557.49	709.18
557.65	629.60
557.82	660.03
557.98	718.54
558.15	599.18
558.32	685.78
558.48	631.94
558.65	617.90
558.81	739.61
558.98	657.69
559.14	660.03
559.31	660.03
559.47	685.78
559.64	627.26
559.80	697.48
559.97	617.90
560.13	641.31
560.30	697.48
560.46	744.29
560.63	662.37
560.79	706.84
560.96	664.71
561.12	678.76
561.29	622.58
561.45	695.14
561.61	613.22
561.78	704.50
561.94	580.45
562.11	674.07
562.27	610.88
562.44	683.44
562.60	650.67
562.77	620.24
562.93	720.88
563.10	669.39
563.26	594.50
563.42	631.94
563.59	620.24
563.75	624.92
563.92	725.57
564.08	685.78
564.24	622.58
564.41	732.59
564.57	641.31
564.74	638.97
564.90	660.03
565.07	660.03
565.23	683.44
565.39	585.13
565.56	645.99
565.72	650.67
565.88	645.99
566.05	664.71
566.21	594.50
566.38	603.86
566.54	580.45
566.70	557.05
566.87	685.78
567.03	657.69
567.19	674.07
567.36	599.18
567.52	613.22
567.68	650.67
567.85	634.29
568.01	613.22
568.17	596.84
568.34	667.05
568.50	641.31
568.66	479.81
568.83	641.31
568.99	526.62
569.15	608.54
569.32	571.09
569.48	617.90
569.64	557.05
569.81	615.56
569.97	571.09
570.13	627.26
570.30	561.73
570.46	519.60
570.62	573.43
570.78	589.82
570.95	585.13
571.11	629.60
571.27	599.18
571.43	550.03
571.60	592.16
571.76	557.05
571.92	636.63
572.09	550.03
572.25	568.75
572.41	589.82
572.57	573.43
572.74	599.18
572.90	566.41
573.06	617.90
573.22	564.07
573.38	573.43
573.55	557.05
573.71	566.41
573.87	638.97
574.03	519.60
574.20	496.19
574.36	617.90
574.52	575.77
574.68	580.45
574.84	596.84
575.01	634.29
575.17	624.92
575.33	617.90
575.49	589.82
575.65	674.07
575.82	697.48
575.98	629.60
576.14	519.60
576.30	634.29
576.46	933.87
576.62	1093.03
576.79	1156.22
576.95	976.00
577.11	751.31
577.27	688.12
577.43	655.35
577.59	725.57
577.75	624.92
577.92	631.94
578.08	622.58
578.24	578.11
578.40	713.86
578.56	910.47
578.72	957.28
578.88	1039.20
579.04	903.45
579.21	856.64
579.37	774.72
579.53	685.78
579.69	760.67
579.85	760.67
580.01	765.36
580.17	716.20
580.33	770.04
580.49	739.61
580.65	699.82
580.82	725.57
580.98	723.23
581.14	711.52
581.30	645.99
581.46	634.29
581.62	702.16
581.78	737.27
581.94	763.01
582.10	772.38
582.26	723.23
582.42	737.27
582.58	739.61
582.74	765.36
582.90	814.51
583.06	823.87
583.22	685.78
583.38	744.29
583.54	718.54
583.70	779.40
583.86	779.40
584.02	704.50
584.18	877.70
584.34	816.85
584.50	730.25
584.66	692.80
584.82	786.42
584.98	641.31
585.14	798.12
585.30	737.27
585.46	706.84
585.62	660.03
585.78	767.70
585.94	697.48
586.10	713.86
586.26	718.54
586.42	748.97
586.58	716.20
586.74	767.70
586.90	908.13
587.06	840.25
587.22	929.19
587.38	854.30
587.54	830.89
587.70	868.34
587.86	718.54
588.02	716.20
588.18	688.12
588.34	643.65
588.49	559.39
588.65	531.30
588.81	596.84
588.97	641.31
589.13	575.77
589.29	454.06
589.45	543.00
589.61	557.05
589.77	571.09
589.93	592.16
590.08	599.18
590.24	561.73
590.40	650.67
590.56	535.98
590.72	550.03
590.88	627.26
591.04	582.79
591.20	517.26
591.35	667.05
591.51	568.75
591.67	610.88
591.83	608.54
591.99	699.82
592.15	737.27
592.31	660.03
592.46	706.84
592.62	678.76
592.78	704.50
592.94	732.59
593.10	816.85
593.26	688.12
593.41	725.57
593.57	704.50
593.73	697.48
593.89	601.52
594.05	636.63
594.20	500.87
594.36	554.71
594.52	543.00
594.68	550.03
594.84	613.22
594.99	568.75
595.15	592.16
595.31	531.30
595.47	592.16
595.62	566.41
595.78	599.18
595.94	648.33
596.10	526.62
596.25	599.18
596.41	636.63
596.57	594.50
596.73	599.18
596.88	580.45
597.04	589.82
597.20	615.56
597.36	547.69
597.51	528.96
597.67	564.07
597.83	594.50
597.99	582.79
598.14	620.24
598.30	638.97
598.46	599.18
598.61	594.50
598.77	601.52
598.93	648.33
599.09	641.31
599.24	653.01
599.40	648.33
599.56	688.12
599.71	624.92
599.87	688.12
600.03	575.77
600.18	594.50
600.34	603.86
600.50	641.31
600.65	531.30
600.81	589.82
600.97	613.22
601.12	594.50
601.28	566.41
601.44	557.05
601.59	554.71
601.75	526.62
601.91	507.90
602.06	596.84
602.22	704.50
602.37	554.71
602.53	547.69
602.69	606.20
602.84	491.51
603.00	468.11
603.16	580.45
603.31	578.11
603.47	519.60
603.62	503.22
603.78	528.96
603.94	557.05
604.09	655.35
604.25	582.79
604.40	573.43
604.56	521.94
604.71	571.09
604.87	589.82
605.03	613.22
605.18	603.86
605.34	568.75
605.49	564.07
605.65	571.09
605.80	653.01
605.96	603.86
606.12	533.64
606.27	603.86
606.43	624.92
606.58	589.82
606.74	688.12
606.89	624.92
607.05	552.37
607.20	571.09
607.36	568.75
607.51	617.90
607.67	692.80
607.82	650.67
607.98	772.38
608.13	674.07
608.29	732.59
608.44	690.46
608.60	706.84
608.75	791.10
608.91	772.38
609.06	793.44
609.22	905.79
609.37	873.02
609.53	947.92
609.68	1039.20
609.84	1053.24
609.99	1121.12
