SpectraSuite Data File
++++++++++++++++++++++++++++++++++++
Date: Fri Oct 04 11:44:16 GMT-05:00 2013
User: price-jones
Dark Spectrum Present: No
Reference Spectrum Present: No
Number of Sampled Component Spectra: 1
Spectrometers: USB2+H05261
Integration Time (usec): 100000 (USB2+H05261)
Spectra Averaged: 1 (USB2+H05261)
Boxcar Smoothing: 0 (USB2+H05261)
Correct for Electrical Dark: No (USB2+H05261)
Strobe/Lamp Enabled: No (USB2+H05261)
Correct for Detector Non-linearity: No (USB2+H05261)
Correct for Stray Light: No (USB2+H05261)
Number of Pixels in Processed Spectrum: 2048
>>>>>Begin Processed Spectral Data<<<<<
365.73	0.00
365.92	0.00
366.12	0.00
366.32	0.00
366.52	0.00
366.72	0.00
366.91	0.00
367.11	0.00
367.31	0.00
367.51	0.00
367.70	0.00
367.90	0.00
368.10	0.00
368.30	0.00
368.49	0.00
368.69	9.36
368.89	0.00
369.09	0.00
369.28	53.83
369.48	0.00
369.68	0.00
369.87	0.00
370.07	39.79
370.27	70.22
370.47	102.98
370.66	390.87
370.86	475.13
371.06	575.77
371.25	599.18
371.45	468.11
371.65	454.06
371.84	425.98
372.04	484.49
372.24	521.94
372.44	470.45
372.63	512.58
372.83	540.66
373.03	400.23
373.22	433.00
373.42	456.40
373.62	528.96
373.81	603.86
374.01	554.71
374.21	531.30
374.40	512.58
374.60	484.49
374.79	540.66
374.99	592.16
375.19	678.76
375.38	690.46
375.58	645.99
375.78	655.35
375.97	660.03
376.17	706.84
376.37	587.47
376.56	641.31
376.76	617.90
376.95	636.63
377.15	763.01
377.35	774.72
377.54	791.10
377.74	826.21
377.93	781.74
378.13	725.57
378.33	741.95
378.52	748.97
378.72	713.86
378.91	748.97
379.11	718.54
379.31	568.75
379.50	608.54
379.70	636.63
379.89	819.19
380.09	763.01
380.28	833.23
380.48	723.23
380.68	713.86
380.87	702.16
381.07	662.37
381.26	685.78
381.46	638.97
381.65	578.11
381.85	681.10
382.04	594.50
382.24	550.03
382.43	552.37
382.63	528.96
382.83	561.73
383.02	554.71
383.22	629.60
383.41	514.92
383.61	575.77
383.80	645.99
384.00	713.86
384.19	697.48
384.39	732.59
384.58	751.31
384.78	711.52
384.97	767.70
385.17	688.12
385.36	713.86
385.56	704.50
385.75	674.07
385.95	767.70
386.14	746.63
386.34	772.38
386.53	753.65
386.72	795.78
386.92	730.25
387.11	734.93
387.31	812.17
387.50	781.74
387.70	798.12
387.89	779.40
388.09	784.08
388.28	758.33
388.48	713.86
388.67	922.17
388.86	837.91
389.06	875.36
389.25	1057.92
389.45	973.66
389.64	950.26
389.84	1039.20
390.03	983.02
390.22	978.34
390.42	1018.13
390.61	1057.92
390.81	1015.79
391.00	1151.54
391.19	1100.05
391.39	1060.26
391.58	1013.45
391.78	964.30
391.97	908.13
392.16	807.48
392.36	781.74
392.55	720.88
392.75	578.11
392.94	456.40
393.13	486.83
393.33	599.18
393.52	704.50
393.71	805.14
393.91	875.36
394.10	882.38
394.29	896.43
394.49	1022.81
394.68	1018.13
394.88	1125.80
395.07	1083.67
395.26	1273.25
395.46	1123.46
395.65	1078.99
395.84	1032.18
396.04	922.17
396.23	758.33
396.42	643.65
396.62	650.67
396.81	683.44
397.00	814.51
397.19	1034.52
397.39	1177.29
397.58	1284.95
397.77	1336.45
397.97	1458.15
398.16	1404.32
398.35	1437.09
398.55	1474.54
398.74	1462.83
398.93	1528.37
399.12	1528.37
399.32	1526.03
399.51	1542.41
399.70	1556.46
399.90	1699.23
400.09	1703.91
400.28	1579.86
400.47	1629.01
400.67	1680.50
400.86	1781.15
401.05	1530.71
401.24	1673.48
401.44	1781.15
401.63	1743.70
401.82	1746.04
402.01	1778.81
402.21	1757.74
402.40	1640.72
402.59	1673.48
402.78	1739.02
402.97	1603.27
403.17	1643.06
403.36	1703.91
403.55	1806.89
403.74	1916.90
403.93	1802.21
404.13	1774.13
404.32	1867.75
404.51	1757.74
404.70	1895.83
404.89	1762.42
405.09	1785.83
405.28	1755.40
405.47	1795.19
405.66	1795.19
405.85	1753.06
406.05	1540.07
406.24	1605.61
406.43	1741.36
406.62	1856.04
406.81	1891.15
407.00	1776.47
407.20	1633.69
407.39	1706.25
407.58	1856.04
407.77	1884.13
407.96	1870.09
408.15	1944.99
408.34	1867.75
408.54	1952.01
408.73	1994.14
408.92	1961.37
409.11	2062.01
409.30	1806.89
409.49	1671.14
409.68	1689.87
409.87	1741.36
410.07	1673.48
410.26	1741.36
410.45	1856.04
410.64	1909.88
410.83	1898.17
411.02	2036.27
411.21	2001.16
411.40	2101.80
411.59	2047.97
411.78	1952.01
411.98	2113.50
412.17	2139.25
412.36	1975.41
412.55	2104.14
412.74	2029.24
412.93	1900.52
413.12	1966.05
413.31	2165.00
413.50	2188.40
413.69	2155.63
413.88	2064.35
414.07	2045.63
414.26	2066.69
414.45	2169.68
414.64	2202.44
414.83	2183.72
415.02	2099.46
415.22	2097.12
415.41	2244.57
415.60	2193.08
415.79	2382.67
415.98	2413.09
416.17	2380.32
416.36	2434.16
416.55	2267.98
416.74	2260.96
416.93	2230.53
417.12	2134.57
417.31	2246.91
417.50	2221.17
417.69	2232.87
417.88	2272.66
418.07	2230.53
418.26	2260.96
418.45	2174.36
418.64	2380.32
418.83	2296.07
419.02	2228.19
419.21	2424.80
419.39	2230.53
419.58	2113.50
419.77	2054.99
419.96	2300.75
420.15	2436.50
420.34	2394.37
420.53	2551.18
420.72	2511.39
420.91	2392.03
421.10	2478.63
421.29	2539.48
421.48	2403.73
421.67	2487.99
421.86	2408.41
422.05	2214.15
422.24	2090.10
422.43	2111.16
422.61	2169.68
422.80	2235.21
422.99	2466.92
423.18	2239.89
423.37	2324.15
423.56	2223.51
423.75	2190.74
423.94	2389.69
424.13	2258.62
424.32	2218.83
424.50	2310.11
424.69	2267.98
424.88	2312.45
425.07	2244.57
425.26	2190.74
425.45	2172.02
425.64	2172.02
425.83	2179.04
426.01	2270.32
426.20	2352.24
426.39	2207.13
426.58	2157.97
426.77	2050.31
426.96	1994.14
427.15	2026.90
427.33	2174.36
427.52	2118.18
427.71	2267.98
427.90	2335.85
428.09	2214.15
428.28	2237.55
428.46	2143.93
428.65	2001.16
428.84	2225.85
429.03	2153.29
429.22	1928.60
429.40	2012.86
429.59	1757.74
429.78	1624.33
429.97	1605.61
430.16	1570.50
430.34	1561.14
430.53	1572.84
430.72	1673.48
430.91	1872.43
431.10	2080.74
431.28	2401.39
431.47	2668.21
431.66	2677.57
431.85	2483.31
432.03	2253.94
432.22	2190.74
432.41	2150.95
432.60	2441.18
432.79	2567.57
432.97	2595.65
433.16	2555.86
433.35	2298.41
433.54	2193.08
433.72	2040.95
433.91	2113.50
434.10	2204.78
434.28	2382.67
434.47	2473.95
434.66	2448.20
434.85	2466.92
435.03	2647.15
435.22	2820.35
435.41	3276.75
435.59	3442.93
435.78	3272.07
435.97	3129.30
436.16	2803.96
436.34	2757.15
436.53	2649.49
436.72	2717.36
436.90	2696.30
437.09	2551.18
437.28	2670.55
437.46	2581.61
437.65	2677.57
437.84	2516.08
438.02	2181.38
438.21	2160.31
438.40	2347.56
438.58	2466.92
438.77	2506.71
438.96	2612.04
439.14	2630.76
439.33	2672.89
439.52	2787.58
439.70	2717.36
439.89	2654.17
440.08	2504.37
440.26	2635.44
440.45	2724.38
440.63	2796.94
440.82	2867.16
441.01	2871.84
441.19	2792.26
441.38	2928.01
441.57	2949.08
441.75	3073.12
441.94	3166.74
442.12	3070.78
442.31	3098.87
442.50	3110.57
442.68	2993.55
442.87	3070.78
443.05	2995.89
443.24	3066.10
443.43	3012.27
443.61	3087.17
443.80	3143.34
443.98	3056.74
444.17	2991.20
444.35	3176.11
444.54	3225.26
444.73	3208.87
444.91	3185.47
445.10	2995.89
445.28	2904.60
445.47	2850.77
445.65	2766.51
445.84	2897.58
446.02	3035.67
446.21	2981.84
446.39	3040.36
446.58	3049.72
446.77	3019.29
446.95	3077.80
447.14	3199.51
447.32	3241.64
447.51	3229.94
447.69	3049.72
447.88	2942.05
448.06	3038.02
448.25	3206.53
448.43	3145.68
448.62	3068.44
448.80	3005.25
448.99	3229.94
449.17	3143.34
449.36	3148.02
449.54	3330.58
449.73	3269.73
449.91	3414.84
450.10	3384.41
450.28	3318.88
450.46	3379.73
450.65	3503.78
450.83	3445.27
451.02	3309.52
451.20	3377.39
451.39	3283.77
451.57	3417.18
451.76	3176.11
451.94	3272.07
452.13	3185.47
452.31	3201.85
452.49	3005.25
452.68	2979.50
452.86	2977.16
453.05	3131.64
453.23	3117.59
453.42	3087.17
453.60	3218.24
453.78	3372.71
453.97	3304.84
454.15	3300.16
454.34	3358.67
454.52	3225.26
454.70	3239.30
454.89	3211.22
455.07	3183.13
455.26	3328.24
455.44	3384.41
455.62	3419.52
455.81	3440.59
455.99	3552.93
456.17	3288.45
456.36	3499.10
456.54	3574.00
456.73	3574.00
456.91	3361.01
457.09	3627.83
457.28	3616.13
457.46	3342.28
457.64	3389.10
457.83	3325.90
458.01	3276.75
458.19	3276.75
458.38	3323.56
458.56	3449.95
458.74	3466.33
458.93	3346.97
459.11	3403.14
459.29	3262.71
459.48	3337.60
459.66	3372.71
459.84	3391.44
460.03	3424.20
460.21	3602.08
460.39	3454.63
460.57	3463.99
460.76	3492.08
460.94	3550.59
461.12	3377.39
461.31	3559.95
461.49	3524.85
461.67	3480.38
461.85	3510.80
462.04	3412.50
462.22	3854.86
462.40	3590.38
462.59	3705.07
462.77	3585.70
462.95	3651.24
463.13	3597.40
463.32	3576.34
463.50	3438.25
463.68	3508.46
463.86	3487.40
464.05	3449.95
464.23	3468.67
464.41	3438.25
464.59	3398.46
464.78	3548.25
464.96	3496.76
465.14	3400.80
465.32	3510.80
465.50	3529.53
465.69	3559.95
465.87	3459.31
466.05	3506.12
466.23	3314.20
466.41	3211.22
466.60	3382.07
466.78	3157.38
466.96	3396.12
467.14	3442.93
467.32	3550.59
467.51	3431.23
467.69	3335.26
467.87	3487.40
468.05	3435.91
468.23	3372.71
468.41	3435.91
468.60	3403.14
468.78	3550.59
468.96	3501.44
469.14	3536.55
469.32	3410.16
469.50	3377.39
469.69	3410.16
469.87	3302.50
470.05	3307.18
470.23	3272.07
470.41	3330.58
470.59	3440.59
470.77	3559.95
470.95	3471.01
471.14	3543.57
471.32	3517.83
471.50	3735.50
471.68	3566.98
471.86	3728.47
472.04	3801.03
472.22	3779.97
472.40	3669.96
472.58	3487.40
472.77	3492.08
472.95	3522.51
473.13	3723.79
473.31	3545.91
473.49	3538.89
473.67	3623.15
473.85	3721.45
474.03	3822.09
474.21	3740.18
474.39	3801.03
474.57	3740.18
474.75	3772.94
474.93	3831.46
475.12	3808.05
475.30	3822.09
475.48	3620.81
475.66	3779.97
475.84	3812.73
476.02	3599.74
476.20	3691.02
476.38	3700.39
476.56	3892.31
476.74	3875.93
476.92	3899.33
477.10	3955.51
477.28	4070.19
477.46	4016.36
477.64	4105.30
477.82	4215.30
478.00	4070.19
478.18	4028.06
478.36	4002.32
478.54	4093.60
478.72	3978.91
478.90	4121.68
479.08	4217.65
479.26	4252.75
479.44	4196.58
479.62	4252.75
479.80	4301.90
479.98	4400.21
480.16	4315.95
480.34	4245.73
480.52	4397.87
480.70	4542.98
480.88	4353.40
481.06	4503.19
481.24	4472.76
481.41	4709.16
481.59	4599.15
481.77	4730.22
481.95	4601.49
482.13	4613.20
482.31	4554.68
482.49	4765.33
482.67	4662.35
482.85	4671.71
483.03	4690.43
483.21	4795.76
483.39	4711.50
483.57	4571.07
483.74	4657.67
483.92	4688.09
484.10	4547.66
484.28	4805.12
484.46	4926.83
484.64	4847.25
484.82	4858.95
485.00	4812.14
485.18	4758.31
485.35	4734.90
485.53	4273.82
485.71	3932.10
485.89	3836.14
486.07	3995.29
486.25	4332.33
486.43	4573.41
486.61	4697.46
486.78	4547.66
486.96	4580.43
487.14	4901.08
487.32	4917.47
487.50	5022.79
487.68	5226.42
487.85	5214.71
488.03	5383.23
488.21	5273.23
488.39	5174.92
488.57	5057.90
488.75	4964.28
488.92	5495.58
489.10	5331.74
489.28	5628.99
489.46	5797.51
489.64	5790.49
489.81	5851.34
489.99	5701.54
490.17	5755.38
490.35	5699.20
490.53	5734.31
490.70	5633.67
490.88	5586.86
491.06	5792.83
491.24	5809.21
491.41	5547.07
491.59	5467.49
491.77	5188.97
491.95	5413.66
492.13	5535.37
492.30	5617.29
492.48	6010.50
492.66	6179.01
492.84	6134.54
493.01	6015.18
493.19	5818.57
493.37	5935.60
493.54	5825.59
493.72	5809.21
493.90	6059.65
494.08	6190.72
494.25	6204.76
494.43	6307.74
494.61	6389.66
494.79	6396.68
494.96	6225.82
495.14	6298.38
495.32	6127.52
495.49	5963.68
495.67	6136.88
495.85	6471.58
496.02	6310.08
496.20	6612.01
496.38	6436.47
496.55	6452.86
496.73	6473.92
496.91	6588.61
497.09	6846.07
497.26	6726.70
497.44	6686.91
497.62	6483.28
497.79	6392.00
497.97	6061.99
498.14	6183.70
498.32	6328.81
498.50	6417.75
498.67	6579.25
498.85	6413.07
499.03	6705.63
499.20	6452.86
499.38	6689.25
499.56	6722.02
499.73	6586.27
499.91	6403.71
500.08	6164.97
500.26	6258.59
500.44	6361.58
500.61	6401.37
500.79	6321.79
500.97	6377.96
501.14	6263.27
501.32	6148.59
501.49	6221.14
501.67	6050.28
501.84	6441.15
502.02	6455.20
502.20	6373.28
502.37	6239.87
502.55	6544.14
502.72	6679.89
502.90	6661.16
503.07	6499.67
503.25	6429.45
503.43	5989.43
503.60	6029.22
503.78	5907.51
503.95	5966.03
504.13	6223.48
504.30	6431.79
504.48	6534.78
504.65	6370.94
504.83	6469.24
505.01	6497.33
505.18	6502.01
505.36	6810.96
505.53	6782.87
505.71	6822.66
505.88	6909.26
506.06	6780.53
506.23	6658.82
506.41	6523.07
506.58	6705.63
506.76	6642.44
506.93	6565.20
507.11	6483.28
507.28	6424.77
507.46	6487.96
507.63	6483.28
507.81	6614.35
507.98	6408.39
508.16	6485.62
508.33	6558.18
508.50	6724.36
508.68	6834.36
508.85	6970.12
509.03	7042.67
509.20	6958.41
509.38	6991.18
509.55	6684.57
509.73	6707.98
509.90	6855.43
510.08	6806.28
510.25	6841.39
510.42	6841.39
510.60	6745.42
510.77	6899.90
510.95	7208.85
511.12	7005.22
511.30	6972.46
511.47	7258.00
511.64	7290.77
511.82	7258.00
511.99	6932.67
512.17	6888.20
512.34	6775.85
512.51	6628.40
512.69	6780.53
512.86	6597.97
513.04	6981.82
513.21	7096.50
513.38	6881.18
513.56	6647.12
513.73	6691.59
513.90	6813.30
514.08	6792.23
514.25	6733.72
514.43	6752.45
514.60	6958.41
514.77	6766.49
514.95	6862.45
515.12	6942.03
515.29	6939.69
515.47	6944.37
515.64	7215.87
515.81	7105.87
515.99	6850.75
516.16	6534.78
516.33	6099.44
516.51	5863.04
516.68	5495.58
516.85	5577.50
517.03	5596.22
517.20	5940.28
517.37	6450.52
517.54	6984.16
517.72	6759.47
517.89	6232.85
518.06	5870.06
518.24	5884.11
518.41	6345.19
518.58	6494.99
518.75	6497.33
518.93	6609.67
519.10	6602.65
519.27	6719.68
519.45	6764.15
519.62	6909.26
519.79	7119.91
519.96	7012.24
520.14	6754.79
520.31	6696.27
520.48	6612.01
520.65	6761.81
520.83	6829.68
521.00	7075.44
521.17	6958.41
521.34	6757.13
521.52	6972.46
521.69	7108.21
521.86	7330.56
522.03	7089.48
522.20	6825.00
522.38	6703.29
522.55	6553.50
522.72	6759.47
522.89	6801.60
523.07	6827.34
523.24	6862.45
523.41	7162.04
523.58	7122.25
523.75	7321.20
523.92	7286.09
524.10	7091.82
524.27	7375.03
524.44	7096.50
524.61	7190.13
524.78	7066.08
524.96	6822.66
525.13	6986.50
525.30	7262.68
525.47	7232.26
525.64	7213.53
525.81	7094.16
525.98	6843.73
526.16	6326.47
526.33	6263.27
526.50	5949.64
526.67	5916.87
526.84	6136.88
527.01	6267.95
527.18	6569.88
527.36	6726.70
527.53	6904.58
527.70	6958.41
527.87	6930.33
528.04	6977.14
528.21	6913.94
528.38	7138.63
528.55	7328.22
528.72	7489.71
528.89	7403.11
529.07	7384.39
529.24	7295.45
529.41	7037.99
529.58	6787.55
529.75	6724.36
529.92	6995.86
530.09	7250.98
530.26	7215.87
530.43	7215.87
530.60	7136.29
530.77	7414.82
530.94	7344.60
531.11	7370.35
531.28	7112.89
531.46	7157.36
531.63	7215.87
531.80	7269.70
531.97	7045.01
532.14	6951.39
532.31	6647.12
532.48	6677.55
532.65	6319.45
532.82	6668.19
532.99	6960.75
533.16	7030.97
533.33	7152.68
533.50	7059.06
533.67	6965.43
533.84	6923.30
534.01	6923.30
534.18	6930.33
534.35	6972.46
534.52	6967.77
534.69	6897.56
534.86	6904.58
535.03	7026.29
535.20	7269.70
535.37	7482.69
535.54	7440.56
535.71	7307.15
535.88	7384.39
536.05	7279.07
536.22	6984.16
536.38	7026.29
536.55	6857.77
536.72	6892.88
536.89	6768.83
537.06	6932.67
537.23	7173.74
537.40	7162.04
537.57	7281.41
537.74	7206.51
537.91	7169.06
538.08	7206.51
538.25	7077.78
538.42	7148.00
538.59	7089.48
538.75	6874.15
538.92	6944.37
539.09	6935.01
539.26	6970.12
539.43	7021.61
539.60	6820.32
539.77	6778.19
539.94	6874.15
540.11	6909.26
540.28	6925.65
540.44	6712.66
540.61	6785.21
540.78	6998.20
540.95	7056.72
541.12	7265.02
541.29	7258.00
541.46	7613.76
541.62	7536.52
541.79	7234.60
541.96	7269.70
542.13	7400.77
542.30	7386.73
542.47	7342.26
542.63	7222.89
542.80	7325.88
542.97	7302.47
543.14	7215.87
543.31	7220.55
543.48	7283.75
543.64	7527.16
543.81	7651.21
543.98	7639.51
544.15	7538.87
544.32	7211.19
544.48	7148.00
544.65	7183.10
544.82	7569.29
544.99	7403.11
545.16	7248.64
545.32	7360.98
545.49	7985.91
545.66	8589.77
545.83	9011.06
546.00	8662.32
546.16	7854.84
546.33	7550.57
546.50	7318.86
546.67	7293.11
546.83	7248.64
547.00	7269.70
547.17	7019.27
547.34	6846.07
547.50	6881.18
547.67	6913.94
547.84	7016.93
548.00	7073.10
548.17	6979.48
548.34	7110.55
548.51	6986.50
548.67	7103.53
548.84	7152.68
549.01	7124.59
549.18	7070.76
549.34	6927.99
549.51	6960.75
549.68	7023.95
549.84	6942.03
550.01	7037.99
550.18	6977.14
550.34	7033.31
550.51	6839.05
550.68	6897.56
550.84	6773.51
551.01	6829.68
551.18	6581.59
551.34	6705.63
551.51	6927.99
551.68	6825.00
551.84	7002.88
552.01	6820.32
552.18	6895.22
552.34	6693.93
552.51	6572.22
552.68	6565.20
552.84	6642.44
553.01	6658.82
553.18	6675.21
553.34	6633.08
553.51	6927.99
553.67	6810.96
553.84	6792.23
554.01	6911.60
554.17	6689.25
554.34	6707.98
554.51	6935.01
554.67	6850.75
554.84	6881.18
555.00	6696.27
555.17	6764.15
555.33	6619.04
555.50	6822.66
555.67	6677.55
555.83	6717.34
556.00	6530.09
556.16	6745.42
556.33	6380.30
556.50	6523.07
556.66	6445.84
556.83	6420.09
556.99	6319.45
557.16	6403.71
557.32	6431.79
557.49	6602.65
557.65	6445.84
557.82	6544.14
557.98	6504.35
558.15	6417.75
558.32	6279.66
558.48	6200.08
558.65	6249.23
558.81	6031.56
558.98	6209.44
559.14	6249.23
559.31	6403.71
559.47	6223.48
559.64	6230.51
559.80	6408.39
559.97	6040.92
560.13	6232.85
560.30	6387.32
560.46	6626.06
560.63	6530.09
560.79	6471.58
560.96	6513.71
561.12	6492.65
561.29	6059.65
561.45	6017.52
561.61	6253.91
561.78	6441.15
561.94	6188.38
562.11	6026.88
562.27	6106.46
562.44	6274.98
562.60	6153.27
562.77	6282.00
562.93	6380.30
563.10	6443.49
563.26	6251.57
563.42	6305.40
563.59	6232.85
563.75	6195.40
563.92	6188.38
564.08	6052.63
564.24	6143.91
564.41	6186.04
564.57	6125.18
564.74	6120.50
564.90	6272.64
565.07	6274.98
565.23	6132.20
565.39	5912.19
565.56	6069.01
565.72	5860.70
565.88	5830.27
566.05	5926.24
566.21	5949.64
566.38	6008.16
566.54	6064.33
566.70	5898.15
566.87	6139.23
567.03	6092.41
567.19	6132.20
567.36	6050.28
567.52	6143.91
567.68	5930.92
567.85	5877.09
568.01	5851.34
568.17	5659.42
568.34	5687.50
568.50	5514.30
568.66	5533.03
568.83	5540.05
568.99	5647.71
569.15	5778.78
569.32	5671.12
569.48	5703.89
569.64	5628.99
569.81	5528.35
569.97	5657.07
570.13	5638.35
570.30	5591.54
570.46	5460.47
570.62	5462.81
570.78	5528.35
570.95	5490.90
571.11	5619.63
571.27	5500.26
571.43	5565.79
571.60	5643.03
571.76	5675.80
571.92	5680.48
572.09	5811.55
572.25	5647.71
572.41	5724.95
572.57	5668.78
572.74	5860.70
572.90	5790.49
573.06	5591.54
573.22	5689.84
573.38	5762.40
573.55	5640.69
573.71	5767.08
573.87	5631.33
574.03	5526.00
574.20	5568.13
574.36	5563.45
574.52	5453.45
574.68	5668.78
574.84	5504.94
575.01	5303.65
575.17	5315.36
575.33	5320.04
575.49	5493.24
575.65	5526.00
575.82	5453.45
575.98	5518.98
576.14	5357.49
576.30	5364.51
576.46	5687.50
576.62	5935.60
576.79	5884.11
576.95	5703.89
577.11	5572.82
577.27	5614.95
577.43	5488.56
577.59	5514.30
577.75	5458.13
577.92	5268.55
578.08	5203.01
578.24	5401.96
578.40	5369.19
578.56	5692.18
578.72	5792.83
578.88	5722.61
579.04	5696.86
579.21	5591.54
579.37	5612.60
579.53	5481.53
579.69	5696.86
579.85	5717.93
580.01	5511.96
580.17	5521.32
580.33	5654.73
580.49	5643.03
580.65	5572.82
580.82	5493.24
580.98	5554.09
581.14	5636.01
581.30	5654.73
581.46	5509.62
581.62	5699.20
581.78	5643.03
581.94	5603.24
582.10	5668.78
582.26	5640.69
582.42	5643.03
582.58	5626.65
582.74	5474.51
582.90	5699.20
583.06	5778.78
583.22	5675.80
583.38	5666.44
583.54	5387.91
583.70	5467.49
583.86	5638.35
584.02	5696.86
584.18	5703.89
584.34	5657.07
584.50	5790.49
584.66	5451.11
584.82	5448.77
584.98	5516.64
585.14	5455.79
585.30	5371.53
585.46	5275.57
585.62	5235.78
585.78	5266.21
585.94	5085.98
586.10	5404.30
586.26	5268.55
586.42	5411.32
586.58	5448.77
586.74	5441.75
586.90	5455.79
587.06	5338.76
587.22	5284.93
587.38	5200.67
587.54	5219.39
587.70	5071.94
587.86	4840.23
588.02	4807.46
588.18	4589.79
588.34	4425.95
588.49	4210.62
588.65	3925.08
588.81	3864.22
588.97	3765.92
589.13	3763.58
589.29	3925.08
589.45	3794.01
589.61	3824.44
589.77	4060.83
589.93	4126.36
590.08	4262.12
590.24	4540.64
590.40	4603.83
590.56	4444.68
590.72	4503.19
590.88	4447.02
591.04	4432.97
591.20	4533.62
591.35	4571.07
591.51	4292.54
591.67	4210.62
591.83	4278.50
591.99	4287.86
592.15	4440.00
592.31	4631.92
592.46	4657.67
592.62	4573.41
592.78	4713.84
592.94	4734.90
593.10	4468.08
593.26	4660.01
593.41	4814.48
593.57	4716.18
593.73	4606.17
593.89	4416.59
594.05	4273.82
594.20	4138.07
594.36	4184.88
594.52	4114.66
594.68	4060.83
594.84	4297.22
594.99	4283.18
595.15	4510.21
595.31	4641.28
595.47	4491.49
595.62	4444.68
595.78	4505.53
595.94	4578.09
596.10	4575.75
596.25	4517.23
596.41	4592.13
596.57	4482.13
596.73	4468.08
596.88	4638.94
597.04	4636.60
597.20	4503.19
597.36	4461.06
597.51	4463.40
597.67	4606.17
