SpectraSuite Data File
++++++++++++++++++++++++++++++++++++
Date: Fri Oct 04 11:44:14 GMT-05:00 2013
User: price-jones
Dark Spectrum Present: No
Reference Spectrum Present: No
Number of Sampled Component Spectra: 1
Spectrometers: USB2+H05261
Integration Time (usec): 100000 (USB2+H05261)
Spectra Averaged: 1 (USB2+H05261)
Boxcar Smoothing: 0 (USB2+H05261)
Correct for Electrical Dark: No (USB2+H05261)
Strobe/Lamp Enabled: No (USB2+H05261)
Correct for Detector Non-linearity: No (USB2+H05261)
Correct for Stray Light: No (USB2+H05261)
Number of Pixels in Processed Spectrum: 2048
>>>>>Begin Processed Spectral Data<<<<<
365.73	95.96
365.92	95.96
366.12	95.96
366.32	0.00
366.52	0.00
366.72	0.00
366.91	0.00
367.11	0.00
367.31	0.00
367.51	0.00
367.70	0.00
367.90	0.00
368.10	0.00
368.30	0.00
368.49	0.00
368.69	0.00
368.89	0.00
369.09	0.00
369.28	0.00
369.48	0.00
369.68	0.00
369.87	0.00
370.07	14.04
370.27	25.75
370.47	140.43
370.66	620.24
370.86	573.43
371.06	788.76
371.25	720.88
371.45	674.07
371.65	617.90
371.84	587.47
372.04	580.45
372.24	702.16
372.44	688.12
372.63	667.05
372.83	751.31
373.03	585.13
373.22	543.00
373.42	578.11
373.62	678.76
373.81	669.39
374.01	655.35
374.21	704.50
374.40	657.69
374.60	723.23
374.79	697.48
374.99	922.17
375.19	943.24
375.38	814.51
375.58	830.89
375.78	763.01
375.97	840.25
376.17	933.87
376.37	870.68
376.56	889.40
376.76	910.47
376.95	894.08
377.15	1027.50
377.35	1069.62
377.54	1034.52
377.74	1160.91
377.93	1057.92
378.13	1067.28
378.33	1008.77
378.52	973.66
378.72	1006.43
378.91	901.11
379.11	910.47
379.31	814.51
379.50	880.04
379.70	943.24
379.89	1048.56
380.09	1121.12
380.28	1064.94
380.48	1135.16
380.68	1095.37
380.87	957.28
381.07	931.53
381.26	933.87
381.46	901.11
381.65	819.19
381.85	826.21
382.04	741.95
382.24	863.66
382.43	657.69
382.63	685.78
382.83	669.39
383.02	650.67
383.22	685.78
383.41	751.31
383.61	774.72
383.80	802.80
384.00	917.49
384.19	1043.88
384.39	1116.44
384.58	1074.31
384.78	1083.67
384.97	1156.22
385.17	943.24
385.36	894.08
385.56	891.74
385.75	973.66
385.95	954.94
386.14	1067.28
386.34	1025.15
386.53	1078.99
386.72	1015.79
386.92	983.02
387.11	997.07
387.31	1097.71
387.50	971.32
387.70	1004.09
387.89	915.15
388.09	961.96
388.28	1034.52
388.48	1086.01
388.67	1174.95
388.86	1263.89
389.06	1287.29
389.25	1404.32
389.45	1425.39
389.64	1306.02
389.84	1310.70
390.03	1327.08
390.22	1287.29
390.42	1418.36
390.61	1397.30
390.81	1472.20
391.00	1451.13
391.19	1519.01
391.39	1589.22
391.58	1406.66
391.78	1348.15
391.97	1284.95
392.16	1149.20
392.36	1146.86
392.55	990.05
392.75	786.42
392.94	667.05
393.13	716.20
393.33	681.10
393.52	891.74
393.71	1088.35
393.91	1132.82
394.10	1329.42
394.29	1540.07
394.49	1500.28
394.68	1519.01
394.88	1610.29
395.07	1659.44
395.26	1624.33
395.46	1579.86
395.65	1549.43
395.84	1362.19
396.04	1263.89
396.23	950.26
396.42	819.19
396.62	805.14
396.81	957.28
397.00	1104.73
397.19	1299.00
397.39	1467.52
397.58	1872.43
397.77	1933.28
397.97	1919.24
398.16	2024.56
398.35	2001.16
398.55	1989.46
398.74	2153.29
398.93	2209.47
399.12	2125.21
399.32	2157.97
399.51	2214.15
399.70	2249.25
399.90	2155.63
400.09	2221.17
400.28	2225.85
400.47	2242.23
400.67	2356.92
400.86	2377.98
401.05	2342.88
401.24	2485.65
401.44	2452.88
401.63	2417.77
401.82	2401.39
402.01	2331.17
402.21	2530.12
402.40	2459.90
402.59	2450.54
402.78	2483.31
402.97	2347.56
403.17	2429.48
403.36	2415.43
403.55	2457.56
403.74	2565.23
403.93	2492.67
404.13	2548.84
404.32	2490.33
404.51	2518.42
404.70	2576.93
404.89	2457.56
405.09	2499.69
405.28	2420.11
405.47	2356.92
405.66	2377.98
405.85	2321.81
406.05	2293.72
406.24	2385.01
406.43	2366.28
406.62	2532.46
406.81	2518.42
407.00	2530.12
407.20	2429.48
407.39	2422.45
407.58	2417.77
407.77	2682.25
407.96	2647.15
408.15	2649.49
408.34	2558.21
408.54	2708.00
408.73	2853.11
408.92	2738.43
409.11	2719.70
409.30	2647.15
409.49	2513.74
409.68	2340.54
409.87	2286.70
410.07	2445.86
410.26	2506.71
410.45	2513.74
410.64	2731.41
410.83	2850.77
411.02	2860.13
411.21	3033.33
411.40	2939.71
411.59	2953.76
411.78	2867.16
411.98	2963.12
412.17	2829.71
412.36	2869.50
412.55	2928.01
412.74	2918.65
412.93	2726.72
413.12	2785.24
413.31	3026.31
413.50	3035.67
413.69	3145.68
413.88	3105.89
414.07	2916.31
414.26	2979.50
414.45	3061.42
414.64	3162.06
414.83	3180.79
415.02	3000.57
415.22	3187.81
415.41	3124.62
415.60	3133.98
415.79	3255.69
415.98	3363.35
416.17	3433.57
416.36	3307.18
416.55	3321.22
416.74	3141.00
416.93	3056.74
417.12	3103.55
417.31	3066.10
417.50	3162.06
417.69	3370.37
417.88	3213.56
418.07	3131.64
418.26	3197.17
418.45	3080.14
418.64	3510.80
418.83	3393.78
419.02	3386.76
419.21	3258.03
419.39	3251.00
419.58	3087.17
419.77	3141.00
419.96	3239.30
420.15	3335.26
420.34	3358.67
420.53	3538.89
420.72	3604.42
420.91	3527.19
421.10	3396.12
421.29	3534.21
421.48	3272.07
421.67	3403.14
421.86	3382.07
422.05	3136.32
422.24	2972.48
422.43	2946.73
422.61	3159.72
422.80	3389.10
422.99	3386.76
423.18	3169.09
423.37	3133.98
423.56	3225.26
423.75	3260.37
423.94	3386.76
424.13	3152.70
424.32	3180.79
424.50	3269.73
424.69	3194.83
424.88	3274.41
425.07	3138.66
425.26	3290.79
425.45	3126.96
425.64	3068.44
425.83	3005.25
426.01	3206.53
426.20	3208.87
426.39	3201.85
426.58	3115.25
426.77	2937.37
426.96	2864.82
427.15	2850.77
427.33	3005.25
427.52	3115.25
427.71	3279.09
427.90	3206.53
428.09	3103.55
428.28	3073.12
428.46	2930.35
428.65	2981.84
428.84	3087.17
429.03	3117.59
429.22	2935.03
429.40	2759.49
429.59	2541.82
429.78	2340.54
429.97	2296.07
430.16	2244.57
430.34	2284.36
430.53	2235.21
430.72	2314.79
430.91	2574.59
431.10	2935.03
431.28	3393.78
431.47	3770.60
431.66	3812.73
431.85	3435.91
432.03	3314.20
432.22	3080.14
432.41	3141.00
432.60	3379.73
432.79	3618.47
432.97	3705.07
433.16	3611.45
433.35	3475.70
433.54	3141.00
433.72	2960.78
433.91	2885.88
434.10	3272.07
434.28	3510.80
434.47	3602.08
434.66	3637.19
434.85	3517.83
435.03	3541.23
435.22	4112.32
435.41	4798.10
435.59	4610.86
435.78	4395.53
435.97	4273.82
436.16	3899.33
436.34	3920.40
436.53	3866.56
436.72	3894.65
436.90	3632.51
437.09	3569.32
437.28	3592.72
437.46	3679.32
437.65	3595.06
437.84	3375.05
438.02	3253.34
438.21	3255.69
438.40	3246.32
438.58	3426.54
438.77	3534.21
438.96	3684.00
439.14	3878.27
439.33	3934.44
439.52	4032.74
439.70	3964.87
439.89	3852.52
440.08	3702.73
440.26	3742.52
440.45	3782.31
440.63	3974.23
440.82	4245.73
441.01	4234.03
441.19	4203.60
441.38	4243.39
441.57	4262.12
441.75	4454.04
441.94	4400.21
442.12	4353.40
442.31	4418.93
442.50	4470.42
442.68	4369.78
442.87	4304.25
443.05	4243.39
443.24	4510.21
443.43	4505.53
443.61	4571.07
443.80	4510.21
443.98	4351.06
444.17	4252.75
444.35	4524.26
444.54	4542.98
444.73	4533.62
444.91	4575.75
445.10	4095.94
445.28	4018.70
445.47	4203.60
445.65	4088.92
445.84	4091.26
446.02	4205.94
446.21	4248.07
446.39	4437.66
446.58	4507.87
446.77	4444.68
446.95	4514.89
447.14	4613.20
447.32	4894.06
447.51	4652.98
447.69	4308.93
447.88	4365.10
448.06	4421.27
448.25	4552.34
448.43	4622.56
448.62	4400.21
448.80	4561.70
448.99	4507.87
449.17	4489.15
449.36	4589.79
449.54	4674.05
449.73	4739.58
449.91	4706.82
450.10	4954.91
450.28	5006.41
450.46	5050.88
450.65	4950.23
450.83	4919.81
451.02	4730.22
451.20	4819.16
451.39	4924.49
451.57	4842.57
451.76	4774.69
451.94	4842.57
452.13	4828.53
452.31	4521.92
452.49	4287.86
452.68	4327.65
452.86	4386.16
453.05	4517.23
453.23	4435.32
453.42	4587.45
453.60	4620.22
453.78	4571.07
453.97	4645.96
454.15	4578.09
454.34	4676.39
454.52	4559.36
454.70	4603.83
454.89	4582.77
455.07	4538.30
455.26	4704.48
455.44	4865.97
455.62	4999.38
455.81	4947.89
455.99	4936.19
456.17	4812.14
456.36	4814.48
456.54	4959.60
456.73	5125.77
456.91	5043.85
457.09	5053.22
457.28	5170.24
457.46	5053.22
457.64	4961.94
457.83	4821.50
458.01	4648.30
458.19	4732.56
458.38	4788.74
458.56	4933.85
458.74	5027.47
458.93	4985.34
459.11	4959.60
459.29	4887.04
459.48	4943.21
459.66	4875.34
459.84	4884.70
460.03	4910.44
460.21	4924.49
460.39	5137.48
460.57	5078.96
460.76	5128.11
460.94	5046.20
461.12	5060.24
461.31	5181.95
461.49	5067.26
461.67	5107.05
461.85	5123.43
462.04	5207.69
462.22	5647.71
462.40	5186.63
462.59	5116.41
462.77	5231.10
462.95	5217.05
463.13	4938.53
463.32	5184.29
463.50	5015.77
463.68	4947.89
463.86	5163.22
464.05	5046.20
464.23	4968.96
464.41	4884.70
464.59	4716.18
464.78	5046.20
464.96	4924.49
465.14	4929.17
465.32	5074.28
465.50	5186.63
465.69	5404.30
465.87	5219.39
466.05	4947.89
466.23	4725.54
466.41	4791.08
466.60	4760.65
466.78	4734.90
466.96	4847.25
467.14	4781.71
467.32	5029.81
467.51	5048.54
467.69	4957.25
467.87	4985.34
468.05	5107.05
468.23	5011.09
468.41	5018.11
468.60	5043.85
468.78	5210.03
468.96	4966.62
469.14	5142.16
469.32	5116.41
469.50	4901.08
469.69	4929.17
469.87	4816.82
470.05	4938.53
470.23	4884.70
470.41	4814.48
470.59	4875.34
470.77	5015.77
470.95	5025.13
471.14	5221.74
471.32	4891.72
471.50	5387.91
471.68	5366.85
471.86	5474.51
472.04	5327.06
472.22	5439.40
472.40	5116.41
472.58	5135.14
472.77	5231.10
472.95	5287.27
473.13	5350.46
473.31	5116.41
473.49	5195.99
473.67	5226.42
473.85	5507.28
474.03	5516.64
474.21	5575.16
474.39	5589.20
474.57	5774.10
474.75	5626.65
474.93	5509.62
475.12	5446.43
475.30	5369.19
475.48	5380.89
475.66	5540.05
475.84	5397.28
476.02	5364.51
476.20	5425.36
476.38	5523.66
476.56	5600.90
476.74	5612.60
476.92	5755.38
477.10	5797.51
477.28	5823.25
477.46	5984.75
477.64	6008.16
477.82	6052.63
478.00	5977.73
478.18	5930.92
478.36	5743.67
478.54	5893.47
478.72	5991.77
478.90	6054.97
479.08	6279.66
479.26	6225.82
479.44	6249.23
479.62	6258.59
479.80	6296.04
479.98	6382.64
480.16	6326.47
480.34	6342.85
480.52	6408.39
480.70	6518.39
480.88	6361.58
481.06	6590.95
481.24	6586.27
481.41	6895.22
481.59	6986.50
481.77	6897.56
481.95	6637.76
482.13	6757.13
482.31	6766.49
482.49	6958.41
482.67	6825.00
482.85	7042.67
483.03	6942.03
483.21	6832.02
483.39	7068.42
483.57	6932.67
483.74	6970.12
483.92	6949.05
484.10	6944.37
484.28	7019.27
484.46	7166.72
484.64	7052.03
484.82	6876.49
485.00	6895.22
485.18	6892.88
485.35	6679.89
485.53	6324.13
485.71	5891.13
485.89	5628.99
486.07	5804.53
486.25	6164.97
486.43	6698.61
486.61	6993.52
486.78	6930.33
486.96	6764.15
487.14	7037.99
487.32	7279.07
487.50	7375.03
487.68	7761.22
487.85	7742.49
488.03	7843.14
488.21	7688.66
488.39	7463.97
488.57	7452.27
488.75	7314.17
488.92	7705.04
489.10	8095.91
489.28	8334.65
489.46	8341.67
489.64	8463.38
489.81	8468.06
489.99	8505.51
490.17	8496.14
490.35	8500.83
490.53	8622.53
490.70	8191.88
490.88	8355.71
491.06	8437.63
491.24	8610.83
491.41	8271.45
491.59	8018.68
491.77	7826.75
491.95	7889.95
492.13	8196.56
492.30	8388.48
492.48	8659.98
492.66	8826.16
492.84	8940.85
493.01	8716.16
493.19	8648.28
493.37	8812.12
493.54	8517.21
493.72	8557.00
493.90	8933.82
494.08	9282.56
494.25	9163.20
494.43	9385.55
494.61	9671.09
494.79	9549.39
494.96	9380.87
495.14	9270.86
495.32	8971.27
495.49	8877.65
495.67	9200.65
495.85	9282.56
496.02	9437.04
496.20	9612.58
496.38	9586.83
496.55	9385.55
496.73	9540.02
496.91	9596.20
497.09	9804.50
497.26	9907.49
497.44	9734.29
497.62	9565.77
497.79	9507.26
497.97	9004.04
498.14	8805.10
498.32	9357.46
498.50	9455.76
498.67	9942.60
498.85	9720.24
499.03	9966.00
499.20	9830.25
499.38	9650.03
499.56	9820.89
499.73	9624.28
499.91	9664.07
500.08	9364.48
500.26	9308.31
500.44	9128.09
500.61	9378.53
500.79	9472.15
500.97	9191.28
501.14	9268.52
501.32	9214.69
501.49	8915.10
501.67	9118.73
501.84	9259.16
502.02	9511.94
502.20	9727.27
502.37	9820.89
502.55	9434.70
502.72	9640.67
502.90	9856.00
503.07	9586.83
503.25	9294.27
503.43	9039.15
503.60	8812.12
503.78	8468.06
503.95	8493.80
504.13	9287.25
504.30	9708.54
504.48	9535.34
504.65	9614.92
504.83	9760.03
505.01	9788.12
505.18	9886.42
505.36	10221.12
505.53	9781.10
505.71	10064.30
505.88	10263.25
506.06	10452.83
506.23	9776.42
506.41	9879.40
506.58	9804.50
506.76	9825.57
506.93	9820.89
507.11	9570.45
507.28	9816.21
507.46	9724.93
507.63	9666.41
507.81	9348.10
507.98	9621.94
508.16	9701.52
508.33	9905.15
508.50	10040.90
508.68	10207.08
508.85	10289.00
509.03	10492.62
509.20	10399.00
509.38	10291.34
509.55	9916.85
509.73	10003.45
509.90	10211.76
510.08	10207.08
510.25	10190.69
510.42	10223.46
510.60	10146.22
510.77	10080.69
510.95	10466.88
511.12	10551.14
511.30	10775.83
511.47	10750.08
511.64	10731.36
511.82	10689.23
511.99	10286.65
512.17	10171.97
512.34	9989.41
512.51	9947.28
512.69	10115.80
512.86	10090.05
513.04	10303.04
513.21	10150.90
513.38	10270.27
513.56	10019.83
513.73	9844.29
513.90	9954.30
514.08	9827.91
514.25	10125.16
514.43	10200.05
514.60	10132.18
514.77	10286.65
514.95	10188.35
515.12	10244.52
515.29	10352.19
515.47	10518.37
515.64	10480.92
515.81	10195.37
515.99	10300.70
516.16	9724.93
516.33	9029.79
516.51	8468.06
516.68	8517.21
516.85	8262.09
517.03	8241.03
517.20	8856.59
517.37	9673.43
517.54	10136.86
517.72	10101.75
517.89	9425.34
518.06	8606.15
518.24	8557.00
518.41	9341.08
518.58	9760.03
518.75	9584.49
518.93	10015.15
519.10	9762.37
519.27	10122.82
519.45	9935.57
519.62	10403.68
519.79	10394.32
519.96	10490.28
520.14	10457.51
520.31	10012.81
520.48	9987.07
520.65	10125.16
520.83	10190.69
521.00	10614.33
521.17	10396.66
521.34	10061.96
521.52	10473.90
521.69	10487.94
521.86	10672.84
522.03	10705.61
522.20	10059.62
522.38	9834.93
522.55	9893.44
522.72	10122.82
522.89	9895.78
523.07	10298.36
523.24	10218.78
523.41	10331.12
523.58	10806.25
523.75	10588.58
523.92	10696.25
524.10	10909.24
524.27	10782.85
524.44	10766.46
524.61	10743.06
524.78	10548.79
524.96	10574.54
525.13	10494.96
525.30	10630.71
525.47	10785.19
525.64	10785.19
525.81	10689.23
525.98	10253.89
526.16	9554.07
526.33	9193.62
526.50	9210.01
526.67	8982.98
526.84	9043.83
527.01	9523.64
527.18	9870.04
527.36	9961.32
527.53	10335.81
527.70	10422.41
527.87	10417.72
528.04	10239.84
528.21	10307.72
528.38	10403.68
528.55	10906.90
528.72	11101.16
528.89	11089.46
529.07	11073.07
529.24	10775.83
529.41	10490.28
529.58	10305.38
529.75	10078.35
529.92	10174.31
530.09	10595.61
530.26	10930.30
530.43	10855.40
530.60	10995.84
530.77	10871.79
530.94	11094.14
531.11	10808.59
531.28	10597.95
531.46	10644.76
531.63	10729.02
531.80	10801.57
531.97	10565.18
532.14	10403.68
532.31	10038.56
532.48	9682.80
532.65	9657.05
532.82	9867.70
532.99	10162.61
533.16	10560.50
533.33	10394.32
533.50	10705.61
533.67	10410.70
533.84	10085.37
534.01	10455.17
534.18	10368.57
534.35	10359.21
534.52	10555.82
534.69	10466.88
534.86	10677.52
535.03	10780.51
535.20	10918.60
535.37	10963.07
535.54	10946.69
535.71	11042.65
535.88	10913.92
536.05	10579.22
536.22	10590.92
536.38	10441.13
536.55	10087.71
536.72	10050.26
536.89	9846.63
537.06	10209.42
537.23	10553.48
537.40	10635.39
537.57	10775.83
537.74	10773.49
537.91	10530.07
538.08	10642.42
538.25	10513.69
538.42	10689.23
538.59	10820.30
538.75	10459.85
538.92	10228.14
539.09	10258.57
539.26	9994.09
539.43	10265.59
539.60	10071.33
539.77	10193.03
539.94	10289.00
540.11	10143.88
540.28	9898.13
540.44	9907.49
540.61	9930.89
540.78	10094.73
540.95	10136.86
541.12	10494.96
541.29	10754.76
541.46	10839.02
541.62	11075.42
541.79	10766.46
541.96	10726.68
542.13	10593.26
542.30	10677.52
542.47	10658.80
542.63	10829.66
542.80	10363.89
542.97	10626.03
543.14	10438.79
543.31	10354.53
543.48	10607.31
543.64	10960.73
543.81	10995.84
543.98	11112.86
544.15	10773.49
544.32	10560.50
544.48	10581.56
544.65	10707.95
544.82	10839.02
544.99	10696.25
545.16	10616.67
545.32	10562.84
545.49	11468.62
545.66	12226.96
545.83	12435.27
546.00	11875.88
546.16	11290.74
546.33	10801.57
546.50	10710.29
546.67	10939.66
546.83	10487.94
547.00	10471.56
547.17	10408.36
547.34	10317.08
547.50	10052.60
547.67	10314.74
547.84	9966.00
548.00	10143.88
548.17	10497.30
548.34	10356.87
548.51	10389.64
548.67	10331.12
548.84	10366.23
549.01	10326.44
549.18	10452.83
549.34	10373.25
549.51	10291.34
549.68	10162.61
549.84	10120.48
550.01	10026.86
550.18	10354.53
550.34	10291.34
550.51	10216.44
550.68	10221.12
550.84	10186.01
551.01	10022.17
551.18	10064.30
551.34	9926.21
551.51	10188.35
551.68	10583.90
551.84	10391.98
552.01	10167.29
552.18	10167.29
552.34	10090.05
552.51	9715.56
552.68	9839.61
552.84	9729.61
553.01	10106.43
553.18	9935.57
553.34	9933.23
553.51	10342.83
553.67	10272.61
553.84	10230.48
554.01	10111.11
554.17	10022.17
554.34	10097.07
554.51	9888.76
554.67	10260.91
554.84	10230.48
555.00	10143.88
555.17	10038.56
555.33	9989.41
555.50	10094.73
555.67	10092.39
555.83	9984.73
556.00	9905.15
556.16	9748.33
556.33	9762.37
556.50	9657.05
556.66	9551.73
556.83	9392.57
556.99	9502.58
557.16	9385.55
557.32	9579.81
557.49	9476.83
557.65	9657.05
557.82	9778.76
557.98	9895.78
558.15	9666.41
558.32	9432.36
558.48	9174.90
558.65	9057.87
558.81	9125.75
558.98	9453.42
559.14	9212.35
559.31	9310.65
559.47	9378.53
559.64	9186.60
559.80	9097.66
559.97	9193.62
560.13	9231.07
560.30	9591.52
560.46	9643.01
560.63	9872.38
560.79	9795.14
560.96	9687.48
561.12	9502.58
561.29	9149.15
561.45	8980.64
561.61	9439.38
561.78	9371.50
561.94	9383.21
562.11	9614.92
562.27	9320.01
562.44	9273.20
562.60	9418.32
562.77	9533.00
562.93	9352.78
563.10	9359.80
563.26	9394.91
563.42	9352.78
563.59	9322.35
563.75	9329.38
563.92	9151.49
564.08	9144.47
564.24	9479.17
564.41	9315.33
564.57	9233.41
564.74	9202.99
564.90	9465.13
565.07	9149.15
565.23	9160.86
565.39	9036.81
565.56	8870.63
565.72	8851.91
565.88	9064.89
566.05	8732.54
566.21	9062.55
566.38	9048.51
566.54	8952.55
566.70	9139.79
566.87	9350.44
567.03	9111.71
567.19	9202.99
567.36	9193.62
567.52	8947.87
567.68	8945.53
567.85	8739.56
568.01	8479.76
568.17	8519.55
568.34	8475.08
568.50	8201.24
568.66	8262.09
568.83	8355.71
568.99	8449.33
569.15	8425.93
569.32	8566.36
569.48	8278.47
569.64	8299.54
569.81	8334.65
569.97	8547.64
570.13	8449.33
570.30	8332.31
570.46	8299.54
570.62	8116.98
570.78	8093.57
570.95	8107.62
571.11	8243.37
571.27	8432.95
571.43	8322.94
571.60	8603.81
571.76	8411.89
571.92	8334.65
572.09	8777.01
572.25	8388.48
572.41	8784.03
572.57	8414.23
572.74	8571.04
572.90	8315.92
573.06	8416.57
573.22	8456.36
573.38	8435.29
573.55	8383.80
573.71	8594.45
573.87	8482.10
574.03	8355.71
574.20	8334.65
574.36	8189.53
574.52	8191.88
574.68	8163.79
574.84	8114.64
575.01	7983.57
575.17	8044.42
575.33	7957.82
575.49	8252.73
575.65	8248.05
575.82	8205.92
575.98	8058.46
576.14	8194.22
576.30	8278.47
576.46	8580.40
576.62	8542.96
576.79	8589.77
576.95	8404.86
577.11	8290.18
577.27	8318.26
577.43	8311.24
577.59	8056.12
577.75	8226.98
577.92	7705.04
578.08	7852.50
578.24	7981.23
578.40	8088.89
578.56	8187.19
578.72	8442.31
578.88	8486.78
579.04	8418.91
579.21	8278.47
579.37	8086.55
579.53	8271.45
579.69	8329.97
579.85	8390.82
580.01	8315.92
580.17	8189.53
580.33	8283.16
580.49	8156.77
580.65	8301.88
580.82	8196.56
580.98	8344.01
581.14	8147.40
581.30	8418.91
581.46	8189.53
581.62	8329.97
581.78	8393.16
581.94	8496.14
582.10	8231.66
582.26	8442.31
582.42	8533.59
582.58	8400.18
582.74	8566.36
582.90	8259.75
583.06	8514.87
583.22	8376.78
583.38	8287.84
583.54	8561.68
583.70	8381.46
583.86	8444.65
584.02	8386.14
584.18	8451.67
584.34	8367.42
584.50	8318.26
584.66	8042.08
584.82	8086.55
584.98	8163.79
585.14	7899.31
585.30	7880.58
585.46	7749.51
585.62	7749.51
585.78	7719.09
585.94	7662.91
586.10	7798.66
586.26	7906.33
586.42	7932.08
586.58	8100.59
586.74	8138.04
586.90	7999.95
587.06	7861.86
587.22	7918.03
587.38	7892.29
587.54	7819.73
587.70	7559.93
587.86	7288.43
588.02	6984.16
588.18	6857.77
588.34	6607.33
588.49	6164.97
588.65	5771.76
588.81	5612.60
588.97	5600.90
589.13	5682.82
589.29	5776.44
589.45	5659.42
589.61	5741.33
589.77	6097.10
589.93	6345.19
590.08	6441.15
590.24	6476.26
590.40	6672.87
590.56	6738.40
590.72	6588.61
590.88	6668.19
591.04	6459.88
591.20	6590.95
591.35	6502.01
591.51	6450.52
591.67	6518.39
591.83	6473.92
591.99	6579.25
592.15	6445.84
592.31	6682.23
592.46	6853.09
592.62	7033.31
592.78	6864.79
592.94	6843.73
593.10	6979.48
593.26	7035.65
593.41	7143.32
593.57	6902.24
593.73	6754.79
593.89	6565.20
594.05	6267.95
594.20	6221.14
594.36	6033.90
594.52	5867.72
594.68	6057.31
594.84	6417.75
