SpectraSuite Data File
++++++++++++++++++++++++++++++++++++
Date: Fri Oct 04 11:44:22 GMT-05:00 2013
User: price-jones
Dark Spectrum Present: No
Reference Spectrum Present: No
Number of Sampled Component Spectra: 1
Spectrometers: USB2+H05261
Integration Time (usec): 100000 (USB2+H05261)
Spectra Averaged: 1 (USB2+H05261)
Boxcar Smoothing: 0 (USB2+H05261)
Correct for Electrical Dark: No (USB2+H05261)
Strobe/Lamp Enabled: No (USB2+H05261)
Correct for Detector Non-linearity: No (USB2+H05261)
Correct for Stray Light: No (USB2+H05261)
Number of Pixels in Processed Spectrum: 2048
>>>>>Begin Processed Spectral Data<<<<<
365.73	56.17
365.92	56.17
366.12	56.17
366.32	32.77
366.52	0.00
366.72	0.00
366.91	0.00
367.11	0.00
367.31	0.00
367.51	0.00
367.70	0.00
367.90	0.00
368.10	0.00
368.30	0.00
368.49	0.00
368.69	0.00
368.89	0.00
369.09	0.00
369.28	0.00
369.48	0.00
369.68	0.00
369.87	0.00
370.07	0.00
370.27	32.77
370.47	119.37
370.66	456.40
370.86	489.17
371.06	578.11
371.25	622.58
371.45	603.86
371.65	599.18
371.84	484.49
372.04	500.87
372.24	528.96
372.44	538.32
372.63	603.86
372.83	575.77
373.03	505.56
373.22	454.06
373.42	444.70
373.62	528.96
373.81	526.62
374.01	606.20
374.21	517.26
374.40	512.58
374.60	526.62
374.79	592.16
374.99	608.54
375.19	767.70
375.38	716.20
375.58	690.46
375.78	650.67
375.97	608.54
376.17	739.61
376.37	725.57
376.56	711.52
376.76	699.82
376.95	737.27
377.15	781.74
377.35	856.64
377.54	798.12
377.74	840.25
377.93	882.38
378.13	952.60
378.33	915.15
378.52	763.01
378.72	795.78
378.91	814.51
379.11	779.40
379.31	767.70
379.50	751.31
379.70	676.41
379.89	812.17
380.09	800.46
380.28	858.98
380.48	880.04
380.68	795.78
380.87	779.40
381.07	765.36
381.26	706.84
381.46	709.18
381.65	667.05
381.85	636.63
382.04	730.25
382.24	592.16
382.43	526.62
382.63	575.77
382.83	540.66
383.02	519.60
383.22	564.07
383.41	650.67
383.61	512.58
383.80	664.71
384.00	734.93
384.19	793.44
384.39	896.43
384.58	866.00
384.78	873.02
384.97	809.83
385.17	772.38
385.36	774.72
385.56	720.88
385.75	718.54
385.95	828.55
386.14	901.11
386.34	870.68
386.53	791.10
386.72	706.84
386.92	826.21
387.11	779.40
387.31	851.96
387.50	800.46
387.70	840.25
387.89	898.77
388.09	826.21
388.28	774.72
388.48	798.12
388.67	898.77
388.86	994.73
389.06	940.90
389.25	1025.15
389.45	1025.15
389.64	1090.69
389.84	1097.71
390.03	971.32
390.22	1086.01
390.42	1013.45
390.61	1132.82
390.81	1268.57
391.00	1287.29
391.19	1306.02
391.39	1071.97
391.58	1111.75
391.78	1048.56
391.97	1029.84
392.16	938.55
392.36	919.83
392.55	772.38
392.75	582.79
392.94	503.22
393.13	559.39
393.33	645.99
393.52	704.50
393.71	931.53
393.91	954.94
394.10	978.34
394.29	1041.54
394.49	1114.10
394.68	1256.87
394.88	1226.44
395.07	1327.08
395.26	1364.53
395.46	1270.91
395.65	1158.57
395.84	1057.92
396.04	985.37
396.23	718.54
396.42	760.67
396.62	667.05
396.81	723.23
397.00	840.25
397.19	1111.75
397.39	1362.19
397.58	1366.87
397.77	1401.98
397.97	1451.13
398.16	1521.35
398.35	1582.20
398.55	1643.06
398.74	1657.10
398.93	1783.49
399.12	1685.19
399.32	1717.95
399.51	1612.63
399.70	1746.04
399.90	1708.59
400.09	1734.34
400.28	1764.76
400.47	1701.57
400.67	1811.57
400.86	1785.83
401.05	1888.81
401.24	1909.88
401.44	2003.50
401.63	1982.43
401.82	1865.41
402.01	1907.54
402.21	1825.62
402.40	1783.49
402.59	1832.64
402.78	1792.85
402.97	1764.76
403.17	1799.87
403.36	1952.01
403.55	2090.10
403.74	2010.52
403.93	2019.88
404.13	1926.26
404.32	2097.12
404.51	1944.99
404.70	2017.54
404.89	2012.86
405.09	2033.93
405.28	1809.23
405.47	1823.28
405.66	1952.01
405.85	1886.47
406.05	1844.34
406.24	1732.00
406.43	1865.41
406.62	1858.39
406.81	1952.01
407.00	1849.02
407.20	1884.13
407.39	1891.15
407.58	2052.65
407.77	2003.50
407.96	2029.24
408.15	2029.24
408.34	2092.44
408.54	2113.50
408.73	2179.04
408.92	2246.91
409.11	2059.67
409.30	2043.29
409.49	1956.69
409.68	1839.66
409.87	1755.40
410.07	1771.79
410.26	1966.05
410.45	2010.52
410.64	2036.27
410.83	2200.10
411.02	2157.97
411.21	2305.43
411.40	2312.45
411.59	2385.01
411.78	2218.83
411.98	2331.17
412.17	2181.38
412.36	2258.62
412.55	2186.06
412.74	2282.02
412.93	2298.41
413.12	2157.97
413.31	2356.92
413.50	2422.45
413.69	2450.54
413.88	2459.90
414.07	2251.60
414.26	2317.13
414.45	2420.11
414.64	2342.88
414.83	2403.73
415.02	2345.22
415.22	2389.69
415.41	2392.03
415.60	2335.85
415.79	2441.18
415.98	2710.34
416.17	2532.46
416.36	2581.61
416.55	2553.52
416.74	2441.18
416.93	2380.32
417.12	2232.87
417.31	2406.07
417.50	2436.50
417.69	2581.61
417.88	2534.80
418.07	2424.80
418.26	2452.88
418.45	2565.23
418.64	2422.45
418.83	2597.99
419.02	2450.54
419.21	2452.88
419.39	2487.99
419.58	2296.07
419.77	2324.15
419.96	2417.77
420.15	2628.42
420.34	2686.94
420.53	2670.55
420.72	2696.30
420.91	2768.85
421.10	2724.38
421.29	2803.96
421.48	2642.46
421.67	2731.41
421.86	2656.51
422.05	2541.82
422.24	2387.35
422.43	2291.38
422.61	2363.94
422.80	2560.55
422.99	2569.91
423.18	2445.86
423.37	2457.56
423.56	2410.75
423.75	2462.24
423.94	2560.55
424.13	2555.86
424.32	2490.33
424.50	2410.75
424.69	2387.35
424.88	2497.35
425.07	2438.84
425.26	2424.80
425.45	2490.33
425.64	2382.67
425.83	2410.75
426.01	2525.44
426.20	2511.39
426.39	2558.21
426.58	2258.62
426.77	2256.28
426.96	2230.53
427.15	2296.07
427.33	2396.71
427.52	2387.35
427.71	2410.75
427.90	2462.24
428.09	2415.43
428.28	2436.50
428.46	2317.13
428.65	2382.67
428.84	2335.85
429.03	2417.77
429.22	2188.40
429.40	2054.99
429.59	1975.41
429.78	1860.73
429.97	1778.81
430.16	1846.68
430.34	1991.80
430.53	1818.60
430.72	1816.26
430.91	2045.63
431.10	2256.28
431.28	2588.63
431.47	2822.69
431.66	2970.14
431.85	2635.44
432.03	2469.27
432.22	2392.03
432.41	2534.80
432.60	2532.46
432.79	2633.10
432.97	2876.52
433.16	2834.39
433.35	2637.78
433.54	2356.92
433.72	2235.21
433.91	2300.75
434.10	2441.18
434.28	2642.46
434.47	2902.26
434.66	2825.03
434.85	2754.81
435.03	2782.90
435.22	3267.39
435.41	3896.99
435.59	4051.47
435.78	3684.00
435.97	3370.37
436.16	3141.00
436.34	3152.70
436.53	3016.95
436.72	2984.18
436.90	2731.41
437.09	2913.97
437.28	2715.02
437.46	2766.51
437.65	2738.43
437.84	2712.68
438.02	2541.82
438.21	2424.80
438.40	2523.10
438.58	2745.45
438.77	2799.28
438.96	2818.00
439.14	2911.63
439.33	2993.55
439.52	2991.20
439.70	3122.27
439.89	3016.95
440.08	2925.67
440.26	2841.41
440.45	2937.37
440.63	3068.44
440.82	3269.73
441.01	3272.07
441.19	3255.69
441.38	3220.58
441.57	3253.34
441.75	3400.80
441.94	3421.86
442.12	3358.67
442.31	3435.91
442.50	3400.80
442.68	3276.75
442.87	3346.97
443.05	3384.41
443.24	3449.95
443.43	3332.92
443.61	3499.10
443.80	3499.10
443.98	3403.14
444.17	3309.52
444.35	3442.93
444.54	3529.53
444.73	3433.57
444.91	3363.35
445.10	3173.77
445.28	3103.55
445.47	3073.12
445.65	3045.04
445.84	3089.51
446.02	3208.87
446.21	3363.35
446.39	3377.39
446.58	3468.67
446.77	3473.36
446.95	3524.85
447.14	3506.12
447.32	3712.09
447.51	3478.04
447.69	3545.91
447.88	3377.39
448.06	3407.82
448.25	3466.33
448.43	3454.63
448.62	3473.36
448.80	3410.16
448.99	3501.44
449.17	3510.80
449.36	3517.83
449.54	3728.47
449.73	3581.02
449.91	3707.41
450.10	3775.28
450.28	3911.04
450.46	3815.07
450.65	3775.28
450.83	3885.29
451.02	3777.62
451.20	3691.02
451.39	3679.32
451.57	3606.77
451.76	3634.85
451.94	3639.53
452.13	3597.40
452.31	3377.39
452.49	3283.77
452.68	3255.69
452.86	3335.26
453.05	3377.39
453.23	3293.13
453.42	3529.53
453.60	3681.66
453.78	3681.66
453.97	3576.34
454.15	3597.40
454.34	3510.80
454.52	3545.91
454.70	3625.49
454.89	3564.64
455.07	3534.21
455.26	3543.57
455.44	3728.47
455.62	3679.32
455.81	3723.79
455.99	3695.71
456.17	3756.56
456.36	3730.81
456.54	3796.35
456.73	3794.01
456.91	3789.33
457.09	3960.19
457.28	4105.30
457.46	3749.54
457.64	3845.50
457.83	3644.21
458.01	3606.77
458.19	3747.20
458.38	3688.68
458.56	3939.12
458.74	3817.41
458.93	3740.18
459.11	3805.71
459.29	3674.64
459.48	3660.60
459.66	3679.32
459.84	3714.43
460.03	3929.76
460.21	3772.94
460.39	3850.18
460.57	3957.85
460.76	3826.78
460.94	3990.61
461.12	4025.72
461.31	3871.25
461.49	3899.33
461.67	3840.82
461.85	3929.76
462.04	3997.64
462.22	4531.28
462.40	3997.64
462.59	4011.68
462.77	3962.53
462.95	3927.42
463.13	3955.51
463.32	3964.87
463.50	3920.40
463.68	3859.54
463.86	3829.12
464.05	3833.80
464.23	3845.50
464.41	3611.45
464.59	3679.32
464.78	3983.59
464.96	3770.60
465.14	3735.50
465.32	3850.18
465.50	3894.65
465.69	4016.36
465.87	3936.78
466.05	3878.27
466.23	3707.41
466.41	3632.51
466.60	3695.71
466.78	3634.85
466.96	3719.11
467.14	3885.29
467.32	3861.88
467.51	3871.25
467.69	3747.20
467.87	3719.11
468.05	3960.19
468.23	3740.18
468.41	3880.61
468.60	3733.15
468.78	3859.54
468.96	3709.75
469.14	3758.90
469.32	3983.59
469.50	3684.00
469.69	3913.38
469.87	3733.15
470.05	3730.81
470.23	3721.45
470.41	3695.71
470.59	3812.73
470.77	3749.54
470.95	3852.52
471.14	3964.87
471.32	3861.88
471.50	4107.64
471.68	4159.13
471.86	4102.96
472.04	4231.69
472.22	4098.28
472.40	3971.89
472.58	3808.05
472.77	3889.97
472.95	4014.02
473.13	4156.79
473.31	3969.55
473.49	3992.95
473.67	4037.42
473.85	3983.59
474.03	4056.15
474.21	4117.00
474.39	4229.35
474.57	4341.69
474.75	4315.95
474.93	4222.33
475.12	4180.20
475.30	4091.26
475.48	4187.22
475.66	4035.08
475.84	4025.72
476.02	4016.36
476.20	4114.66
476.38	4117.00
476.56	4271.48
476.74	4189.56
476.92	4112.32
477.10	4297.22
477.28	4449.36
477.46	4428.29
477.64	4512.55
477.82	4674.05
478.00	4678.73
478.18	4557.02
478.36	4339.35
478.54	4435.32
478.72	4355.74
478.90	4730.22
479.08	4667.03
479.26	4823.84
479.44	4816.82
479.62	4709.16
479.80	4573.41
479.98	4755.97
480.16	4882.36
480.34	4964.28
480.52	4894.06
480.70	4997.04
480.88	4844.91
481.06	4961.94
481.24	5135.14
481.41	4992.36
481.59	5212.37
481.77	5355.15
481.95	5198.33
482.13	5032.15
482.31	5205.35
482.49	5207.69
482.67	5191.31
482.85	5238.12
483.03	5348.12
483.21	5224.08
483.39	5500.26
483.57	5329.40
483.74	5205.35
483.92	5352.81
484.10	5217.05
484.28	5432.38
484.46	5479.19
484.64	5373.87
484.82	5310.68
485.00	5404.30
485.18	5247.48
485.35	5231.10
485.53	4961.94
485.71	4496.17
485.89	4337.01
486.07	4554.68
486.25	4919.81
486.43	5228.76
486.61	5320.04
486.78	5348.12
486.96	5123.43
487.14	5460.47
487.32	5607.92
487.50	5710.91
487.68	5921.56
487.85	5937.94
488.03	6010.50
488.21	5895.81
488.39	5760.06
488.57	5626.65
488.75	5600.90
488.92	6080.71
489.10	6087.73
489.28	6326.47
489.46	6518.39
489.64	6537.12
489.81	6502.01
489.99	6382.64
490.17	6431.79
490.35	6637.76
490.53	6443.49
490.70	6366.26
490.88	6253.91
491.06	6431.79
491.24	6317.11
491.41	6225.82
491.59	6216.46
491.77	5989.43
491.95	6087.73
492.13	6253.91
492.30	6494.99
492.48	6780.53
492.66	6768.83
492.84	6890.54
493.01	6808.62
493.19	6614.35
493.37	6518.39
493.54	6607.33
493.72	6593.29
493.90	6832.02
494.08	7007.56
494.25	7269.70
494.43	7023.95
494.61	7377.37
494.79	7199.49
494.96	7262.68
495.14	7084.80
495.32	6766.49
495.49	6876.49
495.67	6874.15
495.85	7206.51
496.02	7351.62
496.20	7166.72
496.38	7185.44
496.55	7150.34
496.73	7283.75
496.91	7386.73
497.09	7545.89
497.26	7412.48
497.44	7503.76
497.62	7267.36
497.79	7152.68
497.97	6801.60
498.14	6794.58
498.32	6944.37
498.50	7304.81
498.67	7478.01
498.85	7332.90
499.03	7531.84
499.20	7309.49
499.38	7562.27
499.56	7353.96
499.73	7363.33
499.91	7302.47
500.08	7075.44
500.26	6956.07
500.44	6913.94
500.61	7075.44
500.79	7129.27
500.97	7068.42
501.14	7026.29
501.32	7056.72
501.49	7019.27
501.67	7047.35
501.84	6967.77
502.02	7190.13
502.20	7262.68
502.37	7307.15
502.55	7190.13
502.72	7358.64
502.90	7562.27
503.07	7389.07
503.25	6979.48
503.43	6951.39
503.60	6532.44
503.78	6403.71
503.95	6703.29
504.13	6949.05
504.30	7290.77
504.48	7248.64
504.65	7307.15
504.83	7449.93
505.01	7585.68
505.18	7456.95
505.36	7779.94
505.53	7501.42
505.71	7620.78
505.88	7662.91
506.06	7793.98
506.23	7353.96
506.41	7440.56
506.58	7461.63
506.76	7403.11
506.93	7440.56
507.11	7339.92
507.28	7428.86
507.46	7325.88
507.63	7124.59
507.81	7016.93
507.98	7073.10
508.16	7433.54
508.33	7513.12
508.50	7592.70
508.68	7672.28
508.85	7887.61
509.03	7896.97
509.20	7824.41
509.38	7681.64
509.55	7536.52
509.73	7555.25
509.90	7454.61
510.08	7648.87
510.25	7723.77
510.42	7506.10
510.60	7735.47
510.77	7630.15
510.95	7850.16
511.12	7749.51
511.30	7971.86
511.47	8152.09
511.64	8140.38
511.82	8079.53
511.99	7871.22
512.17	7646.53
512.34	7538.87
512.51	7606.74
512.69	7534.18
512.86	7754.19
513.04	7854.84
513.21	7882.92
513.38	7679.30
513.56	7358.64
513.73	7342.26
513.90	7391.41
514.08	7527.16
514.25	7726.11
514.43	7676.96
514.60	7632.49
514.77	7489.71
514.95	7857.18
515.12	7655.89
515.29	7789.30
515.47	8072.51
515.64	7950.80
515.81	7833.77
515.99	7772.92
516.16	7356.30
516.33	6963.09
516.51	6363.92
516.68	6384.98
516.85	6235.19
517.03	6279.66
517.20	6808.62
517.37	7335.24
517.54	7592.70
517.72	7662.91
517.89	7110.55
518.06	6656.48
518.24	6483.28
518.41	7103.53
518.58	7356.30
518.75	7370.35
518.93	7368.01
519.10	7368.01
519.27	7421.84
519.45	7428.86
519.62	7660.57
519.79	7751.85
519.96	7817.39
520.14	7709.72
520.31	7585.68
520.48	7382.05
520.65	7506.10
520.83	7705.04
521.00	8009.31
521.17	7847.82
521.34	7744.83
521.52	7955.48
521.69	8037.40
521.86	8058.46
522.03	7840.79
522.20	7758.88
522.38	7492.05
522.55	7421.84
522.72	7777.60
522.89	7496.74
523.07	7747.17
523.24	7815.05
523.41	7812.71
523.58	7974.21
523.75	8140.38
523.92	8084.21
524.10	8116.98
524.27	8105.28
524.44	8056.12
524.61	8060.80
524.78	8049.10
524.96	7974.21
525.13	7999.95
525.30	8142.72
525.47	8217.62
525.64	8145.06
525.81	7950.80
525.98	7456.95
526.16	7016.93
526.33	7096.50
526.50	7045.01
526.67	6881.18
526.84	7077.78
527.01	7084.80
527.18	7225.23
527.36	7782.28
527.53	7777.60
527.70	7920.37
527.87	7974.21
528.04	7871.22
528.21	7782.28
528.38	8147.40
528.55	8367.42
528.72	8477.42
528.89	8362.73
529.07	8304.22
529.24	8184.85
529.41	8016.33
529.58	7691.00
529.75	7740.15
529.92	7758.88
530.09	8009.31
530.26	8053.78
530.43	8173.15
530.60	8152.09
530.77	7997.61
530.94	8313.58
531.11	8203.58
531.28	8030.38
531.46	7927.39
531.63	7988.25
531.80	8037.40
531.97	7918.03
532.14	7840.79
532.31	7559.93
532.48	7400.77
532.65	7234.60
532.82	7433.54
532.99	7688.66
533.16	7824.41
533.33	8023.36
533.50	8051.44
533.67	7941.44
533.84	7721.43
534.01	7742.49
534.18	7768.24
534.35	7852.50
534.52	7875.90
534.69	8023.36
534.86	8035.06
535.03	8086.55
535.20	8219.96
535.37	8243.37
535.54	8318.26
535.71	8262.09
535.88	7974.21
536.05	8028.04
536.22	7997.61
536.38	7864.20
536.55	7801.01
536.72	7602.06
536.89	7543.55
537.06	7669.94
537.23	7908.67
537.40	8056.12
537.57	8187.19
537.74	8042.08
537.91	8044.42
538.08	7999.95
538.25	8016.33
538.42	8072.51
538.59	8173.15
538.75	7896.97
538.92	7908.67
539.09	7981.23
539.26	7641.85
539.43	7662.91
539.60	7770.58
539.77	8102.93
539.94	7749.51
540.11	7676.96
540.28	7564.61
540.44	7616.10
540.61	7819.73
540.78	7784.62
540.95	8112.30
541.12	8458.70
541.29	8568.70
541.46	8643.60
541.62	8788.71
541.79	8688.07
541.96	8444.65
542.13	8315.92
542.30	8369.76
542.47	8409.54
542.63	8510.19
542.80	8166.13
542.97	8166.13
543.14	8159.11
543.31	8306.56
543.48	8299.54
543.64	8638.92
543.81	8613.17
543.98	8870.63
544.15	8542.96
544.32	8383.80
544.48	8271.45
544.65	8301.88
544.82	8557.00
544.99	8332.31
545.16	8299.54
545.32	8320.60
545.49	8964.25
545.66	10047.92
545.83	10363.89
546.00	9905.15
546.16	9092.98
546.33	8772.33
546.50	8311.24
546.67	8475.08
546.83	8290.18
547.00	8439.97
547.17	7927.39
547.34	7791.64
547.50	7632.49
547.67	7850.16
547.84	7786.96
548.00	7969.52
548.17	8042.08
548.34	8067.83
548.51	8182.51
548.67	7946.12
548.84	7985.91
549.01	8112.30
549.18	7957.82
549.34	7854.84
549.51	7981.23
549.68	7833.77
549.84	7667.60
550.01	7878.24
550.18	7812.71
550.34	7754.19
550.51	7812.71
550.68	7784.62
550.84	7559.93
551.01	7527.16
551.18	7698.02
551.34	7463.97
551.51	7782.28
551.68	7983.57
551.84	7845.48
552.01	7796.32
552.18	7655.89
552.34	7517.80
552.51	7461.63
552.68	7522.48
552.84	7590.36
553.01	7555.25
553.18	7641.85
553.34	7548.23
553.51	7550.57
553.67	7646.53
553.84	7723.77
554.01	7583.34
554.17	7543.55
554.34	7545.89
554.51	7545.89
554.67	7808.03
554.84	7700.36
555.00	7620.78
555.17	7674.62
555.33	7527.16
555.50	7606.74
555.67	7363.33
555.83	7260.34
556.00	7349.28
556.16	7485.03
556.33	7370.35
556.50	7180.76
556.66	7325.88
556.83	7192.47
556.99	7190.13
557.16	7073.10
557.32	7215.87
557.49	7293.11
557.65	7119.91
557.82	7351.62
557.98	7337.58
558.15	7131.61
558.32	6981.82
558.48	6913.94
558.65	6633.08
558.81	6864.79
558.98	7049.69
559.14	7035.65
559.31	6963.09
559.47	7028.63
559.64	7169.06
559.80	6881.18
559.97	6899.90
560.13	7007.56
560.30	7091.82
560.46	7368.01
560.63	7475.67
560.79	7468.65
560.96	7515.46
561.12	7363.33
561.29	6923.30
561.45	6874.15
561.61	6991.18
561.78	7105.87
561.94	6923.30
562.11	6972.46
562.27	7009.90
562.44	6984.16
562.60	6977.14
562.77	7180.76
562.93	7459.29
563.10	7152.68
563.26	7129.27
563.42	7152.68
563.59	6988.84
563.75	7012.24
563.92	6953.73
564.08	6946.71
564.24	7122.25
564.41	6904.58
564.57	6892.88
564.74	7077.78
564.90	6897.56
565.07	6904.58
565.23	6986.50
565.39	6740.74
565.56	6715.00
565.72	6661.16
565.88	6801.60
566.05	6480.94
566.21	6801.60
566.38	6729.04
566.54	6729.04
566.70	6902.24
566.87	6888.20
567.03	6885.86
567.19	7009.90
567.36	6832.02
567.52	6939.69
567.68	6953.73
567.85	6642.44
568.01	6392.00
568.17	6457.54
568.34	6457.54
568.50	6181.35
568.66	6293.70
568.83	6455.20
568.99	6239.87
569.15	6392.00
569.32	6373.28
569.48	6228.17
569.64	6298.38
569.81	6293.70
569.97	6246.89
570.13	6441.15
570.30	6462.22
570.46	6331.15
570.62	6202.42
570.78	6155.61
570.95	5987.09
571.11	6207.10
571.27	6277.32
571.43	6324.13
571.60	6310.08
571.76	6448.18
571.92	6370.94
572.09	6506.69
572.25	6551.16
572.41	6445.84
572.57	6342.85
572.74	6452.86
572.90	6319.45
573.06	6225.82
573.22	6377.96
573.38	6448.18
573.55	6291.36
573.71	6401.37
573.87	6448.18
574.03	6143.91
574.20	6291.36
574.36	6263.27
574.52	6183.70
574.68	6162.63
574.84	6218.80
575.01	6141.57
575.17	6066.67
575.33	5980.07
575.49	6066.67
575.65	6291.36
575.82	6118.16
575.98	6136.88
576.14	6179.01
576.30	6282.00
576.46	6562.86
576.62	6607.33
576.79	6787.55
576.95	6572.22
577.11	6347.53
577.27	6317.11
577.43	6253.91
577.59	6246.89
577.75	6066.67
577.92	5987.09
578.08	5912.19
578.24	5818.57
578.40	6146.25
578.56	6356.90
578.72	6352.21
578.88	6455.20
579.04	6476.26
579.21	6396.68
579.37	6377.96
579.53	6195.40
579.69	6375.62
579.85	6406.05
580.01	6427.11
580.17	6265.61
580.33	6363.92
580.49	6389.66
580.65	6228.17
580.82	6291.36
580.98	6176.67
581.14	6244.55
581.30	6174.33
581.46	6293.70
581.62	6258.59
581.78	6420.09
581.94	6375.62
582.10	6424.77
582.26	6555.84
582.42	6342.85
582.58	6466.90
582.74	6574.56
582.90	6513.71
583.06	6438.81
583.22	6169.65
583.38	6317.11
583.54	6492.65
583.70	6408.39
583.86	6436.47
584.02	6235.19
584.18	6455.20
584.34	6342.85
584.50	6394.34
584.66	6195.40
584.82	6274.98
584.98	6136.88
585.14	6141.57
585.30	6129.86
585.46	6164.97
585.62	5870.06
585.78	5928.58
585.94	6146.25
586.10	5968.37
586.26	6026.88
586.42	6022.20
586.58	6085.39
586.74	6104.12
586.90	6153.27
587.06	6141.57
587.22	6066.67
587.38	6085.39
587.54	5769.42
587.70	5769.42
587.86	5490.90
588.02	5184.29
588.18	5210.03
588.34	5090.67
588.49	4631.92
588.65	4393.19
588.81	4262.12
588.97	4435.32
589.13	4423.61
589.29	4297.22
589.45	4262.12
589.61	4580.43
589.77	4444.68
589.93	4690.43
590.08	4924.49
590.24	5022.79
590.40	5085.98
590.56	5074.28
590.72	5043.85
590.88	5008.75
591.04	4940.87
591.20	5025.13
591.35	4919.81
591.51	5032.15
591.67	4884.70
591.83	4784.06
591.99	4880.02
592.15	4961.94
592.31	5343.44
592.46	5238.12
592.62	5291.95
592.78	5336.42
592.94	5291.95
593.10	5383.23
593.26	5547.07
593.41	5575.16
593.57	5481.53
593.73	5387.91
593.89	5001.72
594.05	4793.42
594.20	4599.15
594.36	4451.70
594.52	4601.49
594.68	4648.30
594.84	4674.05
594.99	5060.24
595.15	5221.74
595.31	5144.50
595.47	5116.41
595.62	5069.60
595.78	5184.29
595.94	5238.12
596.10	5289.61
596.25	5242.80
596.41	5027.47
596.57	5001.72
596.73	5121.09
596.88	5221.74
597.04	5191.31
597.20	5069.60
597.36	5036.83
597.51	5050.88
