SpectraSuite Data File
++++++++++++++++++++++++++++++++++++
Date: Fri Oct 04 11:44:12 GMT-05:00 2013
User: price-jones
Dark Spectrum Present: No
Reference Spectrum Present: No
Number of Sampled Component Spectra: 1
Spectrometers: USB2+H05261
Integration Time (usec): 100000 (USB2+H05261)
Spectra Averaged: 1 (USB2+H05261)
Boxcar Smoothing: 0 (USB2+H05261)
Correct for Electrical Dark: No (USB2+H05261)
Strobe/Lamp Enabled: No (USB2+H05261)
Correct for Detector Non-linearity: No (USB2+H05261)
Correct for Stray Light: No (USB2+H05261)
Number of Pixels in Processed Spectrum: 2048
>>>>>Begin Processed Spectral Data<<<<<
365.73	60.85
365.92	60.85
366.12	60.85
366.32	0.00
366.52	0.00
366.72	0.00
366.91	0.00
367.11	0.00
367.31	0.00
367.51	0.00
367.70	0.00
367.90	0.00
368.10	0.00
368.30	0.00
368.49	0.00
368.69	0.00
368.89	0.00
369.09	0.00
369.28	0.00
369.48	0.00
369.68	7.02
369.87	0.00
370.07	0.00
370.27	56.17
370.47	142.77
370.66	791.10
370.86	877.70
371.06	938.55
371.25	1034.52
371.45	924.51
371.65	823.87
371.84	784.08
372.04	823.87
372.24	917.49
372.44	917.49
372.63	903.45
372.83	924.51
373.03	830.89
373.22	744.29
373.42	854.30
373.62	842.59
373.81	1013.45
374.01	964.30
374.21	833.23
374.40	763.01
374.60	922.17
374.79	950.26
374.99	1057.92
375.19	1170.27
375.38	1205.38
375.58	1048.56
375.78	1062.60
375.97	1053.24
376.17	1181.97
376.37	1074.31
376.56	1153.88
376.76	1090.69
376.95	1240.48
377.15	1296.66
377.35	1399.64
377.54	1390.28
377.74	1444.11
377.93	1547.09
378.13	1462.83
378.33	1327.08
378.52	1226.44
378.72	1111.75
378.91	1163.25
379.11	1247.51
379.31	1135.16
379.50	1142.18
379.70	1165.59
379.89	1331.76
380.09	1380.92
380.28	1453.47
380.48	1331.76
380.68	1483.90
380.87	1313.04
381.07	1249.85
381.26	1188.99
381.46	1226.44
381.65	1097.71
381.85	1121.12
382.04	1006.43
382.24	1027.50
382.43	961.96
382.63	957.28
382.83	898.77
383.02	929.19
383.22	945.58
383.41	987.71
383.61	954.94
383.80	1100.05
384.00	1193.67
384.19	1280.27
384.39	1411.34
384.58	1383.26
384.78	1458.15
384.97	1366.87
385.17	1287.29
385.36	1270.91
385.56	1277.93
385.75	1221.76
385.95	1397.30
386.14	1376.24
386.34	1430.07
386.53	1404.32
386.72	1334.11
386.92	1350.49
387.11	1430.07
387.31	1327.08
387.50	1444.11
387.70	1261.55
387.89	1390.28
388.09	1359.85
388.28	1369.21
388.48	1369.21
388.67	1460.49
388.86	1650.08
389.06	1715.61
389.25	1720.29
389.45	1743.70
389.64	1746.04
389.84	1769.44
390.03	1806.89
390.22	1675.82
390.42	1736.68
390.61	1949.67
390.81	2043.29
391.00	1937.96
391.19	2104.14
391.39	1935.62
391.58	1865.41
391.78	1813.92
391.97	1701.57
392.16	1650.08
392.36	1474.54
392.55	1291.98
392.75	1039.20
392.94	926.85
393.13	870.68
393.33	973.66
393.52	1228.78
393.71	1434.75
393.91	1563.48
394.10	1701.57
394.29	1806.89
394.49	1921.58
394.68	2104.14
394.88	2157.97
395.07	2305.43
395.26	2204.78
395.46	2108.82
395.65	2090.10
395.84	1804.55
396.04	1624.33
396.23	1366.87
396.42	1078.99
396.62	1158.57
396.81	1270.91
397.00	1467.52
397.19	1802.21
397.39	2045.63
397.58	2363.94
397.77	2464.58
397.97	2602.68
398.16	2705.66
398.35	2672.89
398.55	2689.28
398.74	2843.75
398.93	2928.01
399.12	2803.96
399.32	2803.96
399.51	2717.36
399.70	3143.34
399.90	2977.16
400.09	2920.99
400.28	2855.45
400.47	2979.50
400.67	3066.10
400.86	3138.66
401.05	3267.39
401.24	3145.68
401.44	3218.24
401.63	3178.45
401.82	3293.13
402.01	3148.02
402.21	3262.71
402.40	3199.51
402.59	3283.77
402.78	2974.82
402.97	2974.82
403.17	3131.64
403.36	3262.71
403.55	3438.25
403.74	3513.14
403.93	3260.37
404.13	3185.47
404.32	3087.17
404.51	3171.43
404.70	3449.95
404.89	3332.92
405.09	3384.41
405.28	3183.13
405.47	3211.22
405.66	3253.34
405.85	3035.67
406.05	3115.25
406.24	3110.57
406.43	3141.00
406.62	3283.77
406.81	3419.52
407.00	3122.27
407.20	3101.21
407.39	3286.11
407.58	3344.63
407.77	3377.39
407.96	3508.46
408.15	3620.81
408.34	3616.13
408.54	3702.73
408.73	3754.22
408.92	3597.40
409.11	3435.91
409.30	3492.08
409.49	3297.81
409.68	3138.66
409.87	2818.00
410.07	3215.90
410.26	3293.13
410.45	3508.46
410.64	3529.53
410.83	3674.64
411.02	3868.91
411.21	4030.40
411.40	3920.40
411.59	3899.33
411.78	3962.53
411.98	3782.31
412.17	3896.99
412.36	3904.01
412.55	3838.48
412.74	3796.35
412.93	3651.24
413.12	3723.79
413.31	4046.79
413.50	3990.61
413.69	4128.70
413.88	3955.51
414.07	3861.88
414.26	3927.42
414.45	3988.27
414.64	4011.68
414.83	4133.39
415.02	4030.40
415.22	4032.74
415.41	4037.42
415.60	4135.73
415.79	4393.19
415.98	4454.04
416.17	4402.55
416.36	4374.46
416.55	4297.22
416.74	4119.34
416.93	3946.14
417.12	4095.94
417.31	4002.32
417.50	4205.94
417.69	4187.22
417.88	4262.12
418.07	4140.41
418.26	4131.05
418.45	4145.09
418.64	4411.91
418.83	4322.97
419.02	4381.48
419.21	4477.44
419.39	4203.60
419.58	3936.78
419.77	4007.00
419.96	4145.09
420.15	4435.32
420.34	4479.79
420.53	4468.08
420.72	4669.37
420.91	4627.24
421.10	4655.33
421.29	4652.98
421.48	4416.59
421.67	4601.49
421.86	4430.63
422.05	4201.26
422.24	3796.35
422.43	3740.18
422.61	4222.33
422.80	4449.36
422.99	4454.04
423.18	4301.90
423.37	4278.50
423.56	4278.50
423.75	4297.22
423.94	4376.80
424.13	4245.73
424.32	4215.30
424.50	4086.58
424.69	4128.70
424.88	4285.52
425.07	4163.81
425.26	4266.80
425.45	4257.43
425.64	4032.74
425.83	4021.04
426.01	4278.50
426.20	4402.55
426.39	4475.10
426.58	4084.23
426.77	3854.86
426.96	3756.56
427.15	3796.35
427.33	4205.94
427.52	4180.20
427.71	4292.54
427.90	4196.58
428.09	4128.70
428.28	4086.58
428.46	3983.59
428.65	3901.67
428.84	3974.23
429.03	4030.40
429.22	3808.05
429.40	3772.94
429.59	3393.78
429.78	3105.89
429.97	2944.39
430.16	2993.55
430.34	3094.19
430.53	2967.80
430.72	3084.83
430.91	3412.50
431.10	3866.56
431.28	4362.76
431.47	4880.02
431.66	4947.89
431.85	4718.52
432.03	4191.90
432.22	4266.80
432.41	4189.56
432.60	4601.49
432.79	4863.63
432.97	4856.61
433.16	4650.64
433.35	4395.53
433.54	4074.87
433.72	3871.25
433.91	3889.97
434.10	4203.60
434.28	4554.68
434.47	4737.24
434.66	4788.74
434.85	4681.07
435.03	4826.18
435.22	5046.20
435.41	5582.18
435.59	5430.04
435.78	5322.38
435.97	5343.44
436.16	5273.23
436.34	5298.97
436.53	5036.83
436.72	5008.75
436.90	4980.66
437.09	4816.82
437.28	4765.33
437.46	4791.08
437.65	4880.02
437.84	4585.11
438.02	4262.12
438.21	4166.15
438.40	4329.99
438.58	4624.90
438.77	4882.36
438.96	4863.63
439.14	5095.35
439.33	5188.97
439.52	5334.08
439.70	5193.65
439.89	4926.83
440.08	5053.22
440.26	4997.04
440.45	5130.45
440.63	5404.30
440.82	5465.15
441.01	5579.84
441.19	5460.47
441.38	5673.46
441.57	5750.70
441.75	5682.82
441.94	5809.21
442.12	5806.87
442.31	5998.79
442.50	5879.43
442.68	5825.59
442.87	5760.06
443.05	5657.07
443.24	5841.98
443.43	5818.57
443.61	6050.28
443.80	5998.79
443.98	5741.33
444.17	5577.50
444.35	5893.47
444.54	6179.01
444.73	6118.16
444.91	5858.36
445.10	5598.56
445.28	5327.06
445.47	5284.93
445.65	5373.87
445.84	5528.35
446.02	5657.07
446.21	5755.38
446.39	5877.09
446.58	5858.36
446.77	5902.83
446.95	5935.60
447.14	5968.37
447.32	6015.18
447.51	6078.37
447.69	5961.34
447.88	5935.60
448.06	5802.19
448.25	6113.48
448.43	6108.80
448.62	6043.26
448.80	5944.96
448.99	5963.68
449.17	6150.93
449.36	6036.24
449.54	6132.20
449.73	6382.64
449.91	6352.21
450.10	6656.48
450.28	6843.73
450.46	6707.98
450.65	6623.72
450.83	6607.33
451.02	6326.47
451.20	6499.67
451.39	6417.75
451.57	6406.05
451.76	6457.54
451.94	6319.45
452.13	6267.95
452.31	6047.94
452.49	5778.78
452.68	5526.00
452.86	5827.93
453.05	5776.44
453.23	5881.77
453.42	6169.65
453.60	6073.69
453.78	6267.95
453.97	6228.17
454.15	6090.07
454.34	6087.73
454.52	6134.54
454.70	6064.33
454.89	6125.18
455.07	6122.84
455.26	6190.72
455.44	6225.82
455.62	6399.02
455.81	6497.33
455.99	6359.24
456.17	6377.96
456.36	6427.11
456.54	6766.49
456.73	6457.54
456.91	6750.10
457.09	6829.68
457.28	6913.94
457.46	6715.00
457.64	6719.68
457.83	6373.28
458.01	6207.10
458.19	6340.51
458.38	6422.43
458.56	6600.31
458.74	6710.32
458.93	6518.39
459.11	6284.34
459.29	6490.31
459.48	6532.44
459.66	6480.94
459.84	6562.86
460.03	6689.25
460.21	6483.28
460.39	6633.08
460.57	6656.48
460.76	6979.48
460.94	6862.45
461.12	6864.79
461.31	6869.47
461.49	6796.92
461.67	6799.26
461.85	6963.09
462.04	6822.66
462.22	7302.47
462.40	6883.52
462.59	6963.09
462.77	7063.74
462.95	6712.66
463.13	6869.47
463.32	6780.53
463.50	6717.34
463.68	6738.40
463.86	6780.53
464.05	6576.91
464.23	6525.41
464.41	6445.84
464.59	6200.08
464.78	6663.51
464.96	6780.53
465.14	6537.12
465.32	6813.30
465.50	6817.98
465.69	7063.74
465.87	6794.58
466.05	6803.94
466.23	6506.69
466.41	6303.06
466.60	6480.94
466.78	6471.58
466.96	6551.16
467.14	6424.77
467.32	6698.61
467.51	6642.44
467.69	6427.11
467.87	6712.66
468.05	6642.44
468.23	6752.45
468.41	6712.66
468.60	6731.38
468.78	6738.40
468.96	6670.53
469.14	6656.48
469.32	6567.54
469.50	6509.03
469.69	6417.75
469.87	6384.98
470.05	6504.35
470.23	6431.79
470.41	6427.11
470.59	6483.28
470.77	6487.96
470.95	6637.76
471.14	6813.30
471.32	6782.87
471.50	7246.30
471.68	7204.17
471.86	7187.79
472.04	7063.74
472.22	7379.71
472.40	6984.16
472.58	6846.07
472.77	7063.74
472.95	7073.10
473.13	7162.04
473.31	6808.62
473.49	6942.03
473.67	7035.65
473.85	6967.77
474.03	7159.70
474.21	7117.57
474.39	7260.34
474.57	7337.58
474.75	7419.50
474.93	7349.28
475.12	7145.66
475.30	7028.63
475.48	7037.99
475.66	7262.68
475.84	7246.30
476.02	7080.12
476.20	7000.54
476.38	7169.06
476.56	7564.61
476.74	7515.46
476.92	7365.67
477.10	7716.75
477.28	7901.65
477.46	7969.52
477.64	7922.71
477.82	7906.33
478.00	7941.44
478.18	7859.52
478.36	7737.81
478.54	7742.49
478.72	7878.24
478.90	7962.50
479.08	8334.65
479.26	8358.05
479.44	8397.84
479.62	8278.47
479.80	8533.59
479.98	8446.99
480.16	8561.68
480.34	8510.19
480.52	8449.33
480.70	8617.85
480.88	8451.67
481.06	8870.63
481.24	8849.57
481.41	8987.66
481.59	9160.86
481.77	8898.72
481.95	8968.93
482.13	9064.89
482.31	8872.97
482.49	9034.47
482.67	9085.96
482.85	9046.17
483.03	9165.54
483.21	9193.62
483.39	9256.82
483.57	9195.96
483.74	9090.64
483.92	9041.49
484.10	9305.97
484.28	9331.72
484.46	9315.33
484.64	9425.34
484.82	9397.25
485.00	9385.55
485.18	9193.62
485.35	8858.93
485.53	8390.82
485.71	7669.94
485.89	7494.40
486.07	7742.49
486.25	8306.56
486.43	8830.84
486.61	9114.05
486.78	9123.41
486.96	8987.66
487.14	9320.01
487.32	9659.39
487.50	9872.38
487.68	9970.68
487.85	10171.97
488.03	10314.74
488.21	10326.44
488.39	10059.62
488.57	9659.39
488.75	9776.42
488.92	10169.63
489.10	10609.65
489.28	11054.35
489.46	11372.66
489.64	11279.04
489.81	11150.31
489.99	11325.85
490.17	11026.26
490.35	11274.36
490.53	11276.70
490.70	11136.27
490.88	11005.20
491.06	11410.11
491.24	11318.83
491.41	11222.87
491.59	10733.70
491.77	10183.67
491.95	10483.26
492.13	11026.26
492.30	11419.47
492.48	11648.85
492.66	11927.37
492.84	11943.75
493.01	11831.41
493.19	11648.85
493.37	11709.70
493.54	11428.84
493.72	11669.91
493.90	11733.11
494.08	12308.88
494.25	12486.76
494.43	12500.80
494.61	12634.21
494.79	12704.43
494.96	12397.82
495.14	12411.86
495.32	11939.07
495.49	11524.80
495.67	11969.50
495.85	12622.51
496.02	12849.54
496.20	13025.08
496.38	12711.45
496.55	12369.73
496.73	12933.80
496.91	12746.56
497.09	12798.05
497.26	13163.17
497.44	13130.41
497.62	12655.28
497.79	12524.21
497.97	11962.48
498.14	12011.63
498.32	12161.42
498.50	12664.64
498.67	13006.36
498.85	12945.50
499.03	12856.56
499.20	13198.28
499.38	13144.45
499.56	13055.51
499.73	13006.36
499.91	12671.66
500.08	12376.75
500.26	12013.97
500.44	12070.14
500.61	12620.17
500.79	12608.47
500.97	12507.82
501.14	12325.26
501.32	12131.00
501.49	12201.21
501.67	12177.81
501.84	12493.78
502.02	12634.21
502.20	12842.52
502.37	12854.22
502.55	12812.09
502.72	12718.47
502.90	12945.50
503.07	13001.68
503.25	12568.68
503.43	12042.06
503.60	11763.53
503.78	11398.41
503.95	11552.88
504.13	12336.96
504.30	12915.08
504.48	12926.78
504.65	12898.69
504.83	12996.99
505.01	13336.37
505.18	13167.85
505.36	13495.53
505.53	13247.43
505.71	13661.71
505.88	13834.91
506.06	13158.49
506.23	13369.14
506.41	13011.04
506.58	13226.37
506.76	13069.55
506.93	13018.06
507.11	13013.38
507.28	13046.15
507.46	13022.74
507.63	12381.43
507.81	12561.66
507.98	12741.88
508.16	12833.16
508.33	12912.74
508.50	13521.27
508.68	13631.28
508.85	13853.63
509.03	14029.17
509.20	13928.53
509.38	13607.87
509.55	13289.56
509.73	13076.57
509.90	13214.66
510.08	13645.32
510.25	13518.93
510.42	13399.57
510.60	13392.55
510.77	13432.33
510.95	13998.74
511.12	13813.84
511.30	14211.73
511.47	14270.25
511.64	14457.49
511.82	14045.55
511.99	13879.38
512.17	13701.50
512.34	13235.73
512.51	13364.46
512.69	13586.81
512.86	13579.79
513.04	13593.83
513.21	14012.79
513.38	13654.69
513.56	13193.60
513.73	13008.70
513.90	13224.03
514.08	13186.58
514.25	13624.26
514.43	13523.62
514.60	13481.49
514.77	13671.07
514.95	13493.19
515.12	13561.06
515.29	13769.37
515.47	13781.07
515.64	14160.24
515.81	13912.14
515.99	13661.71
516.16	13233.39
516.33	12077.16
516.51	11255.64
516.68	11375.00
516.85	11002.86
517.03	10846.04
517.20	11847.79
517.37	13099.98
517.54	13385.52
517.72	13437.02
517.89	12535.91
518.06	11524.80
518.24	11356.28
518.41	12264.41
518.58	12952.52
518.75	13226.37
518.93	13167.85
519.10	12999.34
519.27	12994.65
519.45	13341.05
519.62	13497.87
519.79	13907.46
519.96	13886.40
520.14	13741.29
520.31	13301.26
520.48	13209.98
520.65	13055.51
520.83	13579.79
521.00	13893.42
521.17	13771.71
521.34	13619.58
521.52	13635.96
521.69	14134.50
521.86	14242.16
522.03	14326.42
522.20	13603.19
522.38	13071.89
522.55	13193.60
522.72	13284.88
522.89	13584.47
523.07	13565.74
523.24	13764.69
523.41	14045.55
523.58	13980.02
523.75	14377.91
523.92	14448.13
524.10	14342.80
524.27	14572.18
524.44	14256.20
524.61	14239.82
524.78	14068.96
524.96	14012.79
525.13	13664.05
525.30	14209.39
525.47	14370.89
525.64	14162.58
525.81	14036.19
525.98	13525.96
526.16	12723.15
526.33	12573.36
526.50	12489.10
526.67	12028.01
526.84	12210.57
527.01	12613.15
527.18	12886.99
527.36	13298.92
527.53	13998.74
527.70	14033.85
527.87	13947.25
528.04	13778.73
528.21	13600.85
528.38	14150.88
528.55	14752.40
528.72	14551.11
528.89	14738.35
529.07	14469.19
529.24	14331.10
529.41	14003.43
529.58	13947.25
529.75	13736.60
529.92	13886.40
530.09	14160.24
530.26	14293.65
530.43	14579.20
530.60	14434.08
530.77	14794.53
530.94	14726.65
531.11	14506.64
531.28	14104.07
531.46	14274.93
531.63	14246.84
531.80	14190.67
531.97	14118.11
532.14	13678.09
532.31	13020.40
532.48	12870.61
532.65	12769.96
532.82	13165.51
532.99	13762.35
533.16	14036.19
533.33	14314.72
533.50	14277.27
533.67	13961.30
533.84	13902.78
534.01	13577.45
534.18	13895.76
534.35	14080.66
534.52	13930.87
534.69	14092.37
534.86	13853.63
535.03	14118.11
535.20	14445.79
535.37	14602.60
535.54	14628.35
535.71	14654.09
535.88	14527.71
536.05	14012.79
536.22	14047.90
536.38	13956.61
536.55	13528.30
536.72	13399.57
536.89	12985.29
537.06	13458.08
537.23	13865.33
537.40	14307.69
537.57	14413.02
537.74	14150.88
537.91	14190.67
538.08	14190.67
538.25	14085.34
538.42	13968.32
538.59	14141.52
538.75	13874.70
538.92	13572.77
539.09	13523.62
539.26	13612.56
539.43	13523.62
539.60	13446.38
539.77	13479.15
539.94	13488.51
540.11	13076.57
540.28	12882.31
540.44	12929.12
540.61	12879.97
540.78	12950.18
540.95	13383.18
541.12	13425.31
541.29	13734.26
541.46	13891.08
541.62	13926.19
541.79	13926.19
541.96	13591.49
542.13	13542.34
542.30	13542.34
542.47	13963.64
542.63	13839.59
542.80	13532.98
542.97	13561.06
543.14	13486.17
543.31	13645.32
543.48	13652.34
543.64	14281.95
543.81	14424.72
543.98	14366.21
544.15	14108.75
544.32	13722.56
544.48	13664.05
544.65	13816.18
544.82	13951.93
544.99	13839.59
545.16	13736.60
545.32	13783.41
545.49	14335.78
545.66	14916.23
545.83	14937.30
546.00	14406.00
546.16	14024.49
546.33	13689.79
546.50	13612.56
546.67	13846.61
546.83	13598.51
547.00	13593.83
547.17	13469.78
547.34	13177.22
547.50	13107.00
547.67	13394.89
547.84	13121.04
548.00	13598.51
548.17	13659.37
548.34	13542.34
548.51	13767.03
548.67	13881.72
548.84	13816.18
549.01	13703.84
549.18	13867.67
549.34	13451.06
549.51	13685.11
549.68	13235.73
549.84	13280.20
550.01	13303.60
550.18	13420.63
550.34	13500.21
550.51	13268.50
550.68	13621.92
550.84	13184.24
551.01	13177.22
551.18	13149.13
551.34	13516.59
551.51	13404.25
551.68	13795.12
551.84	13694.47
552.01	13706.18
552.18	13521.27
552.34	13212.32
552.51	12734.85
552.68	12898.69
552.84	13254.45
553.01	13308.29
553.18	13207.64
553.34	13132.75
553.51	13071.89
553.67	13666.39
553.84	13647.66
554.01	13242.75
554.17	13411.27
554.34	13341.05
554.51	13298.92
554.67	13523.62
554.84	13659.37
555.00	13532.98
555.17	13507.23
555.33	13160.83
555.50	13437.02
555.67	13149.13
555.83	13060.19
556.00	13083.59
556.16	12975.93
556.33	12746.56
556.50	12826.14
556.66	12732.51
556.83	12622.51
556.99	12961.89
557.16	12933.80
557.32	12868.27
557.49	12828.48
557.65	12875.29
557.82	12622.51
557.98	12809.75
558.15	12802.73
558.32	12367.39
558.48	12065.46
558.65	12028.01
558.81	12128.66
558.98	12255.04
559.14	12451.65
559.31	12437.61
559.47	12276.11
559.64	12383.77
559.80	12355.69
559.97	12121.63
560.13	12170.79
560.30	12746.56
560.46	13071.89
560.63	12973.59
560.79	12779.32
560.96	13057.85
561.12	12601.44
561.29	12140.36
561.45	12131.00
561.61	12236.32
561.78	12709.11
561.94	12573.36
562.11	12343.99
562.27	12404.84
562.44	12383.77
562.60	12320.58
562.77	12601.44
562.93	12812.09
563.10	12521.87
563.26	12453.99
563.42	12585.06
563.59	12343.99
563.75	12355.69
563.92	12180.15
564.08	12339.30
564.24	12320.58
564.41	12318.24
564.57	12369.73
564.74	12297.17
564.90	12318.24
565.07	12105.25
565.23	11943.75
565.39	11777.58
565.56	11885.24
565.72	11623.10
565.88	11632.46
566.05	11859.49
566.21	11779.92
566.38	11716.72
566.54	12046.74
566.70	12168.45
566.87	12271.43
567.03	12170.79
567.19	12276.11
567.36	11969.50
567.52	12025.67
567.68	12058.44
567.85	11716.72
568.01	11367.98
568.17	11370.32
568.34	11286.06
568.50	10820.30
568.66	10967.75
568.83	10904.56
568.99	11199.46
569.15	11435.86
569.32	11105.84
569.48	11206.48
569.64	11119.89
569.81	11122.23
569.97	11211.17
570.13	11269.68
570.30	11077.76
570.46	11082.44
570.62	10974.77
570.78	10810.93
570.95	10448.15
571.11	11185.42
571.27	11126.91
571.43	11157.33
571.60	11187.76
571.76	11246.27
571.92	11318.83
572.09	11363.30
572.25	11234.57
572.41	11367.98
572.57	11344.58
572.74	11625.44
572.90	11255.64
573.06	11115.20
573.22	11206.48
573.38	11187.76
573.55	11283.72
573.71	10972.43
573.87	11208.83
574.03	11052.01
574.20	10918.60
574.36	10850.72
574.52	10642.42
574.68	10787.53
574.84	10862.43
575.01	10658.80
575.17	10492.62
575.33	10733.70
575.49	10850.72
575.65	10881.15
575.82	10691.57
575.98	10520.71
576.14	10899.87
576.30	10827.32
576.46	10949.03
576.62	11356.28
576.79	11073.07
576.95	10913.92
577.11	10682.20
577.27	10970.09
577.43	11150.31
577.59	10878.81
577.75	10637.73
577.92	10382.62
578.08	10347.51
578.24	10462.19
578.40	10356.87
578.56	10623.69
578.72	10684.55
578.88	10883.49
579.04	10869.45
579.21	10736.04
579.37	11052.01
579.53	10958.39
579.69	10698.59
579.85	10817.96
580.01	11265.00
580.17	10827.32
580.33	10707.95
580.49	10895.19
580.65	10822.64
580.82	10932.64
580.98	11021.58
581.14	10972.43
581.30	10759.44
581.46	10721.99
581.62	10714.97
581.78	10951.37
581.94	11094.14
582.10	11152.65
582.26	11236.91
582.42	11410.11
582.58	11026.26
582.74	10937.32
582.90	11112.86
583.06	10974.77
583.22	11014.56
583.38	11236.91
583.54	10927.96
583.70	10986.47
583.86	11061.37
584.02	10979.45
584.18	10909.24
584.34	10923.28
584.50	10817.96
584.66	11061.37
584.82	10710.29
584.98	10780.51
585.14	10480.92
585.30	10431.77
585.46	10368.57
585.62	10230.48
585.78	10204.74
585.94	10209.42
586.10	10464.54
586.26	10382.62
586.42	10548.79
586.58	10429.43
586.74	10230.48
586.90	10399.00
587.06	10427.09
587.22	10249.21
587.38	9893.44
587.54	10057.28
587.70	9710.88
587.86	9455.76
588.02	9174.90
588.18	8802.75
588.34	8585.08
588.49	8147.40
588.65	7625.47
588.81	7438.22
588.97	7447.58
589.13	7702.70
589.29	7463.97
589.45	7506.10
589.61	7433.54
589.77	8042.08
589.93	8159.11
590.08	8582.74
590.24	8769.99
590.40	8760.63
590.56	8957.23
