SpectraSuite Data File
++++++++++++++++++++++++++++++++++++
Date: Fri Oct 04 11:44:26 GMT-05:00 2013
User: price-jones
Dark Spectrum Present: No
Reference Spectrum Present: No
Number of Sampled Component Spectra: 1
Spectrometers: USB2+H05261
Integration Time (usec): 100000 (USB2+H05261)
Spectra Averaged: 1 (USB2+H05261)
Boxcar Smoothing: 0 (USB2+H05261)
Correct for Electrical Dark: No (USB2+H05261)
Strobe/Lamp Enabled: No (USB2+H05261)
Correct for Detector Non-linearity: No (USB2+H05261)
Correct for Stray Light: No (USB2+H05261)
Number of Pixels in Processed Spectrum: 2048
>>>>>Begin Processed Spectral Data<<<<<
365.73	25.75
365.92	25.75
366.12	25.75
366.32	0.00
366.52	0.00
366.72	0.00
366.91	0.00
367.11	0.00
367.31	0.00
367.51	0.00
367.70	0.00
367.90	0.00
368.10	0.00
368.30	0.00
368.49	0.00
368.69	0.00
368.89	0.00
369.09	0.00
369.28	0.00
369.48	0.00
369.68	0.00
369.87	0.00
370.07	0.00
370.27	42.13
370.47	25.75
370.66	93.62
370.86	84.26
371.06	86.60
371.25	189.58
371.45	145.11
371.65	114.69
371.84	72.56
372.04	166.18
372.24	138.09
372.44	98.30
372.63	133.41
372.83	203.63
373.03	154.48
373.22	133.41
373.42	67.88
373.62	217.67
373.81	215.33
374.01	234.05
374.21	231.71
374.40	175.54
374.60	175.54
374.79	182.56
374.99	241.08
375.19	194.26
375.38	119.37
375.58	191.92
375.78	229.37
375.97	278.52
376.17	156.82
376.37	227.03
376.56	201.29
376.76	201.29
376.95	152.13
377.15	297.25
377.35	149.79
377.54	306.61
377.74	222.35
377.93	220.01
378.13	205.97
378.33	252.78
378.52	227.03
378.72	243.42
378.91	222.35
379.11	191.92
379.31	105.32
379.50	177.88
379.70	229.37
379.89	182.56
380.09	208.31
380.28	224.69
380.48	231.71
380.68	184.90
380.87	257.46
381.07	222.35
381.26	292.57
381.46	177.88
381.65	205.97
381.85	107.66
382.04	145.11
382.24	182.56
382.43	112.35
382.63	170.86
382.83	154.48
383.02	145.11
383.22	278.52
383.41	177.88
383.61	212.99
383.80	224.69
384.00	154.48
384.19	229.37
384.39	217.67
384.58	255.12
384.78	175.54
384.97	215.33
385.17	262.14
385.36	229.37
385.56	210.65
385.75	156.82
385.95	173.20
386.14	294.91
386.34	198.95
386.53	196.60
386.72	152.13
386.92	266.82
387.11	292.57
387.31	234.05
387.50	210.65
387.70	168.52
387.89	222.35
388.09	198.95
388.28	173.20
388.48	205.97
388.67	208.31
388.86	257.46
389.06	229.37
389.25	280.86
389.45	196.60
389.64	273.84
389.84	252.78
390.03	208.31
390.22	236.39
390.42	280.86
390.61	196.60
390.81	269.16
391.00	231.71
391.19	344.06
391.39	285.55
391.58	320.65
391.78	229.37
391.97	264.48
392.16	182.56
392.36	278.52
392.55	191.92
392.75	161.50
392.94	161.50
393.13	166.18
393.33	154.48
393.52	262.14
393.71	285.55
393.91	257.46
394.10	175.54
394.29	278.52
394.49	262.14
394.68	360.44
394.88	374.49
395.07	376.83
395.26	278.52
395.46	344.06
395.65	217.67
395.84	252.78
396.04	322.99
396.23	222.35
396.42	191.92
396.62	182.56
396.81	210.65
397.00	236.39
397.19	210.65
397.39	229.37
397.58	440.02
397.77	313.63
397.97	348.74
398.16	365.12
398.35	407.25
398.55	346.40
398.74	341.72
398.93	376.83
399.12	301.93
399.32	376.83
399.51	407.25
399.70	411.93
399.90	393.21
400.09	308.95
400.28	365.12
400.47	409.59
400.67	402.57
400.86	369.80
401.05	442.36
401.24	491.51
401.44	440.02
401.63	442.36
401.82	360.44
402.01	367.46
402.21	402.57
402.40	395.55
402.59	341.72
402.78	388.53
402.97	351.08
403.17	472.79
403.36	411.93
403.55	388.53
403.74	425.98
403.93	374.49
404.13	472.79
404.32	358.10
404.51	456.40
404.70	388.53
404.89	428.32
405.09	395.55
405.28	341.72
405.47	395.55
405.66	449.38
405.85	430.66
406.05	400.23
406.24	299.59
406.43	451.72
406.62	428.32
406.81	524.28
407.00	528.96
407.20	440.02
407.39	388.53
407.58	404.91
407.77	433.00
407.96	468.11
408.15	437.68
408.34	461.09
408.54	400.23
408.73	456.40
408.92	444.70
409.11	475.13
409.30	505.56
409.49	430.66
409.68	337.04
409.87	304.27
410.07	411.93
410.26	440.02
410.45	397.89
410.64	372.15
410.83	456.40
411.02	465.77
411.21	454.06
411.40	493.85
411.59	435.34
411.78	425.98
411.98	463.43
412.17	414.27
412.36	442.36
412.55	379.17
412.74	442.36
412.93	451.72
413.12	503.22
413.31	545.34
413.50	461.09
413.69	514.92
413.88	599.18
414.07	470.45
414.26	484.49
414.45	458.74
414.64	477.47
414.83	510.24
415.02	444.70
415.22	381.51
415.41	519.60
415.60	559.39
415.79	475.13
415.98	578.11
416.17	535.98
416.36	557.05
416.55	461.09
416.74	493.85
416.93	550.03
417.12	447.04
417.31	456.40
417.50	491.51
417.69	540.66
417.88	543.00
418.07	442.36
418.26	477.47
418.45	414.27
418.64	531.30
418.83	533.64
419.02	528.96
419.21	496.19
419.39	561.73
419.58	465.77
419.77	472.79
419.96	535.98
420.15	571.09
420.34	510.24
420.53	524.28
420.72	547.69
420.91	580.45
421.10	550.03
421.29	543.00
421.48	543.00
421.67	475.13
421.86	540.66
422.05	545.34
422.24	458.74
422.43	411.93
422.61	503.22
422.80	514.92
422.99	524.28
423.18	533.64
423.37	535.98
423.56	557.05
423.75	514.92
423.94	470.45
424.13	608.54
424.32	587.47
424.50	503.22
424.69	500.87
424.88	498.53
425.07	554.71
425.26	554.71
425.45	517.26
425.64	468.11
425.83	517.26
426.01	533.64
426.20	580.45
426.39	486.83
426.58	514.92
426.77	447.04
426.96	404.91
427.15	526.62
427.33	482.15
427.52	514.92
427.71	470.45
427.90	510.24
428.09	440.02
428.28	498.53
428.46	531.30
428.65	482.15
428.84	500.87
429.03	543.00
429.22	561.73
429.40	442.36
429.59	409.59
429.78	423.64
429.97	414.27
430.16	372.15
430.34	360.44
430.53	334.70
430.72	456.40
430.91	458.74
431.10	421.30
431.28	594.50
431.47	643.65
431.66	573.43
431.85	507.90
432.03	531.30
432.22	599.18
432.41	519.60
432.60	582.79
432.79	554.71
432.97	554.71
433.16	535.98
433.35	575.77
433.54	484.49
433.72	451.72
433.91	472.79
434.10	552.37
434.28	500.87
434.47	585.13
434.66	540.66
434.85	545.34
435.03	655.35
435.22	856.64
435.41	971.32
435.59	847.27
435.78	774.72
435.97	678.76
436.16	617.90
436.34	650.67
436.53	521.94
436.72	641.31
436.90	627.26
437.09	545.34
437.28	545.34
437.46	550.03
437.65	575.77
437.84	641.31
438.02	617.90
438.21	521.94
438.40	575.77
438.58	575.77
438.77	528.96
438.96	608.54
439.14	575.77
439.33	589.82
439.52	578.11
439.70	601.52
439.89	634.29
440.08	594.50
440.26	615.56
440.45	685.78
440.63	662.37
440.82	589.82
441.01	653.01
441.19	770.04
441.38	681.10
441.57	643.65
441.75	648.33
441.94	690.46
442.12	699.82
442.31	671.73
442.50	702.16
442.68	730.25
442.87	615.56
443.05	631.94
443.24	702.16
443.43	688.12
443.61	594.50
443.80	580.45
443.98	610.88
444.17	660.03
444.35	758.33
444.54	702.16
444.73	674.07
444.91	713.86
445.10	554.71
445.28	627.26
445.47	606.20
445.65	629.60
445.84	643.65
446.02	676.41
446.21	678.76
446.39	657.69
446.58	627.26
446.77	720.88
446.95	573.43
447.14	748.97
447.32	681.10
447.51	676.41
447.69	620.24
447.88	655.35
448.06	709.18
448.25	655.35
448.43	664.71
448.62	617.90
448.80	751.31
448.99	763.01
449.17	660.03
449.36	727.91
449.54	746.63
449.73	697.48
449.91	767.70
450.10	709.18
450.28	727.91
450.46	800.46
450.65	772.38
450.83	833.23
451.02	709.18
451.20	725.57
451.39	767.70
451.57	688.12
451.76	716.20
451.94	697.48
452.13	695.14
452.31	755.99
452.49	681.10
452.68	645.99
452.86	662.37
453.05	727.91
453.23	683.44
453.42	699.82
453.60	674.07
453.78	753.65
453.97	734.93
454.15	683.44
454.34	678.76
454.52	671.73
454.70	753.65
454.89	741.95
455.07	702.16
455.26	702.16
455.44	730.25
455.62	727.91
455.81	683.44
455.99	772.38
456.17	805.14
456.36	702.16
456.54	723.23
456.73	720.88
456.91	711.52
457.09	774.72
457.28	786.42
457.46	784.08
457.64	683.44
457.83	760.67
458.01	725.57
458.19	723.23
458.38	678.76
458.56	777.06
458.74	737.27
458.93	748.97
459.11	812.17
459.29	788.76
459.48	781.74
459.66	760.67
459.84	812.17
460.03	873.02
460.21	809.83
460.39	741.95
460.57	821.53
460.76	737.27
460.94	800.46
461.12	777.06
461.31	854.30
461.49	809.83
461.67	718.54
461.85	744.29
462.04	751.31
462.22	1184.31
462.40	809.83
462.59	861.32
462.77	786.42
462.95	692.80
463.13	739.61
463.32	819.19
463.50	725.57
463.68	770.04
463.86	732.59
464.05	816.85
464.23	718.54
464.41	795.78
464.59	671.73
464.78	835.57
464.96	692.80
465.14	847.27
465.32	788.76
465.50	814.51
465.69	807.48
465.87	704.50
466.05	805.14
466.23	667.05
466.41	730.25
466.60	737.27
466.78	699.82
466.96	695.14
467.14	720.88
467.32	830.89
467.51	828.55
467.69	795.78
467.87	758.33
468.05	786.42
468.23	847.27
468.41	760.67
468.60	713.86
468.78	793.44
468.96	816.85
469.14	758.33
469.32	800.46
469.50	631.94
469.69	755.99
469.87	737.27
470.05	716.20
470.23	744.29
470.41	704.50
470.59	681.10
470.77	805.14
470.95	741.95
471.14	772.38
471.32	751.31
471.50	828.55
471.68	786.42
471.86	734.93
472.04	755.99
472.22	840.25
472.40	858.98
472.58	812.17
472.77	791.10
472.95	786.42
473.13	870.68
473.31	791.10
473.49	716.20
473.67	805.14
473.85	746.63
474.03	919.83
474.21	791.10
474.39	863.66
474.57	772.38
474.75	856.64
474.93	758.33
475.12	765.36
475.30	833.23
475.48	805.14
475.66	767.70
475.84	823.87
476.02	779.40
476.20	800.46
476.38	788.76
476.56	793.44
476.74	819.19
476.92	800.46
477.10	873.02
477.28	828.55
477.46	851.96
477.64	882.38
477.82	912.81
478.00	926.85
478.18	945.58
478.36	898.77
478.54	924.51
478.72	973.66
478.90	1001.75
479.08	936.21
479.26	931.53
479.44	912.81
479.62	891.74
479.80	837.91
479.98	919.83
480.16	887.06
480.34	943.24
480.52	880.04
480.70	1025.15
480.88	908.13
481.06	1015.79
481.24	877.70
481.41	1001.75
481.59	1067.28
481.77	947.92
481.95	997.07
482.13	1083.67
482.31	1015.79
482.49	983.02
482.67	990.05
482.85	1006.43
483.03	990.05
483.21	1071.97
483.39	1020.47
483.57	992.39
483.74	978.34
483.92	1081.33
484.10	968.98
484.28	1046.22
484.46	1060.26
484.64	1090.69
484.82	1048.56
485.00	987.71
485.18	999.41
485.35	1025.15
485.53	936.21
485.71	873.02
485.89	866.00
486.07	856.64
486.25	1022.81
486.43	947.92
486.61	1039.20
486.78	1022.81
486.96	1057.92
487.14	1158.57
487.32	1165.59
487.50	1057.92
487.68	1153.88
487.85	1139.84
488.03	1186.65
488.21	1163.25
488.39	1109.41
488.57	1088.35
488.75	1118.78
488.92	1357.51
489.10	1160.91
489.28	1266.23
489.46	1282.61
489.64	1296.66
489.81	1233.46
489.99	1205.38
490.17	1212.40
490.35	1348.15
490.53	1252.19
490.70	1186.65
490.88	1301.34
491.06	1214.74
491.24	1240.48
491.41	1273.25
491.59	1212.40
491.77	1212.40
491.95	1196.01
492.13	1301.34
492.30	1221.76
492.48	1383.26
492.66	1355.17
492.84	1303.68
493.01	1327.08
493.19	1245.16
493.37	1291.98
493.54	1336.45
493.72	1217.08
493.90	1296.66
494.08	1277.93
494.25	1355.17
494.43	1334.11
494.61	1406.66
494.79	1380.92
494.96	1324.74
495.14	1364.53
495.32	1301.34
495.49	1404.32
495.67	1343.47
495.85	1357.51
496.02	1343.47
496.20	1465.18
496.38	1420.71
496.55	1385.60
496.73	1348.15
496.91	1460.49
497.09	1320.06
497.26	1430.07
497.44	1371.55
497.62	1392.62
497.79	1423.05
497.97	1242.82
498.14	1392.62
498.32	1320.06
498.50	1399.64
498.67	1376.24
498.85	1486.24
499.03	1439.43
499.20	1488.58
499.38	1495.60
499.56	1345.81
499.73	1444.11
499.91	1437.09
500.08	1345.81
500.26	1315.38
500.44	1406.66
500.61	1371.55
500.79	1275.59
500.97	1385.60
501.14	1465.18
501.32	1336.45
501.49	1336.45
501.67	1322.40
501.84	1397.30
502.02	1418.36
502.20	1458.15
502.37	1380.92
502.55	1348.15
502.72	1448.79
502.90	1446.45
503.07	1380.92
503.25	1373.89
503.43	1336.45
503.60	1221.76
503.78	1231.12
503.95	1238.14
504.13	1254.53
504.30	1432.41
504.48	1385.60
504.65	1472.20
504.83	1437.09
505.01	1380.92
505.18	1369.21
505.36	1392.62
505.53	1404.32
505.71	1476.88
505.88	1544.75
506.06	1423.05
506.23	1451.13
506.41	1526.03
506.58	1472.20
506.76	1455.81
506.93	1378.58
507.11	1345.81
507.28	1439.43
507.46	1394.96
507.63	1350.49
507.81	1352.83
507.98	1387.94
508.16	1486.24
508.33	1462.83
508.50	1502.62
508.68	1502.62
508.85	1551.78
509.03	1526.03
509.20	1483.90
509.38	1533.05
509.55	1432.41
509.73	1600.93
509.90	1523.69
510.08	1420.71
510.25	1481.56
510.42	1502.62
510.60	1551.78
510.77	1497.94
510.95	1586.88
511.12	1519.01
511.30	1547.09
511.47	1680.50
511.64	1621.99
511.82	1523.69
511.99	1488.58
512.17	1425.39
512.34	1397.30
512.51	1509.65
512.69	1504.96
512.86	1554.12
513.04	1526.03
513.21	1479.22
513.38	1519.01
513.56	1448.79
513.73	1542.41
513.90	1514.33
514.08	1437.09
514.25	1603.27
514.43	1521.35
514.60	1544.75
514.77	1509.65
514.95	1537.73
515.12	1432.41
515.29	1547.09
515.47	1584.54
515.64	1570.50
515.81	1643.06
515.99	1600.93
516.16	1490.92
516.33	1432.41
516.51	1329.42
516.68	1261.55
516.85	1245.16
517.03	1249.85
517.20	1434.75
517.37	1519.01
517.54	1547.09
517.72	1563.48
517.89	1320.06
518.06	1320.06
518.24	1451.13
518.41	1425.39
518.58	1476.88
518.75	1462.83
518.93	1526.03
519.10	1516.67
519.27	1535.39
519.45	1626.67
519.62	1706.25
519.79	1575.18
519.96	1605.61
520.14	1556.46
520.31	1577.52
520.48	1533.05
520.65	1598.59
520.83	1629.01
521.00	1736.68
521.17	1650.08
521.34	1577.52
521.52	1647.74
521.69	1589.22
521.86	1607.95
522.03	1722.63
522.20	1748.38
522.38	1533.05
522.55	1586.88
522.72	1624.33
522.89	1563.48
523.07	1664.12
523.24	1603.27
523.41	1710.93
523.58	1652.42
523.75	1699.23
523.92	1748.38
524.10	1645.40
524.27	1673.48
524.44	1640.72
524.61	1724.97
524.78	1685.19
524.96	1694.55
525.13	1694.55
525.30	1687.53
525.47	1673.48
525.64	1678.16
525.81	1746.04
525.98	1561.14
526.16	1526.03
526.33	1516.67
526.50	1453.47
526.67	1406.66
526.84	1472.20
527.01	1551.78
527.18	1565.82
527.36	1614.97
527.53	1645.40
527.70	1703.91
527.87	1645.40
528.04	1739.02
528.21	1624.33
528.38	1834.98
528.55	1757.74
528.72	1727.32
528.89	1717.95
529.07	1781.15
529.24	1753.06
529.41	1633.69
529.58	1657.10
529.75	1575.18
529.92	1757.74
530.09	1839.66
530.26	1753.06
530.43	1710.93
530.60	1741.36
530.77	1774.13
530.94	1734.34
531.11	1673.48
531.28	1776.47
531.46	1757.74
531.63	1720.29
531.80	1724.97
531.97	1699.23
532.14	1664.12
532.31	1554.12
532.48	1652.42
532.65	1563.48
532.82	1540.07
532.99	1598.59
533.16	1666.46
533.33	1717.95
533.50	1785.83
533.67	1687.53
533.84	1701.57
534.01	1682.85
534.18	1664.12
534.35	1757.74
534.52	1687.53
534.69	1769.44
534.86	1748.38
535.03	1708.59
535.20	1739.02
535.37	1799.87
535.54	1755.40
535.71	1769.44
535.88	1823.28
536.05	1781.15
536.22	1680.50
536.38	1844.34
536.55	1685.19
536.72	1678.16
536.89	1664.12
537.06	1741.36
537.23	1685.19
537.40	1706.25
537.57	1706.25
537.74	1879.45
537.91	1750.72
538.08	1694.55
538.25	1720.29
538.42	1675.82
538.59	1769.44
538.75	1846.68
538.92	1776.47
539.09	1746.04
539.26	1722.63
539.43	1834.98
539.60	1806.89
539.77	1781.15
539.94	1778.81
540.11	1849.02
540.28	1739.02
540.44	1732.00
540.61	1769.44
540.78	1792.85
540.95	1849.02
541.12	2017.54
541.29	1926.26
541.46	2026.90
541.62	2069.03
541.79	2026.90
541.96	2015.20
542.13	1898.17
542.30	2026.90
542.47	2003.50
542.63	1933.28
542.80	2031.58
542.97	1980.09
543.14	1968.39
543.31	1935.62
543.48	1977.75
543.64	1930.94
543.81	2092.44
543.98	2129.89
544.15	1980.09
544.32	1984.77
544.48	1893.49
544.65	2050.31
544.82	2108.82
544.99	1872.43
545.16	2015.20
545.32	1947.33
545.49	2244.57
545.66	2684.59
545.83	2586.29
546.00	2394.37
546.16	2160.31
546.33	2141.59
546.50	2005.84
546.67	2022.22
546.83	1860.73
547.00	1844.34
547.17	1891.15
547.34	1792.85
547.50	1776.47
547.67	1832.64
547.84	1870.09
548.00	1928.60
548.17	1907.54
548.34	1795.19
548.51	1818.60
548.67	1842.00
548.84	1795.19
549.01	1879.45
549.18	1888.81
549.34	1856.04
549.51	1865.41
549.68	1806.89
549.84	1874.77
550.01	1816.26
550.18	1872.43
550.34	1888.81
550.51	1813.92
550.68	1792.85
550.84	1743.70
551.01	1732.00
551.18	1757.74
551.34	1792.85
551.51	1804.55
551.68	1792.85
551.84	1790.51
552.01	1783.49
552.18	1867.75
552.34	1795.19
552.51	1710.93
552.68	1746.04
552.84	1621.99
553.01	1682.85
553.18	1699.23
553.34	1792.85
553.51	1750.72
553.67	1633.69
553.84	1778.81
554.01	1832.64
554.17	1696.89
554.34	1661.78
554.51	1678.16
554.67	1781.15
554.84	1827.96
555.00	1708.59
555.17	1734.34
555.33	1748.38
555.50	1804.55
555.67	1664.12
555.83	1713.27
556.00	1724.97
556.16	1792.85
556.33	1600.93
556.50	1638.38
556.66	1722.63
556.83	1607.95
556.99	1598.59
557.16	1659.44
557.32	1715.61
557.49	1638.38
557.65	1673.48
557.82	1715.61
557.98	1586.88
558.15	1645.40
558.32	1591.56
558.48	1614.97
558.65	1647.74
558.81	1645.40
558.98	1591.56
559.14	1661.78
559.31	1568.16
559.47	1521.35
559.64	1474.54
559.80	1570.50
559.97	1626.67
560.13	1502.62
560.30	1596.25
560.46	1689.87
560.63	1671.14
560.79	1643.06
560.96	1657.10
561.12	1666.46
561.29	1589.22
561.45	1636.03
561.61	1708.59
561.78	1811.57
561.94	1577.52
562.11	1516.67
562.27	1563.48
562.44	1582.20
562.60	1614.97
562.77	1631.35
562.93	1572.84
563.10	1675.82
563.26	1598.59
563.42	1490.92
563.59	1647.74
563.75	1603.27
563.92	1490.92
564.08	1582.20
564.24	1629.01
564.41	1614.97
564.57	1650.08
564.74	1624.33
564.90	1668.80
565.07	1570.50
565.23	1495.60
565.39	1479.22
565.56	1509.65
565.72	1568.16
565.88	1591.56
566.05	1535.39
566.21	1544.75
566.38	1619.65
566.54	1530.71
566.70	1605.61
566.87	1584.54
567.03	1582.20
567.19	1636.03
567.36	1645.40
567.52	1453.47
567.68	1394.96
567.85	1509.65
568.01	1448.79
568.17	1490.92
568.34	1411.34
568.50	1455.81
568.66	1500.28
568.83	1521.35
568.99	1500.28
569.15	1474.54
569.32	1497.94
569.48	1472.20
569.64	1383.26
569.81	1416.02
569.97	1434.75
570.13	1472.20
570.30	1497.94
570.46	1434.75
570.62	1493.26
570.78	1392.62
570.95	1287.29
571.11	1434.75
571.27	1409.00
571.43	1364.53
571.60	1451.13
571.76	1453.47
571.92	1497.94
572.09	1458.15
572.25	1511.99
572.41	1441.77
572.57	1380.92
572.74	1474.54
572.90	1486.24
573.06	1446.45
573.22	1490.92
573.38	1500.28
573.55	1413.68
573.71	1420.71
573.87	1502.62
574.03	1423.05
574.20	1432.41
574.36	1399.64
574.52	1404.32
574.68	1362.19
574.84	1397.30
575.01	1392.62
575.17	1411.34
575.33	1439.43
575.49	1460.49
575.65	1355.17
575.82	1371.55
575.98	1387.94
576.14	1441.77
576.30	1523.69
576.46	1453.47
576.62	1626.67
576.79	1596.25
576.95	1607.95
577.11	1409.00
577.27	1387.94
577.43	1378.58
577.59	1446.45
577.75	1399.64
577.92	1336.45
578.08	1348.15
578.24	1362.19
578.40	1373.89
578.56	1476.88
578.72	1554.12
578.88	1535.39
579.04	1446.45
579.21	1519.01
579.37	1369.21
579.53	1465.18
579.69	1439.43
579.85	1406.66
580.01	1439.43
580.17	1458.15
580.33	1554.12
580.49	1448.79
580.65	1413.68
580.82	1423.05
580.98	1352.83
581.14	1387.94
581.30	1383.26
581.46	1481.56
581.62	1481.56
581.78	1472.20
581.94	1348.15
582.10	1437.09
582.26	1488.58
582.42	1519.01
582.58	1465.18
582.74	1504.96
582.90	1434.75
583.06	1467.52
583.22	1495.60
583.38	1481.56
583.54	1444.11
583.70	1507.30
583.86	1439.43
584.02	1441.77
584.18	1455.81
584.34	1488.58
584.50	1394.96
584.66	1420.71
584.82	1451.13
584.98	1437.09
585.14	1474.54
585.30	1437.09
585.46	1483.90
585.62	1310.70
585.78	1383.26
585.94	1523.69
586.10	1437.09
586.26	1390.28
586.42	1406.66
586.58	1387.94
586.74	1441.77
586.90	1345.81
587.06	1483.90
587.22	1495.60
587.38	1479.22
587.54	1434.75
587.70	1313.04
587.86	1345.81
588.02	1221.76
588.18	1291.98
588.34	1256.87
588.49	1032.18
588.65	1041.54
588.81	1001.75
588.97	997.07
589.13	1029.84
589.29	1013.45
589.45	1013.45
589.61	1032.18
589.77	1118.78
589.93	1123.46
590.08	1188.99
590.24	1193.67
590.40	1074.31
590.56	1135.16
590.72	1165.59
590.88	1118.78
591.04	1057.92
591.20	1198.35
591.35	1188.99
591.51	1153.88
591.67	1095.37
591.83	1132.82
591.99	1118.78
592.15	1125.80
592.31	1287.29
592.46	1219.42
592.62	1259.21
592.78	1259.21
592.94	1268.57
593.10	1210.06
593.26	1210.06
593.41	1310.70
593.57	1193.67
593.73	1207.72
593.89	1160.91
594.05	1144.52
594.20	999.41
594.36	1067.28
594.52	1015.79
594.68	1121.12
594.84	1104.73
594.99	1149.20
595.15	1093.03
595.31	1284.95
595.47	1149.20
595.62	1242.82
595.78	1177.29
595.94	1242.82
596.10	1207.72
596.25	1224.10
596.41	1163.25
596.57	1109.41
596.73	1156.22
596.88	1259.21
597.04	1184.31
597.20	1224.10
597.36	1233.46
597.51	1200.69
597.67	1170.27
597.83	1224.10
597.99	1245.16
598.14	1324.74
598.30	1217.08
598.46	1205.38
598.61	1268.57
598.77	1221.76
598.93	1294.32
599.09	1280.27
599.24	1294.32
599.40	1343.47
599.56	1270.91
599.71	1224.10
599.87	1308.36
600.03	1268.57
600.18	1277.93
600.34	1252.19
600.50	1198.35
600.65	1277.93
600.81	1231.12
600.97	1242.82
601.12	1158.57
601.28	1299.00
601.44	1240.48
601.59	1167.93
601.75	1163.25
601.91	1186.65
602.06	1130.48
602.22	1299.00
602.37	1224.10
602.53	1193.67
602.69	1249.85
602.84	1245.16
