SpectraSuite Data File
++++++++++++++++++++++++++++++++++++
Date: Fri Oct 04 11:44:24 GMT-05:00 2013
User: price-jones
Dark Spectrum Present: No
Reference Spectrum Present: No
Number of Sampled Component Spectra: 1
Spectrometers: USB2+H05261
Integration Time (usec): 100000 (USB2+H05261)
Spectra Averaged: 1 (USB2+H05261)
Boxcar Smoothing: 0 (USB2+H05261)
Correct for Electrical Dark: No (USB2+H05261)
Strobe/Lamp Enabled: No (USB2+H05261)
Correct for Detector Non-linearity: No (USB2+H05261)
Correct for Stray Light: No (USB2+H05261)
Number of Pixels in Processed Spectrum: 2048
>>>>>Begin Processed Spectral Data<<<<<
365.73	39.79
365.92	39.79
366.12	39.79
366.32	0.00
366.52	0.00
366.72	0.00
366.91	0.00
367.11	0.00
367.31	0.00
367.51	0.00
367.70	0.00
367.90	0.00
368.10	0.00
368.30	0.00
368.49	0.00
368.69	0.00
368.89	0.00
369.09	0.00
369.28	0.00
369.48	0.00
369.68	0.00
369.87	0.00
370.07	0.00
370.27	74.90
370.47	140.43
370.66	477.47
370.86	552.37
371.06	587.47
371.25	653.01
371.45	531.30
371.65	514.92
371.84	458.74
372.04	554.71
372.24	559.39
372.44	599.18
372.63	662.37
372.83	571.09
373.03	517.26
373.22	486.83
373.42	489.17
373.62	564.07
373.81	638.97
374.01	664.71
374.21	643.65
374.40	550.03
374.60	552.37
374.79	641.31
374.99	664.71
375.19	608.54
375.38	802.80
375.58	676.41
375.78	716.20
375.97	704.50
376.17	730.25
376.37	730.25
376.56	699.82
376.76	793.44
376.95	873.02
377.15	938.55
377.35	896.43
377.54	964.30
377.74	947.92
377.93	863.66
378.13	779.40
378.33	880.04
378.52	851.96
378.72	760.67
378.91	800.46
379.11	688.12
379.31	720.88
379.50	716.20
379.70	828.55
379.89	734.93
380.09	901.11
380.28	873.02
380.48	851.96
380.68	887.06
380.87	842.59
381.07	781.74
381.26	788.76
381.46	695.14
381.65	704.50
381.85	704.50
382.04	629.60
382.24	629.60
382.43	543.00
382.63	638.97
382.83	575.77
383.02	596.84
383.22	622.58
383.41	601.52
383.61	601.52
383.80	657.69
384.00	781.74
384.19	840.25
384.39	896.43
384.58	856.64
384.78	898.77
384.97	884.72
385.17	866.00
385.36	812.17
385.56	798.12
385.75	716.20
385.95	910.47
386.14	863.66
386.34	837.91
386.53	896.43
386.72	828.55
386.92	912.81
387.11	854.30
387.31	903.45
387.50	891.74
387.70	816.85
387.89	777.06
388.09	781.74
388.28	856.64
388.48	889.40
388.67	910.47
388.86	964.30
389.06	1046.22
389.25	1128.14
389.45	1198.35
389.64	1135.16
389.84	1130.48
390.03	1170.27
390.22	1088.35
390.42	1107.07
390.61	1128.14
390.81	1256.87
391.00	1371.55
391.19	1294.32
391.39	1231.12
391.58	1097.71
391.78	1093.03
391.97	1130.48
392.16	1050.90
392.36	936.21
392.55	856.64
392.75	622.58
392.94	599.18
393.13	559.39
393.33	566.41
393.52	821.53
393.71	891.74
393.91	1027.50
394.10	1071.97
394.29	1144.52
394.49	1191.33
394.68	1233.46
394.88	1291.98
395.07	1380.92
395.26	1277.93
395.46	1352.83
395.65	1313.04
395.84	1071.97
396.04	985.37
396.23	856.64
396.42	774.72
396.62	681.10
396.81	826.21
397.00	891.74
397.19	1210.06
397.39	1390.28
397.58	1465.18
397.77	1577.52
397.97	1652.42
398.16	1643.06
398.35	1687.53
398.55	1753.06
398.74	1760.08
398.93	1844.34
399.12	1739.02
399.32	1671.14
399.51	1813.92
399.70	1944.99
399.90	1891.15
400.09	1891.15
400.28	1926.26
400.47	1895.83
400.67	1994.14
400.86	1928.60
401.05	2038.61
401.24	1975.41
401.44	2080.74
401.63	2024.56
401.82	1984.77
402.01	2078.40
402.21	2015.20
402.40	1984.77
402.59	1994.14
402.78	1867.75
402.97	1764.76
403.17	1842.00
403.36	1996.48
403.55	2062.01
403.74	2099.46
403.93	2113.50
404.13	2172.02
404.32	2062.01
404.51	2106.48
404.70	2239.89
404.89	2026.90
405.09	2031.58
405.28	1954.35
405.47	1991.80
405.66	1961.37
405.85	1961.37
406.05	1921.58
406.24	1914.56
406.43	2012.86
406.62	2057.33
406.81	2059.67
407.00	1998.82
407.20	1921.58
407.39	1989.46
407.58	2026.90
407.77	2094.78
407.96	2260.96
408.15	2244.57
408.34	2179.04
408.54	2270.32
408.73	2375.64
408.92	2211.81
409.11	2279.68
409.30	2125.21
409.49	1994.14
409.68	1823.28
409.87	1797.53
410.07	1909.88
410.26	2038.61
410.45	2174.36
410.64	2204.78
410.83	2272.66
411.02	2321.81
411.21	2310.11
411.40	2356.92
411.59	2333.51
411.78	2406.07
411.98	2377.98
412.17	2270.32
412.36	2352.24
412.55	2249.25
412.74	2310.11
412.93	2324.15
413.12	2272.66
413.31	2497.35
413.50	2612.04
413.69	2583.95
413.88	2387.35
414.07	2352.24
414.26	2359.26
414.45	2490.33
414.64	2516.08
414.83	2544.16
415.02	2487.99
415.22	2441.18
415.41	2626.08
415.60	2600.34
415.79	2630.76
415.98	2818.00
416.17	2740.77
416.36	2572.25
416.55	2480.97
416.74	2551.18
416.93	2597.99
417.12	2476.29
417.31	2445.86
417.50	2483.31
417.69	2509.05
417.88	2579.27
418.07	2555.86
418.26	2600.34
418.45	2621.40
418.64	2677.57
418.83	2700.98
419.02	2675.23
419.21	2766.51
419.39	2597.99
419.58	2506.71
419.77	2431.82
419.96	2534.80
420.15	2731.41
420.34	2757.15
420.53	2897.58
420.72	3066.10
420.91	2904.60
421.10	2761.83
421.29	2761.83
421.48	2663.53
421.67	2942.05
421.86	2792.26
422.05	2630.76
422.24	2406.07
422.43	2333.51
422.61	2654.17
422.80	2731.41
422.99	2766.51
423.18	2665.87
423.37	2675.23
423.56	2647.15
423.75	2602.68
423.94	2733.75
424.13	2656.51
424.32	2523.10
424.50	2740.77
424.69	2663.53
424.88	2593.31
425.07	2504.37
425.26	2567.57
425.45	2567.57
425.64	2476.29
425.83	2548.84
426.01	2722.04
426.20	2729.06
426.39	2605.02
426.58	2485.65
426.77	2303.09
426.96	2242.23
427.15	2434.16
427.33	2558.21
427.52	2518.42
427.71	2635.44
427.90	2637.78
428.09	2593.31
428.28	2431.82
428.46	2354.58
428.65	2420.11
428.84	2389.69
429.03	2502.03
429.22	2420.11
429.40	2260.96
429.59	2038.61
429.78	1935.62
429.97	1820.94
430.16	1865.41
430.34	1769.44
430.53	1870.09
430.72	1982.43
430.91	2181.38
431.10	2464.58
431.28	2768.85
431.47	2993.55
431.66	3040.36
431.85	2832.05
432.03	2590.97
432.22	2546.50
432.41	2654.17
432.60	2928.01
432.79	2928.01
432.97	3033.33
433.16	2881.20
433.35	2717.36
433.54	2466.92
433.72	2403.73
433.91	2382.67
434.10	2553.52
434.28	2747.79
434.47	2993.55
434.66	2841.41
434.85	2871.84
435.03	3056.74
435.22	3501.44
435.41	4119.34
435.59	4299.56
435.78	3906.35
435.97	3597.40
436.16	3478.04
436.34	3030.99
436.53	3185.47
436.72	3162.06
436.90	2979.50
437.09	2951.42
437.28	2827.37
437.46	2974.82
437.65	2984.18
437.84	2726.72
438.02	2675.23
438.21	2518.42
438.40	2647.15
438.58	2899.92
438.77	3026.31
438.96	3101.21
439.14	3042.70
439.33	3218.24
439.52	3197.17
439.70	3220.58
439.89	3162.06
440.08	2916.31
440.26	2977.16
440.45	3054.40
440.63	3103.55
440.82	3314.20
441.01	3396.12
441.19	3393.78
441.38	3520.17
441.57	3478.04
441.75	3463.99
441.94	3618.47
442.12	3534.21
442.31	3499.10
442.50	3574.00
442.68	3456.97
442.87	3548.25
443.05	3435.91
443.24	3531.87
443.43	3473.36
443.61	3707.41
443.80	3648.90
443.98	3396.12
444.17	3424.20
444.35	3637.19
444.54	3669.96
444.73	3552.93
444.91	3536.55
445.10	3375.05
445.28	3232.28
445.47	3218.24
445.65	3176.11
445.84	3276.75
446.02	3417.18
446.21	3522.51
446.39	3412.50
446.58	3510.80
446.77	3487.40
446.95	3606.77
447.14	3688.68
447.32	3936.78
447.51	3681.66
447.69	3595.06
447.88	3520.17
448.06	3684.00
448.25	3709.75
448.43	3578.68
448.62	3634.85
448.80	3571.66
448.99	3609.11
449.17	3681.66
449.36	3536.55
449.54	3831.46
449.73	3786.99
449.91	3932.10
450.10	3969.55
450.28	3983.59
450.46	3941.46
450.65	3925.08
450.83	3999.98
451.02	3880.61
451.20	3761.24
451.39	3913.38
451.57	3824.44
451.76	3829.12
451.94	3693.37
452.13	3840.82
452.31	3592.72
452.49	3344.63
452.68	3515.48
452.86	3463.99
453.05	3620.81
453.23	3641.87
453.42	3836.14
453.60	3737.84
453.78	3808.05
453.97	3707.41
454.15	3620.81
454.34	3581.02
454.52	3777.62
454.70	3595.06
454.89	3679.32
455.07	3630.17
455.26	3913.38
455.44	3854.86
455.62	4081.89
455.81	4065.51
455.99	4023.38
456.17	3733.15
456.36	3815.07
456.54	3878.27
456.73	3866.56
456.91	4046.79
457.09	4140.41
457.28	4212.96
457.46	4042.11
457.64	4121.68
457.83	3911.04
458.01	3829.12
458.19	3845.50
458.38	3812.73
458.56	3939.12
458.74	3990.61
458.93	3833.80
459.11	3796.35
459.29	3946.14
459.48	3920.40
459.66	3854.86
459.84	3880.61
460.03	4011.68
460.21	3913.38
460.39	4086.58
460.57	4100.62
460.76	4138.07
460.94	4215.30
461.12	4077.21
461.31	4072.53
461.49	4079.55
461.67	4219.99
461.85	4231.69
462.04	4271.48
462.22	4688.09
462.40	4311.27
462.59	4318.29
462.77	4149.77
462.95	4105.30
463.13	4004.66
463.32	4205.94
463.50	4091.26
463.68	3995.29
463.86	4030.40
464.05	3964.87
464.23	4039.76
464.41	4023.38
464.59	3845.50
464.78	4058.49
464.96	3995.29
465.14	3964.87
465.32	4093.60
465.50	4208.28
465.69	4257.43
465.87	4072.53
466.05	4124.02
466.23	3786.99
466.41	3669.96
466.60	3906.35
466.78	3831.46
466.96	3969.55
467.14	4126.36
467.32	4046.79
467.51	4067.85
467.69	3817.41
467.87	3770.60
468.05	4046.79
468.23	3964.87
468.41	4037.42
468.60	3992.95
468.78	3943.80
468.96	3904.01
469.14	4128.70
469.32	4140.41
469.50	3925.08
469.69	3899.33
469.87	4004.66
470.05	3875.93
470.23	3824.44
470.41	4002.32
470.59	3990.61
470.77	3852.52
470.95	3957.85
471.14	4053.81
471.32	4095.94
471.50	4175.52
471.68	4262.12
471.86	4262.12
472.04	4290.20
472.22	4332.33
472.40	4121.68
472.58	4128.70
472.77	3936.78
472.95	4217.65
473.13	4182.54
473.31	4257.43
473.49	4287.86
473.67	4198.92
473.85	4198.92
474.03	4404.89
474.21	4411.91
474.39	4547.66
474.57	4554.68
474.75	4329.99
474.93	4386.16
475.12	4344.03
475.30	4320.63
475.48	4250.41
475.66	4395.53
475.84	4306.59
476.02	4177.86
476.20	4255.09
476.38	4231.69
476.56	4500.85
476.74	4442.34
476.92	4482.13
477.10	4671.71
477.28	4489.15
477.46	4762.99
477.64	4748.95
477.82	4699.80
478.00	4844.91
478.18	4779.37
478.36	4636.60
478.54	4692.77
478.72	4774.69
478.90	4786.40
479.08	4905.76
479.26	4940.87
479.44	4997.04
479.62	4966.62
479.80	4952.57
479.98	4961.94
480.16	5130.45
480.34	5090.67
480.52	5071.94
480.70	5095.35
480.88	5069.60
481.06	5275.57
481.24	5214.71
481.41	5371.53
481.59	5448.77
481.77	5521.32
481.95	5329.40
482.13	5378.55
482.31	5273.23
482.49	5423.02
482.67	5238.12
482.85	5486.22
483.03	5638.35
483.21	5572.82
483.39	5659.42
483.57	5427.70
483.74	5439.40
483.92	5593.88
484.10	5544.73
484.28	5575.16
484.46	5624.31
484.64	5696.86
484.82	5652.39
485.00	5633.67
485.18	5441.75
485.35	5348.12
485.53	4957.25
485.71	4617.88
485.89	4376.80
486.07	4678.73
486.25	5090.67
486.43	5404.30
486.61	5488.56
486.78	5420.68
486.96	5418.34
487.14	5734.31
487.32	5785.80
487.50	5935.60
487.68	6190.72
487.85	6260.93
488.03	6235.19
488.21	6253.91
488.39	6186.04
488.57	5996.45
488.75	5907.51
488.92	6253.91
489.10	6534.78
489.28	6780.53
489.46	6808.62
489.64	6771.17
489.81	6890.54
489.99	6665.85
490.17	6738.40
490.35	6733.72
490.53	6558.18
490.70	6532.44
490.88	6478.60
491.06	6817.98
491.24	6904.58
491.41	6572.22
491.59	6448.18
491.77	6097.10
491.95	6363.92
492.13	6572.22
492.30	6661.16
492.48	6857.77
492.66	6860.11
492.84	7096.50
493.01	7143.32
493.19	7028.63
493.37	6789.89
493.54	6729.04
493.72	6825.00
493.90	7073.10
494.08	7194.81
494.25	7470.99
494.43	7585.68
494.61	7480.35
494.79	7569.29
494.96	7456.95
495.14	7641.85
495.32	7075.44
495.49	6981.82
495.67	7152.68
495.85	7529.50
496.02	7588.02
496.20	7454.61
496.38	7557.59
496.55	7379.71
496.73	7501.42
496.91	7634.83
497.09	7754.19
497.26	7854.84
497.44	7616.10
497.62	7487.37
497.79	7396.09
497.97	7042.67
498.14	6846.07
498.32	7016.93
498.50	7541.21
498.67	7667.60
498.85	7632.49
499.03	7686.32
499.20	7805.69
499.38	7765.90
499.56	7889.95
499.73	7723.77
499.91	7475.67
500.08	7417.16
500.26	7150.34
500.44	7346.94
500.61	7412.48
500.79	7548.23
500.97	7143.32
501.14	7417.16
501.32	7091.82
501.49	7276.73
501.67	7405.46
501.84	7246.30
502.02	7405.46
502.20	7487.37
502.37	7590.36
502.55	7552.91
502.72	7740.15
502.90	7730.79
503.07	7442.90
503.25	7440.56
503.43	7063.74
503.60	6963.09
503.78	6965.43
503.95	6883.52
504.13	7452.27
504.30	7644.19
504.48	7672.28
504.65	7721.43
504.83	7609.08
505.01	7686.32
505.18	7941.44
505.36	8025.70
505.53	7826.75
505.71	7955.48
505.88	8308.90
506.06	8028.04
506.23	7705.04
506.41	7726.11
506.58	7901.65
506.76	7552.91
506.93	7637.17
507.11	7632.49
507.28	7772.92
507.46	7683.98
507.63	7442.90
507.81	7562.27
507.98	7236.94
508.16	7726.11
508.33	7859.52
508.50	8241.03
508.68	8100.59
508.85	8255.07
509.03	8133.36
509.20	8131.02
509.38	8145.06
509.55	7934.42
509.73	7857.18
509.90	7864.20
510.08	7957.82
510.25	8032.72
510.42	7990.59
510.60	8095.91
510.77	8065.49
510.95	8299.54
511.12	8114.64
511.30	8353.37
511.47	8496.14
511.64	8451.67
511.82	8355.71
511.99	8112.30
512.17	7967.18
512.34	7925.05
512.51	7831.43
512.69	8091.23
512.86	7953.14
513.04	8105.28
513.21	8131.02
513.38	8124.00
513.56	7908.67
513.73	7648.87
513.90	7609.08
514.08	7644.19
514.25	7992.93
514.43	7880.58
514.60	7995.27
514.77	7941.44
514.95	7903.99
515.12	7995.27
515.29	8180.17
515.47	8154.43
515.64	8287.84
515.81	7962.50
515.99	8074.85
516.16	7641.85
516.33	7084.80
516.51	6700.95
516.68	6729.04
516.85	6480.94
517.03	6483.28
517.20	7002.88
517.37	7485.03
517.54	7964.84
517.72	7737.81
517.89	7344.60
518.06	6717.34
518.24	6857.77
518.41	7239.28
518.58	7662.91
518.75	7611.42
518.93	7662.91
519.10	7726.11
519.27	7845.48
519.45	7920.37
519.62	8004.63
519.79	8414.23
519.96	8070.17
520.14	7988.25
520.31	7826.75
520.48	7793.98
520.65	7899.31
520.83	8212.94
521.00	8259.75
521.17	8243.37
521.34	8025.70
521.52	8210.60
521.69	8163.79
521.86	8568.70
522.03	8500.83
522.20	7831.43
522.38	7721.43
522.55	7712.07
522.72	7955.48
522.89	8021.02
523.07	8063.15
523.24	8016.33
523.41	8100.59
523.58	8409.54
523.75	8610.83
523.92	8264.43
524.10	8479.76
524.27	8484.44
524.44	8538.27
524.61	8334.65
524.78	8439.97
524.96	8248.05
525.13	8262.09
525.30	8308.90
525.47	8482.10
525.64	8437.63
525.81	8318.26
525.98	7808.03
526.16	7503.76
526.33	7321.20
526.50	7250.98
526.67	7187.79
526.84	7330.56
527.01	7339.92
527.18	7742.49
527.36	7915.69
527.53	8203.58
527.70	8224.64
527.87	8203.58
528.04	8121.66
528.21	8018.68
528.38	8379.12
528.55	8465.72
528.72	8535.93
528.89	8854.25
529.07	8526.57
529.24	8437.63
529.41	8030.38
529.58	7999.95
529.75	8159.11
529.92	8119.32
530.09	8269.11
530.26	8432.95
530.43	8613.17
530.60	8479.76
530.77	8631.90
530.94	8535.93
531.11	8475.08
531.28	8486.78
531.46	8098.25
531.63	8416.57
531.80	8365.07
531.97	8252.73
532.14	8060.80
532.31	7829.09
532.48	7625.47
532.65	7712.07
532.82	7733.13
532.99	8109.96
533.16	8222.30
533.33	8458.70
533.50	8505.51
533.67	8369.76
533.84	8154.43
534.01	8177.83
534.18	8236.35
534.35	8348.69
534.52	8049.10
534.69	8446.99
534.86	8528.91
535.03	8545.30
535.20	8463.38
535.37	8561.68
535.54	8627.21
535.71	8608.49
535.88	8709.13
536.05	8318.26
536.22	8156.77
536.38	8107.62
536.55	8189.53
536.72	7707.38
536.89	7899.31
537.06	8053.78
537.23	8507.85
537.40	8301.88
537.57	8472.74
537.74	8510.19
537.91	8355.71
538.08	8306.56
538.25	8442.31
538.42	8512.53
538.59	8533.59
538.75	8344.01
538.92	8166.13
539.09	8269.11
539.26	7985.91
539.43	8107.62
539.60	8107.62
539.77	8266.77
539.94	8079.53
540.11	8056.12
540.28	8208.26
540.44	8009.31
540.61	8013.99
540.78	8229.32
540.95	8418.91
541.12	8674.03
541.29	8765.31
541.46	9144.47
541.62	9210.01
541.79	8901.06
541.96	8746.58
542.13	9036.81
542.30	8730.20
542.47	9064.89
542.63	8643.60
542.80	8634.24
542.97	8674.03
543.14	8507.85
543.31	8603.81
543.48	8734.88
543.64	8992.34
543.81	9235.75
543.98	8994.68
544.15	9083.62
544.32	8641.26
544.48	8737.22
544.65	8765.31
544.82	8774.67
544.99	8835.52
545.16	8753.60
545.32	8475.08
545.49	9448.74
545.66	10710.29
545.83	11194.78
546.00	10794.55
546.16	9628.96
546.33	9217.03
546.50	8987.66
546.67	8744.24
546.83	8692.75
547.00	8697.43
547.17	8362.73
547.34	8187.19
547.50	8121.66
547.67	8154.43
547.84	8084.21
548.00	8360.39
548.17	8442.31
548.34	8582.74
548.51	8580.40
548.67	8472.74
548.84	8477.42
549.01	8500.83
549.18	8334.65
549.34	8175.49
549.51	8191.88
549.68	8079.53
549.84	8313.58
550.01	8348.69
550.18	8203.58
550.34	8358.05
550.51	8126.34
550.68	8196.56
550.84	7808.03
551.01	8013.99
551.18	7822.07
551.34	7850.16
551.51	8212.94
551.68	8095.91
551.84	8243.37
552.01	8077.19
552.18	7934.42
552.34	7777.60
552.51	7751.85
552.68	7599.72
552.84	7822.07
553.01	7878.24
553.18	7955.48
553.34	7808.03
553.51	7995.27
553.67	7901.65
553.84	7995.27
554.01	7946.12
554.17	7957.82
554.34	7906.33
554.51	7885.26
554.67	8095.91
554.84	8051.44
555.00	7803.35
555.17	7882.92
555.33	7847.82
555.50	7786.96
555.67	7761.22
555.83	7765.90
556.00	7461.63
556.16	7786.96
556.33	7644.19
556.50	7655.89
556.66	7583.34
556.83	7470.99
556.99	7641.85
557.16	7616.10
557.32	7391.41
557.49	7599.72
557.65	7541.21
557.82	7625.47
557.98	7419.50
558.15	7569.29
558.32	7424.18
558.48	7143.32
558.65	7246.30
558.81	7098.84
558.98	7138.63
559.14	7164.38
559.31	7293.11
559.47	7321.20
559.64	7227.57
559.80	7091.82
559.97	7164.38
560.13	7356.30
560.30	7475.67
560.46	7810.37
560.63	7630.15
560.79	7798.66
560.96	7588.02
561.12	7508.44
561.29	7105.87
561.45	7129.27
561.61	7265.02
561.78	7389.07
561.94	7421.84
562.11	7227.57
562.27	7108.21
562.44	7414.82
562.60	7414.82
562.77	7513.12
562.93	7332.90
563.10	7386.73
563.26	7199.49
563.42	7379.71
563.59	7204.17
563.75	7227.57
563.92	7297.79
564.08	7192.47
564.24	7302.47
564.41	7318.86
564.57	7143.32
564.74	7248.64
564.90	7328.22
565.07	7229.91
565.23	7040.33
565.39	7056.72
565.56	6920.96
565.72	6733.72
565.88	6799.26
566.05	7019.27
566.21	6895.22
566.38	7009.90
566.54	7061.40
566.70	7105.87
566.87	7325.88
567.03	7150.34
567.19	7248.64
567.36	7129.27
567.52	6965.43
567.68	7138.63
567.85	6768.83
568.01	6696.27
568.17	6539.46
568.34	6504.35
568.50	6504.35
568.66	6565.20
568.83	6675.21
568.99	6665.85
569.15	6637.76
569.32	6670.53
569.48	6691.59
569.64	6520.73
569.81	6497.33
569.97	6485.62
570.13	6532.44
570.30	6668.19
570.46	6572.22
570.62	6389.66
570.78	6457.54
570.95	6317.11
571.11	6679.89
571.27	6422.43
571.43	6427.11
571.60	6649.46
571.76	6572.22
571.92	6527.75
572.09	6724.36
572.25	6530.09
572.41	6691.59
572.57	6602.65
572.74	6700.95
572.90	6462.22
573.06	6665.85
573.22	6588.61
573.38	6600.31
573.55	6518.39
573.71	6724.36
573.87	6600.31
574.03	6403.71
574.20	6527.75
574.36	6525.41
574.52	6396.68
574.68	6490.31
574.84	6410.73
575.01	6333.49
575.17	6249.23
575.33	6277.32
575.49	6209.44
575.65	6237.53
575.82	6352.21
575.98	6298.38
576.14	6270.30
576.30	6511.37
576.46	6626.06
576.62	6951.39
576.79	6899.90
576.95	6745.42
577.11	6696.27
577.27	6548.82
577.43	6478.60
577.59	6424.77
577.75	6363.92
577.92	6298.38
578.08	6052.63
578.24	6087.73
578.40	6363.92
578.56	6637.76
578.72	6857.77
578.88	6890.54
579.04	6778.19
579.21	6698.61
579.37	6370.94
579.53	6560.52
579.69	6551.16
579.85	6658.82
580.01	6562.86
580.17	6487.96
580.33	6333.49
580.49	6658.82
580.65	6492.65
580.82	6471.58
580.98	6722.02
581.14	6532.44
581.30	6539.46
581.46	6469.24
581.62	6438.81
581.78	6616.69
581.94	6612.01
582.10	6731.38
582.26	6684.57
582.42	6546.48
582.58	6785.21
582.74	6593.29
582.90	6710.32
583.06	6731.38
583.22	6677.55
583.38	6532.44
583.54	6628.40
583.70	6534.78
583.86	6710.32
584.02	6647.12
584.18	6581.59
584.34	6588.61
584.50	6558.18
584.66	6509.03
584.82	6448.18
584.98	6429.45
585.14	6445.84
585.30	6071.35
585.46	6146.25
585.62	6146.25
585.78	6132.20
585.94	6389.66
586.10	6090.07
586.26	6174.33
586.42	6300.72
586.58	6366.26
586.74	6438.81
586.90	6410.73
587.06	6291.36
587.22	6235.19
587.38	6071.35
587.54	6090.07
587.70	5956.66
587.86	5853.68
588.02	5591.54
588.18	5348.12
588.34	5165.56
588.49	4994.70
588.65	4638.94
588.81	4545.32
588.97	4322.97
589.13	4510.21
589.29	4512.55
589.45	4430.63
589.61	4566.39
589.77	4851.93
589.93	5032.15
590.08	5128.11
590.24	5284.93
590.40	5263.86
590.56	5336.42
590.72	5228.76
590.88	5057.90
591.04	5249.82
591.20	5088.32
591.35	5284.93
591.51	5149.18
591.67	5107.05
591.83	5130.45
591.99	5062.58
592.15	5090.67
592.31	5151.52
592.46	5500.26
592.62	5558.77
592.78	5518.98
592.94	5600.90
593.10	5537.71
593.26	5692.18
593.41	5727.29
593.57	5657.07
593.73	5247.48
593.89	5221.74
594.05	4959.60
594.20	4971.30
594.36	4816.82
594.52	4760.65
594.68	4774.69
594.84	4990.02
594.99	5179.61
595.15	5308.34
595.31	5380.89
595.47	5254.50
595.62	5188.97
595.78	5284.93
595.94	5378.55
596.10	5465.15
596.25	5378.55
596.41	5144.50
596.57	5195.99
596.73	5291.95
596.88	5242.80
597.04	5310.68
597.20	5324.72
597.36	5252.16
597.51	5303.65
