SpectraSuite Data File
++++++++++++++++++++++++++++++++++++
Date: Fri Oct 04 11:44:20 GMT-05:00 2013
User: price-jones
Dark Spectrum Present: No
Reference Spectrum Present: No
Number of Sampled Component Spectra: 1
Spectrometers: USB2+H05261
Integration Time (usec): 100000 (USB2+H05261)
Spectra Averaged: 1 (USB2+H05261)
Boxcar Smoothing: 0 (USB2+H05261)
Correct for Electrical Dark: No (USB2+H05261)
Strobe/Lamp Enabled: No (USB2+H05261)
Correct for Detector Non-linearity: No (USB2+H05261)
Correct for Stray Light: No (USB2+H05261)
Number of Pixels in Processed Spectrum: 2048
>>>>>Begin Processed Spectral Data<<<<<
365.73	60.85
365.92	60.85
366.12	60.85
366.32	0.00
366.52	0.00
366.72	0.00
366.91	0.00
367.11	0.00
367.31	0.00
367.51	0.00
367.70	0.00
367.90	0.00
368.10	0.00
368.30	0.00
368.49	0.00
368.69	0.00
368.89	0.00
369.09	0.00
369.28	0.00
369.48	0.00
369.68	0.00
369.87	0.00
370.07	0.00
370.27	14.04
370.47	9.36
370.66	308.95
370.86	397.89
371.06	395.55
371.25	404.91
371.45	278.52
371.65	280.86
371.84	276.18
372.04	290.23
372.24	304.27
372.44	290.23
372.63	372.15
372.83	379.17
373.03	248.10
373.22	287.89
373.42	320.65
373.62	365.12
373.81	367.46
374.01	404.91
374.21	454.06
374.40	372.15
374.60	313.63
374.79	430.66
374.99	486.83
375.19	428.32
375.38	425.98
375.58	444.70
375.78	425.98
375.97	430.66
376.17	533.64
376.37	456.40
376.56	423.64
376.76	416.62
376.95	421.30
377.15	503.22
377.35	540.66
377.54	599.18
377.74	587.47
377.93	498.53
378.13	465.77
378.33	561.73
378.52	475.13
378.72	564.07
378.91	512.58
379.11	442.36
379.31	475.13
379.50	461.09
379.70	458.74
379.89	535.98
380.09	545.34
380.28	557.05
380.48	524.28
380.68	493.85
380.87	561.73
381.07	517.26
381.26	601.52
381.46	367.46
381.65	369.80
381.85	437.68
382.04	355.76
382.24	390.87
382.43	435.34
382.63	351.08
382.83	414.27
383.02	402.57
383.22	379.17
383.41	395.55
383.61	402.57
383.80	437.68
384.00	414.27
384.19	561.73
384.39	554.71
384.58	437.68
384.78	580.45
384.97	521.94
385.17	514.92
385.36	496.19
385.56	418.96
385.75	444.70
385.95	491.51
386.14	533.64
386.34	643.65
386.53	540.66
386.72	528.96
386.92	498.53
387.11	517.26
387.31	573.43
387.50	531.30
387.70	465.77
387.89	507.90
388.09	521.94
388.28	465.77
388.48	486.83
388.67	578.11
388.86	510.24
389.06	564.07
389.25	683.44
389.45	624.92
389.64	662.37
389.84	655.35
390.03	617.90
390.22	692.80
390.42	638.97
390.61	690.46
390.81	723.23
391.00	727.91
391.19	734.93
391.39	772.38
391.58	620.24
391.78	730.25
391.97	688.12
392.16	603.86
392.36	554.71
392.55	496.19
392.75	395.55
392.94	337.04
393.13	372.15
393.33	418.96
393.52	477.47
393.71	463.43
393.91	531.30
394.10	557.05
394.29	613.22
394.49	681.10
394.68	741.95
394.88	835.57
395.07	798.12
395.26	884.72
395.46	847.27
395.65	741.95
395.84	669.39
396.04	627.26
396.23	531.30
396.42	407.25
396.62	484.49
396.81	524.28
397.00	491.51
397.19	617.90
397.39	842.59
397.58	833.23
397.77	954.94
397.97	961.96
398.16	908.13
398.35	957.28
398.55	1013.45
398.74	1011.11
398.93	1022.81
399.12	1078.99
399.32	987.71
399.51	1034.52
399.70	1083.67
399.90	1144.52
400.09	1078.99
400.28	1090.69
400.47	1069.62
400.67	1191.33
400.86	1041.54
401.05	1109.41
401.24	1156.22
401.44	1055.58
401.63	1128.14
401.82	1172.61
402.01	1200.69
402.21	1205.38
402.40	1174.95
402.59	1142.18
402.78	1011.11
402.97	1118.78
403.17	1135.16
403.36	1130.48
403.55	1219.42
403.74	1273.25
403.93	1125.80
404.13	1170.27
404.32	1064.94
404.51	1060.26
404.70	1193.67
404.89	1200.69
405.09	1184.31
405.28	1104.73
405.47	1132.82
405.66	1167.93
405.85	1086.01
406.05	1067.28
406.24	1165.59
406.43	1102.39
406.62	1191.33
406.81	1214.74
407.00	1139.84
407.20	1121.12
407.39	1158.57
407.58	1123.46
407.77	1184.31
407.96	1226.44
408.15	1245.16
408.34	1313.04
408.54	1348.15
408.73	1282.61
408.92	1184.31
409.11	1303.68
409.30	1245.16
409.49	1177.29
409.68	1130.48
409.87	1067.28
410.07	1130.48
410.26	1174.95
410.45	1181.97
410.64	1277.93
410.83	1261.55
411.02	1331.76
411.21	1409.00
411.40	1366.87
411.59	1334.11
411.78	1277.93
411.98	1329.42
412.17	1327.08
412.36	1282.61
412.55	1313.04
412.74	1341.13
412.93	1324.74
413.12	1317.72
413.31	1474.54
413.50	1345.81
413.69	1373.89
413.88	1441.77
414.07	1357.51
414.26	1383.26
414.45	1343.47
414.64	1448.79
414.83	1507.30
415.02	1369.21
415.22	1315.38
415.41	1493.26
415.60	1345.81
415.79	1502.62
415.98	1692.21
416.17	1502.62
416.36	1490.92
416.55	1528.37
416.74	1495.60
416.93	1338.79
417.12	1397.30
417.31	1444.11
417.50	1425.39
417.69	1519.01
417.88	1401.98
418.07	1528.37
418.26	1437.09
418.45	1521.35
418.64	1493.26
418.83	1629.01
419.02	1535.39
419.21	1514.33
419.39	1483.90
419.58	1460.49
419.77	1507.30
419.96	1542.41
420.15	1565.82
420.34	1556.46
420.53	1577.52
420.72	1696.89
420.91	1610.29
421.10	1617.31
421.29	1617.31
421.48	1570.50
421.67	1617.31
421.86	1652.42
422.05	1472.20
422.24	1409.00
422.43	1268.57
422.61	1371.55
422.80	1488.58
422.99	1511.99
423.18	1474.54
423.37	1547.09
423.56	1479.22
423.75	1526.03
423.94	1528.37
424.13	1434.75
424.32	1418.36
424.50	1643.06
424.69	1481.56
424.88	1502.62
425.07	1390.28
425.26	1401.98
425.45	1465.18
425.64	1373.89
425.83	1411.34
426.01	1570.50
426.20	1554.12
426.39	1556.46
426.58	1458.15
426.77	1397.30
426.96	1303.68
427.15	1420.71
427.33	1483.90
427.52	1383.26
427.71	1488.58
427.90	1519.01
428.09	1526.03
428.28	1502.62
428.46	1406.66
428.65	1345.81
428.84	1409.00
429.03	1521.35
429.22	1423.05
429.40	1275.59
429.59	1242.82
429.78	1186.65
429.97	1039.20
430.16	1109.41
430.34	1142.18
430.53	1076.65
430.72	1069.62
430.91	1252.19
431.10	1336.45
431.28	1577.52
431.47	1727.32
431.66	1788.17
431.85	1605.61
432.03	1582.20
432.22	1465.18
432.41	1486.24
432.60	1624.33
432.79	1675.82
432.97	1790.51
433.16	1720.29
433.35	1605.61
433.54	1331.76
433.72	1451.13
433.91	1397.30
434.10	1472.20
434.28	1554.12
434.47	1724.97
434.66	1673.48
434.85	1633.69
435.03	1633.69
435.22	1727.32
435.41	2155.63
435.59	2076.06
435.78	1980.09
435.97	1989.46
436.16	1923.92
436.34	1762.42
436.53	1701.57
436.72	1783.49
436.90	1701.57
437.09	1682.85
437.28	1582.20
437.46	1710.93
437.65	1746.04
437.84	1696.89
438.02	1493.26
438.21	1509.65
438.40	1533.05
438.58	1692.21
438.77	1746.04
438.96	1706.25
439.14	1743.70
439.33	1907.54
439.52	1856.04
439.70	1727.32
439.89	1739.02
440.08	1727.32
440.26	1673.48
440.45	1804.55
440.63	1867.75
440.82	1982.43
441.01	1891.15
441.19	1830.30
441.38	1863.07
441.57	1877.11
441.75	2106.48
441.94	2111.16
442.12	1968.39
442.31	2057.33
442.50	2017.54
442.68	2012.86
442.87	1975.41
443.05	1994.14
443.24	2062.01
443.43	2106.48
443.61	2207.13
443.80	2062.01
443.98	1989.46
444.17	2010.52
444.35	2106.48
444.54	2174.36
444.73	2136.91
444.91	2045.63
445.10	2031.58
445.28	1914.56
445.47	1842.00
445.65	1750.72
445.84	1842.00
446.02	1942.64
446.21	2022.22
446.39	1980.09
446.58	2045.63
446.77	2026.90
446.95	2038.61
447.14	2078.40
447.32	2092.44
447.51	2017.54
447.69	1984.77
447.88	2019.88
448.06	1968.39
448.25	2050.31
448.43	2029.24
448.62	2111.16
448.80	2033.93
448.99	2022.22
449.17	1966.05
449.36	2038.61
449.54	2165.00
449.73	2146.27
449.91	2165.00
450.10	2275.00
450.28	2385.01
450.46	2263.30
450.65	2293.72
450.83	2312.45
451.02	2223.51
451.20	2235.21
451.39	2181.38
451.57	2221.17
451.76	2125.21
451.94	2139.25
452.13	2223.51
452.31	2143.93
452.49	1968.39
452.68	1926.26
452.86	2153.29
453.05	2026.90
453.23	2076.06
453.42	2078.40
453.60	2113.50
453.78	2101.80
453.97	2153.29
454.15	2169.68
454.34	2090.10
454.52	2141.59
454.70	2127.55
454.89	2092.44
455.07	2080.74
455.26	2094.78
455.44	2242.23
455.62	2218.83
455.81	2263.30
455.99	2216.49
456.17	2232.87
456.36	2237.55
456.54	2183.72
456.73	2338.20
456.91	2314.79
457.09	2251.60
457.28	2401.39
457.46	2251.60
457.64	2228.19
457.83	2228.19
458.01	2127.55
458.19	2155.63
458.38	2176.70
458.56	2305.43
458.74	2331.17
458.93	2223.51
459.11	2396.71
459.29	2211.81
459.48	2150.95
459.66	2253.94
459.84	2291.38
460.03	2310.11
460.21	2279.68
460.39	2228.19
460.57	2319.47
460.76	2340.54
460.94	2328.83
461.12	2253.94
461.31	2438.84
461.49	2253.94
461.67	2256.28
461.85	2333.51
462.04	2246.91
462.22	2818.00
462.40	2427.14
462.59	2298.41
462.77	2420.11
462.95	2300.75
463.13	2324.15
463.32	2277.34
463.50	2347.56
463.68	2354.58
463.86	2242.23
464.05	2256.28
464.23	2326.49
464.41	2256.28
464.59	2099.46
464.78	2267.98
464.96	2392.03
465.14	2251.60
465.32	2298.41
465.50	2385.01
465.69	2441.18
465.87	2448.20
466.05	2359.26
466.23	2153.29
466.41	2111.16
466.60	2195.42
466.78	2179.04
466.96	2186.06
467.14	2181.38
467.32	2387.35
467.51	2436.50
467.69	2289.04
467.87	2239.89
468.05	2282.02
468.23	2356.92
468.41	2150.95
468.60	2277.34
468.78	2328.83
468.96	2265.64
469.14	2272.66
469.32	2172.02
469.50	2345.22
469.69	2317.13
469.87	2230.53
470.05	2204.78
470.23	2165.00
470.41	2150.95
470.59	2244.57
470.77	2225.85
470.95	2277.34
471.14	2385.01
471.32	2375.64
471.50	2448.20
471.68	2438.84
471.86	2567.57
472.04	2466.92
472.22	2473.95
472.40	2347.56
472.58	2466.92
472.77	2305.43
472.95	2253.94
473.13	2349.90
473.31	2448.20
473.49	2389.69
473.67	2457.56
473.85	2413.09
474.03	2464.58
474.21	2506.71
474.39	2581.61
474.57	2583.95
474.75	2450.54
474.93	2492.67
475.12	2422.45
475.30	2333.51
475.48	2537.14
475.66	2525.44
475.84	2441.18
476.02	2342.88
476.20	2438.84
476.38	2497.35
476.56	2476.29
476.74	2558.21
476.92	2548.84
477.10	2661.19
477.28	2658.85
477.46	2705.66
477.64	2773.53
477.82	2686.94
478.00	2764.17
478.18	2644.81
478.36	2635.44
478.54	2640.12
478.72	2621.40
478.90	2820.35
479.08	2839.07
479.26	2874.18
479.44	2832.05
479.62	2773.53
479.80	2761.83
479.98	3054.40
480.16	2892.90
480.34	2827.37
480.52	2785.24
480.70	2843.75
480.88	2967.80
481.06	2965.46
481.24	2902.26
481.41	3059.08
481.59	3059.08
481.77	3112.91
481.95	2937.37
482.13	2991.20
482.31	3089.51
482.49	3075.46
482.67	3007.59
482.85	3035.67
483.03	3164.40
483.21	3122.27
483.39	3148.02
483.57	3040.36
483.74	3197.17
483.92	3122.27
484.10	3122.27
484.28	3185.47
484.46	3218.24
484.64	3220.58
484.82	3255.69
485.00	3138.66
485.18	3077.80
485.35	2998.23
485.53	2904.60
485.71	2724.38
485.89	2448.20
486.07	2626.08
486.25	2967.80
486.43	2953.76
486.61	3131.64
486.78	3122.27
486.96	3059.08
487.14	3239.30
487.32	3283.77
487.50	3286.11
487.68	3543.57
487.85	3452.29
488.03	3508.46
488.21	3447.61
488.39	3269.73
488.57	3351.65
488.75	3297.81
488.92	3712.09
489.10	3552.93
489.28	3728.47
489.46	3794.01
489.64	3812.73
489.81	3779.97
489.99	3733.15
490.17	3786.99
490.35	3829.12
490.53	3822.09
490.70	3733.15
490.88	3714.43
491.06	3810.39
491.24	3782.31
491.41	3733.15
491.59	3517.83
491.77	3452.29
491.95	3431.23
492.13	3669.96
492.30	3829.12
492.48	3866.56
492.66	4070.19
492.84	3957.85
493.01	3978.91
493.19	3943.80
493.37	3918.06
493.54	3861.88
493.72	3765.92
493.90	4138.07
494.08	4121.68
494.25	4266.80
494.43	4060.83
494.61	4311.27
494.79	4456.38
494.96	4318.29
495.14	4065.51
495.32	4079.55
495.49	3990.61
495.67	3976.57
495.85	4219.99
496.02	4283.18
496.20	4311.27
496.38	4285.52
496.55	4236.37
496.73	4276.16
496.91	4304.25
497.09	4411.91
497.26	4299.56
497.44	4451.70
497.62	4215.30
497.79	4182.54
497.97	4051.47
498.14	4067.85
498.32	4198.92
498.50	4318.29
498.67	4489.15
498.85	4442.34
499.03	4320.63
499.20	4388.50
499.38	4334.67
499.56	4425.95
499.73	4346.37
499.91	4348.72
500.08	4170.83
500.26	4135.73
500.44	4060.83
500.61	4269.14
500.79	4081.89
500.97	4241.05
501.14	4173.18
501.32	4177.86
501.49	4004.66
501.67	4241.05
501.84	4311.27
502.02	4348.72
502.20	4278.50
502.37	4163.81
502.55	4245.73
502.72	4320.63
502.90	4320.63
503.07	4341.69
503.25	4215.30
503.43	4063.17
503.60	4046.79
503.78	3960.19
503.95	3960.19
504.13	4067.85
504.30	4325.31
504.48	4390.84
504.65	4454.04
504.83	4325.31
505.01	4566.39
505.18	4479.79
505.36	4535.96
505.53	4423.61
505.71	4568.73
505.88	4641.28
506.06	4596.81
506.23	4550.00
506.41	4348.72
506.58	4348.72
506.76	4334.67
506.93	4358.08
507.11	4355.74
507.28	4395.53
507.46	4348.72
507.63	4271.48
507.81	4114.66
507.98	4367.44
508.16	4294.88
508.33	4360.42
508.50	4596.81
508.68	4634.26
508.85	4667.03
509.03	4631.92
509.20	4578.09
509.38	4599.15
509.55	4388.50
509.73	4390.84
509.90	4554.68
510.08	4706.82
510.25	4564.04
510.42	4594.47
510.60	4566.39
510.77	4559.36
510.95	4608.51
511.12	4709.16
511.30	4842.57
511.47	4730.22
511.64	4798.10
511.82	4629.58
511.99	4561.70
512.17	4461.06
512.34	4521.92
512.51	4489.15
512.69	4610.86
512.86	4697.46
513.04	4704.48
513.21	4664.69
513.38	4592.13
513.56	4472.76
513.73	4444.68
513.90	4418.93
514.08	4416.59
514.25	4430.63
514.43	4400.21
514.60	4489.15
514.77	4575.75
514.95	4599.15
515.12	4610.86
515.29	4575.75
515.47	4683.41
515.64	4739.58
515.81	4809.80
515.99	4695.11
516.16	4451.70
516.33	4257.43
516.51	3939.12
516.68	3824.44
516.85	3805.71
517.03	3744.86
517.20	4121.68
517.37	4372.12
517.54	4660.01
517.72	4617.88
517.89	4329.99
518.06	3913.38
518.24	4007.00
518.41	4166.15
518.58	4271.48
518.75	4442.34
518.93	4554.68
519.10	4421.27
519.27	4638.94
519.45	4599.15
519.62	4716.18
519.79	4791.08
519.96	4793.42
520.14	4690.43
520.31	4624.90
520.48	4477.44
520.65	4447.02
520.83	4704.48
521.00	4793.42
521.17	4718.52
521.34	4631.92
521.52	4847.25
521.69	4739.58
521.86	4966.62
522.03	4758.31
522.20	4755.97
522.38	4540.64
522.55	4475.10
522.72	4517.23
522.89	4786.40
523.07	4575.75
523.24	4692.77
523.41	4816.82
523.58	4772.35
523.75	4908.10
523.92	4910.44
524.10	4896.40
524.27	4847.25
524.44	4964.28
524.61	4652.98
524.78	4840.23
524.96	4854.27
525.13	4657.67
525.30	4814.48
525.47	4912.78
525.64	4858.95
525.81	4835.55
525.98	4660.01
526.16	4372.12
526.33	4278.50
526.50	4255.09
526.67	4156.79
526.84	4287.86
527.01	4437.66
527.18	4449.36
527.36	4690.43
527.53	4861.29
527.70	4732.56
527.87	4718.52
528.04	4734.90
528.21	4873.00
528.38	4777.03
528.55	5071.94
528.72	4908.10
528.89	5055.56
529.07	5144.50
529.24	4903.42
529.41	4816.82
529.58	4580.43
529.75	4643.62
529.92	4737.24
530.09	4940.87
530.26	4959.60
530.43	4894.06
530.60	4947.89
530.77	4945.55
530.94	5184.29
531.11	5118.75
531.28	4858.95
531.46	4912.78
531.63	4929.17
531.80	4849.59
531.97	4894.06
532.14	4858.95
532.31	4505.53
532.48	4468.08
532.65	4432.97
532.82	4505.53
532.99	4833.21
533.16	4795.76
533.33	4959.60
533.50	4884.70
533.67	4650.64
533.84	4683.41
534.01	4805.12
534.18	4765.33
534.35	4802.78
534.52	4823.84
534.69	4945.55
534.86	4737.24
535.03	4875.34
535.20	4964.28
535.37	5060.24
535.54	5076.62
535.71	4912.78
535.88	5088.32
536.05	4961.94
536.22	4685.75
536.38	4833.21
536.55	4751.29
536.72	4683.41
536.89	4589.79
537.06	4833.21
537.23	4896.40
537.40	4765.33
537.57	4863.63
537.74	4842.57
537.91	4929.17
538.08	4894.06
538.25	4889.38
538.42	4828.53
538.59	4905.76
538.75	4706.82
538.92	4676.39
539.09	4660.01
539.26	4751.29
539.43	4912.78
539.60	4578.09
539.77	4723.20
539.94	4655.33
540.11	4662.35
540.28	4650.64
540.44	4491.49
540.61	4580.43
540.78	4550.00
540.95	4685.75
541.12	4842.57
541.29	5004.07
541.46	5114.07
541.62	4896.40
541.79	4968.96
541.96	4922.15
542.13	4891.72
542.30	4945.55
542.47	4889.38
542.63	4975.98
542.80	4933.85
542.97	4823.84
543.14	4784.06
543.31	4807.46
543.48	4840.23
543.64	4924.49
543.81	5277.91
543.98	5029.81
544.15	5064.92
544.32	4894.06
544.48	4833.21
544.65	4793.42
544.82	5018.11
544.99	5020.45
545.16	4896.40
545.32	4868.31
545.49	5282.59
545.66	5479.19
545.83	5668.78
546.00	5490.90
546.16	5338.76
546.33	5062.58
546.50	4973.64
546.67	5130.45
546.83	4891.72
547.00	4849.59
547.17	4638.94
547.34	4758.31
547.50	4615.54
547.67	4767.67
547.84	4564.04
548.00	4741.93
548.17	4739.58
548.34	4821.50
548.51	5046.20
548.67	4873.00
548.84	4772.35
549.01	4912.78
549.18	4777.03
549.34	4919.81
549.51	4669.37
549.68	4896.40
549.84	4816.82
550.01	4521.92
550.18	4798.10
550.34	4781.71
550.51	4779.37
550.68	4849.59
550.84	4634.26
551.01	4688.09
551.18	4561.70
551.34	4580.43
551.51	4690.43
551.68	4704.48
551.84	4898.74
552.01	4734.90
552.18	4737.24
552.34	4683.41
552.51	4559.36
552.68	4458.72
552.84	4545.32
553.01	4650.64
553.18	4727.88
553.34	4578.09
553.51	4568.73
553.67	4690.43
553.84	4795.76
554.01	4744.27
554.17	4578.09
554.34	4603.83
554.51	4615.54
554.67	4718.52
554.84	4690.43
555.00	4683.41
555.17	4788.74
555.33	4681.07
555.50	4662.35
555.67	4676.39
555.83	4514.89
556.00	4627.24
556.16	4748.95
556.33	4484.47
556.50	4580.43
556.66	4517.23
556.83	4355.74
556.99	4458.72
557.16	4351.06
557.32	4512.55
557.49	4524.26
557.65	4451.70
557.82	4550.00
557.98	4435.32
558.15	4318.29
558.32	4376.80
558.48	4163.81
558.65	4245.73
558.81	4388.50
558.98	4112.32
559.14	4322.97
559.31	4367.44
559.47	4369.78
559.64	4332.33
559.80	4245.73
559.97	4079.55
560.13	4297.22
560.30	4372.12
560.46	4615.54
560.63	4535.96
560.79	4575.75
560.96	4535.96
561.12	4325.31
561.29	4440.00
561.45	4231.69
561.61	4227.01
561.78	4402.55
561.94	4264.46
562.11	4409.57
562.27	4355.74
562.44	4278.50
562.60	4362.76
562.77	4311.27
562.93	4449.36
563.10	4587.45
563.26	4322.97
563.42	4379.14
563.59	4388.50
563.75	4241.05
563.92	4308.93
564.08	4259.78
564.24	4175.52
564.41	4514.89
564.57	4390.84
564.74	4262.12
564.90	4393.19
565.07	4430.63
565.23	4337.01
565.39	4269.14
565.56	4058.49
565.72	4112.32
565.88	4004.66
566.05	4191.90
566.21	4341.69
566.38	4184.88
566.54	4245.73
566.70	4182.54
566.87	4238.71
567.03	4217.65
567.19	4217.65
567.36	4161.47
567.52	4208.28
567.68	4245.73
567.85	4217.65
568.01	3901.67
568.17	3962.53
568.34	3786.99
568.50	4070.19
568.66	3946.14
568.83	3948.48
568.99	3777.62
569.15	3960.19
569.32	3868.91
569.48	3892.31
569.64	4032.74
569.81	3946.14
569.97	3967.21
570.13	3918.06
570.30	3904.01
570.46	3868.91
570.62	3786.99
570.78	3740.18
570.95	3758.90
571.11	3932.10
571.27	3976.57
571.43	3695.71
571.60	3911.04
571.76	3889.97
571.92	4065.51
572.09	4016.36
572.25	4079.55
572.41	3899.33
572.57	3929.76
572.74	3999.98
572.90	3925.08
573.06	3911.04
573.22	4060.83
573.38	3981.25
573.55	4051.47
573.71	4074.87
573.87	3992.95
574.03	3833.80
574.20	3880.61
574.36	3824.44
574.52	3829.12
574.68	3850.18
574.84	3922.74
575.01	3801.03
575.17	3667.62
575.33	3824.44
575.49	3770.60
575.65	3857.20
575.82	3899.33
575.98	3756.56
576.14	3726.13
576.30	3805.71
576.46	4002.32
576.62	3896.99
576.79	3953.16
576.95	4117.00
577.11	3861.88
577.27	3864.22
577.43	3899.33
577.59	3789.33
577.75	3758.90
577.92	3700.39
578.08	3723.79
578.24	3749.54
578.40	3728.47
578.56	3967.21
578.72	4051.47
578.88	3978.91
579.04	3829.12
579.21	3728.47
579.37	3878.27
579.53	3779.97
579.69	3985.93
579.85	3946.14
580.01	3847.84
580.17	3836.14
580.33	3758.90
580.49	3808.05
580.65	3932.10
580.82	3817.41
580.98	3831.46
581.14	3896.99
581.30	3826.78
581.46	3845.50
581.62	3922.74
581.78	3775.28
581.94	3929.76
582.10	3887.63
582.26	3831.46
582.42	3817.41
582.58	4088.92
582.74	4032.74
582.90	3929.76
583.06	3768.26
583.22	3861.88
583.38	3974.23
583.54	3906.35
583.70	4070.19
583.86	3929.76
584.02	3901.67
584.18	3831.46
584.34	3915.72
584.50	3992.95
584.66	3915.72
584.82	3721.45
584.98	3850.18
585.14	3709.75
585.30	3555.27
585.46	3744.86
585.62	3655.92
585.78	3669.96
585.94	3709.75
586.10	3899.33
586.26	3723.79
586.42	3880.61
586.58	3772.94
586.74	3714.43
586.90	3674.64
587.06	3599.74
587.22	3616.13
587.38	3590.38
587.54	3534.21
587.70	3452.29
587.86	3424.20
588.02	3220.58
588.18	3206.53
588.34	3021.63
588.49	2841.41
588.65	2801.62
588.81	2663.53
588.97	2745.45
589.13	2710.34
589.29	2738.43
589.45	2562.89
589.61	2672.89
589.77	2846.09
589.93	2937.37
590.08	2993.55
590.24	3077.80
590.40	3108.23
590.56	3166.74
590.72	3098.87
590.88	3267.39
591.04	3108.23
591.20	3101.21
591.35	3049.72
591.51	3007.59
591.67	3014.61
591.83	2932.69
591.99	2972.48
592.15	3045.04
592.31	3068.44
592.46	3215.90
592.62	3183.13
592.78	3286.11
592.94	3192.49
593.10	3370.37
593.26	3276.75
593.41	3311.86
593.57	3307.18
593.73	3169.09
593.89	3080.14
594.05	2825.03
594.20	2829.71
594.36	2909.29
594.52	2827.37
594.68	2780.56
594.84	3028.65
594.99	3152.70
595.15	3251.00
595.31	3225.26
595.47	3035.67
595.62	3084.83
595.78	3190.15
595.94	3241.64
596.10	3302.50
596.25	3211.22
596.41	3014.61
596.57	3124.62
596.73	3038.02
596.88	3035.67
597.04	3197.17
597.20	3007.59
597.36	3110.57
597.51	3143.34
597.67	3187.81
597.83	3192.49
597.99	3169.09
