SpectraSuite Data File
++++++++++++++++++++++++++++++++++++
Date: Fri Oct 04 11:44:26 GMT-05:00 2013
User: price-jones
Dark Spectrum Present: No
Reference Spectrum Present: No
Number of Sampled Component Spectra: 1
Spectrometers: USB2+H05261
Integration Time (usec): 100000 (USB2+H05261)
Spectra Averaged: 1 (USB2+H05261)
Boxcar Smoothing: 0 (USB2+H05261)
Correct for Electrical Dark: No (USB2+H05261)
Strobe/Lamp Enabled: No (USB2+H05261)
Correct for Detector Non-linearity: No (USB2+H05261)
Correct for Stray Light: No (USB2+H05261)
Number of Pixels in Processed Spectrum: 2048
>>>>>Begin Processed Spectral Data<<<<<
365.73	32.77
365.92	32.77
366.12	32.77
366.32	0.00
366.52	0.00
366.72	0.00
366.91	0.00
367.11	0.00
367.31	0.00
367.51	0.00
367.70	0.00
367.90	0.00
368.10	0.00
368.30	0.00
368.49	0.00
368.69	0.00
368.89	0.00
369.09	0.00
369.28	0.00
369.48	0.00
369.68	0.00
369.87	0.00
370.07	4.68
370.27	53.83
370.47	124.05
370.66	318.31
370.86	325.33
371.06	390.87
371.25	493.85
371.45	409.59
371.65	290.23
371.84	322.99
372.04	346.40
372.24	447.04
372.44	402.57
372.63	425.98
372.83	414.27
373.03	470.45
373.22	327.68
373.42	353.42
373.62	414.27
373.81	416.62
374.01	477.47
374.21	358.10
374.40	388.53
374.60	411.93
374.79	428.32
374.99	479.81
375.19	482.15
375.38	535.98
375.58	463.43
375.78	475.13
375.97	512.58
376.17	505.56
376.37	465.77
376.56	493.85
376.76	486.83
376.95	519.60
377.15	540.66
377.35	561.73
377.54	660.03
377.74	589.82
377.93	608.54
378.13	695.14
378.33	580.45
378.52	627.26
378.72	587.47
378.91	592.16
379.11	531.30
379.31	521.94
379.50	418.96
379.70	519.60
379.89	624.92
380.09	564.07
380.28	566.41
380.48	634.29
380.68	610.88
380.87	589.82
381.07	479.81
381.26	498.53
381.46	489.17
381.65	510.24
381.85	442.36
382.04	435.34
382.24	493.85
382.43	451.72
382.63	447.04
382.83	358.10
383.02	440.02
383.22	477.47
383.41	489.17
383.61	440.02
383.80	437.68
384.00	557.05
384.19	601.52
384.39	571.09
384.58	578.11
384.78	617.90
384.97	587.47
385.17	575.77
385.36	580.45
385.56	468.11
385.75	557.05
385.95	571.09
386.14	695.14
386.34	587.47
386.53	629.60
386.72	524.28
386.92	594.50
387.11	596.84
387.31	629.60
387.50	500.87
387.70	547.69
387.89	493.85
388.09	524.28
388.28	575.77
388.48	571.09
388.67	676.41
388.86	645.99
389.06	716.20
389.25	741.95
389.45	788.76
389.64	741.95
389.84	809.83
390.03	798.12
390.22	755.99
390.42	760.67
390.61	763.01
390.81	788.76
391.00	823.87
391.19	915.15
391.39	828.55
391.58	898.77
391.78	765.36
391.97	720.88
392.16	685.78
392.36	678.76
392.55	519.60
392.75	484.49
392.94	369.80
393.13	362.78
393.33	414.27
393.52	503.22
393.71	664.71
393.91	662.37
394.10	748.97
394.29	767.70
394.49	816.85
394.68	898.77
394.88	919.83
395.07	950.26
395.26	889.40
395.46	823.87
395.65	880.04
395.84	800.46
396.04	807.48
396.23	550.03
396.42	528.96
396.62	512.58
396.81	578.11
397.00	636.63
397.19	826.21
397.39	908.13
397.58	1027.50
397.77	1050.90
397.97	1064.94
398.16	1088.35
398.35	1102.39
398.55	1249.85
398.74	1142.18
398.93	1256.87
399.12	1317.72
399.32	1149.20
399.51	1111.75
399.70	1322.40
399.90	1217.08
400.09	1212.40
400.28	1277.93
400.47	1315.38
400.67	1364.53
400.86	1373.89
401.05	1291.98
401.24	1376.24
401.44	1327.08
401.63	1324.74
401.82	1341.13
402.01	1310.70
402.21	1371.55
402.40	1329.42
402.59	1376.24
402.78	1256.87
402.97	1247.51
403.17	1214.74
403.36	1299.00
403.55	1439.43
403.74	1413.68
403.93	1373.89
404.13	1338.79
404.32	1348.15
404.51	1341.13
404.70	1334.11
404.89	1336.45
405.09	1334.11
405.28	1366.87
405.47	1343.47
405.66	1364.53
405.85	1317.72
406.05	1254.53
406.24	1282.61
406.43	1376.24
406.62	1324.74
406.81	1401.98
407.00	1313.04
407.20	1366.87
407.39	1287.29
407.58	1378.58
407.77	1404.32
407.96	1474.54
408.15	1537.73
408.34	1406.66
408.54	1509.65
408.73	1631.35
408.92	1554.12
409.11	1495.60
409.30	1437.09
409.49	1387.94
409.68	1322.40
409.87	1247.51
410.07	1331.76
410.26	1310.70
410.45	1504.96
410.64	1458.15
410.83	1462.83
411.02	1572.84
411.21	1605.61
411.40	1598.59
411.59	1612.63
411.78	1614.97
411.98	1596.25
412.17	1636.03
412.36	1568.16
412.55	1596.25
412.74	1575.18
412.93	1526.03
413.12	1495.60
413.31	1638.38
413.50	1631.35
413.69	1586.88
413.88	1643.06
414.07	1727.32
414.26	1706.25
414.45	1661.78
414.64	1661.78
414.83	1717.95
415.02	1664.12
415.22	1675.82
415.41	1809.23
415.60	1657.10
415.79	1811.57
415.98	1720.29
416.17	1776.47
416.36	1755.40
416.55	1748.38
416.74	1696.89
416.93	1696.89
417.12	1624.33
417.31	1647.74
417.50	1689.87
417.69	1783.49
417.88	1776.47
418.07	1774.13
418.26	1659.44
418.45	1624.33
418.64	1781.15
418.83	1797.53
419.02	1764.76
419.21	1774.13
419.39	1710.93
419.58	1643.06
419.77	1629.01
419.96	1654.76
420.15	1771.79
420.34	1856.04
420.53	1975.41
420.72	1982.43
420.91	1853.70
421.10	1949.67
421.29	1898.17
421.48	1832.64
421.67	2003.50
421.86	1825.62
422.05	1724.97
422.24	1633.69
422.43	1666.46
422.61	1687.53
422.80	1729.66
422.99	1827.96
423.18	1790.51
423.37	1858.39
423.56	1816.26
423.75	1771.79
423.94	1753.06
424.13	1621.99
424.32	1636.03
424.50	1778.81
424.69	1668.80
424.88	1701.57
425.07	1696.89
425.26	1750.72
425.45	1682.85
425.64	1652.42
425.83	1696.89
426.01	1774.13
426.20	1783.49
426.39	1750.72
426.58	1757.74
426.77	1664.12
426.96	1652.42
427.15	1624.33
427.33	1586.88
427.52	1694.55
427.71	1729.66
427.90	1792.85
428.09	1668.80
428.28	1703.91
428.46	1600.93
428.65	1598.59
428.84	1633.69
429.03	1647.74
429.22	1584.54
429.40	1533.05
429.59	1416.02
429.78	1299.00
429.97	1306.02
430.16	1198.35
430.34	1254.53
430.53	1399.64
430.72	1322.40
430.91	1425.39
431.10	1696.89
431.28	1785.83
431.47	1949.67
431.66	2005.84
431.85	1844.34
432.03	1799.87
432.22	1699.23
432.41	1722.63
432.60	1991.80
432.79	1937.96
432.97	2010.52
433.16	1952.01
433.35	1799.87
433.54	1643.06
433.72	1657.10
433.91	1603.27
434.10	1736.68
434.28	1905.20
434.47	1996.48
434.66	1940.30
434.85	1884.13
435.03	2024.56
435.22	2120.53
435.41	2293.72
435.59	2389.69
435.78	2260.96
435.97	2209.47
436.16	2146.27
436.34	2043.29
436.53	2132.23
436.72	2024.56
436.90	2022.22
437.09	1984.77
437.28	1921.58
437.46	2057.33
437.65	1998.82
437.84	1940.30
438.02	1732.00
438.21	1675.82
438.40	1806.89
438.58	1919.24
438.77	1949.67
438.96	1989.46
439.14	1949.67
439.33	2155.63
439.52	2139.25
439.70	2108.82
439.89	2092.44
440.08	1916.90
440.26	2033.93
440.45	2160.31
440.63	2167.34
440.82	2265.64
441.01	2333.51
441.19	2298.41
441.38	2258.62
441.57	2333.51
441.75	2392.03
441.94	2333.51
442.12	2312.45
442.31	2436.50
442.50	2368.62
442.68	2282.02
442.87	2333.51
443.05	2375.64
443.24	2342.88
443.43	2450.54
443.61	2401.39
443.80	2635.44
443.98	2359.26
444.17	2232.87
444.35	2410.75
444.54	2413.09
444.73	2485.65
444.91	2399.05
445.10	2310.11
445.28	2094.78
445.47	2012.86
445.65	2136.91
445.84	2275.00
446.02	2328.83
446.21	2319.47
446.39	2303.09
446.58	2361.60
446.77	2431.82
446.95	2438.84
447.14	2420.11
447.32	2490.33
447.51	2495.01
447.69	2370.96
447.88	2345.22
448.06	2480.97
448.25	2469.27
448.43	2537.14
448.62	2380.32
448.80	2377.98
448.99	2403.73
449.17	2445.86
449.36	2469.27
449.54	2513.74
449.73	2546.50
449.91	2541.82
450.10	2588.63
450.28	2780.56
450.46	2794.60
450.65	2750.13
450.83	2684.59
451.02	2553.52
451.20	2572.25
451.39	2576.93
451.57	2560.55
451.76	2499.69
451.94	2649.49
452.13	2558.21
452.31	2413.09
452.49	2335.85
452.68	2188.40
452.86	2298.41
453.05	2483.31
453.23	2307.77
453.42	2462.24
453.60	2541.82
453.78	2546.50
453.97	2539.48
454.15	2605.02
454.34	2509.05
454.52	2452.88
454.70	2471.61
454.89	2483.31
455.07	2399.05
455.26	2583.95
455.44	2651.83
455.62	2626.08
455.81	2609.70
455.99	2637.78
456.17	2553.52
456.36	2703.32
456.54	2705.66
456.73	2654.17
456.91	2640.12
457.09	2579.27
457.28	2691.62
457.46	2745.45
457.64	2719.70
457.83	2555.86
458.01	2504.37
458.19	2551.18
458.38	2537.14
458.56	2576.93
458.74	2731.41
458.93	2600.34
459.11	2595.65
459.29	2506.71
459.48	2579.27
459.66	2602.68
459.84	2597.99
460.03	2686.94
460.21	2637.78
460.39	2682.25
460.57	2567.57
460.76	2810.98
460.94	2724.38
461.12	2705.66
461.31	2686.94
461.49	2806.30
461.67	2567.57
461.85	2813.32
462.04	2867.16
462.22	3260.37
462.40	2794.60
462.59	2761.83
462.77	2768.85
462.95	2757.15
463.13	2768.85
463.32	2696.30
463.50	2698.64
463.68	2771.19
463.86	2764.17
464.05	2682.25
464.23	2637.78
464.41	2562.89
464.59	2504.37
464.78	2672.89
464.96	2668.21
465.14	2644.81
465.32	2715.02
465.50	2740.77
465.69	2757.15
465.87	2771.19
466.05	2696.30
466.23	2654.17
466.41	2628.42
466.60	2651.83
466.78	2595.65
466.96	2637.78
467.14	2675.23
467.32	2658.85
467.51	2623.74
467.69	2565.23
467.87	2733.75
468.05	2703.32
468.23	2693.96
468.41	2658.85
468.60	2651.83
468.78	2717.36
468.96	2738.43
469.14	2663.53
469.32	2782.90
469.50	2597.99
469.69	2621.40
469.87	2586.29
470.05	2567.57
470.23	2576.93
470.41	2415.43
470.59	2668.21
470.77	2654.17
470.95	2630.76
471.14	2782.90
471.32	2757.15
471.50	2953.76
471.68	2731.41
471.86	2834.39
472.04	2963.12
472.22	2988.86
472.40	2869.50
472.58	2712.68
472.77	2698.64
472.95	2733.75
473.13	2864.82
473.31	2860.13
473.49	2623.74
473.67	2789.92
473.85	2825.03
474.03	2794.60
474.21	2920.99
474.39	2974.82
474.57	3075.46
474.75	2935.03
474.93	2913.97
475.12	2848.43
475.30	2939.71
475.48	2932.69
475.66	3016.95
475.84	2928.01
476.02	2885.88
476.20	2860.13
476.38	2885.88
476.56	2862.48
476.74	3033.33
476.92	2991.20
477.10	2944.39
477.28	3152.70
477.46	3056.74
477.64	3141.00
477.82	3080.14
478.00	3309.52
478.18	3152.70
478.36	3173.77
478.54	3157.38
478.72	3166.74
478.90	3133.98
479.08	3361.01
479.26	3382.07
479.44	3351.65
479.62	3353.99
479.80	3328.24
479.98	3487.40
480.16	3346.97
480.34	3318.88
480.52	3295.47
480.70	3482.72
480.88	3283.77
481.06	3555.27
481.24	3552.93
481.41	3662.94
481.59	3655.92
481.77	3585.70
481.95	3478.04
482.13	3599.74
482.31	3606.77
482.49	3698.05
482.67	3604.42
482.85	3688.68
483.03	3669.96
483.21	3798.69
483.39	3754.22
483.57	3571.66
483.74	3566.98
483.92	3623.15
484.10	3623.15
484.28	3651.24
484.46	3791.67
484.64	3911.04
484.82	3651.24
485.00	3658.26
485.18	3641.87
485.35	3588.04
485.53	3258.03
485.71	3098.87
485.89	2937.37
486.07	3073.12
486.25	3447.61
486.43	3414.84
486.61	3552.93
486.78	3508.46
486.96	3637.19
487.14	3730.81
487.32	3808.05
487.50	3906.35
487.68	4049.13
487.85	3974.23
488.03	4187.22
488.21	4037.42
488.39	3960.19
488.57	3878.27
488.75	3777.62
488.92	4259.78
489.10	4138.07
489.28	4414.25
489.46	4493.83
489.64	4526.60
489.81	4503.19
489.99	4461.06
490.17	4575.75
490.35	4580.43
490.53	4325.31
490.70	4407.23
490.88	4358.08
491.06	4416.59
491.24	4486.81
491.41	4461.06
491.59	4266.80
491.77	4007.00
491.95	4142.75
492.13	4259.78
492.30	4421.27
492.48	4629.58
492.66	4711.50
492.84	4671.71
493.01	4744.27
493.19	4709.16
493.37	4706.82
493.54	4449.36
493.72	4613.20
493.90	4765.33
494.08	4837.89
494.25	4835.55
494.43	4980.66
494.61	5032.15
494.79	4940.87
494.96	4936.19
495.14	4877.68
495.32	4765.33
495.49	4678.73
495.67	4720.86
495.85	4931.51
496.02	5102.37
496.20	5107.05
496.38	4957.25
496.55	4954.91
496.73	5036.83
496.91	5020.45
497.09	5210.03
497.26	5188.97
497.44	5195.99
497.62	4905.76
497.79	4985.34
497.97	4830.87
498.14	4669.37
498.32	4755.97
498.50	5039.17
498.67	5186.63
498.85	5071.94
499.03	5095.35
499.20	5284.93
499.38	5270.89
499.56	5284.93
499.73	5011.09
499.91	4959.60
500.08	4961.94
500.26	4847.25
500.44	4835.55
500.61	5008.75
500.79	5081.30
500.97	5006.41
501.14	4760.65
501.32	4868.31
501.49	4755.97
501.67	4847.25
501.84	4971.30
502.02	4912.78
502.20	4957.25
502.37	5076.62
502.55	4924.49
502.72	5181.95
502.90	5123.43
503.07	5151.52
503.25	4980.66
503.43	4765.33
503.60	4664.69
503.78	4498.51
503.95	4622.56
504.13	4868.31
504.30	5076.62
504.48	5210.03
504.65	5057.90
504.83	5043.85
505.01	5184.29
505.18	5305.99
505.36	5303.65
505.53	5217.05
505.71	5310.68
505.88	5341.10
506.06	5313.02
506.23	5186.63
506.41	5123.43
506.58	5228.76
506.76	5130.45
506.93	5132.79
507.11	5128.11
507.28	5184.29
507.46	5146.84
507.63	5001.72
507.81	4973.64
507.98	5032.15
508.16	5097.69
508.33	5128.11
508.50	5139.82
508.68	5453.45
508.85	5549.41
509.03	5275.57
509.20	5423.02
509.38	5359.83
509.55	5301.31
509.73	5270.89
509.90	5451.11
510.08	5359.83
510.25	5474.51
510.42	5191.31
510.60	5313.02
510.77	5418.34
510.95	5444.09
511.12	5500.26
511.30	5570.48
511.47	5701.54
511.64	5654.73
511.82	5680.48
511.99	5455.79
512.17	5425.36
512.34	5207.69
512.51	5500.26
512.69	5350.46
512.86	5378.55
513.04	5458.13
513.21	5331.74
513.38	5420.68
513.56	5268.55
513.73	5177.26
513.90	5181.95
514.08	5301.31
514.25	5245.14
514.43	5376.21
514.60	5359.83
514.77	5472.17
514.95	5420.68
515.12	5296.63
515.29	5446.43
515.47	5596.22
515.64	5701.54
515.81	5643.03
515.99	5423.02
516.16	5317.70
516.33	4926.83
516.51	4578.09
516.68	4524.26
516.85	4472.76
517.03	4372.12
517.20	4730.22
517.37	5095.35
517.54	5350.46
517.72	5493.24
517.89	4936.19
518.06	4559.36
518.24	4545.32
518.41	4983.00
518.58	5137.48
518.75	5249.82
518.93	5317.70
519.10	5256.84
519.27	5263.86
519.45	5280.25
519.62	5434.72
519.79	5425.36
519.96	5518.98
520.14	5479.19
520.31	5343.44
520.48	5301.31
520.65	5352.81
520.83	5483.88
521.00	5654.73
521.17	5734.31
521.34	5495.58
521.52	5416.00
521.69	5584.52
521.86	5713.25
522.03	5804.53
522.20	5561.11
522.38	5327.06
522.55	5329.40
522.72	5350.46
522.89	5535.37
523.07	5371.53
523.24	5348.12
523.41	5509.62
523.58	5654.73
523.75	5820.91
523.92	5757.72
524.10	5898.15
524.27	5675.80
524.44	5715.59
524.61	5753.04
524.78	5619.63
524.96	5638.35
525.13	5558.77
525.30	5626.65
525.47	5724.95
525.64	5905.17
525.81	5636.01
525.98	5448.77
526.16	5043.85
526.33	4999.38
526.50	4978.32
526.67	4863.63
526.84	4964.28
527.01	5067.26
527.18	5107.05
527.36	5245.14
527.53	5493.24
527.70	5617.29
527.87	5488.56
528.04	5467.49
528.21	5518.98
528.38	5734.31
528.55	5863.04
528.72	5874.74
528.89	6108.80
529.07	6069.01
529.24	5811.55
529.41	5556.43
529.58	5401.96
529.75	5526.00
529.92	5509.62
530.09	5720.27
530.26	5638.35
530.43	5750.70
530.60	5809.21
530.77	5949.64
530.94	6019.86
531.11	5846.66
531.28	5713.25
531.46	5570.48
531.63	5778.78
531.80	5832.62
531.97	5860.70
532.14	5673.46
532.31	5341.10
532.48	5125.77
532.65	5198.33
532.82	5416.00
532.99	5621.97
533.16	5423.02
533.33	5654.73
533.50	5673.46
533.67	5586.86
533.84	5680.48
534.01	5465.15
534.18	5565.79
534.35	5645.37
534.52	5687.50
534.69	5664.10
534.86	5582.18
535.03	5586.86
535.20	5839.64
535.37	5856.02
535.54	5806.87
535.71	5856.02
535.88	5806.87
536.05	5734.31
536.22	5729.63
536.38	5558.77
536.55	5563.45
536.72	5357.49
536.89	5247.48
537.06	5612.60
537.23	5568.13
537.40	5722.61
537.57	5680.48
537.74	5731.97
537.91	5689.84
538.08	5755.38
538.25	5795.17
538.42	5692.18
538.59	5671.12
538.75	5549.41
538.92	5500.26
539.09	5593.88
539.26	5416.00
539.43	5479.19
539.60	5420.68
539.77	5678.14
539.94	5502.60
540.11	5462.81
540.28	5301.31
540.44	5240.46
540.61	5320.04
540.78	5474.51
540.95	5577.50
541.12	5624.31
541.29	5591.54
541.46	5731.97
541.62	5792.83
541.79	5778.78
541.96	5682.82
542.13	5628.99
542.30	5778.78
542.47	5654.73
542.63	5872.40
542.80	5668.78
542.97	5785.80
543.14	5628.99
543.31	5535.37
543.48	5685.16
543.64	5937.94
543.81	6024.54
543.98	5914.53
544.15	5696.86
544.32	5673.46
544.48	5685.16
544.65	5729.63
544.82	5851.34
544.99	5624.31
545.16	5628.99
545.32	5612.60
545.49	6139.23
545.66	6401.37
545.83	6562.86
546.00	6258.59
546.16	6019.86
546.33	5811.55
546.50	5624.31
546.67	5865.38
546.83	5764.74
547.00	5727.29
547.17	5589.20
547.34	5291.95
547.50	5483.88
547.67	5526.00
547.84	5528.35
548.00	5645.37
548.17	5696.86
548.34	5504.94
548.51	5633.67
548.67	5799.85
548.84	5713.25
549.01	5556.43
549.18	5603.24
549.34	5603.24
549.51	5514.30
549.68	5638.35
549.84	5654.73
550.01	5621.97
550.18	5596.22
550.34	5628.99
550.51	5582.18
550.68	5619.63
550.84	5420.68
551.01	5462.81
551.18	5352.81
551.34	5397.28
551.51	5558.77
551.68	5584.52
551.84	5575.16
552.01	5619.63
552.18	5572.82
552.34	5514.30
552.51	5273.23
552.68	5231.10
552.84	5385.57
553.01	5413.66
553.18	5502.60
553.34	5500.26
553.51	5561.11
553.67	5481.53
553.84	5509.62
554.01	5430.04
554.17	5554.09
554.34	5504.94
554.51	5423.02
554.67	5523.66
554.84	5448.77
555.00	5448.77
555.17	5268.55
555.33	5399.62
555.50	5416.00
555.67	5345.78
555.83	5359.83
556.00	5401.96
556.16	5378.55
556.33	5170.24
556.50	5291.95
556.66	5275.57
556.83	5125.77
556.99	5275.57
557.16	5039.17
557.32	5177.26
557.49	5212.37
557.65	5217.05
557.82	5266.21
557.98	5301.31
558.15	5064.92
558.32	5125.77
558.48	4793.42
558.65	4889.38
558.81	4908.10
558.98	4973.64
559.14	5071.94
559.31	5001.72
559.47	5074.28
559.64	5046.20
559.80	4992.36
559.97	5100.03
560.13	5039.17
560.30	5160.88
560.46	5322.38
560.63	5226.42
560.79	5221.74
560.96	5406.64
561.12	5219.39
561.29	4816.82
561.45	5083.64
561.61	5181.95
561.78	5165.56
561.94	4919.81
562.11	5006.41
562.27	5013.43
562.44	5004.07
562.60	5195.99
562.77	5142.16
562.93	5291.95
563.10	5158.54
563.26	5268.55
563.42	5114.07
563.59	4985.34
563.75	4985.34
563.92	4978.32
564.08	4919.81
564.24	5109.39
564.41	5062.58
564.57	4992.36
564.74	5046.20
564.90	5165.56
565.07	5055.56
565.23	4933.85
565.39	4786.40
565.56	4706.82
565.72	4706.82
565.88	4788.74
566.05	4765.33
566.21	4798.10
566.38	4940.87
566.54	4975.98
566.70	4805.12
566.87	4964.28
567.03	4961.94
567.19	4968.96
567.36	4868.31
567.52	4720.86
567.68	4894.06
567.85	4798.10
568.01	4608.51
568.17	4568.73
568.34	4575.75
568.50	4535.96
568.66	4444.68
568.83	4554.68
568.99	4631.92
569.15	4667.03
569.32	4674.05
569.48	4517.23
569.64	4652.98
569.81	4517.23
569.97	4547.66
570.13	4564.04
570.30	4636.60
570.46	4594.47
570.62	4400.21
570.78	4339.35
570.95	4390.84
571.11	4472.76
571.27	4674.05
571.43	4491.49
571.60	4526.60
571.76	4484.47
571.92	4521.92
572.09	4732.56
572.25	4587.45
572.41	4652.98
572.57	4594.47
572.74	4545.32
572.90	4648.30
573.06	4465.74
573.22	4664.69
573.38	4552.34
573.55	4734.90
573.71	4587.45
573.87	4491.49
574.03	4451.70
574.20	4461.06
574.36	4533.62
574.52	4533.62
574.68	4514.89
574.84	4580.43
575.01	4327.65
575.17	4411.91
575.33	4444.68
575.49	4510.21
575.65	4463.40
575.82	4409.57
575.98	4454.04
576.14	4461.06
576.30	4449.36
576.46	4552.34
576.62	4594.47
576.79	4571.07
576.95	4531.28
577.11	4545.32
577.27	4421.27
577.43	4414.25
577.59	4498.51
577.75	4348.72
577.92	4423.61
578.08	4351.06
578.24	4273.82
578.40	4346.37
578.56	4486.81
578.72	4629.58
578.88	4580.43
579.04	4512.55
579.21	4594.47
579.37	4491.49
579.53	4489.15
579.69	4671.71
579.85	4589.79
580.01	4388.50
580.17	4589.79
580.33	4475.10
580.49	4395.53
580.65	4496.17
580.82	4472.76
580.98	4479.79
581.14	4491.49
581.30	4498.51
581.46	4449.36
581.62	4505.53
581.78	4430.63
581.94	4533.62
582.10	4369.78
582.26	4585.11
582.42	4608.51
582.58	4645.96
582.74	4500.85
582.90	4580.43
583.06	4638.94
583.22	4610.86
583.38	4755.97
583.54	4496.17
583.70	4610.86
583.86	4477.44
584.02	4620.22
584.18	4554.68
584.34	4472.76
584.50	4449.36
584.66	4540.64
584.82	4322.97
584.98	4456.38
585.14	4376.80
585.30	4304.25
585.46	4227.01
585.62	4262.12
585.78	4156.79
585.94	4341.69
586.10	4227.01
586.26	4205.94
586.42	4318.29
586.58	4374.46
586.74	4327.65
586.90	4353.40
587.06	4276.16
587.22	4287.86
587.38	4063.17
587.54	4163.81
587.70	4035.08
587.86	3737.84
588.02	3850.18
588.18	3768.26
588.34	3529.53
588.49	3304.84
588.65	3176.11
588.81	3033.33
588.97	3236.96
589.13	2998.23
589.29	3073.12
589.45	3119.93
589.61	3169.09
589.77	3293.13
589.93	3356.33
590.08	3424.20
590.24	3475.70
590.40	3548.25
590.56	3611.45
590.72	3616.13
590.88	3513.14
591.04	3536.55
591.20	3574.00
591.35	3548.25
591.51	3616.13
591.67	3445.27
591.83	3379.73
591.99	3353.99
592.15	3590.38
592.31	3618.47
592.46	3815.07
592.62	3857.20
592.78	3751.88
592.94	3749.54
593.10	3866.56
593.26	3878.27
593.41	3756.56
593.57	3801.03
593.73	3730.81
593.89	3618.47
594.05	3463.99
594.20	3473.36
594.36	3311.86
594.52	3258.03
594.68	3318.88
594.84	3492.08
594.99	3613.79
595.15	3637.19
595.31	3698.05
595.47	3726.13
595.62	3534.21
595.78	3686.34
595.94	3777.62
596.10	3927.42
596.25	3775.28
596.41	3571.66
596.57	3672.30
596.73	3660.60
596.88	3721.45
597.04	3747.20
597.20	3775.28
597.36	3719.11
597.51	3534.21
597.67	3634.85
597.83	3791.67
