SpectraSuite Data File
++++++++++++++++++++++++++++++++++++
Date: Fri Oct 04 11:44:16 GMT-05:00 2013
User: price-jones
Dark Spectrum Present: No
Reference Spectrum Present: No
Number of Sampled Component Spectra: 1
Spectrometers: USB2+H05261
Integration Time (usec): 100000 (USB2+H05261)
Spectra Averaged: 1 (USB2+H05261)
Boxcar Smoothing: 0 (USB2+H05261)
Correct for Electrical Dark: No (USB2+H05261)
Strobe/Lamp Enabled: No (USB2+H05261)
Correct for Detector Non-linearity: No (USB2+H05261)
Correct for Stray Light: No (USB2+H05261)
Number of Pixels in Processed Spectrum: 2048
>>>>>Begin Processed Spectral Data<<<<<
365.73	91.28
365.92	91.28
366.12	91.28
366.32	0.00
366.52	0.00
366.72	0.00
366.91	0.00
367.11	0.00
367.31	0.00
367.51	0.00
367.70	0.00
367.90	0.00
368.10	0.00
368.30	0.00
368.49	0.00
368.69	0.00
368.89	0.00
369.09	0.00
369.28	0.00
369.48	0.00
369.68	0.00
369.87	0.00
370.07	56.17
370.27	0.00
370.47	128.73
370.66	463.43
370.86	444.70
371.06	582.79
371.25	606.20
371.45	477.47
371.65	507.90
371.84	458.74
372.04	425.98
372.24	566.41
372.44	519.60
372.63	648.33
372.83	580.45
373.03	468.11
373.22	442.36
373.42	440.02
373.62	559.39
373.81	589.82
374.01	585.13
374.21	468.11
374.40	505.56
374.60	517.26
374.79	592.16
374.99	669.39
375.19	704.50
375.38	690.46
375.58	648.33
375.78	746.63
375.97	617.90
376.17	816.85
376.37	678.76
376.56	725.57
376.76	748.97
376.95	744.29
377.15	887.06
377.35	840.25
377.54	821.53
377.74	814.51
377.93	868.34
378.13	877.70
378.33	880.04
378.52	767.70
378.72	746.63
378.91	777.06
379.11	676.41
379.31	737.27
379.50	631.94
379.70	725.57
379.89	777.06
380.09	807.48
380.28	833.23
380.48	781.74
380.68	725.57
380.87	739.61
381.07	786.42
381.26	720.88
381.46	727.91
381.65	730.25
381.85	624.92
382.04	608.54
382.24	650.67
382.43	526.62
382.63	535.98
382.83	573.43
383.02	620.24
383.22	603.86
383.41	503.22
383.61	624.92
383.80	718.54
384.00	734.93
384.19	777.06
384.39	919.83
384.58	791.10
384.78	863.66
384.97	809.83
385.17	784.08
385.36	709.18
385.56	772.38
385.75	667.05
385.95	849.61
386.14	877.70
386.34	880.04
386.53	802.80
386.72	819.19
386.92	739.61
387.11	802.80
387.31	901.11
387.50	809.83
387.70	828.55
387.89	887.06
388.09	786.42
388.28	777.06
388.48	795.78
388.67	798.12
388.86	945.58
389.06	966.64
389.25	1107.07
389.45	1043.88
389.64	1011.11
389.84	1102.39
390.03	968.98
390.22	961.96
390.42	1114.10
390.61	1078.99
390.81	1167.93
391.00	1186.65
391.19	1090.69
391.39	1172.61
391.58	1097.71
391.78	997.07
391.97	1116.44
392.16	1032.18
392.36	854.30
392.55	823.87
392.75	669.39
392.94	554.71
393.13	624.92
393.33	561.73
393.52	655.35
393.71	894.08
393.91	938.55
394.10	992.39
394.29	1050.90
394.49	1170.27
394.68	1254.53
394.88	1284.95
395.07	1345.81
395.26	1254.53
395.46	1306.02
395.65	1193.67
395.84	1081.33
396.04	917.49
396.23	784.08
396.42	697.48
396.62	695.14
396.81	765.36
397.00	929.19
397.19	1130.48
397.39	1210.06
397.58	1306.02
397.77	1530.71
397.97	1547.09
398.16	1465.18
398.35	1540.07
398.55	1612.63
398.74	1753.06
398.93	1654.76
399.12	1568.16
399.32	1575.18
399.51	1631.35
399.70	1771.79
399.90	1694.55
400.09	1717.95
400.28	1776.47
400.47	1717.95
400.67	1837.32
400.86	1942.64
401.05	1827.96
401.24	1842.00
401.44	2015.20
401.63	1853.70
401.82	1874.77
402.01	1963.71
402.21	1888.81
402.40	1916.90
402.59	1879.45
402.78	1818.60
402.97	1617.31
403.17	1715.61
403.36	1874.77
403.55	2043.29
403.74	2010.52
403.93	1984.77
404.13	1926.26
404.32	1954.35
404.51	1907.54
404.70	2047.97
404.89	1989.46
405.09	2005.84
405.28	1926.26
405.47	1888.81
405.66	1856.04
405.85	1753.06
406.05	1748.38
406.24	1764.76
406.43	1839.66
406.62	2017.54
406.81	2047.97
407.00	1970.73
407.20	1746.04
407.39	1923.92
407.58	1966.05
407.77	2010.52
407.96	1970.73
408.15	2076.06
408.34	2104.14
408.54	2101.80
408.73	2078.40
408.92	2097.12
409.11	2200.10
409.30	2064.35
409.49	1893.49
409.68	1741.36
409.87	1748.38
410.07	1863.07
410.26	1961.37
410.45	2115.84
410.64	2134.57
410.83	2256.28
411.02	2225.85
411.21	2480.97
411.40	2293.72
411.59	2218.83
411.78	2225.85
411.98	2221.17
412.17	2179.04
412.36	2209.47
412.55	2249.25
412.74	2235.21
412.93	2331.17
413.12	2066.69
413.31	2286.70
413.50	2249.25
413.69	2331.17
413.88	2495.01
414.07	2251.60
414.26	2275.00
414.45	2244.57
414.64	2363.94
414.83	2258.62
415.02	2303.09
415.22	2347.56
415.41	2420.11
415.60	2340.54
415.79	2520.76
415.98	2576.93
416.17	2614.38
416.36	2539.48
416.55	2502.03
416.74	2506.71
416.93	2303.09
417.12	2338.20
417.31	2441.18
417.50	2396.71
417.69	2562.89
417.88	2403.73
418.07	2579.27
418.26	2415.43
418.45	2352.24
418.64	2532.46
418.83	2452.88
419.02	2569.91
419.21	2490.33
419.39	2438.84
419.58	2431.82
419.77	2387.35
419.96	2389.69
420.15	2670.55
420.34	2583.95
420.53	2588.63
420.72	2747.79
420.91	2693.96
421.10	2614.38
421.29	2654.17
421.48	2614.38
421.67	2644.81
421.86	2565.23
422.05	2403.73
422.24	2342.88
422.43	2183.72
422.61	2361.60
422.80	2583.95
422.99	2635.44
423.18	2497.35
423.37	2590.97
423.56	2541.82
423.75	2546.50
423.94	2450.54
424.13	2389.69
424.32	2363.94
424.50	2607.36
424.69	2399.05
424.88	2429.48
425.07	2291.38
425.26	2392.03
425.45	2523.10
425.64	2342.88
425.83	2387.35
426.01	2459.90
426.20	2445.86
426.39	2499.69
426.58	2403.73
426.77	2244.57
426.96	2232.87
427.15	2146.27
427.33	2413.09
427.52	2403.73
427.71	2331.17
427.90	2410.75
428.09	2431.82
428.28	2370.96
428.46	2223.51
428.65	2244.57
428.84	2263.30
429.03	2377.98
429.22	2160.31
429.40	2045.63
429.59	1907.54
429.78	1818.60
429.97	1732.00
430.16	1816.26
430.34	1769.44
430.53	1816.26
430.72	1734.34
430.91	1940.30
431.10	2125.21
431.28	2476.29
431.47	2778.22
431.66	2944.39
431.85	2752.47
432.03	2565.23
432.22	2469.27
432.41	2373.30
432.60	2649.49
432.79	2768.85
432.97	2796.94
433.16	2717.36
433.35	2438.84
433.54	2424.80
433.72	2235.21
433.91	2207.13
434.10	2361.60
434.28	2623.74
434.47	2677.57
434.66	2818.00
434.85	2803.96
435.03	2768.85
435.22	3016.95
435.41	3571.66
435.59	3581.02
435.78	3419.52
435.97	3084.83
436.16	2935.03
436.34	3115.25
436.53	3023.97
436.72	2902.26
436.90	2729.06
437.09	2738.43
437.28	2658.85
437.46	2761.83
437.65	2736.09
437.84	2602.68
438.02	2546.50
438.21	2466.92
438.40	2583.95
438.58	2626.08
438.77	2860.13
438.96	2775.88
439.14	2897.58
439.33	2965.46
439.52	3038.02
439.70	2970.14
439.89	2895.24
440.08	2827.37
440.26	2771.19
440.45	2958.44
440.63	3173.77
440.82	3169.09
441.01	3218.24
441.19	3122.27
441.38	3215.90
441.57	3325.90
441.75	3365.69
441.94	3398.46
442.12	3236.96
442.31	3384.41
442.50	3398.46
442.68	3332.92
442.87	3384.41
443.05	3330.58
443.24	3222.92
443.43	3321.22
443.61	3459.31
443.80	3433.57
443.98	3363.35
444.17	3356.33
444.35	3459.31
444.54	3487.40
444.73	3478.04
444.91	3318.88
445.10	3267.39
445.28	3054.40
445.47	3063.76
445.65	3023.97
445.84	3187.81
446.02	3206.53
446.21	3148.02
446.39	3208.87
446.58	3442.93
446.77	3384.41
446.95	3272.07
447.14	3466.33
447.32	3595.06
447.51	3449.95
447.69	3349.31
447.88	3227.60
448.06	3307.18
448.25	3520.17
448.43	3480.38
448.62	3398.46
448.80	3400.80
448.99	3527.19
449.17	3482.72
449.36	3557.61
449.54	3550.59
449.73	3447.61
449.91	3735.50
450.10	3735.50
450.28	3845.50
450.46	3758.90
450.65	3639.53
450.83	3854.86
451.02	3674.64
451.20	3651.24
451.39	3658.26
451.57	3571.66
451.76	3531.87
451.94	3595.06
452.13	3585.70
452.31	3426.54
452.49	3178.45
452.68	3262.71
452.86	3178.45
453.05	3276.75
453.23	3433.57
453.42	3330.58
453.60	3456.97
453.78	3660.60
453.97	3517.83
454.15	3559.95
454.34	3543.57
454.52	3599.74
454.70	3442.93
454.89	3431.23
455.07	3449.95
455.26	3499.10
455.44	3616.13
455.62	3721.45
455.81	3672.30
455.99	3674.64
456.17	3653.58
456.36	3644.21
456.54	3627.83
456.73	3676.98
456.91	3719.11
457.09	3653.58
457.28	3939.12
457.46	3768.26
457.64	3817.41
457.83	3667.62
458.01	3588.04
458.19	3691.02
458.38	3688.68
458.56	3791.67
458.74	3632.51
458.93	3730.81
459.11	3644.21
459.29	3531.87
459.48	3700.39
459.66	3538.89
459.84	3756.56
460.03	3983.59
460.21	3667.62
460.39	3885.29
460.57	3796.35
460.76	3829.12
460.94	3782.31
461.12	3648.90
461.31	3822.09
461.49	3702.73
461.67	3836.14
461.85	3896.99
462.04	3948.48
462.22	4355.74
462.40	3901.67
462.59	3803.37
462.77	3852.52
462.95	3875.93
463.13	3815.07
463.32	3737.84
463.50	3723.79
463.68	3838.48
463.86	3716.77
464.05	3948.48
464.23	3934.44
464.41	3597.40
464.59	3550.59
464.78	3833.80
464.96	3747.20
465.14	3665.28
465.32	3667.62
465.50	3985.93
465.69	3967.21
465.87	3882.95
466.05	3735.50
466.23	3653.58
466.41	3482.72
466.60	3581.02
466.78	3529.53
466.96	3620.81
467.14	3660.60
467.32	3794.01
467.51	3829.12
467.69	3609.11
467.87	3719.11
468.05	3726.13
468.23	3578.68
468.41	3796.35
468.60	3651.24
468.78	3735.50
468.96	3733.15
469.14	3758.90
469.32	3777.62
469.50	3620.81
469.69	3707.41
469.87	3536.55
470.05	3637.19
470.23	3604.42
470.41	3676.98
470.59	3639.53
470.77	3763.58
470.95	3712.09
471.14	3981.25
471.32	3772.94
471.50	3850.18
471.68	3990.61
471.86	3964.87
472.04	4138.07
472.22	4163.81
472.40	3990.61
472.58	3826.78
472.77	3847.84
472.95	3815.07
473.13	4093.60
473.31	3873.59
473.49	3754.22
473.67	3826.78
473.85	4084.23
474.03	3983.59
474.21	4100.62
474.39	4189.56
474.57	4255.09
474.75	4252.75
474.93	4271.48
475.12	4021.04
475.30	4098.28
475.48	4028.06
475.66	4067.85
475.84	4063.17
476.02	3873.59
476.20	3936.78
476.38	4032.74
476.56	4091.26
476.74	4079.55
476.92	4177.86
477.10	4234.03
477.28	4580.43
477.46	4360.42
477.64	4262.12
477.82	4468.08
478.00	4425.95
478.18	4376.80
478.36	4358.08
478.54	4320.63
478.72	4273.82
478.90	4564.04
479.08	4634.26
479.26	4802.78
479.44	4564.04
479.62	4540.64
479.80	4622.56
479.98	4748.95
480.16	4711.50
480.34	4608.51
480.52	4802.78
480.70	4887.04
480.88	4568.73
481.06	4905.76
481.24	4901.08
481.41	5081.30
481.59	5109.39
481.77	4994.70
481.95	4844.91
482.13	4997.04
482.31	5149.18
482.49	5135.14
482.67	5149.18
482.85	5212.37
483.03	5144.50
483.21	5214.71
483.39	5214.71
483.57	5114.07
483.74	5083.64
483.92	5041.51
484.10	5102.37
484.28	5224.08
484.46	5207.69
484.64	5334.08
484.82	5338.76
485.00	5125.77
485.18	5184.29
485.35	5088.32
485.53	4734.90
485.71	4315.95
485.89	4154.45
486.07	4255.09
486.25	4669.37
486.43	4891.72
486.61	5001.72
486.78	5195.99
486.96	5149.18
487.14	5373.87
487.32	5423.02
487.50	5317.70
487.68	5687.50
487.85	5633.67
488.03	5720.27
488.21	5837.30
488.39	5614.95
488.57	5563.45
488.75	5387.91
488.92	5750.70
489.10	5914.53
489.28	6225.82
489.46	6326.47
489.64	6354.55
489.81	6331.15
489.99	6258.59
490.17	6384.98
490.35	6417.75
490.53	6370.94
490.70	6237.53
490.88	6073.69
491.06	6242.21
491.24	6279.66
491.41	6207.10
491.59	5947.30
491.77	5703.89
491.95	5851.34
492.13	5991.77
492.30	6193.06
492.48	6539.46
492.66	6523.07
492.84	6740.74
493.01	6670.53
493.19	6609.67
493.37	6417.75
493.54	6169.65
493.72	6607.33
493.90	6773.51
494.08	6906.92
494.25	6885.86
494.43	6988.84
494.61	6848.41
494.79	6979.48
494.96	7000.54
495.14	6972.46
495.32	6665.85
495.49	6452.86
495.67	6787.55
495.85	6953.73
496.02	7087.14
496.20	7119.91
496.38	6979.48
496.55	6726.70
496.73	7028.63
496.91	7082.46
497.09	7234.60
497.26	7274.38
497.44	7279.07
497.62	7019.27
497.79	6789.89
497.97	6572.22
498.14	6455.20
498.32	6787.55
498.50	7042.67
498.67	6956.07
498.85	6864.79
499.03	7117.57
499.20	7325.88
499.38	7265.02
499.56	7290.77
499.73	7302.47
499.91	6930.33
500.08	7059.06
500.26	6794.58
500.44	6874.15
500.61	7056.72
500.79	6899.90
500.97	6874.15
501.14	7028.63
501.32	6892.88
501.49	6754.79
501.67	6665.85
501.84	6927.99
502.02	7045.01
502.20	7023.95
502.37	7089.48
502.55	6883.52
502.72	7150.34
502.90	7248.64
503.07	7185.44
503.25	6909.26
503.43	6637.76
503.60	6429.45
503.78	6221.14
503.95	6377.96
504.13	6759.47
504.30	7049.69
504.48	7105.87
504.65	7047.35
504.83	6984.16
505.01	7274.38
505.18	7220.55
505.36	7452.27
505.53	7463.97
505.71	7653.55
505.88	7634.83
506.06	7442.90
506.23	7545.89
506.41	7215.87
506.58	7325.88
506.76	7159.70
506.93	7260.34
507.11	7091.82
507.28	7077.78
507.46	7286.09
507.63	7052.03
507.81	6979.48
507.98	6944.37
508.16	7215.87
508.33	7311.83
508.50	7293.11
508.68	7559.93
508.85	7688.66
509.03	7698.02
509.20	7468.65
509.38	7559.93
509.55	7330.56
509.73	7281.41
509.90	7267.36
510.08	7506.10
510.25	7573.97
510.42	7510.78
510.60	7496.74
510.77	7454.61
510.95	7641.85
511.12	7719.09
511.30	7808.03
511.47	7765.90
511.64	7908.67
511.82	7712.07
511.99	7468.65
512.17	7524.82
512.34	7391.41
512.51	7372.69
512.69	7424.18
512.86	7377.37
513.04	7791.64
513.21	7733.13
513.38	7431.20
513.56	7358.64
513.73	7140.97
513.90	7239.28
514.08	7262.68
514.25	7372.69
514.43	7506.10
514.60	7534.18
514.77	7524.82
514.95	7468.65
515.12	7456.95
515.29	7494.40
515.47	7655.89
515.64	7662.91
515.81	7585.68
515.99	7360.98
516.16	7288.43
516.33	6712.66
516.51	6221.14
516.68	6125.18
516.85	6038.58
517.03	6164.97
517.20	6787.55
517.37	7243.96
517.54	7421.84
517.72	7360.98
517.89	6918.62
518.06	6303.06
518.24	6516.05
518.41	6813.30
518.58	7026.29
518.75	7063.74
518.93	7183.10
519.10	7138.63
519.27	7323.54
519.45	7368.01
519.62	7487.37
519.79	7758.88
519.96	7705.04
520.14	7625.47
520.31	7297.79
520.48	7440.56
520.65	7311.83
520.83	7634.83
521.00	7662.91
521.17	7630.15
521.34	7531.84
521.52	7590.36
521.69	7716.75
521.86	8016.33
522.03	7852.50
522.20	7566.95
522.38	7405.46
522.55	7293.11
522.72	7419.50
522.89	7527.16
523.07	7459.29
523.24	7515.46
523.41	7730.79
523.58	7899.31
523.75	7852.50
523.92	7906.33
524.10	7908.67
524.27	7894.63
524.44	7971.86
524.61	7810.37
524.78	7786.96
524.96	7826.75
525.13	7779.94
525.30	7688.66
525.47	7882.92
525.64	7903.99
525.81	7803.35
525.98	7452.27
526.16	7089.48
526.33	6771.17
526.50	6857.77
526.67	6590.95
526.84	6707.98
527.01	6930.33
527.18	7150.34
527.36	7384.39
527.53	7634.83
527.70	7808.03
527.87	7770.58
528.04	7669.94
528.21	7531.84
528.38	7669.94
528.55	7981.23
528.72	8112.30
528.89	8156.77
529.07	7974.21
529.24	7861.86
529.41	7669.94
529.58	7489.71
529.75	7550.57
529.92	7590.36
530.09	7803.35
530.26	8002.29
530.43	7974.21
530.60	8021.02
530.77	8044.42
530.94	8142.72
531.11	8013.99
531.28	7824.41
531.46	7894.63
531.63	7948.46
531.80	7761.22
531.97	7789.30
532.14	7571.63
532.31	7328.22
532.48	6970.12
532.65	7157.36
532.82	7269.70
532.99	7616.10
533.16	7777.60
533.33	8056.12
533.50	7826.75
533.67	7522.48
533.84	7597.38
534.01	7662.91
534.18	7639.51
534.35	7688.66
534.52	7674.62
534.69	7859.52
534.86	7784.62
535.03	7810.37
535.20	8018.68
535.37	8236.35
535.54	8219.96
535.71	8077.19
535.88	7995.27
536.05	7847.82
536.22	7740.15
536.38	7651.21
536.55	7595.04
536.72	7424.18
536.89	7442.90
537.06	7316.51
537.23	7730.79
537.40	7850.16
537.57	8013.99
537.74	7943.78
537.91	7798.66
538.08	7803.35
538.25	7599.72
538.42	8021.02
538.59	7798.66
538.75	7658.23
538.92	7679.30
539.09	7616.10
539.26	7431.20
539.43	7492.05
539.60	7515.46
539.77	7616.10
539.94	7742.49
540.11	7293.11
540.28	7243.96
540.44	7363.33
540.61	7232.26
540.78	7344.60
540.95	7772.92
541.12	7948.46
541.29	7925.05
541.46	7988.25
541.62	7908.67
541.79	8257.41
541.96	7939.10
542.13	7922.71
542.30	7981.23
542.47	7990.59
542.63	7878.24
542.80	8102.93
542.97	7826.75
543.14	7756.54
543.31	7730.79
543.48	7868.88
543.64	8177.83
543.81	8306.56
543.98	8145.06
544.15	7978.89
544.32	7920.37
544.48	7852.50
544.65	8107.62
544.82	7852.50
544.99	8039.74
545.16	7969.52
545.32	7798.66
545.49	8425.93
545.66	9188.94
545.83	9380.87
546.00	8985.32
546.16	8248.05
546.33	7990.59
546.50	7934.42
546.67	7737.81
546.83	7726.11
547.00	7911.01
547.17	7651.21
547.34	7384.39
547.50	7304.81
547.67	7534.18
547.84	7573.97
548.00	7655.89
548.17	7557.59
548.34	7616.10
548.51	7700.36
548.67	7634.83
548.84	7782.28
549.01	7815.05
549.18	7559.93
549.34	7503.76
549.51	7454.61
549.68	7726.11
549.84	7660.57
550.01	7595.04
550.18	7353.96
550.34	7595.04
550.51	7531.84
550.68	7632.49
550.84	7522.48
551.01	7424.18
551.18	7398.43
551.34	7379.71
551.51	7468.65
551.68	7442.90
551.84	7520.14
552.01	7602.06
552.18	7349.28
552.34	7236.94
552.51	7176.08
552.68	7218.21
552.84	7232.26
553.01	7356.30
553.18	7360.98
553.34	7370.35
553.51	7419.50
553.67	7487.37
553.84	7609.08
554.01	7417.16
554.17	7372.69
554.34	7396.09
554.51	7393.75
554.67	7389.07
554.84	7370.35
555.00	7325.88
555.17	7297.79
555.33	7377.37
555.50	7159.70
555.67	7187.79
555.83	7190.13
556.00	7173.74
556.16	7360.98
556.33	7150.34
556.50	7040.33
556.66	7016.93
556.83	7037.99
556.99	7084.80
557.16	7019.27
557.32	7253.32
557.49	7045.01
557.65	7061.40
557.82	7073.10
557.98	7215.87
558.15	6932.67
558.32	6869.47
558.48	6715.00
558.65	6504.35
558.81	6675.21
558.98	6789.89
559.14	6981.82
559.31	6850.75
559.47	6937.35
559.64	6736.06
559.80	6829.68
559.97	6672.87
560.13	6951.39
560.30	7080.12
560.46	7021.61
560.63	7183.10
560.79	7155.02
560.96	7073.10
561.12	6885.86
561.29	6960.75
561.45	6815.64
561.61	6890.54
561.78	7061.40
561.94	6988.84
562.11	6738.40
562.27	6836.70
562.44	6808.62
562.60	6785.21
562.77	6963.09
562.93	7173.74
563.10	7119.91
563.26	6773.51
563.42	7000.54
563.59	6759.47
563.75	6703.29
563.92	6829.68
564.08	6635.42
564.24	6956.07
564.41	6686.91
564.57	6745.42
564.74	6890.54
564.90	6803.94
565.07	6696.27
565.23	6560.52
565.39	6562.86
565.56	6560.52
565.72	6244.55
565.88	6471.58
566.05	6480.94
566.21	6478.60
566.38	6527.75
566.54	6434.13
566.70	6691.59
566.87	6705.63
567.03	6782.87
567.19	6843.73
567.36	6604.99
567.52	6509.03
567.68	6658.82
567.85	6331.15
568.01	6239.87
568.17	6267.95
568.34	6183.70
568.50	6195.40
568.66	6122.84
568.83	6237.53
568.99	6242.21
569.15	6228.17
569.32	6279.66
569.48	6239.87
569.64	6204.76
569.81	6029.22
569.97	6080.71
570.13	6244.55
570.30	6394.34
570.46	6150.93
570.62	5973.05
570.78	5912.19
570.95	6036.24
571.11	6080.71
571.27	6064.33
571.43	6111.14
571.60	6108.80
571.76	6104.12
571.92	6303.06
572.09	6235.19
572.25	6345.19
572.41	6284.34
572.57	6211.78
572.74	6239.87
572.90	5991.77
573.06	6307.74
573.22	6115.82
573.38	6293.70
573.55	6120.50
573.71	6143.91
573.87	6237.53
574.03	6207.10
574.20	5975.39
574.36	6094.76
574.52	5919.21
574.68	5926.24
574.84	6012.84
575.01	5844.32
575.17	5792.83
575.33	5956.66
575.49	6080.71
575.65	5792.83
575.82	5991.77
575.98	5783.46
576.14	5961.34
576.30	5947.30
576.46	6310.08
576.62	6464.56
576.79	6389.66
576.95	6045.60
577.11	6188.38
577.27	6069.01
577.43	5916.87
577.59	5989.43
577.75	5998.79
577.92	5738.99
578.08	5741.33
578.24	5820.91
578.40	5891.13
578.56	5930.92
578.72	6204.76
578.88	6293.70
579.04	6207.10
579.21	5944.96
579.37	6169.65
579.53	6043.26
579.69	5961.34
579.85	6160.29
580.01	6008.16
580.17	5951.98
580.33	5923.90
580.49	6015.18
580.65	6085.39
580.82	6134.54
580.98	6195.40
581.14	6015.18
581.30	6207.10
581.46	6043.26
581.62	6197.74
581.78	6146.25
581.94	6052.63
582.10	6080.71
582.26	6207.10
582.42	6188.38
582.58	6150.93
582.74	6052.63
582.90	6176.67
583.06	6155.61
583.22	6246.89
583.38	6085.39
583.54	6069.01
583.70	6181.35
583.86	6066.67
584.02	6244.55
584.18	6146.25
584.34	6038.58
584.50	6106.46
584.66	6094.76
584.82	5902.83
584.98	6085.39
585.14	5863.04
585.30	5860.70
585.46	5647.71
585.62	5614.95
585.78	5760.06
585.94	5879.43
586.10	5767.08
586.26	5853.68
586.42	5959.00
586.58	5860.70
586.74	5863.04
586.90	5902.83
587.06	5994.11
587.22	5825.59
587.38	5748.36
587.54	5614.95
587.70	5645.37
587.86	5298.97
588.02	5055.56
588.18	5158.54
588.34	4856.61
588.49	4484.47
588.65	4355.74
588.81	4196.58
588.97	4117.00
589.13	4238.71
589.29	4290.20
589.45	4131.05
589.61	4243.39
589.77	4458.72
589.93	4573.41
590.08	4723.20
590.24	4814.48
590.40	5036.83
590.56	4791.08
590.72	4753.63
590.88	4873.00
591.04	4685.75
591.20	4910.44
591.35	4755.97
591.51	4755.97
591.67	4657.67
591.83	4704.48
591.99	4873.00
592.15	4765.33
592.31	4992.36
592.46	4975.98
592.62	5177.26
592.78	5097.69
592.94	5062.58
593.10	5195.99
593.26	5170.24
593.41	5366.85
593.57	5135.14
593.73	5020.45
593.89	4636.60
594.05	4519.57
594.20	4395.53
594.36	4456.38
594.52	4301.90
594.68	4423.61
594.84	4807.46
594.99	4830.87
595.15	4767.67
595.31	4819.16
595.47	4917.47
595.62	4908.10
595.78	4908.10
595.94	5128.11
596.10	5181.95
596.25	5125.77
596.41	4718.52
596.57	4844.91
596.73	4753.63
596.88	4940.87
597.04	5123.43
597.20	5064.92
597.36	4926.83
597.51	4873.00
597.67	4844.91
