SpectraSuite Data File
++++++++++++++++++++++++++++++++++++
Date: Fri Oct 04 11:44:12 GMT-05:00 2013
User: price-jones
Dark Spectrum Present: No
Reference Spectrum Present: No
Number of Sampled Component Spectra: 1
Spectrometers: USB2+H05261
Integration Time (usec): 100000 (USB2+H05261)
Spectra Averaged: 1 (USB2+H05261)
Boxcar Smoothing: 0 (USB2+H05261)
Correct for Electrical Dark: No (USB2+H05261)
Strobe/Lamp Enabled: No (USB2+H05261)
Correct for Detector Non-linearity: No (USB2+H05261)
Correct for Stray Light: No (USB2+H05261)
Number of Pixels in Processed Spectrum: 2048
>>>>>Begin Processed Spectral Data<<<<<
365.73	56.17
365.92	56.17
366.12	56.17
366.32	0.00
366.52	0.00
366.72	0.00
366.91	0.00
367.11	0.00
367.31	0.00
367.51	0.00
367.70	0.00
367.90	0.00
368.10	0.00
368.30	0.00
368.49	0.00
368.69	0.00
368.89	0.00
369.09	0.00
369.28	0.00
369.48	0.00
369.68	0.00
369.87	0.00
370.07	0.00
370.27	0.00
370.47	77.24
370.66	449.38
370.86	465.77
371.06	463.43
371.25	493.85
371.45	440.02
371.65	482.15
371.84	517.26
372.04	409.59
372.24	390.87
372.44	468.11
372.63	447.04
372.83	496.19
373.03	552.37
373.22	397.89
373.42	435.34
373.62	472.79
373.81	507.90
374.01	599.18
374.21	526.62
374.40	489.17
374.60	463.43
374.79	440.02
374.99	610.88
375.19	622.58
375.38	561.73
375.58	575.77
375.78	580.45
375.97	564.07
376.17	517.26
376.37	599.18
376.56	601.52
376.76	662.37
376.95	561.73
377.15	624.92
377.35	711.52
377.54	763.01
377.74	723.23
377.93	699.82
378.13	784.08
378.33	734.93
378.52	685.78
378.72	660.03
378.91	582.79
379.11	641.31
379.31	575.77
379.50	571.09
379.70	695.14
379.89	655.35
380.09	657.69
380.28	695.14
380.48	664.71
380.68	704.50
380.87	697.48
381.07	697.48
381.26	601.52
381.46	662.37
381.65	557.05
381.85	603.86
382.04	512.58
382.24	479.81
382.43	479.81
382.63	428.32
382.83	489.17
383.02	489.17
383.22	493.85
383.41	493.85
383.61	486.83
383.80	655.35
384.00	585.13
384.19	681.10
384.39	760.67
384.58	718.54
384.78	706.84
384.97	709.18
385.17	615.56
385.36	655.35
385.56	678.76
385.75	653.01
385.95	727.91
386.14	772.38
386.34	711.52
386.53	671.73
386.72	681.10
386.92	699.82
387.11	758.33
387.31	739.61
387.50	746.63
387.70	690.46
387.89	676.41
388.09	631.94
388.28	676.41
388.48	727.91
388.67	758.33
388.86	884.72
389.06	795.78
389.25	938.55
389.45	896.43
389.64	877.70
389.84	903.45
390.03	882.38
390.22	1015.79
390.42	866.00
390.61	926.85
390.81	1025.15
391.00	1004.09
391.19	1088.35
391.39	976.00
391.58	976.00
391.78	898.77
391.97	854.30
392.16	807.48
392.36	748.97
392.55	657.69
392.75	468.11
392.94	461.09
393.13	491.51
393.33	580.45
393.52	683.44
393.71	807.48
393.91	784.08
394.10	875.36
394.29	915.15
394.49	926.85
394.68	1111.75
394.88	1053.24
395.07	1057.92
395.26	1088.35
395.46	1107.07
395.65	994.73
395.84	901.11
396.04	868.34
396.23	711.52
396.42	587.47
396.62	557.05
396.81	676.41
397.00	830.89
397.19	945.58
397.39	1041.54
397.58	1310.70
397.77	1238.14
397.97	1289.64
398.16	1341.13
398.35	1355.17
398.55	1301.34
398.74	1327.08
398.93	1432.41
399.12	1502.62
399.32	1380.92
399.51	1369.21
399.70	1493.26
399.90	1502.62
400.09	1591.56
400.28	1474.54
400.47	1483.90
400.67	1605.61
400.86	1715.61
401.05	1514.33
401.24	1544.75
401.44	1673.48
401.63	1509.65
401.82	1554.12
402.01	1593.90
402.21	1675.82
402.40	1607.95
402.59	1624.33
402.78	1504.96
402.97	1479.22
403.17	1519.01
403.36	1579.86
403.55	1607.95
403.74	1729.66
403.93	1582.20
404.13	1673.48
404.32	1643.06
404.51	1556.46
404.70	1708.59
404.89	1708.59
405.09	1682.85
405.28	1607.95
405.47	1568.16
405.66	1652.42
405.85	1612.63
406.05	1535.39
406.24	1568.16
406.43	1600.93
406.62	1685.19
406.81	1685.19
407.00	1556.46
407.20	1570.50
407.39	1582.20
407.58	1549.43
407.77	1685.19
407.96	1643.06
408.15	1781.15
408.34	1790.51
408.54	1783.49
408.73	1795.19
408.92	1792.85
409.11	1736.68
409.30	1713.27
409.49	1582.20
409.68	1540.07
409.87	1493.26
410.07	1558.80
410.26	1650.08
410.45	1729.66
410.64	1872.43
410.83	1834.98
411.02	1839.66
411.21	2001.16
411.40	1909.88
411.59	1916.90
411.78	1893.49
411.98	1818.60
412.17	1952.01
412.36	1952.01
412.55	1891.15
412.74	1839.66
412.93	1818.60
413.12	1842.00
413.31	1991.80
413.50	1909.88
413.69	2076.06
413.88	2024.56
414.07	2043.29
414.26	1991.80
414.45	2003.50
414.64	2043.29
414.83	2017.54
415.02	1966.05
415.22	2047.97
415.41	2031.58
415.60	2092.44
415.79	2141.59
415.98	2209.47
416.17	2249.25
416.36	2176.70
416.55	2188.40
416.74	2087.76
416.93	2019.88
417.12	2040.95
417.31	1914.56
417.50	2033.93
417.69	2054.99
417.88	1968.39
418.07	2092.44
418.26	2054.99
418.45	2064.35
418.64	2120.53
418.83	2157.97
419.02	2244.57
419.21	2190.74
419.39	2160.31
419.58	2017.54
419.77	1998.82
419.96	2094.78
420.15	2190.74
420.34	2181.38
420.53	2300.75
420.72	2352.24
420.91	2282.02
421.10	2298.41
421.29	2282.02
421.48	2253.94
421.67	2324.15
421.86	2305.43
422.05	2202.44
422.24	2045.63
422.43	1952.01
422.61	2179.04
422.80	2249.25
422.99	2165.00
423.18	2179.04
423.37	2125.21
423.56	2073.71
423.75	2148.61
423.94	2136.91
424.13	2029.24
424.32	2179.04
424.50	2040.95
424.69	2078.40
424.88	2076.06
425.07	2078.40
425.26	1968.39
425.45	2064.35
425.64	2017.54
425.83	1881.79
426.01	2064.35
426.20	2197.76
426.39	2078.40
426.58	2003.50
426.77	1834.98
426.96	1923.92
427.15	1788.17
427.33	1963.71
427.52	2045.63
427.71	2207.13
427.90	2085.42
428.09	2015.20
428.28	2078.40
428.46	2031.58
428.65	1937.96
428.84	2043.29
429.03	2017.54
429.22	1966.05
429.40	1893.49
429.59	1666.46
429.78	1607.95
429.97	1542.41
430.16	1547.09
430.34	1561.14
430.53	1568.16
430.72	1509.65
430.91	1650.08
431.10	1928.60
431.28	2162.66
431.47	2359.26
431.66	2588.63
431.85	2209.47
432.03	2083.08
432.22	2160.31
432.41	2150.95
432.60	2249.25
432.79	2380.32
432.97	2338.20
433.16	2324.15
433.35	2143.93
433.54	2022.22
433.72	1977.75
433.91	1872.43
434.10	2069.03
434.28	2307.77
434.47	2396.71
434.66	2406.07
434.85	2321.81
435.03	2326.49
435.22	2609.70
435.41	2846.09
435.59	2836.73
435.78	2839.07
435.97	2719.70
436.16	2668.21
436.34	2483.31
436.53	2574.59
436.72	2520.76
436.90	2434.16
437.09	2380.32
437.28	2328.83
437.46	2443.52
437.65	2326.49
437.84	2267.98
438.02	2174.36
438.21	2129.89
438.40	2094.78
438.58	2324.15
438.77	2448.20
438.96	2462.24
439.14	2525.44
439.33	2523.10
439.52	2572.25
439.70	2546.50
439.89	2443.52
440.08	2473.95
440.26	2408.41
440.45	2471.61
440.63	2403.73
440.82	2794.60
441.01	2663.53
441.19	2700.98
441.38	2743.11
441.57	2890.56
441.75	2911.63
441.94	2869.50
442.12	2953.76
442.31	2876.52
442.50	2899.92
442.68	2820.35
442.87	2925.67
443.05	2794.60
443.24	2771.19
443.43	3009.93
443.61	2942.05
443.80	2951.42
443.98	2768.85
444.17	2869.50
444.35	2925.67
444.54	2937.37
444.73	3042.70
444.91	2862.48
445.10	2761.83
445.28	2640.12
445.47	2621.40
445.65	2637.78
445.84	2623.74
446.02	2813.32
446.21	2719.70
446.39	2825.03
446.58	2871.84
446.77	2895.24
446.95	2892.90
447.14	2939.71
447.32	3089.51
447.51	2981.84
447.69	2827.37
447.88	2885.88
448.06	2813.32
448.25	3042.70
448.43	2981.84
448.62	2923.33
448.80	2874.18
448.99	2956.10
449.17	2888.22
449.36	2960.78
449.54	3012.27
449.73	3089.51
449.91	3225.26
450.10	3152.70
450.28	3295.47
450.46	3222.92
450.65	3295.47
450.83	3339.94
451.02	3225.26
451.20	3136.32
451.39	3082.49
451.57	3262.71
451.76	3049.72
451.94	3096.53
452.13	3077.80
452.31	2925.67
452.49	2733.75
452.68	2785.24
452.86	2773.53
453.05	3005.25
453.23	2977.16
453.42	2963.12
453.60	3014.61
453.78	3019.29
453.97	3042.70
454.15	3143.34
454.34	3112.91
454.52	2970.14
454.70	3014.61
454.89	3000.57
455.07	3026.31
455.26	3122.27
455.44	3138.66
455.62	3129.30
455.81	3187.81
455.99	3222.92
456.17	3171.43
456.36	3136.32
456.54	3286.11
456.73	3417.18
456.91	3232.28
457.09	3328.24
457.28	3442.93
457.46	3234.62
457.64	3229.94
457.83	3141.00
458.01	3045.04
458.19	3075.46
458.38	3080.14
458.56	3330.58
458.74	3325.90
458.93	3197.17
459.11	3124.62
459.29	2991.20
459.48	3187.81
459.66	3243.98
459.84	3141.00
460.03	3323.56
460.21	3274.41
460.39	3342.28
460.57	3269.73
460.76	3332.92
460.94	3328.24
461.12	3087.17
461.31	3234.62
461.49	3222.92
461.67	3304.84
461.85	3344.63
462.04	3403.14
462.22	3843.16
462.40	3482.72
462.59	3335.26
462.77	3438.25
462.95	3419.52
463.13	3225.26
463.32	3349.31
463.50	3178.45
463.68	3335.26
463.86	3258.03
464.05	3307.18
464.23	3229.94
464.41	3199.51
464.59	3124.62
464.78	3304.84
464.96	3337.60
465.14	3265.05
465.32	3258.03
465.50	3349.31
465.69	3501.44
465.87	3351.65
466.05	3234.62
466.23	3169.09
466.41	3232.28
466.60	3204.19
466.78	3084.83
466.96	3239.30
467.14	3272.07
467.32	3393.78
467.51	3314.20
467.69	3124.62
467.87	3300.16
468.05	3258.03
468.23	3300.16
468.41	3236.96
468.60	3227.60
468.78	3318.88
468.96	3351.65
469.14	3272.07
469.32	3379.73
469.50	3129.30
469.69	3171.43
469.87	3225.26
470.05	3213.56
470.23	3171.43
470.41	3239.30
470.59	3187.81
470.77	3225.26
470.95	3262.71
471.14	3358.67
471.32	3251.00
471.50	3515.48
471.68	3377.39
471.86	3524.85
472.04	3449.95
472.22	3639.53
472.40	3311.86
472.58	3379.73
472.77	3370.37
472.95	3382.07
473.13	3588.04
473.31	3466.33
473.49	3393.78
473.67	3480.38
473.85	3531.87
474.03	3609.11
474.21	3627.83
474.39	3578.68
474.57	3705.07
474.75	3637.19
474.93	3506.12
475.12	3386.76
475.30	3414.84
475.48	3485.06
475.66	3489.74
475.84	3492.08
476.02	3468.67
476.20	3449.95
476.38	3522.51
476.56	3772.94
476.74	3632.51
476.92	3674.64
477.10	3808.05
477.28	3859.54
477.46	3831.46
477.64	3852.52
477.82	3894.65
478.00	3983.59
478.18	3904.01
478.36	3782.31
478.54	3896.99
478.72	3857.20
478.90	4098.28
479.08	4114.66
479.26	4236.37
479.44	4184.88
479.62	4079.55
479.80	4198.92
479.98	4105.30
480.16	4182.54
480.34	4107.64
480.52	4072.53
480.70	4058.49
480.88	4117.00
481.06	4159.13
481.24	4440.00
481.41	4294.88
481.59	4346.37
481.77	4348.72
481.95	4252.75
482.13	4292.54
482.31	4297.22
482.49	4479.79
482.67	4500.85
482.85	4421.27
483.03	4390.84
483.21	4519.57
483.39	4512.55
483.57	4589.79
483.74	4454.04
483.92	4297.22
484.10	4489.15
484.28	4636.60
484.46	4699.80
484.64	4491.49
484.82	4503.19
485.00	4573.41
485.18	4477.44
485.35	4332.33
485.53	3997.64
485.71	3796.35
485.89	3529.53
486.07	3742.52
486.25	4262.12
486.43	4353.40
486.61	4440.00
486.78	4430.63
486.96	4491.49
487.14	4550.00
487.32	4594.47
487.50	4762.99
487.68	4964.28
487.85	4985.34
488.03	5048.54
488.21	4912.78
488.39	4896.40
488.57	4823.84
488.75	4732.56
488.92	5020.45
489.10	5254.50
489.28	5359.83
489.46	5418.34
489.64	5521.32
489.81	5509.62
489.99	5364.51
490.17	5392.59
490.35	5490.90
490.53	5310.68
490.70	5467.49
490.88	5327.06
491.06	5495.58
491.24	5551.75
491.41	5280.25
491.59	5100.03
491.77	4863.63
491.95	5221.74
492.13	5355.15
492.30	5359.83
492.48	5535.37
492.66	5731.97
492.84	5699.20
493.01	5671.12
493.19	5694.52
493.37	5678.14
493.54	5533.03
493.72	5523.66
493.90	5736.65
494.08	5944.96
494.25	6146.25
494.43	6092.41
494.61	6069.01
494.79	6038.58
494.96	6179.01
495.14	6087.73
495.32	5928.58
495.49	5692.18
495.67	5923.90
495.85	6040.92
496.02	6200.08
496.20	6270.30
496.38	6083.05
496.55	6111.14
496.73	6284.34
496.91	6127.52
497.09	6195.40
497.26	6293.70
497.44	6235.19
497.62	6282.00
497.79	6237.53
497.97	5886.45
498.14	5645.37
498.32	5783.46
498.50	6354.55
498.67	6328.81
498.85	6239.87
499.03	6354.55
499.20	6347.53
499.38	6338.17
499.56	6291.36
499.73	6188.38
499.91	6115.82
500.08	6080.71
500.26	5865.38
500.44	5849.00
500.61	6085.39
500.79	6094.76
500.97	6083.05
501.14	5980.07
501.32	5973.05
501.49	5799.85
501.67	5818.57
501.84	5935.60
502.02	5860.70
502.20	6132.20
502.37	6195.40
502.55	6209.44
502.72	6237.53
502.90	6347.53
503.07	6120.50
503.25	5895.81
503.43	5818.57
503.60	5729.63
503.78	5659.42
503.95	5666.44
504.13	5764.74
504.30	6256.25
504.48	6143.91
504.65	6319.45
504.83	6230.51
505.01	6443.49
505.18	6347.53
505.36	6466.90
505.53	6469.24
505.71	6567.54
505.88	6569.88
506.06	6249.23
506.23	6560.52
506.41	6291.36
506.58	6527.75
506.76	6289.02
506.93	6167.31
507.11	6090.07
507.28	6335.83
507.46	6335.83
507.63	6106.46
507.81	5895.81
507.98	6134.54
508.16	6209.44
508.33	6406.05
508.50	6527.75
508.68	6661.16
508.85	6736.06
509.03	6588.61
509.20	6583.93
509.38	6651.80
509.55	6431.79
509.73	6445.84
509.90	6401.37
510.08	6436.47
510.25	6576.91
510.42	6410.73
510.60	6469.24
510.77	6392.00
510.95	6707.98
511.12	6644.78
511.30	6810.96
511.47	6817.98
511.64	6988.84
511.82	6911.60
511.99	6621.38
512.17	6647.12
512.34	6436.47
512.51	6441.15
512.69	6656.48
512.86	6827.34
513.04	6590.95
513.21	6665.85
513.38	6630.74
513.56	6502.01
513.73	6387.32
513.90	6127.52
514.08	6506.69
514.25	6548.82
514.43	6588.61
514.60	6504.35
514.77	6658.82
514.95	6654.14
515.12	6492.65
515.29	6424.77
515.47	6726.70
515.64	6869.47
515.81	6752.45
515.99	6551.16
516.16	6511.37
516.33	5947.30
516.51	5528.35
516.68	5504.94
516.85	5350.46
517.03	5380.89
517.20	5750.70
517.37	6342.85
517.54	6623.72
517.72	6665.85
517.89	6122.84
518.06	5577.50
518.24	5767.08
518.41	5907.51
518.58	6289.02
518.75	6328.81
518.93	6317.11
519.10	6448.18
519.27	6560.52
519.45	6595.63
519.62	6576.91
519.79	6738.40
519.96	6572.22
520.14	6532.44
520.31	6441.15
520.48	6483.28
520.65	6387.32
520.83	6736.06
521.00	6717.34
521.17	6822.66
521.34	6705.63
521.52	6588.61
521.69	6930.33
521.86	7005.22
522.03	6913.94
522.20	6792.23
522.38	6455.20
522.55	6537.12
522.72	6438.81
522.89	6436.47
523.07	6560.52
523.24	6562.86
523.41	6935.01
523.58	6932.67
523.75	6944.37
523.92	6944.37
524.10	7073.10
524.27	6939.69
524.44	6981.82
524.61	6836.70
524.78	6862.45
524.96	6857.77
525.13	6836.70
525.30	6970.12
525.47	6942.03
525.64	7037.99
525.81	6724.36
525.98	6565.20
526.16	6181.35
526.33	5867.72
526.50	5879.43
526.67	5722.61
526.84	5844.32
527.01	6155.61
527.18	6354.55
527.36	6590.95
527.53	6597.97
527.70	6913.94
527.87	6789.89
528.04	6672.87
528.21	6626.06
528.38	6839.05
528.55	7047.35
528.72	7159.70
528.89	7290.77
529.07	7246.30
529.24	7059.06
529.41	6848.41
529.58	6726.70
529.75	6799.26
529.92	6806.28
530.09	6860.11
530.26	7133.95
530.43	7215.87
530.60	6986.50
530.77	7007.56
530.94	7276.73
531.11	7098.84
531.28	6911.60
531.46	6759.47
531.63	7143.32
531.80	6817.98
531.97	6740.74
532.14	6635.42
532.31	6502.01
532.48	6200.08
532.65	6223.48
532.82	6377.96
532.99	6516.05
533.16	6885.86
533.33	7108.21
533.50	7026.29
533.67	6913.94
533.84	6633.08
534.01	6682.23
534.18	6736.06
534.35	6874.15
534.52	6836.70
534.69	6810.96
534.86	6843.73
535.03	6855.43
535.20	7045.01
535.37	7194.81
535.54	7138.63
535.71	7117.57
535.88	6960.75
536.05	7016.93
536.22	6825.00
536.38	6647.12
536.55	6658.82
536.72	6548.82
536.89	6604.99
537.06	6705.63
537.23	7073.10
537.40	6860.11
537.57	6871.81
537.74	6967.77
537.91	6878.83
538.08	6932.67
538.25	7026.29
538.42	7026.29
538.59	6850.75
538.75	6892.88
538.92	6817.98
539.09	6630.74
539.26	6595.63
539.43	6724.36
539.60	6520.73
539.77	6541.80
539.94	6476.26
540.11	6551.16
540.28	6345.19
540.44	6541.80
540.61	6413.07
540.78	6436.47
540.95	6705.63
541.12	6700.95
541.29	6801.60
541.46	6841.39
541.62	6825.00
541.79	6988.84
541.96	6785.21
542.13	6834.36
542.30	6932.67
542.47	6970.12
542.63	6825.00
542.80	6785.21
542.97	6616.69
543.14	6637.76
543.31	6686.91
543.48	6679.89
543.64	7054.37
543.81	7232.26
543.98	7049.69
544.15	7012.24
544.32	6904.58
544.48	6621.38
544.65	6705.63
544.82	6841.39
544.99	6766.49
545.16	6869.47
545.32	6775.85
545.49	7045.01
545.66	7662.91
545.83	7693.34
546.00	7360.98
546.16	7185.44
546.33	6825.00
546.50	6874.15
546.67	6782.87
546.83	6874.15
547.00	6661.16
547.17	6710.32
547.34	6661.16
547.50	6583.93
547.67	6506.69
547.84	6729.04
548.00	6768.83
548.17	6848.41
548.34	6803.94
548.51	6815.64
548.67	6738.40
548.84	6834.36
549.01	6733.72
549.18	6647.12
549.34	6700.95
549.51	6700.95
549.68	6731.38
549.84	6443.49
550.01	6539.46
550.18	6619.04
550.34	6672.87
550.51	6609.67
550.68	6743.08
550.84	6476.26
551.01	6579.25
551.18	6445.84
551.34	6656.48
551.51	6572.22
551.68	6609.67
551.84	6754.79
552.01	6583.93
552.18	6698.61
552.34	6640.10
552.51	6347.53
552.68	6361.58
552.84	6494.99
553.01	6373.28
553.18	6600.31
553.34	6649.46
553.51	6504.35
553.67	6658.82
553.84	6586.27
554.01	6658.82
554.17	6349.87
554.34	6612.01
554.51	6553.50
554.67	6719.68
554.84	6607.33
555.00	6525.41
555.17	6452.86
555.33	6457.54
555.50	6408.39
555.67	6431.79
555.83	6363.92
556.00	6534.78
556.16	6431.79
556.33	6260.93
556.50	6146.25
556.66	6326.47
556.83	6274.98
556.99	6314.77
557.16	6087.73
557.32	6291.36
557.49	6420.09
557.65	6377.96
557.82	6324.13
557.98	6296.04
558.15	6239.87
558.32	6008.16
558.48	5865.38
558.65	5982.41
558.81	5888.79
558.98	6005.81
559.14	6211.78
559.31	6094.76
559.47	6183.70
559.64	5959.00
559.80	5961.34
559.97	6080.71
560.13	5996.45
560.30	6204.76
560.46	6333.49
560.63	6448.18
560.79	6427.11
560.96	6366.26
561.12	6066.67
561.29	5940.28
561.45	6026.88
561.61	6214.12
561.78	6403.71
561.94	6024.54
562.11	5963.68
562.27	6090.07
562.44	5914.53
562.60	6059.65
562.77	6235.19
562.93	6335.83
563.10	6188.38
563.26	6179.01
563.42	6111.14
563.59	5923.90
563.75	5935.60
563.92	6061.99
564.08	5858.36
564.24	6050.28
564.41	6223.48
564.57	6031.56
564.74	5987.09
564.90	5919.21
565.07	6146.25
565.23	5937.94
565.39	5790.49
565.56	5706.23
565.72	5689.84
565.88	5809.21
566.05	5706.23
566.21	5764.74
566.38	5912.19
566.54	5996.45
566.70	5853.68
566.87	5926.24
567.03	5926.24
567.19	6045.60
567.36	5895.81
567.52	6033.90
567.68	5837.30
567.85	5724.95
568.01	5554.09
568.17	5488.56
568.34	5542.39
568.50	5420.68
568.66	5256.84
568.83	5628.99
568.99	5626.65
569.15	5713.25
569.32	5437.06
569.48	5544.73
569.64	5458.13
569.81	5394.93
569.97	5631.33
570.13	5514.30
570.30	5476.85
570.46	5296.63
570.62	5282.59
570.78	5345.78
570.95	5359.83
571.11	5586.86
571.27	5493.24
571.43	5324.72
571.60	5504.94
571.76	5455.79
571.92	5502.60
572.09	5668.78
572.25	5659.42
572.41	5682.82
572.57	5507.28
572.74	5568.13
572.90	5551.75
573.06	5628.99
573.22	5502.60
573.38	5572.82
573.55	5444.09
573.71	5628.99
573.87	5444.09
574.03	5439.40
574.20	5331.74
574.36	5324.72
574.52	5338.76
574.68	5455.79
574.84	5198.33
575.01	5266.21
575.17	5380.89
575.33	5427.70
575.49	5350.46
575.65	5387.91
575.82	5359.83
575.98	5280.25
576.14	5376.21
576.30	5387.91
576.46	5479.19
576.62	5554.09
576.79	5654.73
576.95	5481.53
577.11	5366.85
577.27	5320.04
577.43	5329.40
577.59	5303.65
577.75	5352.81
577.92	5242.80
578.08	5097.69
578.24	5287.27
578.40	5179.61
578.56	5343.44
578.72	5345.78
578.88	5313.02
579.04	5490.90
579.21	5380.89
579.37	5364.51
579.53	5296.63
579.69	5472.17
579.85	5476.85
580.01	5432.38
580.17	5483.88
580.33	5294.29
580.49	5439.40
580.65	5385.57
580.82	5373.87
580.98	5406.64
581.14	5614.95
581.30	5383.23
581.46	5425.36
581.62	5397.28
581.78	5329.40
581.94	5427.70
582.10	5423.02
582.26	5500.26
582.42	5507.28
582.58	5441.75
582.74	5406.64
582.90	5666.44
583.06	5425.36
583.22	5518.98
583.38	5434.72
583.54	5600.90
583.70	5645.37
583.86	5497.92
584.02	5547.07
584.18	5430.04
584.34	5497.92
584.50	5460.47
584.66	5249.82
584.82	5320.04
584.98	5254.50
585.14	5334.08
585.30	5266.21
585.46	5167.90
585.62	5156.20
585.78	5022.79
585.94	5027.47
586.10	5181.95
586.26	5125.77
586.42	5172.58
586.58	5146.84
586.74	5359.83
586.90	5219.39
587.06	5172.58
587.22	5060.24
587.38	5067.26
587.54	4959.60
587.70	4940.87
587.86	4779.37
588.02	4559.36
588.18	4538.30
588.34	4271.48
588.49	4074.87
588.65	3868.91
588.81	3698.05
588.97	3674.64
589.13	3889.97
589.29	3754.22
589.45	3627.83
589.61	3754.22
589.77	3969.55
589.93	3992.95
590.08	4325.31
590.24	4205.94
590.40	4465.74
590.56	4531.28
590.72	4379.14
590.88	4292.54
591.04	4386.16
591.20	4241.05
591.35	4416.59
591.51	4201.26
591.67	4105.30
591.83	4140.41
591.99	4269.14
592.15	4156.79
592.31	4407.23
592.46	4440.00
592.62	4550.00
592.78	4449.36
592.94	4493.83
593.10	4493.83
593.26	4737.24
593.41	4575.75
593.57	4582.77
593.73	4372.12
593.89	4245.73
594.05	4091.26
594.20	4007.00
594.36	3934.44
594.52	3957.85
594.68	4117.00
594.84	4170.83
594.99	4423.61
595.15	4470.42
595.31	4454.04
595.47	4442.34
595.62	4409.57
595.78	4531.28
595.94	4496.17
596.10	4465.74
596.25	4475.10
596.41	4353.40
596.57	4297.22
596.73	4386.16
596.88	4404.89
597.04	4587.45
597.20	4571.07
597.36	4362.76
597.51	4325.31
597.67	4360.42
597.83	4477.44
