SpectraSuite Data File
++++++++++++++++++++++++++++++++++++
Date: Fri Oct 04 11:44:26 GMT-05:00 2013
User: price-jones
Dark Spectrum Present: No
Reference Spectrum Present: No
Number of Sampled Component Spectra: 1
Spectrometers: USB2+H05261
Integration Time (usec): 100000 (USB2+H05261)
Spectra Averaged: 1 (USB2+H05261)
Boxcar Smoothing: 0 (USB2+H05261)
Correct for Electrical Dark: No (USB2+H05261)
Strobe/Lamp Enabled: No (USB2+H05261)
Correct for Detector Non-linearity: No (USB2+H05261)
Correct for Stray Light: No (USB2+H05261)
Number of Pixels in Processed Spectrum: 2048
>>>>>Begin Processed Spectral Data<<<<<
365.73	0.00
365.92	0.00
366.12	0.00
366.32	0.00
366.52	0.00
366.72	7.02
366.91	0.00
367.11	0.00
367.31	0.00
367.51	0.00
367.70	0.00
367.90	0.00
368.10	0.00
368.30	0.00
368.49	0.00
368.69	0.00
368.89	0.00
369.09	0.00
369.28	0.00
369.48	0.00
369.68	0.00
369.87	7.02
370.07	4.68
370.27	0.00
370.47	46.81
370.66	81.92
370.86	133.41
371.06	201.29
371.25	196.60
371.45	180.22
371.65	201.29
371.84	184.90
372.04	208.31
372.24	161.50
372.44	227.03
372.63	280.86
372.83	194.26
373.03	147.45
373.22	194.26
373.42	149.79
373.62	210.65
373.81	222.35
374.01	175.54
374.21	156.82
374.40	147.45
374.60	236.39
374.79	248.10
374.99	231.71
375.19	252.78
375.38	220.01
375.58	238.73
375.78	322.99
375.97	294.91
376.17	245.76
376.37	196.60
376.56	269.16
376.76	241.08
376.95	299.59
377.15	287.89
377.35	224.69
377.54	301.93
377.74	259.80
377.93	224.69
378.13	332.36
378.33	220.01
378.52	280.86
378.72	255.12
378.91	269.16
379.11	264.48
379.31	217.67
379.50	152.13
379.70	264.48
379.89	266.82
380.09	280.86
380.28	308.95
380.48	210.65
380.68	355.76
380.87	264.48
381.07	205.97
381.26	320.65
381.46	315.97
381.65	187.24
381.85	208.31
382.04	201.29
382.24	191.92
382.43	180.22
382.63	208.31
382.83	201.29
383.02	236.39
383.22	217.67
383.41	212.99
383.61	252.78
383.80	191.92
384.00	203.63
384.19	283.20
384.39	201.29
384.58	292.57
384.78	269.16
384.97	224.69
385.17	259.80
385.36	191.92
385.56	327.68
385.75	203.63
385.95	276.18
386.14	236.39
386.34	257.46
386.53	173.20
386.72	220.01
386.92	353.42
387.11	283.20
387.31	269.16
387.50	182.56
387.70	224.69
387.89	351.08
388.09	241.08
388.28	196.60
388.48	248.10
388.67	273.84
388.86	210.65
389.06	332.36
389.25	299.59
389.45	322.99
389.64	304.27
389.84	353.42
390.03	292.57
390.22	365.12
390.42	334.70
390.61	346.40
390.81	292.57
391.00	330.02
391.19	355.76
391.39	414.27
391.58	346.40
391.78	294.91
391.97	297.25
392.16	238.73
392.36	322.99
392.55	262.14
392.75	189.58
392.94	241.08
393.13	245.76
393.33	135.75
393.52	189.58
393.71	285.55
393.91	308.95
394.10	301.93
394.29	311.29
394.49	390.87
394.68	365.12
394.88	283.20
395.07	381.51
395.26	409.59
395.46	374.49
395.65	353.42
395.84	344.06
396.04	369.80
396.23	280.86
396.42	170.86
396.62	217.67
396.81	227.03
397.00	198.95
397.19	294.91
397.39	409.59
397.58	409.59
397.77	358.10
397.97	397.89
398.16	388.53
398.35	465.77
398.55	451.72
398.74	381.51
398.93	472.79
399.12	442.36
399.32	428.32
399.51	400.23
399.70	449.38
399.90	479.81
400.09	521.94
400.28	521.94
400.47	381.51
400.67	454.06
400.86	470.45
401.05	624.92
401.24	451.72
401.44	519.60
401.63	561.73
401.82	500.87
402.01	468.11
402.21	461.09
402.40	475.13
402.59	414.27
402.78	409.59
402.97	440.02
403.17	500.87
403.36	519.60
403.55	477.47
403.74	545.34
403.93	564.07
404.13	524.28
404.32	535.98
404.51	526.62
404.70	540.66
404.89	475.13
405.09	559.39
405.28	507.90
405.47	440.02
405.66	491.51
405.85	456.40
406.05	468.11
406.24	552.37
406.43	402.57
406.62	545.34
406.81	496.19
407.00	526.62
407.20	491.51
407.39	479.81
407.58	435.34
407.77	496.19
407.96	545.34
408.15	512.58
408.34	517.26
408.54	505.56
408.73	564.07
408.92	559.39
409.11	496.19
409.30	533.64
409.49	418.96
409.68	500.87
409.87	440.02
410.07	458.74
410.26	472.79
410.45	559.39
410.64	564.07
410.83	554.71
411.02	547.69
411.21	540.66
411.40	533.64
411.59	559.39
411.78	580.45
411.98	531.30
412.17	610.88
412.36	561.73
412.55	582.79
412.74	578.11
412.93	512.58
413.12	582.79
413.31	587.47
413.50	578.11
413.69	585.13
413.88	711.52
414.07	540.66
414.26	559.39
414.45	624.92
414.64	592.16
414.83	655.35
415.02	615.56
415.22	587.47
415.41	601.52
415.60	643.65
415.79	641.31
415.98	681.10
416.17	613.22
416.36	603.86
416.55	676.41
416.74	575.77
416.93	706.84
417.12	564.07
417.31	653.01
417.50	582.79
417.69	732.59
417.88	629.60
418.07	681.10
418.26	664.71
418.45	643.65
418.64	681.10
418.83	606.20
419.02	685.78
419.21	746.63
419.39	610.88
419.58	587.47
419.77	601.52
419.96	622.58
420.15	699.82
420.34	720.88
420.53	730.25
420.72	779.40
420.91	716.20
421.10	636.63
421.29	645.99
421.48	734.93
421.67	793.44
421.86	648.33
422.05	667.05
422.24	596.84
422.43	582.79
422.61	589.82
422.80	699.82
422.99	645.99
423.18	711.52
423.37	758.33
423.56	559.39
423.75	645.99
423.94	688.12
424.13	571.09
424.32	615.56
424.50	671.73
424.69	627.26
424.88	648.33
425.07	613.22
425.26	629.60
425.45	622.58
425.64	603.86
425.83	575.77
426.01	655.35
426.20	671.73
426.39	688.12
426.58	624.92
426.77	615.56
426.96	505.56
427.15	554.71
427.33	667.05
427.52	695.14
427.71	706.84
427.90	648.33
428.09	540.66
428.28	575.77
428.46	592.16
428.65	596.84
428.84	650.67
429.03	606.20
429.22	559.39
429.40	559.39
429.59	468.11
429.78	451.72
429.97	543.00
430.16	491.51
430.34	538.32
430.53	510.24
430.72	519.60
430.91	601.52
431.10	606.20
431.28	655.35
431.47	730.25
431.66	720.88
431.85	620.24
432.03	552.37
432.22	688.12
432.41	662.37
432.60	638.97
432.79	664.71
432.97	711.52
433.16	610.88
433.35	603.86
433.54	547.69
433.72	610.88
433.91	650.67
434.10	676.41
434.28	638.97
434.47	676.41
434.66	744.29
434.85	688.12
435.03	760.67
435.22	828.55
435.41	1095.37
435.59	987.71
435.78	947.92
435.97	856.64
436.16	767.70
436.34	774.72
436.53	791.10
436.72	793.44
436.90	809.83
437.09	751.31
437.28	645.99
437.46	622.58
437.65	744.29
437.84	669.39
438.02	690.46
438.21	533.64
438.40	671.73
438.58	678.76
438.77	755.99
438.96	695.14
439.14	676.41
439.33	821.53
439.52	718.54
439.70	770.04
439.89	713.86
440.08	732.59
440.26	725.57
440.45	765.36
440.63	720.88
440.82	828.55
441.01	727.91
441.19	767.70
441.38	765.36
441.57	812.17
441.75	908.13
441.94	837.91
442.12	702.16
442.31	786.42
442.50	788.76
442.68	873.02
442.87	854.30
443.05	837.91
443.24	837.91
443.43	901.11
443.61	882.38
443.80	980.68
443.98	814.51
444.17	709.18
444.35	868.34
444.54	880.04
444.73	870.68
444.91	861.32
445.10	866.00
445.28	912.81
445.47	763.01
445.65	835.57
445.84	767.70
446.02	847.27
446.21	823.87
446.39	833.23
446.58	795.78
446.77	880.04
446.95	891.74
447.14	856.64
447.32	882.38
447.51	880.04
447.69	849.61
447.88	882.38
448.06	947.92
448.25	882.38
448.43	837.91
448.62	798.12
448.80	826.21
448.99	940.90
449.17	767.70
449.36	798.12
449.54	966.64
449.73	947.92
449.91	905.79
450.10	978.34
450.28	1006.43
450.46	1069.62
450.65	903.45
450.83	945.58
451.02	870.68
451.20	898.77
451.39	912.81
451.57	877.70
451.76	805.14
451.94	781.74
452.13	929.19
452.31	894.08
452.49	823.87
452.68	758.33
452.86	809.83
453.05	887.06
453.23	917.49
453.42	842.59
453.60	877.70
453.78	833.23
453.97	798.12
454.15	976.00
454.34	851.96
454.52	819.19
454.70	980.68
454.89	840.25
455.07	917.49
455.26	884.72
455.44	919.83
455.62	898.77
455.81	947.92
455.99	987.71
456.17	858.98
456.36	877.70
456.54	961.96
456.73	954.94
456.91	905.79
457.09	919.83
457.28	1034.52
457.46	957.28
457.64	940.90
457.83	912.81
458.01	924.51
458.19	947.92
458.38	924.51
458.56	980.68
458.74	917.49
458.93	952.60
459.11	983.02
459.29	805.14
459.48	940.90
459.66	889.40
459.84	1013.45
460.03	1078.99
460.21	985.37
460.39	997.07
460.57	959.62
460.76	1004.09
460.94	940.90
461.12	915.15
461.31	990.05
461.49	959.62
461.67	903.45
461.85	971.32
462.04	964.30
462.22	1514.33
462.40	1022.81
462.59	1078.99
462.77	985.37
462.95	1043.88
463.13	976.00
463.32	940.90
463.50	994.73
463.68	1062.60
463.86	1013.45
464.05	940.90
464.23	1006.43
464.41	905.79
464.59	947.92
464.78	992.39
464.96	896.43
465.14	924.51
465.32	903.45
465.50	882.38
465.69	1004.09
465.87	922.17
466.05	971.32
466.23	842.59
466.41	936.21
466.60	945.58
466.78	997.07
466.96	990.05
467.14	943.24
467.32	1020.47
467.51	959.62
467.69	887.06
467.87	961.96
468.05	945.58
468.23	987.71
468.41	987.71
468.60	931.53
468.78	938.55
468.96	1020.47
469.14	1111.75
469.32	931.53
469.50	933.87
469.69	912.81
469.87	908.13
470.05	997.07
470.23	947.92
470.41	898.77
470.59	976.00
470.77	950.26
470.95	950.26
471.14	959.62
471.32	924.51
471.50	1064.94
471.68	1025.15
471.86	1048.56
472.04	971.32
472.22	954.94
472.40	968.98
472.58	968.98
472.77	1004.09
472.95	973.66
473.13	1039.20
473.31	1006.43
473.49	978.34
473.67	905.79
473.85	992.39
474.03	1027.50
474.21	1057.92
474.39	1076.65
474.57	1008.77
474.75	1100.05
474.93	1013.45
475.12	945.58
475.30	964.30
475.48	1011.11
475.66	1020.47
475.84	1048.56
476.02	971.32
476.20	1060.26
476.38	1071.97
476.56	1034.52
476.74	1039.20
476.92	1137.50
477.10	1114.10
477.28	1167.93
477.46	1130.48
477.64	1057.92
477.82	1224.10
478.00	1121.12
478.18	1048.56
478.36	1029.84
478.54	1076.65
478.72	1006.43
478.90	1118.78
479.08	1172.61
479.26	1191.33
479.44	1275.59
479.62	1107.07
479.80	1179.63
479.98	1217.08
480.16	1160.91
480.34	1191.33
480.52	1125.80
480.70	1186.65
480.88	1137.50
481.06	1184.31
481.24	1273.25
481.41	1198.35
481.59	1266.23
481.77	1217.08
481.95	1212.40
482.13	1186.65
482.31	1254.53
482.49	1282.61
482.67	1313.04
482.85	1303.68
483.03	1376.24
483.21	1348.15
483.39	1245.16
483.57	1376.24
483.74	1242.82
483.92	1294.32
484.10	1261.55
484.28	1280.27
484.46	1315.38
484.64	1263.89
484.82	1352.83
485.00	1252.19
485.18	1261.55
485.35	1249.85
485.53	1226.44
485.71	1074.31
485.89	1018.13
486.07	1086.01
486.25	1261.55
486.43	1228.78
486.61	1336.45
486.78	1277.93
486.96	1214.74
487.14	1401.98
487.32	1380.92
487.50	1467.52
487.68	1371.55
487.85	1441.77
488.03	1439.43
488.21	1399.64
488.39	1387.94
488.57	1334.11
488.75	1416.02
488.92	1593.90
489.10	1490.92
489.28	1500.28
489.46	1544.75
489.64	1586.88
489.81	1540.07
489.99	1586.88
490.17	1502.62
490.35	1589.22
490.53	1551.78
490.70	1589.22
490.88	1439.43
491.06	1591.56
491.24	1643.06
491.41	1619.65
491.59	1469.86
491.77	1467.52
491.95	1446.45
492.13	1467.52
492.30	1579.86
492.48	1645.40
492.66	1596.25
492.84	1568.16
493.01	1551.78
493.19	1647.74
493.37	1657.10
493.54	1650.08
493.72	1575.18
493.90	1699.23
494.08	1654.76
494.25	1750.72
494.43	1746.04
494.61	1652.42
494.79	1795.19
494.96	1640.72
495.14	1816.26
495.32	1748.38
495.49	1673.48
495.67	1710.93
495.85	1593.90
496.02	1713.27
496.20	1811.57
496.38	1797.53
496.55	1636.03
496.73	1769.44
496.91	1671.14
497.09	1820.94
497.26	1825.62
497.44	1757.74
497.62	1802.21
497.79	1668.80
497.97	1596.25
498.14	1750.72
498.32	1757.74
498.50	1802.21
498.67	1832.64
498.85	1757.74
499.03	1851.36
499.20	1853.70
499.38	1795.19
499.56	1891.15
499.73	1764.76
499.91	1816.26
500.08	1771.79
500.26	1706.25
500.44	1636.03
500.61	1640.72
500.79	1769.44
500.97	1776.47
501.14	1741.36
501.32	1750.72
501.49	1687.53
501.67	1537.73
501.84	1680.50
502.02	1589.22
502.20	1743.70
502.37	1760.08
502.55	1713.27
502.72	1792.85
502.90	1874.77
503.07	1757.74
503.25	1743.70
503.43	1717.95
503.60	1612.63
503.78	1617.31
503.95	1596.25
504.13	1706.25
504.30	1736.68
504.48	1804.55
504.65	1860.73
504.83	1820.94
505.01	1820.94
505.18	1853.70
505.36	1909.88
505.53	1902.86
505.71	1874.77
505.88	1966.05
506.06	1867.75
506.23	1834.98
506.41	1778.81
506.58	1860.73
506.76	1769.44
506.93	1799.87
507.11	1785.83
507.28	1781.15
507.46	1790.51
507.63	1827.96
507.81	1734.34
507.98	1865.41
508.16	1790.51
508.33	1909.88
508.50	1813.92
508.68	1914.56
508.85	1895.83
509.03	1940.30
509.20	1797.53
509.38	1940.30
509.55	1865.41
509.73	1856.04
509.90	1851.36
510.08	1956.69
510.25	1898.17
510.42	1809.23
510.60	1863.07
510.77	1905.20
510.95	2017.54
511.12	1959.03
511.30	1980.09
511.47	1909.88
511.64	2038.61
511.82	2038.61
511.99	1952.01
512.17	1961.37
512.34	1891.15
512.51	1797.53
512.69	1975.41
512.86	1877.11
513.04	1895.83
513.21	1940.30
513.38	1975.41
513.56	1839.66
513.73	1926.26
513.90	1942.64
514.08	1916.90
514.25	1994.14
514.43	1912.22
514.60	1830.30
514.77	1973.07
514.95	1944.99
515.12	1940.30
515.29	1891.15
515.47	1982.43
515.64	2001.16
515.81	1977.75
515.99	2036.27
516.16	1982.43
516.33	1767.10
516.51	1607.95
516.68	1652.42
516.85	1626.67
517.03	1614.97
517.20	1675.82
517.37	1881.79
517.54	1975.41
517.72	1989.46
517.89	1739.02
518.06	1692.21
518.24	1788.17
518.41	1710.93
518.58	1982.43
518.75	1816.26
518.93	1919.24
519.10	1914.56
519.27	1898.17
519.45	1884.13
519.62	1963.71
519.79	2057.33
519.96	2024.56
520.14	1977.75
520.31	1877.11
520.48	1858.39
520.65	2054.99
520.83	2005.84
521.00	1961.37
521.17	1977.75
521.34	1980.09
521.52	2017.54
521.69	2057.33
521.86	2136.91
522.03	2094.78
522.20	1926.26
522.38	1994.14
522.55	1940.30
522.72	1956.69
522.89	2019.88
523.07	2062.01
523.24	1959.03
523.41	2066.69
523.58	2101.80
523.75	2165.00
523.92	2115.84
524.10	2174.36
524.27	2176.70
524.44	2165.00
524.61	2073.71
524.78	2141.59
524.96	1961.37
525.13	2113.50
525.30	2108.82
525.47	2106.48
525.64	2202.44
525.81	2069.03
525.98	2038.61
526.16	1851.36
526.33	1820.94
526.50	1809.23
526.67	1809.23
526.84	1874.77
527.01	1856.04
527.18	1907.54
527.36	2029.24
527.53	2029.24
527.70	2120.53
527.87	2143.93
528.04	2036.27
528.21	2047.97
528.38	2099.46
528.55	2108.82
528.72	2129.89
528.89	2169.68
529.07	2157.97
529.24	2141.59
529.41	2066.69
529.58	1956.69
529.75	2099.46
529.92	2078.40
530.09	2122.87
530.26	2066.69
530.43	2209.47
530.60	2244.57
530.77	2223.51
530.94	2279.68
531.11	2223.51
531.28	2057.33
531.46	2141.59
531.63	2127.55
531.80	2265.64
531.97	2108.82
532.14	2136.91
532.31	1930.94
532.48	1912.22
532.65	2029.24
532.82	2008.18
532.99	2069.03
533.16	2113.50
533.33	2195.42
533.50	2071.37
533.67	2064.35
533.84	2071.37
534.01	2157.97
534.18	2118.18
534.35	2188.40
534.52	2104.14
534.69	2221.17
534.86	2172.02
535.03	2214.15
535.20	2207.13
535.37	2251.60
535.54	2193.08
535.71	2188.40
535.88	2162.66
536.05	2026.90
536.22	2129.89
536.38	2237.55
536.55	2111.16
536.72	2059.67
536.89	1980.09
537.06	2069.03
537.23	2132.23
537.40	2146.27
537.57	2202.44
537.74	2235.21
537.91	2270.32
538.08	2282.02
538.25	2176.70
538.42	2085.42
538.59	2204.78
538.75	2129.89
538.92	2153.29
539.09	2099.46
539.26	2146.27
539.43	2155.63
539.60	2033.93
539.77	2150.95
539.94	2193.08
540.11	2122.87
540.28	2172.02
540.44	2165.00
540.61	2099.46
540.78	2167.34
540.95	2289.04
541.12	2284.36
541.29	2429.48
541.46	2368.62
541.62	2326.49
541.79	2403.73
541.96	2340.54
542.13	2389.69
542.30	2249.25
542.47	2487.99
542.63	2436.50
542.80	2342.88
542.97	2483.31
543.14	2305.43
543.31	2328.83
543.48	2387.35
543.64	2349.90
543.81	2408.41
543.98	2403.73
544.15	2380.32
544.32	2324.15
544.48	2298.41
544.65	2352.24
544.82	2455.22
544.99	2368.62
545.16	2354.58
545.32	2448.20
545.49	2672.89
545.66	2855.45
545.83	3084.83
546.00	2827.37
546.16	2576.93
546.33	2537.14
546.50	2392.03
546.67	2366.28
546.83	2335.85
547.00	2216.49
547.17	2223.51
547.34	2160.31
547.50	2200.10
547.67	2291.38
547.84	2270.32
548.00	2265.64
548.17	2230.53
548.34	2246.91
548.51	2291.38
548.67	2298.41
548.84	2183.72
549.01	2256.28
549.18	2188.40
549.34	2200.10
549.51	2319.47
549.68	2225.85
549.84	2155.63
550.01	2157.97
550.18	2298.41
550.34	2113.50
550.51	2188.40
550.68	2045.63
550.84	2197.76
551.01	2179.04
551.18	2232.87
551.34	2113.50
551.51	2139.25
551.68	2167.34
551.84	2136.91
552.01	2125.21
552.18	2190.74
552.34	2078.40
552.51	2040.95
552.68	2139.25
552.84	2071.37
553.01	2118.18
553.18	2169.68
553.34	2092.44
553.51	2099.46
553.67	2214.15
553.84	2157.97
554.01	2087.76
554.17	2150.95
554.34	2197.76
554.51	2094.78
554.67	2242.23
554.84	2284.36
555.00	2193.08
555.17	2087.76
555.33	2106.48
555.50	2085.42
555.67	2118.18
555.83	1900.52
556.00	1952.01
556.16	2256.28
556.33	1952.01
556.50	2019.88
556.66	2090.10
556.83	1998.82
556.99	2038.61
557.16	2015.20
557.32	2054.99
557.49	1977.75
557.65	1991.80
557.82	2101.80
557.98	2062.01
558.15	2036.27
558.32	1989.46
558.48	1792.85
558.65	1886.47
558.81	1980.09
558.98	1949.67
559.14	2001.16
559.31	1930.94
559.47	2017.54
559.64	2019.88
559.80	1984.77
559.97	2015.20
560.13	1970.73
560.30	2043.29
560.46	1977.75
560.63	2183.72
560.79	2019.88
560.96	2113.50
561.12	2008.18
561.29	1973.07
561.45	2019.88
561.61	1877.11
561.78	2073.71
561.94	1970.73
562.11	1928.60
562.27	2115.84
562.44	1994.14
562.60	1937.96
562.77	1959.03
562.93	2113.50
563.10	2066.69
563.26	1912.22
563.42	2073.71
563.59	1930.94
563.75	1994.14
563.92	1928.60
564.08	1930.94
564.24	1994.14
564.41	1937.96
564.57	2047.97
564.74	1858.39
564.90	1991.80
565.07	1956.69
565.23	1879.45
565.39	1811.57
565.56	1987.11
565.72	1954.35
565.88	1874.77
566.05	1900.52
566.21	1909.88
566.38	1984.77
566.54	1823.28
566.70	1881.79
566.87	1902.86
567.03	1832.64
567.19	2026.90
567.36	1935.62
567.52	1923.92
567.68	1856.04
567.85	1942.64
568.01	1820.94
568.17	1750.72
568.34	1863.07
568.50	1832.64
568.66	1682.85
568.83	1870.09
568.99	1724.97
569.15	1792.85
569.32	1809.23
569.48	1806.89
569.64	1746.04
569.81	1750.72
569.97	1771.79
570.13	1792.85
570.30	1682.85
570.46	1736.68
570.62	1732.00
570.78	1671.14
570.95	1664.12
571.11	1820.94
571.27	1813.92
571.43	1720.29
571.60	1846.68
571.76	1722.63
571.92	1729.66
572.09	1834.98
572.25	1760.08
572.41	1760.08
572.57	1837.32
572.74	1888.81
572.90	1741.36
573.06	1757.74
573.22	1804.55
573.38	1844.34
573.55	1788.17
573.71	1849.02
573.87	1741.36
574.03	1811.57
574.20	1710.93
574.36	1764.76
574.52	1722.63
574.68	1671.14
574.84	1722.63
575.01	1657.10
575.17	1629.01
575.33	1673.48
575.49	1701.57
575.65	1724.97
575.82	1769.44
575.98	1724.97
576.14	1856.04
576.30	1748.38
576.46	1827.96
576.62	1870.09
576.79	1846.68
576.95	1959.03
577.11	1797.53
577.27	1699.23
577.43	1746.04
577.59	1753.06
577.75	1680.50
577.92	1706.25
578.08	1696.89
578.24	1715.61
578.40	1727.32
578.56	1783.49
578.72	1898.17
578.88	1825.62
579.04	1832.64
579.21	1907.54
579.37	1762.42
579.53	1804.55
579.69	1877.11
579.85	1739.02
580.01	1788.17
580.17	1792.85
580.33	1722.63
580.49	1764.76
580.65	1816.26
580.82	1727.32
580.98	1753.06
581.14	1692.21
581.30	1755.40
581.46	1834.98
581.62	1820.94
581.78	1734.34
581.94	1832.64
582.10	1746.04
582.26	1816.26
582.42	1727.32
582.58	1729.66
582.74	1806.89
582.90	1888.81
583.06	1727.32
583.22	1886.47
583.38	1851.36
583.54	1689.87
583.70	1912.22
583.86	1877.11
584.02	1659.44
584.18	1811.57
584.34	1834.98
584.50	1792.85
584.66	1813.92
584.82	1736.68
584.98	1842.00
585.14	1727.32
585.30	1750.72
585.46	1621.99
585.62	1790.51
585.78	1696.89
585.94	1617.31
586.10	1685.19
586.26	1743.70
586.42	1732.00
586.58	1741.36
586.74	1724.97
586.90	1720.29
587.06	1762.42
587.22	1717.95
587.38	1694.55
587.54	1619.65
587.70	1636.03
587.86	1533.05
588.02	1516.67
588.18	1451.13
588.34	1465.18
588.49	1479.22
588.65	1188.99
588.81	1170.27
588.97	1235.80
589.13	1301.34
589.29	1224.10
589.45	1179.63
589.61	1231.12
589.77	1322.40
589.93	1313.04
590.08	1369.21
590.24	1411.34
590.40	1453.47
590.56	1479.22
590.72	1444.11
590.88	1404.32
591.04	1418.36
591.20	1533.05
591.35	1399.64
591.51	1366.87
591.67	1355.17
591.83	1469.86
591.99	1472.20
592.15	1430.07
592.31	1474.54
592.46	1418.36
592.62	1537.73
592.78	1584.54
592.94	1528.37
593.10	1629.01
593.26	1453.47
593.41	1437.09
593.57	1469.86
593.73	1516.67
593.89	1490.92
594.05	1441.77
594.20	1291.98
594.36	1299.00
594.52	1336.45
594.68	1303.68
594.84	1420.71
594.99	1490.92
595.15	1455.81
595.31	1472.20
595.47	1455.81
595.62	1455.81
595.78	1476.88
595.94	1486.24
596.10	1516.67
596.25	1516.67
596.41	1380.92
596.57	1390.28
596.73	1465.18
596.88	1423.05
597.04	1549.43
597.20	1380.92
597.36	1430.07
597.51	1427.73
597.67	1465.18
597.83	1469.86
597.99	1493.26
598.14	1479.22
598.30	1490.92
598.46	1516.67
598.61	1572.84
598.77	1600.93
598.93	1411.34
599.09	1561.14
599.24	1591.56
599.40	1558.80
599.56	1561.14
599.71	1432.41
599.87	1565.82
600.03	1596.25
600.18	1607.95
600.34	1479.22
600.50	1526.03
600.65	1554.12
600.81	1479.22
600.97	1458.15
601.12	1481.56
601.28	1586.88
601.44	1472.20
601.59	1514.33
601.75	1540.07
601.91	1488.58
602.06	1334.11
