SpectraSuite Data File
++++++++++++++++++++++++++++++++++++
Date: Fri Oct 04 11:44:23 GMT-05:00 2013
User: price-jones
Dark Spectrum Present: No
Reference Spectrum Present: No
Number of Sampled Component Spectra: 1
Spectrometers: USB2+H05261
Integration Time (usec): 100000 (USB2+H05261)
Spectra Averaged: 1 (USB2+H05261)
Boxcar Smoothing: 0 (USB2+H05261)
Correct for Electrical Dark: No (USB2+H05261)
Strobe/Lamp Enabled: No (USB2+H05261)
Correct for Detector Non-linearity: No (USB2+H05261)
Correct for Stray Light: No (USB2+H05261)
Number of Pixels in Processed Spectrum: 2048
>>>>>Begin Processed Spectral Data<<<<<
365.73	46.81
365.92	46.81
366.12	46.81
366.32	0.00
366.52	0.00
366.72	0.00
366.91	0.00
367.11	0.00
367.31	0.00
367.51	0.00
367.70	0.00
367.90	11.70
368.10	0.00
368.30	0.00
368.49	0.00
368.69	0.00
368.89	0.00
369.09	0.00
369.28	0.00
369.48	0.00
369.68	23.41
369.87	16.38
370.07	51.49
370.27	0.00
370.47	95.96
370.66	332.36
370.86	416.62
371.06	498.53
371.25	486.83
371.45	500.87
371.65	484.49
371.84	369.80
372.04	521.94
372.24	440.02
372.44	545.34
372.63	507.90
372.83	517.26
373.03	496.19
373.22	430.66
373.42	489.17
373.62	517.26
373.81	543.00
374.01	493.85
374.21	538.32
374.40	423.64
374.60	547.69
374.79	498.53
374.99	528.96
375.19	585.13
375.38	641.31
375.58	599.18
375.78	552.37
375.97	624.92
376.17	624.92
376.37	601.52
376.56	650.67
376.76	671.73
376.95	671.73
377.15	753.65
377.35	699.82
377.54	744.29
377.74	739.61
377.93	678.76
378.13	713.86
378.33	805.14
378.52	732.59
378.72	690.46
378.91	526.62
379.11	653.01
379.31	564.07
379.50	526.62
379.70	662.37
379.89	716.20
380.09	723.23
380.28	706.84
380.48	734.93
380.68	734.93
380.87	603.86
381.07	674.07
381.26	645.99
381.46	606.20
381.65	531.30
381.85	648.33
382.04	528.96
382.24	503.22
382.43	528.96
382.63	486.83
382.83	526.62
383.02	496.19
383.22	489.17
383.41	435.34
383.61	514.92
383.80	594.50
384.00	592.16
384.19	657.69
384.39	767.70
384.58	763.01
384.78	713.86
384.97	744.29
385.17	638.97
385.36	624.92
385.56	648.33
385.75	634.29
385.95	685.78
386.14	695.14
386.34	641.31
386.53	746.63
386.72	688.12
386.92	706.84
387.11	678.76
387.31	720.88
387.50	730.25
387.70	685.78
387.89	671.73
388.09	755.99
388.28	716.20
388.48	711.52
388.67	814.51
388.86	837.91
389.06	877.70
389.25	908.13
389.45	877.70
389.64	992.39
389.84	912.81
390.03	866.00
390.22	978.34
390.42	908.13
390.61	1018.13
390.81	1043.88
391.00	1069.62
391.19	1013.45
391.39	1015.79
391.58	952.60
391.78	903.45
391.97	905.79
392.16	748.97
392.36	777.06
392.55	631.94
392.75	521.94
392.94	437.68
393.13	524.28
393.33	547.69
393.52	636.63
393.71	748.97
393.91	814.51
394.10	877.70
394.29	901.11
394.49	954.94
394.68	1081.33
394.88	1062.60
395.07	1111.75
395.26	1219.42
395.46	1020.47
395.65	961.96
395.84	835.57
396.04	863.66
396.23	690.46
396.42	650.67
396.62	564.07
396.81	690.46
397.00	805.14
397.19	976.00
397.39	1053.24
397.58	1214.74
397.77	1196.01
397.97	1212.40
398.16	1291.98
398.35	1357.51
398.55	1385.60
398.74	1418.36
398.93	1519.01
399.12	1511.99
399.32	1331.76
399.51	1446.45
399.70	1645.40
399.90	1371.55
400.09	1432.41
400.28	1476.88
400.47	1350.49
400.67	1556.46
400.86	1495.60
401.05	1593.90
401.24	1561.14
401.44	1657.10
401.63	1654.76
401.82	1614.97
402.01	1640.72
402.21	1621.99
402.40	1577.52
402.59	1575.18
402.78	1523.69
402.97	1479.22
403.17	1612.63
403.36	1673.48
403.55	1577.52
403.74	1643.06
403.93	1762.42
404.13	1736.68
404.32	1640.72
404.51	1778.81
404.70	1713.27
404.89	1631.35
405.09	1584.54
405.28	1666.46
405.47	1488.58
405.66	1631.35
405.85	1673.48
406.05	1549.43
406.24	1570.50
406.43	1565.82
406.62	1666.46
406.81	1673.48
407.00	1629.01
407.20	1568.16
407.39	1523.69
407.58	1724.97
407.77	1715.61
407.96	1732.00
408.15	1703.91
408.34	1739.02
408.54	1774.13
408.73	1844.34
408.92	1832.64
409.11	1806.89
409.30	1713.27
409.49	1519.01
409.68	1603.27
409.87	1526.03
410.07	1540.07
410.26	1657.10
410.45	1760.08
410.64	1809.23
410.83	1736.68
411.02	1844.34
411.21	2019.88
411.40	1977.75
411.59	1919.24
411.78	1949.67
411.98	1809.23
412.17	1891.15
412.36	1860.73
412.55	1813.92
412.74	1760.08
412.93	1846.68
413.12	1872.43
413.31	1991.80
413.50	1949.67
413.69	2054.99
413.88	1961.37
414.07	1949.67
414.26	1872.43
414.45	1865.41
414.64	1991.80
414.83	1937.96
415.02	1856.04
415.22	1984.77
415.41	2031.58
415.60	2078.40
415.79	2019.88
415.98	2160.31
416.17	2204.78
416.36	2169.68
416.55	2073.71
416.74	2076.06
416.93	1947.33
417.12	1954.35
417.31	1966.05
417.50	2047.97
417.69	2097.12
417.88	2078.40
418.07	2008.18
418.26	2073.71
418.45	2092.44
418.64	2162.66
418.83	2216.49
419.02	2071.37
419.21	2167.34
419.39	2111.16
419.58	1973.07
419.77	1909.88
419.96	2094.78
420.15	2150.95
420.34	2162.66
420.53	2202.44
420.72	2335.85
420.91	2263.30
421.10	2305.43
421.29	2181.38
421.48	2207.13
421.67	2235.21
421.86	2153.29
422.05	2101.80
422.24	1900.52
422.43	1919.24
422.61	2134.57
422.80	2190.74
422.99	2153.29
423.18	2139.25
423.37	2040.95
423.56	2043.29
423.75	2113.50
423.94	2148.61
424.13	2005.84
424.32	2092.44
424.50	1996.48
424.69	2080.74
424.88	2047.97
425.07	1984.77
425.26	2167.34
425.45	1935.62
425.64	1937.96
425.83	2005.84
426.01	2092.44
426.20	2043.29
426.39	2047.97
426.58	1961.37
426.77	1867.75
426.96	1909.88
427.15	1849.02
427.33	1998.82
427.52	1954.35
427.71	2022.22
427.90	1984.77
428.09	1947.33
428.28	2031.58
428.46	1944.99
428.65	1996.48
428.84	1998.82
429.03	1987.11
429.22	1926.26
429.40	1870.09
429.59	1650.08
429.78	1537.73
429.97	1582.20
430.16	1437.09
430.34	1600.93
430.53	1437.09
430.72	1528.37
430.91	1729.66
431.10	1891.15
431.28	2090.10
431.47	2284.36
431.66	2427.14
431.85	2258.62
432.03	2106.48
432.22	2036.27
432.41	2099.46
432.60	2399.05
432.79	2338.20
432.97	2403.73
433.16	2263.30
433.35	2172.02
433.54	1973.07
433.72	1846.68
433.91	1919.24
434.10	2165.00
434.28	2249.25
434.47	2289.04
434.66	2300.75
434.85	2279.68
435.03	2345.22
435.22	2827.37
435.41	3372.71
435.59	3691.02
435.78	3236.96
435.97	2916.31
436.16	2750.13
436.34	2459.90
436.53	2544.16
436.72	2480.97
436.90	2349.90
437.09	2298.41
437.28	2387.35
437.46	2380.32
437.65	2366.28
437.84	2258.62
438.02	2153.29
438.21	2129.89
438.40	2047.97
438.58	2265.64
438.77	2300.75
438.96	2422.45
439.14	2478.63
439.33	2525.44
439.52	2565.23
439.70	2551.18
439.89	2464.58
440.08	2349.90
440.26	2452.88
440.45	2436.50
440.63	2607.36
440.82	2689.28
441.01	2715.02
441.19	2782.90
441.38	2628.42
441.57	2715.02
441.75	2857.79
441.94	2778.22
442.12	2740.77
442.31	2780.56
442.50	2832.05
442.68	2642.46
442.87	2862.48
443.05	2696.30
443.24	2773.53
443.43	2796.94
443.61	2855.45
443.80	2820.35
443.98	2764.17
444.17	2644.81
444.35	2916.31
444.54	2937.37
444.73	2850.77
444.91	2832.05
445.10	2794.60
445.28	2588.63
445.47	2590.97
445.65	2502.03
445.84	2590.97
446.02	2743.11
446.21	2743.11
446.39	2761.83
446.58	2855.45
446.77	2705.66
446.95	2794.60
447.14	2930.35
447.32	2949.08
447.51	2928.01
447.69	2815.66
447.88	2750.13
448.06	2895.24
448.25	2881.20
448.43	2874.18
448.62	2963.12
448.80	2874.18
448.99	2988.86
449.17	2782.90
449.36	2902.26
449.54	2928.01
449.73	3030.99
449.91	3094.19
450.10	3126.96
450.28	3183.13
450.46	3178.45
450.65	3206.53
450.83	3056.74
451.02	2981.84
451.20	3002.91
451.39	2944.39
451.57	3026.31
451.76	3007.59
451.94	2953.76
452.13	2956.10
452.31	2822.69
452.49	2710.34
452.68	2829.71
452.86	2787.58
453.05	2789.92
453.23	2864.82
453.42	2995.89
453.60	2984.18
453.78	3019.29
453.97	3056.74
454.15	3000.57
454.34	2932.69
454.52	2937.37
454.70	2956.10
454.89	2876.52
455.07	2855.45
455.26	3052.06
455.44	2963.12
455.62	3049.72
455.81	3133.98
455.99	2979.50
456.17	3002.91
456.36	3052.06
456.54	3054.40
456.73	3281.43
456.91	3213.56
457.09	3176.11
457.28	3370.37
457.46	3119.93
457.64	3091.85
457.83	3059.08
458.01	3033.33
458.19	3126.96
458.38	3068.44
458.56	3206.53
458.74	3080.14
458.93	3019.29
459.11	3119.93
459.29	3131.64
459.48	3103.55
459.66	3176.11
459.84	3169.09
460.03	3243.98
460.21	3155.04
460.39	3232.28
460.57	3211.22
460.76	3243.98
460.94	3274.41
461.12	3222.92
461.31	3187.81
461.49	3148.02
461.67	3152.70
461.85	3148.02
462.04	3141.00
462.22	3679.32
462.40	3396.12
462.59	3255.69
462.77	3279.09
462.95	3272.07
463.13	3089.51
463.32	3258.03
463.50	3309.52
463.68	3208.87
463.86	3103.55
464.05	3136.32
464.23	3023.97
464.41	2965.46
464.59	2960.78
464.78	3220.58
464.96	3082.49
465.14	3038.02
465.32	3201.85
465.50	3255.69
465.69	3265.05
465.87	3222.92
466.05	3283.77
466.23	2970.14
466.41	3075.46
466.60	2970.14
466.78	3047.38
466.96	3178.45
467.14	3115.25
467.32	3080.14
467.51	3150.36
467.69	3103.55
467.87	3084.83
468.05	3122.27
468.23	3152.70
468.41	3162.06
468.60	3110.57
468.78	3173.77
468.96	3204.19
469.14	3211.22
469.32	3094.19
469.50	3014.61
469.69	3038.02
469.87	3136.32
470.05	3103.55
470.23	3007.59
470.41	3028.65
470.59	3119.93
470.77	3176.11
470.95	3159.72
471.14	3199.51
471.32	3138.66
471.50	3365.69
471.68	3410.16
471.86	3393.78
472.04	3356.33
472.22	3538.89
472.40	3197.17
472.58	3243.98
472.77	3218.24
472.95	3166.74
473.13	3419.52
473.31	3335.26
473.49	3229.94
473.67	3269.73
473.85	3353.99
474.03	3351.65
474.21	3508.46
474.39	3478.04
474.57	3613.79
474.75	3529.53
474.93	3372.71
475.12	3466.33
475.30	3262.71
475.48	3375.05
475.66	3513.14
475.84	3485.06
476.02	3342.28
476.20	3255.69
476.38	3370.37
476.56	3529.53
476.74	3410.16
476.92	3445.27
477.10	3655.92
477.28	3616.13
477.46	3588.04
477.64	3679.32
477.82	3770.60
478.00	3721.45
478.18	3772.94
478.36	3653.58
478.54	3634.85
478.72	3688.68
478.90	3770.60
479.08	3955.51
479.26	4049.13
479.44	3934.44
479.62	3976.57
479.80	3866.56
479.98	3960.19
480.16	4086.58
480.34	3971.89
480.52	4112.32
480.70	4135.73
480.88	4016.36
481.06	4117.00
481.24	4145.09
481.41	4238.71
481.59	4262.12
481.77	4138.07
481.95	4154.45
482.13	4283.18
482.31	4205.94
482.49	4259.78
482.67	4203.60
482.85	4294.88
483.03	4327.65
483.21	4255.09
483.39	4187.22
483.57	4301.90
483.74	4297.22
483.92	4290.20
484.10	4299.56
484.28	4545.32
484.46	4461.06
484.64	4540.64
484.82	4332.33
485.00	4327.65
485.18	4234.03
485.35	4210.62
485.53	3808.05
485.71	3770.60
485.89	3576.34
486.07	3623.15
486.25	3955.51
486.43	4355.74
486.61	4297.22
486.78	4395.53
486.96	4217.65
487.14	4489.15
487.32	4615.54
487.50	4779.37
487.68	4744.27
487.85	4863.63
488.03	4983.00
488.21	4887.04
488.39	4723.20
488.57	4610.86
488.75	4624.90
488.92	4830.87
489.10	5095.35
489.28	5270.89
489.46	5242.80
489.64	5298.97
489.81	5380.89
489.99	5184.29
490.17	5280.25
490.35	5376.21
490.53	5268.55
490.70	5146.84
490.88	5128.11
491.06	5305.99
491.24	5490.90
491.41	5404.30
491.59	5034.49
491.77	4844.91
491.95	5071.94
492.13	5027.47
492.30	5291.95
492.48	5458.13
492.66	5556.43
492.84	5518.98
493.01	5511.96
493.19	5390.25
493.37	5315.36
493.54	5404.30
493.72	5399.62
493.90	5486.22
494.08	5731.97
494.25	5731.97
494.43	5760.06
494.61	5867.72
494.79	5743.67
494.96	5823.25
495.14	5640.69
495.32	5731.97
495.49	5490.90
495.67	5526.00
495.85	5795.17
496.02	6059.65
496.20	5900.49
496.38	6008.16
496.55	5853.68
496.73	5996.45
496.91	5851.34
497.09	6127.52
497.26	6104.12
497.44	6069.01
497.62	5930.92
497.79	5830.27
497.97	5481.53
498.14	5481.53
498.32	5804.53
498.50	5888.79
498.67	6118.16
498.85	6153.27
499.03	6022.20
499.20	6162.63
499.38	6097.10
499.56	6017.52
499.73	5856.02
499.91	5858.36
500.08	5879.43
500.26	5626.65
500.44	5816.23
500.61	5708.57
500.79	5877.09
500.97	5795.17
501.14	5811.55
501.32	5687.50
501.49	5666.44
501.67	5636.01
501.84	5781.12
502.02	5966.03
502.20	5802.19
502.37	5884.11
502.55	5881.77
502.72	5926.24
502.90	6036.24
503.07	5841.98
503.25	5715.59
503.43	5511.96
503.60	5434.72
503.78	5245.14
503.95	5406.64
504.13	5624.31
504.30	5954.32
504.48	5926.24
504.65	6024.54
504.83	6061.99
505.01	6059.65
505.18	6106.46
505.36	6204.76
505.53	5991.77
505.71	6300.72
505.88	6413.07
506.06	6052.63
506.23	6143.91
506.41	5928.58
506.58	6122.84
506.76	5937.94
506.93	6164.97
507.11	5867.72
507.28	5963.68
507.46	5907.51
507.63	5809.21
507.81	5748.36
507.98	5900.49
508.16	5989.43
508.33	5942.62
508.50	6239.87
508.68	6424.77
508.85	6375.62
509.03	6415.41
509.20	6296.04
509.38	6235.19
509.55	5963.68
509.73	6171.99
509.90	6298.38
510.08	6239.87
510.25	6190.72
510.42	6181.35
510.60	6061.99
510.77	6326.47
510.95	6583.93
511.12	6382.64
511.30	6647.12
511.47	6551.16
511.64	6752.45
511.82	6506.69
511.99	6284.34
512.17	6324.13
512.34	6193.06
512.51	6232.85
512.69	6214.12
512.86	6420.09
513.04	6338.17
513.21	6319.45
513.38	6253.91
513.56	6125.18
513.73	6097.10
513.90	6132.20
514.08	6253.91
514.25	6216.46
514.43	6209.44
514.60	6237.53
514.77	6221.14
514.95	6251.57
515.12	6099.44
515.29	6394.34
515.47	6483.28
515.64	6392.00
515.81	6420.09
515.99	6200.08
516.16	6052.63
516.33	5507.28
516.51	5350.46
516.68	5242.80
516.85	5203.01
517.03	5116.41
517.20	5432.38
517.37	5865.38
517.54	6209.44
517.72	6218.80
517.89	5638.35
518.06	5378.55
518.24	5273.23
518.41	5722.61
518.58	5963.68
518.75	5895.81
518.93	5949.64
519.10	5973.05
519.27	6094.76
519.45	6097.10
519.62	6291.36
519.79	6274.98
519.96	6436.47
520.14	6015.18
520.31	6099.44
520.48	6134.54
520.65	6134.54
520.83	6186.04
521.00	6532.44
521.17	6359.24
521.34	6249.23
521.52	6478.60
521.69	6553.50
521.86	6532.44
522.03	6565.20
522.20	6256.25
522.38	6155.61
522.55	6015.18
522.72	6200.08
522.89	6298.38
523.07	6296.04
523.24	6340.51
523.41	6471.58
523.58	6487.96
523.75	6527.75
523.92	6628.40
524.10	6614.35
524.27	6773.51
524.44	6544.14
524.61	6530.09
524.78	6368.60
524.96	6338.17
525.13	6401.37
525.30	6583.93
525.47	6569.88
525.64	6719.68
525.81	6260.93
525.98	6134.54
526.16	5867.72
526.33	5575.16
526.50	5540.05
526.67	5502.60
526.84	5776.44
527.01	5849.00
527.18	6099.44
527.36	6171.99
527.53	6347.53
527.70	6384.98
527.87	6249.23
528.04	6279.66
528.21	6211.78
528.38	6593.29
528.55	6597.97
528.72	6789.89
528.89	6841.39
529.07	6511.37
529.24	6546.48
529.41	6443.49
529.58	6155.61
529.75	6270.30
529.92	6450.52
530.09	6431.79
530.26	6668.19
530.43	6546.48
530.60	6436.47
530.77	6789.89
530.94	6712.66
531.11	6565.20
531.28	6485.62
531.46	6373.28
531.63	6616.69
531.80	6494.99
531.97	6436.47
532.14	6321.79
532.31	6115.82
532.48	5975.39
532.65	6017.52
532.82	6026.88
532.99	6427.11
533.16	6478.60
533.33	6551.16
533.50	6370.94
533.67	6427.11
533.84	6347.53
534.01	6239.87
534.18	6438.81
534.35	6321.79
534.52	6518.39
534.69	6654.14
534.86	6464.56
535.03	6506.69
535.20	6647.12
535.37	6722.02
535.54	6892.88
535.71	6588.61
535.88	6724.36
536.05	6574.56
536.22	6394.34
536.38	6361.58
536.55	6232.85
536.72	6319.45
536.89	6090.07
537.06	6354.55
537.23	6604.99
537.40	6637.76
537.57	6506.69
537.74	6583.93
537.91	6619.04
538.08	6328.81
538.25	6595.63
538.42	6696.27
538.59	6424.77
538.75	6480.94
538.92	6342.85
539.09	6321.79
539.26	6305.40
539.43	6483.28
539.60	6260.93
539.77	6305.40
539.94	6621.38
540.11	6387.32
540.28	6380.30
540.44	6303.06
540.61	6399.02
540.78	6480.94
540.95	6630.74
541.12	6871.81
541.29	6981.82
541.46	7234.60
541.62	7386.73
541.79	7150.34
541.96	6916.28
542.13	7002.88
542.30	7089.48
542.47	7089.48
542.63	6944.37
542.80	6715.00
542.97	6855.43
543.14	6794.58
543.31	6677.55
543.48	6810.96
543.64	7033.31
543.81	7133.95
543.98	7162.04
544.15	6979.48
544.32	7066.08
544.48	6724.36
544.65	6904.58
544.82	7089.48
544.99	6832.02
545.16	7005.22
545.32	6974.80
545.49	7691.00
545.66	8688.07
545.83	9212.35
546.00	8601.47
546.16	7915.69
546.33	7346.94
546.50	7084.80
546.67	7080.12
546.83	6647.12
547.00	6689.25
547.17	6672.87
547.34	6476.26
547.50	6450.52
547.67	6572.22
547.84	6729.04
548.00	6455.20
548.17	6682.23
548.34	6832.02
548.51	6546.48
548.67	6759.47
548.84	6604.99
549.01	6483.28
549.18	6455.20
549.34	6590.95
549.51	6429.45
549.68	6356.90
549.84	6434.13
550.01	6382.64
550.18	6370.94
550.34	6307.74
550.51	6443.49
550.68	6356.90
550.84	6139.23
551.01	6265.61
551.18	6253.91
551.34	6143.91
551.51	6258.59
551.68	6384.98
551.84	6368.60
552.01	6267.95
552.18	6249.23
552.34	6162.63
552.51	6090.07
552.68	6040.92
552.84	6181.35
553.01	6099.44
553.18	6157.95
553.34	6239.87
553.51	6225.82
553.67	6417.75
553.84	6380.30
554.01	6209.44
554.17	6153.27
554.34	6181.35
554.51	6193.06
554.67	6228.17
554.84	6258.59
555.00	6169.65
555.17	6003.47
555.33	6150.93
555.50	6342.85
555.67	6155.61
555.83	6101.78
556.00	6052.63
556.16	6083.05
556.33	5942.62
556.50	5750.70
556.66	5968.37
556.83	5898.15
556.99	5837.30
557.16	5982.41
557.32	5846.66
557.49	5963.68
557.65	5914.53
557.82	5949.64
557.98	5865.38
558.15	5774.10
558.32	5671.12
558.48	5493.24
558.65	5504.94
558.81	5589.20
558.98	5507.28
559.14	5596.22
559.31	5603.24
559.47	5715.59
559.64	5617.29
559.80	5638.35
559.97	5729.63
560.13	5645.37
560.30	5856.02
560.46	5933.26
560.63	5984.75
560.79	6087.73
560.96	5818.57
561.12	5959.00
561.29	5692.18
561.45	5537.71
561.61	5762.40
561.78	5851.34
561.94	5643.03
562.11	5755.38
562.27	5652.39
562.44	5729.63
562.60	5809.21
562.77	5778.78
562.93	5928.58
563.10	5909.85
563.26	5790.49
563.42	5652.39
563.59	5792.83
563.75	5561.11
563.92	5738.99
564.08	5636.01
564.24	5706.23
564.41	5774.10
564.57	5654.73
564.74	5554.09
564.90	5650.05
565.07	5612.60
565.23	5486.22
565.39	5420.68
565.56	5408.98
565.72	5270.89
565.88	5343.44
566.05	5406.64
566.21	5577.50
566.38	5570.48
566.54	5357.49
566.70	5668.78
566.87	5621.97
567.03	5610.26
567.19	5657.07
567.36	5472.17
567.52	5509.62
567.68	5467.49
567.85	5256.84
568.01	5397.28
568.17	5057.90
568.34	5114.07
568.50	4950.23
568.66	5085.98
568.83	5238.12
568.99	5144.50
569.15	5348.12
569.32	5135.14
569.48	5163.22
569.64	5135.14
569.81	5032.15
569.97	5053.22
570.13	5121.09
570.30	5090.67
570.46	4999.38
570.62	4926.83
570.78	5067.26
570.95	4891.72
571.11	5111.73
571.27	5053.22
571.43	4980.66
571.60	4987.68
571.76	5172.58
571.92	5090.67
572.09	5114.07
572.25	5195.99
572.41	5116.41
572.57	5231.10
572.74	5341.10
572.90	5287.27
573.06	5191.31
573.22	5252.16
573.38	5195.99
573.55	5057.90
573.71	5165.56
573.87	5158.54
574.03	5055.56
574.20	5081.30
574.36	5067.26
574.52	5064.92
574.68	5006.41
574.84	5069.60
575.01	4823.84
575.17	4835.55
575.33	4908.10
575.49	5121.09
575.65	4931.51
575.82	5027.47
575.98	4828.53
576.14	5013.43
576.30	5163.22
576.46	5437.06
576.62	5488.56
576.79	5589.20
576.95	5462.81
577.11	5137.48
577.27	4983.00
577.43	5071.94
577.59	5109.39
577.75	4868.31
577.92	4842.57
578.08	4791.08
578.24	4774.69
578.40	4844.91
578.56	5114.07
578.72	5338.76
578.88	5390.25
579.04	5263.86
579.21	5205.35
579.37	5153.86
579.53	5064.92
579.69	5041.51
579.85	5076.62
580.01	5320.04
580.17	5217.05
580.33	5111.73
580.49	5097.69
580.65	5018.11
580.82	5228.76
580.98	5118.75
581.14	4999.38
581.30	5022.79
581.46	5172.58
581.62	5146.84
581.78	5167.90
581.94	5298.97
582.10	5177.26
582.26	5214.71
582.42	5261.52
582.58	5123.43
582.74	5200.67
582.90	5163.22
583.06	5181.95
583.22	5144.50
583.38	5111.73
583.54	5167.90
583.70	5240.46
583.86	5207.69
584.02	5219.39
584.18	5303.65
584.34	5167.90
584.50	5144.50
584.66	5100.03
584.82	5060.24
584.98	5022.79
585.14	4980.66
585.30	5001.72
585.46	4821.50
585.62	4840.23
585.78	4739.58
585.94	4744.27
586.10	4891.72
586.26	4901.08
586.42	4999.38
586.58	4997.04
586.74	5095.35
586.90	5039.17
587.06	5078.96
587.22	5071.94
587.38	4933.85
587.54	4847.25
587.70	4723.20
587.86	4418.93
588.02	4374.46
588.18	4231.69
588.34	4170.83
588.49	3946.14
588.65	3576.34
588.81	3543.57
588.97	3496.76
589.13	3602.08
589.29	3576.34
589.45	3459.31
589.61	3536.55
589.77	3808.05
589.93	3784.65
590.08	3861.88
590.24	4114.66
590.40	4131.05
590.56	4074.87
590.72	4212.96
590.88	4049.13
591.04	4074.87
591.20	4154.45
591.35	3840.82
591.51	3971.89
591.67	3899.33
591.83	4065.51
591.99	3864.22
592.15	4053.81
592.31	4107.64
592.46	4276.16
592.62	4351.06
592.78	4348.72
592.94	4351.06
593.10	4386.16
593.26	4397.87
593.41	4627.24
593.57	4437.66
593.73	4196.58
593.89	4046.79
594.05	3859.54
594.20	3803.37
594.36	3808.05
594.52	3728.47
594.68	3765.92
594.84	3847.84
594.99	4049.13
595.15	4112.32
595.31	4264.46
595.47	4086.58
595.62	4159.13
595.78	4121.68
595.94	4327.65
596.10	4294.88
596.25	4203.60
596.41	4126.36
596.57	3929.76
596.73	4166.15
596.88	4166.15
597.04	4187.22
597.20	4189.56
597.36	4014.02
597.51	4100.62
597.67	4159.13
