SpectraSuite Data File
++++++++++++++++++++++++++++++++++++
Date: Fri Oct 04 11:44:23 GMT-05:00 2013
User: price-jones
Dark Spectrum Present: No
Reference Spectrum Present: No
Number of Sampled Component Spectra: 1
Spectrometers: USB2+H05261
Integration Time (usec): 100000 (USB2+H05261)
Spectra Averaged: 1 (USB2+H05261)
Boxcar Smoothing: 0 (USB2+H05261)
Correct for Electrical Dark: No (USB2+H05261)
Strobe/Lamp Enabled: No (USB2+H05261)
Correct for Detector Non-linearity: No (USB2+H05261)
Correct for Stray Light: No (USB2+H05261)
Number of Pixels in Processed Spectrum: 2048
>>>>>Begin Processed Spectral Data<<<<<
365.73	32.77
365.92	32.77
366.12	32.77
366.32	0.00
366.52	0.00
366.72	7.02
366.91	0.00
367.11	0.00
367.31	0.00
367.51	0.00
367.70	0.00
367.90	0.00
368.10	0.00
368.30	0.00
368.49	0.00
368.69	0.00
368.89	0.00
369.09	0.00
369.28	0.00
369.48	0.00
369.68	0.00
369.87	0.00
370.07	0.00
370.27	0.00
370.47	81.92
370.66	337.04
370.86	376.83
371.06	376.83
371.25	444.70
371.45	437.68
371.65	482.15
371.84	360.44
372.04	332.36
372.24	461.09
372.44	451.72
372.63	407.25
372.83	533.64
373.03	414.27
373.22	353.42
373.42	430.66
373.62	421.30
373.81	498.53
374.01	491.51
374.21	486.83
374.40	435.34
374.60	550.03
374.79	428.32
374.99	545.34
375.19	545.34
375.38	482.15
375.58	524.28
375.78	547.69
375.97	454.06
376.17	540.66
376.37	601.52
376.56	524.28
376.76	561.73
376.95	554.71
377.15	559.39
377.35	624.92
377.54	690.46
377.74	678.76
377.93	634.29
378.13	610.88
378.33	573.43
378.52	592.16
378.72	631.94
378.91	627.26
379.11	580.45
379.31	557.05
379.50	573.43
379.70	589.82
379.89	599.18
380.09	594.50
380.28	676.41
380.48	624.92
380.68	571.09
380.87	653.01
381.07	554.71
381.26	564.07
381.46	662.37
381.65	566.41
381.85	503.22
382.04	463.43
382.24	468.11
382.43	461.09
382.63	388.53
382.83	470.45
383.02	486.83
383.22	500.87
383.41	355.76
383.61	458.74
383.80	421.30
384.00	491.51
384.19	545.34
384.39	683.44
384.58	547.69
384.78	596.84
384.97	582.79
385.17	503.22
385.36	653.01
385.56	484.49
385.75	524.28
385.95	613.22
386.14	638.97
386.34	589.82
386.53	709.18
386.72	643.65
386.92	585.13
387.11	578.11
387.31	699.82
387.50	641.31
387.70	648.33
387.89	596.84
388.09	676.41
388.28	540.66
388.48	613.22
388.67	699.82
388.86	711.52
389.06	858.98
389.25	809.83
389.45	814.51
389.64	734.93
389.84	755.99
390.03	739.61
390.22	720.88
390.42	851.96
390.61	844.93
390.81	849.61
391.00	985.37
391.19	940.90
391.39	863.66
391.58	805.14
391.78	755.99
391.97	784.08
392.16	643.65
392.36	681.10
392.55	599.18
392.75	425.98
392.94	390.87
393.13	404.91
393.33	454.06
393.52	489.17
393.71	704.50
393.91	709.18
394.10	802.80
394.29	856.64
394.49	880.04
394.68	983.02
394.88	936.21
395.07	1062.60
395.26	924.51
395.46	863.66
395.65	868.34
395.84	784.08
396.04	723.23
396.23	620.24
396.42	484.49
396.62	503.22
396.81	608.54
397.00	704.50
397.19	802.80
397.39	931.53
397.58	1055.58
397.77	1032.18
397.97	1039.20
398.16	1170.27
398.35	1158.57
398.55	1207.72
398.74	1132.82
398.93	1233.46
399.12	1306.02
399.32	1196.01
399.51	1294.32
399.70	1287.29
399.90	1289.64
400.09	1245.16
400.28	1320.06
400.47	1226.44
400.67	1448.79
400.86	1451.13
401.05	1322.40
401.24	1296.66
401.44	1324.74
401.63	1324.74
401.82	1490.92
402.01	1465.18
402.21	1380.92
402.40	1448.79
402.59	1324.74
402.78	1366.87
402.97	1287.29
403.17	1233.46
403.36	1371.55
403.55	1404.32
403.74	1504.96
403.93	1551.78
404.13	1364.53
404.32	1350.49
404.51	1474.54
404.70	1516.67
404.89	1519.01
405.09	1394.96
405.28	1423.05
405.47	1401.98
405.66	1320.06
405.85	1322.40
406.05	1284.95
406.24	1350.49
406.43	1303.68
406.62	1437.09
406.81	1483.90
407.00	1371.55
407.20	1343.47
407.39	1383.26
407.58	1467.52
407.77	1519.01
407.96	1490.92
408.15	1554.12
408.34	1561.14
408.54	1593.90
408.73	1591.56
408.92	1598.59
409.11	1596.25
409.30	1551.78
409.49	1392.62
409.68	1322.40
409.87	1282.61
410.07	1315.38
410.26	1462.83
410.45	1547.09
410.64	1514.33
410.83	1598.59
411.02	1533.05
411.21	1673.48
411.40	1643.06
411.59	1619.65
411.78	1589.22
411.98	1624.33
412.17	1645.40
412.36	1671.14
412.55	1591.56
412.74	1659.44
412.93	1612.63
413.12	1654.76
413.31	1652.42
413.50	1806.89
413.69	1802.21
413.88	1867.75
414.07	1668.80
414.26	1696.89
414.45	1666.46
414.64	1792.85
414.83	1764.76
415.02	1724.97
415.22	1664.12
415.41	1767.10
415.60	1720.29
415.79	1834.98
415.98	1956.69
416.17	1856.04
416.36	1858.39
416.55	1778.81
416.74	1746.04
416.93	1713.27
417.12	1703.91
417.31	1771.79
417.50	1732.00
417.69	1811.57
417.88	1734.34
418.07	1877.11
418.26	1713.27
418.45	1764.76
418.64	1788.17
418.83	1837.32
419.02	1956.69
419.21	1898.17
419.39	1820.94
419.58	1755.40
419.77	1753.06
419.96	1790.51
420.15	1811.57
420.34	1888.81
420.53	1940.30
420.72	1975.41
420.91	2059.67
421.10	1980.09
421.29	1984.77
421.48	1963.71
421.67	1984.77
421.86	1942.64
422.05	1811.57
422.24	1678.16
422.43	1605.61
422.61	1713.27
422.80	1867.75
422.99	1877.11
423.18	1867.75
423.37	1872.43
423.56	1879.45
423.75	1755.40
423.94	1830.30
424.13	1713.27
424.32	1792.85
424.50	1769.44
424.69	1790.51
424.88	1746.04
425.07	1727.32
425.26	1739.02
425.45	1863.07
425.64	1671.14
425.83	1689.87
426.01	1879.45
426.20	1919.24
426.39	1884.13
426.58	1788.17
426.77	1664.12
426.96	1610.29
427.15	1647.74
427.33	1685.19
427.52	1830.30
427.71	1846.68
427.90	1884.13
428.09	1701.57
428.28	1788.17
428.46	1692.21
428.65	1694.55
428.84	1692.21
429.03	1774.13
429.22	1631.35
429.40	1706.25
429.59	1476.88
429.78	1392.62
429.97	1249.85
430.16	1336.45
430.34	1259.21
430.53	1205.38
430.72	1329.42
430.91	1511.99
431.10	1720.29
431.28	1926.26
431.47	2106.48
431.66	2090.10
431.85	2008.18
432.03	1778.81
432.22	1734.34
432.41	1816.26
432.60	1966.05
432.79	1977.75
432.97	2125.21
433.16	2059.67
433.35	1905.20
433.54	1734.34
433.72	1619.65
433.91	1654.76
434.10	1741.36
434.28	1966.05
434.47	1966.05
434.66	2015.20
434.85	1982.43
435.03	1991.80
435.22	2228.19
435.41	2359.26
435.59	2509.05
435.78	2347.56
435.97	2176.70
436.16	2335.85
436.34	2132.23
436.53	2120.53
436.72	2207.13
436.90	2132.23
437.09	1963.71
437.28	2076.06
437.46	2003.50
437.65	2143.93
437.84	1940.30
438.02	1802.21
438.21	1867.75
438.40	1804.55
438.58	1977.75
438.77	1994.14
438.96	2073.71
439.14	2253.94
439.33	2221.17
439.52	2125.21
439.70	2183.72
439.89	2148.61
440.08	2029.24
440.26	2078.40
440.45	2225.85
440.63	2324.15
440.82	2333.51
441.01	2511.39
441.19	2340.54
441.38	2300.75
441.57	2415.43
441.75	2443.52
441.94	2396.71
442.12	2502.03
442.31	2466.92
442.50	2455.22
442.68	2429.48
442.87	2457.56
443.05	2305.43
443.24	2457.56
443.43	2499.69
443.61	2513.74
443.80	2466.92
443.98	2298.41
444.17	2413.09
444.35	2595.65
444.54	2499.69
444.73	2560.55
444.91	2452.88
445.10	2324.15
445.28	2279.68
445.47	2312.45
445.65	2221.17
445.84	2246.91
446.02	2401.39
446.21	2469.27
446.39	2380.32
446.58	2499.69
446.77	2551.18
446.95	2600.34
447.14	2567.57
447.32	2656.51
447.51	2555.86
447.69	2565.23
447.88	2502.03
448.06	2441.18
448.25	2525.44
448.43	2487.99
448.62	2462.24
448.80	2431.82
448.99	2700.98
449.17	2609.70
449.36	2523.10
449.54	2724.38
449.73	2511.39
449.91	2691.62
450.10	2682.25
450.28	2736.09
450.46	2876.52
450.65	2841.41
450.83	2691.62
451.02	2834.39
451.20	2712.68
451.39	2796.94
451.57	2675.23
451.76	2576.93
451.94	2612.04
452.13	2672.89
452.31	2436.50
452.49	2380.32
452.68	2415.43
452.86	2438.84
453.05	2539.48
453.23	2483.31
453.42	2565.23
453.60	2672.89
453.78	2621.40
453.97	2546.50
454.15	2583.95
454.34	2555.86
454.52	2546.50
454.70	2647.15
454.89	2619.06
455.07	2534.80
455.26	2609.70
455.44	2670.55
455.62	2719.70
455.81	2773.53
455.99	2747.79
456.17	2719.70
456.36	2764.17
456.54	2708.00
456.73	2703.32
456.91	2773.53
457.09	2757.15
457.28	2920.99
457.46	2864.82
457.64	2726.72
457.83	2679.91
458.01	2574.59
458.19	2656.51
458.38	2691.62
458.56	2731.41
458.74	2607.36
458.93	2670.55
459.11	2785.24
459.29	2803.96
459.48	2789.92
459.66	2686.94
459.84	2738.43
460.03	2700.98
460.21	2733.75
460.39	2810.98
460.57	2792.26
460.76	2972.48
460.94	2888.22
461.12	2862.48
461.31	2946.73
461.49	2759.49
461.67	2853.11
461.85	2867.16
462.04	2782.90
462.22	3337.60
462.40	2916.31
462.59	2892.90
462.77	2750.13
462.95	2813.32
463.13	2848.43
463.32	2906.95
463.50	2930.35
463.68	2738.43
463.86	2696.30
464.05	2736.09
464.23	2661.19
464.41	2822.69
464.59	2635.44
464.78	2806.30
464.96	2712.68
465.14	2731.41
465.32	2820.35
465.50	2806.30
465.69	2885.88
465.87	2827.37
466.05	2724.38
466.23	2717.36
466.41	2569.91
466.60	2621.40
466.78	2637.78
466.96	2612.04
467.14	2754.81
467.32	2719.70
467.51	2757.15
467.69	2736.09
467.87	2703.32
468.05	2700.98
468.23	2761.83
468.41	2747.79
468.60	2684.59
468.78	2740.77
468.96	2703.32
469.14	2829.71
469.32	2792.26
469.50	2682.25
469.69	2759.49
469.87	2761.83
470.05	2633.10
470.23	2621.40
470.41	2649.49
470.59	2712.68
470.77	2672.89
470.95	2757.15
471.14	2846.09
471.32	2789.92
471.50	3007.59
471.68	3002.91
471.86	2970.14
472.04	2920.99
472.22	3112.91
472.40	2974.82
472.58	2827.37
472.77	2796.94
472.95	2810.98
473.13	3073.12
473.31	2874.18
473.49	2867.16
473.67	2918.65
473.85	2967.80
474.03	3070.78
474.21	3084.83
474.39	3061.42
474.57	3110.57
474.75	3038.02
474.93	2984.18
475.12	2885.88
475.30	3019.29
475.48	3019.29
475.66	3014.61
475.84	2967.80
476.02	2984.18
476.20	2979.50
476.38	2972.48
476.56	3124.62
476.74	3173.77
476.92	3056.74
477.10	3213.56
477.28	3234.62
477.46	3192.49
477.64	3211.22
477.82	3339.94
478.00	3335.26
478.18	3318.88
478.36	3141.00
478.54	3246.32
478.72	3190.15
478.90	3382.07
479.08	3602.08
479.26	3463.99
479.44	3487.40
479.62	3342.28
479.80	3433.57
479.98	3538.89
480.16	3606.77
480.34	3597.40
480.52	3538.89
480.70	3609.11
480.88	3461.65
481.06	3492.08
481.24	3669.96
481.41	3576.34
481.59	3609.11
481.77	3789.33
481.95	3756.56
482.13	3702.73
482.31	3679.32
482.49	3648.90
482.67	3667.62
482.85	3702.73
483.03	3779.97
483.21	3709.75
483.39	3915.72
483.57	3728.47
483.74	3805.71
483.92	3758.90
484.10	3775.28
484.28	3948.48
484.46	3782.31
484.64	3801.03
484.82	3953.16
485.00	3887.63
485.18	3904.01
485.35	3681.66
485.53	3506.12
485.71	3133.98
485.89	3091.85
486.07	3157.38
486.25	3405.48
486.43	3749.54
486.61	3761.24
486.78	3819.75
486.96	3742.52
487.14	3838.48
487.32	3922.74
487.50	4035.08
487.68	4138.07
487.85	4290.20
488.03	4421.27
488.21	4198.92
488.39	4241.05
488.57	4037.42
488.75	3887.63
488.92	4238.71
489.10	4283.18
489.28	4521.92
489.46	4447.02
489.64	4613.20
489.81	4643.62
489.99	4606.17
490.17	4526.60
490.35	4589.79
490.53	4645.96
490.70	4564.04
490.88	4545.32
491.06	4564.04
491.24	4678.73
491.41	4594.47
491.59	4329.99
491.77	4182.54
491.95	4329.99
492.13	4542.98
492.30	4582.77
492.48	4774.69
492.66	4755.97
492.84	4891.72
493.01	4877.68
493.19	4741.93
493.37	4758.31
493.54	4620.22
493.72	4802.78
493.90	4901.08
494.08	4947.89
494.25	5043.85
494.43	5050.88
494.61	5022.79
494.79	5121.09
494.96	5125.77
495.14	5078.96
495.32	4868.31
495.49	4917.47
495.67	5060.24
495.85	5081.30
496.02	5097.69
496.20	5392.59
496.38	5219.39
496.55	5151.52
496.73	5364.51
496.91	5266.21
497.09	5259.18
497.26	5511.96
497.44	5313.02
497.62	5128.11
497.79	4997.04
497.97	4865.97
498.14	4943.21
498.32	5170.24
498.50	5139.82
498.67	5195.99
498.85	5348.12
499.03	5348.12
499.20	5137.48
499.38	5364.51
499.56	5413.66
499.73	5387.91
499.91	4992.36
500.08	5217.05
500.26	4791.08
500.44	5064.92
500.61	5097.69
500.79	5048.54
500.97	5036.83
501.14	4868.31
501.32	4901.08
501.49	4933.85
501.67	5116.41
501.84	5041.51
502.02	5055.56
502.20	5210.03
502.37	5245.14
502.55	5186.63
502.72	5308.34
502.90	5483.88
503.07	5277.91
503.25	5170.24
503.43	4802.78
503.60	4777.03
503.78	4585.11
503.95	4779.37
504.13	5081.30
504.30	5362.17
504.48	5298.97
504.65	5387.91
504.83	5289.61
505.01	5710.91
505.18	5273.23
505.36	5427.70
505.53	5575.16
505.71	5551.75
505.88	5619.63
506.06	5584.52
506.23	5441.75
506.41	5273.23
506.58	5533.03
506.76	5483.88
506.93	5352.81
507.11	5263.86
507.28	5240.46
507.46	5362.17
507.63	5217.05
507.81	5132.79
507.98	5076.62
508.16	5392.59
508.33	5439.40
508.50	5556.43
508.68	5659.42
508.85	5692.18
509.03	5671.12
509.20	5661.76
509.38	5483.88
509.55	5296.63
509.73	5336.42
509.90	5497.92
510.08	5666.44
510.25	5621.97
510.42	5476.85
510.60	5526.00
510.77	5303.65
510.95	5603.24
511.12	5729.63
511.30	5893.47
511.47	5951.98
511.64	5933.26
511.82	5783.46
511.99	5621.97
512.17	5628.99
512.34	5439.40
512.51	5373.87
512.69	5631.33
512.86	5647.71
513.04	5650.05
513.21	5509.62
513.38	5589.20
513.56	5589.20
513.73	5207.69
513.90	5411.32
514.08	5378.55
514.25	5320.04
514.43	5401.96
514.60	5586.86
514.77	5523.66
514.95	5430.04
515.12	5305.99
515.29	5701.54
515.47	5671.12
515.64	5722.61
515.81	5685.16
515.99	5764.74
516.16	5324.72
516.33	5071.94
516.51	4870.65
516.68	4793.42
516.85	4535.96
517.03	4510.21
517.20	4919.81
517.37	5364.51
517.54	5682.82
517.72	5547.07
517.89	5130.45
518.06	4762.99
518.24	4755.97
518.41	5069.60
518.58	5303.65
518.75	5343.44
518.93	5413.66
519.10	5462.81
519.27	5453.45
519.45	5544.73
519.62	5643.03
519.79	5689.84
519.96	5746.02
520.14	5650.05
520.31	5547.07
520.48	5521.32
520.65	5523.66
520.83	5575.16
521.00	5937.94
521.17	5696.86
521.34	5666.44
521.52	5696.86
521.69	5811.55
521.86	5853.68
522.03	5916.87
522.20	5614.95
522.38	5437.06
522.55	5282.59
522.72	5495.58
522.89	5582.18
523.07	5736.65
523.24	5500.26
523.41	5668.78
523.58	5720.27
523.75	5884.11
523.92	5844.32
524.10	5874.74
524.27	6043.26
524.44	5837.30
524.61	5895.81
524.78	5778.78
524.96	5877.09
525.13	5820.91
525.30	5991.77
525.47	5968.37
525.64	6059.65
525.81	5863.04
525.98	5514.30
526.16	5385.57
526.33	5130.45
526.50	5071.94
526.67	4943.21
526.84	4870.65
527.01	5341.10
527.18	5427.70
527.36	5483.88
527.53	5671.12
527.70	5940.28
527.87	5727.29
528.04	5717.93
528.21	5617.29
528.38	5881.77
528.55	6052.63
528.72	5991.77
528.89	6010.50
529.07	6017.52
529.24	5820.91
529.41	5790.49
529.58	5724.95
529.75	5521.32
529.92	5689.84
530.09	5746.02
530.26	5783.46
530.43	5926.24
530.60	6052.63
530.77	6003.47
530.94	5963.68
531.11	6033.90
531.28	5846.66
531.46	5942.62
531.63	5919.21
531.80	5982.41
531.97	5799.85
532.14	5586.86
532.31	5434.72
532.48	5399.62
532.65	5320.04
532.82	5376.21
532.99	5624.31
533.16	5834.96
533.33	5912.19
533.50	5895.81
533.67	5849.00
533.84	5764.74
534.01	5781.12
534.18	5799.85
534.35	5701.54
534.52	5762.40
534.69	5902.83
534.86	5856.02
535.03	5891.13
535.20	5973.05
535.37	5987.09
535.54	6125.18
535.71	5940.28
535.88	6061.99
536.05	5837.30
536.22	5738.99
536.38	5654.73
536.55	5753.04
536.72	5685.16
536.89	5439.40
537.06	5598.56
537.23	5863.04
537.40	6010.50
537.57	5893.47
537.74	5954.32
537.91	5982.41
538.08	5888.79
538.25	6022.20
538.42	5895.81
538.59	5895.81
538.75	5764.74
538.92	5743.67
539.09	5860.70
539.26	5664.10
539.43	5741.33
539.60	5600.90
539.77	5582.18
539.94	5664.10
540.11	5500.26
540.28	5378.55
540.44	5507.28
540.61	5586.86
540.78	5607.92
540.95	5741.33
541.12	5827.93
541.29	5987.09
541.46	5921.56
541.62	6066.67
541.79	5980.07
541.96	5912.19
542.13	5881.77
542.30	5937.94
542.47	5863.04
542.63	5933.26
542.80	5809.21
542.97	5877.09
543.14	5870.06
543.31	5746.02
543.48	5741.33
543.64	6071.35
543.81	6155.61
543.98	6120.50
544.15	6071.35
544.32	5675.80
544.48	5877.09
544.65	5884.11
544.82	5844.32
544.99	6047.94
545.16	5970.71
545.32	5827.93
545.49	6134.54
545.66	6878.83
545.83	6834.36
546.00	6499.67
546.16	6143.91
546.33	6087.73
546.50	5966.03
546.67	5991.77
546.83	5895.81
547.00	5865.38
547.17	5678.14
547.34	5500.26
547.50	5570.48
547.67	5584.52
547.84	5689.84
548.00	5886.45
548.17	5809.21
548.34	5678.14
548.51	5792.83
548.67	5865.38
548.84	5879.43
549.01	5851.34
549.18	5647.71
549.34	5746.02
549.51	5729.63
549.68	5781.12
549.84	5668.78
550.01	5600.90
550.18	5729.63
550.34	5809.21
550.51	5645.37
550.68	5795.17
550.84	5497.92
551.01	5455.79
551.18	5694.52
551.34	5518.98
551.51	5678.14
551.68	5937.94
551.84	5628.99
552.01	5558.77
552.18	5671.12
552.34	5619.63
552.51	5605.58
552.68	5509.62
552.84	5530.69
553.01	5640.69
553.18	5547.07
553.34	5565.79
553.51	5593.88
553.67	5596.22
553.84	5760.06
554.01	5783.46
554.17	5652.39
554.34	5701.54
554.51	5893.47
554.67	5706.23
554.84	5748.36
555.00	5542.39
555.17	5607.92
555.33	5575.16
555.50	5469.83
555.67	5610.26
555.83	5345.78
556.00	5474.51
556.16	5497.92
556.33	5387.91
556.50	5392.59
556.66	5376.21
556.83	5256.84
556.99	5268.55
557.16	5376.21
557.32	5362.17
557.49	5357.49
557.65	5544.73
557.82	5465.15
557.98	5350.46
558.15	5301.31
558.32	5256.84
558.48	5114.07
558.65	5062.58
558.81	5207.69
558.98	5102.37
559.14	5090.67
559.31	5163.22
559.47	5238.12
559.64	5158.54
559.80	5034.49
559.97	5013.43
560.13	5144.50
560.30	5303.65
560.46	5563.45
560.63	5469.83
560.79	5481.53
560.96	5481.53
561.12	5420.68
561.29	5041.51
561.45	4959.60
561.61	5261.52
561.78	5289.61
561.94	5245.14
562.11	5174.92
562.27	5142.16
562.44	5167.90
562.60	5219.39
562.77	5329.40
562.93	5334.08
563.10	5305.99
563.26	5149.18
563.42	5287.27
563.59	5357.49
563.75	5247.48
563.92	5217.05
564.08	5177.26
564.24	5149.18
564.41	5207.69
564.57	5203.01
564.74	5203.01
564.90	5214.71
565.07	5149.18
565.23	5191.31
565.39	5057.90
565.56	5036.83
565.72	4800.44
565.88	4910.44
566.05	4793.42
566.21	5018.11
566.38	4997.04
566.54	5160.88
566.70	5160.88
566.87	5205.35
567.03	5219.39
567.19	5060.24
567.36	5078.96
567.52	5104.71
567.68	5006.41
567.85	4894.06
568.01	4734.90
568.17	4695.11
568.34	4702.14
568.50	4678.73
568.66	4531.28
568.83	4697.46
568.99	4709.16
569.15	4709.16
569.32	4615.54
569.48	4716.18
569.64	4851.93
569.81	4685.75
569.97	4596.81
570.13	4711.50
570.30	4727.88
570.46	4812.14
570.62	4599.15
570.78	4461.06
570.95	4648.30
571.11	4692.77
571.27	4816.82
571.43	4718.52
571.60	4770.01
571.76	4552.34
571.92	4681.07
572.09	4875.34
572.25	4781.71
572.41	4727.88
572.57	4732.56
572.74	4784.06
572.90	4772.35
573.06	4634.26
573.22	4781.71
573.38	4681.07
573.55	4732.56
573.71	4594.47
573.87	4629.58
574.03	4636.60
574.20	4655.33
574.36	4421.27
574.52	4638.94
574.68	4498.51
574.84	4711.50
575.01	4493.83
575.17	4538.30
575.33	4507.87
575.49	4540.64
575.65	4669.37
575.82	4545.32
575.98	4638.94
576.14	4587.45
576.30	4573.41
576.46	4645.96
576.62	4779.37
576.79	4851.93
576.95	4631.92
577.11	4631.92
577.27	4578.09
577.43	4571.07
577.59	4573.41
577.75	4585.11
577.92	4449.36
578.08	4428.29
578.24	4440.00
578.40	4519.57
578.56	4566.39
578.72	4917.47
578.88	4664.69
579.04	4542.98
579.21	4655.33
579.37	4636.60
579.53	4671.71
579.69	4589.79
579.85	4624.90
580.01	4746.61
580.17	4627.24
580.33	4587.45
580.49	4580.43
580.65	4538.30
580.82	4606.17
580.98	4674.05
581.14	4643.62
581.30	4798.10
581.46	4418.93
581.62	4664.69
581.78	4575.75
581.94	4741.93
582.10	4645.96
582.26	4697.46
582.42	4746.61
582.58	4798.10
582.74	4650.64
582.90	4856.61
583.06	4671.71
583.22	4704.48
583.38	4669.37
583.54	4648.30
583.70	4681.07
583.86	4683.41
584.02	4596.81
584.18	4798.10
584.34	4702.14
584.50	4716.18
584.66	4636.60
584.82	4449.36
584.98	4512.55
585.14	4578.09
585.30	4510.21
585.46	4449.36
585.62	4374.46
585.78	4383.82
585.94	4322.97
586.10	4358.08
586.26	4461.06
586.42	4578.09
586.58	4561.70
586.74	4465.74
586.90	4535.96
587.06	4421.27
587.22	4346.37
587.38	4264.46
587.54	4304.25
587.70	4238.71
587.86	3999.98
588.02	3974.23
588.18	3779.97
588.34	3819.75
588.49	3496.76
588.65	3260.37
588.81	3204.19
588.97	3211.22
589.13	3265.05
589.29	3241.64
589.45	3066.10
589.61	3293.13
589.77	3356.33
589.93	3454.63
590.08	3569.32
590.24	3747.20
590.40	3878.27
590.56	3803.37
590.72	3861.88
590.88	3655.92
591.04	3747.20
591.20	3651.24
591.35	3543.57
591.51	3522.51
591.67	3499.10
591.83	3564.64
591.99	3590.38
592.15	3473.36
592.31	3632.51
592.46	3852.52
592.62	3735.50
592.78	3810.39
592.94	3953.16
593.10	3894.65
593.26	3992.95
593.41	3981.25
593.57	3953.16
593.73	3641.87
593.89	3630.17
594.05	3515.48
594.20	3281.43
594.36	3494.42
594.52	3555.27
594.68	3346.97
594.84	3506.12
594.99	3719.11
595.15	3824.44
595.31	3714.43
595.47	3840.82
595.62	3810.39
595.78	3847.84
595.94	4002.32
596.10	3908.69
596.25	3843.16
596.41	3819.75
596.57	3791.67
596.73	3786.99
596.88	3808.05
597.04	3999.98
597.20	3747.20
597.36	3672.30
597.51	3707.41
597.67	3791.67
597.83	3765.92
