SpectraSuite Data File
++++++++++++++++++++++++++++++++++++
Date: Fri Oct 04 11:44:20 GMT-05:00 2013
User: price-jones
Dark Spectrum Present: No
Reference Spectrum Present: No
Number of Sampled Component Spectra: 1
Spectrometers: USB2+H05261
Integration Time (usec): 100000 (USB2+H05261)
Spectra Averaged: 1 (USB2+H05261)
Boxcar Smoothing: 0 (USB2+H05261)
Correct for Electrical Dark: No (USB2+H05261)
Strobe/Lamp Enabled: No (USB2+H05261)
Correct for Detector Non-linearity: No (USB2+H05261)
Correct for Stray Light: No (USB2+H05261)
Number of Pixels in Processed Spectrum: 2048
>>>>>Begin Processed Spectral Data<<<<<
365.73	18.72
365.92	18.72
366.12	18.72
366.32	0.00
366.52	0.00
366.72	0.00
366.91	0.00
367.11	0.00
367.31	0.00
367.51	0.00
367.70	0.00
367.90	0.00
368.10	0.00
368.30	0.00
368.49	0.00
368.69	60.85
368.89	0.00
369.09	0.00
369.28	0.00
369.48	0.00
369.68	0.00
369.87	2.34
370.07	0.00
370.27	0.00
370.47	128.73
370.66	227.03
370.86	301.93
371.06	348.74
371.25	425.98
371.45	351.08
371.65	325.33
371.84	421.30
372.04	327.68
372.24	362.78
372.44	383.85
372.63	360.44
372.83	381.51
373.03	386.19
373.22	264.48
373.42	299.59
373.62	369.80
373.81	388.53
374.01	344.06
374.21	346.40
374.40	346.40
374.60	348.74
374.79	381.51
374.99	388.53
375.19	430.66
375.38	547.69
375.58	425.98
375.78	472.79
375.97	477.47
376.17	421.30
376.37	484.49
376.56	489.17
376.76	510.24
376.95	451.72
377.15	449.38
377.35	500.87
377.54	578.11
377.74	552.37
377.93	528.96
378.13	512.58
378.33	545.34
378.52	538.32
378.72	538.32
378.91	528.96
379.11	489.17
379.31	454.06
379.50	402.57
379.70	496.19
379.89	514.92
380.09	493.85
380.28	533.64
380.48	505.56
380.68	564.07
380.87	505.56
381.07	461.09
381.26	533.64
381.46	491.51
381.65	393.21
381.85	454.06
382.04	425.98
382.24	341.72
382.43	386.19
382.63	325.33
382.83	369.80
383.02	376.83
383.22	414.27
383.41	365.12
383.61	421.30
383.80	402.57
384.00	451.72
384.19	547.69
384.39	571.09
384.58	573.43
384.78	528.96
384.97	496.19
385.17	540.66
385.36	510.24
385.56	519.60
385.75	449.38
385.95	514.92
386.14	486.83
386.34	526.62
386.53	547.69
386.72	454.06
386.92	519.60
387.11	472.79
387.31	524.28
387.50	489.17
387.70	566.41
387.89	388.53
388.09	482.15
388.28	517.26
388.48	514.92
388.67	601.52
388.86	592.16
389.06	660.03
389.25	636.63
389.45	713.86
389.64	615.56
389.84	711.52
390.03	688.12
390.22	648.33
390.42	622.58
390.61	636.63
390.81	716.20
391.00	793.44
391.19	725.57
391.39	791.10
391.58	667.05
391.78	732.59
391.97	681.10
392.16	533.64
392.36	545.34
392.55	533.64
392.75	425.98
392.94	332.36
393.13	367.46
393.33	449.38
393.52	458.74
393.71	552.37
393.91	596.84
394.10	678.76
394.29	622.58
394.49	758.33
394.68	805.14
394.88	854.30
395.07	805.14
395.26	763.01
395.46	798.12
395.65	826.21
395.84	751.31
396.04	571.09
396.23	491.51
396.42	458.74
396.62	507.90
396.81	528.96
397.00	634.29
397.19	723.23
397.39	788.76
397.58	870.68
397.77	891.74
397.97	915.15
398.16	961.96
398.35	983.02
398.55	961.96
398.74	1025.15
398.93	1104.73
399.12	1057.92
399.32	1064.94
399.51	1107.07
399.70	1034.52
399.90	1088.35
400.09	1151.54
400.28	1001.75
400.47	1015.79
400.67	1181.97
400.86	1177.29
401.05	1123.46
401.24	1128.14
401.44	1170.27
401.63	1240.48
401.82	1240.48
402.01	1081.33
402.21	1184.31
402.40	1179.63
402.59	1067.28
402.78	1104.73
402.97	1036.86
403.17	1095.37
403.36	1135.16
403.55	1191.33
403.74	1238.14
403.93	1240.48
404.13	1210.06
404.32	1158.57
404.51	1196.01
404.70	1210.06
404.89	1128.14
405.09	1153.88
405.28	1130.48
405.47	1111.75
405.66	1153.88
405.85	1174.95
406.05	1011.11
406.24	1123.46
406.43	1158.57
406.62	1181.97
406.81	1247.51
407.00	1139.84
407.20	1132.82
407.39	1135.16
407.58	1170.27
407.77	1121.12
407.96	1247.51
408.15	1291.98
408.34	1266.23
408.54	1341.13
408.73	1301.34
408.92	1193.67
409.11	1247.51
409.30	1231.12
409.49	1118.78
409.68	1053.24
409.87	1118.78
410.07	1118.78
410.26	1193.67
410.45	1235.80
410.64	1287.29
410.83	1380.92
411.02	1282.61
411.21	1441.77
411.40	1413.68
411.59	1373.89
411.78	1268.57
411.98	1366.87
412.17	1441.77
412.36	1324.74
412.55	1320.06
412.74	1441.77
412.93	1345.81
413.12	1263.89
413.31	1324.74
413.50	1329.42
413.69	1469.86
413.88	1378.58
414.07	1380.92
414.26	1373.89
414.45	1472.20
414.64	1495.60
414.83	1434.75
415.02	1469.86
415.22	1434.75
415.41	1469.86
415.60	1526.03
415.79	1530.71
415.98	1664.12
416.17	1549.43
416.36	1624.33
416.55	1497.94
416.74	1437.09
416.93	1455.81
417.12	1458.15
417.31	1444.11
417.50	1378.58
417.69	1479.22
417.88	1521.35
418.07	1460.49
418.26	1666.46
418.45	1526.03
418.64	1540.07
418.83	1600.93
419.02	1603.27
419.21	1607.95
419.39	1575.18
419.58	1465.18
419.77	1479.22
419.96	1469.86
420.15	1521.35
420.34	1603.27
420.53	1668.80
420.72	1722.63
420.91	1638.38
421.10	1699.23
421.29	1647.74
421.48	1661.78
421.67	1577.52
421.86	1699.23
422.05	1561.14
422.24	1420.71
422.43	1245.16
422.61	1444.11
422.80	1619.65
422.99	1598.59
423.18	1626.67
423.37	1561.14
423.56	1533.05
423.75	1521.35
423.94	1591.56
424.13	1526.03
424.32	1455.81
424.50	1535.39
424.69	1554.12
424.88	1425.39
425.07	1502.62
425.26	1427.73
425.45	1467.52
425.64	1514.33
425.83	1427.73
426.01	1563.48
426.20	1547.09
426.39	1561.14
426.58	1516.67
426.77	1406.66
426.96	1308.36
427.15	1401.98
427.33	1423.05
427.52	1418.36
427.71	1486.24
427.90	1474.54
428.09	1406.66
428.28	1561.14
428.46	1399.64
428.65	1392.62
428.84	1406.66
429.03	1451.13
429.22	1451.13
429.40	1273.25
429.59	1139.84
429.78	1170.27
429.97	1018.13
430.16	1076.65
430.34	1053.24
430.53	1107.07
430.72	1093.03
430.91	1235.80
431.10	1320.06
431.28	1572.84
431.47	1687.53
431.66	1760.08
431.85	1586.88
432.03	1460.49
432.22	1556.46
432.41	1507.30
432.60	1612.63
432.79	1657.10
432.97	1692.21
433.16	1673.48
433.35	1563.48
433.54	1551.78
433.72	1392.62
433.91	1455.81
434.10	1502.62
434.28	1685.19
434.47	1682.85
434.66	1717.95
434.85	1619.65
435.03	1722.63
435.22	1870.09
435.41	2214.15
435.59	2179.04
435.78	1959.03
435.97	1806.89
436.16	1846.68
436.34	1839.66
436.53	1743.70
436.72	1919.24
436.90	1755.40
437.09	1659.44
437.28	1694.55
437.46	1741.36
437.65	1739.02
437.84	1530.71
438.02	1563.48
438.21	1516.67
438.40	1446.45
438.58	1603.27
438.77	1746.04
438.96	1825.62
439.14	1844.34
439.33	1687.53
439.52	1722.63
439.70	1860.73
439.89	1755.40
440.08	1778.81
440.26	1689.87
440.45	1743.70
440.63	1975.41
440.82	1914.56
441.01	1930.94
441.19	1935.62
441.38	2003.50
441.57	2031.58
441.75	1987.11
441.94	2080.74
442.12	1954.35
442.31	2153.29
442.50	1942.64
442.68	1872.43
442.87	1994.14
443.05	2012.86
443.24	2022.22
443.43	2080.74
443.61	2101.80
443.80	2143.93
443.98	1933.28
444.17	1970.73
444.35	2069.03
444.54	2230.53
444.73	2118.18
444.91	2076.06
445.10	2012.86
445.28	1952.01
445.47	1823.28
445.65	1912.22
445.84	1926.26
446.02	1930.94
446.21	1994.14
446.39	1968.39
446.58	2113.50
446.77	2073.71
446.95	2033.93
447.14	2188.40
447.32	2106.48
447.51	2183.72
447.69	2015.20
447.88	2001.16
448.06	1977.75
448.25	1968.39
448.43	2120.53
448.62	2160.31
448.80	2122.87
448.99	2054.99
449.17	2139.25
449.36	2179.04
449.54	2214.15
449.73	2181.38
449.91	2270.32
450.10	2265.64
450.28	2221.17
450.46	2352.24
450.65	2282.02
450.83	2392.03
451.02	2167.34
451.20	2183.72
451.39	2272.66
451.57	2228.19
451.76	2228.19
451.94	2122.87
452.13	2265.64
452.31	2099.46
452.49	1956.69
452.68	1998.82
452.86	2017.54
453.05	2073.71
453.23	2045.63
453.42	2050.31
453.60	2202.44
453.78	2300.75
453.97	2104.14
454.15	2183.72
454.34	2214.15
454.52	2188.40
454.70	2071.37
454.89	2036.27
455.07	2101.80
455.26	2106.48
455.44	2279.68
455.62	2296.07
455.81	2340.54
455.99	2375.64
456.17	2197.76
456.36	2167.34
456.54	2324.15
456.73	2286.70
456.91	2314.79
457.09	2265.64
457.28	2310.11
457.46	2293.72
457.64	2251.60
457.83	2188.40
458.01	2111.16
458.19	2223.51
458.38	2169.68
458.56	2310.11
458.74	2279.68
458.93	2239.89
459.11	2225.85
459.29	2244.57
459.48	2251.60
459.66	2188.40
459.84	2305.43
460.03	2420.11
460.21	2303.09
460.39	2333.51
460.57	2312.45
460.76	2307.77
460.94	2380.32
461.12	2462.24
461.31	2347.56
461.49	2296.07
461.67	2436.50
461.85	2427.14
462.04	2410.75
462.22	2944.39
462.40	2415.43
462.59	2413.09
462.77	2356.92
462.95	2387.35
463.13	2317.13
463.32	2356.92
463.50	2406.07
463.68	2317.13
463.86	2293.72
464.05	2260.96
464.23	2331.17
464.41	2197.76
464.59	2172.02
464.78	2342.88
464.96	2263.30
465.14	2228.19
465.32	2277.34
465.50	2429.48
465.69	2462.24
465.87	2370.96
466.05	2303.09
466.23	2305.43
466.41	2087.76
466.60	2284.36
466.78	2153.29
466.96	2352.24
467.14	2279.68
467.32	2335.85
467.51	2270.32
467.69	2197.76
467.87	2232.87
468.05	2230.53
468.23	2291.38
468.41	2319.47
468.60	2277.34
468.78	2359.26
468.96	2331.17
469.14	2427.14
469.32	2321.81
469.50	2214.15
469.69	2368.62
469.87	2256.28
470.05	2296.07
470.23	2200.10
470.41	2223.51
470.59	2249.25
470.77	2237.55
470.95	2181.38
471.14	2448.20
471.32	2373.30
471.50	2401.39
471.68	2462.24
471.86	2436.50
472.04	2431.82
472.22	2593.31
472.40	2392.03
472.58	2340.54
472.77	2186.06
472.95	2562.89
473.13	2485.65
473.31	2293.72
473.49	2354.58
473.67	2415.43
473.85	2401.39
474.03	2516.08
474.21	2593.31
474.39	2530.12
474.57	2511.39
474.75	2502.03
474.93	2609.70
475.12	2382.67
475.30	2539.48
475.48	2518.42
475.66	2534.80
475.84	2525.44
476.02	2504.37
476.20	2490.33
476.38	2523.10
476.56	2457.56
476.74	2593.31
476.92	2555.86
477.10	2637.78
477.28	2665.87
477.46	2724.38
477.64	2654.17
477.82	2738.43
478.00	2689.28
478.18	2745.45
478.36	2750.13
478.54	2661.19
478.72	2698.64
478.90	2612.04
479.08	2841.41
479.26	2862.48
479.44	3021.63
479.62	2895.24
479.80	2846.09
479.98	2726.72
480.16	2839.07
480.34	2916.31
480.52	2881.20
480.70	2878.86
480.88	2888.22
481.06	2904.60
481.24	2874.18
481.41	3049.72
481.59	3119.93
481.77	3054.40
481.95	3035.67
482.13	2956.10
482.31	3129.30
482.49	3110.57
482.67	3131.64
482.85	3089.51
483.03	3148.02
483.21	3194.83
483.39	3054.40
483.57	3339.94
483.74	3150.36
483.92	3066.10
484.10	3164.40
484.28	3234.62
484.46	3368.03
484.64	3283.77
484.82	3166.74
485.00	3141.00
485.18	3206.53
485.35	3059.08
485.53	2794.60
485.71	2616.72
485.89	2530.12
486.07	2626.08
486.25	2937.37
486.43	3094.19
486.61	3070.78
486.78	3152.70
486.96	3171.43
487.14	3131.64
487.32	3180.79
487.50	3419.52
487.68	3410.16
487.85	3447.61
488.03	3630.17
488.21	3548.25
488.39	3492.08
488.57	3382.07
488.75	3351.65
488.92	3595.06
489.10	3712.09
489.28	3803.37
489.46	3843.16
489.64	3861.88
489.81	3808.05
489.99	3749.54
490.17	3794.01
490.35	3946.14
490.53	3810.39
490.70	3613.79
490.88	3754.22
491.06	3758.90
491.24	3885.29
491.41	3794.01
491.59	3641.87
491.77	3503.78
491.95	3658.26
492.13	3637.19
492.30	3808.05
492.48	3786.99
492.66	3999.98
492.84	4021.04
493.01	3985.93
493.19	3922.74
493.37	4011.68
493.54	3803.37
493.72	4016.36
493.90	4124.02
494.08	4021.04
494.25	4067.85
494.43	4219.99
494.61	4163.81
494.79	4379.14
494.96	4234.03
495.14	4196.58
495.32	3992.95
495.49	3946.14
495.67	4023.38
495.85	4346.37
496.02	4348.72
496.20	4423.61
496.38	4308.93
496.55	4308.93
496.73	4442.34
496.91	4243.39
497.09	4400.21
497.26	4533.62
497.44	4411.91
497.62	4383.82
497.79	4124.02
497.97	4117.00
498.14	4002.32
498.32	4060.83
498.50	4381.48
498.67	4229.35
498.85	4292.54
499.03	4332.33
499.20	4547.66
499.38	4472.76
499.56	4315.95
499.73	4395.53
499.91	4236.37
500.08	4276.16
500.26	4051.47
500.44	4210.62
500.61	4271.48
500.79	4262.12
500.97	4264.46
501.14	4124.02
501.32	4112.32
501.49	4170.83
501.67	4128.70
501.84	4245.73
502.02	4287.86
502.20	4379.14
502.37	4306.59
502.55	4285.52
502.72	4493.83
502.90	4418.93
503.07	4243.39
503.25	4208.28
503.43	3962.53
503.60	4079.55
503.78	3967.21
503.95	4037.42
504.13	4058.49
504.30	4262.12
504.48	4290.20
504.65	4386.16
504.83	4369.78
505.01	4287.86
505.18	4461.06
505.36	4547.66
505.53	4297.22
505.71	4723.20
505.88	4685.75
506.06	4660.01
506.23	4613.20
506.41	4414.25
506.58	4376.80
506.76	4294.88
506.93	4332.33
507.11	4395.53
507.28	4503.19
507.46	4201.26
507.63	4212.96
507.81	4411.91
507.98	4238.71
508.16	4337.01
508.33	4428.29
508.50	4517.23
508.68	4564.04
508.85	4842.57
509.03	4727.88
509.20	4784.06
509.38	4571.07
509.55	4489.15
509.73	4355.74
509.90	4512.55
510.08	4608.51
510.25	4723.20
510.42	4725.54
510.60	4472.76
510.77	4568.73
510.95	4606.17
511.12	4608.51
511.30	4854.27
511.47	4777.03
511.64	4847.25
511.82	4732.56
511.99	4788.74
512.17	4655.33
512.34	4620.22
512.51	4507.87
512.69	4667.03
512.86	4645.96
513.04	4695.11
513.21	4744.27
513.38	4608.51
513.56	4325.31
513.73	4449.36
513.90	4423.61
514.08	4393.19
514.25	4435.32
514.43	4500.85
514.60	4510.21
514.77	4624.90
514.95	4634.26
515.12	4613.20
515.29	4636.60
515.47	4748.95
515.64	4828.53
515.81	4667.03
515.99	4678.73
516.16	4545.32
516.33	4173.18
516.51	3840.82
516.68	3885.29
516.85	3850.18
517.03	3665.28
517.20	4063.17
517.37	4346.37
517.54	4667.03
517.72	4489.15
517.89	4212.96
518.06	4002.32
518.24	3964.87
518.41	4191.90
518.58	4386.16
518.75	4402.55
518.93	4416.59
519.10	4334.67
519.27	4503.19
519.45	4594.47
519.62	4599.15
519.79	4730.22
519.96	4779.37
520.14	4547.66
520.31	4470.42
520.48	4559.36
520.65	4566.39
520.83	4645.96
521.00	4746.61
521.17	4706.82
521.34	4629.58
521.52	4786.40
521.69	4917.47
521.86	4884.70
522.03	4873.00
522.20	4685.75
522.38	4608.51
522.55	4458.72
522.72	4437.66
522.89	4578.09
523.07	4528.94
523.24	4669.37
523.41	4833.21
523.58	4842.57
523.75	4922.15
523.92	4760.65
524.10	4896.40
524.27	4975.98
524.44	4950.23
524.61	4973.64
524.78	4978.32
524.96	4877.68
525.13	4856.61
525.30	4954.91
525.47	5020.45
525.64	5008.75
525.81	4856.61
525.98	4662.35
526.16	4285.52
526.33	4266.80
526.50	4301.90
526.67	4264.46
526.84	4196.58
527.01	4329.99
527.18	4383.82
527.36	4662.35
527.53	4844.91
527.70	4945.55
527.87	4648.30
528.04	4725.54
528.21	4755.97
528.38	4807.46
528.55	5032.15
528.72	5102.37
528.89	5100.03
529.07	5111.73
529.24	5085.98
529.41	4802.78
529.58	4737.24
529.75	4741.93
529.92	4772.35
530.09	4908.10
530.26	4997.04
530.43	5060.24
530.60	4947.89
530.77	5041.51
530.94	4959.60
531.11	4922.15
531.28	4849.59
531.46	4915.12
531.63	4863.63
531.80	5039.17
531.97	4908.10
532.14	4777.03
532.31	4554.68
532.48	4524.26
532.65	4374.46
532.82	4479.79
532.99	4573.41
533.16	4908.10
533.33	4952.57
533.50	4950.23
533.67	4814.48
533.84	4791.08
534.01	4554.68
534.18	4753.63
534.35	4999.38
534.52	4823.84
534.69	4730.22
534.86	4842.57
535.03	4959.60
535.20	5008.75
535.37	5128.11
535.54	5097.69
535.71	5048.54
535.88	5102.37
536.05	4716.18
536.22	4835.55
536.38	4833.21
536.55	4777.03
536.72	4720.86
536.89	4538.30
537.06	4578.09
537.23	4793.42
537.40	4926.83
537.57	4765.33
537.74	4922.15
537.91	4856.61
538.08	4884.70
538.25	4887.04
538.42	5004.07
538.59	4964.28
538.75	4744.27
538.92	4741.93
539.09	4734.90
539.26	4695.11
539.43	4795.76
539.60	4671.71
539.77	4634.26
539.94	4734.90
540.11	4788.74
540.28	4559.36
540.44	4683.41
540.61	4692.77
540.78	4692.77
540.95	4716.18
541.12	5039.17
541.29	4816.82
541.46	5085.98
541.62	5107.05
541.79	5022.79
541.96	4931.51
542.13	4762.99
542.30	4821.50
542.47	4922.15
542.63	4917.47
542.80	4978.32
542.97	5064.92
543.14	4929.17
543.31	4954.91
543.48	4868.31
543.64	5076.62
543.81	5109.39
543.98	5170.24
544.15	5078.96
544.32	4961.94
544.48	4898.74
544.65	4931.51
544.82	5018.11
544.99	5062.58
545.16	5114.07
545.32	5004.07
545.49	5214.71
545.66	5621.97
545.83	5729.63
546.00	5394.93
546.16	5153.86
546.33	5001.72
546.50	4952.57
546.67	4957.25
546.83	4788.74
547.00	4727.88
547.17	4835.55
547.34	4746.61
547.50	4629.58
547.67	4746.61
547.84	4681.07
548.00	4610.86
548.17	4826.18
548.34	4894.06
548.51	4741.93
548.67	4748.95
548.84	4938.53
549.01	4781.71
549.18	4718.52
549.34	4835.55
549.51	4842.57
549.68	4774.69
549.84	4678.73
550.01	4669.37
550.18	4858.95
550.34	4676.39
550.51	4730.22
550.68	4741.93
550.84	4662.35
551.01	4671.71
551.18	4620.22
551.34	4697.46
551.51	4903.42
551.68	4690.43
551.84	4835.55
552.01	4774.69
552.18	4826.18
552.34	4713.84
552.51	4585.11
552.68	4620.22
552.84	4507.87
553.01	4535.96
553.18	4650.64
553.34	4557.02
553.51	4650.64
553.67	4788.74
553.84	4744.27
554.01	4704.48
554.17	4800.44
554.34	4643.62
554.51	4753.63
554.67	4748.95
554.84	4791.08
555.00	4706.82
555.17	4676.39
555.33	4685.75
555.50	4554.68
555.67	4603.83
555.83	4533.62
556.00	4465.74
556.16	4627.24
556.33	4447.02
556.50	4491.49
556.66	4503.19
556.83	4360.42
556.99	4465.74
557.16	4512.55
557.32	4418.93
557.49	4358.08
557.65	4465.74
557.82	4444.68
557.98	4468.08
558.15	4386.16
558.32	4444.68
558.48	4334.67
558.65	4147.43
558.81	4325.31
558.98	4388.50
559.14	4400.21
559.31	4264.46
559.47	4463.40
559.64	4365.10
559.80	4376.80
559.97	4217.65
560.13	4414.25
560.30	4451.70
560.46	4482.13
560.63	4374.46
560.79	4627.24
560.96	4517.23
561.12	4365.10
561.29	4402.55
561.45	4145.09
561.61	4524.26
561.78	4521.92
561.94	4318.29
562.11	4208.28
562.27	4290.20
562.44	4243.39
562.60	4358.08
562.77	4358.08
562.93	4491.49
563.10	4381.48
563.26	4344.03
563.42	4283.18
563.59	4290.20
563.75	4194.24
563.92	4425.95
564.08	4362.76
564.24	4341.69
564.41	4491.49
564.57	4327.65
564.74	4325.31
564.90	4208.28
565.07	4280.84
565.23	4306.59
565.39	4079.55
565.56	3999.98
565.72	3997.64
565.88	4124.02
566.05	4152.11
566.21	4109.98
566.38	4205.94
566.54	4196.58
566.70	4119.34
566.87	4243.39
567.03	4238.71
567.19	4215.30
567.36	4344.03
567.52	4215.30
567.68	4297.22
567.85	4098.28
568.01	4065.51
568.17	3934.44
568.34	3803.37
568.50	3892.31
568.66	3875.93
568.83	3932.10
568.99	4014.02
569.15	3978.91
569.32	3981.25
569.48	3899.33
569.64	3950.82
569.81	3904.01
569.97	3829.12
570.13	3803.37
570.30	3840.82
570.46	3875.93
570.62	3824.44
570.78	3698.05
570.95	3693.37
571.11	3789.33
571.27	3925.08
571.43	3960.19
571.60	3964.87
571.76	3808.05
571.92	3889.97
572.09	3786.99
572.25	3925.08
572.41	3988.27
572.57	3864.22
572.74	3995.29
572.90	4025.72
573.06	3871.25
573.22	3957.85
573.38	4016.36
573.55	3941.46
573.71	3953.16
573.87	4028.06
574.03	4011.68
574.20	3845.50
574.36	3836.14
574.52	3796.35
574.68	3761.24
574.84	3868.91
575.01	3815.07
575.17	3815.07
575.33	3756.56
575.49	3786.99
575.65	3829.12
575.82	3852.52
575.98	3702.73
576.14	3801.03
576.30	3850.18
576.46	4021.04
576.62	3925.08
576.79	4032.74
576.95	3878.27
577.11	3782.31
577.27	3838.48
577.43	3999.98
577.59	3751.88
577.75	3700.39
577.92	3613.79
578.08	3585.70
578.24	3763.58
578.40	3803.37
578.56	4049.13
578.72	3908.69
578.88	3887.63
579.04	3906.35
579.21	3850.18
579.37	4028.06
579.53	3824.44
579.69	3866.56
579.85	3840.82
580.01	3749.54
580.17	3859.54
580.33	3819.75
580.49	3929.76
580.65	3936.78
580.82	3826.78
580.98	3899.33
581.14	3833.80
581.30	3915.72
581.46	3913.38
581.62	3824.44
581.78	3894.65
581.94	3955.51
582.10	3967.21
582.26	3899.33
582.42	3969.55
582.58	3913.38
582.74	4023.38
582.90	3794.01
583.06	3955.51
583.22	3971.89
583.38	3831.46
583.54	3852.52
583.70	3969.55
583.86	3981.25
584.02	3896.99
584.18	3866.56
584.34	4004.66
584.50	3911.04
584.66	3840.82
584.82	3796.35
584.98	3852.52
585.14	3735.50
585.30	3733.15
585.46	3602.08
585.62	3555.27
585.78	3733.15
585.94	3616.13
586.10	3756.56
586.26	3770.60
586.42	3845.50
586.58	3808.05
586.74	3878.27
586.90	3735.50
587.06	3716.77
587.22	3707.41
587.38	3574.00
587.54	3651.24
587.70	3496.76
587.86	3358.67
588.02	3318.88
588.18	3197.17
588.34	2991.20
588.49	2881.20
588.65	2682.25
588.81	2691.62
588.97	2623.74
589.13	2677.57
589.29	2647.15
589.45	2609.70
589.61	2743.11
589.77	2932.69
589.93	2946.73
590.08	2909.29
590.24	3009.93
590.40	3066.10
590.56	3206.53
590.72	2993.55
590.88	3166.74
591.04	3178.45
591.20	3166.74
591.35	3059.08
591.51	3030.99
591.67	2970.14
591.83	2991.20
591.99	3080.14
592.15	3035.67
592.31	3066.10
592.46	3318.88
592.62	3307.18
592.78	3283.77
592.94	3302.50
593.10	3283.77
593.26	3232.28
593.41	3311.86
593.57	3346.97
593.73	3148.02
593.89	2967.80
594.05	2871.84
594.20	2832.05
594.36	2949.08
594.52	2771.19
594.68	2841.41
594.84	3005.25
594.99	3061.42
595.15	3082.49
595.31	3131.64
595.47	3241.64
595.62	3124.62
595.78	3183.13
595.94	3302.50
596.10	3346.97
596.25	3105.89
596.41	3337.60
596.57	3171.43
596.73	3197.17
596.88	3178.45
597.04	3138.66
597.20	3258.03
597.36	3108.23
597.51	3152.70
597.67	3012.27
597.83	3122.27
597.99	3199.51
