SpectraSuite Data File
++++++++++++++++++++++++++++++++++++
Date: Fri Oct 04 11:44:11 GMT-05:00 2013
User: price-jones
Dark Spectrum Present: No
Reference Spectrum Present: No
Number of Sampled Component Spectra: 1
Spectrometers: USB2+H05261
Integration Time (usec): 100000 (USB2+H05261)
Spectra Averaged: 1 (USB2+H05261)
Boxcar Smoothing: 0 (USB2+H05261)
Correct for Electrical Dark: No (USB2+H05261)
Strobe/Lamp Enabled: No (USB2+H05261)
Correct for Detector Non-linearity: No (USB2+H05261)
Correct for Stray Light: No (USB2+H05261)
Number of Pixels in Processed Spectrum: 2048
>>>>>Begin Processed Spectral Data<<<<<
365.73	110.01
365.92	110.01
366.12	110.01
366.32	0.00
366.52	0.00
366.72	0.00
366.91	0.00
367.11	0.00
367.31	0.00
367.51	0.00
367.70	0.00
367.90	0.00
368.10	0.00
368.30	0.00
368.49	0.00
368.69	0.00
368.89	0.00
369.09	0.00
369.28	0.00
369.48	0.00
369.68	0.00
369.87	0.00
370.07	0.00
370.27	4.68
370.47	196.60
370.66	451.72
370.86	592.16
371.06	587.47
371.25	608.54
371.45	561.73
371.65	533.64
371.84	512.58
372.04	540.66
372.24	500.87
372.44	580.45
372.63	620.24
372.83	582.79
373.03	568.75
373.22	442.36
373.42	568.75
373.62	540.66
373.81	660.03
374.01	636.63
374.21	580.45
374.40	547.69
374.60	533.64
374.79	624.92
374.99	594.50
375.19	645.99
375.38	725.57
375.58	664.71
375.78	777.06
375.97	699.82
376.17	692.80
376.37	706.84
376.56	720.88
376.76	758.33
376.95	725.57
377.15	870.68
377.35	821.53
377.54	816.85
377.74	866.00
377.93	800.46
378.13	912.81
378.33	807.48
378.52	727.91
378.72	709.18
378.91	702.16
379.11	690.46
379.31	692.80
379.50	781.74
379.70	812.17
379.89	894.08
380.09	737.27
380.28	826.21
380.48	873.02
380.68	823.87
380.87	788.76
381.07	732.59
381.26	774.72
381.46	683.44
381.65	688.12
381.85	681.10
382.04	676.41
382.24	528.96
382.43	603.86
382.63	538.32
382.83	578.11
383.02	566.41
383.22	655.35
383.41	566.41
383.61	641.31
383.80	624.92
384.00	704.50
384.19	720.88
384.39	861.32
384.58	807.48
384.78	779.40
384.97	833.23
385.17	758.33
385.36	713.86
385.56	753.65
385.75	739.61
385.95	793.44
386.14	833.23
386.34	774.72
386.53	882.38
386.72	791.10
386.92	805.14
387.11	933.87
387.31	821.53
387.50	861.32
387.70	884.72
387.89	816.85
388.09	711.52
388.28	739.61
388.48	901.11
388.67	870.68
388.86	905.79
389.06	971.32
389.25	1083.67
389.45	1097.71
389.64	1071.97
389.84	1076.65
390.03	1015.79
390.22	1050.90
390.42	1074.31
390.61	1083.67
390.81	1233.46
391.00	1186.65
391.19	1313.04
391.39	1151.54
391.58	1125.80
391.78	1086.01
391.97	961.96
392.16	964.30
392.36	936.21
392.55	830.89
392.75	648.33
392.94	596.84
393.13	510.24
393.33	650.67
393.52	697.48
393.71	908.13
393.91	933.87
394.10	1020.47
394.29	1046.22
394.49	1156.22
394.68	1303.68
394.88	1266.23
395.07	1320.06
395.26	1284.95
395.46	1259.21
395.65	1181.97
395.84	1118.78
396.04	983.02
396.23	826.21
396.42	732.59
396.62	648.33
396.81	739.61
397.00	910.47
397.19	997.07
397.39	1196.01
397.58	1364.53
397.77	1423.05
397.97	1537.73
398.16	1540.07
398.35	1638.38
398.55	1650.08
398.74	1703.91
398.93	1755.40
399.12	1717.95
399.32	1554.12
399.51	1673.48
399.70	1727.32
399.90	1696.89
400.09	1722.63
400.28	1673.48
400.47	1760.08
400.67	1776.47
400.86	1961.37
401.05	1919.24
401.24	1916.90
401.44	1921.58
401.63	1851.36
401.82	1994.14
402.01	1846.68
402.21	1874.77
402.40	1935.62
402.59	1846.68
402.78	1788.17
402.97	1867.75
403.17	1919.24
403.36	1912.22
403.55	1952.01
403.74	2040.95
403.93	1942.64
404.13	2029.24
404.32	1863.07
404.51	1977.75
404.70	1980.09
404.89	2012.86
405.09	1996.48
405.28	1884.13
405.47	1877.11
405.66	1930.94
405.85	1886.47
406.05	1888.81
406.24	1757.74
406.43	1916.90
406.62	1956.69
406.81	2019.88
407.00	1952.01
407.20	1792.85
407.39	1837.32
407.58	2073.71
407.77	2059.67
407.96	2125.21
408.15	2193.08
408.34	2106.48
408.54	2200.10
408.73	2165.00
408.92	2108.82
409.11	2125.21
409.30	1949.67
409.49	1982.43
409.68	1724.97
409.87	1673.48
410.07	1898.17
410.26	2040.95
410.45	2153.29
410.64	2122.87
410.83	2230.53
411.02	2202.44
411.21	2347.56
411.40	2190.74
411.59	2279.68
411.78	2207.13
411.98	2303.09
412.17	2216.49
412.36	2214.15
412.55	2195.42
412.74	2139.25
412.93	2251.60
413.12	2097.12
413.31	2305.43
413.50	2338.20
413.69	2502.03
413.88	2457.56
414.07	2326.49
414.26	2319.47
414.45	2345.22
414.64	2457.56
414.83	2581.61
415.02	2349.90
415.22	2305.43
415.41	2361.60
415.60	2464.58
415.79	2602.68
415.98	2551.18
416.17	2630.76
416.36	2633.10
416.55	2504.37
416.74	2459.90
416.93	2347.56
417.12	2443.52
417.31	2375.64
417.50	2373.30
417.69	2546.50
417.88	2443.52
418.07	2546.50
418.26	2420.11
418.45	2466.92
418.64	2602.68
418.83	2679.91
419.02	2544.16
419.21	2551.18
419.39	2551.18
419.58	2289.04
419.77	2267.98
419.96	2464.58
420.15	2649.49
420.34	2597.99
420.53	2787.58
420.72	2813.32
420.91	2857.79
421.10	2661.19
421.29	2745.45
421.48	2612.04
421.67	2708.00
421.86	2600.34
422.05	2558.21
422.24	2420.11
422.43	2200.10
422.61	2331.17
422.80	2700.98
422.99	2626.08
423.18	2586.29
423.37	2619.06
423.56	2443.52
423.75	2602.68
423.94	2569.91
424.13	2328.83
424.32	2434.16
424.50	2525.44
424.69	2424.80
424.88	2448.20
425.07	2375.64
425.26	2530.12
425.45	2534.80
425.64	2506.71
425.83	2366.28
426.01	2562.89
426.20	2527.78
426.39	2551.18
426.58	2349.90
426.77	2239.89
426.96	2155.63
427.15	2228.19
427.33	2394.37
427.52	2448.20
427.71	2401.39
427.90	2457.56
428.09	2466.92
428.28	2321.81
428.46	2347.56
428.65	2228.19
428.84	2361.60
429.03	2408.41
429.22	2165.00
429.40	2197.76
429.59	2101.80
429.78	1937.96
429.97	1788.17
430.16	1769.44
430.34	1778.81
430.53	1811.57
430.72	1912.22
430.91	2040.95
431.10	2289.04
431.28	2633.10
431.47	2813.32
431.66	2920.99
431.85	2705.66
432.03	2462.24
432.22	2375.64
432.41	2455.22
432.60	2712.68
432.79	2710.34
432.97	2850.77
433.16	2850.77
433.35	2651.83
433.54	2443.52
433.72	2197.76
433.91	2333.51
434.10	2574.59
434.28	2663.53
434.47	2810.98
434.66	2867.16
434.85	2761.83
435.03	2773.53
435.22	2956.10
435.41	3197.17
435.59	3112.91
435.78	3335.26
435.97	3066.10
436.16	3232.28
436.34	3014.61
436.53	2848.43
436.72	2974.82
436.90	2820.35
437.09	2761.83
437.28	2740.77
437.46	2855.45
437.65	2846.09
437.84	2717.36
438.02	2497.35
438.21	2417.77
438.40	2548.84
438.58	2752.47
438.77	2956.10
438.96	2841.41
439.14	2904.60
439.33	2963.12
439.52	3112.91
439.70	3033.33
439.89	2860.13
440.08	2951.42
440.26	2874.18
440.45	2942.05
440.63	3117.59
440.82	3279.09
441.01	3251.00
441.19	3155.04
441.38	3389.10
441.57	3361.01
441.75	3412.50
441.94	3452.29
442.12	3304.84
442.31	3492.08
442.50	3358.67
442.68	3452.29
442.87	3246.32
443.05	3255.69
443.24	3185.47
443.43	3365.69
443.61	3550.59
443.80	3541.23
443.98	3314.20
444.17	3325.90
444.35	3541.23
444.54	3644.21
444.73	3485.06
444.91	3555.27
445.10	3368.03
445.28	3059.08
445.47	3016.95
445.65	3131.64
445.84	3246.32
446.02	3463.99
446.21	3243.98
446.39	3337.60
446.58	3454.63
446.77	3435.91
446.95	3487.40
447.14	3548.25
447.32	3662.94
447.51	3412.50
447.69	3431.23
447.88	3389.10
448.06	3442.93
448.25	3363.35
448.43	3548.25
448.62	3428.88
448.80	3426.54
448.99	3538.89
449.17	3529.53
449.36	3531.87
449.54	3590.38
449.73	3644.21
449.91	3763.58
450.10	3772.94
450.28	3744.86
450.46	3831.46
450.65	3911.04
450.83	3871.25
451.02	3702.73
451.20	3646.55
451.39	3733.15
451.57	3637.19
451.76	3786.99
451.94	3712.09
452.13	3597.40
452.31	3623.15
452.49	3365.69
452.68	3236.96
452.86	3424.20
453.05	3534.21
453.23	3407.82
453.42	3571.66
453.60	3658.26
453.78	3782.31
453.97	3693.37
454.15	3644.21
454.34	3524.85
454.52	3595.06
454.70	3538.89
454.89	3522.51
455.07	3559.95
455.26	3707.41
455.44	3779.97
455.62	3660.60
455.81	3831.46
455.99	3845.50
456.17	3646.55
456.36	3667.62
456.54	3826.78
456.73	3747.20
456.91	3913.38
457.09	3985.93
457.28	4156.79
457.46	3803.37
457.64	3906.35
457.83	3588.04
458.01	3698.05
458.19	3721.45
458.38	3632.51
458.56	3882.95
458.74	3737.84
458.93	3822.09
459.11	3789.33
459.29	3662.94
459.48	3721.45
459.66	3786.99
459.84	3782.31
460.03	3936.78
460.21	4037.42
460.39	3936.78
460.57	4030.40
460.76	3918.06
460.94	3934.44
461.12	3948.48
461.31	3805.71
461.49	3887.63
461.67	3791.67
461.85	4170.83
462.04	4053.81
462.22	4187.22
462.40	3990.61
462.59	3978.91
462.77	4109.98
462.95	4056.15
463.13	3955.51
463.32	3913.38
463.50	3887.63
463.68	3906.35
463.86	3838.48
464.05	3779.97
464.23	3786.99
464.41	3716.77
464.59	3716.77
464.78	3751.88
464.96	3758.90
465.14	3812.73
465.32	3943.80
465.50	3936.78
465.69	4051.47
465.87	3922.74
466.05	3763.58
466.23	3737.84
466.41	3651.24
466.60	3772.94
466.78	3595.06
466.96	3831.46
467.14	3918.06
467.32	3957.85
467.51	3836.14
467.69	3763.58
467.87	3815.07
468.05	3999.98
468.23	3810.39
468.41	3857.20
468.60	3875.93
468.78	3953.16
468.96	3913.38
469.14	3981.25
469.32	3997.64
469.50	3861.88
469.69	3838.48
469.87	3765.92
470.05	3782.31
470.23	3948.48
470.41	3763.58
470.59	3688.68
470.77	3904.01
470.95	3810.39
471.14	3948.48
471.32	3946.14
471.50	4205.94
471.68	4056.15
471.86	4011.68
472.04	4145.09
472.22	4297.22
472.40	4009.34
472.58	4060.83
472.77	3955.51
472.95	4074.87
473.13	4161.47
473.31	4074.87
473.49	4037.42
473.67	4119.34
473.85	4180.20
474.03	4269.14
474.21	4376.80
474.39	4264.46
474.57	4243.39
474.75	4360.42
474.93	4252.75
475.12	4100.62
475.30	4292.54
475.48	4236.37
475.66	4243.39
475.84	4191.90
476.02	4161.47
476.20	4219.99
476.38	4262.12
476.56	4322.97
476.74	4475.10
476.92	4337.01
477.10	4451.70
477.28	4514.89
477.46	4533.62
477.64	4580.43
477.82	4631.92
478.00	4695.11
478.18	4667.03
478.36	4669.37
478.54	4547.66
478.72	4479.79
478.90	4741.93
479.08	4774.69
479.26	4870.65
479.44	4875.34
479.62	4880.02
479.80	4865.97
479.98	4954.91
480.16	4964.28
480.34	4786.40
480.52	4875.34
480.70	4983.00
480.88	4905.76
481.06	5013.43
481.24	5041.51
481.41	4940.87
481.59	5149.18
481.77	5334.08
481.95	5067.26
482.13	5043.85
482.31	5135.14
482.49	5294.29
482.67	5095.35
482.85	5261.52
483.03	5434.72
483.21	5390.25
483.39	5301.31
483.57	5350.46
483.74	5268.55
483.92	5219.39
484.10	5247.48
484.28	5305.99
484.46	5638.35
484.64	5423.02
484.82	5526.00
485.00	5483.88
485.18	5315.36
485.35	5074.28
485.53	4765.33
485.71	4498.51
485.89	4196.58
486.07	4315.95
486.25	4903.42
486.43	5050.88
486.61	5181.95
486.78	5207.69
486.96	5144.50
487.14	5451.11
487.32	5589.20
487.50	5507.28
487.68	5692.18
487.85	5820.91
488.03	5928.58
488.21	5989.43
488.39	5813.89
488.57	5654.73
488.75	5425.36
488.92	5863.04
489.10	6012.84
489.28	6469.24
489.46	6314.77
489.64	6448.18
489.81	6443.49
489.99	6424.77
490.17	6382.64
490.35	6555.84
490.53	6349.87
490.70	6392.00
490.88	6560.52
491.06	6614.35
491.24	6490.31
491.41	6483.28
491.59	6181.35
491.77	5959.00
491.95	6061.99
492.13	6312.42
492.30	6399.02
492.48	6630.74
492.66	6635.42
492.84	6647.12
493.01	6841.39
493.19	6689.25
493.37	6567.54
493.54	6487.96
493.72	6551.16
493.90	6850.75
494.08	6916.28
494.25	7112.89
494.43	7173.74
494.61	7363.33
494.79	7286.09
494.96	7318.86
495.14	7037.99
495.32	7005.22
495.49	6722.02
495.67	6890.54
495.85	7204.17
496.02	7473.33
496.20	7438.22
496.38	7304.81
496.55	7253.32
496.73	7412.48
496.91	7267.36
497.09	7414.82
497.26	7639.51
497.44	7489.71
497.62	7456.95
497.79	7117.57
497.97	6850.75
498.14	6885.86
498.32	7157.36
498.50	7239.28
498.67	7559.93
498.85	7468.65
499.03	7386.73
499.20	7459.29
499.38	7674.62
499.56	7737.81
499.73	7393.75
499.91	7281.41
500.08	7037.99
500.26	6806.28
500.44	6902.24
500.61	7157.36
500.79	6993.52
500.97	7248.64
501.14	7054.37
501.32	7026.29
501.49	7030.97
501.67	7103.53
501.84	7047.35
502.02	7089.48
502.20	7529.50
502.37	7323.54
502.55	7360.98
502.72	7400.77
502.90	7410.14
503.07	7417.16
503.25	7178.42
503.43	7173.74
503.60	6836.70
503.78	6604.99
503.95	6511.37
504.13	6981.82
504.30	7370.35
504.48	7414.82
504.65	7405.46
504.83	7473.33
505.01	7658.23
505.18	7637.17
505.36	7653.55
505.53	7468.65
505.71	7801.01
505.88	8035.06
506.06	7793.98
506.23	7695.68
506.41	7438.22
506.58	7550.57
506.76	7407.80
506.93	7545.89
507.11	7412.48
507.28	7597.38
507.46	7405.46
507.63	7295.45
507.81	7262.68
507.98	7349.28
508.16	7386.73
508.33	7618.44
508.50	7777.60
508.68	7960.16
508.85	7894.63
509.03	8086.55
509.20	7988.25
509.38	7943.78
509.55	7468.65
509.73	7606.74
509.90	7681.64
510.08	7672.28
510.25	7939.10
510.42	7911.01
510.60	7793.98
510.77	8021.02
510.95	8138.04
511.12	7974.21
511.30	8140.38
511.47	8166.13
511.64	7960.16
511.82	8058.46
511.99	7885.26
512.17	7833.77
512.34	7665.25
512.51	7578.65
512.69	7770.58
512.86	7978.89
513.04	7845.48
513.21	8168.47
513.38	7761.22
513.56	7644.19
513.73	7452.27
513.90	7744.83
514.08	7716.75
514.25	7765.90
514.43	7850.16
514.60	7744.83
514.77	7712.07
514.95	7801.01
515.12	7859.52
515.29	7878.24
515.47	8088.89
515.64	8154.43
515.81	8058.46
515.99	7693.34
516.16	7466.31
516.33	7028.63
516.51	6726.70
516.68	6380.30
516.85	6249.23
517.03	6230.51
517.20	6768.83
517.37	7651.21
517.54	7770.58
517.72	7559.93
517.89	7279.07
518.06	6647.12
518.24	6766.49
518.41	7314.17
518.58	7412.48
518.75	7627.81
518.93	7723.77
519.10	7447.58
519.27	7754.19
519.45	7777.60
519.62	7662.91
519.79	8126.34
519.96	8002.29
520.14	8018.68
520.31	7705.04
520.48	7566.95
520.65	7756.54
520.83	7817.39
521.00	8091.23
521.17	8042.08
521.34	7943.78
521.52	7957.82
521.69	8245.71
521.86	8297.20
522.03	8255.07
522.20	7896.97
522.38	7552.91
522.55	7515.46
522.72	7634.83
522.89	7850.16
523.07	7925.05
523.24	7864.20
523.41	8011.65
523.58	8060.80
523.75	8222.30
523.92	8184.85
524.10	8365.07
524.27	8320.60
524.44	8280.82
524.61	8266.77
524.78	8116.98
524.96	8271.45
525.13	8058.46
525.30	8217.62
525.47	8390.82
525.64	8222.30
525.81	8318.26
525.98	7892.29
526.16	7426.52
526.33	7222.89
526.50	7016.93
526.67	7117.57
526.84	7009.90
527.01	7166.72
527.18	7524.82
527.36	7716.75
527.53	7941.44
527.70	8203.58
527.87	7866.54
528.04	7950.80
528.21	7854.84
528.38	8159.11
528.55	8348.69
528.72	8594.45
528.89	8744.24
529.07	8498.49
529.24	8243.37
529.41	7985.91
529.58	7925.05
529.75	7918.03
529.92	8065.49
530.09	8145.06
530.26	8245.71
530.43	8283.16
530.60	8425.93
530.77	8627.21
530.94	8411.89
531.11	8313.58
531.28	8493.80
531.46	8252.73
531.63	8346.35
531.80	8346.35
531.97	8013.99
532.14	7976.55
532.31	7756.54
532.48	7651.21
532.65	7382.05
532.82	7641.85
532.99	7728.45
533.16	8030.38
533.33	8341.67
533.50	8182.51
533.67	7978.89
533.84	7833.77
534.01	7955.48
534.18	7948.46
534.35	8149.75
534.52	7971.86
534.69	7981.23
534.86	8184.85
535.03	8241.03
535.20	8484.44
535.37	8627.21
535.54	8444.65
535.71	8463.38
535.88	8393.16
536.05	8126.34
536.22	8294.86
536.38	8032.72
536.55	7831.43
536.72	7735.47
536.89	7508.44
537.06	7829.09
537.23	8229.32
537.40	8231.66
537.57	8166.13
537.74	8177.83
537.91	8067.83
538.08	8046.76
538.25	8154.43
538.42	8285.50
538.59	8046.76
538.75	8196.56
538.92	7815.05
539.09	7903.99
539.26	7714.41
539.43	7712.07
539.60	7791.64
539.77	7765.90
539.94	7929.74
540.11	7770.58
540.28	7634.83
540.44	7400.77
540.61	7503.76
540.78	7550.57
540.95	7672.28
541.12	7831.43
541.29	8016.33
541.46	8042.08
541.62	8140.38
541.79	8042.08
541.96	7847.82
542.13	7861.86
542.30	8152.09
542.47	7929.74
542.63	8018.68
542.80	7819.73
542.97	7967.18
543.14	7896.97
543.31	7939.10
543.48	7995.27
543.64	8245.71
543.81	8369.76
543.98	8360.39
544.15	8336.99
544.32	7941.44
544.48	8018.68
544.65	8011.65
544.82	8128.68
544.99	8152.09
545.16	8215.28
545.32	7915.69
545.49	8482.10
545.66	8795.73
545.83	8851.91
546.00	8355.71
546.16	8021.02
546.33	8168.47
546.50	8163.79
546.67	8250.39
546.83	7859.52
547.00	8072.51
547.17	7639.51
547.34	7779.94
547.50	7625.47
547.67	7777.60
547.84	7712.07
548.00	7845.48
548.17	7854.84
548.34	7913.35
548.51	8016.33
548.67	8011.65
548.84	7946.12
549.01	8046.76
549.18	8044.42
549.34	8056.12
549.51	7901.65
549.68	8086.55
549.84	7658.23
550.01	7793.98
550.18	7955.48
550.34	7836.11
550.51	7927.39
550.68	7786.96
550.84	7585.68
551.01	7686.32
551.18	7808.03
551.34	7648.87
551.51	7768.24
551.68	8011.65
551.84	7829.09
552.01	7995.27
552.18	7922.71
552.34	7602.06
552.51	7545.89
552.68	7536.52
552.84	7719.09
553.01	7815.05
553.18	7562.27
553.34	7602.06
553.51	7758.88
553.67	7861.86
553.84	7946.12
554.01	7885.26
554.17	7751.85
554.34	7653.55
554.51	7770.58
554.67	8023.36
554.84	7702.70
555.00	7903.99
555.17	7735.47
555.33	7859.52
555.50	7648.87
555.67	7801.01
555.83	7534.18
556.00	7529.50
556.16	7630.15
556.33	7410.14
556.50	7581.00
556.66	7372.69
556.83	7342.26
556.99	7407.80
557.16	7442.90
557.32	7459.29
557.49	7438.22
557.65	7597.38
557.82	7475.67
557.98	7522.48
558.15	7335.24
558.32	7213.53
558.48	7089.48
558.65	7295.45
558.81	7080.12
558.98	7131.61
559.14	7162.04
559.31	7311.83
559.47	7442.90
559.64	7234.60
559.80	7143.32
559.97	7119.91
560.13	7316.51
560.30	7419.50
560.46	7627.81
560.63	7573.97
560.79	7793.98
560.96	7485.03
561.12	7386.73
561.29	7040.33
561.45	7138.63
561.61	7108.21
561.78	7405.46
561.94	7293.11
562.11	7279.07
562.27	7234.60
562.44	7246.30
562.60	7445.24
562.77	7262.68
562.93	7634.83
563.10	7506.10
563.26	7131.61
563.42	7396.09
563.59	7166.72
563.75	7108.21
563.92	6967.77
564.08	7211.19
564.24	7166.72
564.41	7187.79
564.57	7183.10
564.74	7300.13
564.90	7295.45
565.07	7145.66
565.23	7049.69
565.39	6817.98
565.56	6932.67
565.72	6803.94
565.88	6750.10
566.05	6785.21
566.21	7084.80
566.38	7040.33
566.54	6953.73
566.70	7061.40
566.87	7087.14
567.03	7152.68
567.19	7148.00
567.36	7201.83
567.52	6977.14
567.68	6827.34
567.85	6862.45
568.01	6574.56
568.17	6480.94
568.34	6361.58
568.50	6497.33
568.66	6366.26
568.83	6558.18
568.99	6534.78
569.15	6558.18
569.32	6513.71
569.48	6579.25
569.64	6443.49
569.81	6656.48
569.97	6370.94
570.13	6642.44
570.30	6651.80
570.46	6399.02
570.62	6459.88
570.78	6230.51
570.95	6321.79
571.11	6382.64
571.27	6415.41
571.43	6361.58
571.60	6513.71
571.76	6586.27
571.92	6644.78
572.09	6597.97
572.25	6574.56
572.41	6684.57
572.57	6588.61
572.74	6675.21
572.90	6569.88
573.06	6565.20
573.22	6630.74
573.38	6782.87
573.55	6626.06
573.71	6700.95
573.87	6441.15
574.03	6396.68
574.20	6452.86
574.36	6448.18
574.52	6305.40
574.68	6532.44
574.84	6293.70
575.01	6312.42
575.17	6314.77
575.33	6349.87
575.49	6399.02
575.65	6349.87
575.82	6237.53
575.98	6270.30
576.14	6216.46
576.30	6314.77
576.46	6651.80
576.62	6574.56
576.79	6649.46
576.95	6562.86
577.11	6464.56
577.27	6422.43
577.43	6392.00
577.59	6324.13
577.75	6310.08
577.92	6129.86
578.08	6040.92
578.24	6024.54
578.40	6113.48
578.56	6150.93
578.72	6452.86
578.88	6429.45
579.04	6471.58
579.21	6387.32
579.37	6413.07
579.53	6319.45
579.69	6476.26
579.85	6448.18
580.01	6443.49
580.17	6396.68
580.33	6319.45
580.49	6338.17
580.65	6380.30
580.82	6590.95
580.98	6476.26
581.14	6431.79
581.30	6511.37
581.46	6396.68
581.62	6452.86
581.78	6464.56
581.94	6485.62
582.10	6523.07
582.26	6574.56
582.42	6623.72
582.58	6452.86
582.74	6441.15
582.90	6574.56
583.06	6483.28
583.22	6424.77
583.38	6462.22
583.54	6356.90
583.70	6389.66
583.86	6392.00
584.02	6300.72
584.18	6581.59
584.34	6368.60
584.50	6445.84
584.66	6216.46
584.82	6312.42
584.98	6253.91
585.14	6083.05
585.30	5907.51
585.46	5982.41
585.62	5951.98
585.78	6157.95
585.94	6045.60
586.10	6080.71
586.26	6162.63
586.42	6228.17
586.58	6223.48
586.74	6211.78
586.90	6148.59
587.06	5809.21
587.22	5968.37
587.38	5827.93
587.54	5870.06
587.70	5846.66
587.86	5425.36
588.02	5392.59
588.18	5296.63
588.34	5027.47
588.49	4901.08
588.65	4430.63
588.81	4365.10
588.97	4418.93
589.13	4456.38
589.29	4456.38
589.45	4442.34
589.61	4486.81
589.77	4652.98
589.93	4798.10
590.08	5085.98
590.24	5078.96
590.40	5294.29
590.56	5273.23
590.72	5186.63
590.88	5191.31
591.04	5193.65
591.20	5142.16
591.35	5083.64
591.51	4910.44
591.67	4915.12
591.83	4931.51
591.99	4851.93
592.15	4959.60
592.31	5071.94
592.46	5249.82
592.62	5270.89
592.78	5238.12
592.94	5334.08
593.10	5362.17
593.26	5439.40
593.41	5526.00
593.57	5465.15
593.73	5261.52
593.89	5043.85
594.05	4807.46
594.20	4730.22
594.36	4809.80
594.52	4725.54
594.68	4748.95
594.84	4875.34
594.99	5057.90
595.15	5069.60
595.31	5188.97
595.47	5116.41
595.62	5308.34
595.78	5221.74
595.94	5221.74
596.10	5329.40
596.25	5385.57
596.41	5165.56
596.57	5004.07
596.73	5123.43
596.88	5177.26
597.04	5331.74
597.20	5193.65
597.36	5083.64
597.51	5284.93
597.67	5221.74
