SpectraSuite Data File
++++++++++++++++++++++++++++++++++++
Date: Fri Oct 04 11:44:25 GMT-05:00 2013
User: price-jones
Dark Spectrum Present: No
Reference Spectrum Present: No
Number of Sampled Component Spectra: 1
Spectrometers: USB2+H05261
Integration Time (usec): 100000 (USB2+H05261)
Spectra Averaged: 1 (USB2+H05261)
Boxcar Smoothing: 0 (USB2+H05261)
Correct for Electrical Dark: No (USB2+H05261)
Strobe/Lamp Enabled: No (USB2+H05261)
Correct for Detector Non-linearity: No (USB2+H05261)
Correct for Stray Light: No (USB2+H05261)
Number of Pixels in Processed Spectrum: 2048
>>>>>Begin Processed Spectral Data<<<<<
365.73	0.00
365.92	0.00
366.12	0.00
366.32	0.00
366.52	0.00
366.72	0.00
366.91	0.00
367.11	0.00
367.31	0.00
367.51	0.00
367.70	0.00
367.90	0.00
368.10	0.00
368.30	0.00
368.49	0.00
368.69	0.00
368.89	0.00
369.09	0.00
369.28	0.00
369.48	0.00
369.68	0.00
369.87	0.00
370.07	0.00
370.27	58.51
370.47	46.81
370.66	154.48
370.86	201.29
371.06	308.95
371.25	318.31
371.45	217.67
371.65	234.05
371.84	198.95
372.04	212.99
372.24	205.97
372.44	191.92
372.63	212.99
372.83	234.05
373.03	229.37
373.22	208.31
373.42	264.48
373.62	234.05
373.81	266.82
374.01	243.42
374.21	212.99
374.40	294.91
374.60	250.44
374.79	273.84
374.99	376.83
375.19	238.73
375.38	358.10
375.58	238.73
375.78	299.59
375.97	266.82
376.17	365.12
376.37	334.70
376.56	318.31
376.76	273.84
376.95	339.38
377.15	400.23
377.35	360.44
377.54	381.51
377.74	365.12
377.93	465.77
378.13	360.44
378.33	386.19
378.52	269.16
378.72	341.72
378.91	301.93
379.11	245.76
379.31	255.12
379.50	294.91
379.70	330.02
379.89	306.61
380.09	297.25
380.28	262.14
380.48	304.27
380.68	322.99
380.87	322.99
381.07	327.68
381.26	245.76
381.46	308.95
381.65	299.59
381.85	285.55
382.04	292.57
382.24	259.80
382.43	327.68
382.63	243.42
382.83	306.61
383.02	227.03
383.22	311.29
383.41	177.88
383.61	269.16
383.80	325.33
384.00	297.25
384.19	306.61
384.39	346.40
384.58	327.68
384.78	374.49
384.97	358.10
385.17	308.95
385.36	358.10
385.56	325.33
385.75	320.65
385.95	294.91
386.14	304.27
386.34	388.53
386.53	376.83
386.72	327.68
386.92	327.68
387.11	290.23
387.31	428.32
387.50	386.19
387.70	358.10
387.89	388.53
388.09	264.48
388.28	304.27
388.48	341.72
388.67	402.57
388.86	358.10
389.06	451.72
389.25	484.49
389.45	437.68
389.64	423.64
389.84	505.56
390.03	444.70
390.22	402.57
390.42	404.91
390.61	360.44
390.81	461.09
391.00	435.34
391.19	461.09
391.39	404.91
391.58	505.56
391.78	430.66
391.97	486.83
392.16	470.45
392.36	479.81
392.55	341.72
392.75	205.97
392.94	236.39
393.13	248.10
393.33	234.05
393.52	285.55
393.71	379.17
393.91	421.30
394.10	379.17
394.29	360.44
394.49	496.19
394.68	393.21
394.88	461.09
395.07	435.34
395.26	489.17
395.46	425.98
395.65	433.00
395.84	353.42
396.04	381.51
396.23	339.38
396.42	393.21
396.62	252.78
396.81	390.87
397.00	311.29
397.19	493.85
397.39	423.64
397.58	477.47
397.77	578.11
397.97	582.79
398.16	526.62
398.35	599.18
398.55	493.85
398.74	624.92
398.93	638.97
399.12	629.60
399.32	587.47
399.51	589.82
399.70	681.10
399.90	580.45
400.09	585.13
400.28	592.16
400.47	634.29
400.67	596.84
400.86	692.80
401.05	723.23
401.24	739.61
401.44	727.91
401.63	692.80
401.82	709.18
402.01	720.88
402.21	631.94
402.40	622.58
402.59	655.35
402.78	676.41
402.97	606.20
403.17	667.05
403.36	678.76
403.55	688.12
403.74	617.90
403.93	800.46
404.13	774.72
404.32	788.76
404.51	788.76
404.70	760.67
404.89	770.04
405.09	744.29
405.28	746.63
405.47	716.20
405.66	645.99
405.85	589.82
406.05	603.86
406.24	613.22
406.43	681.10
406.62	671.73
406.81	805.14
407.00	716.20
407.20	650.67
407.39	655.35
407.58	718.54
407.77	688.12
407.96	739.61
408.15	795.78
408.34	720.88
408.54	826.21
408.73	791.10
408.92	716.20
409.11	739.61
409.30	727.91
409.49	641.31
409.68	692.80
409.87	662.37
410.07	755.99
410.26	718.54
410.45	718.54
410.64	805.14
410.83	767.70
411.02	868.34
411.21	767.70
411.40	760.67
411.59	828.55
411.78	891.74
411.98	802.80
412.17	844.93
412.36	695.14
412.55	784.08
412.74	816.85
412.93	805.14
413.12	678.76
413.31	896.43
413.50	791.10
413.69	858.98
413.88	891.74
414.07	814.51
414.26	868.34
414.45	840.25
414.64	887.06
414.83	861.32
415.02	760.67
415.22	898.77
415.41	912.81
415.60	931.53
415.79	851.96
415.98	875.36
416.17	985.37
416.36	823.87
416.55	866.00
416.74	863.66
416.93	807.48
417.12	889.40
417.31	849.61
417.50	823.87
417.69	870.68
417.88	870.68
418.07	877.70
418.26	802.80
418.45	856.64
418.64	922.17
418.83	901.11
419.02	858.98
419.21	828.55
419.39	805.14
419.58	842.59
419.77	908.13
419.96	957.28
420.15	964.30
420.34	924.51
420.53	950.26
420.72	992.39
420.91	964.30
421.10	950.26
421.29	905.79
421.48	922.17
421.67	901.11
421.86	929.19
422.05	945.58
422.24	826.21
422.43	835.57
422.61	868.34
422.80	933.87
422.99	889.40
423.18	873.02
423.37	929.19
423.56	894.08
423.75	894.08
423.94	894.08
424.13	924.51
424.32	912.81
424.50	880.04
424.69	910.47
424.88	844.93
425.07	873.02
425.26	873.02
425.45	910.47
425.64	849.61
425.83	777.06
426.01	828.55
426.20	894.08
426.39	847.27
426.58	863.66
426.77	821.53
426.96	887.06
427.15	765.36
427.33	807.48
427.52	863.66
427.71	961.96
427.90	912.81
428.09	842.59
428.28	816.85
428.46	833.23
428.65	798.12
428.84	861.32
429.03	856.64
429.22	744.29
429.40	681.10
429.59	725.57
429.78	634.29
429.97	620.24
430.16	711.52
430.34	667.05
430.53	674.07
430.72	723.23
430.91	723.23
431.10	856.64
431.28	957.28
431.47	1008.77
431.66	952.60
431.85	814.51
432.03	814.51
432.22	922.17
432.41	905.79
432.60	945.58
432.79	945.58
432.97	987.71
433.16	1029.84
433.35	781.74
433.54	821.53
433.72	795.78
433.91	875.36
434.10	856.64
434.28	964.30
434.47	1013.45
434.66	1067.28
434.85	961.96
435.03	999.41
435.22	1385.60
435.41	1732.00
435.59	1643.06
435.78	1556.46
435.97	1268.57
436.16	1116.44
436.34	1069.62
436.53	936.21
436.72	1137.50
436.90	1013.45
437.09	945.58
437.28	990.05
437.46	999.41
437.65	1069.62
437.84	968.98
438.02	856.64
438.21	868.34
438.40	889.40
438.58	961.96
438.77	994.73
438.96	999.41
439.14	1050.90
439.33	978.34
439.52	1114.10
439.70	1069.62
439.89	1022.81
440.08	994.73
440.26	954.94
440.45	1064.94
440.63	1146.86
440.82	1095.37
441.01	1132.82
441.19	1121.12
441.38	1167.93
441.57	1121.12
441.75	1184.31
441.94	1165.59
442.12	1163.25
442.31	1172.61
442.50	1214.74
442.68	1214.74
442.87	1170.27
443.05	1196.01
443.24	1137.50
443.43	1165.59
443.61	1186.65
443.80	1228.78
443.98	1083.67
444.17	1121.12
444.35	1301.34
444.54	1207.72
444.73	1270.91
444.91	1219.42
445.10	1121.12
445.28	1097.71
445.47	1071.97
445.65	997.07
445.84	1172.61
446.02	1121.12
446.21	1102.39
446.39	1067.28
446.58	1210.06
446.77	1181.97
446.95	1151.54
447.14	1226.44
447.32	1336.45
447.51	1177.29
447.69	1142.18
447.88	1114.10
448.06	1128.14
448.25	1228.78
448.43	1247.51
448.62	1221.76
448.80	1160.91
448.99	1200.69
449.17	1263.89
449.36	1284.95
449.54	1205.38
449.73	1188.99
449.91	1324.74
450.10	1266.23
450.28	1343.47
450.46	1313.04
450.65	1247.51
450.83	1280.27
451.02	1270.91
451.20	1277.93
451.39	1266.23
451.57	1219.42
451.76	1266.23
451.94	1301.34
452.13	1242.82
452.31	1165.59
452.49	1214.74
452.68	1191.33
452.86	1132.82
453.05	1196.01
453.23	1165.59
453.42	1160.91
453.60	1214.74
453.78	1219.42
453.97	1179.63
454.15	1193.67
454.34	1233.46
454.52	1118.78
454.70	1289.64
454.89	1109.41
455.07	1207.72
455.26	1273.25
455.44	1291.98
455.62	1259.21
455.81	1303.68
455.99	1345.81
456.17	1217.08
456.36	1233.46
456.54	1301.34
456.73	1275.59
456.91	1289.64
457.09	1341.13
457.28	1390.28
457.46	1345.81
457.64	1355.17
457.83	1275.59
458.01	1287.29
458.19	1357.51
458.38	1203.04
458.56	1289.64
458.74	1294.32
458.93	1380.92
459.11	1235.80
459.29	1259.21
459.48	1357.51
459.66	1315.38
459.84	1299.00
460.03	1336.45
460.21	1291.98
460.39	1282.61
460.57	1329.42
460.76	1336.45
460.94	1282.61
461.12	1345.81
461.31	1362.19
461.49	1315.38
461.67	1359.85
461.85	1275.59
462.04	1343.47
462.22	1853.70
462.40	1380.92
462.59	1343.47
462.77	1418.36
462.95	1329.42
463.13	1184.31
463.32	1357.51
463.50	1336.45
463.68	1345.81
463.86	1217.08
464.05	1362.19
464.23	1226.44
464.41	1313.04
464.59	1296.66
464.78	1341.13
464.96	1301.34
465.14	1303.68
465.32	1371.55
465.50	1357.51
465.69	1320.06
465.87	1287.29
466.05	1282.61
466.23	1207.72
466.41	1214.74
466.60	1214.74
466.78	1294.32
466.96	1203.04
467.14	1193.67
467.32	1401.98
467.51	1313.04
467.69	1313.04
467.87	1357.51
468.05	1327.08
468.23	1334.11
468.41	1399.64
468.60	1322.40
468.78	1366.87
468.96	1364.53
469.14	1394.96
469.32	1289.64
469.50	1240.48
469.69	1242.82
469.87	1301.34
470.05	1252.19
470.23	1205.38
470.41	1214.74
470.59	1261.55
470.77	1249.85
470.95	1343.47
471.14	1235.80
471.32	1324.74
471.50	1301.34
471.68	1242.82
471.86	1378.58
472.04	1401.98
472.22	1399.64
472.40	1338.79
472.58	1310.70
472.77	1310.70
472.95	1299.00
473.13	1376.24
473.31	1427.73
473.49	1242.82
473.67	1336.45
473.85	1376.24
474.03	1490.92
474.21	1430.07
474.39	1465.18
474.57	1453.47
474.75	1380.92
474.93	1430.07
475.12	1320.06
475.30	1359.85
475.48	1385.60
475.66	1317.72
475.84	1399.64
476.02	1416.02
476.20	1420.71
476.38	1561.14
476.56	1451.13
476.74	1451.13
476.92	1409.00
477.10	1500.28
477.28	1533.05
477.46	1507.30
477.64	1568.16
477.82	1460.49
478.00	1549.43
478.18	1460.49
478.36	1533.05
478.54	1521.35
478.72	1570.50
478.90	1598.59
479.08	1640.72
479.26	1603.27
479.44	1516.67
479.62	1565.82
479.80	1661.78
479.98	1603.27
480.16	1577.52
480.34	1612.63
480.52	1666.46
480.70	1659.44
480.88	1720.29
481.06	1647.74
481.24	1563.48
481.41	1621.99
481.59	1696.89
481.77	1668.80
481.95	1783.49
482.13	1682.85
482.31	1703.91
482.49	1769.44
482.67	1748.38
482.85	1706.25
483.03	1750.72
483.21	1806.89
483.39	1753.06
483.57	1795.19
483.74	1844.34
483.92	1872.43
484.10	1832.64
484.28	1872.43
484.46	1881.79
484.64	1830.30
484.82	1811.57
485.00	1816.26
485.18	1760.08
485.35	1790.51
485.53	1591.56
485.71	1486.24
485.89	1504.96
486.07	1500.28
486.25	1797.53
486.43	1645.40
486.61	1792.85
486.78	1675.82
486.96	1750.72
487.14	1884.13
487.32	1980.09
487.50	2003.50
487.68	1989.46
487.85	2083.08
488.03	1989.46
488.21	2038.61
488.39	1874.77
488.57	1961.37
488.75	1963.71
488.92	2237.55
489.10	2054.99
489.28	2162.66
489.46	2162.66
489.64	2085.42
489.81	2017.54
489.99	2134.57
490.17	2167.34
490.35	2200.10
490.53	2038.61
490.70	2120.53
490.88	2132.23
491.06	2143.93
491.24	2157.97
491.41	2214.15
491.59	2064.35
491.77	2132.23
491.95	1987.11
492.13	2022.22
492.30	2228.19
492.48	2169.68
492.66	2291.38
492.84	2143.93
493.01	2307.77
493.19	2148.61
493.37	2186.06
493.54	2132.23
493.72	2204.78
493.90	2228.19
494.08	2438.84
494.25	2204.78
494.43	2438.84
494.61	2478.63
494.79	2427.14
494.96	2349.90
495.14	2354.58
495.32	2300.75
495.49	2267.98
495.67	2277.34
495.85	2478.63
496.02	2284.36
496.20	2317.13
496.38	2392.03
496.55	2373.30
496.73	2377.98
496.91	2417.77
497.09	2520.76
497.26	2443.52
497.44	2422.45
497.62	2326.49
497.79	2340.54
497.97	2286.70
498.14	2202.44
498.32	2258.62
498.50	2438.84
498.67	2431.82
498.85	2347.56
499.03	2403.73
499.20	2431.82
499.38	2406.07
499.56	2394.37
499.73	2422.45
499.91	2305.43
500.08	2221.17
500.26	2094.78
500.44	2275.00
500.61	2354.58
500.79	2324.15
500.97	2300.75
501.14	2242.23
501.32	2321.81
501.49	2157.97
501.67	2155.63
501.84	2312.45
502.02	2406.07
502.20	2436.50
502.37	2289.04
502.55	2382.67
502.72	2396.71
502.90	2331.17
503.07	2310.11
503.25	2321.81
503.43	2331.17
503.60	2143.93
503.78	2073.71
503.95	2169.68
504.13	2326.49
504.30	2338.20
504.48	2408.41
504.65	2396.71
504.83	2366.28
505.01	2303.09
505.18	2436.50
505.36	2356.92
505.53	2619.06
505.71	2511.39
505.88	2452.88
506.06	2612.04
506.23	2495.01
506.41	2415.43
506.58	2380.32
506.76	2434.16
506.93	2408.41
507.11	2464.58
507.28	2455.22
507.46	2256.28
507.63	2380.32
507.81	2312.45
507.98	2328.83
508.16	2349.90
508.33	2347.56
508.50	2509.05
508.68	2541.82
508.85	2623.74
509.03	2513.74
509.20	2590.97
509.38	2502.03
509.55	2427.14
509.73	2490.33
509.90	2499.69
510.08	2457.56
510.25	2523.10
510.42	2511.39
510.60	2478.63
510.77	2408.41
510.95	2544.16
511.12	2569.91
511.30	2490.33
511.47	2656.51
511.64	2719.70
511.82	2588.63
511.99	2668.21
512.17	2511.39
512.34	2403.73
512.51	2448.20
512.69	2530.12
512.86	2530.12
513.04	2487.99
513.21	2567.57
513.38	2455.22
513.56	2511.39
513.73	2356.92
513.90	2319.47
514.08	2452.88
514.25	2420.11
514.43	2410.75
514.60	2455.22
514.77	2445.86
514.95	2455.22
515.12	2434.16
515.29	2509.05
515.47	2581.61
515.64	2593.31
515.81	2476.29
515.99	2567.57
516.16	2373.30
516.33	2235.21
516.51	2155.63
516.68	2022.22
516.85	2036.27
517.03	2092.44
517.20	2225.85
517.37	2370.96
517.54	2464.58
517.72	2502.03
517.89	2244.57
518.06	2078.40
518.24	2300.75
518.41	2338.20
518.58	2352.24
518.75	2387.35
518.93	2406.07
519.10	2436.50
519.27	2455.22
519.45	2534.80
519.62	2455.22
519.79	2637.78
519.96	2530.12
520.14	2471.61
520.31	2387.35
520.48	2546.50
520.65	2490.33
520.83	2590.97
521.00	2614.38
521.17	2544.16
521.34	2562.89
521.52	2560.55
521.69	2574.59
521.86	2626.08
522.03	2595.65
522.20	2527.78
522.38	2450.54
522.55	2478.63
522.72	2436.50
522.89	2513.74
523.07	2548.84
523.24	2520.76
523.41	2572.25
523.58	2640.12
523.75	2668.21
523.92	2600.34
524.10	2574.59
524.27	2551.18
524.44	2616.72
524.61	2600.34
524.78	2628.42
524.96	2583.95
525.13	2745.45
525.30	2619.06
525.47	2607.36
525.64	2609.70
525.81	2668.21
525.98	2490.33
526.16	2424.80
526.33	2307.77
526.50	2291.38
526.67	2181.38
526.84	2256.28
527.01	2352.24
527.18	2579.27
527.36	2518.42
527.53	2492.67
527.70	2579.27
527.87	2534.80
528.04	2504.37
528.21	2525.44
528.38	2588.63
528.55	2698.64
528.72	2729.06
528.89	2789.92
529.07	2602.68
529.24	2616.72
529.41	2684.59
529.58	2523.10
529.75	2436.50
529.92	2499.69
530.09	2623.74
530.26	2586.29
530.43	2682.25
530.60	2731.41
530.77	2682.25
530.94	2843.75
531.11	2677.57
531.28	2626.08
531.46	2579.27
531.63	2623.74
531.80	2602.68
531.97	2731.41
532.14	2619.06
532.31	2588.63
532.48	2448.20
532.65	2342.88
532.82	2373.30
532.99	2597.99
533.16	2569.91
533.33	2810.98
533.50	2612.04
533.67	2530.12
533.84	2534.80
534.01	2478.63
534.18	2612.04
534.35	2635.44
534.52	2560.55
534.69	2670.55
534.86	2710.34
535.03	2586.29
535.20	2679.91
535.37	2717.36
535.54	2649.49
535.71	2616.72
535.88	2621.40
536.05	2644.81
536.22	2574.59
536.38	2621.40
536.55	2567.57
536.72	2569.91
536.89	2401.39
537.06	2551.18
537.23	2539.48
537.40	2649.49
537.57	2715.02
537.74	2691.62
537.91	2733.75
538.08	2686.94
538.25	2708.00
538.42	2609.70
538.59	2757.15
538.75	2621.40
538.92	2530.12
539.09	2605.02
539.26	2574.59
539.43	2668.21
539.60	2663.53
539.77	2729.06
539.94	2693.96
540.11	2597.99
540.28	2635.44
540.44	2626.08
540.61	2670.55
540.78	2759.49
540.95	2897.58
541.12	3019.29
541.29	3119.93
541.46	3229.94
541.62	3033.33
541.79	3166.74
541.96	3014.61
542.13	3084.83
542.30	2998.23
542.47	3026.31
542.63	3038.02
542.80	2951.42
542.97	2916.31
543.14	2960.78
543.31	2979.50
543.48	2970.14
543.64	2974.82
543.81	3108.23
543.98	2937.37
544.15	3094.19
544.32	3023.97
544.48	3021.63
544.65	3040.36
544.82	3035.67
544.99	2993.55
545.16	3005.25
545.32	2988.86
545.49	3578.68
545.66	4140.41
545.83	4320.63
546.00	4133.39
546.16	3482.72
546.33	3255.69
546.50	3014.61
546.67	3119.93
546.83	2918.65
547.00	2920.99
547.17	2810.98
547.34	2794.60
547.50	2731.41
547.67	2626.08
547.84	2708.00
548.00	2878.86
548.17	2810.98
548.34	2738.43
548.51	2832.05
548.67	2881.20
548.84	2668.21
549.01	2860.13
549.18	2649.49
549.34	2672.89
549.51	2612.04
549.68	2799.28
549.84	2635.44
550.01	2658.85
550.18	2626.08
550.34	2696.30
550.51	2668.21
550.68	2722.04
550.84	2588.63
551.01	2637.78
551.18	2574.59
551.34	2609.70
551.51	2656.51
551.68	2623.74
551.84	2731.41
552.01	2487.99
552.18	2654.17
552.34	2525.44
552.51	2450.54
552.68	2520.76
552.84	2518.42
553.01	2609.70
553.18	2567.57
553.34	2548.84
553.51	2597.99
553.67	2588.63
553.84	2689.28
554.01	2640.12
554.17	2434.16
554.34	2525.44
554.51	2609.70
554.67	2546.50
554.84	2436.50
555.00	2464.58
555.17	2506.71
555.33	2565.23
555.50	2469.27
555.67	2537.14
555.83	2251.60
556.00	2377.98
556.16	2497.35
556.33	2356.92
556.50	2349.90
556.66	2420.11
556.83	2366.28
556.99	2408.41
557.16	2349.90
557.32	2469.27
557.49	2253.94
557.65	2478.63
557.82	2352.24
557.98	2466.92
558.15	2457.56
558.32	2317.13
558.48	2221.17
558.65	2298.41
558.81	2307.77
558.98	2363.94
559.14	2300.75
559.31	2289.04
559.47	2340.54
559.64	2345.22
559.80	2242.23
559.97	2307.77
560.13	2265.64
560.30	2317.13
560.46	2317.13
560.63	2457.56
560.79	2455.22
560.96	2438.84
561.12	2272.66
561.29	2361.60
561.45	2253.94
561.61	2328.83
561.78	2375.64
561.94	2282.02
562.11	2260.96
562.27	2286.70
562.44	2204.78
562.60	2366.28
562.77	2462.24
562.93	2476.29
563.10	2277.34
563.26	2193.08
563.42	2324.15
563.59	2326.49
563.75	2305.43
563.92	2314.79
564.08	2363.94
564.24	2417.77
564.41	2366.28
564.57	2298.41
564.74	2298.41
564.90	2267.98
565.07	2347.56
565.23	2223.51
565.39	2174.36
565.56	2216.49
565.72	2162.66
565.88	2143.93
566.05	2218.83
566.21	2289.04
566.38	2223.51
566.54	2207.13
566.70	2282.02
566.87	2267.98
567.03	2242.23
567.19	2312.45
567.36	2242.23
567.52	2260.96
567.68	2181.38
567.85	2153.29
568.01	2054.99
568.17	2125.21
568.34	1987.11
568.50	2073.71
568.66	1966.05
568.83	2069.03
568.99	1982.43
569.15	2050.31
569.32	2087.76
569.48	2010.52
569.64	2153.29
569.81	2024.56
569.97	1977.75
570.13	2057.33
570.30	2169.68
570.46	2115.84
570.62	2001.16
570.78	1956.69
570.95	1949.67
571.11	2024.56
571.27	2146.27
571.43	2047.97
571.60	2125.21
571.76	2172.02
571.92	2087.76
572.09	2015.20
572.25	2136.91
572.41	2097.12
572.57	2115.84
572.74	2153.29
572.90	2083.08
573.06	2069.03
573.22	2003.50
573.38	2115.84
573.55	2179.04
573.71	2148.61
573.87	2108.82
574.03	2125.21
574.20	1947.33
574.36	2057.33
574.52	1975.41
574.68	1980.09
574.84	2012.86
575.01	2064.35
575.17	2069.03
575.33	1937.96
575.49	2026.90
575.65	1963.71
575.82	2026.90
575.98	2008.18
576.14	2125.21
576.30	2094.78
576.46	2214.15
576.62	2377.98
576.79	2359.26
576.95	2179.04
577.11	2162.66
577.27	2155.63
577.43	2160.31
577.59	2162.66
577.75	1959.03
577.92	1853.70
578.08	1961.37
578.24	1998.82
578.40	1956.69
578.56	2204.78
578.72	2303.09
578.88	2324.15
579.04	2265.64
579.21	2167.34
579.37	2162.66
579.53	2129.89
579.69	2298.41
579.85	2169.68
580.01	2186.06
580.17	2099.46
580.33	2186.06
580.49	2097.12
580.65	2223.51
580.82	1982.43
580.98	2090.10
581.14	2127.55
581.30	2157.97
581.46	2038.61
581.62	2207.13
581.78	2235.21
581.94	2080.74
582.10	2183.72
582.26	2157.97
582.42	2165.00
582.58	2134.57
582.74	2195.42
582.90	2230.53
583.06	2193.08
583.22	2150.95
583.38	2155.63
583.54	2179.04
583.70	2223.51
583.86	2237.55
584.02	2277.34
584.18	2244.57
584.34	2204.78
584.50	2125.21
584.66	2094.78
584.82	2080.74
584.98	2143.93
585.14	2043.29
585.30	1933.28
585.46	1940.30
585.62	2045.63
585.78	1973.07
585.94	1966.05
586.10	1935.62
586.26	2029.24
586.42	2113.50
586.58	2118.18
586.74	2197.76
586.90	2225.85
587.06	2050.31
587.22	2127.55
587.38	2012.86
587.54	2099.46
587.70	2012.86
587.86	2003.50
588.02	1757.74
588.18	1727.32
588.34	1792.85
588.49	1591.56
588.65	1533.05
588.81	1444.11
588.97	1497.94
589.13	1521.35
589.29	1451.13
589.45	1481.56
589.61	1549.43
589.77	1540.07
589.93	1577.52
590.08	1629.01
590.24	1699.23
590.40	1643.06
590.56	1673.48
590.72	1783.49
590.88	1636.03
591.04	1696.89
591.20	1844.34
591.35	1809.23
591.51	1671.14
591.67	1659.44
591.83	1638.38
591.99	1715.61
592.15	1715.61
592.31	1724.97
592.46	1727.32
592.62	1916.90
592.78	1863.07
592.94	1818.60
593.10	1879.45
593.26	1935.62
593.41	1928.60
593.57	1834.98
593.73	1600.93
593.89	1776.47
594.05	1624.33
594.20	1600.93
594.36	1523.69
594.52	1586.88
594.68	1542.41
594.84	1675.82
594.99	1671.14
595.15	1607.95
595.31	1797.53
595.47	1846.68
595.62	1703.91
595.78	1675.82
595.94	1619.65
596.10	1757.74
596.25	1727.32
596.41	1694.55
596.57	1633.69
596.73	1610.29
596.88	1645.40
597.04	1715.61
597.20	1696.89
597.36	1699.23
597.51	1776.47
597.67	1846.68
597.83	1720.29
597.99	1820.94
598.14	1717.95
598.30	1834.98
598.46	1830.30
598.61	1767.10
598.77	1816.26
598.93	1760.08
599.09	1781.15
599.24	1783.49
599.40	1909.88
599.56	1797.53
599.71	1788.17
599.87	1774.13
600.03	1811.57
600.18	1783.49
