SpectraSuite Data File
++++++++++++++++++++++++++++++++++++
Date: Fri Oct 04 11:44:18 GMT-05:00 2013
User: price-jones
Dark Spectrum Present: No
Reference Spectrum Present: No
Number of Sampled Component Spectra: 1
Spectrometers: USB2+H05261
Integration Time (usec): 100000 (USB2+H05261)
Spectra Averaged: 1 (USB2+H05261)
Boxcar Smoothing: 0 (USB2+H05261)
Correct for Electrical Dark: No (USB2+H05261)
Strobe/Lamp Enabled: No (USB2+H05261)
Correct for Detector Non-linearity: No (USB2+H05261)
Correct for Stray Light: No (USB2+H05261)
Number of Pixels in Processed Spectrum: 2048
>>>>>Begin Processed Spectral Data<<<<<
365.73	53.83
365.92	53.83
366.12	53.83
366.32	0.00
366.52	0.00
366.72	0.00
366.91	0.00
367.11	0.00
367.31	0.00
367.51	0.00
367.70	0.00
367.90	0.00
368.10	0.00
368.30	0.00
368.49	0.00
368.69	0.00
368.89	0.00
369.09	0.00
369.28	0.00
369.48	0.00
369.68	0.00
369.87	0.00
370.07	32.77
370.27	0.00
370.47	117.03
370.66	416.62
370.86	557.05
371.06	528.96
371.25	543.00
371.45	510.24
371.65	503.22
371.84	477.47
372.04	491.51
372.24	596.84
372.44	554.71
372.63	531.30
372.83	575.77
373.03	585.13
373.22	468.11
373.42	456.40
373.62	507.90
373.81	514.92
374.01	608.54
374.21	528.96
374.40	500.87
374.60	615.56
374.79	587.47
374.99	627.26
375.19	634.29
375.38	645.99
375.58	650.67
375.78	718.54
375.97	629.60
376.17	702.16
376.37	629.60
376.56	648.33
376.76	631.94
376.95	660.03
377.15	739.61
377.35	709.18
377.54	849.61
377.74	837.91
377.93	880.04
378.13	779.40
378.33	788.76
378.52	653.01
378.72	809.83
378.91	730.25
379.11	711.52
379.31	690.46
379.50	624.92
379.70	746.63
379.89	805.14
380.09	620.24
380.28	798.12
380.48	873.02
380.68	788.76
380.87	784.08
381.07	713.86
381.26	711.52
381.46	695.14
381.65	627.26
381.85	629.60
382.04	613.22
382.24	472.79
382.43	608.54
382.63	461.09
382.83	540.66
383.02	568.75
383.22	655.35
383.41	580.45
383.61	617.90
383.80	667.05
384.00	711.52
384.19	795.78
384.39	880.04
384.58	809.83
384.78	788.76
384.97	746.63
385.17	774.72
385.36	730.25
385.56	725.57
385.75	732.59
385.95	758.33
386.14	802.80
386.34	894.08
386.53	816.85
386.72	716.20
386.92	788.76
387.11	849.61
387.31	814.51
387.50	758.33
387.70	748.97
387.89	709.18
388.09	777.06
388.28	837.91
388.48	786.42
388.67	896.43
388.86	950.26
389.06	1001.75
389.25	1015.79
389.45	1062.60
389.64	931.53
389.84	1067.28
390.03	954.94
390.22	957.28
390.42	1060.26
390.61	1064.94
390.81	1078.99
391.00	1153.88
391.19	1224.10
391.39	1142.18
391.58	1116.44
391.78	1020.47
391.97	973.66
392.16	922.17
392.36	837.91
392.55	723.23
392.75	580.45
392.94	468.11
393.13	531.30
393.33	521.94
393.52	690.46
393.71	866.00
393.91	938.55
394.10	1022.81
394.29	1050.90
394.49	1088.35
394.68	1247.51
394.88	1198.35
395.07	1268.57
395.26	1200.69
395.46	1165.59
395.65	1111.75
395.84	1102.39
396.04	826.21
396.23	629.60
396.42	622.58
396.62	683.44
396.81	704.50
397.00	858.98
397.19	1011.11
397.39	1172.61
397.58	1317.72
397.77	1420.71
397.97	1437.09
398.16	1390.28
398.35	1448.79
398.55	1486.24
398.74	1561.14
398.93	1610.29
399.12	1558.80
399.32	1638.38
399.51	1619.65
399.70	1701.57
399.90	1619.65
400.09	1654.76
400.28	1572.84
400.47	1612.63
400.67	1797.53
400.86	1729.66
401.05	1734.34
401.24	1797.53
401.44	1820.94
401.63	1827.96
401.82	1823.28
402.01	1760.08
402.21	1771.79
402.40	1809.23
402.59	1797.53
402.78	1710.93
402.97	1703.91
403.17	1806.89
403.36	1706.25
403.55	1830.30
403.74	1949.67
403.93	1961.37
404.13	1919.24
404.32	2143.93
404.51	2052.65
404.70	2064.35
404.89	1762.42
405.09	1774.13
405.28	1753.06
405.47	1743.70
405.66	1720.29
405.85	1774.13
406.05	1732.00
406.24	1696.89
406.43	1727.32
406.62	1830.30
406.81	1849.02
407.00	1858.39
407.20	1699.23
407.39	1757.74
407.58	1842.00
407.77	1933.28
407.96	1923.92
408.15	2008.18
408.34	2001.16
408.54	2054.99
408.73	1998.82
408.92	1907.54
409.11	1933.28
409.30	1867.75
409.49	1689.87
409.68	1703.91
409.87	1659.44
410.07	1624.33
410.26	1853.70
410.45	1952.01
410.64	2005.84
410.83	2059.67
411.02	2036.27
411.21	2239.89
411.40	2129.89
411.59	2202.44
411.78	2010.52
411.98	2003.50
412.17	2127.55
412.36	2136.91
412.55	2167.34
412.74	2146.27
412.93	2108.82
413.12	2059.67
413.31	2225.85
413.50	2162.66
413.69	2270.32
413.88	2139.25
414.07	2094.78
414.26	2214.15
414.45	2153.29
414.64	2179.04
414.83	2230.53
415.02	2150.95
415.22	2141.59
415.41	2246.91
415.60	2338.20
415.79	2394.37
415.98	2459.90
416.17	2373.30
416.36	2279.68
416.55	2377.98
416.74	2286.70
416.93	2218.83
417.12	2186.06
417.31	2228.19
417.50	2361.60
417.69	2361.60
417.88	2188.40
418.07	2186.06
418.26	2235.21
418.45	2333.51
418.64	2279.68
418.83	2305.43
419.02	2455.22
419.21	2424.80
419.39	2370.96
419.58	2193.08
419.77	2200.10
419.96	2298.41
420.15	2382.67
420.34	2480.97
420.53	2487.99
420.72	2679.91
420.91	2623.74
421.10	2406.07
421.29	2506.71
421.48	2373.30
421.67	2654.17
421.86	2413.09
422.05	2342.88
422.24	2155.63
422.43	2193.08
422.61	2228.19
422.80	2466.92
422.99	2443.52
423.18	2328.83
423.37	2387.35
423.56	2382.67
423.75	2443.52
423.94	2293.72
424.13	2169.68
424.32	2359.26
424.50	2307.77
424.69	2321.81
424.88	2272.66
425.07	2303.09
425.26	2265.64
425.45	2172.02
425.64	2246.91
425.83	2249.25
426.01	2289.04
426.20	2413.09
426.39	2354.58
426.58	2246.91
426.77	2064.35
426.96	2129.89
427.15	2078.40
427.33	2225.85
427.52	2319.47
427.71	2370.96
427.90	2265.64
428.09	2333.51
428.28	2183.72
428.46	2167.34
428.65	2143.93
428.84	2307.77
429.03	2207.13
429.22	2092.44
429.40	1921.58
429.59	1750.72
429.78	1680.50
429.97	1633.69
430.16	1617.31
430.34	1764.76
430.53	1650.08
430.72	1741.36
430.91	1844.34
431.10	2043.29
431.28	2410.75
431.47	2700.98
431.66	2747.79
431.85	2377.98
432.03	2448.20
432.22	2345.22
432.41	2279.68
432.60	2558.21
432.79	2558.21
432.97	2590.97
433.16	2597.99
433.35	2480.97
433.54	2134.57
433.72	2221.17
433.91	2272.66
434.10	2342.88
434.28	2546.50
434.47	2626.08
434.66	2726.72
434.85	2647.15
435.03	2796.94
435.22	3485.06
435.41	4475.10
435.59	4557.02
435.78	3878.27
435.97	3342.28
436.16	2928.01
436.34	2792.26
436.53	2712.68
436.72	2717.36
436.90	2675.23
437.09	2635.44
437.28	2640.12
437.46	2651.83
437.65	2658.85
437.84	2495.01
438.02	2333.51
438.21	2211.81
438.40	2410.75
438.58	2487.99
438.77	2607.36
438.96	2602.68
439.14	2696.30
439.33	2782.90
439.52	2743.11
439.70	2726.72
439.89	2871.84
440.08	2605.02
440.26	2677.57
440.45	2745.45
440.63	2944.39
440.82	3075.46
441.01	2981.84
441.19	2942.05
441.38	2871.84
441.57	3103.55
441.75	3112.91
441.94	3143.34
442.12	3066.10
442.31	3105.89
442.50	3101.21
442.68	3073.12
442.87	3201.85
443.05	3164.40
443.24	3094.19
443.43	3155.04
443.61	3309.52
443.80	3396.12
443.98	3028.65
444.17	3045.04
444.35	3307.18
444.54	3169.09
444.73	3211.22
444.91	3211.22
445.10	2986.52
445.28	2864.82
445.47	2904.60
445.65	2815.66
445.84	2813.32
446.02	3009.93
446.21	2942.05
446.39	3082.49
446.58	3133.98
446.77	3145.68
446.95	3171.43
447.14	3349.31
447.32	3276.75
447.51	3218.24
447.69	3201.85
447.88	3199.51
448.06	3131.64
448.25	3269.73
448.43	3162.06
448.62	3229.94
448.80	3269.73
448.99	3311.86
449.17	3293.13
449.36	3239.30
449.54	3302.50
449.73	3442.93
449.91	3398.46
450.10	3407.82
450.28	3662.94
450.46	3520.17
450.65	3592.72
450.83	3496.76
451.02	3471.01
451.20	3405.48
451.39	3393.78
451.57	3482.72
451.76	3356.33
451.94	3386.76
452.13	3332.92
452.31	3309.52
452.49	3145.68
452.68	3194.83
452.86	3040.36
453.05	3119.93
453.23	3176.11
453.42	3297.81
453.60	3335.26
453.78	3272.07
453.97	3304.84
454.15	3375.05
454.34	3272.07
454.52	3222.92
454.70	3243.98
454.89	3185.47
455.07	3222.92
455.26	3372.71
455.44	3407.82
455.62	3485.06
455.81	3382.07
455.99	3480.38
456.17	3487.40
456.36	3431.23
456.54	3426.54
456.73	3499.10
456.91	3508.46
457.09	3524.85
457.28	3684.00
457.46	3508.46
457.64	3433.57
457.83	3438.25
458.01	3396.12
458.19	3377.39
458.38	3393.78
458.56	3534.21
458.74	3557.61
458.93	3494.42
459.11	3456.97
459.29	3386.76
459.48	3571.66
459.66	3365.69
459.84	3454.63
460.03	3529.53
460.21	3468.67
460.39	3590.38
460.57	3620.81
460.76	3679.32
460.94	3585.70
461.12	3585.70
461.31	3597.40
461.49	3620.81
461.67	3499.10
461.85	3618.47
462.04	3653.58
462.22	4259.78
462.40	3707.41
462.59	3653.58
462.77	3508.46
462.95	3688.68
463.13	3691.02
463.32	3637.19
463.50	3583.36
463.68	3571.66
463.86	3620.81
464.05	3595.06
464.23	3529.53
464.41	3545.91
464.59	3534.21
464.78	3592.72
464.96	3459.31
465.14	3548.25
465.32	3742.52
465.50	3749.54
465.69	3648.90
465.87	3534.21
466.05	3583.36
466.23	3384.41
466.41	3288.45
466.60	3433.57
466.78	3475.70
466.96	3482.72
467.14	3302.50
467.32	3606.77
467.51	3559.95
467.69	3377.39
467.87	3531.87
468.05	3566.98
468.23	3728.47
468.41	3686.34
468.60	3440.59
468.78	3482.72
468.96	3501.44
469.14	3522.51
469.32	3581.02
469.50	3419.52
469.69	3555.27
469.87	3438.25
470.05	3501.44
470.23	3471.01
470.41	3389.10
470.59	3431.23
470.77	3480.38
470.95	3536.55
471.14	3639.53
471.32	3599.74
471.50	3927.42
471.68	3801.03
471.86	3831.46
472.04	3798.69
472.22	3943.80
472.40	3637.19
472.58	3543.57
472.77	3534.21
472.95	3763.58
473.13	3721.45
473.31	3588.04
473.49	3744.86
473.67	3651.24
473.85	3768.26
474.03	3850.18
474.21	3669.96
474.39	3880.61
474.57	4028.06
474.75	3974.23
474.93	3840.82
475.12	3749.54
475.30	3684.00
475.48	3667.62
475.66	3786.99
475.84	3772.94
476.02	3852.52
476.20	3779.97
476.38	3658.26
476.56	3901.67
476.74	3927.42
476.92	3901.67
477.10	3971.89
477.28	4156.79
477.46	4128.70
477.64	4128.70
477.82	4252.75
478.00	4278.50
478.18	4170.83
478.36	4126.36
478.54	4060.83
478.72	4152.11
478.90	4315.95
479.08	4442.34
479.26	4475.10
479.44	4519.57
479.62	4442.34
479.80	4334.67
479.98	4318.29
480.16	4348.72
480.34	4365.10
480.52	4514.89
480.70	4348.72
480.88	4381.48
481.06	4664.69
481.24	4603.83
481.41	4706.82
481.59	4798.10
481.77	4823.84
481.95	4636.60
482.13	4685.75
482.31	4585.11
482.49	4819.16
482.67	4774.69
482.85	4751.29
483.03	4849.59
483.21	4826.18
483.39	4922.15
483.57	4826.18
483.74	4802.78
483.92	4917.47
484.10	4826.18
484.28	5184.29
484.46	5200.67
484.64	5008.75
484.82	4910.44
485.00	5022.79
485.18	4959.60
485.35	4779.37
485.53	4449.36
485.71	4142.75
485.89	4187.22
486.07	4255.09
486.25	4519.57
486.43	4711.50
486.61	4851.93
486.78	4917.47
486.96	4835.55
487.14	5081.30
487.32	5100.03
487.50	5221.74
487.68	5528.35
487.85	5561.11
488.03	5500.26
488.21	5348.12
488.39	5385.57
488.57	5210.03
488.75	5186.63
488.92	5647.71
489.10	5659.42
489.28	5914.53
489.46	5966.03
489.64	5860.70
489.81	6101.78
489.99	5998.79
490.17	5870.06
490.35	6183.70
490.53	5886.45
490.70	5781.12
490.88	5959.00
491.06	6045.60
491.24	5870.06
491.41	5687.50
491.59	5636.01
491.77	5394.93
491.95	5673.46
492.13	5706.23
492.30	6024.54
492.48	6115.82
492.66	6305.40
492.84	6113.48
493.01	6272.64
493.19	5884.11
493.37	6052.63
493.54	6015.18
493.72	6134.54
493.90	6228.17
494.08	6537.12
494.25	6260.93
494.43	6630.74
494.61	6768.83
494.79	6534.78
494.96	6541.80
495.14	6471.58
495.32	6164.97
495.49	6314.77
495.67	6272.64
495.85	6527.75
496.02	6766.49
496.20	6684.57
496.38	6691.59
496.55	6707.98
496.73	6722.02
496.91	6698.61
497.09	6820.32
497.26	6773.51
497.44	6832.02
497.62	6644.78
497.79	6401.37
497.97	6174.33
498.14	6146.25
498.32	6417.75
498.50	6541.80
498.67	6710.32
498.85	6607.33
499.03	6733.72
499.20	6871.81
499.38	6888.20
499.56	6637.76
499.73	6670.53
499.91	6616.69
500.08	6401.37
500.26	6403.71
500.44	6363.92
500.61	6651.80
500.79	6546.48
500.97	6342.85
501.14	6448.18
501.32	6466.90
501.49	6230.51
501.67	6466.90
501.84	6586.27
502.02	6604.99
502.20	6581.59
502.37	6736.06
502.55	6443.49
502.72	6661.16
502.90	6691.59
503.07	6707.98
503.25	6494.99
503.43	6134.54
503.60	6104.12
503.78	5870.06
503.95	6186.04
504.13	6303.06
504.30	6445.84
504.48	6621.38
504.65	6523.07
504.83	6562.86
505.01	6836.70
505.18	6743.08
505.36	6967.77
505.53	6918.62
505.71	6958.41
505.88	6970.12
506.06	6862.45
506.23	6832.02
506.41	6686.91
506.58	6855.43
506.76	6588.61
506.93	6583.93
507.11	6693.93
507.28	6707.98
507.46	6600.31
507.63	6595.63
507.81	6544.14
507.98	6509.03
508.16	6614.35
508.33	6890.54
508.50	6869.47
508.68	6925.65
508.85	7339.92
509.03	7243.96
509.20	7061.40
509.38	6825.00
509.55	6881.18
509.73	6803.94
509.90	7045.01
510.08	6864.79
510.25	6974.80
510.42	6839.05
510.60	6951.39
510.77	6953.73
510.95	6979.48
511.12	7323.54
511.30	7213.53
511.47	7307.15
511.64	7391.41
511.82	7286.09
511.99	6967.77
512.17	6942.03
512.34	6939.69
512.51	6869.47
512.69	6909.26
512.86	6906.92
513.04	7000.54
513.21	7110.55
513.38	7070.76
513.56	6967.77
513.73	6848.41
513.90	6700.95
514.08	6628.40
514.25	7007.56
514.43	7037.99
514.60	6906.92
514.77	7068.42
514.95	6909.26
515.12	7075.44
515.29	6988.84
515.47	7054.37
515.64	7293.11
515.81	7117.57
515.99	6906.92
516.16	6710.32
516.33	6258.59
516.51	5916.87
516.68	5734.31
516.85	5771.76
517.03	5738.99
517.20	6080.71
517.37	6736.06
517.54	6890.54
517.72	6944.37
517.89	6179.01
518.06	5977.73
518.24	6083.05
518.41	6466.90
518.58	6600.31
518.75	6813.30
518.93	6665.85
519.10	6764.15
519.27	6696.27
519.45	6953.73
519.62	6909.26
519.79	7087.14
519.96	7148.00
520.14	6925.65
520.31	6787.55
520.48	6874.15
520.65	6766.49
520.83	7070.76
521.00	7253.32
521.17	6935.01
521.34	7012.24
521.52	7070.76
521.69	7431.20
521.86	7286.09
522.03	7157.36
522.20	7002.88
522.38	6738.40
522.55	6691.59
522.72	6803.94
522.89	7016.93
523.07	7009.90
523.24	7012.24
523.41	7183.10
523.58	7358.64
523.75	7375.03
523.92	7452.27
524.10	7328.22
524.27	7293.11
524.44	7288.43
524.61	7325.88
524.78	7265.02
524.96	7243.96
525.13	7119.91
525.30	7211.19
525.47	7478.01
525.64	7339.92
525.81	7272.04
525.98	6902.24
526.16	6569.88
526.33	6321.79
526.50	6303.06
526.67	6104.12
526.84	6328.81
527.01	6464.56
527.18	6700.95
527.36	6878.83
527.53	7124.59
527.70	7068.42
527.87	7089.48
528.04	6965.43
528.21	6960.75
528.38	7241.62
528.55	7548.23
528.72	7478.01
528.89	7751.85
529.07	7646.53
529.24	7543.55
529.41	7176.08
529.58	6979.48
529.75	7108.21
529.92	7197.15
530.09	7183.10
530.26	7332.90
530.43	7435.88
530.60	7503.76
530.77	7515.46
530.94	7559.93
531.11	7344.60
531.28	7328.22
531.46	7199.49
531.63	7222.89
531.80	7246.30
531.97	7265.02
532.14	7108.21
532.31	6768.83
532.48	6626.06
532.65	6604.99
532.82	6740.74
532.99	6920.96
533.16	7098.84
533.33	7377.37
533.50	7286.09
533.67	7098.84
533.84	6925.65
534.01	6895.22
534.18	7012.24
534.35	7169.06
534.52	7089.48
534.69	7468.65
534.86	7091.82
535.03	7391.41
535.20	7583.34
535.37	7386.73
535.54	7606.74
535.71	7428.86
535.88	7372.69
536.05	7276.73
536.22	7117.57
536.38	6993.52
536.55	7012.24
536.72	6984.16
536.89	6839.05
537.06	7007.56
537.23	7342.26
537.40	7632.49
537.57	7435.88
537.74	7269.70
537.91	7309.49
538.08	7396.09
538.25	7463.97
538.42	7496.74
538.59	7506.10
538.75	7281.41
538.92	7398.43
539.09	7225.23
539.26	7253.32
539.43	7290.77
539.60	7129.27
539.77	7461.63
539.94	7435.88
540.11	7021.61
540.28	7171.40
540.44	7227.57
540.61	7325.88
540.78	7428.86
540.95	8002.29
541.12	8124.00
541.29	8177.83
541.46	8561.68
541.62	8444.65
541.79	8463.38
541.96	8222.30
542.13	7978.89
542.30	8112.30
542.47	8154.43
542.63	7899.31
542.80	8035.06
542.97	7896.97
543.14	7691.00
543.31	7960.16
543.48	7908.67
543.64	8212.94
543.81	8262.09
543.98	8138.04
544.15	7995.27
544.32	8053.78
544.48	7941.44
544.65	7913.35
544.82	7978.89
544.99	7878.24
545.16	8145.06
545.32	8084.21
545.49	8975.95
545.66	10869.45
545.83	11503.73
546.00	10700.93
546.16	9521.30
546.33	8561.68
546.50	8264.43
546.67	8074.85
546.83	7775.26
547.00	7798.66
547.17	7503.76
547.34	7473.33
547.50	7433.54
547.67	7431.20
547.84	7417.16
548.00	7632.49
548.17	7578.65
548.34	7581.00
548.51	7613.76
548.67	7529.50
548.84	7552.91
549.01	7468.65
549.18	7342.26
549.34	7417.16
549.51	7419.50
549.68	7342.26
549.84	7255.66
550.01	7150.34
550.18	7456.95
550.34	7173.74
550.51	7073.10
550.68	7246.30
550.84	6932.67
551.01	7124.59
551.18	7059.06
551.34	7110.55
551.51	7131.61
551.68	7190.13
551.84	7316.51
552.01	7365.67
552.18	7115.23
552.34	7094.16
552.51	6796.92
552.68	6658.82
552.84	6794.58
553.01	6827.34
553.18	6993.52
553.34	7059.06
553.51	6782.87
553.67	7016.93
553.84	7190.13
554.01	6956.07
554.17	6944.37
554.34	7077.78
554.51	7054.37
554.67	7007.56
554.84	6927.99
555.00	6946.71
555.17	6729.04
555.33	6939.69
555.50	6972.46
555.67	6686.91
555.83	6707.98
556.00	6684.57
556.16	6771.17
556.33	6562.86
556.50	6518.39
556.66	6560.52
556.83	6555.84
556.99	6532.44
557.16	6506.69
557.32	6520.73
557.49	6736.06
557.65	6612.01
557.82	6630.74
557.98	6747.76
558.15	6431.79
558.32	6349.87
558.48	6282.00
558.65	6204.76
558.81	6181.35
558.98	6270.30
559.14	6232.85
559.31	6436.47
559.47	6619.04
559.64	6228.17
559.80	6214.12
559.97	6211.78
560.13	6459.88
560.30	6359.24
560.46	6679.89
560.63	6794.58
560.79	6548.82
560.96	6628.40
561.12	6333.49
561.29	6237.53
561.45	6347.53
561.61	6249.23
561.78	6345.19
561.94	6473.92
562.11	6427.11
562.27	6310.08
562.44	6483.28
562.60	6429.45
562.77	6523.07
562.93	6466.90
563.10	6457.54
563.26	6202.42
563.42	6450.52
563.59	6258.59
563.75	6324.13
563.92	6169.65
564.08	6183.70
564.24	6223.48
564.41	6370.94
564.57	6429.45
564.74	6335.83
564.90	6403.71
565.07	6230.51
565.23	6258.59
565.39	6024.54
565.56	6127.52
565.72	5956.66
565.88	5987.09
566.05	6069.01
566.21	5991.77
566.38	6101.78
566.54	6059.65
566.70	6071.35
566.87	6239.87
567.03	5968.37
567.19	6146.25
567.36	6183.70
567.52	5961.34
567.68	6200.08
567.85	6019.86
568.01	5837.30
568.17	5771.76
568.34	5710.91
568.50	5628.99
568.66	5533.03
568.83	5863.04
568.99	5565.79
569.15	5865.38
569.32	5818.57
569.48	5823.25
569.64	5582.18
569.81	5689.84
569.97	5687.50
570.13	5851.34
570.30	5715.59
570.46	5589.20
570.62	5511.96
570.78	5617.29
570.95	5448.77
571.11	5626.65
571.27	5673.46
571.43	5502.60
571.60	5526.00
571.76	5605.58
571.92	5834.96
572.09	5818.57
572.25	5776.44
572.41	5643.03
572.57	5666.44
572.74	5806.87
572.90	5666.44
573.06	5699.20
573.22	5640.69
573.38	5727.29
573.55	5586.86
573.71	5685.16
573.87	5650.05
574.03	5568.13
574.20	5614.95
574.36	5593.88
574.52	5549.41
574.68	5488.56
574.84	5554.09
575.01	5378.55
575.17	5469.83
575.33	5427.70
575.49	5619.63
575.65	5577.50
575.82	5542.39
575.98	5577.50
576.14	5542.39
576.30	5778.78
576.46	5977.73
576.62	6303.06
576.79	6373.28
576.95	6001.13
577.11	5738.99
577.27	5856.02
577.43	5734.31
577.59	5605.58
577.75	5423.02
577.92	5252.16
578.08	5413.66
578.24	5245.14
578.40	5455.79
578.56	5870.06
578.72	6085.39
578.88	6120.50
579.04	5963.68
579.21	5811.55
579.37	5708.57
579.53	5699.20
579.69	5867.72
579.85	5577.50
580.01	5860.70
580.17	5767.08
580.33	5537.71
580.49	5659.42
580.65	5776.44
580.82	5696.86
580.98	5563.45
581.14	5668.78
581.30	5666.44
581.46	5675.80
581.62	5778.78
581.78	5699.20
581.94	5748.36
582.10	5767.08
582.26	5858.36
582.42	5830.27
582.58	5874.74
582.74	5921.56
582.90	5806.87
583.06	5893.47
583.22	5802.19
583.38	5860.70
583.54	5919.21
583.70	5762.40
583.86	5720.27
584.02	5893.47
584.18	5905.17
584.34	5870.06
584.50	5825.59
584.66	5738.99
584.82	5636.01
584.98	5717.93
585.14	5530.69
585.30	5619.63
585.46	5434.72
585.62	5350.46
585.78	5270.89
585.94	5355.15
586.10	5383.23
586.26	5408.98
586.42	5547.07
586.58	5607.92
586.74	5579.84
586.90	5762.40
587.06	5781.12
587.22	5657.07
587.38	5650.05
587.54	5432.38
587.70	5383.23
587.86	4968.96
588.02	4999.38
588.18	4833.21
588.34	4533.62
588.49	4327.65
588.65	4039.76
588.81	3976.57
588.97	3962.53
589.13	3908.69
589.29	3920.40
589.45	3960.19
589.61	3936.78
589.77	4180.20
589.93	4234.03
590.08	4451.70
590.24	4449.36
590.40	4596.81
590.56	4496.17
590.72	4528.94
590.88	4493.83
591.04	4596.81
591.20	4573.41
591.35	4643.62
591.51	4561.70
591.67	4437.66
591.83	4482.13
591.99	4315.95
592.15	4482.13
592.31	4681.07
592.46	4910.44
592.62	4952.57
592.78	5020.45
592.94	4884.70
593.10	4894.06
593.26	5050.88
593.41	5114.07
593.57	4961.94
593.73	4720.86
593.89	4484.47
594.05	4332.33
594.20	4301.90
594.36	4053.81
594.52	4077.21
594.68	4297.22
594.84	4341.69
594.99	4589.79
595.15	4615.54
595.31	4636.60
595.47	4634.26
595.62	4540.64
595.78	4699.80
595.94	4741.93
596.10	4685.75
596.25	4697.46
596.41	4615.54
596.57	4533.62
596.73	4566.39
596.88	4652.98
597.04	4734.90
597.20	4573.41
597.36	4491.49
597.51	4603.83
597.67	4599.15
