SpectraSuite Data File
++++++++++++++++++++++++++++++++++++
Date: Fri Oct 04 11:44:23 GMT-05:00 2013
User: price-jones
Dark Spectrum Present: No
Reference Spectrum Present: No
Number of Sampled Component Spectra: 1
Spectrometers: USB2+H05261
Integration Time (usec): 100000 (USB2+H05261)
Spectra Averaged: 1 (USB2+H05261)
Boxcar Smoothing: 0 (USB2+H05261)
Correct for Electrical Dark: No (USB2+H05261)
Strobe/Lamp Enabled: No (USB2+H05261)
Correct for Detector Non-linearity: No (USB2+H05261)
Correct for Stray Light: No (USB2+H05261)
Number of Pixels in Processed Spectrum: 2048
>>>>>Begin Processed Spectral Data<<<<<
365.73	49.15
365.92	49.15
366.12	49.15
366.32	0.00
366.52	0.00
366.72	0.00
366.91	0.00
367.11	0.00
367.31	0.00
367.51	0.00
367.70	0.00
367.90	0.00
368.10	0.00
368.30	0.00
368.49	0.00
368.69	0.00
368.89	0.00
369.09	0.00
369.28	0.00
369.48	0.00
369.68	0.00
369.87	0.00
370.07	0.00
370.27	7.02
370.47	119.37
370.66	243.42
370.86	320.65
371.06	376.83
371.25	330.02
371.45	285.55
371.65	339.38
371.84	299.59
372.04	283.20
372.24	388.53
372.44	344.06
372.63	341.72
372.83	315.97
373.03	318.31
373.22	341.72
373.42	238.73
373.62	322.99
373.81	421.30
374.01	416.62
374.21	395.55
374.40	348.74
374.60	442.36
374.79	390.87
374.99	353.42
375.19	430.66
375.38	437.68
375.58	550.03
375.78	437.68
375.97	444.70
376.17	521.94
376.37	423.64
376.56	461.09
376.76	510.24
376.95	456.40
377.15	547.69
377.35	468.11
377.54	596.84
377.74	521.94
377.93	564.07
378.13	603.86
378.33	493.85
378.52	564.07
378.72	470.45
378.91	512.58
379.11	479.81
379.31	381.51
379.50	418.96
379.70	554.71
379.89	500.87
380.09	477.47
380.28	500.87
380.48	545.34
380.68	533.64
380.87	507.90
381.07	465.77
381.26	535.98
381.46	414.27
381.65	423.64
381.85	393.21
382.04	421.30
382.24	456.40
382.43	334.70
382.63	308.95
382.83	325.33
383.02	372.15
383.22	330.02
383.41	390.87
383.61	444.70
383.80	383.85
384.00	421.30
384.19	519.60
384.39	538.32
384.58	517.26
384.78	535.98
384.97	470.45
385.17	503.22
385.36	456.40
385.56	447.04
385.75	528.96
385.95	564.07
386.14	603.86
386.34	559.39
386.53	578.11
386.72	458.74
386.92	561.73
387.11	557.05
387.31	465.77
387.50	493.85
387.70	468.11
387.89	435.34
388.09	507.90
388.28	440.02
388.48	514.92
388.67	524.28
388.86	622.58
389.06	631.94
389.25	636.63
389.45	681.10
389.64	638.97
389.84	653.01
390.03	669.39
390.22	606.20
390.42	589.82
390.61	784.08
390.81	819.19
391.00	800.46
391.19	809.83
391.39	638.97
391.58	711.52
391.78	648.33
391.97	718.54
392.16	580.45
392.36	547.69
392.55	386.19
392.75	367.46
392.94	332.36
393.13	400.23
393.33	395.55
393.52	500.87
393.71	538.32
393.91	578.11
394.10	568.75
394.29	650.67
394.49	601.52
394.68	767.70
394.88	781.74
395.07	765.36
395.26	688.12
395.46	770.04
395.65	774.72
395.84	660.03
396.04	620.24
396.23	524.28
396.42	425.98
396.62	423.64
396.81	489.17
397.00	554.71
397.19	685.78
397.39	763.01
397.58	866.00
397.77	912.81
397.97	891.74
398.16	856.64
398.35	1018.13
398.55	1015.79
398.74	1060.26
398.93	1043.88
399.12	966.64
399.32	1034.52
399.51	968.98
399.70	1088.35
399.90	1076.65
400.09	1102.39
400.28	1043.88
400.47	1039.20
400.67	1109.41
400.86	1137.50
401.05	1146.86
401.24	1132.82
401.44	1179.63
401.63	1083.67
401.82	1114.10
402.01	1125.80
402.21	1210.06
402.40	1132.82
402.59	1076.65
402.78	1121.12
402.97	1078.99
403.17	1102.39
403.36	1177.29
403.55	1179.63
403.74	1179.63
403.93	1177.29
404.13	1235.80
404.32	1205.38
404.51	1252.19
404.70	1322.40
404.89	1200.69
405.09	1238.14
405.28	1151.54
405.47	1050.90
405.66	1111.75
405.85	1125.80
406.05	1123.46
406.24	1184.31
406.43	1107.07
406.62	1212.40
406.81	1196.01
407.00	1144.52
407.20	1121.12
407.39	1163.25
407.58	1151.54
407.77	1188.99
407.96	1254.53
408.15	1273.25
408.34	1186.65
408.54	1336.45
408.73	1301.34
408.92	1235.80
409.11	1299.00
409.30	1259.21
409.49	1118.78
409.68	1132.82
409.87	1081.33
410.07	1076.65
410.26	1193.67
410.45	1357.51
410.64	1331.76
410.83	1226.44
411.02	1385.60
411.21	1462.83
411.40	1394.96
411.59	1256.87
411.78	1252.19
411.98	1306.02
412.17	1341.13
412.36	1418.36
412.55	1320.06
412.74	1284.95
412.93	1329.42
413.12	1366.87
413.31	1369.21
413.50	1352.83
413.69	1394.96
413.88	1413.68
414.07	1371.55
414.26	1399.64
414.45	1448.79
414.64	1441.77
414.83	1430.07
415.02	1469.86
415.22	1418.36
415.41	1490.92
415.60	1434.75
415.79	1582.20
415.98	1645.40
416.17	1483.90
416.36	1610.29
416.55	1469.86
416.74	1444.11
416.93	1495.60
417.12	1490.92
417.31	1455.81
417.50	1437.09
417.69	1511.99
417.88	1465.18
418.07	1598.59
418.26	1437.09
418.45	1495.60
418.64	1526.03
418.83	1451.13
419.02	1586.88
419.21	1575.18
419.39	1551.78
419.58	1430.07
419.77	1416.02
419.96	1502.62
420.15	1511.99
420.34	1519.01
420.53	1535.39
420.72	1675.82
420.91	1689.87
421.10	1589.22
421.29	1521.35
421.48	1561.14
421.67	1678.16
421.86	1591.56
422.05	1425.39
422.24	1327.08
422.43	1423.05
422.61	1437.09
422.80	1586.88
422.99	1593.90
423.18	1596.25
423.37	1486.24
423.56	1493.26
423.75	1591.56
423.94	1537.73
424.13	1420.71
424.32	1425.39
424.50	1547.09
424.69	1497.94
424.88	1451.13
425.07	1416.02
425.26	1460.49
425.45	1385.60
425.64	1460.49
425.83	1348.15
426.01	1624.33
426.20	1451.13
426.39	1521.35
426.58	1390.28
426.77	1364.53
426.96	1341.13
427.15	1418.36
427.33	1352.83
427.52	1465.18
427.71	1521.35
427.90	1572.84
428.09	1418.36
428.28	1439.43
428.46	1462.83
428.65	1404.32
428.84	1434.75
429.03	1472.20
429.22	1369.21
429.40	1284.95
429.59	1259.21
429.78	1090.69
429.97	1048.56
430.16	1074.31
430.34	1102.39
430.53	1046.22
430.72	1177.29
430.91	1233.46
431.10	1299.00
431.28	1551.78
431.47	1760.08
431.66	1696.89
431.85	1614.97
432.03	1458.15
432.22	1423.05
432.41	1448.79
432.60	1614.97
432.79	1568.16
432.97	1739.02
433.16	1607.95
433.35	1437.09
433.54	1383.26
433.72	1350.49
433.91	1437.09
434.10	1483.90
434.28	1568.16
434.47	1680.50
434.66	1624.33
434.85	1687.53
435.03	1717.95
435.22	1966.05
435.41	2457.56
435.59	2502.03
435.78	2368.62
435.97	2015.20
436.16	1842.00
436.34	1825.62
436.53	1717.95
436.72	1797.53
436.90	1729.66
437.09	1549.43
437.28	1614.97
437.46	1727.32
437.65	1673.48
437.84	1647.74
438.02	1516.67
438.21	1437.09
438.40	1462.83
438.58	1586.88
438.77	1614.97
438.96	1671.14
439.14	1830.30
439.33	1853.70
439.52	1811.57
439.70	1778.81
439.89	1781.15
440.08	1708.59
440.26	1666.46
440.45	1741.36
440.63	1837.32
440.82	1874.77
441.01	2022.22
441.19	1886.47
441.38	1987.11
441.57	2022.22
441.75	2008.18
441.94	2150.95
442.12	2073.71
442.31	2085.42
442.50	2122.87
442.68	2024.56
442.87	1956.69
443.05	1900.52
443.24	2092.44
443.43	1998.82
443.61	2010.52
443.80	2059.67
443.98	1970.73
444.17	2050.31
444.35	2054.99
444.54	2031.58
444.73	2073.71
444.91	2054.99
445.10	1907.54
445.28	1813.92
445.47	1860.73
445.65	1849.02
445.84	1912.22
446.02	1956.69
446.21	1994.14
446.39	1942.64
446.58	1926.26
446.77	1984.77
446.95	2043.29
447.14	2054.99
447.32	2134.57
447.51	2113.50
447.69	2087.76
447.88	2019.88
448.06	2010.52
448.25	2054.99
448.43	2003.50
448.62	2099.46
448.80	1984.77
448.99	2085.42
449.17	2015.20
449.36	2054.99
449.54	2083.08
449.73	2118.18
449.91	2195.42
450.10	2122.87
450.28	2328.83
450.46	2310.11
450.65	2228.19
450.83	2263.30
451.02	2216.49
451.20	2057.33
451.39	2169.68
451.57	2326.49
451.76	2066.69
451.94	2204.78
452.13	2172.02
452.31	2036.27
452.49	1921.58
452.68	1909.88
452.86	1895.83
453.05	1980.09
453.23	2106.48
453.42	2122.87
453.60	2143.93
453.78	2139.25
453.97	2078.40
454.15	2064.35
454.34	2118.18
454.52	2118.18
454.70	1998.82
454.89	2031.58
455.07	2015.20
455.26	2139.25
455.44	2127.55
455.62	2286.70
455.81	2314.79
455.99	2260.96
456.17	2260.96
456.36	2291.38
456.54	2270.32
456.73	2179.04
456.91	2291.38
457.09	2249.25
457.28	2211.81
457.46	2291.38
457.64	2338.20
457.83	2207.13
458.01	2083.08
458.19	2113.50
458.38	2214.15
458.56	2235.21
458.74	2237.55
458.93	2237.55
459.11	2230.53
459.29	2160.31
459.48	2251.60
459.66	2270.32
459.84	2300.75
460.03	2347.56
460.21	2328.83
460.39	2232.87
460.57	2265.64
460.76	2286.70
460.94	2321.81
461.12	2373.30
461.31	2275.00
461.49	2326.49
461.67	2293.72
461.85	2319.47
462.04	2333.51
462.22	2841.41
462.40	2485.65
462.59	2389.69
462.77	2331.17
462.95	2221.17
463.13	2211.81
463.32	2242.23
463.50	2324.15
463.68	2242.23
463.86	2319.47
464.05	2223.51
464.23	2225.85
464.41	2157.97
464.59	2104.14
464.78	2256.28
464.96	2244.57
465.14	2172.02
465.32	2232.87
465.50	2373.30
465.69	2293.72
465.87	2396.71
466.05	2394.37
466.23	2162.66
466.41	2134.57
466.60	2139.25
466.78	2099.46
466.96	2272.66
467.14	2230.53
467.32	2368.62
467.51	2260.96
467.69	2256.28
467.87	2230.53
468.05	2239.89
468.23	2155.63
468.41	2282.02
468.60	2272.66
468.78	2312.45
468.96	2221.17
469.14	2277.34
469.32	2256.28
469.50	2078.40
469.69	2249.25
469.87	2223.51
470.05	2120.53
470.23	2153.29
470.41	2059.67
470.59	2249.25
470.77	2169.68
470.95	2214.15
471.14	2296.07
471.32	2253.94
471.50	2410.75
471.68	2349.90
471.86	2366.28
472.04	2417.77
472.22	2506.71
472.40	2368.62
472.58	2317.13
472.77	2167.34
472.95	2284.36
473.13	2457.56
473.31	2307.77
473.49	2354.58
473.67	2324.15
473.85	2422.45
474.03	2375.64
474.21	2408.41
474.39	2541.82
474.57	2480.97
474.75	2438.84
474.93	2473.95
475.12	2340.54
475.30	2347.56
475.48	2464.58
475.66	2417.77
475.84	2431.82
476.02	2427.14
476.20	2382.67
476.38	2525.44
476.56	2614.38
476.74	2640.12
476.92	2621.40
477.10	2527.78
477.28	2597.99
477.46	2593.31
477.64	2623.74
477.82	2715.02
478.00	2656.51
478.18	2642.46
478.36	2623.74
478.54	2754.81
478.72	2609.70
478.90	2736.09
479.08	2799.28
479.26	2864.82
479.44	2771.19
479.62	2724.38
479.80	2829.71
479.98	2750.13
480.16	2827.37
480.34	2785.24
480.52	2902.26
480.70	2888.22
480.88	2806.30
481.06	2874.18
481.24	2932.69
481.41	2904.60
481.59	3110.57
481.77	3045.04
481.95	3054.40
482.13	2876.52
482.31	2904.60
482.49	3002.91
482.67	2951.42
482.85	3056.74
483.03	3094.19
483.21	2956.10
483.39	3178.45
483.57	3063.76
483.74	3117.59
483.92	3070.78
484.10	3045.04
484.28	3038.02
484.46	3197.17
484.64	3187.81
484.82	3173.77
485.00	3183.13
485.18	3098.87
485.35	2881.20
485.53	2815.66
485.71	2579.27
485.89	2476.29
486.07	2572.25
486.25	2738.43
486.43	3089.51
486.61	3002.91
486.78	3176.11
486.96	3077.80
487.14	3346.97
487.32	3141.00
487.50	3353.99
487.68	3389.10
487.85	3461.65
488.03	3534.21
488.21	3351.65
488.39	3351.65
488.57	3372.71
488.75	3255.69
488.92	3712.09
489.10	3653.58
489.28	3674.64
489.46	3733.15
489.64	3695.71
489.81	3691.02
489.99	3803.37
490.17	3845.50
490.35	3815.07
490.53	3815.07
490.70	3826.78
490.88	3756.56
491.06	3899.33
491.24	3819.75
491.41	3770.60
491.59	3625.49
491.77	3417.18
491.95	3492.08
492.13	3651.24
492.30	3735.50
492.48	3845.50
492.66	3946.14
492.84	3873.59
493.01	3922.74
493.19	3751.88
493.37	3925.08
493.54	3770.60
493.72	3824.44
493.90	4056.15
494.08	4049.13
494.25	4154.45
494.43	4156.79
494.61	4147.43
494.79	4161.47
494.96	4077.21
495.14	4142.75
495.32	3934.44
495.49	3880.61
495.67	4135.73
495.85	4105.30
496.02	4278.50
496.20	4177.86
496.38	4156.79
496.55	4114.66
496.73	4271.48
496.91	4358.08
497.09	4287.86
497.26	4416.59
497.44	4196.58
497.62	4273.82
497.79	4287.86
497.97	4023.38
498.14	4058.49
498.32	4028.06
498.50	4189.56
498.67	4243.39
498.85	4271.48
499.03	4386.16
499.20	4266.80
499.38	4149.77
499.56	4304.25
499.73	4203.60
499.91	4156.79
500.08	4147.43
500.26	4004.66
500.44	4035.08
500.61	4170.83
500.79	4109.98
500.97	4084.23
501.14	4011.68
501.32	3971.89
501.49	3960.19
501.67	3838.48
501.84	4135.73
502.02	4182.54
502.20	4175.52
502.37	4170.83
502.55	4278.50
502.72	4355.74
502.90	4255.09
503.07	4131.05
503.25	4063.17
503.43	3875.93
503.60	3896.99
503.78	3803.37
503.95	3868.91
504.13	3941.46
504.30	4142.75
504.48	4210.62
504.65	4241.05
504.83	4072.53
505.01	4236.37
505.18	4294.88
505.36	4491.49
505.53	4388.50
505.71	4482.13
505.88	4507.87
506.06	4313.61
506.23	4432.97
506.41	4283.18
506.58	4327.65
506.76	4353.40
506.93	4388.50
507.11	4205.94
507.28	4189.56
507.46	4311.27
507.63	4187.22
507.81	4163.81
507.98	4138.07
508.16	4285.52
508.33	4341.69
508.50	4374.46
508.68	4571.07
508.85	4575.75
509.03	4535.96
509.20	4489.15
509.38	4381.48
509.55	4304.25
509.73	4447.02
509.90	4393.19
510.08	4449.36
510.25	4409.57
510.42	4477.44
510.60	4409.57
510.77	4538.30
510.95	4599.15
511.12	4430.63
511.30	4561.70
511.47	4746.61
511.64	4624.90
511.82	4688.09
511.99	4540.64
512.17	4407.23
512.34	4301.90
512.51	4329.99
512.69	4299.56
512.86	4411.91
513.04	4573.41
513.21	4463.40
513.38	4362.76
513.56	4325.31
513.73	4229.35
513.90	4161.47
514.08	4334.67
514.25	4355.74
514.43	4397.87
514.60	4308.93
514.77	4383.82
514.95	4407.23
515.12	4447.02
515.29	4547.66
515.47	4542.98
515.64	4514.89
515.81	4561.70
515.99	4409.57
516.16	4229.35
516.33	3932.10
516.51	3815.07
516.68	3707.41
516.85	3571.66
517.03	3667.62
517.20	4028.06
517.37	4224.67
517.54	4486.81
517.72	4374.46
517.89	4042.11
518.06	3868.91
518.24	3812.73
518.41	4049.13
518.58	4170.83
518.75	4217.65
518.93	4166.15
519.10	4304.25
519.27	4182.54
519.45	4273.82
519.62	4477.44
519.79	4554.68
519.96	4620.22
520.14	4397.87
520.31	4468.08
520.48	4414.25
520.65	4334.67
520.83	4425.95
521.00	4566.39
521.17	4603.83
521.34	4423.61
521.52	4390.84
521.69	4610.86
521.86	4718.52
522.03	4610.86
522.20	4482.13
522.38	4248.07
522.55	4210.62
522.72	4491.49
522.89	4210.62
523.07	4489.15
523.24	4463.40
523.41	4683.41
523.58	4559.36
523.75	4629.58
523.92	4709.16
524.10	4751.29
524.27	4695.11
524.44	4690.43
524.61	4660.01
524.78	4557.02
524.96	4580.43
525.13	4564.04
525.30	4762.99
525.47	4683.41
525.64	4770.01
525.81	4472.76
525.98	4440.00
526.16	4236.37
526.33	4191.90
526.50	3946.14
526.67	3999.98
526.84	3985.93
527.01	4131.05
527.18	4273.82
527.36	4404.89
527.53	4533.62
527.70	4601.49
527.87	4580.43
528.04	4519.57
528.21	4559.36
528.38	4545.32
528.55	4720.86
528.72	4793.42
528.89	4896.40
529.07	4870.65
529.24	4610.86
529.41	4521.92
529.58	4358.08
529.75	4503.19
529.92	4592.13
530.09	4765.33
530.26	4727.88
530.43	4858.95
530.60	4741.93
530.77	4594.47
530.94	4758.31
531.11	4758.31
531.28	4791.08
531.46	4643.62
531.63	4739.58
531.80	4648.30
531.97	4573.41
532.14	4498.51
532.31	4353.40
532.48	4292.54
532.65	4147.43
532.82	4257.43
532.99	4507.87
533.16	4704.48
533.33	4662.35
533.50	4732.56
533.67	4334.67
533.84	4337.01
534.01	4533.62
534.18	4465.74
534.35	4599.15
534.52	4587.45
534.69	4772.35
534.86	4690.43
535.03	4667.03
535.20	4865.97
535.37	4795.76
535.54	4847.25
535.71	4882.36
535.88	4798.10
536.05	4730.22
536.22	4779.37
536.38	4706.82
536.55	4454.04
536.72	4353.40
536.89	4442.34
537.06	4526.60
537.23	4557.02
537.40	4667.03
537.57	4791.08
537.74	4767.67
537.91	4641.28
538.08	4751.29
538.25	4608.51
538.42	4837.89
538.59	4734.90
538.75	4669.37
538.92	4578.09
539.09	4601.49
539.26	4503.19
539.43	4531.28
539.60	4610.86
539.77	4561.70
539.94	4695.11
540.11	4601.49
540.28	4723.20
540.44	4645.96
540.61	4741.93
540.78	4624.90
540.95	4842.57
541.12	4990.02
541.29	4947.89
541.46	5305.99
541.62	5200.67
541.79	5231.10
541.96	4943.21
542.13	4983.00
542.30	4887.04
542.47	5158.54
542.63	5095.35
542.80	4915.12
542.97	4877.68
543.14	4812.14
543.31	4882.36
543.48	4919.81
543.64	5139.82
543.81	5057.90
543.98	5245.14
544.15	4999.38
544.32	4903.42
544.48	4805.12
544.65	4908.10
544.82	5053.22
544.99	5032.15
545.16	5057.90
545.32	4980.66
545.49	5626.65
545.66	6298.38
545.83	6565.20
546.00	6289.02
546.16	5600.90
546.33	5217.05
546.50	4990.02
546.67	4915.12
546.83	4901.08
547.00	4819.16
547.17	4732.56
547.34	4524.26
547.50	4573.41
547.67	4589.79
547.84	4489.15
548.00	4837.89
548.17	4718.52
548.34	4774.69
548.51	4858.95
548.67	4854.27
548.84	4669.37
549.01	4660.01
549.18	4662.35
549.34	4730.22
549.51	4779.37
549.68	4699.80
549.84	4587.45
550.01	4711.50
550.18	4643.62
550.34	4547.66
550.51	4690.43
550.68	4620.22
550.84	4407.23
551.01	4440.00
551.18	4491.49
551.34	4489.15
551.51	4652.98
551.68	4538.30
551.84	4706.82
552.01	4638.94
552.18	4510.21
552.34	4489.15
552.51	4346.37
552.68	4372.12
552.84	4458.72
553.01	4360.42
553.18	4456.38
553.34	4381.48
553.51	4538.30
553.67	4437.66
553.84	4475.10
554.01	4430.63
554.17	4561.70
554.34	4498.51
554.51	4353.40
554.67	4507.87
554.84	4484.47
555.00	4498.51
555.17	4334.67
555.33	4390.84
555.50	4418.93
555.67	4285.52
555.83	4376.80
556.00	4327.65
556.16	4337.01
556.33	4243.39
556.50	4264.46
556.66	4271.48
556.83	4208.28
556.99	4262.12
557.16	4138.07
557.32	4241.05
557.49	4374.46
557.65	4224.67
557.82	4194.24
557.98	4306.59
558.15	4056.15
558.32	4168.49
558.48	4067.85
558.65	3915.72
558.81	4044.45
558.98	4025.72
559.14	4093.60
559.31	4042.11
559.47	3981.25
559.64	4168.49
559.80	4100.62
559.97	3967.21
560.13	4079.55
560.30	4100.62
560.46	4227.01
560.63	4306.59
560.79	4337.01
560.96	4128.70
561.12	4170.83
561.29	4044.45
561.45	3962.53
561.61	4238.71
561.78	4161.47
561.94	4100.62
562.11	4222.33
562.27	4028.06
562.44	4124.02
562.60	4194.24
562.77	4236.37
562.93	4145.09
563.10	4077.21
563.26	4322.97
563.42	4156.79
563.59	3913.38
563.75	4180.20
563.92	4182.54
564.08	3927.42
564.24	3967.21
564.41	4086.58
564.57	3997.64
564.74	4196.58
564.90	4074.87
565.07	4016.36
565.23	3955.51
565.39	3786.99
565.56	3847.84
565.72	3765.92
565.88	4032.74
566.05	3899.33
566.21	3850.18
566.38	3901.67
566.54	4014.02
566.70	3892.31
566.87	4208.28
567.03	3985.93
567.19	4102.96
567.36	4011.68
567.52	3882.95
567.68	3925.08
567.85	3840.82
568.01	3684.00
568.17	3578.68
568.34	3726.13
568.50	3709.75
568.66	3550.59
568.83	3784.65
568.99	3559.95
569.15	3840.82
569.32	3740.18
569.48	3639.53
569.64	3655.92
569.81	3545.91
569.97	3712.09
570.13	3754.22
570.30	3735.50
570.46	3672.30
570.62	3541.23
570.78	3419.52
570.95	3618.47
571.11	3646.55
571.27	3665.28
571.43	3700.39
571.60	3693.37
571.76	3716.77
571.92	3836.14
572.09	3681.66
572.25	3742.52
572.41	3744.86
572.57	3786.99
572.74	3698.05
572.90	3777.62
573.06	3761.24
573.22	3700.39
573.38	3632.51
573.55	3730.81
573.71	3719.11
573.87	3782.31
574.03	3555.27
574.20	3644.21
574.36	3681.66
574.52	3536.55
574.68	3515.48
574.84	3667.62
575.01	3557.61
575.17	3599.74
575.33	3456.97
575.49	3606.77
575.65	3632.51
575.82	3812.73
575.98	3578.68
576.14	3527.19
576.30	3552.93
576.46	3936.78
576.62	3882.95
576.79	3997.64
576.95	3983.59
577.11	3740.18
577.27	3712.09
577.43	3705.07
577.59	3590.38
577.75	3513.14
577.92	3564.64
578.08	3407.82
578.24	3410.16
578.40	3623.15
578.56	3700.39
578.72	3833.80
578.88	3889.97
579.04	3882.95
579.21	3651.24
579.37	3648.90
579.53	3569.32
579.69	3625.49
579.85	3688.68
580.01	3737.84
580.17	3655.92
580.33	3707.41
580.49	3618.47
580.65	3726.13
580.82	3578.68
580.98	3655.92
581.14	3735.50
581.30	3772.94
581.46	3751.88
581.62	3719.11
581.78	3562.30
581.94	3812.73
582.10	3777.62
582.26	3801.03
582.42	3695.71
582.58	3829.12
582.74	3831.46
582.90	3707.41
583.06	3754.22
583.22	3730.81
583.38	3779.97
583.54	3705.07
583.70	3700.39
583.86	3581.02
584.02	3686.34
584.18	3716.77
584.34	3613.79
584.50	3758.90
584.66	3674.64
584.82	3571.66
584.98	3658.26
585.14	3749.54
585.30	3623.15
585.46	3552.93
585.62	3627.83
585.78	3585.70
585.94	3440.59
586.10	3562.30
586.26	3548.25
586.42	3634.85
586.58	3566.98
586.74	3679.32
586.90	3588.04
587.06	3571.66
587.22	3653.58
587.38	3471.01
587.54	3534.21
587.70	3274.41
587.86	3192.49
588.02	3101.21
588.18	3197.17
588.34	2944.39
588.49	2700.98
588.65	2635.44
588.81	2614.38
588.97	2551.18
589.13	2691.62
589.29	2497.35
589.45	2553.52
589.61	2640.12
589.77	2553.52
589.93	2780.56
590.08	2850.77
590.24	3021.63
590.40	2899.92
590.56	3042.70
590.72	2937.37
590.88	2946.73
591.04	2960.78
591.20	2843.75
591.35	3021.63
591.51	2864.82
591.67	2888.22
591.83	2916.31
591.99	2850.77
592.15	2871.84
592.31	3038.02
592.46	3141.00
592.62	3070.78
592.78	3030.99
592.94	3136.32
593.10	3272.07
593.26	3276.75
593.41	3187.81
593.57	3208.87
593.73	2904.60
593.89	2988.86
594.05	2764.17
594.20	2792.26
594.36	2768.85
594.52	2752.47
594.68	2712.68
594.84	2864.82
594.99	2871.84
595.15	3030.99
595.31	3021.63
595.47	3000.57
595.62	2918.65
595.78	3005.25
595.94	3148.02
596.10	3103.55
596.25	3073.12
596.41	3014.61
596.57	2970.14
596.73	2967.80
596.88	2909.29
597.04	3105.89
597.20	3042.70
597.36	3009.93
597.51	3131.64
597.67	3030.99
597.83	3096.53
597.99	3164.40
