SpectraSuite Data File
++++++++++++++++++++++++++++++++++++
Date: Fri Oct 04 11:44:18 GMT-05:00 2013
User: price-jones
Dark Spectrum Present: No
Reference Spectrum Present: No
Number of Sampled Component Spectra: 1
Spectrometers: USB2+H05261
Integration Time (usec): 100000 (USB2+H05261)
Spectra Averaged: 1 (USB2+H05261)
Boxcar Smoothing: 0 (USB2+H05261)
Correct for Electrical Dark: No (USB2+H05261)
Strobe/Lamp Enabled: No (USB2+H05261)
Correct for Detector Non-linearity: No (USB2+H05261)
Correct for Stray Light: No (USB2+H05261)
Number of Pixels in Processed Spectrum: 2048
>>>>>Begin Processed Spectral Data<<<<<
365.73	0.00
365.92	0.00
366.12	0.00
366.32	70.22
366.52	0.00
366.72	0.00
366.91	0.00
367.11	0.00
367.31	0.00
367.51	0.00
367.70	0.00
367.90	0.00
368.10	0.00
368.30	0.00
368.49	0.00
368.69	0.00
368.89	0.00
369.09	0.00
369.28	0.00
369.48	0.00
369.68	0.00
369.87	0.00
370.07	0.00
370.27	63.19
370.47	86.60
370.66	470.45
370.86	528.96
371.06	564.07
371.25	526.62
371.45	486.83
371.65	503.22
371.84	440.02
372.04	472.79
372.24	538.32
372.44	531.30
372.63	500.87
372.83	564.07
373.03	437.68
373.22	442.36
373.42	489.17
373.62	444.70
373.81	491.51
374.01	566.41
374.21	519.60
374.40	514.92
374.60	575.77
374.79	606.20
374.99	650.67
375.19	709.18
375.38	690.46
375.58	655.35
375.78	681.10
375.97	683.44
376.17	681.10
376.37	683.44
376.56	748.97
376.76	695.14
376.95	774.72
377.15	809.83
377.35	774.72
377.54	802.80
377.74	758.33
377.93	861.32
378.13	788.76
378.33	830.89
378.52	683.44
378.72	777.06
378.91	753.65
379.11	662.37
379.31	683.44
379.50	657.69
379.70	716.20
379.89	734.93
380.09	812.17
380.28	791.10
380.48	802.80
380.68	746.63
380.87	732.59
381.07	772.38
381.26	730.25
381.46	692.80
381.65	610.88
381.85	559.39
382.04	657.69
382.24	510.24
382.43	547.69
382.63	526.62
382.83	599.18
383.02	580.45
383.22	578.11
383.41	486.83
383.61	587.47
383.80	606.20
384.00	741.95
384.19	814.51
384.39	807.48
384.58	798.12
384.78	812.17
384.97	807.48
385.17	779.40
385.36	751.31
385.56	772.38
385.75	793.44
385.95	751.31
386.14	837.91
386.34	793.44
386.53	861.32
386.72	788.76
386.92	863.66
387.11	770.04
387.31	716.20
387.50	772.38
387.70	781.74
387.89	784.08
388.09	765.36
388.28	798.12
388.48	748.97
388.67	894.08
388.86	947.92
389.06	968.98
389.25	1015.79
389.45	1041.54
389.64	983.02
389.84	1034.52
390.03	985.37
390.22	1008.77
390.42	1022.81
390.61	1086.01
390.81	1067.28
391.00	1149.20
391.19	1097.71
391.39	1153.88
391.58	1027.50
391.78	1034.52
391.97	1015.79
392.16	894.08
392.36	828.55
392.55	704.50
392.75	592.16
392.94	526.62
393.13	524.28
393.33	550.03
393.52	706.84
393.71	802.80
393.91	990.05
394.10	1015.79
394.29	985.37
394.49	1184.31
394.68	1132.82
394.88	1181.97
395.07	1317.72
395.26	1240.48
395.46	1076.65
395.65	1090.69
395.84	1064.94
396.04	931.53
396.23	807.48
396.42	655.35
396.62	601.52
396.81	720.88
397.00	844.93
397.19	1036.86
397.39	1135.16
397.58	1263.89
397.77	1399.64
397.97	1469.86
398.16	1397.30
398.35	1420.71
398.55	1540.07
398.74	1603.27
398.93	1645.40
399.12	1614.97
399.32	1671.14
399.51	1549.43
399.70	1736.68
399.90	1607.95
400.09	1696.89
400.28	1762.42
400.47	1626.67
400.67	1664.12
400.86	1708.59
401.05	1778.81
401.24	1671.14
401.44	1736.68
401.63	1795.19
401.82	1806.89
402.01	1799.87
402.21	1820.94
402.40	1870.09
402.59	1722.63
402.78	1544.75
402.97	1661.78
403.17	1741.36
403.36	1757.74
403.55	1893.49
403.74	1863.07
403.93	1966.05
404.13	1996.48
404.32	2031.58
404.51	1973.07
404.70	2076.06
404.89	1746.04
405.09	1834.98
405.28	1696.89
405.47	1666.46
405.66	1722.63
405.85	1771.79
406.05	1816.26
406.24	1748.38
406.43	1790.51
406.62	1863.07
406.81	1762.42
407.00	1832.64
407.20	1722.63
407.39	1832.64
407.58	1820.94
407.77	1863.07
407.96	1874.77
408.15	1912.22
408.34	1921.58
408.54	1973.07
408.73	1907.54
408.92	1959.03
409.11	1916.90
409.30	1860.73
409.49	1720.29
409.68	1600.93
409.87	1610.29
410.07	1643.06
410.26	1820.94
410.45	1973.07
410.64	1956.69
410.83	2045.63
411.02	2003.50
411.21	2146.27
411.40	2141.59
411.59	2122.87
411.78	2106.48
411.98	2099.46
412.17	2033.93
412.36	2155.63
412.55	2026.90
412.74	2001.16
412.93	2029.24
413.12	2005.84
413.31	2148.61
413.50	2176.70
413.69	2253.94
413.88	2197.76
414.07	2172.02
414.26	2108.82
414.45	2176.70
414.64	2165.00
414.83	2183.72
415.02	2239.89
415.22	2141.59
415.41	2174.36
415.60	2242.23
415.79	2314.79
415.98	2359.26
416.17	2408.41
416.36	2387.35
416.55	2314.79
416.74	2340.54
416.93	2209.47
417.12	2174.36
417.31	2275.00
417.50	2186.06
417.69	2363.94
417.88	2263.30
418.07	2218.83
418.26	2284.36
418.45	2165.00
418.64	2307.77
418.83	2354.58
419.02	2401.39
419.21	2394.37
419.39	2197.76
419.58	2221.17
419.77	2139.25
419.96	2265.64
420.15	2429.48
420.34	2413.09
420.53	2473.95
420.72	2497.35
420.91	2476.29
421.10	2462.24
421.29	2520.76
421.48	2555.86
421.67	2588.63
421.86	2502.03
422.05	2216.49
422.24	2090.10
422.43	2148.61
422.61	2167.34
422.80	2204.78
422.99	2406.07
423.18	2408.41
423.37	2352.24
423.56	2256.28
423.75	2368.62
423.94	2338.20
424.13	2260.96
424.32	2275.00
424.50	2354.58
424.69	2242.23
424.88	2272.66
425.07	2272.66
425.26	2235.21
425.45	2298.41
425.64	2115.84
425.83	2270.32
426.01	2296.07
426.20	2356.92
426.39	2408.41
426.58	2125.21
426.77	1994.14
426.96	2022.22
427.15	2064.35
427.33	2200.10
427.52	2293.72
427.71	2286.70
427.90	2244.57
428.09	2242.23
428.28	2162.66
428.46	2207.13
428.65	2087.76
428.84	2193.08
429.03	2087.76
429.22	2057.33
429.40	1933.28
429.59	1816.26
429.78	1741.36
429.97	1612.63
430.16	1652.42
430.34	1600.93
430.53	1600.93
430.72	1668.80
430.91	1881.79
431.10	2087.76
431.28	2415.43
431.47	2647.15
431.66	2686.94
431.85	2356.92
432.03	2172.02
432.22	2167.34
432.41	2228.19
432.60	2413.09
432.79	2473.95
432.97	2630.76
433.16	2555.86
433.35	2310.11
433.54	2202.44
433.72	2026.90
433.91	2153.29
434.10	2331.17
434.28	2546.50
434.47	2633.10
434.66	2626.08
434.85	2574.59
435.03	2883.54
435.22	3489.74
435.41	4489.15
435.59	4505.53
435.78	3992.95
435.97	3323.56
436.16	2895.24
436.34	2757.15
436.53	2750.13
436.72	2698.64
436.90	2686.94
437.09	2572.25
437.28	2597.99
437.46	2553.52
437.65	2562.89
437.84	2476.29
438.02	2284.36
438.21	2303.09
438.40	2434.16
438.58	2640.12
438.77	2541.82
438.96	2597.99
439.14	2700.98
439.33	2668.21
439.52	2848.43
439.70	2715.02
439.89	2818.00
440.08	2647.15
440.26	2754.81
440.45	2696.30
440.63	2892.90
440.82	3035.67
441.01	3016.95
441.19	2906.95
441.38	3026.31
441.57	3049.72
441.75	3126.96
441.94	3166.74
442.12	3038.02
442.31	3089.51
442.50	3145.68
442.68	2970.14
442.87	3094.19
443.05	2972.48
443.24	3110.57
443.43	3061.42
443.61	3054.40
443.80	3014.61
443.98	2967.80
444.17	2991.20
444.35	3178.45
444.54	3199.51
444.73	3047.38
444.91	3098.87
445.10	2963.12
445.28	2909.29
445.47	2773.53
445.65	2843.75
445.84	2906.95
446.02	2923.33
446.21	2986.52
446.39	2935.03
446.58	3068.44
446.77	3035.67
446.95	3045.04
447.14	3267.39
447.32	3192.49
447.51	3169.09
447.69	3183.13
447.88	3084.83
448.06	3176.11
448.25	3208.87
448.43	3253.34
448.62	3157.38
448.80	3101.21
448.99	3180.79
449.17	3157.38
449.36	3192.49
449.54	3150.36
449.73	3227.60
449.91	3309.52
450.10	3454.63
450.28	3384.41
450.46	3302.50
450.65	3471.01
450.83	3623.15
451.02	3272.07
451.20	3368.03
451.39	3309.52
451.57	3131.64
451.76	3353.99
451.94	3494.42
452.13	3323.56
452.31	3234.62
452.49	3021.63
452.68	2885.88
452.86	3045.04
453.05	3213.56
453.23	3169.09
453.42	3143.34
453.60	3412.50
453.78	3328.24
453.97	3300.16
454.15	3276.75
454.34	3220.58
454.52	3211.22
454.70	3082.49
454.89	3201.85
455.07	3066.10
455.26	3346.97
455.44	3328.24
455.62	3414.84
455.81	3426.54
455.99	3445.27
456.17	3283.77
456.36	3414.84
456.54	3332.92
456.73	3417.18
456.91	3506.12
457.09	3585.70
457.28	3625.49
457.46	3496.76
457.64	3403.14
457.83	3274.41
458.01	3403.14
458.19	3171.43
458.38	3236.96
458.56	3475.70
458.74	3384.41
458.93	3391.44
459.11	3396.12
459.29	3393.78
459.48	3321.22
459.66	3365.69
459.84	3503.78
460.03	3424.20
460.21	3382.07
460.39	3447.61
460.57	3480.38
460.76	3515.48
460.94	3541.23
461.12	3524.85
461.31	3499.10
461.49	3524.85
461.67	3524.85
461.85	3548.25
462.04	3534.21
462.22	4028.06
462.40	3599.74
462.59	3487.40
462.77	3660.60
462.95	3679.32
463.13	3475.70
463.32	3466.33
463.50	3456.97
463.68	3543.57
463.86	3531.87
464.05	3508.46
464.23	3396.12
464.41	3356.33
464.59	3363.35
464.78	3646.55
464.96	3295.47
465.14	3438.25
465.32	3508.46
465.50	3543.57
465.69	3761.24
465.87	3442.93
466.05	3655.92
466.23	3330.58
466.41	3286.11
466.60	3452.29
466.78	3272.07
466.96	3513.14
467.14	3517.83
467.32	3501.44
467.51	3506.12
467.69	3445.27
467.87	3363.35
468.05	3419.52
468.23	3538.89
468.41	3489.74
468.60	3393.78
468.78	3475.70
468.96	3492.08
469.14	3555.27
469.32	3524.85
469.50	3332.92
469.69	3318.88
469.87	3492.08
470.05	3372.71
470.23	3400.80
470.41	3323.56
470.59	3393.78
470.77	3566.98
470.95	3377.39
471.14	3627.83
471.32	3543.57
471.50	3763.58
471.68	3775.28
471.86	3857.20
472.04	3597.40
472.22	3714.43
472.40	3669.96
472.58	3609.11
472.77	3536.55
472.95	3574.00
473.13	3581.02
473.31	3665.28
473.49	3517.83
473.67	3646.55
473.85	3721.45
474.03	3716.77
474.21	3723.79
474.39	3875.93
474.57	3852.52
474.75	3918.06
474.93	3791.67
475.12	3698.05
475.30	3815.07
475.48	3716.77
475.66	3815.07
475.84	3735.50
476.02	3728.47
476.20	3634.85
476.38	3674.64
476.56	4035.08
476.74	3967.21
476.92	4023.38
477.10	3920.40
477.28	4039.76
477.46	4032.74
477.64	3978.91
477.82	4133.39
478.00	4210.62
478.18	4140.41
478.36	4039.76
478.54	4049.13
478.72	4067.85
478.90	4189.56
479.08	4339.35
479.26	4381.48
479.44	4395.53
479.62	4315.95
479.80	4351.06
479.98	4318.29
480.16	4252.75
480.34	4418.93
480.52	4482.13
480.70	4538.30
480.88	4318.29
481.06	4599.15
481.24	4669.37
481.41	4713.84
481.59	4725.54
481.77	4603.83
481.95	4784.06
482.13	4615.54
482.31	4449.36
482.49	4727.88
482.67	4840.23
482.85	4781.71
483.03	4856.61
483.21	4791.08
483.39	4809.80
483.57	4734.90
483.74	4770.01
483.92	4903.42
484.10	4791.08
484.28	4947.89
484.46	4997.04
484.64	5125.77
484.82	4884.70
485.00	4709.16
485.18	4816.82
485.35	4713.84
485.53	4465.74
485.71	4133.39
485.89	3936.78
486.07	4088.92
486.25	4540.64
486.43	4734.90
486.61	4896.40
486.78	4652.98
486.96	4791.08
487.14	4987.68
487.32	5116.41
487.50	5177.26
487.68	5315.36
487.85	5406.64
488.03	5420.68
488.21	5425.36
488.39	5198.33
488.57	5104.71
488.75	5144.50
488.92	5371.53
489.10	5439.40
489.28	5778.78
489.46	5841.98
489.64	5987.09
489.81	6040.92
489.99	5898.15
490.17	5884.11
490.35	5923.90
490.53	5703.89
490.70	5741.33
490.88	5797.51
491.06	5989.43
491.24	5841.98
491.41	5893.47
491.59	5446.43
491.77	5469.83
491.95	5526.00
492.13	5598.56
492.30	5844.32
492.48	5949.64
492.66	6092.41
492.84	6111.14
493.01	6127.52
493.19	5991.77
493.37	5954.32
493.54	5884.11
493.72	6085.39
493.90	6356.90
494.08	6420.09
494.25	6352.21
494.43	6593.29
494.61	6354.55
494.79	6408.39
494.96	6537.12
495.14	6375.62
495.32	6345.19
495.49	6300.72
495.67	6246.89
495.85	6438.81
496.02	6644.78
496.20	6635.42
496.38	6445.84
496.55	6289.02
496.73	6553.50
496.91	6576.91
497.09	6729.04
497.26	6698.61
497.44	6752.45
497.62	6576.91
497.79	6420.09
497.97	5982.41
498.14	6225.82
498.32	6342.85
498.50	6523.07
498.67	6607.33
498.85	6539.46
499.03	6579.25
499.20	6576.91
499.38	6899.90
499.56	6647.12
499.73	6565.20
499.91	6670.53
500.08	6422.43
500.26	6083.05
500.44	6289.02
500.61	6331.15
500.79	6551.16
500.97	6396.68
501.14	6305.40
501.32	6153.27
501.49	6244.55
501.67	6251.57
501.84	6214.12
502.02	6387.32
502.20	6375.62
502.37	6513.71
502.55	6525.41
502.72	6384.98
502.90	6705.63
503.07	6593.29
503.25	6284.34
503.43	6146.25
503.60	6069.01
503.78	5980.07
503.95	5977.73
504.13	6143.91
504.30	6574.56
504.48	6703.29
504.65	6548.82
504.83	6487.96
505.01	6707.98
505.18	6794.58
505.36	6951.39
505.53	6686.91
505.71	6998.20
505.88	6909.26
506.06	6684.57
506.23	6895.22
506.41	6651.80
506.58	6717.34
506.76	6675.21
506.93	6649.46
507.11	6621.38
507.28	6651.80
507.46	6541.80
507.63	6438.81
507.81	6345.19
507.98	6457.54
508.16	6581.59
508.33	6700.95
508.50	6939.69
508.68	6944.37
508.85	7098.84
509.03	7066.08
509.20	7040.33
509.38	6696.27
509.55	6682.23
509.73	6738.40
509.90	6729.04
510.08	6899.90
510.25	6855.43
510.42	6780.53
510.60	6906.92
510.77	6876.49
510.95	7178.42
511.12	7045.01
511.30	7105.87
511.47	7180.76
511.64	7316.51
511.82	7295.45
511.99	7030.97
512.17	6995.86
512.34	6736.06
512.51	6712.66
512.69	6867.13
512.86	7052.03
513.04	7082.46
513.21	6979.48
513.38	6920.96
513.56	6719.68
513.73	6745.42
513.90	6715.00
514.08	6932.67
514.25	6747.76
514.43	6806.28
514.60	6862.45
514.77	6792.23
514.95	6759.47
515.12	6825.00
515.29	7000.54
515.47	6995.86
515.64	7115.23
515.81	7026.29
515.99	7045.01
516.16	6455.20
516.33	6118.16
516.51	5881.77
516.68	5650.05
516.85	5563.45
517.03	5678.14
517.20	6108.80
517.37	6644.78
517.54	6878.83
517.72	6710.32
517.89	6232.85
518.06	5802.19
518.24	5919.21
518.41	6232.85
518.58	6703.29
518.75	6530.09
518.93	6710.32
519.10	6712.66
519.27	6686.91
519.45	6864.79
519.62	6878.83
519.79	7014.59
519.96	7124.59
520.14	6785.21
520.31	6700.95
520.48	6820.32
520.65	6792.23
520.83	7030.97
521.00	7145.66
521.17	7054.37
521.34	7042.67
521.52	6871.81
521.69	7155.02
521.86	7133.95
522.03	7089.48
522.20	6878.83
522.38	6752.45
522.55	6670.53
522.72	6675.21
522.89	6967.77
523.07	7080.12
523.24	6892.88
523.41	7215.87
523.58	7105.87
523.75	7351.62
523.92	7346.94
524.10	7204.17
524.27	7276.73
524.44	7314.17
524.61	7124.59
524.78	7122.25
524.96	7117.57
525.13	7222.89
525.30	7159.70
525.47	7431.20
525.64	7248.64
525.81	7080.12
525.98	6792.23
526.16	6663.51
526.33	6256.25
526.50	6097.10
526.67	6073.69
526.84	6125.18
527.01	6326.47
527.18	6747.76
527.36	6771.17
527.53	6951.39
527.70	7166.72
527.87	6988.84
528.04	6827.34
528.21	7009.90
528.38	7169.06
528.55	7393.75
528.72	7506.10
528.89	7445.24
529.07	7391.41
529.24	7304.81
529.41	6970.12
529.58	6855.43
529.75	6839.05
529.92	7040.33
530.09	7059.06
530.26	7206.51
530.43	7220.55
530.60	7281.41
530.77	7363.33
530.94	7475.67
531.11	7288.43
531.28	7229.91
531.46	7105.87
531.63	7241.62
531.80	7164.38
531.97	7087.14
532.14	6920.96
532.31	6661.16
532.48	6574.56
532.65	6644.78
532.82	6712.66
532.99	7073.10
533.16	7236.94
533.33	7412.48
533.50	7171.40
533.67	6965.43
533.84	6789.89
534.01	7087.14
534.18	7045.01
534.35	7145.66
534.52	6895.22
534.69	7140.97
534.86	7155.02
535.03	7311.83
535.20	7225.23
535.37	7323.54
535.54	7452.27
535.71	7426.52
535.88	7258.00
536.05	7368.01
536.22	7061.40
536.38	7122.25
536.55	6745.42
536.72	6881.18
536.89	6857.77
537.06	6906.92
537.23	7206.51
537.40	7393.75
537.57	7220.55
537.74	7524.82
537.91	7365.67
538.08	7190.13
538.25	7349.28
538.42	7311.83
538.59	7513.12
538.75	7236.94
538.92	7073.10
539.09	7190.13
539.26	7040.33
539.43	7192.47
539.60	7279.07
539.77	7248.64
539.94	7433.54
540.11	7122.25
540.28	7213.53
540.44	7218.21
540.61	7325.88
540.78	7452.27
540.95	7730.79
541.12	7971.86
541.29	8344.01
541.46	8449.33
541.62	8315.92
541.79	8320.60
541.96	8056.12
542.13	8119.32
542.30	8189.53
542.47	7936.76
542.63	7939.10
542.80	7868.88
542.97	7730.79
543.14	7564.61
543.31	7751.85
543.48	7845.48
543.64	8173.15
543.81	8159.11
543.98	8145.06
544.15	7927.39
544.32	7936.76
544.48	7906.33
544.65	7932.08
544.82	7999.95
544.99	7714.41
545.16	7880.58
545.32	7925.05
545.49	9053.19
545.66	10724.33
545.83	11066.05
546.00	10530.07
546.16	8971.27
546.33	8580.40
546.50	7985.91
546.67	7988.25
546.83	7740.15
547.00	7660.57
547.17	7349.28
547.34	7478.01
547.50	7339.92
547.67	7447.58
547.84	7515.46
548.00	7442.90
548.17	7552.91
548.34	7559.93
548.51	7564.61
548.67	7335.24
548.84	7389.07
549.01	7492.05
549.18	7159.70
549.34	7323.54
549.51	7204.17
549.68	7105.87
549.84	7171.40
550.01	7155.02
550.18	7131.61
550.34	7302.47
550.51	6984.16
550.68	7180.76
550.84	6857.77
551.01	6956.07
551.18	6874.15
551.34	7103.53
551.51	7185.44
551.68	7143.32
551.84	7190.13
552.01	6960.75
552.18	6946.71
552.34	6815.64
552.51	6682.23
552.68	6722.02
552.84	6956.07
553.01	6747.76
553.18	6860.11
553.34	7054.37
553.51	6913.94
553.67	6977.14
553.84	6960.75
554.01	6827.34
554.17	6902.24
554.34	6942.03
554.51	6829.68
554.67	7096.50
554.84	6974.80
555.00	7016.93
555.17	6855.43
555.33	6789.89
555.50	6867.13
555.67	6623.72
555.83	6633.08
556.00	6494.99
556.16	6715.00
556.33	6544.14
556.50	6445.84
556.66	6576.91
556.83	6410.73
556.99	6387.32
557.16	6436.47
557.32	6420.09
557.49	6572.22
557.65	6527.75
557.82	6509.03
557.98	6705.63
558.15	6504.35
558.32	6338.17
558.48	6080.71
558.65	6052.63
558.81	6146.25
558.98	6256.25
559.14	6296.04
559.31	6293.70
559.47	6356.90
559.64	6265.61
559.80	6148.59
559.97	6223.48
560.13	6244.55
560.30	6403.71
560.46	6455.20
560.63	6644.78
560.79	6658.82
560.96	6677.55
561.12	6480.94
561.29	6284.34
561.45	6143.91
561.61	6059.65
561.78	6485.62
561.94	6307.74
562.11	6143.91
562.27	6284.34
562.44	6132.20
562.60	6335.83
562.77	6153.27
562.93	6473.92
563.10	6403.71
563.26	6244.55
563.42	6258.59
563.59	5916.87
563.75	6045.60
563.92	6293.70
564.08	6186.04
564.24	6153.27
564.41	6277.32
564.57	6141.57
564.74	6125.18
564.90	6127.52
565.07	6223.48
565.23	6235.19
565.39	5893.47
565.56	5937.94
565.72	5888.79
565.88	5813.89
566.05	5905.17
566.21	5984.75
566.38	5942.62
566.54	6106.46
566.70	6183.70
566.87	6143.91
567.03	5998.79
567.19	6256.25
567.36	6200.08
567.52	6136.88
567.68	6012.84
567.85	5717.93
568.01	5727.29
568.17	5591.54
568.34	5666.44
568.50	5678.14
568.66	5549.41
568.83	5689.84
568.99	5675.80
569.15	5874.74
569.32	5736.65
569.48	5671.12
569.64	5626.65
569.81	5661.76
569.97	5757.72
570.13	5659.42
570.30	5558.77
570.46	5523.66
570.62	5469.83
570.78	5460.47
570.95	5301.31
571.11	5495.58
571.27	5593.88
571.43	5689.84
571.60	5589.20
571.76	5563.45
571.92	5724.95
572.09	5727.29
572.25	5724.95
572.41	5720.27
572.57	5790.49
572.74	5654.73
572.90	5694.52
573.06	5706.23
573.22	5771.76
573.38	5603.24
573.55	5689.84
573.71	5778.78
573.87	5664.10
574.03	5413.66
574.20	5577.50
574.36	5425.36
574.52	5406.64
574.68	5551.75
574.84	5483.88
575.01	5364.51
575.17	5317.70
575.33	5439.40
575.49	5497.92
575.65	5521.32
575.82	5476.85
575.98	5369.19
576.14	5469.83
576.30	5584.52
576.46	5846.66
576.62	6207.10
576.79	6246.89
576.95	6008.16
577.11	5717.93
577.27	5682.82
577.43	5603.24
577.59	5570.48
577.75	5469.83
577.92	5392.59
578.08	5200.67
578.24	5320.04
578.40	5345.78
578.56	5809.21
578.72	6101.78
578.88	6164.97
579.04	5956.66
579.21	5902.83
579.37	5640.69
579.53	5724.95
579.69	5734.31
579.85	5811.55
580.01	5799.85
580.17	5638.35
580.33	5598.56
580.49	5633.67
580.65	5589.20
580.82	5717.93
580.98	5774.10
581.14	5544.73
581.30	5668.78
581.46	5771.76
581.62	5731.97
581.78	5561.11
581.94	5675.80
582.10	5633.67
582.26	5762.40
582.42	5923.90
582.58	5809.21
582.74	5748.36
582.90	5825.59
583.06	5914.53
583.22	5795.17
583.38	5729.63
583.54	5743.67
583.70	5703.89
583.86	5825.59
584.02	5703.89
584.18	5692.18
584.34	5692.18
584.50	5816.23
584.66	5640.69
584.82	5547.07
584.98	5540.05
585.14	5509.62
585.30	5465.15
585.46	5313.02
585.62	5530.69
585.78	5380.89
585.94	5439.40
586.10	5551.75
586.26	5483.88
586.42	5526.00
586.58	5474.51
586.74	5645.37
586.90	5685.16
587.06	5633.67
587.22	5530.69
587.38	5575.16
587.54	5327.06
587.70	5256.84
587.86	5184.29
588.02	4889.38
588.18	4678.73
588.34	4566.39
588.49	4224.67
588.65	3953.16
588.81	3950.82
588.97	3805.71
589.13	3918.06
589.29	3873.59
589.45	3983.59
589.61	3957.85
589.77	4079.55
589.93	4243.39
590.08	4337.01
590.24	4587.45
590.40	4505.53
590.56	4571.07
590.72	4685.75
590.88	4557.02
591.04	4599.15
591.20	4507.87
591.35	4547.66
591.51	4423.61
591.67	4367.44
591.83	4451.70
591.99	4390.84
592.15	4645.96
592.31	4634.26
592.46	4828.53
592.62	4692.77
592.78	4926.83
592.94	4947.89
593.10	4987.68
593.26	5032.15
593.41	4971.30
593.57	4830.87
593.73	4617.88
593.89	4503.19
594.05	4383.82
594.20	4191.90
594.36	4109.98
594.52	4077.21
594.68	4105.30
594.84	4365.10
594.99	4557.02
595.15	4573.41
595.31	4615.54
595.47	4421.27
595.62	4514.89
595.78	4718.52
595.94	4748.95
596.10	4910.44
596.25	4643.62
596.41	4599.15
596.57	4463.40
596.73	4423.61
596.88	4587.45
597.04	4587.45
597.20	4631.92
597.36	4608.51
597.51	4351.06
597.67	4620.22
