SpectraSuite Data File
++++++++++++++++++++++++++++++++++++
Date: Fri Oct 04 11:44:12 GMT-05:00 2013
User: price-jones
Dark Spectrum Present: No
Reference Spectrum Present: No
Number of Sampled Component Spectra: 1
Spectrometers: USB2+H05261
Integration Time (usec): 100000 (USB2+H05261)
Spectra Averaged: 1 (USB2+H05261)
Boxcar Smoothing: 0 (USB2+H05261)
Correct for Electrical Dark: No (USB2+H05261)
Strobe/Lamp Enabled: No (USB2+H05261)
Correct for Detector Non-linearity: No (USB2+H05261)
Correct for Stray Light: No (USB2+H05261)
Number of Pixels in Processed Spectrum: 2048
>>>>>Begin Processed Spectral Data<<<<<
365.73	0.00
365.92	0.00
366.12	0.00
366.32	0.00
366.52	0.00
366.72	0.00
366.91	0.00
367.11	0.00
367.31	0.00
367.51	0.00
367.70	0.00
367.90	0.00
368.10	0.00
368.30	0.00
368.49	0.00
368.69	4.68
368.89	0.00
369.09	0.00
369.28	0.00
369.48	0.00
369.68	0.00
369.87	21.06
370.07	0.00
370.27	70.22
370.47	128.73
370.66	360.44
370.86	411.93
371.06	465.77
371.25	510.24
371.45	526.62
371.65	479.81
371.84	402.57
372.04	440.02
372.24	418.96
372.44	451.72
372.63	552.37
372.83	465.77
373.03	341.72
373.22	393.21
373.42	390.87
373.62	447.04
373.81	440.02
374.01	519.60
374.21	519.60
374.40	505.56
374.60	409.59
374.79	519.60
374.99	526.62
375.19	582.79
375.38	624.92
375.58	486.83
375.78	517.26
375.97	589.82
376.17	571.09
376.37	547.69
376.56	648.33
376.76	606.20
376.95	608.54
377.15	723.23
377.35	767.70
377.54	730.25
377.74	695.14
377.93	711.52
378.13	802.80
378.33	606.20
378.52	697.48
378.72	699.82
378.91	580.45
379.11	524.28
379.31	638.97
379.50	615.56
379.70	550.03
379.89	734.93
380.09	669.39
380.28	653.01
380.48	704.50
380.68	678.76
380.87	671.73
381.07	690.46
381.26	624.92
381.46	547.69
381.65	559.39
381.85	514.92
382.04	578.11
382.24	571.09
382.43	479.81
382.63	524.28
382.83	482.15
383.02	461.09
383.22	531.30
383.41	470.45
383.61	461.09
383.80	510.24
384.00	566.41
384.19	695.14
384.39	653.01
384.58	730.25
384.78	702.16
384.97	723.23
385.17	711.52
385.36	615.56
385.56	557.05
385.75	585.13
385.95	631.94
386.14	720.88
386.34	690.46
386.53	664.71
386.72	634.29
386.92	711.52
387.11	674.07
387.31	685.78
387.50	755.99
387.70	709.18
387.89	669.39
388.09	664.71
388.28	669.39
388.48	709.18
388.67	772.38
388.86	732.59
389.06	765.36
389.25	837.91
389.45	884.72
389.64	936.21
389.84	856.64
390.03	798.12
390.22	905.79
390.42	896.43
390.61	976.00
390.81	910.47
391.00	877.70
391.19	1011.11
391.39	947.92
391.58	954.94
391.78	910.47
391.97	835.57
392.16	793.44
392.36	777.06
392.55	688.12
392.75	543.00
392.94	428.32
393.13	463.43
393.33	475.13
393.52	582.79
393.71	753.65
393.91	758.33
394.10	880.04
394.29	844.93
394.49	943.24
394.68	910.47
394.88	1053.24
395.07	1074.31
395.26	1057.92
395.46	1034.52
395.65	1008.77
395.84	873.02
396.04	777.06
396.23	643.65
396.42	512.58
396.62	425.98
396.81	648.33
397.00	725.57
397.19	917.49
397.39	1027.50
397.58	1121.12
397.77	1207.72
397.97	1275.59
398.16	1266.23
398.35	1214.74
398.55	1394.96
398.74	1310.70
398.93	1446.45
399.12	1364.53
399.32	1413.68
399.51	1369.21
399.70	1495.60
399.90	1446.45
400.09	1458.15
400.28	1420.71
400.47	1448.79
400.67	1455.81
400.86	1561.14
401.05	1563.48
401.24	1486.24
401.44	1640.72
401.63	1579.86
401.82	1650.08
402.01	1668.80
402.21	1561.14
402.40	1729.66
402.59	1507.30
402.78	1502.62
402.97	1430.07
403.17	1542.41
403.36	1554.12
403.55	1661.78
403.74	1802.21
403.93	1575.18
404.13	1547.09
404.32	1476.88
404.51	1502.62
404.70	1610.29
404.89	1579.86
405.09	1636.03
405.28	1631.35
405.47	1537.73
405.66	1624.33
405.85	1500.28
406.05	1453.47
406.24	1497.94
406.43	1589.22
406.62	1551.78
406.81	1755.40
407.00	1568.16
407.20	1486.24
407.39	1540.07
407.58	1556.46
407.77	1750.72
407.96	1715.61
408.15	1722.63
408.34	1689.87
408.54	1886.47
408.73	1879.45
408.92	1750.72
409.11	1827.96
409.30	1685.19
409.49	1582.20
409.68	1439.43
409.87	1401.98
410.07	1551.78
410.26	1500.28
410.45	1682.85
410.64	1741.36
410.83	1797.53
411.02	1802.21
411.21	1919.24
411.40	1842.00
411.59	1914.56
411.78	1956.69
411.98	1891.15
412.17	1961.37
412.36	1802.21
412.55	1816.26
412.74	1870.09
412.93	1804.55
413.12	1853.70
413.31	1937.96
413.50	2017.54
413.69	1982.43
413.88	1944.99
414.07	1895.83
414.26	1839.66
414.45	2052.65
414.64	1963.71
414.83	1935.62
415.02	1973.07
415.22	1928.60
415.41	2043.29
415.60	2017.54
415.79	2071.37
415.98	2120.53
416.17	2087.76
416.36	2080.74
416.55	2099.46
416.74	2064.35
416.93	1900.52
417.12	1984.77
417.31	2057.33
417.50	1987.11
417.69	2176.70
417.88	2115.84
418.07	1959.03
418.26	1940.30
418.45	1895.83
418.64	2148.61
418.83	2094.78
419.02	2090.10
419.21	2062.01
419.39	2069.03
419.58	1802.21
419.77	1947.33
419.96	2069.03
420.15	2085.42
420.34	2176.70
420.53	2113.50
420.72	2300.75
420.91	2176.70
421.10	2286.70
421.29	2172.02
421.48	2218.83
421.67	2169.68
421.86	2125.21
422.05	2045.63
422.24	1888.81
422.43	1785.83
422.61	1935.62
422.80	2139.25
422.99	2150.95
423.18	2033.93
423.37	2017.54
423.56	2157.97
423.75	2094.78
423.94	2190.74
424.13	2169.68
424.32	2031.58
424.50	2085.42
424.69	2008.18
424.88	2005.84
425.07	1982.43
425.26	1989.46
425.45	2059.67
425.64	1849.02
425.83	1872.43
426.01	2165.00
426.20	2118.18
426.39	2143.93
426.58	1926.26
426.77	1811.57
426.96	1797.53
427.15	1802.21
427.33	1877.11
427.52	2050.31
427.71	2022.22
427.90	2003.50
428.09	2078.40
428.28	1928.60
428.46	1909.88
428.65	1886.47
428.84	1973.07
429.03	1973.07
429.22	1849.02
429.40	1792.85
429.59	1600.93
429.78	1561.14
429.97	1401.98
430.16	1434.75
430.34	1500.28
430.53	1413.68
430.72	1549.43
430.91	1621.99
431.10	1919.24
431.28	2059.67
431.47	2429.48
431.66	2403.73
431.85	2193.08
432.03	2043.29
432.22	2012.86
432.41	1996.48
432.60	2270.32
432.79	2249.25
432.97	2218.83
433.16	2377.98
433.35	2076.06
433.54	1902.86
433.72	1916.90
433.91	1973.07
434.10	2106.48
434.28	2258.62
434.47	2340.54
434.66	2377.98
434.85	2188.40
435.03	2356.92
435.22	2485.65
435.41	2738.43
435.59	2670.55
435.78	2771.19
435.97	2590.97
436.16	2466.92
436.34	2455.22
436.53	2349.90
436.72	2431.82
436.90	2235.21
437.09	2296.07
437.28	2293.72
437.46	2223.51
437.65	2317.13
437.84	2345.22
438.02	2069.03
438.21	1970.73
438.40	2125.21
438.58	2242.23
438.77	2347.56
438.96	2375.64
439.14	2349.90
439.33	2434.16
439.52	2560.55
439.70	2436.50
439.89	2544.16
440.08	2190.74
440.26	2300.75
440.45	2537.14
440.63	2579.27
440.82	2635.44
441.01	2630.76
441.19	2658.85
441.38	2647.15
441.57	2796.94
441.75	2918.65
441.94	2813.32
442.12	2766.51
442.31	2792.26
442.50	2857.79
442.68	2815.66
442.87	2810.98
443.05	2724.38
443.24	2750.13
443.43	2902.26
443.61	2862.48
443.80	2883.54
443.98	2775.88
444.17	2729.06
444.35	2883.54
444.54	2928.01
444.73	2871.84
444.91	2757.15
445.10	2729.06
445.28	2532.46
445.47	2492.67
445.65	2691.62
445.84	2602.68
446.02	2710.34
446.21	2679.91
446.39	2703.32
446.58	2768.85
446.77	2839.07
446.95	2850.77
447.14	2953.76
447.32	3002.91
447.51	2972.48
447.69	2909.29
447.88	2761.83
448.06	2775.88
448.25	2874.18
448.43	2913.97
448.62	2839.07
448.80	2848.43
448.99	2860.13
449.17	2935.03
449.36	2822.69
449.54	2970.14
449.73	2986.52
449.91	3124.62
450.10	3211.22
450.28	3267.39
450.46	3227.60
450.65	3152.70
450.83	3126.96
451.02	3070.78
451.20	3108.23
451.39	2937.37
451.57	2977.16
451.76	2981.84
451.94	3073.12
452.13	2977.16
452.31	2834.39
452.49	2719.70
452.68	2736.09
452.86	2787.58
453.05	2799.28
453.23	2920.99
453.42	2820.35
453.60	3000.57
453.78	2937.37
453.97	3021.63
454.15	3035.67
454.34	2965.46
454.52	2925.67
454.70	2956.10
454.89	2885.88
455.07	2984.18
455.26	2899.92
455.44	3068.44
455.62	3176.11
455.81	3087.17
455.99	3105.89
456.17	3145.68
456.36	3094.19
456.54	3178.45
456.73	3059.08
456.91	3297.81
457.09	3150.36
457.28	3246.32
457.46	3183.13
457.64	3169.09
457.83	3075.46
458.01	2972.48
458.19	3042.70
458.38	3021.63
458.56	3030.99
458.74	3091.85
458.93	3047.38
459.11	3115.25
459.29	3035.67
459.48	3148.02
459.66	3023.97
459.84	3080.14
460.03	3192.49
460.21	3152.70
460.39	3332.92
460.57	3272.07
460.76	3262.71
460.94	3328.24
461.12	3197.17
461.31	3215.90
461.49	3218.24
461.67	3232.28
461.85	3361.01
462.04	3157.38
462.22	3831.46
462.40	3370.37
462.59	3339.94
462.77	3178.45
462.95	3150.36
463.13	3251.00
463.32	3236.96
463.50	3272.07
463.68	3197.17
463.86	3311.86
464.05	3239.30
464.23	3087.17
464.41	3108.23
464.59	3094.19
464.78	3201.85
464.96	3080.14
465.14	3248.66
465.32	3126.96
465.50	3321.22
465.69	3447.61
465.87	3234.62
466.05	3211.22
466.23	3059.08
466.41	2986.52
466.60	3101.21
466.78	3084.83
466.96	3091.85
467.14	3204.19
467.32	3164.40
467.51	3241.64
467.69	3045.04
467.87	3227.60
468.05	3103.55
468.23	3344.63
468.41	3164.40
468.60	3255.69
468.78	3239.30
468.96	3187.81
469.14	3185.47
469.32	3148.02
469.50	3133.98
469.69	3166.74
469.87	3122.27
470.05	3028.65
470.23	3222.92
470.41	2995.89
470.59	3204.19
470.77	3112.91
470.95	3225.26
471.14	3400.80
471.32	3094.19
471.50	3515.48
471.68	3393.78
471.86	3433.57
472.04	3480.38
472.22	3480.38
472.40	3330.58
472.58	3180.79
472.77	3337.60
472.95	3234.62
473.13	3386.76
473.31	3337.60
473.49	3288.45
473.67	3358.67
473.85	3318.88
474.03	3412.50
474.21	3485.06
474.39	3438.25
474.57	3545.91
474.75	3581.02
474.93	3454.63
475.12	3384.41
475.30	3363.35
475.48	3503.78
475.66	3597.40
475.84	3588.04
476.02	3323.56
476.20	3424.20
476.38	3466.33
476.56	3634.85
476.74	3557.61
476.92	3529.53
477.10	3639.53
477.28	3740.18
477.46	3712.09
477.64	3812.73
477.82	3744.86
478.00	3681.66
478.18	3782.31
478.36	3700.39
478.54	3728.47
478.72	3784.65
478.90	3850.18
479.08	3983.59
479.26	3999.98
479.44	3880.61
479.62	3988.27
479.80	4072.53
479.98	3969.55
480.16	4086.58
480.34	3801.03
480.52	4035.08
480.70	4035.08
480.88	4011.68
481.06	4138.07
481.24	4189.56
481.41	4140.41
481.59	4262.12
481.77	4264.46
481.95	4212.96
482.13	4276.16
482.31	4236.37
482.49	4175.52
482.67	4283.18
482.85	4311.27
483.03	4496.17
483.21	4496.17
483.39	4372.12
483.57	4269.14
483.74	4435.32
483.92	4369.78
484.10	4477.44
484.28	4526.60
484.46	4463.40
484.64	4550.00
484.82	4447.02
485.00	4458.72
485.18	4241.05
485.35	4234.03
485.53	4051.47
485.71	3726.13
485.89	3585.70
486.07	3499.10
486.25	4088.92
486.43	4208.28
486.61	4238.71
486.78	4353.40
486.96	4353.40
487.14	4540.64
487.32	4641.28
487.50	4648.30
487.68	4809.80
487.85	4950.23
488.03	4933.85
488.21	4887.04
488.39	4753.63
488.57	4648.30
488.75	4676.39
488.92	5001.72
489.10	5076.62
489.28	5317.70
489.46	5458.13
489.64	5324.72
489.81	5348.12
489.99	5352.81
490.17	5273.23
490.35	5476.85
490.53	5266.21
490.70	5188.97
490.88	5298.97
491.06	5444.09
491.24	5329.40
491.41	5320.04
491.59	4992.36
491.77	4856.61
491.95	5078.96
492.13	5095.35
492.30	5291.95
492.48	5336.42
492.66	5544.73
492.84	5582.18
493.01	5589.20
493.19	5289.61
493.37	5528.35
493.54	5320.04
493.72	5331.74
493.90	5547.07
494.08	5579.84
494.25	5774.10
494.43	5930.92
494.61	5818.57
494.79	6054.97
494.96	6010.50
495.14	5724.95
495.32	5774.10
495.49	5455.79
495.67	5729.63
495.85	5816.23
496.02	5839.64
496.20	6083.05
496.38	6008.16
496.55	5867.72
496.73	6155.61
496.91	5973.05
497.09	6139.23
497.26	6141.57
497.44	6073.69
497.62	5783.46
497.79	6106.46
497.97	5776.44
498.14	5628.99
498.32	5877.09
498.50	5870.06
498.67	6127.52
498.85	6061.99
499.03	6015.18
499.20	6326.47
499.38	6293.70
499.56	6356.90
499.73	6069.01
499.91	5893.47
500.08	5706.23
500.26	5575.16
500.44	5837.30
500.61	5963.68
500.79	5902.83
500.97	5778.78
501.14	5671.12
501.32	5748.36
501.49	5657.07
501.67	5647.71
501.84	5799.85
502.02	5872.40
502.20	6157.95
502.37	6033.90
502.55	5942.62
502.72	5937.94
502.90	6211.78
503.07	6160.29
503.25	5874.74
503.43	5706.23
503.60	5540.05
503.78	5490.90
503.95	5518.98
504.13	5685.16
504.30	6157.95
504.48	6080.71
504.65	6157.95
504.83	6153.27
505.01	6094.76
505.18	6368.60
505.36	6186.04
505.53	6211.78
505.71	6324.13
505.88	6457.54
506.06	6274.98
506.23	6436.47
506.41	6078.37
506.58	6094.76
506.76	6092.41
506.93	6200.08
507.11	6134.54
507.28	6284.34
507.46	6059.65
507.63	5949.64
507.81	5907.51
507.98	5900.49
508.16	5970.71
508.33	6293.70
508.50	6333.49
508.68	6410.73
508.85	6506.69
509.03	6457.54
509.20	6602.65
509.38	6333.49
509.55	6296.04
509.73	6258.59
509.90	6195.40
510.08	6345.19
510.25	6389.66
510.42	6448.18
510.60	6537.12
510.77	6361.58
510.95	6642.44
511.12	6523.07
511.30	6600.31
511.47	6705.63
511.64	6817.98
511.82	6581.59
511.99	6424.77
512.17	6359.24
512.34	6040.92
512.51	6319.45
512.69	6312.42
512.86	6310.08
513.04	6361.58
513.21	6452.86
513.38	6249.23
513.56	6155.61
513.73	6190.72
513.90	6244.55
514.08	6085.39
514.25	6366.26
514.43	6326.47
514.60	6403.71
514.77	6361.58
514.95	6450.52
515.12	6328.81
515.29	6401.37
515.47	6647.12
515.64	6806.28
515.81	6361.58
515.99	6448.18
516.16	6408.39
516.33	5886.45
516.51	5364.51
516.68	5298.97
516.85	5263.86
517.03	5191.31
517.20	5554.09
517.37	5991.77
517.54	6361.58
517.72	6436.47
517.89	5856.02
518.06	5427.70
518.24	5383.23
518.41	5858.36
518.58	6225.82
518.75	6162.63
518.93	6260.93
519.10	6169.65
519.27	6312.42
519.45	6324.13
519.62	6541.80
519.79	6672.87
519.96	6504.35
520.14	6504.35
520.31	6202.42
520.48	6303.06
520.65	6375.62
520.83	6490.31
521.00	6574.56
521.17	6349.87
521.34	6490.31
521.52	6483.28
521.69	6651.80
521.86	6715.00
522.03	6679.89
522.20	6558.18
522.38	6228.17
522.55	6054.97
522.72	6251.57
522.89	6296.04
523.07	6380.30
523.24	6492.65
523.41	6494.99
523.58	6747.76
523.75	6803.94
523.92	6675.21
524.10	6860.11
524.27	6670.53
524.44	6799.26
524.61	6705.63
524.78	6520.73
524.96	6609.67
525.13	6595.63
525.30	6593.29
525.47	6825.00
525.64	7019.27
525.81	6766.49
525.98	6518.39
526.16	6064.33
526.33	5849.00
526.50	5741.33
526.67	5685.16
526.84	5673.46
527.01	6080.71
527.18	6122.84
527.36	6335.83
527.53	6476.26
527.70	6724.36
527.87	6530.09
528.04	6527.75
528.21	6661.16
528.38	6754.79
528.55	6867.13
528.72	7030.97
528.89	7002.88
529.07	6925.65
529.24	6693.93
529.41	6647.12
529.58	6499.67
529.75	6586.27
529.92	6665.85
530.09	6773.51
530.26	6614.35
530.43	6820.32
530.60	6691.59
530.77	6923.30
530.94	6885.86
531.11	6932.67
531.28	6647.12
531.46	6686.91
531.63	6691.59
531.80	6700.95
531.97	6562.86
532.14	6445.84
532.31	6520.73
532.48	6078.37
532.65	6038.58
532.82	6204.76
532.99	6595.63
533.16	6635.42
533.33	6801.60
533.50	6815.64
533.67	6541.80
533.84	6438.81
534.01	6616.69
534.18	6682.23
534.35	6600.31
534.52	6604.99
534.69	6705.63
534.86	6836.70
535.03	6661.16
535.20	6946.71
535.37	7066.08
535.54	7023.95
535.71	7021.61
535.88	6813.30
536.05	6722.02
536.22	6679.89
536.38	6642.44
536.55	6597.97
536.72	6235.19
536.89	6366.26
537.06	6420.09
537.23	6670.53
537.40	6836.70
537.57	6832.02
537.74	6787.55
537.91	6483.28
538.08	6726.70
538.25	6640.10
538.42	6717.34
538.59	6733.72
538.75	6560.52
538.92	6504.35
539.09	6572.22
539.26	6480.94
539.43	6523.07
539.60	6441.15
539.77	6576.91
539.94	6609.67
540.11	6380.30
540.28	6176.67
540.44	6445.84
540.61	6340.51
540.78	6155.61
540.95	6499.67
541.12	6525.41
541.29	6567.54
541.46	6918.62
541.62	6567.54
541.79	6820.32
541.96	6588.61
542.13	6539.46
542.30	6604.99
542.47	6754.79
542.63	6623.72
542.80	6267.95
542.97	6628.40
543.14	6492.65
543.31	6480.94
543.48	6527.75
543.64	6773.51
543.81	6988.84
543.98	6869.47
544.15	6750.10
544.32	6600.31
544.48	6684.57
544.65	6710.32
544.82	6719.68
544.99	6806.28
545.16	6775.85
545.32	6471.58
545.49	6930.33
545.66	7140.97
545.83	7522.48
546.00	7124.59
546.16	6803.94
546.33	6944.37
546.50	6682.23
546.67	6621.38
546.83	6523.07
547.00	6736.06
547.17	6604.99
547.34	6340.51
547.50	6347.53
547.67	6392.00
547.84	6480.94
548.00	6527.75
548.17	6588.61
548.34	6539.46
548.51	6403.71
548.67	6616.69
548.84	6738.40
549.01	6436.47
549.18	6509.03
549.34	6492.65
549.51	6537.12
549.68	6438.81
549.84	6324.13
550.01	6487.96
550.18	6574.56
550.34	6511.37
550.51	6349.87
550.68	6415.41
550.84	6366.26
551.01	6279.66
551.18	6452.86
551.34	6317.11
551.51	6450.52
551.68	6609.67
551.84	6581.59
552.01	6516.05
552.18	6394.34
552.34	6314.77
552.51	6279.66
552.68	6197.74
552.84	6331.15
553.01	6384.98
553.18	6410.73
553.34	6382.64
553.51	6181.35
553.67	6392.00
553.84	6436.47
554.01	6445.84
554.17	6361.58
554.34	6354.55
554.51	6293.70
554.67	6569.88
554.84	6558.18
555.00	6279.66
555.17	6349.87
555.33	6345.19
555.50	6242.21
555.67	6303.06
555.83	6246.89
556.00	6207.10
556.16	6455.20
556.33	6094.76
556.50	6209.44
556.66	6160.29
556.83	5891.13
556.99	6153.27
557.16	6061.99
557.32	6132.20
557.49	6169.65
557.65	6069.01
557.82	6253.91
557.98	6162.63
558.15	6083.05
558.32	5987.09
558.48	5659.42
558.65	5746.02
558.81	5930.92
558.98	5891.13
559.14	5996.45
559.31	5792.83
559.47	6146.25
559.64	5980.07
559.80	5811.55
559.97	5783.46
560.13	5797.51
560.30	5980.07
560.46	6214.12
560.63	6253.91
560.79	6076.03
560.96	6303.06
561.12	5872.40
561.29	5738.99
561.45	5813.89
561.61	5898.15
561.78	5933.26
561.94	5909.85
562.11	5956.66
562.27	5811.55
562.44	5921.56
562.60	5851.34
562.77	6113.48
562.93	6120.50
563.10	6052.63
563.26	5792.83
563.42	5961.34
563.59	6024.54
563.75	5823.25
563.92	5891.13
564.08	5966.03
564.24	5907.51
564.41	6024.54
564.57	5923.90
564.74	5825.59
564.90	5933.26
565.07	5827.93
565.23	5715.59
565.39	5533.03
565.56	5584.52
565.72	5575.16
565.88	5860.70
566.05	5537.71
566.21	5680.48
566.38	5764.74
566.54	5767.08
566.70	5837.30
566.87	5970.71
567.03	5940.28
567.19	6012.84
567.36	5830.27
567.52	5666.44
567.68	5724.95
567.85	5640.69
568.01	5460.47
568.17	5284.93
568.34	5348.12
568.50	5441.75
568.66	5289.61
568.83	5305.99
568.99	5310.68
569.15	5591.54
569.32	5359.83
569.48	5404.30
569.64	5205.35
569.81	5320.04
569.97	5430.04
570.13	5329.40
570.30	5165.56
570.46	5313.02
570.62	5317.70
570.78	5050.88
570.95	5085.98
571.11	5214.71
571.27	5247.48
571.43	5310.68
571.60	5345.78
571.76	5291.95
571.92	5380.89
572.09	5376.21
572.25	5458.13
572.41	5352.81
572.57	5408.98
572.74	5497.92
572.90	5493.24
573.06	5460.47
573.22	5598.56
573.38	5252.16
573.55	5476.85
573.71	5434.72
573.87	5273.23
574.03	5378.55
574.20	5172.58
574.36	5231.10
574.52	5287.27
574.68	5305.99
574.84	5226.42
575.01	5252.16
575.17	5071.94
575.33	5195.99
575.49	5170.24
575.65	5322.38
575.82	5128.11
575.98	5034.49
576.14	5146.84
576.30	5193.65
576.46	5369.19
576.62	5439.40
576.79	5371.53
576.95	5303.65
577.11	5270.89
577.27	5097.69
577.43	5284.93
577.59	5247.48
577.75	5107.05
577.92	5207.69
578.08	4917.47
578.24	5074.28
578.40	5104.71
578.56	5359.83
578.72	5090.67
578.88	5249.82
579.04	5331.74
579.21	5266.21
579.37	5305.99
579.53	5174.92
579.69	5282.59
579.85	5231.10
580.01	5270.89
580.17	5135.14
580.33	5118.75
580.49	5158.54
580.65	5268.55
580.82	5406.64
580.98	5263.86
581.14	5153.86
581.30	5121.09
581.46	5184.29
581.62	5359.83
581.78	5343.44
581.94	5338.76
582.10	5167.90
582.26	5413.66
582.42	5451.11
582.58	5362.17
582.74	5219.39
582.90	5373.87
583.06	5266.21
583.22	5327.06
583.38	5240.46
583.54	5212.37
583.70	5369.19
583.86	5348.12
584.02	5174.92
584.18	5322.38
584.34	5263.86
584.50	5212.37
584.66	5170.24
584.82	5081.30
584.98	5210.03
585.14	5093.01
585.30	4997.04
585.46	4917.47
585.62	4814.48
585.78	5011.09
585.94	4901.08
586.10	4943.21
586.26	5057.90
586.42	5062.58
586.58	5118.75
586.74	5015.77
586.90	4917.47
587.06	4936.19
587.22	4983.00
587.38	4678.73
587.54	4816.82
587.70	4704.48
587.86	4379.14
588.02	4432.97
588.18	4329.99
588.34	4131.05
588.49	3896.99
588.65	3896.99
588.81	3735.50
588.97	3630.17
589.13	3524.85
589.29	3798.69
589.45	3609.11
589.61	3709.75
589.77	3796.35
589.93	3962.53
590.08	4117.00
590.24	4238.71
590.40	4262.12
590.56	4315.95
590.72	4290.20
590.88	4243.39
591.04	4072.53
591.20	4149.77
591.35	4161.47
591.51	3995.29
591.67	3995.29
591.83	4095.94
591.99	4065.51
592.15	4081.89
592.31	4208.28
592.46	4231.69
592.62	4285.52
592.78	4442.34
592.94	4285.52
593.10	4262.12
593.26	4477.44
593.41	4524.26
593.57	4430.63
593.73	4325.31
593.89	4145.09
594.05	3969.55
594.20	3896.99
594.36	3925.08
594.52	3719.11
594.68	3850.18
594.84	4091.26
594.99	4217.65
595.15	4280.84
595.31	4212.96
595.47	4222.33
595.62	4156.79
595.78	4465.74
595.94	4360.42
596.10	4486.81
596.25	4311.27
596.41	4318.29
596.57	4229.35
596.73	4107.64
596.88	4369.78
597.04	4344.03
597.20	4393.19
597.36	4280.84
597.51	4227.01
597.67	4215.30
597.83	4322.97
