SpectraSuite Data File
++++++++++++++++++++++++++++++++++++
Date: Fri Oct 04 11:44:26 GMT-05:00 2013
User: price-jones
Dark Spectrum Present: No
Reference Spectrum Present: No
Number of Sampled Component Spectra: 1
Spectrometers: USB2+H05261
Integration Time (usec): 100000 (USB2+H05261)
Spectra Averaged: 1 (USB2+H05261)
Boxcar Smoothing: 0 (USB2+H05261)
Correct for Electrical Dark: No (USB2+H05261)
Strobe/Lamp Enabled: No (USB2+H05261)
Correct for Detector Non-linearity: No (USB2+H05261)
Correct for Stray Light: No (USB2+H05261)
Number of Pixels in Processed Spectrum: 2048
>>>>>Begin Processed Spectral Data<<<<<
365.73	0.00
365.92	0.00
366.12	0.00
366.32	0.00
366.52	0.00
366.72	0.00
366.91	0.00
367.11	0.00
367.31	0.00
367.51	0.00
367.70	0.00
367.90	0.00
368.10	0.00
368.30	0.00
368.49	0.00
368.69	0.00
368.89	0.00
369.09	0.00
369.28	0.00
369.48	0.00
369.68	0.00
369.87	0.00
370.07	0.00
370.27	0.00
370.47	23.41
370.66	30.43
370.86	154.48
371.06	39.79
371.25	182.56
371.45	166.18
371.65	154.48
371.84	173.20
372.04	152.13
372.24	156.82
372.44	131.07
372.63	154.48
372.83	163.84
373.03	203.63
373.22	149.79
373.42	163.84
373.62	149.79
373.81	257.46
374.01	147.45
374.21	184.90
374.40	149.79
374.60	231.71
374.79	196.60
374.99	210.65
375.19	231.71
375.38	217.67
375.58	215.33
375.78	241.08
375.97	175.54
376.17	271.50
376.37	248.10
376.56	180.22
376.76	177.88
376.95	156.82
377.15	299.59
377.35	191.92
377.54	205.97
377.74	203.63
377.93	198.95
378.13	152.13
378.33	184.90
378.52	198.95
378.72	255.12
378.91	168.52
379.11	180.22
379.31	184.90
379.50	191.92
379.70	248.10
379.89	227.03
380.09	203.63
380.28	154.48
380.48	212.99
380.68	201.29
380.87	175.54
381.07	234.05
381.26	177.88
381.46	196.60
381.65	234.05
381.85	152.13
382.04	163.84
382.24	201.29
382.43	163.84
382.63	152.13
382.83	177.88
383.02	184.90
383.22	170.86
383.41	135.75
383.61	189.58
383.80	173.20
384.00	189.58
384.19	180.22
384.39	180.22
384.58	252.78
384.78	224.69
384.97	210.65
385.17	201.29
385.36	170.86
385.56	271.50
385.75	215.33
385.95	177.88
386.14	259.80
386.34	220.01
386.53	236.39
386.72	156.82
386.92	283.20
387.11	220.01
387.31	198.95
387.50	238.73
387.70	203.63
387.89	269.16
388.09	262.14
388.28	252.78
388.48	198.95
388.67	273.84
388.86	266.82
389.06	269.16
389.25	236.39
389.45	212.99
389.64	245.76
389.84	297.25
390.03	264.48
390.22	266.82
390.42	238.73
390.61	238.73
390.81	255.12
391.00	313.63
391.19	330.02
391.39	273.84
391.58	273.84
391.78	315.97
391.97	252.78
392.16	234.05
392.36	229.37
392.55	208.31
392.75	166.18
392.94	201.29
393.13	229.37
393.33	131.07
393.52	184.90
393.71	229.37
393.91	245.76
394.10	276.18
394.29	304.27
394.49	297.25
394.68	308.95
394.88	308.95
395.07	292.57
395.26	278.52
395.46	313.63
395.65	320.65
395.84	255.12
396.04	278.52
396.23	217.67
396.42	170.86
396.62	227.03
396.81	203.63
397.00	182.56
397.19	285.55
397.39	344.06
397.58	365.12
397.77	334.70
397.97	304.27
398.16	346.40
398.35	273.84
398.55	388.53
398.74	447.04
398.93	423.64
399.12	393.21
399.32	355.76
399.51	311.29
399.70	376.83
399.90	308.95
400.09	423.64
400.28	418.96
400.47	365.12
400.67	454.06
400.86	383.85
401.05	421.30
401.24	414.27
401.44	372.15
401.63	416.62
401.82	313.63
402.01	400.23
402.21	433.00
402.40	404.91
402.59	381.51
402.78	397.89
402.97	479.81
403.17	386.19
403.36	365.12
403.55	341.72
403.74	365.12
403.93	447.04
404.13	433.00
404.32	376.83
404.51	444.70
404.70	449.38
404.89	482.15
405.09	477.47
405.28	369.80
405.47	397.89
405.66	414.27
405.85	449.38
406.05	390.87
406.24	322.99
406.43	360.44
406.62	463.43
406.81	463.43
407.00	433.00
407.20	414.27
407.39	425.98
407.58	414.27
407.77	461.09
407.96	421.30
408.15	425.98
408.34	435.34
408.54	500.87
408.73	383.85
408.92	416.62
409.11	437.68
409.30	543.00
409.49	376.83
409.68	376.83
409.87	402.57
410.07	444.70
410.26	381.51
410.45	414.27
410.64	428.32
410.83	486.83
411.02	458.74
411.21	451.72
411.40	430.66
411.59	496.19
411.78	409.59
411.98	440.02
412.17	493.85
412.36	461.09
412.55	540.66
412.74	461.09
412.93	475.13
413.12	444.70
413.31	528.96
413.50	482.15
413.69	486.83
413.88	505.56
414.07	411.93
414.26	472.79
414.45	489.17
414.64	510.24
414.83	468.11
415.02	411.93
415.22	521.94
415.41	484.49
415.60	535.98
415.79	491.51
415.98	552.37
416.17	510.24
416.36	524.28
416.55	486.83
416.74	519.60
416.93	517.26
417.12	433.00
417.31	587.47
417.50	606.20
417.69	564.07
417.88	500.87
418.07	397.89
418.26	489.17
418.45	526.62
418.64	543.00
418.83	580.45
419.02	463.43
419.21	571.09
419.39	631.94
419.58	561.73
419.77	472.79
419.96	568.75
420.15	557.05
420.34	535.98
420.53	498.53
420.72	599.18
420.91	592.16
421.10	589.82
421.29	559.39
421.48	533.64
421.67	566.41
421.86	552.37
422.05	517.26
422.24	493.85
422.43	493.85
422.61	491.51
422.80	589.82
422.99	400.23
423.18	552.37
423.37	477.47
423.56	463.43
423.75	510.24
423.94	493.85
424.13	510.24
424.32	507.90
424.50	486.83
424.69	477.47
424.88	543.00
425.07	472.79
425.26	531.30
425.45	543.00
425.64	472.79
425.83	451.72
426.01	557.05
426.20	592.16
426.39	543.00
426.58	496.19
426.77	421.30
426.96	470.45
427.15	543.00
427.33	449.38
427.52	500.87
427.71	500.87
427.90	531.30
428.09	493.85
428.28	571.09
428.46	589.82
428.65	493.85
428.84	528.96
429.03	489.17
429.22	496.19
429.40	465.77
429.59	505.56
429.78	442.36
429.97	360.44
430.16	486.83
430.34	388.53
430.53	423.64
430.72	400.23
430.91	456.40
431.10	533.64
431.28	559.39
431.47	631.94
431.66	643.65
431.85	578.11
432.03	557.05
432.22	543.00
432.41	519.60
432.60	573.43
432.79	442.36
432.97	624.92
433.16	631.94
433.35	477.47
433.54	512.58
433.72	456.40
433.91	547.69
434.10	498.53
434.28	566.41
434.47	601.52
434.66	575.77
434.85	554.71
435.03	678.76
435.22	788.76
435.41	945.58
435.59	983.02
435.78	856.64
435.97	683.44
436.16	645.99
436.34	580.45
436.53	676.41
436.72	638.97
436.90	582.79
437.09	571.09
437.28	552.37
437.46	578.11
437.65	622.58
437.84	566.41
438.02	594.50
438.21	575.77
438.40	650.67
438.58	524.28
438.77	568.75
438.96	571.09
439.14	638.97
439.33	641.31
439.52	674.07
439.70	671.73
439.89	641.31
440.08	634.29
440.26	634.29
440.45	587.47
440.63	657.69
440.82	706.84
441.01	678.76
441.19	653.01
441.38	622.58
441.57	636.63
441.75	671.73
441.94	692.80
442.12	585.13
442.31	711.52
442.50	730.25
442.68	788.76
442.87	748.97
443.05	713.86
443.24	688.12
443.43	699.82
443.61	777.06
443.80	613.22
443.98	718.54
444.17	629.60
444.35	744.29
444.54	781.74
444.73	671.73
444.91	711.52
445.10	678.76
445.28	645.99
445.47	622.58
445.65	636.63
445.84	660.03
446.02	695.14
446.21	608.54
446.39	702.16
446.58	681.10
446.77	688.12
446.95	678.76
447.14	711.52
447.32	734.93
447.51	702.16
447.69	702.16
447.88	744.29
448.06	713.86
448.25	748.97
448.43	613.22
448.62	594.50
448.80	664.71
448.99	704.50
449.17	674.07
449.36	699.82
449.54	739.61
449.73	739.61
449.91	734.93
450.10	748.97
450.28	830.89
450.46	718.54
450.65	856.64
450.83	786.42
451.02	805.14
451.20	784.08
451.39	774.72
451.57	723.23
451.76	704.50
451.94	802.80
452.13	828.55
452.31	627.26
452.49	718.54
452.68	664.71
452.86	704.50
453.05	711.52
453.23	648.33
453.42	737.27
453.60	739.61
453.78	791.10
453.97	634.29
454.15	807.48
454.34	674.07
454.52	671.73
454.70	709.18
454.89	667.05
455.07	629.60
455.26	699.82
455.44	755.99
455.62	814.51
455.81	683.44
455.99	760.67
456.17	725.57
456.36	732.59
456.54	711.52
456.73	725.57
456.91	760.67
457.09	734.93
457.28	732.59
457.46	844.93
457.64	772.38
457.83	763.01
458.01	774.72
458.19	709.18
458.38	716.20
458.56	732.59
458.74	744.29
458.93	777.06
459.11	690.46
459.29	746.63
459.48	699.82
459.66	730.25
459.84	777.06
460.03	866.00
460.21	786.42
460.39	755.99
460.57	767.70
460.76	784.08
460.94	819.19
461.12	823.87
461.31	748.97
461.49	774.72
461.67	819.19
461.85	739.61
462.04	777.06
462.22	1310.70
462.40	837.91
462.59	873.02
462.77	830.89
462.95	800.46
463.13	753.65
463.32	830.89
463.50	683.44
463.68	758.33
463.86	828.55
464.05	723.23
464.23	741.95
464.41	711.52
464.59	758.33
464.78	681.10
464.96	777.06
465.14	758.33
465.32	786.42
465.50	779.40
465.69	821.53
465.87	910.47
466.05	720.88
466.23	772.38
466.41	755.99
466.60	706.84
466.78	718.54
466.96	802.80
467.14	791.10
467.32	819.19
467.51	755.99
467.69	746.63
467.87	788.76
468.05	877.70
468.23	777.06
468.41	760.67
468.60	774.72
468.78	692.80
468.96	781.74
469.14	772.38
469.32	791.10
469.50	779.40
469.69	821.53
469.87	748.97
470.05	734.93
470.23	837.91
470.41	716.20
470.59	723.23
470.77	645.99
470.95	744.29
471.14	805.14
471.32	828.55
471.50	856.64
471.68	837.91
471.86	748.97
472.04	844.93
472.22	812.17
472.40	741.95
472.58	786.42
472.77	866.00
472.95	777.06
473.13	959.62
473.31	814.51
473.49	880.04
473.67	760.67
473.85	737.27
474.03	833.23
474.21	814.51
474.39	842.59
474.57	938.55
474.75	847.27
474.93	849.61
475.12	905.79
475.30	861.32
475.48	891.74
475.66	828.55
475.84	718.54
476.02	816.85
476.20	774.72
476.38	784.08
476.56	821.53
476.74	901.11
476.92	912.81
477.10	912.81
477.28	922.17
477.46	856.64
477.64	971.32
477.82	884.72
478.00	868.34
478.18	901.11
478.36	943.24
478.54	840.25
478.72	847.27
478.90	931.53
479.08	978.34
479.26	889.40
479.44	858.98
479.62	784.08
479.80	919.83
479.98	966.64
480.16	954.94
480.34	968.98
480.52	919.83
480.70	1020.47
480.88	983.02
481.06	905.79
481.24	952.60
481.41	1057.92
481.59	992.39
481.77	1032.18
481.95	1020.47
482.13	1093.03
482.31	990.05
482.49	1013.45
482.67	1132.82
482.85	1048.56
483.03	999.41
483.21	1041.54
483.39	1015.79
483.57	931.53
483.74	1062.60
483.92	1050.90
484.10	959.62
484.28	1137.50
484.46	1083.67
484.64	1062.60
484.82	1048.56
485.00	1144.52
485.18	1076.65
485.35	1130.48
485.53	987.71
485.71	947.92
485.89	835.57
486.07	889.40
486.25	985.37
486.43	957.28
486.61	992.39
486.78	1095.37
486.96	1097.71
487.14	1069.62
487.32	1151.54
487.50	1078.99
487.68	1214.74
487.85	1172.61
488.03	1158.57
488.21	1121.12
488.39	1125.80
488.57	1139.84
488.75	1188.99
488.92	1455.81
489.10	1270.91
489.28	1289.64
489.46	1231.12
489.64	1284.95
489.81	1345.81
489.99	1235.80
490.17	1210.06
490.35	1315.38
490.53	1329.42
490.70	1172.61
490.88	1294.32
491.06	1301.34
491.24	1266.23
491.41	1217.08
491.59	1203.04
491.77	1205.38
491.95	1308.36
492.13	1226.44
492.30	1233.46
492.48	1310.70
492.66	1313.04
492.84	1320.06
493.01	1299.00
493.19	1228.78
493.37	1303.68
493.54	1240.48
493.72	1303.68
493.90	1174.95
494.08	1338.79
494.25	1500.28
494.43	1362.19
494.61	1404.32
494.79	1432.41
494.96	1420.71
495.14	1458.15
495.32	1315.38
495.49	1371.55
495.67	1385.60
495.85	1404.32
496.02	1392.62
496.20	1432.41
496.38	1357.51
496.55	1331.76
496.73	1448.79
496.91	1474.54
497.09	1378.58
497.26	1495.60
497.44	1448.79
497.62	1378.58
497.79	1336.45
497.97	1380.92
498.14	1329.42
498.32	1406.66
498.50	1451.13
498.67	1416.02
498.85	1418.36
499.03	1521.35
499.20	1542.41
499.38	1385.60
499.56	1481.56
499.73	1507.30
499.91	1399.64
500.08	1406.66
500.26	1273.25
500.44	1359.85
500.61	1378.58
500.79	1413.68
500.97	1404.32
501.14	1460.49
501.32	1242.82
501.49	1313.04
501.67	1331.76
501.84	1327.08
502.02	1392.62
502.20	1490.92
502.37	1416.02
502.55	1362.19
502.72	1444.11
502.90	1460.49
503.07	1497.94
503.25	1394.96
503.43	1345.81
503.60	1324.74
503.78	1273.25
503.95	1256.87
504.13	1357.51
504.30	1556.46
504.48	1455.81
504.65	1383.26
504.83	1530.71
505.01	1591.56
505.18	1558.80
505.36	1507.30
505.53	1411.34
505.71	1437.09
505.88	1530.71
506.06	1479.22
506.23	1533.05
506.41	1502.62
506.58	1481.56
506.76	1451.13
506.93	1528.37
507.11	1537.73
507.28	1479.22
507.46	1446.45
507.63	1413.68
507.81	1423.05
507.98	1549.43
508.16	1423.05
508.33	1521.35
508.50	1579.86
508.68	1519.01
508.85	1586.88
509.03	1476.88
509.20	1568.16
509.38	1528.37
509.55	1526.03
509.73	1540.07
509.90	1526.03
510.08	1434.75
510.25	1437.09
510.42	1509.65
510.60	1614.97
510.77	1547.09
510.95	1565.82
511.12	1563.48
511.30	1591.56
511.47	1589.22
511.64	1547.09
511.82	1671.14
511.99	1568.16
512.17	1507.30
512.34	1474.54
512.51	1535.39
512.69	1540.07
512.86	1577.52
513.04	1540.07
513.21	1619.65
513.38	1593.90
513.56	1439.43
513.73	1465.18
513.90	1479.22
514.08	1521.35
514.25	1540.07
514.43	1528.37
514.60	1598.59
514.77	1502.62
514.95	1591.56
515.12	1603.27
515.29	1624.33
515.47	1605.61
515.64	1645.40
515.81	1476.88
515.99	1638.38
516.16	1441.77
516.33	1453.47
516.51	1345.81
516.68	1401.98
516.85	1296.66
517.03	1334.11
517.20	1409.00
517.37	1476.88
517.54	1528.37
517.72	1579.86
517.89	1352.83
518.06	1385.60
518.24	1446.45
518.41	1373.89
518.58	1568.16
518.75	1617.31
518.93	1544.75
519.10	1638.38
519.27	1579.86
519.45	1549.43
519.62	1647.74
519.79	1549.43
519.96	1636.03
520.14	1675.82
520.31	1729.66
520.48	1638.38
520.65	1629.01
520.83	1689.87
521.00	1657.10
521.17	1750.72
521.34	1596.25
521.52	1657.10
521.69	1650.08
521.86	1746.04
522.03	1626.67
522.20	1755.40
522.38	1521.35
522.55	1565.82
522.72	1706.25
522.89	1717.95
523.07	1621.99
523.24	1675.82
523.41	1659.44
523.58	1750.72
523.75	1689.87
523.92	1727.32
524.10	1823.28
524.27	1783.49
524.44	1717.95
524.61	1771.79
524.78	1631.35
524.96	1849.02
525.13	1675.82
525.30	1799.87
525.47	1724.97
525.64	1776.47
525.81	1750.72
525.98	1596.25
526.16	1643.06
526.33	1509.65
526.50	1397.30
526.67	1495.60
526.84	1561.14
527.01	1493.26
527.18	1598.59
527.36	1788.17
527.53	1664.12
527.70	1762.42
527.87	1816.26
528.04	1760.08
528.21	1699.23
528.38	1687.53
528.55	1842.00
528.72	1844.34
528.89	1790.51
529.07	1825.62
529.24	1792.85
529.41	1680.50
529.58	1696.89
529.75	1633.69
529.92	1795.19
530.09	1851.36
530.26	1774.13
530.43	1736.68
530.60	1909.88
530.77	1811.57
530.94	1823.28
531.11	1830.30
531.28	1820.94
531.46	1732.00
531.63	1764.76
531.80	1760.08
531.97	1774.13
532.14	1727.32
532.31	1692.21
532.48	1621.99
532.65	1659.44
532.82	1636.03
532.99	1729.66
533.16	1760.08
533.33	1811.57
533.50	1755.40
533.67	1741.36
533.84	1832.64
534.01	1708.59
534.18	1668.80
534.35	1746.04
534.52	1783.49
534.69	1774.13
534.86	1778.81
535.03	1661.78
535.20	1858.39
535.37	1874.77
535.54	1839.66
535.71	1867.75
535.88	1849.02
536.05	1783.49
536.22	1865.41
536.38	1856.04
536.55	1783.49
536.72	1746.04
536.89	1666.46
537.06	1827.96
537.23	1760.08
537.40	1832.64
537.57	1804.55
537.74	1853.70
537.91	1823.28
538.08	1762.42
538.25	1811.57
538.42	1893.49
538.59	1776.47
538.75	1823.28
538.92	1827.96
539.09	1811.57
539.26	1776.47
539.43	1849.02
539.60	1905.20
539.77	1823.28
539.94	1870.09
540.11	1818.60
540.28	1797.53
540.44	1926.26
540.61	1825.62
540.78	1811.57
540.95	1870.09
541.12	1973.07
541.29	2139.25
541.46	2169.68
541.62	2040.95
541.79	2092.44
541.96	1991.80
542.13	2001.16
542.30	2118.18
542.47	1991.80
542.63	2019.88
542.80	2045.63
542.97	2062.01
543.14	1977.75
543.31	2019.88
543.48	2026.90
543.64	2129.89
543.81	2127.55
543.98	2024.56
544.15	2017.54
544.32	2015.20
544.48	1949.67
544.65	2026.90
544.82	2125.21
544.99	1954.35
545.16	2099.46
545.32	2162.66
545.49	2352.24
545.66	2623.74
545.83	2637.78
546.00	2445.86
546.16	2181.38
546.33	2101.80
546.50	2099.46
546.67	2033.93
546.83	1879.45
547.00	1994.14
547.17	1846.68
547.34	1884.13
547.50	1832.64
547.67	1886.47
547.84	1837.32
548.00	1846.68
548.17	1856.04
548.34	1790.51
548.51	1905.20
548.67	1940.30
548.84	2003.50
549.01	1942.64
549.18	1935.62
549.34	1853.70
549.51	1898.17
549.68	1858.39
549.84	1870.09
550.01	1760.08
550.18	1984.77
550.34	1867.75
550.51	1820.94
550.68	1877.11
550.84	1778.81
551.01	1832.64
551.18	1797.53
551.34	1802.21
551.51	1886.47
551.68	1827.96
551.84	1856.04
552.01	1846.68
552.18	1832.64
552.34	1881.79
552.51	1748.38
552.68	1750.72
552.84	1797.53
553.01	1792.85
553.18	1783.49
553.34	1636.03
553.51	1797.53
553.67	1743.70
553.84	1884.13
554.01	1746.04
554.17	1762.42
554.34	1809.23
554.51	1778.81
554.67	1856.04
554.84	1867.75
555.00	1867.75
555.17	1767.10
555.33	1703.91
555.50	1647.74
555.67	1703.91
555.83	1736.68
556.00	1724.97
556.16	1982.43
556.33	1760.08
556.50	1710.93
556.66	1739.02
556.83	1699.23
556.99	1678.16
557.16	1657.10
557.32	1736.68
557.49	1659.44
557.65	1668.80
557.82	1612.63
557.98	1750.72
558.15	1629.01
558.32	1701.57
558.48	1577.52
558.65	1629.01
558.81	1589.22
558.98	1664.12
559.14	1706.25
559.31	1713.27
559.47	1682.85
559.64	1755.40
559.80	1631.35
559.97	1706.25
560.13	1633.69
560.30	1792.85
560.46	1734.34
560.63	1708.59
560.79	1802.21
560.96	1769.44
561.12	1675.82
561.29	1689.87
561.45	1687.53
561.61	1727.32
561.78	1701.57
561.94	1593.90
562.11	1675.82
562.27	1619.65
562.44	1633.69
562.60	1708.59
562.77	1771.79
562.93	1820.94
563.10	1687.53
563.26	1647.74
563.42	1629.01
563.59	1724.97
563.75	1636.03
563.92	1591.56
564.08	1673.48
564.24	1643.06
564.41	1657.10
564.57	1621.99
564.74	1657.10
564.90	1694.55
565.07	1640.72
565.23	1664.12
565.39	1563.48
565.56	1605.61
565.72	1490.92
565.88	1633.69
566.05	1521.35
566.21	1563.48
566.38	1584.54
566.54	1624.33
566.70	1572.84
566.87	1542.41
567.03	1685.19
567.19	1619.65
567.36	1668.80
567.52	1579.86
567.68	1582.20
567.85	1584.54
568.01	1481.56
568.17	1528.37
568.34	1472.20
568.50	1448.79
568.66	1514.33
568.83	1537.73
568.99	1537.73
569.15	1680.50
569.32	1537.73
569.48	1476.88
569.64	1509.65
569.81	1432.41
569.97	1535.39
570.13	1584.54
570.30	1397.30
570.46	1387.94
570.62	1476.88
570.78	1371.55
570.95	1472.20
571.11	1467.52
571.27	1584.54
571.43	1467.52
571.60	1535.39
571.76	1420.71
571.92	1509.65
572.09	1500.28
572.25	1479.22
572.41	1444.11
572.57	1401.98
572.74	1540.07
572.90	1526.03
573.06	1486.24
573.22	1497.94
573.38	1511.99
573.55	1453.47
573.71	1509.65
573.87	1474.54
574.03	1404.32
574.20	1439.43
574.36	1467.52
574.52	1504.96
574.68	1521.35
574.84	1441.77
575.01	1341.13
575.17	1439.43
575.33	1535.39
575.49	1526.03
575.65	1507.30
575.82	1446.45
575.98	1387.94
576.14	1509.65
576.30	1516.67
576.46	1636.03
576.62	1624.33
576.79	1678.16
576.95	1507.30
577.11	1603.27
577.27	1577.52
577.43	1495.60
577.59	1472.20
577.75	1577.52
577.92	1425.39
578.08	1348.15
578.24	1378.58
578.40	1404.32
578.56	1523.69
578.72	1652.42
578.88	1610.29
579.04	1549.43
579.21	1488.58
579.37	1418.36
579.53	1514.33
579.69	1490.92
579.85	1476.88
580.01	1558.80
580.17	1366.87
580.33	1472.20
580.49	1530.71
580.65	1551.78
580.82	1469.86
580.98	1401.98
581.14	1462.83
581.30	1544.75
581.46	1528.37
581.62	1497.94
581.78	1425.39
581.94	1521.35
582.10	1460.49
582.26	1500.28
582.42	1514.33
582.58	1528.37
582.74	1495.60
582.90	1533.05
583.06	1561.14
583.22	1563.48
583.38	1519.01
583.54	1500.28
583.70	1483.90
583.86	1591.56
584.02	1511.99
584.18	1533.05
584.34	1514.33
584.50	1411.34
584.66	1502.62
584.82	1483.90
584.98	1519.01
585.14	1469.86
585.30	1572.84
585.46	1444.11
585.62	1406.66
585.78	1420.71
585.94	1371.55
586.10	1385.60
586.26	1434.75
586.42	1500.28
586.58	1394.96
586.74	1511.99
586.90	1446.45
587.06	1504.96
587.22	1432.41
587.38	1357.51
587.54	1397.30
587.70	1371.55
587.86	1387.94
588.02	1261.55
588.18	1165.59
588.34	1217.08
588.49	1153.88
588.65	1086.01
588.81	938.55
588.97	1001.75
589.13	1020.47
589.29	983.02
589.45	1004.09
589.61	1057.92
589.77	1102.39
589.93	1153.88
590.08	1203.04
590.24	1160.91
590.40	1217.08
590.56	1123.46
590.72	1249.85
590.88	1198.35
591.04	1203.04
591.20	1296.66
591.35	1219.42
591.51	1132.82
591.67	1181.97
591.83	1184.31
591.99	1102.39
592.15	1228.78
592.31	1224.10
592.46	1252.19
592.62	1327.08
592.78	1444.11
592.94	1291.98
593.10	1359.85
593.26	1313.04
593.41	1362.19
593.57	1303.68
593.73	1123.46
593.89	1181.97
594.05	1088.35
594.20	1174.95
594.36	1214.74
594.52	1188.99
594.68	1200.69
594.84	1128.14
594.99	1207.72
595.15	1210.06
595.31	1226.44
595.47	1217.08
595.62	1203.04
595.78	1261.55
595.94	1217.08
596.10	1291.98
596.25	1170.27
596.41	1139.84
596.57	1139.84
596.73	1224.10
596.88	1249.85
597.04	1303.68
597.20	1207.72
597.36	1282.61
597.51	1231.12
597.67	1275.59
597.83	1233.46
597.99	1303.68
598.14	1139.84
598.30	1268.57
598.46	1240.48
598.61	1252.19
598.77	1329.42
598.93	1453.47
599.09	1186.65
599.24	1240.48
599.40	1336.45
599.56	1226.44
599.71	1308.36
599.87	1284.95
600.03	1289.64
600.18	1228.78
600.34	1282.61
600.50	1287.29
600.65	1308.36
600.81	1289.64
600.97	1324.74
601.12	1404.32
601.28	1317.72
601.44	1193.67
601.59	1233.46
601.75	1226.44
601.91	1184.31
602.06	1095.37
602.22	1336.45
602.37	1294.32
602.53	1167.93
602.69	1284.95
602.84	1263.89
