SpectraSuite Data File
++++++++++++++++++++++++++++++++++++
Date: Fri Oct 04 11:44:15 GMT-05:00 2013
User: price-jones
Dark Spectrum Present: No
Reference Spectrum Present: No
Number of Sampled Component Spectra: 1
Spectrometers: USB2+H05261
Integration Time (usec): 100000 (USB2+H05261)
Spectra Averaged: 1 (USB2+H05261)
Boxcar Smoothing: 0 (USB2+H05261)
Correct for Electrical Dark: No (USB2+H05261)
Strobe/Lamp Enabled: No (USB2+H05261)
Correct for Detector Non-linearity: No (USB2+H05261)
Correct for Stray Light: No (USB2+H05261)
Number of Pixels in Processed Spectrum: 2048
>>>>>Begin Processed Spectral Data<<<<<
365.73	88.94
365.92	88.94
366.12	88.94
366.32	0.00
366.52	0.00
366.72	0.00
366.91	0.00
367.11	0.00
367.31	0.00
367.51	0.00
367.70	0.00
367.90	0.00
368.10	0.00
368.30	0.00
368.49	0.00
368.69	0.00
368.89	0.00
369.09	0.00
369.28	0.00
369.48	0.00
369.68	0.00
369.87	0.00
370.07	0.00
370.27	35.11
370.47	222.35
370.66	561.73
370.86	627.26
371.06	704.50
371.25	819.19
371.45	634.29
371.65	688.12
371.84	540.66
372.04	692.80
372.24	713.86
372.44	683.44
372.63	685.78
372.83	772.38
373.03	552.37
373.22	603.86
373.42	592.16
373.62	664.71
373.81	805.14
374.01	748.97
374.21	638.97
374.40	624.92
374.60	704.50
374.79	723.23
374.99	840.25
375.19	868.34
375.38	844.93
375.58	798.12
375.78	816.85
375.97	772.38
376.17	875.36
376.37	814.51
376.56	917.49
376.76	877.70
376.95	954.94
377.15	952.60
377.35	985.37
377.54	1008.77
377.74	1046.22
377.93	1083.67
378.13	985.37
378.33	1025.15
378.52	1018.13
378.72	990.05
378.91	889.40
379.11	882.38
379.31	807.48
379.50	823.87
379.70	924.51
379.89	980.68
380.09	1018.13
380.28	1053.24
380.48	1060.26
380.68	1048.56
380.87	1034.52
381.07	994.73
381.26	938.55
381.46	828.55
381.65	823.87
381.85	882.38
382.04	744.29
382.24	851.96
382.43	784.08
382.63	758.33
382.83	657.69
383.02	748.97
383.22	692.80
383.41	664.71
383.61	833.23
383.80	760.67
384.00	889.40
384.19	961.96
384.39	1142.18
384.58	1118.78
384.78	1011.11
384.97	1018.13
385.17	952.60
385.36	924.51
385.56	936.21
385.75	954.94
385.95	964.30
386.14	1022.81
386.34	1074.31
386.53	1069.62
386.72	994.73
386.92	980.68
387.11	1093.03
387.31	1116.44
387.50	1015.79
387.70	1029.84
387.89	919.83
388.09	943.24
388.28	1057.92
388.48	992.39
388.67	1081.33
388.86	1153.88
389.06	1252.19
389.25	1394.96
389.45	1287.29
389.64	1427.73
389.84	1364.53
390.03	1376.24
390.22	1310.70
390.42	1359.85
390.61	1425.39
390.81	1451.13
391.00	1549.43
391.19	1596.25
391.39	1455.81
391.58	1404.32
391.78	1238.14
391.97	1303.68
392.16	1181.97
392.36	1132.82
392.55	959.62
392.75	795.78
392.94	706.84
393.13	683.44
393.33	772.38
393.52	847.27
393.71	1116.44
393.91	1217.08
394.10	1226.44
394.29	1497.94
394.49	1547.09
394.68	1561.14
394.88	1537.73
395.07	1565.82
395.26	1596.25
395.46	1481.56
395.65	1500.28
395.84	1397.30
396.04	1188.99
396.23	978.34
396.42	802.80
396.62	926.85
396.81	851.96
397.00	1067.28
397.19	1331.76
397.39	1582.20
397.58	1790.51
397.77	1858.39
397.97	1949.67
398.16	1849.02
398.35	1968.39
398.55	2120.53
398.74	2169.68
398.93	2202.44
399.12	2097.12
399.32	2019.88
399.51	2132.23
399.70	2183.72
399.90	2157.97
400.09	2162.66
400.28	2244.57
400.47	2221.17
400.67	2324.15
400.86	2286.70
401.05	2406.07
401.24	2368.62
401.44	2478.63
401.63	2438.84
401.82	2443.52
402.01	2366.28
402.21	2459.90
402.40	2509.05
402.59	2415.43
402.78	2270.32
402.97	2251.60
403.17	2275.00
403.36	2459.90
403.55	2483.31
403.74	2462.24
403.93	2539.48
404.13	2385.01
404.32	2546.50
404.51	2466.92
404.70	2502.03
404.89	2511.39
405.09	2480.97
405.28	2331.17
405.47	2326.49
405.66	2345.22
405.85	2324.15
406.05	2253.94
406.24	2256.28
406.43	2385.01
406.62	2424.80
406.81	2586.29
407.00	2415.43
407.20	2399.05
407.39	2324.15
407.58	2457.56
407.77	2633.10
407.96	2607.36
408.15	2576.93
408.34	2633.10
408.54	2726.72
408.73	2672.89
408.92	2726.72
409.11	2637.78
409.30	2553.52
409.49	2326.49
409.68	2368.62
409.87	2200.10
410.07	2328.83
410.26	2560.55
410.45	2661.19
410.64	2658.85
410.83	2672.89
411.02	2773.53
411.21	2888.22
411.40	2916.31
411.59	2799.28
411.78	2930.35
411.98	2862.48
412.17	2850.77
412.36	2860.13
412.55	2855.45
412.74	2747.79
412.93	2778.22
413.12	2778.22
413.31	3084.83
413.50	3117.59
413.69	2986.52
413.88	2967.80
414.07	2906.95
414.26	2881.20
414.45	3000.57
414.64	3110.57
414.83	3089.51
415.02	2813.32
415.22	3185.47
415.41	3056.74
415.60	3119.93
415.79	3166.74
415.98	3328.24
416.17	3358.67
416.36	3335.26
416.55	3070.78
416.74	3133.98
416.93	2991.20
417.12	3009.93
417.31	3061.42
417.50	3021.63
417.69	3183.13
417.88	3222.92
418.07	3105.89
418.26	3087.17
418.45	3136.32
418.64	3199.51
418.83	3323.56
419.02	3218.24
419.21	3314.20
419.39	3143.34
419.58	3012.27
419.77	2904.60
419.96	3122.27
420.15	3211.22
420.34	3372.71
420.53	3463.99
420.72	3471.01
420.91	3433.57
421.10	3365.69
421.29	3475.70
421.48	3239.30
421.67	3382.07
421.86	3431.23
422.05	3117.59
422.24	2984.18
422.43	2773.53
422.61	3164.40
422.80	3262.71
422.99	3323.56
423.18	3239.30
423.37	3070.78
423.56	3199.51
423.75	3133.98
423.94	3176.11
424.13	3110.57
424.32	3211.22
424.50	3185.47
424.69	3178.45
424.88	3103.55
425.07	3073.12
425.26	3082.49
425.45	3148.02
425.64	2951.42
425.83	3033.33
426.01	3302.50
426.20	3225.26
426.39	3204.19
426.58	3054.40
426.77	2853.11
426.96	2813.32
427.15	2766.51
427.33	2958.44
427.52	3103.55
427.71	3063.76
427.90	3084.83
428.09	3117.59
428.28	3026.31
428.46	2913.97
428.65	2904.60
428.84	2932.69
429.03	2991.20
429.22	2881.20
429.40	2700.98
429.59	2485.65
429.78	2289.04
429.97	2244.57
430.16	2237.55
430.34	2352.24
430.53	2406.07
430.72	2331.17
430.91	2530.12
431.10	2988.86
431.28	3496.76
431.47	3581.02
431.66	3679.32
431.85	3466.33
432.03	3110.57
432.22	3094.19
432.41	3080.14
432.60	3487.40
432.79	3676.98
432.97	3609.11
433.16	3471.01
433.35	3276.75
433.54	3049.72
433.72	2946.73
433.91	2928.01
434.10	2995.89
434.28	3351.65
434.47	3569.32
434.66	3487.40
434.85	3445.27
435.03	3571.66
435.22	4189.56
435.41	4594.47
435.59	4629.58
435.78	4287.86
435.97	4109.98
436.16	3948.48
436.34	3925.08
436.53	3789.33
436.72	3857.20
436.90	3705.07
437.09	3698.05
437.28	3349.31
437.46	3658.26
437.65	3562.30
437.84	3412.50
438.02	3084.83
438.21	3192.49
438.40	3276.75
438.58	3550.59
438.77	3613.79
438.96	3632.51
439.14	3859.54
439.33	3812.73
439.52	3845.50
439.70	3751.88
439.89	3681.66
440.08	3627.83
440.26	3620.81
440.45	3695.71
440.63	3817.41
440.82	4227.01
441.01	4149.77
441.19	4037.42
441.38	4203.60
441.57	4325.31
441.75	4400.21
441.94	4248.07
442.12	4271.48
442.31	4337.01
442.50	4423.61
442.68	4304.25
442.87	4306.59
443.05	4322.97
443.24	4241.05
443.43	4470.42
443.61	4407.23
443.80	4514.89
443.98	4182.54
444.17	4210.62
444.35	4451.70
444.54	4582.77
444.73	4524.26
444.91	4189.56
445.10	4105.30
445.28	3964.87
445.47	3817.41
445.65	3964.87
445.84	4042.11
446.02	4152.11
446.21	4182.54
446.39	4376.80
446.58	4311.27
446.77	4269.14
446.95	4238.71
447.14	4400.21
447.32	4798.10
447.51	4383.82
447.69	4386.16
447.88	4252.75
448.06	4372.12
448.25	4400.21
448.43	4676.39
448.62	4374.46
448.80	4290.20
448.99	4458.72
449.17	4430.63
449.36	4311.27
449.54	4704.48
449.73	4566.39
449.91	4650.64
450.10	4770.01
450.28	4908.10
450.46	5060.24
450.65	4954.91
450.83	4851.93
451.02	4652.98
451.20	4699.80
451.39	4622.56
451.57	4697.46
451.76	4779.37
451.94	4535.96
452.13	4517.23
452.31	4493.83
452.49	4109.98
452.68	4327.65
452.86	4224.67
453.05	4376.80
453.23	4503.19
453.42	4435.32
453.60	4437.66
453.78	4676.39
453.97	4650.64
454.15	4702.14
454.34	4505.53
454.52	4472.76
454.70	4599.15
454.89	4414.25
455.07	4318.29
455.26	4475.10
455.44	4793.42
455.62	4835.55
455.81	4657.67
455.99	4786.40
456.17	4725.54
456.36	4739.58
456.54	4770.01
456.73	4770.01
456.91	5032.15
457.09	4952.57
457.28	5074.28
457.46	4903.42
457.64	4945.55
457.83	4725.54
458.01	4500.85
458.19	4784.06
458.38	4690.43
458.56	4702.14
458.74	4887.04
458.93	4823.84
459.11	4660.01
459.29	4657.67
459.48	4877.68
459.66	4767.67
459.84	4858.95
460.03	4985.34
460.21	5008.75
460.39	4997.04
460.57	4858.95
460.76	5050.88
460.94	4954.91
461.12	5067.26
461.31	5139.82
461.49	5025.13
461.67	4837.89
461.85	5008.75
462.04	5163.22
462.22	5547.07
462.40	5078.96
462.59	5043.85
462.77	5205.35
462.95	4985.34
463.13	4865.97
463.32	5102.37
463.50	4936.19
463.68	4966.62
463.86	4973.64
464.05	4961.94
464.23	4826.18
464.41	4748.95
464.59	4798.10
464.78	5123.43
464.96	5060.24
465.14	4753.63
465.32	4851.93
465.50	5093.01
465.69	5233.44
465.87	5020.45
466.05	4980.66
466.23	4697.46
466.41	4561.70
466.60	4781.71
466.78	4917.47
466.96	4898.74
467.14	5060.24
467.32	5158.54
467.51	4938.53
467.69	4667.03
467.87	4812.14
468.05	4997.04
468.23	5025.13
468.41	4905.76
468.60	4898.74
468.78	5004.07
468.96	4933.85
469.14	4992.36
469.32	5027.47
469.50	4835.55
469.69	4901.08
469.87	4840.23
470.05	4772.35
470.23	4734.90
470.41	4840.23
470.59	4795.76
470.77	4795.76
470.95	4791.08
471.14	4990.02
471.32	5078.96
471.50	5266.21
471.68	5245.14
471.86	5357.49
472.04	5305.99
472.22	5308.34
472.40	5085.98
472.58	5064.92
472.77	5116.41
472.95	5085.98
473.13	5203.01
473.31	4987.68
473.49	5083.64
473.67	5097.69
473.85	5238.12
474.03	5413.66
474.21	5322.38
474.39	5596.22
474.57	5533.03
474.75	5549.41
474.93	5427.70
475.12	5331.74
475.30	5270.89
475.48	5420.68
475.66	5355.15
475.84	5296.63
476.02	5476.85
476.20	5083.64
476.38	5329.40
476.56	5537.71
476.74	5397.28
476.92	5551.75
477.10	5628.99
477.28	5750.70
477.46	5895.81
477.64	5830.27
477.82	6017.52
478.00	5937.94
478.18	5942.62
478.36	5797.51
478.54	5762.40
478.72	5785.80
478.90	6038.58
479.08	6216.46
479.26	6146.25
479.44	6270.30
479.62	6125.18
479.80	6150.93
479.98	6111.14
480.16	6403.71
480.34	6216.46
480.52	6132.20
480.70	6427.11
480.88	6319.45
481.06	6232.85
481.24	6654.14
481.41	6607.33
481.59	6614.35
481.77	6654.14
481.95	6712.66
482.13	6738.40
482.31	6925.65
482.49	6707.98
482.67	6597.97
482.85	6710.32
483.03	7047.35
483.21	6958.41
483.39	6825.00
483.57	6874.15
483.74	6724.36
483.92	6778.19
484.10	6827.34
484.28	6848.41
484.46	6956.07
484.64	7166.72
484.82	6897.56
485.00	6820.32
485.18	6700.95
485.35	6464.56
485.53	6132.20
485.71	5755.38
485.89	5341.10
486.07	5708.57
486.25	6122.84
486.43	6534.78
486.61	6722.02
486.78	6766.49
486.96	6733.72
487.14	6909.26
487.32	7059.06
487.50	7286.09
487.68	7733.13
487.85	7616.10
488.03	7599.72
488.21	7571.63
488.39	7353.96
488.57	7473.33
488.75	7218.21
488.92	7775.26
489.10	7784.62
489.28	8203.58
489.46	8315.92
489.64	8280.82
489.81	8339.33
489.99	8163.79
490.17	8348.69
490.35	8278.47
490.53	8252.73
490.70	8170.81
490.88	8241.03
491.06	8219.96
491.24	8493.80
491.41	8175.49
491.59	7901.65
491.77	7389.07
491.95	7751.85
492.13	8166.13
492.30	8194.22
492.48	8575.72
492.66	8744.24
492.84	8786.37
493.01	8889.35
493.19	8442.31
493.37	8423.59
493.54	8493.80
493.72	8559.34
493.90	8755.94
494.08	9153.84
494.25	9228.73
494.43	9235.75
494.61	9415.98
494.79	9341.08
494.96	9331.72
495.14	9109.36
495.32	8896.38
495.49	8791.05
495.67	8833.18
495.85	9109.36
496.02	9558.75
496.20	9483.85
496.38	9383.21
496.55	9121.07
496.73	9479.17
496.91	9495.55
497.09	9591.52
497.26	9423.00
497.44	9364.48
497.62	9202.99
497.79	9095.32
497.97	8723.18
498.14	8779.35
498.32	9198.31
498.50	9467.47
498.67	9472.15
498.85	9481.51
499.03	9542.36
499.20	9694.50
499.38	9710.88
499.56	9841.95
499.73	9345.76
499.91	9167.88
500.08	9268.52
500.26	8826.16
500.44	9078.94
500.61	9303.63
500.79	9125.75
500.97	8980.64
501.14	9128.09
501.32	9064.89
501.49	8980.64
501.67	8917.44
501.84	9125.75
502.02	9261.50
502.20	9399.59
502.37	9177.24
502.55	9263.84
502.72	9533.00
502.90	9462.79
503.07	9411.29
503.25	9060.21
503.43	8849.57
503.60	8730.20
503.78	8514.87
503.95	8814.46
504.13	9116.39
504.30	9392.57
504.48	9320.01
504.65	9500.23
504.83	9607.90
505.01	9614.92
505.18	9799.82
505.36	9657.05
505.53	9858.34
505.71	9914.51
505.88	10202.40
506.06	9778.76
506.23	9724.93
506.41	9511.94
506.58	9659.39
506.76	9502.58
506.93	9685.14
507.11	9626.62
507.28	9570.45
507.46	9481.51
507.63	9266.18
507.81	9242.78
507.98	9350.44
508.16	9345.76
508.33	9509.60
508.50	9841.95
508.68	10083.03
508.85	9987.07
509.03	10073.67
509.20	10111.11
509.38	9886.42
509.55	9729.61
509.73	9856.00
509.90	9961.32
510.08	9926.21
510.25	10132.18
510.42	10155.58
510.60	9930.89
510.77	10001.11
510.95	10335.81
511.12	10260.91
511.30	10513.69
511.47	10494.96
511.64	10361.55
511.82	10455.17
511.99	10085.37
512.17	9989.41
512.34	9715.56
512.51	9902.81
512.69	9790.46
512.86	10017.49
513.04	10289.00
513.21	10113.45
513.38	10012.81
513.56	9804.50
513.73	9811.53
513.90	9437.04
514.08	9783.44
514.25	9806.84
514.43	9853.66
514.60	9984.73
514.77	10015.15
514.95	9921.53
515.12	9928.55
515.29	10059.62
515.47	10090.05
515.64	10368.57
515.81	10155.58
515.99	10186.01
516.16	9540.02
516.33	8814.46
516.51	8383.80
516.68	8322.94
516.85	7992.93
517.03	8152.09
517.20	8870.63
517.37	9483.85
517.54	9940.26
517.72	10181.33
517.89	9158.52
518.06	8421.25
518.24	8243.37
518.41	9050.85
518.58	9586.83
518.75	9591.52
518.93	9640.67
519.10	9565.77
519.27	9769.40
519.45	9799.82
519.62	9926.21
519.79	10232.82
519.96	10073.67
520.14	10097.07
520.31	9804.50
520.48	9825.57
520.65	9806.84
520.83	10092.39
521.00	10221.12
521.17	10078.35
521.34	10085.37
521.52	10272.61
521.69	10408.36
521.86	10490.28
522.03	10504.32
522.20	9989.41
522.38	9558.75
522.55	9472.15
522.72	9703.86
522.89	9694.50
523.07	9879.40
523.24	10050.26
523.41	10186.01
523.58	10443.47
523.75	10520.71
523.92	10434.11
524.10	10675.18
524.27	10600.29
524.44	10518.37
524.61	10221.12
524.78	10260.91
524.96	10399.00
525.13	10188.35
525.30	10523.05
525.47	10626.03
525.64	10731.36
525.81	10361.55
525.98	9848.97
526.16	9111.71
526.33	8879.99
526.50	8954.89
526.67	8833.18
526.84	9128.09
527.01	9298.95
527.18	9415.98
527.36	9678.12
527.53	10244.52
527.70	10387.30
527.87	10211.76
528.04	10045.58
528.21	10052.60
528.38	10518.37
528.55	10541.77
528.72	10808.59
528.89	11002.86
529.07	10602.63
529.24	10541.77
529.41	10174.31
529.58	10097.07
529.75	10019.83
529.92	10190.69
530.09	10249.21
530.26	10478.58
530.43	10422.41
530.60	10661.14
530.77	10808.59
530.94	11023.92
531.11	10630.71
531.28	10476.24
531.46	10602.63
531.63	10338.15
531.80	10286.65
531.97	10399.00
532.14	10022.17
532.31	9577.47
532.48	9310.65
532.65	9467.47
532.82	9818.55
532.99	10022.17
533.16	10214.10
533.33	10321.76
533.50	10623.69
533.67	10181.33
533.84	9891.10
534.01	10155.58
534.18	10153.24
534.35	10246.87
534.52	10174.31
534.69	10408.36
534.86	10249.21
535.03	10516.03
535.20	10537.09
535.37	10841.36
535.54	11049.67
535.71	10661.14
535.88	10626.03
536.05	10366.23
536.22	10291.34
536.38	10073.67
536.55	9914.51
536.72	9731.95
536.89	9600.88
537.06	9970.68
537.23	10324.10
537.40	10345.17
537.57	10501.98
537.74	10759.44
537.91	10356.87
538.08	10394.32
538.25	10090.05
538.42	10476.24
538.59	10307.72
538.75	10186.01
538.92	10008.13
539.09	10033.88
539.26	9947.28
539.43	10047.92
539.60	10171.97
539.77	10047.92
539.94	10129.84
540.11	9968.34
540.28	9525.98
540.44	9586.83
540.61	9607.90
540.78	10003.45
540.95	9933.23
541.12	10331.12
541.29	10455.17
541.46	10881.15
541.62	10656.46
541.79	10551.14
541.96	10511.35
542.13	10270.27
542.30	10492.62
542.47	10539.43
542.63	10312.40
542.80	10443.47
542.97	10246.87
543.14	10272.61
543.31	10111.11
543.48	10204.74
543.64	10672.84
543.81	10733.70
543.98	10780.51
544.15	10661.14
544.32	10349.85
544.48	10064.30
544.65	10209.42
544.82	10789.87
544.99	10436.45
545.16	10303.04
545.32	10410.70
545.49	11183.08
545.66	12030.35
545.83	12025.67
546.00	11637.14
546.16	10885.83
546.33	10782.85
546.50	10553.48
546.67	10621.35
546.83	10251.55
547.00	10230.48
547.17	10195.37
547.34	9818.55
547.50	9970.68
547.67	9879.40
547.84	9790.46
548.00	9930.89
548.17	10370.91
548.34	10356.87
548.51	10164.95
548.67	10300.70
548.84	10377.94
549.01	9989.41
549.18	10345.17
549.34	10141.54
549.51	9949.62
549.68	10193.03
549.84	9996.43
550.01	9933.23
550.18	10031.54
550.34	10052.60
550.51	10059.62
550.68	10033.88
550.84	9839.61
551.01	9930.89
551.18	9886.42
551.34	9848.97
551.51	10010.47
551.68	9958.98
551.84	10047.92
552.01	10097.07
552.18	10040.90
552.34	9764.72
552.51	9619.60
552.68	9502.58
552.84	9654.71
553.01	9825.57
553.18	9872.38
553.34	9673.43
553.51	9893.44
553.67	9860.68
553.84	9987.07
554.01	9865.36
554.17	9696.84
554.34	9865.36
554.51	9846.63
554.67	10083.03
554.84	10038.56
555.00	9748.33
555.17	9664.07
555.33	9757.69
555.50	9827.91
555.67	9626.62
555.83	9776.42
556.00	9359.80
556.16	9596.20
556.33	9437.04
556.50	9521.30
556.66	9387.89
556.83	9385.55
556.99	9476.83
557.16	9296.61
557.32	9355.12
557.49	9427.68
557.65	9373.85
557.82	9350.44
557.98	9619.60
558.15	9366.82
558.32	9181.92
558.48	8964.25
558.65	8758.28
558.81	9036.81
558.98	9004.04
559.14	9053.19
559.31	9057.87
559.47	9107.02
559.64	9018.08
559.80	8835.52
559.97	8966.59
560.13	9193.62
560.30	9181.92
560.46	9305.97
560.63	9610.24
560.79	9755.35
560.96	9591.52
561.12	9315.33
561.29	8840.20
561.45	8884.67
561.61	9179.58
561.78	9249.80
561.94	9170.22
562.11	9294.27
562.27	9074.26
562.44	9121.07
562.60	9287.25
562.77	9385.55
562.93	9174.90
563.10	9217.03
563.26	9270.86
563.42	9259.16
563.59	9097.66
563.75	8870.63
563.92	9020.42
564.08	8868.29
564.24	9100.00
564.41	9137.45
564.57	9067.24
564.74	8931.48
564.90	9034.47
565.07	8945.53
565.23	8990.00
565.39	8882.33
565.56	8659.98
565.72	8461.04
565.88	8500.83
566.05	8702.11
566.21	8751.26
566.38	8875.31
566.54	8901.06
566.70	9053.19
566.87	8994.68
567.03	8884.67
567.19	8947.87
567.36	8959.57
567.52	8739.56
567.68	8858.93
567.85	8674.03
568.01	8589.77
568.17	8077.19
568.34	8196.56
568.50	8210.60
568.66	8238.69
568.83	8297.20
568.99	8250.39
569.15	8334.65
569.32	8226.98
569.48	8341.67
569.64	8313.58
569.81	8262.09
569.97	8243.37
570.13	8348.69
570.30	8395.50
570.46	8161.45
570.62	7967.18
570.78	7943.78
570.95	7847.82
571.11	8145.06
571.27	8224.64
571.43	8252.73
571.60	8224.64
571.76	8301.88
571.92	8446.99
572.09	8517.21
572.25	8463.38
572.41	8329.97
572.57	8219.96
572.74	8421.25
572.90	8231.66
573.06	8238.69
573.22	8182.51
573.38	8116.98
573.55	8222.30
573.71	8367.42
573.87	8245.71
574.03	8278.47
574.20	8070.17
574.36	8051.44
574.52	7873.56
574.68	8091.23
574.84	7957.82
575.01	7812.71
575.17	7777.60
575.33	7854.84
575.49	8077.19
575.65	8114.64
575.82	7887.61
575.98	7969.52
576.14	7810.37
576.30	8271.45
576.46	8189.53
576.62	8477.42
576.79	8472.74
576.95	8133.36
577.11	8046.76
577.27	8039.74
577.43	8126.34
577.59	8156.77
577.75	8074.85
577.92	7714.41
578.08	7742.49
578.24	7754.19
578.40	7812.71
578.56	8035.06
578.72	8184.85
578.88	8344.01
579.04	8329.97
579.21	8051.44
579.37	8018.68
579.53	8018.68
579.69	8018.68
579.85	8203.58
580.01	8226.98
580.17	8063.15
580.33	8079.53
580.49	7899.31
580.65	8292.52
580.82	8222.30
580.98	8205.92
581.14	8074.85
581.30	8180.17
581.46	8044.42
581.62	8109.96
581.78	8035.06
581.94	8163.79
582.10	8194.22
582.26	8112.30
582.42	8208.26
582.58	8212.94
582.74	8163.79
582.90	8156.77
583.06	8170.81
583.22	8226.98
583.38	8081.87
583.54	8081.87
583.70	8004.63
583.86	7983.57
584.02	8203.58
584.18	8173.15
584.34	8039.74
584.50	8042.08
584.66	8030.38
584.82	7857.18
584.98	8004.63
585.14	7730.79
585.30	7499.08
585.46	7662.91
585.62	7667.60
585.78	7784.62
585.94	7541.21
586.10	7667.60
586.26	7765.90
586.42	8065.49
586.58	7705.04
586.74	7854.84
586.90	7660.57
587.06	7658.23
587.22	7726.11
587.38	7611.42
587.54	7527.16
587.70	7162.04
587.86	6927.99
588.02	6806.28
588.18	6902.24
588.34	6530.09
588.49	5956.66
588.65	5687.50
588.81	5626.65
588.97	5467.49
589.13	5706.23
589.29	5413.66
589.45	5621.97
589.61	5558.77
589.77	5949.64
589.93	5975.39
590.08	6361.58
590.24	6530.09
590.40	6670.53
590.56	6483.28
590.72	6562.86
590.88	6551.16
591.04	6436.47
591.20	6408.39
591.35	6267.95
591.51	6328.81
591.67	6113.48
591.83	6319.45
591.99	6307.74
592.15	6443.49
592.31	6473.92
592.46	6628.40
592.62	6766.49
592.78	6731.38
592.94	6876.49
593.10	6815.64
593.26	7066.08
593.41	7262.68
593.57	6857.77
593.73	6621.38
593.89	6462.22
594.05	6160.29
594.20	5959.00
594.36	5898.15
594.52	5837.30
594.68	5870.06
594.84	6127.52
594.99	6546.48
595.15	6532.44
595.31	6595.63
595.47	6525.41
