SpectraSuite Data File
++++++++++++++++++++++++++++++++++++
Date: Fri Oct 04 11:44:22 GMT-05:00 2013
User: price-jones
Dark Spectrum Present: No
Reference Spectrum Present: No
Number of Sampled Component Spectra: 1
Spectrometers: USB2+H05261
Integration Time (usec): 100000 (USB2+H05261)
Spectra Averaged: 1 (USB2+H05261)
Boxcar Smoothing: 0 (USB2+H05261)
Correct for Electrical Dark: No (USB2+H05261)
Strobe/Lamp Enabled: No (USB2+H05261)
Correct for Detector Non-linearity: No (USB2+H05261)
Correct for Stray Light: No (USB2+H05261)
Number of Pixels in Processed Spectrum: 2048
>>>>>Begin Processed Spectral Data<<<<<
365.73	25.75
365.92	25.75
366.12	25.75
366.32	0.00
366.52	0.00
366.72	0.00
366.91	0.00
367.11	0.00
367.31	0.00
367.51	0.00
367.70	0.00
367.90	0.00
368.10	0.00
368.30	0.00
368.49	0.00
368.69	0.00
368.89	0.00
369.09	0.00
369.28	0.00
369.48	0.00
369.68	0.00
369.87	16.38
370.07	0.00
370.27	25.75
370.47	194.26
370.66	381.51
370.86	475.13
371.06	435.34
371.25	543.00
371.45	484.49
371.65	423.64
371.84	397.89
372.04	411.93
372.24	519.60
372.44	451.72
372.63	468.11
372.83	528.96
373.03	451.72
373.22	386.19
373.42	416.62
373.62	440.02
373.81	512.58
374.01	589.82
374.21	517.26
374.40	437.68
374.60	486.83
374.79	456.40
374.99	585.13
375.19	624.92
375.38	657.69
375.58	645.99
375.78	603.86
375.97	547.69
376.17	688.12
376.37	599.18
376.56	585.13
376.76	648.33
376.95	690.46
377.15	786.42
377.35	699.82
377.54	758.33
377.74	816.85
377.93	760.67
378.13	786.42
378.33	706.84
378.52	631.94
378.72	702.16
378.91	688.12
379.11	638.97
379.31	554.71
379.50	676.41
379.70	643.65
379.89	723.23
380.09	765.36
380.28	685.78
380.48	767.70
380.68	692.80
380.87	671.73
381.07	699.82
381.26	662.37
381.46	622.58
381.65	575.77
381.85	552.37
382.04	528.96
382.24	444.70
382.43	437.68
382.63	521.94
382.83	500.87
383.02	454.06
383.22	550.03
383.41	442.36
383.61	493.85
383.80	601.52
384.00	664.71
384.19	578.11
384.39	683.44
384.58	784.08
384.78	697.48
384.97	657.69
385.17	676.41
385.36	634.29
385.56	674.07
385.75	610.88
385.95	699.82
386.14	830.89
386.34	798.12
386.53	723.23
386.72	727.91
386.92	627.26
387.11	774.72
387.31	819.19
387.50	784.08
387.70	699.82
387.89	727.91
388.09	669.39
388.28	720.88
388.48	758.33
388.67	763.01
388.86	781.74
389.06	816.85
389.25	926.85
389.45	952.60
389.64	896.43
389.84	912.81
390.03	887.06
390.22	856.64
390.42	847.27
390.61	990.05
390.81	976.00
391.00	976.00
391.19	1083.67
391.39	1013.45
391.58	976.00
391.78	889.40
391.97	851.96
392.16	739.61
392.36	835.57
392.55	702.16
392.75	521.94
392.94	561.73
393.13	390.87
393.33	538.32
393.52	594.50
393.71	739.61
393.91	856.64
394.10	835.57
394.29	901.11
394.49	976.00
394.68	1132.82
394.88	1076.65
395.07	1107.07
395.26	1090.69
395.46	1060.26
395.65	1055.58
395.84	959.62
396.04	903.45
396.23	660.03
396.42	596.84
396.62	507.90
396.81	711.52
397.00	741.95
397.19	847.27
397.39	1090.69
397.58	1160.91
397.77	1259.21
397.97	1280.27
398.16	1277.93
398.35	1397.30
398.55	1355.17
398.74	1397.30
398.93	1535.39
399.12	1500.28
399.32	1427.73
399.51	1493.26
399.70	1483.90
399.90	1469.86
400.09	1549.43
400.28	1460.49
400.47	1481.56
400.67	1535.39
400.86	1631.35
401.05	1603.27
401.24	1624.33
401.44	1643.06
401.63	1645.40
401.82	1650.08
402.01	1624.33
402.21	1636.03
402.40	1732.00
402.59	1549.43
402.78	1472.20
402.97	1481.56
403.17	1556.46
403.36	1600.93
403.55	1603.27
403.74	1593.90
403.93	1713.27
404.13	1694.55
404.32	1579.86
404.51	1607.95
404.70	1755.40
404.89	1629.01
405.09	1713.27
405.28	1626.67
405.47	1612.63
405.66	1727.32
405.85	1631.35
406.05	1563.48
406.24	1584.54
406.43	1481.56
406.62	1631.35
406.81	1661.78
407.00	1633.69
407.20	1600.93
407.39	1631.35
407.58	1708.59
407.77	1778.81
407.96	1706.25
408.15	1746.04
408.34	1816.26
408.54	1839.66
408.73	1872.43
408.92	1816.26
409.11	1748.38
409.30	1795.19
409.49	1579.86
409.68	1511.99
409.87	1490.92
410.07	1577.52
410.26	1654.76
410.45	1750.72
410.64	1741.36
410.83	1916.90
411.02	1926.26
411.21	1984.77
411.40	1891.15
411.59	1830.30
411.78	1827.96
411.98	1947.33
412.17	1926.26
412.36	1961.37
412.55	1895.83
412.74	1942.64
412.93	1912.22
413.12	1802.21
413.31	1902.86
413.50	2050.31
413.69	2118.18
413.88	2057.33
414.07	1849.02
414.26	2008.18
414.45	2127.55
414.64	2045.63
414.83	2057.33
415.02	1987.11
415.22	1984.77
415.41	2118.18
415.60	2036.27
415.79	2167.34
415.98	2204.78
416.17	2097.12
416.36	2190.74
416.55	2099.46
416.74	2139.25
416.93	2040.95
417.12	2026.90
417.31	2038.61
417.50	2139.25
417.69	2129.89
417.88	2216.49
418.07	2097.12
418.26	1994.14
418.45	2015.20
418.64	2239.89
418.83	2239.89
419.02	2146.27
419.21	2045.63
419.39	2036.27
419.58	1959.03
419.77	1940.30
419.96	1980.09
420.15	2186.06
420.34	2258.62
420.53	2216.49
420.72	2298.41
420.91	2321.81
421.10	2272.66
421.29	2361.60
421.48	2218.83
421.67	2293.72
421.86	2181.38
422.05	2265.64
422.24	1961.37
422.43	1961.37
422.61	2097.12
422.80	2368.62
422.99	2207.13
423.18	2172.02
423.37	2031.58
423.56	2127.55
423.75	2246.91
423.94	2134.57
424.13	2026.90
424.32	2038.61
424.50	2101.80
424.69	2118.18
424.88	2200.10
425.07	2136.91
425.26	2111.16
425.45	2099.46
425.64	2092.44
425.83	1879.45
426.01	2115.84
426.20	2186.06
426.39	2153.29
426.58	2097.12
426.77	1973.07
426.96	1909.88
427.15	1916.90
427.33	2033.93
427.52	2076.06
427.71	2150.95
427.90	2115.84
428.09	2139.25
428.28	2047.97
428.46	1916.90
428.65	1966.05
428.84	2083.08
429.03	2057.33
429.22	1998.82
429.40	1839.66
429.59	1694.55
429.78	1500.28
429.97	1500.28
430.16	1666.46
430.34	1535.39
430.53	1596.25
430.72	1586.88
430.91	1774.13
431.10	1947.33
431.28	2249.25
431.47	2462.24
431.66	2464.58
431.85	2298.41
432.03	2211.81
432.22	2064.35
432.41	2066.69
432.60	2200.10
432.79	2270.32
432.97	2600.34
433.16	2438.84
433.35	2300.75
433.54	2015.20
433.72	1980.09
433.91	1912.22
434.10	2129.89
434.28	2275.00
434.47	2363.94
434.66	2394.37
434.85	2324.15
435.03	2370.96
435.22	2523.10
435.41	2871.84
435.59	2925.67
435.78	2757.15
435.97	2651.83
436.16	2574.59
436.34	2605.02
436.53	2583.95
436.72	2544.16
436.90	2473.95
437.09	2450.54
437.28	2359.26
437.46	2420.11
437.65	2459.90
437.84	2356.92
438.02	2207.13
438.21	2087.76
438.40	2195.42
438.58	2415.43
438.77	2396.71
438.96	2448.20
439.14	2548.84
439.33	2520.76
439.52	2614.38
439.70	2551.18
439.89	2576.93
440.08	2495.01
440.26	2490.33
440.45	2626.08
440.63	2668.21
440.82	2750.13
441.01	2801.62
441.19	2665.87
441.38	2715.02
441.57	2911.63
441.75	2883.54
441.94	2895.24
442.12	2881.20
442.31	2998.23
442.50	2897.58
442.68	2890.56
442.87	2874.18
443.05	2850.77
443.24	2810.98
443.43	2864.82
443.61	3091.85
443.80	3019.29
443.98	2923.33
444.17	2836.73
444.35	2918.65
444.54	3066.10
444.73	2958.44
444.91	3042.70
445.10	2801.62
445.28	2775.88
445.47	2789.92
445.65	2569.91
445.84	2677.57
446.02	2881.20
446.21	2672.89
446.39	2862.48
446.58	2892.90
446.77	2853.11
446.95	2913.97
447.14	2991.20
447.32	3042.70
447.51	3007.59
447.69	2949.08
447.88	2836.73
448.06	2958.44
448.25	2995.89
448.43	3077.80
448.62	2918.65
448.80	3016.95
448.99	2904.60
449.17	2888.22
449.36	3033.33
449.54	3035.67
449.73	3192.49
449.91	3192.49
450.10	3309.52
450.28	3328.24
450.46	3321.22
450.65	3258.03
450.83	3206.53
451.02	3293.13
451.20	3166.74
451.39	3129.30
451.57	3155.04
451.76	3089.51
451.94	3096.53
452.13	3066.10
452.31	3082.49
452.49	2843.75
452.68	2867.16
452.86	2883.54
453.05	2874.18
453.23	2949.08
453.42	2963.12
453.60	3098.87
453.78	3183.13
453.97	3007.59
454.15	3021.63
454.34	3047.38
454.52	3089.51
454.70	3098.87
454.89	3023.97
455.07	3026.31
455.26	3117.59
455.44	3169.09
455.62	3183.13
455.81	3208.87
455.99	3276.75
456.17	3243.98
456.36	3091.85
456.54	3267.39
456.73	3145.68
456.91	3206.53
457.09	3309.52
457.28	3372.71
457.46	3295.47
457.64	3295.47
457.83	3145.68
458.01	3047.38
458.19	3218.24
458.38	3038.02
458.56	3258.03
458.74	3269.73
458.93	3225.26
459.11	3311.86
459.29	3143.34
459.48	3293.13
459.66	3281.43
459.84	3265.05
460.03	3391.44
460.21	3309.52
460.39	3286.11
460.57	3466.33
460.76	3339.94
460.94	3459.31
461.12	3384.41
461.31	3403.14
461.49	3314.20
461.67	3419.52
461.85	3426.54
462.04	3414.84
462.22	3871.25
462.40	3492.08
462.59	3382.07
462.77	3377.39
462.95	3372.71
463.13	3382.07
463.32	3300.16
463.50	3262.71
463.68	3342.28
463.86	3419.52
464.05	3199.51
464.23	3302.50
464.41	3253.34
464.59	3211.22
464.78	3173.77
464.96	3260.37
465.14	3215.90
465.32	3330.58
465.50	3407.82
465.69	3440.59
465.87	3531.87
466.05	3302.50
466.23	3098.87
466.41	3157.38
466.60	3124.62
466.78	3138.66
466.96	3241.64
467.14	3225.26
467.32	3321.22
467.51	3286.11
467.69	3197.17
467.87	3171.43
468.05	3150.36
468.23	3332.92
468.41	3330.58
468.60	3482.72
468.78	3353.99
468.96	3302.50
469.14	3293.13
469.32	3267.39
469.50	3166.74
469.69	3307.18
469.87	3248.66
470.05	3047.38
470.23	3091.85
470.41	3171.43
470.59	3222.92
470.77	3225.26
470.95	3379.73
471.14	3288.45
471.32	3377.39
471.50	3562.30
471.68	3456.97
471.86	3571.66
472.04	3545.91
472.22	3506.12
472.40	3506.12
472.58	3382.07
472.77	3426.54
472.95	3473.36
473.13	3449.95
473.31	3499.10
473.49	3328.24
473.67	3529.53
473.85	3623.15
474.03	3562.30
474.21	3676.98
474.39	3665.28
474.57	3653.58
474.75	3625.49
474.93	3581.02
475.12	3414.84
475.30	3592.72
475.48	3571.66
475.66	3527.19
475.84	3562.30
476.02	3499.10
476.20	3538.89
476.38	3508.46
476.56	3819.75
476.74	3679.32
476.92	3662.94
477.10	3730.81
477.28	3922.74
477.46	3850.18
477.64	3733.15
477.82	4056.15
478.00	3892.31
478.18	3845.50
478.36	4119.34
478.54	3866.56
478.72	3840.82
478.90	3896.99
479.08	3981.25
479.26	4145.09
479.44	4189.56
479.62	3985.93
479.80	4194.24
479.98	4070.19
480.16	4194.24
480.34	4227.01
480.52	4217.65
480.70	4294.88
480.88	4098.28
481.06	4271.48
481.24	4238.71
481.41	4301.90
481.59	4348.72
481.77	4470.42
481.95	4440.00
482.13	4355.74
482.31	4264.46
482.49	4428.29
482.67	4491.49
482.85	4615.54
483.03	4449.36
483.21	4514.89
483.39	4634.26
483.57	4521.92
483.74	4545.32
483.92	4542.98
484.10	4463.40
484.28	4685.75
484.46	4683.41
484.64	4727.88
484.82	4601.49
485.00	4510.21
485.18	4339.35
485.35	4337.01
485.53	4098.28
485.71	3744.86
485.89	3740.18
486.07	3707.41
486.25	4046.79
486.43	4418.93
486.61	4552.34
486.78	4535.96
486.96	4557.02
487.14	4500.85
487.32	4608.51
487.50	4835.55
487.68	4987.68
487.85	5053.22
488.03	5018.11
488.21	5081.30
488.39	4889.38
488.57	4924.49
488.75	4896.40
488.92	5130.45
489.10	5303.65
489.28	5413.66
489.46	5589.20
489.64	5476.85
489.81	5404.30
489.99	5535.37
490.17	5355.15
490.35	5404.30
490.53	5521.32
490.70	5453.45
490.88	5341.10
491.06	5420.68
491.24	5509.62
491.41	5406.64
491.59	5221.74
491.77	4957.25
491.95	5296.63
492.13	5303.65
492.30	5659.42
492.48	5516.64
492.66	5825.59
492.84	5923.90
493.01	5689.84
493.19	5685.16
493.37	5659.42
493.54	5682.82
493.72	5483.88
493.90	5720.27
494.08	6024.54
494.25	5989.43
494.43	5991.77
494.61	6118.16
494.79	6171.99
494.96	6235.19
495.14	6090.07
495.32	5881.77
495.49	5874.74
495.67	5827.93
495.85	6181.35
496.02	6274.98
496.20	6326.47
496.38	6136.88
496.55	6218.80
496.73	6253.91
496.91	6099.44
497.09	6394.34
497.26	6485.62
497.44	6289.02
497.62	6286.68
497.79	6232.85
497.97	5783.46
498.14	5834.96
498.32	5977.73
498.50	6272.64
498.67	6284.34
498.85	6352.21
499.03	6242.21
499.20	6422.43
499.38	6190.72
499.56	6410.73
499.73	6193.06
499.91	6200.08
500.08	6069.01
500.26	5886.45
500.44	5813.89
500.61	6150.93
500.79	6054.97
500.97	6155.61
501.14	5919.21
501.32	5940.28
501.49	6038.58
501.67	5888.79
501.84	6146.25
502.02	6239.87
502.20	6097.10
502.37	6312.42
502.55	6104.12
502.72	6239.87
502.90	6291.36
503.07	6359.24
503.25	6122.84
503.43	5764.74
503.60	5729.63
503.78	5598.56
503.95	5575.16
504.13	5867.72
504.30	6207.10
504.48	6239.87
504.65	6256.25
504.83	6370.94
505.01	6539.46
505.18	6305.40
505.36	6427.11
505.53	6590.95
505.71	6693.93
505.88	6738.40
506.06	6478.60
506.23	6518.39
506.41	6389.66
506.58	6321.79
506.76	6356.90
506.93	6413.07
507.11	6253.91
507.28	6413.07
507.46	6319.45
507.63	6195.40
507.81	6026.88
507.98	6214.12
508.16	6401.37
508.33	6366.26
508.50	6682.23
508.68	6644.78
508.85	6614.35
509.03	6829.68
509.20	6719.68
509.38	6647.12
509.55	6576.91
509.73	6377.96
509.90	6492.65
510.08	6520.73
510.25	6689.25
510.42	6469.24
510.60	6576.91
510.77	6567.54
510.95	6860.11
511.12	6616.69
511.30	6935.01
511.47	6981.82
511.64	6974.80
511.82	6867.13
511.99	6677.55
512.17	6649.46
512.34	6478.60
512.51	6335.83
512.69	6516.05
512.86	6478.60
513.04	6841.39
513.21	6731.38
513.38	6722.02
513.56	6520.73
513.73	6520.73
513.90	6291.36
514.08	6319.45
514.25	6424.77
514.43	6635.42
514.60	6773.51
514.77	6654.14
514.95	6518.39
515.12	6523.07
515.29	6633.08
515.47	6658.82
515.64	6668.19
515.81	6787.55
515.99	6715.00
516.16	6448.18
516.33	6001.13
516.51	5612.60
516.68	5334.08
516.85	5366.85
517.03	5343.44
517.20	5760.06
517.37	6303.06
517.54	6614.35
517.72	6506.69
517.89	6115.82
518.06	5600.90
518.24	5806.87
518.41	5991.77
518.58	6310.08
518.75	6471.58
518.93	6354.55
519.10	6445.84
519.27	6562.86
519.45	6612.01
519.62	6544.14
519.79	6759.47
519.96	6705.63
520.14	6712.66
520.31	6525.41
520.48	6363.92
520.65	6586.27
520.83	6796.92
521.00	6820.32
521.17	6897.56
521.34	6766.49
521.52	6614.35
521.69	6867.13
521.86	6913.94
522.03	7005.22
522.20	6895.22
522.38	6546.48
522.55	6324.13
522.72	6502.01
522.89	6637.76
523.07	6628.40
523.24	6604.99
523.41	6789.89
523.58	7016.93
523.75	6963.09
523.92	7112.89
524.10	7014.59
524.27	7157.36
524.44	6958.41
524.61	6960.75
524.78	6988.84
524.96	6846.07
525.13	7016.93
525.30	6850.75
525.47	6972.46
525.64	7094.16
525.81	6825.00
525.98	6384.98
526.16	6363.92
526.33	5982.41
526.50	6108.80
526.67	5921.56
526.84	6029.22
527.01	6258.59
527.18	6469.24
527.36	6644.78
527.53	6820.32
527.70	6806.28
527.87	6825.00
528.04	6553.50
528.21	6565.20
528.38	6913.94
528.55	7045.01
528.72	7098.84
528.89	7286.09
529.07	7218.21
529.24	7140.97
529.41	6864.79
529.58	6848.41
529.75	6832.02
529.92	6773.51
530.09	7009.90
530.26	7049.69
530.43	7206.51
530.60	7152.68
530.77	7173.74
530.94	7143.32
531.11	7152.68
531.28	6899.90
531.46	7080.12
531.63	7173.74
531.80	6967.77
531.97	6815.64
532.14	6885.86
532.31	6588.61
532.48	6207.10
532.65	6464.56
532.82	6637.76
532.99	6817.98
533.16	6815.64
533.33	6906.92
533.50	7103.53
533.67	6780.53
533.84	6619.04
534.01	6787.55
534.18	6939.69
534.35	6986.50
534.52	6850.75
534.69	6967.77
534.86	6944.37
535.03	7108.21
535.20	7222.89
535.37	7225.23
535.54	7335.24
535.71	7218.21
535.88	7105.87
536.05	7101.19
536.22	6899.90
536.38	6656.48
536.55	6904.58
536.72	6572.22
536.89	6668.19
537.06	6633.08
537.23	6885.86
537.40	7096.50
537.57	7084.80
537.74	7000.54
537.91	7094.16
538.08	7009.90
538.25	6995.86
538.42	6869.47
538.59	7089.48
538.75	6832.02
538.92	6780.53
539.09	6796.92
539.26	6504.35
539.43	6710.32
539.60	6670.53
539.77	6665.85
539.94	6707.98
540.11	6532.44
540.28	6356.90
540.44	6565.20
540.61	6469.24
540.78	6551.16
540.95	6806.28
541.12	6689.25
541.29	6995.86
541.46	7112.89
541.62	7192.47
541.79	7009.90
541.96	7052.03
542.13	6691.59
542.30	6984.16
542.47	6967.77
542.63	6913.94
542.80	6967.77
542.97	7115.23
543.14	6827.34
543.31	6817.98
543.48	6949.05
543.64	7077.78
543.81	7255.66
543.98	7260.34
544.15	7035.65
544.32	6731.38
544.48	6785.21
544.65	6808.62
544.82	6986.50
544.99	7000.54
545.16	6885.86
545.32	6771.17
545.49	7297.79
545.66	7674.62
545.83	7714.41
546.00	7475.67
546.16	7248.64
546.33	6944.37
546.50	6979.48
546.67	7023.95
546.83	6825.00
547.00	6670.53
547.17	6764.15
547.34	6560.52
547.50	6569.88
547.67	6600.31
547.84	6813.30
548.00	6839.05
548.17	6862.45
548.34	6974.80
548.51	6984.16
548.67	6876.49
548.84	6953.73
549.01	6841.39
549.18	6808.62
549.34	6843.73
549.51	6757.13
549.68	6736.06
549.84	6740.74
550.01	6761.81
550.18	6815.64
550.34	6668.19
550.51	6647.12
550.68	6857.77
550.84	6614.35
551.01	6691.59
551.18	6665.85
551.34	6717.34
551.51	6839.05
551.68	6813.30
551.84	6839.05
552.01	6965.43
552.18	6731.38
552.34	6506.69
552.51	6530.09
552.68	6321.79
552.84	6546.48
553.01	6572.22
553.18	6487.96
553.34	6700.95
553.51	6614.35
553.67	6560.52
553.84	6785.21
554.01	6733.72
554.17	6707.98
554.34	6595.63
554.51	6630.74
554.67	6869.47
554.84	6686.91
555.00	6658.82
555.17	6509.03
555.33	6696.27
555.50	6466.90
555.67	6698.61
555.83	6445.84
556.00	6471.58
556.16	6717.34
556.33	6342.85
556.50	6506.69
556.66	6368.60
556.83	6267.95
556.99	6282.00
557.16	6164.97
557.32	6539.46
557.49	6345.19
557.65	6408.39
557.82	6410.73
557.98	6363.92
558.15	6394.34
558.32	6291.36
558.48	6024.54
558.65	6069.01
558.81	6083.05
558.98	6057.31
559.14	6345.19
559.31	6176.67
559.47	6120.50
559.64	6106.46
559.80	6069.01
559.97	6017.52
560.13	6120.50
560.30	6464.56
560.46	6497.33
560.63	6408.39
560.79	6382.64
560.96	6502.01
561.12	6242.21
561.29	6129.86
561.45	6029.22
561.61	6076.03
561.78	6319.45
561.94	6141.57
562.11	6113.48
562.27	6115.82
562.44	6059.65
562.60	6174.33
562.77	6190.72
562.93	6317.11
563.10	6401.37
563.26	6265.61
563.42	6092.41
563.59	6303.06
563.75	6296.04
563.92	6256.25
564.08	5909.85
564.24	6069.01
564.41	6122.84
564.57	6054.97
564.74	6122.84
564.90	6162.63
565.07	6272.64
565.23	6164.97
565.39	5837.30
565.56	5973.05
565.72	5790.49
565.88	5851.34
566.05	5823.25
566.21	5872.40
566.38	6012.84
566.54	5811.55
566.70	6111.14
566.87	6052.63
567.03	6073.69
567.19	6069.01
567.36	6113.48
567.52	6052.63
567.68	5980.07
567.85	5746.02
568.01	5680.48
568.17	5671.12
568.34	5540.05
568.50	5500.26
568.66	5416.00
568.83	5472.17
568.99	5727.29
569.15	5577.50
569.32	5628.99
569.48	5654.73
569.64	5493.24
569.81	5481.53
569.97	5568.13
570.13	5586.86
570.30	5643.03
570.46	5490.90
570.62	5593.88
570.78	5268.55
570.95	5263.86
571.11	5474.51
571.27	5757.72
571.43	5551.75
571.60	5516.64
571.76	5518.98
571.92	5535.37
572.09	5706.23
572.25	5645.37
572.41	5673.46
572.57	5605.58
572.74	5664.10
572.90	5561.11
573.06	5593.88
573.22	5645.37
573.38	5771.76
573.55	5654.73
573.71	5530.69
573.87	5626.65
574.03	5366.85
574.20	5446.43
574.36	5453.45
574.52	5343.44
574.68	5502.60
574.84	5444.09
575.01	5425.36
575.17	5343.44
575.33	5451.11
575.49	5420.68
575.65	5486.22
575.82	5446.43
575.98	5413.66
576.14	5413.66
576.30	5455.79
576.46	5624.31
576.62	5628.99
576.79	5701.54
576.95	5565.79
577.11	5462.81
577.27	5490.90
577.43	5411.32
577.59	5378.55
577.75	5289.61
577.92	5231.10
578.08	5366.85
578.24	5062.58
578.40	5289.61
578.56	5460.47
578.72	5334.08
578.88	5603.24
579.04	5408.98
579.21	5614.95
579.37	5504.94
579.53	5432.38
579.69	5423.02
579.85	5497.92
580.01	5682.82
580.17	5446.43
580.33	5294.29
580.49	5507.28
580.65	5465.15
580.82	5444.09
580.98	5533.03
581.14	5584.52
581.30	5434.72
581.46	5521.32
581.62	5526.00
581.78	5547.07
581.94	5614.95
582.10	5575.16
582.26	5612.60
582.42	5575.16
582.58	5502.60
582.74	5420.68
582.90	5514.30
583.06	5673.46
583.22	5570.48
583.38	5554.09
583.54	5579.84
583.70	5572.82
583.86	5425.36
584.02	5514.30
584.18	5565.79
584.34	5488.56
584.50	5542.39
584.66	5509.62
584.82	5338.76
584.98	5526.00
585.14	5364.51
585.30	5394.93
585.46	5111.73
585.62	5062.58
585.78	5261.52
585.94	5158.54
586.10	5294.29
586.26	5160.88
586.42	5411.32
586.58	5441.75
586.74	5277.91
586.90	5135.14
587.06	5247.48
587.22	5212.37
587.38	5123.43
587.54	5074.28
587.70	4947.89
587.86	4748.95
588.02	4676.39
588.18	4643.62
588.34	4432.97
588.49	4016.36
588.65	4007.00
588.81	3751.88
588.97	3686.34
589.13	3894.65
589.29	3695.71
589.45	3798.69
589.61	3845.50
589.77	3981.25
589.93	4114.66
590.08	4264.46
590.24	4306.59
590.40	4360.42
590.56	4432.97
590.72	4472.76
590.88	4248.07
591.04	4372.12
591.20	4447.02
591.35	4386.16
591.51	4224.67
591.67	4215.30
591.83	4257.43
591.99	4238.71
592.15	4297.22
592.31	4461.06
592.46	4294.88
592.62	4620.22
592.78	4461.06
592.94	4585.11
593.10	4624.90
593.26	4606.17
593.41	4732.56
593.57	4634.26
593.73	4470.42
593.89	4299.56
594.05	4159.13
594.20	4102.96
594.36	3974.23
594.52	3866.56
594.68	3978.91
594.84	4212.96
594.99	4470.42
595.15	4531.28
595.31	4456.38
595.47	4451.70
595.62	4444.68
595.78	4554.68
595.94	4667.03
596.10	4634.26
596.25	4566.39
596.41	4344.03
596.57	4360.42
596.73	4306.59
596.88	4404.89
597.04	4624.90
597.20	4582.77
597.36	4587.45
597.51	4395.53
597.67	4503.19
597.83	4477.44
