SpectraSuite Data File
++++++++++++++++++++++++++++++++++++
Date: Fri Oct 04 11:44:25 GMT-05:00 2013
User: price-jones
Dark Spectrum Present: No
Reference Spectrum Present: No
Number of Sampled Component Spectra: 1
Spectrometers: USB2+H05261
Integration Time (usec): 100000 (USB2+H05261)
Spectra Averaged: 1 (USB2+H05261)
Boxcar Smoothing: 0 (USB2+H05261)
Correct for Electrical Dark: No (USB2+H05261)
Strobe/Lamp Enabled: No (USB2+H05261)
Correct for Detector Non-linearity: No (USB2+H05261)
Correct for Stray Light: No (USB2+H05261)
Number of Pixels in Processed Spectrum: 2048
>>>>>Begin Processed Spectral Data<<<<<
365.73	51.49
365.92	51.49
366.12	51.49
366.32	0.00
366.52	0.00
366.72	0.00
366.91	0.00
367.11	0.00
367.31	0.00
367.51	0.00
367.70	0.00
367.90	0.00
368.10	0.00
368.30	0.00
368.49	0.00
368.69	0.00
368.89	28.09
369.09	0.00
369.28	0.00
369.48	0.00
369.68	0.00
369.87	11.70
370.07	0.00
370.27	0.00
370.47	110.01
370.66	311.29
370.86	241.08
371.06	388.53
371.25	449.38
371.45	348.74
371.65	327.68
371.84	278.52
372.04	334.70
372.24	388.53
372.44	320.65
372.63	442.36
372.83	388.53
373.03	339.38
373.22	313.63
373.42	304.27
373.62	397.89
373.81	414.27
374.01	433.00
374.21	390.87
374.40	358.10
374.60	402.57
374.79	444.70
374.99	416.62
375.19	416.62
375.38	463.43
375.58	367.46
375.78	493.85
375.97	517.26
376.17	498.53
376.37	472.79
376.56	407.25
376.76	435.34
376.95	489.17
377.15	475.13
377.35	512.58
377.54	564.07
377.74	641.31
377.93	585.13
378.13	535.98
378.33	512.58
378.52	514.92
378.72	543.00
378.91	456.40
379.11	486.83
379.31	353.42
379.50	416.62
379.70	430.66
379.89	449.38
380.09	472.79
380.28	554.71
380.48	543.00
380.68	568.75
380.87	482.15
381.07	484.49
381.26	552.37
381.46	451.72
381.65	454.06
381.85	390.87
382.04	430.66
382.24	372.15
382.43	386.19
382.63	425.98
382.83	414.27
383.02	425.98
383.22	294.91
383.41	327.68
383.61	444.70
383.80	451.72
384.00	468.11
384.19	512.58
384.39	599.18
384.58	512.58
384.78	575.77
384.97	484.49
385.17	528.96
385.36	561.73
385.56	463.43
385.75	451.72
385.95	531.30
386.14	622.58
386.34	470.45
386.53	505.56
386.72	514.92
386.92	571.09
387.11	449.38
387.31	498.53
387.50	458.74
387.70	503.22
387.89	585.13
388.09	535.98
388.28	510.24
388.48	465.77
388.67	578.11
388.86	641.31
389.06	657.69
389.25	660.03
389.45	636.63
389.64	664.71
389.84	557.05
390.03	610.88
390.22	653.01
390.42	662.37
390.61	676.41
390.81	648.33
391.00	746.63
391.19	777.06
391.39	716.20
391.58	753.65
391.78	657.69
391.97	624.92
392.16	653.01
392.36	596.84
392.55	458.74
392.75	355.76
392.94	322.99
393.13	351.08
393.33	395.55
393.52	486.83
393.71	573.43
393.91	554.71
394.10	629.60
394.29	624.92
394.49	671.73
394.68	765.36
394.88	758.33
395.07	830.89
395.26	830.89
395.46	835.57
395.65	671.73
395.84	615.56
396.04	578.11
396.23	484.49
396.42	465.77
396.62	409.59
396.81	503.22
397.00	606.20
397.19	727.91
397.39	730.25
397.58	945.58
397.77	954.94
397.97	952.60
398.16	976.00
398.35	1025.15
398.55	929.19
398.74	950.26
398.93	1090.69
399.12	968.98
399.32	1043.88
399.51	968.98
399.70	1076.65
399.90	1055.58
400.09	1011.11
400.28	1006.43
400.47	1069.62
400.67	1139.84
400.86	1088.35
401.05	1170.27
401.24	1125.80
401.44	1116.44
401.63	1107.07
401.82	1219.42
402.01	1111.75
402.21	1128.14
402.40	1163.25
402.59	1071.97
402.78	1128.14
402.97	1111.75
403.17	1172.61
403.36	1174.95
403.55	1165.59
403.74	1174.95
403.93	1177.29
404.13	1306.02
404.32	1242.82
404.51	1247.51
404.70	1270.91
404.89	1219.42
405.09	1247.51
405.28	1067.28
405.47	1095.37
405.66	1121.12
405.85	1090.69
406.05	1020.47
406.24	1153.88
406.43	1027.50
406.62	1107.07
406.81	1196.01
407.00	1153.88
407.20	1097.71
407.39	1114.10
407.58	1212.40
407.77	1224.10
407.96	1207.72
408.15	1306.02
408.34	1228.78
408.54	1294.32
408.73	1310.70
408.92	1231.12
409.11	1224.10
409.30	1254.53
409.49	1149.20
409.68	1055.58
409.87	1081.33
410.07	1123.46
410.26	1156.22
410.45	1284.95
410.64	1240.48
410.83	1334.11
411.02	1338.79
411.21	1446.45
411.40	1329.42
411.59	1350.49
411.78	1277.93
411.98	1224.10
412.17	1409.00
412.36	1310.70
412.55	1341.13
412.74	1280.27
412.93	1287.29
413.12	1226.44
413.31	1416.02
413.50	1343.47
413.69	1383.26
413.88	1462.83
414.07	1310.70
414.26	1317.72
414.45	1427.73
414.64	1320.06
414.83	1465.18
415.02	1434.75
415.22	1423.05
415.41	1486.24
415.60	1502.62
415.79	1406.66
415.98	1516.67
416.17	1514.33
416.36	1444.11
416.55	1465.18
416.74	1439.43
416.93	1364.53
417.12	1320.06
417.31	1322.40
417.50	1376.24
417.69	1549.43
417.88	1551.78
418.07	1488.58
418.26	1404.32
418.45	1465.18
418.64	1551.78
418.83	1633.69
419.02	1507.30
419.21	1584.54
419.39	1376.24
419.58	1336.45
419.77	1439.43
419.96	1416.02
420.15	1425.39
420.34	1554.12
420.53	1598.59
420.72	1619.65
420.91	1645.40
421.10	1537.73
421.29	1624.33
421.48	1467.52
421.67	1652.42
421.86	1563.48
422.05	1434.75
422.24	1315.38
422.43	1245.16
422.61	1338.79
422.80	1568.16
422.99	1638.38
423.18	1430.07
423.37	1479.22
423.56	1413.68
423.75	1551.78
423.94	1504.96
424.13	1462.83
424.32	1519.01
424.50	1448.79
424.69	1392.62
424.88	1479.22
425.07	1411.34
425.26	1458.15
425.45	1432.41
425.64	1383.26
425.83	1490.92
426.01	1469.86
426.20	1486.24
426.39	1481.56
426.58	1385.60
426.77	1270.91
426.96	1249.85
427.15	1427.73
427.33	1383.26
427.52	1462.83
427.71	1420.71
427.90	1497.94
428.09	1399.64
428.28	1364.53
428.46	1345.81
428.65	1390.28
428.84	1373.89
429.03	1500.28
429.22	1331.76
429.40	1238.14
429.59	1151.54
429.78	1067.28
429.97	1046.22
430.16	1062.60
430.34	1060.26
430.53	1057.92
430.72	1093.03
430.91	1186.65
431.10	1439.43
431.28	1526.03
431.47	1701.57
431.66	1537.73
431.85	1554.12
432.03	1504.96
432.22	1427.73
432.41	1479.22
432.60	1675.82
432.79	1713.27
432.97	1584.54
433.16	1729.66
433.35	1490.92
433.54	1401.98
433.72	1383.26
433.91	1387.94
434.10	1486.24
434.28	1558.80
434.47	1575.18
434.66	1668.80
434.85	1640.72
435.03	1804.55
435.22	2150.95
435.41	2677.57
435.59	2869.50
435.78	2373.30
435.97	2101.80
436.16	1959.03
436.34	1802.21
436.53	1701.57
436.72	1809.23
436.90	1603.27
437.09	1640.72
437.28	1568.16
437.46	1621.99
437.65	1619.65
437.84	1540.07
438.02	1462.83
438.21	1460.49
438.40	1437.09
438.58	1502.62
438.77	1694.55
438.96	1760.08
439.14	1753.06
439.33	1769.44
439.52	1788.17
439.70	1802.21
439.89	1757.74
440.08	1647.74
440.26	1643.06
440.45	1764.76
440.63	1788.17
440.82	1944.99
441.01	1923.92
441.19	1788.17
441.38	1900.52
441.57	1996.48
441.75	2033.93
441.94	1984.77
442.12	1930.94
442.31	1912.22
442.50	1923.92
442.68	1879.45
442.87	1905.20
443.05	1839.66
443.24	1907.54
443.43	1966.05
443.61	2031.58
443.80	2066.69
443.98	2015.20
444.17	1881.79
444.35	2183.72
444.54	2106.48
444.73	1935.62
444.91	1954.35
445.10	1937.96
445.28	1774.13
445.47	1699.23
445.65	1755.40
445.84	1881.79
446.02	1933.28
446.21	1928.60
446.39	1844.34
446.58	1919.24
446.77	1961.37
446.95	1982.43
447.14	2024.56
447.32	2148.61
447.51	1980.09
447.69	1984.77
447.88	1968.39
448.06	1973.07
448.25	2092.44
448.43	2078.40
448.62	2108.82
448.80	1942.64
448.99	2059.67
449.17	2017.54
449.36	2008.18
449.54	2195.42
449.73	2113.50
449.91	2106.48
450.10	2115.84
450.28	2195.42
450.46	2186.06
450.65	2169.68
450.83	2186.06
451.02	2134.57
451.20	2207.13
451.39	2113.50
451.57	2141.59
451.76	2092.44
451.94	2139.25
452.13	2036.27
452.31	1940.30
452.49	1881.79
452.68	1956.69
452.86	1935.62
453.05	1977.75
453.23	1928.60
453.42	1973.07
453.60	2050.31
453.78	2087.76
453.97	2059.67
454.15	2054.99
454.34	2029.24
454.52	1973.07
454.70	2047.97
454.89	1982.43
455.07	1982.43
455.26	2045.63
455.44	2207.13
455.62	2249.25
455.81	2080.74
455.99	2186.06
456.17	2085.42
456.36	2214.15
456.54	2127.55
456.73	2143.93
456.91	2293.72
457.09	2150.95
457.28	2361.60
457.46	2284.36
457.64	2111.16
457.83	2108.82
458.01	2050.31
458.19	2146.27
458.38	2167.34
458.56	2249.25
458.74	2059.67
458.93	2186.06
459.11	2069.03
459.29	2134.57
459.48	2132.23
459.66	2139.25
459.84	2221.17
460.03	2197.76
460.21	2153.29
460.39	2277.34
460.57	2246.91
460.76	2232.87
460.94	2324.15
461.12	2214.15
461.31	2235.21
461.49	2225.85
461.67	2211.81
461.85	2296.07
462.04	2225.85
462.22	2726.72
462.40	2256.28
462.59	2256.28
462.77	2239.89
462.95	2373.30
463.13	2354.58
463.32	2235.21
463.50	2197.76
463.68	2286.70
463.86	2225.85
464.05	2244.57
464.23	2228.19
464.41	2092.44
464.59	2120.53
464.78	2279.68
464.96	2251.60
465.14	2101.80
465.32	2200.10
465.50	2331.17
465.69	2253.94
465.87	2216.49
466.05	2005.84
466.23	2094.78
466.41	2071.37
466.60	2083.08
466.78	2141.59
466.96	2153.29
467.14	2143.93
467.32	2216.49
467.51	2223.51
467.69	2115.84
467.87	2134.57
468.05	2188.40
468.23	2333.51
468.41	2265.64
468.60	2195.42
468.78	2169.68
468.96	2249.25
469.14	2179.04
469.32	2176.70
469.50	2033.93
469.69	2157.97
469.87	2101.80
470.05	2050.31
470.23	2031.58
470.41	2029.24
470.59	2118.18
470.77	2094.78
470.95	2125.21
471.14	2326.49
471.32	2275.00
471.50	2270.32
471.68	2450.54
471.86	2389.69
472.04	2375.64
472.22	2326.49
472.40	2223.51
472.58	2286.70
472.77	2221.17
472.95	2312.45
473.13	2317.13
473.31	2298.41
473.49	2272.66
473.67	2284.36
473.85	2246.91
474.03	2324.15
474.21	2345.22
474.39	2478.63
474.57	2415.43
474.75	2305.43
474.93	2340.54
475.12	2270.32
475.30	2424.80
475.48	2342.88
475.66	2310.11
475.84	2354.58
476.02	2345.22
476.20	2312.45
476.38	2396.71
476.56	2476.29
476.74	2356.92
476.92	2581.61
477.10	2633.10
477.28	2448.20
477.46	2551.18
477.64	2682.25
477.82	2495.01
478.00	2605.02
478.18	2476.29
478.36	2640.12
478.54	2473.95
478.72	2548.84
478.90	2658.85
479.08	2633.10
479.26	2675.23
479.44	2731.41
479.62	2686.94
479.80	2708.00
479.98	2717.36
480.16	2764.17
480.34	2628.42
480.52	2766.51
480.70	2780.56
480.88	2778.22
481.06	2871.84
481.24	2794.60
481.41	2820.35
481.59	2771.19
481.77	2888.22
481.95	2892.90
482.13	2932.69
482.31	2918.65
482.49	2998.23
482.67	3035.67
482.85	2930.35
483.03	3007.59
483.21	3089.51
483.39	2991.20
483.57	2888.22
483.74	3054.40
483.92	2993.55
484.10	2988.86
484.28	3002.91
484.46	3171.43
484.64	3070.78
484.82	3119.93
485.00	3054.40
485.18	3035.67
485.35	2803.96
485.53	2668.21
485.71	2469.27
485.89	2502.03
486.07	2623.74
486.25	2906.95
486.43	2925.67
486.61	2944.39
486.78	3012.27
486.96	2998.23
487.14	3105.89
487.32	3176.11
487.50	3321.22
487.68	3332.92
487.85	3307.18
488.03	3290.79
488.21	3349.31
488.39	3262.71
488.57	3218.24
488.75	3199.51
488.92	3592.72
489.10	3475.70
489.28	3534.21
489.46	3735.50
489.64	3709.75
489.81	3562.30
489.99	3599.74
490.17	3676.98
490.35	3655.92
490.53	3543.57
490.70	3705.07
490.88	3721.45
491.06	3791.67
491.24	3676.98
491.41	3538.89
491.59	3538.89
491.77	3293.13
491.95	3543.57
492.13	3412.50
492.30	3784.65
492.48	3702.73
492.66	3854.86
492.84	3777.62
493.01	3854.86
493.19	3777.62
493.37	3714.43
493.54	3754.22
493.72	3735.50
493.90	3908.69
494.08	3927.42
494.25	3967.21
494.43	4067.85
494.61	4060.83
494.79	3946.14
494.96	4072.53
495.14	3964.87
495.32	3819.75
495.49	3810.39
495.67	3878.27
495.85	4117.00
496.02	3981.25
496.20	4081.89
496.38	4074.87
496.55	4021.04
496.73	4114.66
496.91	4121.68
497.09	4196.58
497.26	4177.86
497.44	4011.68
497.62	4140.41
497.79	3939.12
497.97	3801.03
498.14	3906.35
498.32	3929.76
498.50	4077.21
498.67	4046.79
498.85	4161.47
499.03	4173.18
499.20	4112.32
499.38	4205.94
499.56	4095.94
499.73	4098.28
499.91	4070.19
500.08	3962.53
500.26	3819.75
500.44	4025.72
500.61	3981.25
500.79	3913.38
500.97	3871.25
501.14	3918.06
501.32	3768.26
501.49	3988.27
501.67	3838.48
501.84	3997.64
502.02	4011.68
502.20	4018.70
502.37	4049.13
502.55	4159.13
502.72	4208.28
502.90	4147.43
503.07	4002.32
503.25	4007.00
503.43	3756.56
503.60	3651.24
503.78	3562.30
503.95	3679.32
504.13	3873.59
504.30	4189.56
504.48	4196.58
504.65	4219.99
504.83	4145.09
505.01	4138.07
505.18	4208.28
505.36	4311.27
505.53	4180.20
505.71	4299.56
505.88	4245.73
506.06	4224.67
506.23	4212.96
506.41	4140.41
506.58	4222.33
506.76	4063.17
506.93	4348.72
507.11	4121.68
507.28	4067.85
507.46	4039.76
507.63	3962.53
507.81	3866.56
507.98	3992.95
508.16	4023.38
508.33	4161.47
508.50	4091.26
508.68	4196.58
508.85	4337.01
509.03	4395.53
509.20	4484.47
509.38	4182.54
509.55	4135.73
509.73	4086.58
509.90	4290.20
510.08	4245.73
510.25	4219.99
510.42	4212.96
510.60	4187.22
510.77	4320.63
510.95	4458.72
511.12	4425.95
511.30	4468.08
511.47	4624.90
511.64	4512.55
511.82	4400.21
511.99	4332.33
512.17	4376.80
512.34	4107.64
512.51	4042.11
512.69	4353.40
512.86	4374.46
513.04	4304.25
513.21	4241.05
513.38	4315.95
513.56	4049.13
513.73	4175.52
513.90	4081.89
514.08	4126.36
514.25	4177.86
514.43	4138.07
514.60	4250.41
514.77	4217.65
514.95	4430.63
515.12	4243.39
515.29	4266.80
515.47	4435.32
515.64	4430.63
515.81	4475.10
515.99	4243.39
516.16	4189.56
516.33	3735.50
516.51	3730.81
516.68	3487.40
516.85	3403.14
517.03	3515.48
517.20	3864.22
517.37	4264.46
517.54	4280.84
517.72	4182.54
517.89	3808.05
518.06	3566.98
518.24	3812.73
518.41	3843.16
518.58	4109.98
518.75	4044.45
518.93	4173.18
519.10	4191.90
519.27	4002.32
519.45	4105.30
519.62	4294.88
519.79	4386.16
519.96	4208.28
520.14	4306.59
520.31	4264.46
520.48	4292.54
520.65	4156.79
520.83	4255.09
521.00	4390.84
521.17	4386.16
521.34	4304.25
521.52	4395.53
521.69	4435.32
521.86	4339.35
522.03	4381.48
522.20	4248.07
522.38	3948.48
522.55	4091.26
522.72	4091.26
522.89	4173.18
523.07	4182.54
523.24	4372.12
523.41	4313.61
523.58	4496.17
523.75	4435.32
523.92	4290.20
524.10	4423.61
524.27	4407.23
524.44	4479.79
524.61	4449.36
524.78	4339.35
524.96	4437.66
525.13	4365.10
525.30	4367.44
525.47	4559.36
525.64	4692.77
525.81	4421.27
525.98	4255.09
526.16	4058.49
526.33	3822.09
526.50	3740.18
526.67	3660.60
526.84	3913.38
527.01	4016.36
527.18	4173.18
527.36	4379.14
527.53	4339.35
527.70	4472.76
527.87	4280.84
528.04	4205.94
528.21	4280.84
528.38	4409.57
528.55	4645.96
528.72	4608.51
528.89	4631.92
529.07	4550.00
529.24	4315.95
529.41	4372.12
529.58	4250.41
529.75	4283.18
529.92	4416.59
530.09	4432.97
530.26	4344.03
530.43	4552.34
530.60	4512.55
530.77	4610.86
530.94	4561.70
531.11	4545.32
531.28	4320.63
531.46	4353.40
531.63	4524.26
531.80	4416.59
531.97	4442.34
532.14	4255.09
532.31	4086.58
532.48	4023.38
532.65	4184.88
532.82	4329.99
532.99	4306.59
533.16	4355.74
533.33	4622.56
533.50	4533.62
533.67	4299.56
533.84	4191.90
534.01	4367.44
534.18	4318.29
534.35	4482.13
534.52	4479.79
534.69	4376.80
534.86	4418.93
535.03	4552.34
535.20	4594.47
535.37	4669.37
535.54	4699.80
535.71	4528.94
535.88	4594.47
536.05	4322.97
536.22	4372.12
536.38	4395.53
536.55	4383.82
536.72	4203.60
536.89	4184.88
537.06	4297.22
537.23	4456.38
537.40	4423.61
537.57	4582.77
537.74	4566.39
537.91	4545.32
538.08	4507.87
538.25	4383.82
538.42	4461.06
538.59	4337.01
538.75	4414.25
538.92	4315.95
539.09	4528.94
539.26	4287.86
539.43	4329.99
539.60	4491.49
539.77	4500.85
539.94	4521.92
540.11	4519.57
540.28	4362.76
540.44	4447.02
540.61	4561.70
540.78	4676.39
540.95	4755.97
541.12	4978.32
541.29	5118.75
541.46	5242.80
541.62	5125.77
541.79	5203.01
541.96	5020.45
542.13	5167.90
542.30	5039.17
542.47	4959.60
542.63	5121.09
542.80	4971.30
542.97	4830.87
543.14	4957.25
543.31	4774.69
543.48	4767.67
543.64	5008.75
543.81	5116.41
543.98	5177.26
544.15	5055.56
544.32	4755.97
544.48	4868.31
544.65	4961.94
544.82	5128.11
544.99	5142.16
545.16	5118.75
545.32	4746.61
545.49	5563.45
545.66	6579.25
545.83	7145.66
546.00	6768.83
546.16	5832.62
546.33	5343.44
546.50	5095.35
546.67	4802.78
546.83	4753.63
547.00	4924.49
547.17	4751.29
547.34	4550.00
547.50	4423.61
547.67	4587.45
547.84	4503.19
548.00	4559.36
548.17	4575.75
548.34	4638.94
548.51	4655.33
548.67	4709.16
548.84	4535.96
549.01	4655.33
549.18	4526.60
549.34	4514.89
549.51	4503.19
549.68	4458.72
549.84	4395.53
550.01	4351.06
550.18	4477.44
550.34	4365.10
550.51	4329.99
550.68	4423.61
550.84	4332.33
551.01	4224.67
551.18	4332.33
551.34	4409.57
551.51	4339.35
551.68	4276.16
551.84	4472.76
552.01	4322.97
552.18	4337.01
552.34	4149.77
552.51	4175.52
552.68	4217.65
552.84	4287.86
553.01	4201.26
553.18	4292.54
553.34	4133.39
553.51	4334.67
553.67	4325.31
553.84	4241.05
554.01	4395.53
554.17	4243.39
554.34	4145.09
554.51	4266.80
554.67	4283.18
554.84	4248.07
555.00	4147.43
555.17	4140.41
555.33	4236.37
555.50	4191.90
555.67	4287.86
555.83	3953.16
556.00	3974.23
556.16	4238.71
556.33	3950.82
556.50	4032.74
556.66	4074.87
556.83	3861.88
556.99	3948.48
557.16	3995.29
557.32	4109.98
557.49	4060.83
557.65	4079.55
557.82	3974.23
557.98	3948.48
558.15	3922.74
558.32	3833.80
558.48	3936.78
558.65	3803.37
558.81	3735.50
558.98	3751.88
559.14	4004.66
559.31	3838.48
559.47	3873.59
559.64	4032.74
559.80	3770.60
559.97	3873.59
560.13	3754.22
560.30	3911.04
560.46	4058.49
560.63	4014.02
560.79	4044.45
560.96	4037.42
561.12	3911.04
561.29	3840.82
561.45	3822.09
561.61	3871.25
561.78	3925.08
561.94	3847.84
562.11	3840.82
562.27	3819.75
562.44	3957.85
562.60	3887.63
562.77	3911.04
562.93	3873.59
563.10	3878.27
563.26	3826.78
563.42	3749.54
563.59	3829.12
563.75	3784.65
563.92	3878.27
564.08	3744.86
564.24	3932.10
564.41	4007.00
564.57	3864.22
564.74	3772.94
564.90	3880.61
565.07	3815.07
565.23	3838.48
565.39	3686.34
565.56	3658.26
565.72	3625.49
565.88	3531.87
566.05	3599.74
566.21	3782.31
566.38	3791.67
566.54	3566.98
566.70	3826.78
566.87	3899.33
567.03	3808.05
567.19	3698.05
567.36	3784.65
567.52	3681.66
567.68	3714.43
567.85	3644.21
568.01	3494.42
568.17	3363.35
568.34	3482.72
568.50	3466.33
568.66	3400.80
568.83	3557.61
568.99	3468.67
569.15	3646.55
569.32	3581.02
569.48	3557.61
569.64	3492.08
569.81	3377.39
569.97	3389.10
570.13	3625.49
570.30	3382.07
570.46	3396.12
570.62	3445.27
570.78	3398.46
570.95	3328.24
571.11	3496.76
571.27	3463.99
571.43	3428.88
571.60	3485.06
571.76	3386.76
571.92	3459.31
572.09	3510.80
572.25	3597.40
572.41	3529.53
572.57	3466.33
572.74	3641.87
572.90	3468.67
573.06	3592.72
573.22	3555.27
573.38	3417.18
573.55	3606.77
573.71	3424.20
573.87	3440.59
574.03	3468.67
574.20	3412.50
574.36	3571.66
574.52	3426.54
574.68	3403.14
574.84	3426.54
575.01	3286.11
575.17	3407.82
575.33	3382.07
575.49	3410.16
575.65	3328.24
575.82	3309.52
575.98	3431.23
576.14	3442.93
576.30	3520.17
576.46	3644.21
576.62	3819.75
576.79	4025.72
576.95	3705.07
577.11	3707.41
577.27	3639.53
577.43	3400.80
577.59	3435.91
577.75	3389.10
577.92	3295.47
578.08	3300.16
578.24	3283.77
578.40	3382.07
578.56	3503.78
578.72	3817.41
578.88	3824.44
579.04	3782.31
579.21	3632.51
579.37	3623.15
579.53	3461.65
579.69	3583.36
579.85	3623.15
580.01	3377.39
580.17	3503.78
580.33	3550.59
580.49	3545.91
580.65	3524.85
580.82	3599.74
580.98	3332.92
581.14	3353.99
581.30	3445.27
581.46	3393.78
581.62	3557.61
581.78	3574.00
581.94	3651.24
582.10	3599.74
582.26	3578.68
582.42	3529.53
582.58	3585.70
582.74	3676.98
582.90	3574.00
583.06	3599.74
583.22	3597.40
583.38	3517.83
583.54	3531.87
583.70	3517.83
583.86	3684.00
584.02	3571.66
584.18	3644.21
584.34	3473.36
584.50	3552.93
584.66	3328.24
584.82	3433.57
584.98	3412.50
585.14	3461.65
585.30	3325.90
585.46	3391.44
585.62	3323.56
585.78	3353.99
585.94	3379.73
586.10	3311.86
586.26	3358.67
586.42	3428.88
586.58	3435.91
586.74	3449.95
586.90	3513.14
587.06	3581.02
587.22	3508.46
587.38	3440.59
587.54	3396.12
587.70	3253.34
587.86	3101.21
588.02	3038.02
588.18	2970.14
588.34	2862.48
588.49	2586.29
588.65	2548.84
588.81	2300.75
588.97	2422.45
589.13	2335.85
589.29	2389.69
589.45	2490.33
589.61	2567.57
589.77	2644.81
589.93	2679.91
590.08	2799.28
590.24	2775.88
590.40	2876.52
590.56	2906.95
590.72	2883.54
590.88	2958.44
591.04	2855.45
591.20	2848.43
591.35	2846.09
591.51	2850.77
591.67	2703.32
591.83	2696.30
591.99	2794.60
592.15	2839.07
592.31	2928.01
592.46	2846.09
592.62	3000.57
592.78	3070.78
592.94	3124.62
593.10	3030.99
593.26	3211.22
593.41	3143.34
593.57	3035.67
593.73	2902.26
593.89	2794.60
594.05	2628.42
594.20	2696.30
594.36	2647.15
594.52	2539.48
594.68	2532.46
594.84	2803.96
594.99	2764.17
595.15	2853.11
595.31	2850.77
595.47	2871.84
595.62	2799.28
595.78	2913.97
595.94	2956.10
596.10	2916.31
596.25	2897.58
596.41	2846.09
596.57	2761.83
596.73	2696.30
596.88	2839.07
597.04	2848.43
597.20	2867.16
597.36	2806.30
597.51	2771.19
597.67	2855.45
597.83	2949.08
597.99	2890.56
