SpectraSuite Data File
++++++++++++++++++++++++++++++++++++
Date: Fri Oct 04 11:44:21 GMT-05:00 2013
User: price-jones
Dark Spectrum Present: No
Reference Spectrum Present: No
Number of Sampled Component Spectra: 1
Spectrometers: USB2+H05261
Integration Time (usec): 100000 (USB2+H05261)
Spectra Averaged: 1 (USB2+H05261)
Boxcar Smoothing: 0 (USB2+H05261)
Correct for Electrical Dark: No (USB2+H05261)
Strobe/Lamp Enabled: No (USB2+H05261)
Correct for Detector Non-linearity: No (USB2+H05261)
Correct for Stray Light: No (USB2+H05261)
Number of Pixels in Processed Spectrum: 2048
>>>>>Begin Processed Spectral Data<<<<<
365.73	77.24
365.92	77.24
366.12	77.24
366.32	0.00
366.52	0.00
366.72	0.00
366.91	0.00
367.11	0.00
367.31	0.00
367.51	0.00
367.70	0.00
367.90	0.00
368.10	0.00
368.30	0.00
368.49	0.00
368.69	0.00
368.89	0.00
369.09	0.00
369.28	0.00
369.48	0.00
369.68	0.00
369.87	0.00
370.07	0.00
370.27	14.04
370.47	124.05
370.66	269.16
370.86	287.89
371.06	444.70
371.25	416.62
371.45	292.57
371.65	341.72
371.84	318.31
372.04	304.27
372.24	379.17
372.44	402.57
372.63	390.87
372.83	386.19
373.03	287.89
373.22	273.84
373.42	271.50
373.62	386.19
373.81	433.00
374.01	430.66
374.21	360.44
374.40	379.17
374.60	306.61
374.79	346.40
374.99	482.15
375.19	418.96
375.38	484.49
375.58	411.93
375.78	538.32
375.97	440.02
376.17	491.51
376.37	435.34
376.56	465.77
376.76	376.83
376.95	449.38
377.15	587.47
377.35	486.83
377.54	533.64
377.74	479.81
377.93	517.26
378.13	428.32
378.33	435.34
378.52	531.30
378.72	472.79
378.91	505.56
379.11	526.62
379.31	475.13
379.50	437.68
379.70	430.66
379.89	552.37
380.09	463.43
380.28	454.06
380.48	535.98
380.68	503.22
380.87	479.81
381.07	566.41
381.26	493.85
381.46	425.98
381.65	475.13
381.85	463.43
382.04	407.25
382.24	353.42
382.43	301.93
382.63	367.46
382.83	358.10
383.02	393.21
383.22	411.93
383.41	341.72
383.61	400.23
383.80	479.81
384.00	484.49
384.19	514.92
384.39	454.06
384.58	505.56
384.78	500.87
384.97	500.87
385.17	510.24
385.36	435.34
385.56	505.56
385.75	470.45
385.95	477.47
386.14	517.26
386.34	465.77
386.53	517.26
386.72	472.79
386.92	533.64
387.11	514.92
387.31	512.58
387.50	566.41
387.70	564.07
387.89	454.06
388.09	416.62
388.28	486.83
388.48	580.45
388.67	543.00
388.86	594.50
389.06	594.50
389.25	608.54
389.45	594.50
389.64	676.41
389.84	589.82
390.03	587.47
390.22	657.69
390.42	550.03
390.61	730.25
390.81	709.18
391.00	645.99
391.19	667.05
391.39	748.97
391.58	622.58
391.78	589.82
391.97	669.39
392.16	641.31
392.36	566.41
392.55	482.15
392.75	402.57
392.94	358.10
393.13	362.78
393.33	353.42
393.52	454.06
393.71	503.22
393.91	554.71
394.10	674.07
394.29	688.12
394.49	692.80
394.68	727.91
394.88	767.70
395.07	809.83
395.26	798.12
395.46	795.78
395.65	779.40
395.84	669.39
396.04	713.86
396.23	440.02
396.42	367.46
396.62	416.62
396.81	484.49
397.00	599.18
397.19	636.63
397.39	795.78
397.58	901.11
397.77	887.06
397.97	910.47
398.16	976.00
398.35	1039.20
398.55	950.26
398.74	924.51
398.93	1107.07
399.12	1034.52
399.32	952.60
399.51	997.07
399.70	952.60
399.90	1027.50
400.09	1074.31
400.28	1060.26
400.47	1076.65
400.67	1118.78
400.86	1125.80
401.05	1069.62
401.24	1144.52
401.44	1083.67
401.63	1224.10
401.82	1200.69
402.01	1088.35
402.21	1179.63
402.40	1184.31
402.59	1095.37
402.78	1074.31
402.97	976.00
403.17	1104.73
403.36	1151.54
403.55	1135.16
403.74	1219.42
403.93	1240.48
404.13	1252.19
404.32	1198.35
404.51	1299.00
404.70	1224.10
404.89	1188.99
405.09	1170.27
405.28	1193.67
405.47	1149.20
405.66	1078.99
405.85	1135.16
406.05	1093.03
406.24	1034.52
406.43	1242.82
406.62	1050.90
406.81	1240.48
407.00	1212.40
407.20	1078.99
407.39	1181.97
407.58	1217.08
407.77	1191.33
407.96	1261.55
408.15	1139.84
408.34	1315.38
408.54	1380.92
408.73	1284.95
408.92	1254.53
409.11	1245.16
409.30	1301.34
409.49	1158.57
409.68	1088.35
409.87	978.34
410.07	1050.90
410.26	1221.76
410.45	1224.10
410.64	1303.68
410.83	1385.60
411.02	1359.85
411.21	1432.41
411.40	1327.08
411.59	1427.73
411.78	1427.73
411.98	1390.28
412.17	1336.45
412.36	1401.98
412.55	1378.58
412.74	1287.29
412.93	1338.79
413.12	1308.36
413.31	1528.37
413.50	1439.43
413.69	1458.15
413.88	1462.83
414.07	1364.53
414.26	1355.17
414.45	1413.68
414.64	1423.05
414.83	1526.03
415.02	1291.98
415.22	1392.62
415.41	1390.28
415.60	1366.87
415.79	1516.67
415.98	1600.93
416.17	1556.46
416.36	1507.30
416.55	1540.07
416.74	1516.67
416.93	1495.60
417.12	1476.88
417.31	1404.32
417.50	1455.81
417.69	1582.20
417.88	1493.26
418.07	1504.96
418.26	1486.24
418.45	1497.94
418.64	1535.39
418.83	1528.37
419.02	1586.88
419.21	1519.01
419.39	1540.07
419.58	1488.58
419.77	1294.32
419.96	1460.49
420.15	1598.59
420.34	1579.86
420.53	1668.80
420.72	1643.06
420.91	1619.65
421.10	1598.59
421.29	1643.06
421.48	1479.22
421.67	1661.78
421.86	1551.78
422.05	1458.15
422.24	1240.48
422.43	1439.43
422.61	1437.09
422.80	1563.48
422.99	1537.73
423.18	1521.35
423.37	1516.67
423.56	1469.86
423.75	1423.05
423.94	1523.69
424.13	1493.26
424.32	1460.49
424.50	1448.79
424.69	1530.71
424.88	1558.80
425.07	1458.15
425.26	1437.09
425.45	1446.45
425.64	1483.90
425.83	1533.05
426.01	1589.22
426.20	1579.86
426.39	1575.18
426.58	1404.32
426.77	1327.08
426.96	1376.24
427.15	1444.11
427.33	1418.36
427.52	1472.20
427.71	1479.22
427.90	1542.41
428.09	1474.54
428.28	1371.55
428.46	1341.13
428.65	1366.87
428.84	1420.71
429.03	1453.47
429.22	1392.62
429.40	1277.93
429.59	1146.86
429.78	1252.19
429.97	1142.18
430.16	1048.56
430.34	1153.88
430.53	1125.80
430.72	1135.16
430.91	1207.72
431.10	1383.26
431.28	1558.80
431.47	1722.63
431.66	1802.21
431.85	1687.53
432.03	1537.73
432.22	1511.99
432.41	1430.07
432.60	1526.03
432.79	1577.52
432.97	1713.27
433.16	1703.91
433.35	1535.39
433.54	1519.01
433.72	1369.21
433.91	1526.03
434.10	1530.71
434.28	1603.27
434.47	1717.95
434.66	1607.95
434.85	1739.02
435.03	1839.66
435.22	2045.63
435.41	2483.31
435.59	2471.61
435.78	2317.13
435.97	2108.82
436.16	1991.80
436.34	1811.57
436.53	1727.32
436.72	1753.06
436.90	1771.79
437.09	1614.97
437.28	1657.10
437.46	1664.12
437.65	1781.15
437.84	1586.88
438.02	1582.20
438.21	1502.62
438.40	1514.33
438.58	1636.03
438.77	1687.53
438.96	1652.42
439.14	1846.68
439.33	1748.38
439.52	1795.19
439.70	1760.08
439.89	1865.41
440.08	1699.23
440.26	1671.14
440.45	1781.15
440.63	1811.57
440.82	1886.47
441.01	1942.64
441.19	1895.83
441.38	1926.26
441.57	1902.86
441.75	2080.74
441.94	1991.80
442.12	2003.50
442.31	2024.56
442.50	2108.82
442.68	1968.39
442.87	2073.71
443.05	2111.16
443.24	2090.10
443.43	2076.06
443.61	2036.27
443.80	2111.16
443.98	2043.29
444.17	2050.31
444.35	2134.57
444.54	2129.89
444.73	2165.00
444.91	2008.18
445.10	1984.77
445.28	1888.81
445.47	1898.17
445.65	1858.39
445.84	1886.47
446.02	1987.11
446.21	2038.61
446.39	1975.41
446.58	2031.58
446.77	1884.13
446.95	2045.63
447.14	2181.38
447.32	2303.09
447.51	2076.06
447.69	2052.65
447.88	1933.28
448.06	2069.03
448.25	2092.44
448.43	2076.06
448.62	2108.82
448.80	2008.18
448.99	2090.10
449.17	2066.69
449.36	2057.33
449.54	2172.02
449.73	2101.80
449.91	2176.70
450.10	2249.25
450.28	2272.66
450.46	2300.75
450.65	2293.72
450.83	2249.25
451.02	2214.15
451.20	2249.25
451.39	2242.23
451.57	2162.66
451.76	2169.68
451.94	2160.31
452.13	2078.40
452.31	2015.20
452.49	1984.77
452.68	1944.99
452.86	2015.20
453.05	2036.27
453.23	2040.95
453.42	2186.06
453.60	2045.63
453.78	2085.42
453.97	2195.42
454.15	2165.00
454.34	2129.89
454.52	2207.13
454.70	2076.06
454.89	2136.91
455.07	2160.31
455.26	2169.68
455.44	2284.36
455.62	2195.42
455.81	2296.07
455.99	2162.66
456.17	2235.21
456.36	2244.57
456.54	2267.98
456.73	2202.44
456.91	2289.04
457.09	2270.32
457.28	2389.69
457.46	2326.49
457.64	2214.15
457.83	2174.36
458.01	2165.00
458.19	2228.19
458.38	2165.00
458.56	2200.10
458.74	2260.96
458.93	2179.04
459.11	2239.89
459.29	2352.24
459.48	2272.66
459.66	2267.98
459.84	2186.06
460.03	2389.69
460.21	2267.98
460.39	2237.55
460.57	2356.92
460.76	2242.23
460.94	2366.28
461.12	2387.35
461.31	2349.90
461.49	2331.17
461.67	2275.00
461.85	2471.61
462.04	2331.17
462.22	2796.94
462.40	2410.75
462.59	2492.67
462.77	2279.68
462.95	2385.01
463.13	2326.49
463.32	2310.11
463.50	2321.81
463.68	2195.42
463.86	2312.45
464.05	2342.88
464.23	2347.56
464.41	2321.81
464.59	2216.49
464.78	2263.30
464.96	2389.69
465.14	2310.11
465.32	2244.57
465.50	2373.30
465.69	2534.80
465.87	2314.79
466.05	2296.07
466.23	2221.17
466.41	2186.06
466.60	2167.34
466.78	2190.74
466.96	2338.20
467.14	2172.02
467.32	2392.03
467.51	2340.54
467.69	2211.81
467.87	2324.15
468.05	2380.32
468.23	2408.41
468.41	2214.15
468.60	2258.62
468.78	2340.54
468.96	2377.98
469.14	2335.85
469.32	2342.88
469.50	2275.00
469.69	2244.57
469.87	2260.96
470.05	2239.89
470.23	2363.94
470.41	2141.59
470.59	2207.13
470.77	2270.32
470.95	2277.34
471.14	2260.96
471.32	2258.62
471.50	2420.11
471.68	2546.50
471.86	2466.92
472.04	2452.88
472.22	2583.95
472.40	2331.17
472.58	2356.92
472.77	2293.72
472.95	2462.24
473.13	2513.74
473.31	2441.18
473.49	2366.28
473.67	2487.99
473.85	2492.67
474.03	2560.55
474.21	2511.39
474.39	2532.46
474.57	2612.04
474.75	2644.81
474.93	2567.57
475.12	2443.52
475.30	2483.31
475.48	2457.56
475.66	2595.65
475.84	2576.93
476.02	2396.71
476.20	2408.41
476.38	2462.24
476.56	2523.10
476.74	2572.25
476.92	2635.44
477.10	2635.44
477.28	2574.59
477.46	2766.51
477.64	2724.38
477.82	2780.56
478.00	2651.83
478.18	2679.91
478.36	2689.28
478.54	2729.06
478.72	2677.57
478.90	2609.70
479.08	2757.15
479.26	2895.24
479.44	2892.90
479.62	2782.90
479.80	2855.45
479.98	2944.39
480.16	2904.60
480.34	2897.58
480.52	2796.94
480.70	2932.69
480.88	2916.31
481.06	2993.55
481.24	3030.99
481.41	3035.67
481.59	3108.23
481.77	3138.66
481.95	3124.62
482.13	3042.70
482.31	3016.95
482.49	3208.87
482.67	3035.67
482.85	2972.48
483.03	3274.41
483.21	3246.32
483.39	3164.40
483.57	3176.11
483.74	3136.32
483.92	3201.85
484.10	3183.13
484.28	3180.79
484.46	3339.94
484.64	3393.78
484.82	3302.50
485.00	3084.83
485.18	3199.51
485.35	3103.55
485.53	2808.64
485.71	2651.83
485.89	2595.65
486.07	2689.28
486.25	2995.89
486.43	3068.44
486.61	3000.57
486.78	3096.53
486.96	3105.89
487.14	3171.43
487.32	3314.20
487.50	3405.48
487.68	3452.29
487.85	3552.93
488.03	3510.80
488.21	3651.24
488.39	3501.44
488.57	3384.41
488.75	3255.69
488.92	3681.66
489.10	3723.79
489.28	3847.84
489.46	3747.20
489.64	3819.75
489.81	3866.56
489.99	3857.20
490.17	3922.74
490.35	3922.74
490.53	3866.56
490.70	3758.90
490.88	3864.22
491.06	3871.25
491.24	3899.33
491.41	3749.54
491.59	3772.94
491.77	3522.51
491.95	3562.30
492.13	3705.07
492.30	3894.65
492.48	3908.69
492.66	4018.70
492.84	4063.17
493.01	4028.06
493.19	3885.29
493.37	3962.53
493.54	3932.10
493.72	3882.95
493.90	3988.27
494.08	4170.83
494.25	4215.30
494.43	4301.90
494.61	4334.67
494.79	4252.75
494.96	4196.58
495.14	4304.25
495.32	4021.04
495.49	4088.92
495.67	4014.02
495.85	4227.01
496.02	4435.32
496.20	4390.84
496.38	4276.16
496.55	4201.26
496.73	4301.90
496.91	4442.34
497.09	4346.37
497.26	4315.95
497.44	4440.00
497.62	4276.16
497.79	4241.05
497.97	4072.53
498.14	3976.57
498.32	4273.82
498.50	4358.08
498.67	4372.12
498.85	4290.20
499.03	4414.25
499.20	4355.74
499.38	4465.74
499.56	4390.84
499.73	4327.65
499.91	4234.03
500.08	4241.05
500.26	4217.65
500.44	4187.22
500.61	4360.42
500.79	4334.67
500.97	4128.70
501.14	4203.60
501.32	4159.13
501.49	4009.34
501.67	4273.82
501.84	4229.35
502.02	4262.12
502.20	4198.92
502.37	4285.52
502.55	4255.09
502.72	4381.48
502.90	4435.32
503.07	4322.97
503.25	4215.30
503.43	3932.10
503.60	3964.87
503.78	3822.09
503.95	4014.02
504.13	4175.52
504.30	4468.08
504.48	4311.27
504.65	4360.42
504.83	4236.37
505.01	4334.67
505.18	4545.32
505.36	4552.34
505.53	4437.66
505.71	4648.30
505.88	4645.96
506.06	4526.60
506.23	4620.22
506.41	4465.74
506.58	4346.37
506.76	4327.65
506.93	4341.69
507.11	4318.29
507.28	4264.46
507.46	4283.18
507.63	4344.03
507.81	4194.24
507.98	4325.31
508.16	4437.66
508.33	4615.54
508.50	4610.86
508.68	4634.26
508.85	4528.94
509.03	4552.34
509.20	4727.88
509.38	4589.79
509.55	4437.66
509.73	4407.23
509.90	4428.29
510.08	4550.00
510.25	4631.92
510.42	4758.31
510.60	4547.66
510.77	4643.62
510.95	4777.03
511.12	4652.98
511.30	4730.22
511.47	4770.01
511.64	4753.63
511.82	4748.95
511.99	4608.51
512.17	4538.30
512.34	4468.08
512.51	4477.44
512.69	4557.02
512.86	4451.70
513.04	4622.56
513.21	4711.50
513.38	4561.70
513.56	4425.95
513.73	4341.69
513.90	4351.06
514.08	4454.04
514.25	4608.51
514.43	4510.21
514.60	4440.00
514.77	4510.21
514.95	4585.11
515.12	4557.02
515.29	4746.61
515.47	4748.95
515.64	4624.90
515.81	4636.60
515.99	4622.56
516.16	4341.69
516.33	4159.13
516.51	3815.07
516.68	3730.81
516.85	3751.88
517.03	3676.98
517.20	4030.40
517.37	4458.72
517.54	4571.07
517.72	4545.32
517.89	4238.71
518.06	3962.53
518.24	3857.20
518.41	4138.07
518.58	4416.59
518.75	4292.54
518.93	4402.55
519.10	4400.21
519.27	4404.89
519.45	4568.73
519.62	4622.56
519.79	4688.09
519.96	4725.54
520.14	4580.43
520.31	4505.53
520.48	4374.46
520.65	4505.53
520.83	4519.57
521.00	4741.93
521.17	4688.09
521.34	4519.57
521.52	4643.62
521.69	4809.80
521.86	4898.74
522.03	4847.25
522.20	4676.39
522.38	4519.57
522.55	4421.27
522.72	4491.49
522.89	4540.64
523.07	4571.07
523.24	4739.58
523.41	4767.67
523.58	4823.84
523.75	4887.04
523.92	4732.56
524.10	4826.18
524.27	4847.25
524.44	4812.14
524.61	4833.21
524.78	4727.88
524.96	4751.29
525.13	4734.90
525.30	4784.06
525.47	4805.12
525.64	4947.89
525.81	4695.11
525.98	4454.04
526.16	4292.54
526.33	4255.09
526.50	4217.65
526.67	4102.96
526.84	4056.15
527.01	4231.69
527.18	4322.97
527.36	4507.87
527.53	4587.45
527.70	4753.63
527.87	4589.79
528.04	4559.36
528.21	4695.11
528.38	4833.21
528.55	4938.53
528.72	4973.64
528.89	5001.72
529.07	4968.96
529.24	4844.91
529.41	4613.20
529.58	4561.70
529.75	4484.47
529.92	4643.62
530.09	4767.67
530.26	4901.08
530.43	4795.76
530.60	4877.68
530.77	4917.47
530.94	4828.53
531.11	4847.25
531.28	4725.54
531.46	4746.61
531.63	4847.25
531.80	4954.91
531.97	4858.95
532.14	4622.56
532.31	4526.60
532.48	4451.70
532.65	4337.01
532.82	4461.06
532.99	4692.77
533.16	4800.44
533.33	4873.00
533.50	4938.53
533.67	4676.39
533.84	4690.43
534.01	4596.81
534.18	4552.34
534.35	4601.49
534.52	4662.35
534.69	4807.46
534.86	4730.22
535.03	4807.46
535.20	4915.12
535.37	5022.79
535.54	5006.41
535.71	4887.04
535.88	4957.25
536.05	4833.21
536.22	4910.44
536.38	4685.75
536.55	4732.56
536.72	4545.32
536.89	4526.60
537.06	4615.54
537.23	4887.04
537.40	4889.38
537.57	4887.04
537.74	4814.48
537.91	4908.10
538.08	4851.93
538.25	4826.18
538.42	4800.44
538.59	4938.53
538.75	4849.59
538.92	4823.84
539.09	4645.96
539.26	4833.21
539.43	4650.64
539.60	4762.99
539.77	4798.10
539.94	4770.01
540.11	4660.01
540.28	4475.10
540.44	4718.52
540.61	4638.94
540.78	4894.06
540.95	4943.21
541.12	5074.28
541.29	5163.22
541.46	5280.25
541.62	5420.68
541.79	5247.48
541.96	5238.12
542.13	5153.86
542.30	5167.90
542.47	5217.05
542.63	5212.37
542.80	5022.79
542.97	5025.13
543.14	4868.31
543.31	4933.85
543.48	5011.09
543.64	5275.57
543.81	5406.64
543.98	5263.86
544.15	5224.08
544.32	5116.41
544.48	5085.98
544.65	5025.13
544.82	5172.58
544.99	5114.07
545.16	5093.01
545.32	5046.20
545.49	5692.18
545.66	6284.34
545.83	6569.88
546.00	6401.37
546.16	5689.84
546.33	5310.68
546.50	5074.28
546.67	5210.03
546.83	4992.36
547.00	5029.81
547.17	4858.95
547.34	4770.01
547.50	4648.30
547.67	4727.88
547.84	4770.01
548.00	4912.78
548.17	4837.89
548.34	4826.18
548.51	4851.93
548.67	4870.65
548.84	4779.37
549.01	4844.91
549.18	4933.85
549.34	4730.22
549.51	4746.61
549.68	4891.72
549.84	4664.69
550.01	4706.82
550.18	4610.86
550.34	4910.44
550.51	4765.33
550.68	4741.93
550.84	4561.70
551.01	4617.88
551.18	4585.11
551.34	4526.60
551.51	4643.62
551.68	4727.88
551.84	4711.50
552.01	4779.37
552.18	4709.16
552.34	4594.47
552.51	4470.42
552.68	4456.38
552.84	4463.40
553.01	4580.43
553.18	4587.45
553.34	4559.36
553.51	4601.49
553.67	4664.69
553.84	4645.96
554.01	4521.92
554.17	4566.39
554.34	4341.69
554.51	4704.48
554.67	4620.22
554.84	4564.04
555.00	4699.80
555.17	4704.48
555.33	4505.53
555.50	4447.02
555.67	4390.84
555.83	4535.96
556.00	4521.92
556.16	4615.54
556.33	4524.26
556.50	4334.67
556.66	4332.33
556.83	4264.46
556.99	4299.56
557.16	4348.72
557.32	4512.55
557.49	4236.37
557.65	4353.40
557.82	4531.28
557.98	4407.23
558.15	4257.43
558.32	4184.88
558.48	4161.47
558.65	4161.47
558.81	4212.96
558.98	4194.24
559.14	4250.41
559.31	4271.48
559.47	4147.43
559.64	4210.62
559.80	4077.21
559.97	4067.85
560.13	4194.24
560.30	4273.82
560.46	4344.03
560.63	4493.83
560.79	4437.66
560.96	4292.54
561.12	4152.11
561.29	4117.00
561.45	4203.60
561.61	4133.39
561.78	4318.29
561.94	4276.16
562.11	4224.67
562.27	4145.09
562.44	4306.59
562.60	4109.98
562.77	4285.52
562.93	4304.25
563.10	4304.25
563.26	4348.72
563.42	4280.84
563.59	4222.33
563.75	4070.19
563.92	4238.71
564.08	4166.15
564.24	4161.47
564.41	4255.09
564.57	4159.13
564.74	4182.54
564.90	4348.72
565.07	4227.01
565.23	4067.85
565.39	4037.42
565.56	3901.67
565.72	4058.49
565.88	4058.49
566.05	3929.76
566.21	4039.76
566.38	4107.64
566.54	4117.00
566.70	4147.43
566.87	4278.50
567.03	4084.23
567.19	4222.33
567.36	4227.01
567.52	3971.89
567.68	4023.38
567.85	3934.44
568.01	3901.67
568.17	3749.54
568.34	3808.05
568.50	3679.32
568.66	3801.03
568.83	3950.82
568.99	3847.84
569.15	3803.37
569.32	3815.07
569.48	3819.75
569.64	3836.14
569.81	3700.39
569.97	3681.66
570.13	3768.26
570.30	3894.65
570.46	3716.77
570.62	3801.03
570.78	3548.25
570.95	3693.37
571.11	3751.88
571.27	3756.56
571.43	3695.71
571.60	3932.10
571.76	3805.71
571.92	3892.31
572.09	3901.67
572.25	3948.48
572.41	3782.31
572.57	3784.65
572.74	3880.61
572.90	3786.99
573.06	3810.39
573.22	3915.72
573.38	3901.67
573.55	3798.69
573.71	3889.97
573.87	3836.14
574.03	3623.15
574.20	3660.60
574.36	3543.57
574.52	3660.60
574.68	3590.38
574.84	3651.24
575.01	3557.61
575.17	3592.72
575.33	3588.04
575.49	3756.56
575.65	3819.75
575.82	3730.81
575.98	3599.74
576.14	3597.40
576.30	3847.84
576.46	3882.95
576.62	4205.94
576.79	4002.32
576.95	3999.98
577.11	3988.27
577.27	3737.84
577.43	3728.47
577.59	3857.20
577.75	3611.45
577.92	3550.59
578.08	3590.38
578.24	3618.47
578.40	3524.85
578.56	3789.33
578.72	3974.23
578.88	3801.03
579.04	3866.56
579.21	3852.52
579.37	3775.28
579.53	3761.24
579.69	3875.93
579.85	3859.54
580.01	3915.72
580.17	3843.16
580.33	3805.71
580.49	3796.35
580.65	3840.82
580.82	3838.48
580.98	3796.35
581.14	3892.31
581.30	3684.00
581.46	3777.62
581.62	3812.73
581.78	3894.65
581.94	3857.20
582.10	3763.58
582.26	3962.53
582.42	3808.05
582.58	3836.14
582.74	3866.56
582.90	3824.44
583.06	3845.50
583.22	3866.56
583.38	3770.60
583.54	3875.93
583.70	3824.44
583.86	3892.31
584.02	3798.69
584.18	4028.06
584.34	3819.75
584.50	3824.44
584.66	3801.03
584.82	3840.82
584.98	3770.60
585.14	3644.21
585.30	3564.64
585.46	3403.14
585.62	3702.73
585.78	3634.85
585.94	3555.27
586.10	3688.68
586.26	3527.19
586.42	3768.26
586.58	3634.85
586.74	3791.67
586.90	3723.79
587.06	3688.68
587.22	3674.64
587.38	3639.53
587.54	3637.19
587.70	3583.36
587.86	3368.03
588.02	3201.85
588.18	3213.56
588.34	3080.14
588.49	2949.08
588.65	2801.62
588.81	2605.02
588.97	2626.08
589.13	2588.63
589.29	2640.12
589.45	2682.25
589.61	2731.41
589.77	2846.09
589.93	2855.45
590.08	2972.48
590.24	3115.25
590.40	3115.25
590.56	3009.93
590.72	3101.21
590.88	2991.20
591.04	3005.25
591.20	3077.80
591.35	3005.25
591.51	2967.80
591.67	3073.12
591.83	2937.37
591.99	3035.67
592.15	3073.12
592.31	3234.62
592.46	3405.48
592.62	3251.00
592.78	3096.53
592.94	3234.62
593.10	3328.24
593.26	3290.79
593.41	3356.33
593.57	3241.64
593.73	3026.31
593.89	3066.10
594.05	2899.92
594.20	2918.65
594.36	2738.43
594.52	2682.25
594.68	2942.05
594.84	2963.12
594.99	2991.20
595.15	3094.19
595.31	3096.53
595.47	3126.96
595.62	3049.72
595.78	3211.22
595.94	3321.22
596.10	3197.17
596.25	3115.25
596.41	3098.87
596.57	2911.63
596.73	3080.14
596.88	3206.53
597.04	3180.79
597.20	3150.36
597.36	3089.51
597.51	3098.87
597.67	3162.06
597.83	3129.30
597.99	3070.78
