SpectraSuite Data File
++++++++++++++++++++++++++++++++++++
Date: Fri Oct 04 11:44:14 GMT-05:00 2013
User: price-jones
Dark Spectrum Present: No
Reference Spectrum Present: No
Number of Sampled Component Spectra: 1
Spectrometers: USB2+H05261
Integration Time (usec): 100000 (USB2+H05261)
Spectra Averaged: 1 (USB2+H05261)
Boxcar Smoothing: 0 (USB2+H05261)
Correct for Electrical Dark: No (USB2+H05261)
Strobe/Lamp Enabled: No (USB2+H05261)
Correct for Detector Non-linearity: No (USB2+H05261)
Correct for Stray Light: No (USB2+H05261)
Number of Pixels in Processed Spectrum: 2048
>>>>>Begin Processed Spectral Data<<<<<
365.73	51.49
365.92	51.49
366.12	51.49
366.32	0.00
366.52	0.00
366.72	7.02
366.91	0.00
367.11	0.00
367.31	0.00
367.51	0.00
367.70	0.00
367.90	0.00
368.10	0.00
368.30	0.00
368.49	0.00
368.69	0.00
368.89	0.00
369.09	0.00
369.28	0.00
369.48	0.00
369.68	0.00
369.87	0.00
370.07	4.68
370.27	0.00
370.47	184.90
370.66	697.48
370.86	741.95
371.06	851.96
371.25	896.43
371.45	835.57
371.65	732.59
371.84	685.78
372.04	702.16
372.24	795.78
372.44	861.32
372.63	770.04
372.83	753.65
373.03	671.73
373.22	695.14
373.42	655.35
373.62	774.72
373.81	863.66
374.01	847.27
374.21	786.42
374.40	697.48
374.60	751.31
374.79	763.01
374.99	952.60
375.19	999.41
375.38	1095.37
375.58	938.55
375.78	966.64
375.97	926.85
376.17	912.81
376.37	1011.11
376.56	992.39
376.76	1043.88
376.95	1083.67
377.15	1174.95
377.35	1277.93
377.54	1240.48
377.74	1238.14
377.93	1149.20
378.13	1214.74
378.33	1240.48
378.52	1039.20
378.72	1081.33
378.91	1011.11
379.11	997.07
379.31	990.05
379.50	1011.11
379.70	1034.52
379.89	1048.56
380.09	1107.07
380.28	1095.37
380.48	1228.78
380.68	1107.07
380.87	1277.93
381.07	1076.65
381.26	1020.47
381.46	926.85
381.65	964.30
381.85	1011.11
382.04	912.81
382.24	875.36
382.43	910.47
382.63	774.72
382.83	896.43
383.02	823.87
383.22	863.66
383.41	819.19
383.61	828.55
383.80	919.83
384.00	1123.46
384.19	1123.46
384.39	1167.93
384.58	1263.89
384.78	1399.64
384.97	1235.80
385.17	1132.82
385.36	1064.94
385.56	1001.75
385.75	1114.10
385.95	1160.91
386.14	1366.87
386.34	1217.08
386.53	1198.35
386.72	1156.22
386.92	1226.44
387.11	1170.27
387.31	1275.59
387.50	1196.01
387.70	1205.38
387.89	1200.69
388.09	1254.53
388.28	1196.01
388.48	1188.99
388.67	1221.76
388.86	1371.55
389.06	1479.22
389.25	1521.35
389.45	1621.99
389.64	1533.05
389.84	1551.78
390.03	1570.50
390.22	1526.03
390.42	1572.84
390.61	1629.01
390.81	1757.74
391.00	1832.64
391.19	1771.79
391.39	1603.27
391.58	1661.78
391.78	1544.75
391.97	1509.65
392.16	1371.55
392.36	1231.12
392.55	1144.52
392.75	931.53
392.94	767.70
393.13	840.25
393.33	809.83
393.52	992.39
393.71	1181.97
393.91	1453.47
394.10	1500.28
394.29	1572.84
394.49	1619.65
394.68	1760.08
394.88	1834.98
395.07	1907.54
395.26	1923.92
395.46	1860.73
395.65	1694.55
395.84	1584.54
396.04	1387.94
396.23	1076.65
396.42	992.39
396.62	922.17
396.81	1067.28
397.00	1242.82
397.19	1577.52
397.39	1799.87
397.58	2008.18
397.77	2160.31
397.97	2293.72
398.16	2267.98
398.35	2363.94
398.55	2214.15
398.74	2464.58
398.93	2459.90
399.12	2422.45
399.32	2471.61
399.51	2504.37
399.70	2684.59
399.90	2483.31
400.09	2565.23
400.28	2546.50
400.47	2684.59
400.67	2789.92
400.86	2715.02
401.05	2647.15
401.24	2738.43
401.44	2738.43
401.63	2832.05
401.82	2890.56
402.01	2864.82
402.21	2855.45
402.40	2778.22
402.59	2904.60
402.78	2588.63
402.97	2586.29
403.17	2635.44
403.36	2843.75
403.55	2820.35
403.74	3021.63
403.93	2960.78
404.13	2899.92
404.32	2785.24
404.51	2853.11
404.70	3009.93
404.89	2885.88
405.09	2832.05
405.28	2803.96
405.47	2740.77
405.66	2846.09
405.85	2708.00
406.05	2668.21
406.24	2626.08
406.43	2803.96
406.62	2920.99
406.81	2974.82
407.00	2832.05
407.20	2803.96
407.39	2743.11
407.58	3019.29
407.77	2956.10
407.96	3054.40
408.15	3112.91
408.34	3035.67
408.54	3148.02
408.73	3141.00
408.92	3045.04
409.11	2920.99
409.30	2951.42
409.49	2799.28
409.68	2703.32
409.87	2672.89
410.07	2626.08
410.26	2930.35
410.45	3105.89
410.64	3141.00
410.83	3234.62
411.02	3290.79
411.21	3426.54
411.40	3393.78
411.59	3323.56
411.78	3276.75
411.98	3276.75
412.17	3396.12
412.36	3262.71
412.55	3220.58
412.74	3286.11
412.93	3307.18
413.12	3190.15
413.31	3482.72
413.50	3597.40
413.69	3552.93
413.88	3599.74
414.07	3363.35
414.26	3454.63
414.45	3581.02
414.64	3623.15
414.83	3574.00
415.02	3391.44
415.22	3424.20
415.41	3475.70
415.60	3499.10
415.79	3838.48
415.98	3796.35
416.17	3871.25
416.36	3850.18
416.55	3644.21
416.74	3747.20
416.93	3599.74
417.12	3358.67
417.31	3478.04
417.50	3714.43
417.69	3651.24
417.88	3751.88
418.07	3569.32
418.26	3641.87
418.45	3707.41
418.64	3763.58
418.83	3866.56
419.02	3822.09
419.21	3733.15
419.39	3660.60
419.58	3471.01
419.77	3473.36
419.96	3494.42
420.15	3770.60
420.34	3990.61
420.53	4180.20
420.72	4037.42
420.91	4067.85
421.10	3988.27
421.29	4145.09
421.48	3882.95
421.67	4051.47
421.86	3939.12
422.05	3761.24
422.24	3288.45
422.43	3290.79
422.61	3550.59
422.80	3805.71
422.99	4053.81
423.18	3772.94
423.37	3660.60
423.56	3723.79
423.75	3693.37
423.94	3775.28
424.13	3644.21
424.32	3684.00
424.50	3758.90
424.69	3651.24
424.88	3651.24
425.07	3667.62
425.26	3751.88
425.45	3641.87
425.64	3604.42
425.83	3466.33
426.01	3803.37
426.20	3882.95
426.39	3726.13
426.58	3403.14
426.77	3361.01
426.96	3143.34
427.15	3321.22
427.33	3424.20
427.52	3859.54
427.71	3709.75
427.90	3604.42
428.09	3700.39
428.28	3566.98
428.46	3471.01
428.65	3407.82
428.84	3503.78
429.03	3522.51
429.22	3442.93
429.40	3187.81
429.59	2965.46
429.78	2637.78
429.97	2626.08
430.16	2696.30
430.34	2644.81
430.53	2621.40
430.72	2672.89
430.91	2956.10
431.10	3468.67
431.28	3798.69
431.47	4299.56
431.66	4278.50
431.85	3971.89
432.03	3681.66
432.22	3557.61
432.41	3798.69
432.60	3955.51
432.79	4278.50
432.97	4463.40
433.16	4241.05
433.35	3850.18
433.54	3555.27
433.72	3325.90
433.91	3389.10
434.10	3763.58
434.28	3971.89
434.47	4100.62
434.66	4152.11
434.85	4072.53
435.03	4133.39
435.22	4397.87
435.41	5123.43
435.59	5170.24
435.78	5083.64
435.97	4816.82
436.16	4573.41
436.34	4671.71
436.53	4414.25
436.72	4468.08
436.90	4168.49
437.09	4084.23
437.28	4004.66
437.46	4276.16
437.65	4177.86
437.84	3999.98
438.02	3744.86
438.21	3541.23
438.40	3698.05
438.58	4070.19
438.77	4245.73
438.96	4222.33
439.14	4369.78
439.33	4456.38
439.52	4645.96
439.70	4503.19
439.89	4395.53
440.08	4252.75
440.26	4386.16
440.45	4334.67
440.63	4755.97
440.82	4781.71
441.01	4882.36
441.19	4777.03
441.38	4898.74
441.57	4990.02
441.75	4983.00
441.94	5121.09
442.12	4952.57
442.31	4961.94
442.50	5022.79
442.68	5064.92
442.87	4999.38
443.05	4896.40
443.24	4931.51
443.43	5078.96
443.61	5308.34
443.80	5193.65
443.98	4912.78
444.17	5008.75
444.35	5193.65
444.54	5165.56
444.73	5228.76
444.91	5139.82
445.10	4873.00
445.28	4645.96
445.47	4383.82
445.65	4702.14
445.84	4760.65
446.02	4896.40
446.21	5008.75
446.39	4821.50
446.58	5071.94
446.77	5093.01
446.95	5111.73
447.14	5401.96
447.32	5511.96
447.51	5184.29
447.69	5095.35
447.88	4997.04
448.06	4999.38
448.25	5322.38
448.43	5116.41
448.62	5266.21
448.80	5167.90
448.99	5055.56
449.17	5167.90
449.36	5238.12
449.54	5296.63
449.73	5729.63
449.91	5334.08
450.10	5834.96
450.28	5891.13
450.46	5909.85
450.65	5856.02
450.83	5664.10
451.02	5600.90
451.20	5802.19
451.39	5544.73
451.57	5600.90
451.76	5600.90
451.94	5380.89
452.13	5486.22
452.31	5191.31
452.49	4922.15
452.68	5062.58
452.86	4851.93
453.05	5062.58
453.23	5053.22
453.42	5364.51
453.60	5437.06
453.78	5404.30
453.97	5362.17
454.15	5474.51
454.34	5345.78
454.52	5313.02
454.70	5320.04
454.89	5249.82
455.07	5252.16
455.26	5385.57
455.44	5603.24
455.62	5636.01
455.81	5614.95
455.99	5696.86
456.17	5416.00
456.36	5500.26
456.54	5668.78
456.73	5818.57
456.91	5923.90
457.09	5944.96
457.28	5900.49
457.46	5827.93
457.64	5647.71
457.83	5544.73
458.01	5399.62
458.19	5514.30
458.38	5607.92
458.56	5701.54
458.74	5605.58
458.93	5760.06
459.11	5647.71
459.29	5511.96
459.48	5544.73
459.66	5490.90
459.84	5551.75
460.03	5830.27
460.21	5741.33
460.39	5895.81
460.57	5926.24
460.76	5804.53
460.94	5872.40
461.12	5893.47
461.31	5717.93
461.49	5844.32
461.67	5856.02
461.85	6083.05
462.04	5949.64
462.22	6530.09
462.40	5987.09
462.59	6090.07
462.77	5968.37
462.95	5963.68
463.13	5750.70
463.32	6066.67
463.50	5937.94
463.68	5802.19
463.86	5832.62
464.05	5757.72
464.23	5708.57
464.41	5661.76
464.59	5509.62
464.78	5764.74
464.96	5774.10
465.14	5790.49
465.32	5778.78
465.50	5933.26
465.69	5982.41
465.87	5874.74
466.05	5785.80
466.23	5551.75
466.41	5341.10
466.60	5668.78
466.78	5589.20
466.96	5678.14
467.14	5734.31
467.32	5654.73
467.51	5755.38
467.69	5521.32
467.87	5816.23
468.05	5717.93
468.23	5666.44
468.41	5870.06
468.60	5619.63
468.78	5825.59
468.96	5654.73
469.14	5820.91
469.32	5816.23
469.50	5516.64
469.69	5724.95
469.87	5612.60
470.05	5607.92
470.23	5589.20
470.41	5720.27
470.59	5584.52
470.77	5755.38
470.95	5827.93
471.14	6005.81
471.32	6078.37
471.50	6118.16
471.68	6176.67
471.86	6230.51
472.04	6487.96
472.22	6303.06
472.40	6083.05
472.58	5895.81
472.77	5760.06
472.95	5797.51
473.13	6148.59
473.31	5944.96
473.49	6015.18
473.67	6181.35
473.85	6052.63
474.03	6459.88
474.21	6349.87
474.39	6338.17
474.57	6420.09
474.75	6340.51
474.93	6586.27
475.12	6345.19
475.30	6179.01
475.48	6289.02
475.66	6286.68
475.84	6361.58
476.02	6174.33
476.20	6026.88
476.38	6242.21
476.56	6368.60
476.74	6354.55
476.92	6338.17
477.10	6710.32
477.28	6782.87
477.46	6675.21
477.64	6764.15
477.82	7014.59
478.00	7096.50
478.18	6766.49
478.36	6757.13
478.54	6895.22
478.72	6953.73
478.90	6967.77
479.08	7136.29
479.26	7138.63
479.44	7391.41
479.62	7368.01
479.80	7349.28
479.98	7405.46
480.16	7421.84
480.34	7470.99
480.52	7382.05
480.70	7489.71
480.88	7279.07
481.06	7527.16
481.24	7653.55
481.41	7726.11
481.59	7903.99
481.77	7691.00
481.95	7747.17
482.13	7812.71
482.31	7728.45
482.49	8023.36
482.67	7953.14
482.85	7894.63
483.03	8091.23
483.21	8016.33
483.39	7939.10
483.57	8112.30
483.74	7719.09
483.92	7845.48
484.10	7918.03
484.28	8329.97
484.46	8255.07
484.64	8194.22
484.82	8109.96
485.00	8156.77
485.18	7922.71
485.35	7712.07
485.53	7236.94
485.71	6553.50
485.89	6457.54
486.07	6843.73
486.25	7199.49
486.43	7648.87
486.61	7791.64
486.78	7796.32
486.96	7887.61
487.14	7962.50
487.32	8439.97
487.50	8622.53
487.68	8830.84
487.85	8809.78
488.03	9046.17
488.21	9121.07
488.39	8559.34
488.57	8549.98
488.75	8365.07
488.92	9034.47
489.10	9158.52
489.28	9493.21
489.46	9757.69
489.64	9884.08
489.81	9806.84
489.99	9628.96
490.17	9820.89
490.35	10066.64
490.53	9689.82
490.70	9490.87
490.88	9493.21
491.06	9790.46
491.24	10001.11
491.41	9558.75
491.59	9235.75
491.77	8828.50
491.95	9210.01
492.13	9554.07
492.30	9942.60
492.48	9870.04
492.66	10270.27
492.84	10150.90
493.01	10368.57
493.19	9921.53
493.37	10059.62
493.54	9870.04
493.72	10015.15
493.90	10228.14
494.08	10593.26
494.25	10888.17
494.43	10726.68
494.61	10956.05
494.79	11068.39
494.96	10810.93
495.14	10857.75
495.32	10452.83
495.49	10059.62
495.67	10415.38
495.85	11054.35
496.02	10916.26
496.20	11136.27
496.38	10764.12
496.55	10932.64
496.73	11185.42
496.91	11183.08
497.09	11229.89
497.26	11241.59
497.44	11019.24
497.62	10958.39
497.79	10827.32
497.97	10520.71
498.14	10167.29
498.32	10588.58
498.50	10944.34
498.67	11311.81
498.85	11035.63
499.03	11145.63
499.20	11344.58
499.38	11353.94
499.56	11213.51
499.73	11220.53
499.91	10925.62
500.08	10710.29
500.26	10396.66
500.44	10555.82
500.61	11035.63
500.79	10806.25
500.97	10956.05
501.14	10611.99
501.32	10586.24
501.49	10532.41
501.67	10583.90
501.84	10572.20
502.02	10796.89
502.20	11059.03
502.37	10981.79
502.55	10902.22
502.72	11066.05
502.90	11243.93
503.07	11009.88
503.25	10803.91
503.43	10342.83
503.60	10193.03
503.78	9909.83
503.95	9914.51
504.13	10579.22
504.30	11112.86
504.48	11274.36
504.65	11098.82
504.83	11257.98
505.01	11454.58
505.18	11344.58
505.36	11803.32
505.53	11564.59
505.71	11761.19
505.88	11925.03
506.06	11583.31
506.23	11602.04
506.41	11452.24
506.58	11274.36
506.76	11281.38
506.93	11234.57
507.11	11063.71
507.28	11269.68
507.46	11040.31
507.63	11033.29
507.81	10876.47
507.98	10857.75
508.16	11068.39
508.33	11428.84
508.50	11513.10
508.68	11868.86
508.85	12067.80
509.03	11981.20
509.20	12037.38
509.38	11960.14
509.55	11637.14
509.73	11318.83
509.90	11611.40
510.08	11667.57
510.25	11597.35
510.42	11768.21
510.60	11606.72
510.77	11758.85
510.95	12084.19
511.12	12060.78
511.30	12072.48
511.47	12226.96
511.64	12439.95
511.82	12339.30
511.99	11901.62
512.17	11606.72
512.34	11398.41
512.51	11513.10
512.69	11550.54
512.86	11742.47
513.04	11838.43
513.21	11969.50
513.38	11829.07
513.56	11726.08
513.73	11288.40
513.90	11379.68
514.08	11225.21
514.25	11536.50
514.43	11513.10
514.60	11716.72
514.77	11688.64
514.95	11838.43
515.12	11648.85
515.29	11779.92
515.47	12023.33
515.64	12074.82
515.81	11915.67
515.99	11843.11
516.16	11414.79
516.33	10516.03
516.51	9837.27
516.68	9703.86
516.85	9476.83
517.03	9418.32
517.20	10429.43
517.37	11143.29
517.54	11702.68
517.72	11534.16
517.89	10942.00
518.06	10010.47
518.24	9951.96
518.41	10689.23
518.58	11138.61
518.75	11328.19
518.93	11428.84
519.10	11096.48
519.27	11410.11
519.45	11510.75
519.62	11770.55
519.79	12053.76
519.96	11929.71
520.14	11960.14
520.31	11606.72
520.48	11272.02
520.65	11543.52
520.83	11843.11
521.00	12283.13
521.17	12070.14
521.34	11932.05
521.52	11882.90
521.69	12238.66
521.86	12465.69
522.03	12121.63
522.20	11838.43
522.38	11140.95
522.55	11154.99
522.72	11501.39
522.89	11573.95
523.07	11674.59
523.24	11847.79
523.41	12182.49
523.58	12112.27
523.75	12526.55
523.92	12266.75
524.10	12503.14
524.27	12365.05
524.44	12343.99
524.61	12554.63
524.78	12180.15
524.96	12070.14
525.13	12020.99
525.30	11990.56
525.47	12526.55
525.64	12306.54
525.81	12131.00
525.98	11695.66
526.16	10972.43
526.33	10527.73
526.50	10651.78
526.67	10361.55
526.84	10471.56
527.01	10761.78
527.18	11115.20
527.36	11520.12
527.53	11992.90
527.70	12355.69
527.87	12170.79
528.04	11873.54
528.21	11969.50
528.38	12255.04
528.55	12451.65
528.72	12791.03
528.89	13041.46
529.07	12730.17
529.24	12613.15
529.41	12210.57
529.58	11873.54
529.75	11690.98
529.92	12133.34
530.09	12086.53
530.26	12439.95
530.43	12556.97
530.60	12463.35
530.77	12702.09
530.94	13041.46
531.11	12634.21
531.28	12491.44
531.46	12318.24
531.63	12381.43
531.80	12285.47
531.97	12432.93
532.14	12044.40
532.31	11590.33
532.48	11091.80
532.65	11047.33
532.82	11487.35
532.99	11953.12
533.16	12119.29
533.33	12428.24
533.50	12355.69
533.67	12035.03
533.84	11824.39
534.01	11808.00
534.18	11967.16
534.35	12079.50
534.52	12011.63
534.69	11962.48
534.86	12367.39
535.03	12229.30
535.20	12451.65
535.37	12875.29
535.54	12765.28
535.71	12690.38
535.88	12535.91
536.05	12304.20
536.22	12079.50
536.38	11934.39
536.55	11768.21
536.72	11508.41
536.89	11459.26
537.06	11822.05
537.23	12252.70
537.40	12226.96
537.57	12245.68
537.74	12004.61
537.91	12116.95
538.08	12189.51
538.25	12088.87
538.42	12189.51
538.59	12262.07
538.75	11990.56
538.92	11880.56
539.09	11864.18
539.26	11672.25
539.43	11700.34
539.60	11709.70
539.77	11852.47
539.94	11948.43
540.11	11417.13
540.28	11461.60
540.44	11178.40
540.61	11424.15
540.78	11550.54
540.95	11669.91
541.12	11932.05
541.29	12248.02
541.46	12446.97
541.62	12503.14
541.79	12210.57
541.96	12269.09
542.13	12053.76
542.30	12114.61
542.47	12566.34
542.63	12198.87
542.80	11824.39
542.97	12233.98
543.14	12063.12
543.31	11810.34
543.48	12039.72
543.64	12332.28
543.81	12858.90
543.98	12814.43
544.15	12336.96
544.32	12025.67
544.48	12009.29
544.65	12182.49
544.82	12329.94
544.99	12308.88
545.16	12187.17
545.32	11908.65
545.49	12816.77
545.66	13729.58
545.83	13717.88
546.00	13399.57
546.16	12526.55
546.33	12416.54
546.50	12325.26
546.67	12226.96
546.83	12053.76
547.00	12042.06
547.17	12037.38
547.34	11695.66
547.50	11555.22
547.67	11576.29
547.84	11819.71
548.00	12084.19
548.17	12046.74
548.34	12121.63
548.51	11950.78
548.67	12081.85
548.84	12086.53
549.01	11850.13
549.18	11822.05
549.34	12018.65
549.51	11749.49
549.68	11733.11
549.84	11721.40
550.01	11634.80
550.18	11847.79
550.34	11611.40
550.51	11461.60
550.68	11728.42
550.84	11492.03
551.01	11765.87
551.18	11503.73
551.34	11667.57
551.51	11714.38
551.68	11693.32
551.84	11992.90
552.01	11962.48
552.18	11822.05
552.34	11328.19
552.51	11208.83
552.68	11171.38
552.84	11440.54
553.01	11517.78
553.18	11356.28
553.34	11623.10
553.51	11529.48
553.67	11754.17
553.84	12032.69
554.01	11573.95
554.17	11496.71
554.34	11618.42
554.51	11712.04
554.67	11763.53
554.84	11885.24
555.00	11826.73
555.17	11543.52
555.33	11510.75
555.50	11485.01
555.67	11445.22
555.83	11393.73
556.00	11272.02
556.16	11262.66
556.33	11033.29
556.50	11044.99
556.66	11059.03
556.83	10988.82
556.99	10986.47
557.16	11154.99
557.32	11136.27
557.49	11220.53
557.65	11159.67
557.82	11063.71
557.98	11171.38
558.15	11159.67
558.32	10703.27
558.48	10420.06
558.65	10291.34
558.81	10544.11
558.98	10773.49
559.14	10913.92
559.31	10668.16
559.47	10684.55
559.64	10750.08
559.80	10473.90
559.97	10471.56
560.13	10665.82
560.30	11066.05
560.46	11335.21
560.63	11178.40
560.79	11375.00
560.96	11297.77
561.12	10691.57
561.29	10630.71
561.45	10733.70
561.61	10539.43
561.78	10721.99
561.94	10794.55
562.11	10724.33
562.27	10649.44
562.44	10764.12
562.60	10736.04
562.77	11014.56
562.93	10871.79
563.10	11105.84
563.26	10693.91
563.42	10885.83
563.59	10593.26
563.75	10768.80
563.92	10857.75
564.08	10651.78
564.24	10918.60
564.41	10792.21
564.57	10539.43
564.74	10588.58
564.90	10700.93
565.07	10527.73
565.23	10420.06
565.39	10289.00
565.56	10270.27
565.72	10111.11
565.88	10338.15
566.05	10361.55
566.21	10377.94
566.38	10544.11
566.54	10312.40
566.70	10633.05
566.87	10377.94
567.03	10623.69
567.19	10473.90
567.36	10558.16
567.52	10431.77
567.68	10270.27
567.85	10026.86
568.01	9767.06
568.17	9399.59
568.34	9736.63
568.50	9563.43
568.66	9650.03
568.83	9631.30
568.99	9778.76
569.15	9713.22
569.32	9891.10
569.48	9886.42
569.64	9376.19
569.81	9554.07
569.97	9654.71
570.13	9905.15
570.30	9664.07
570.46	9476.83
570.62	9336.40
570.78	9343.42
570.95	9294.27
571.11	9607.90
571.27	9441.72
571.43	9521.30
571.60	9790.46
571.76	9738.97
571.92	9778.76
572.09	9851.31
572.25	9848.97
572.41	9856.00
572.57	9940.26
572.74	9729.61
572.90	9661.73
573.06	9816.21
573.22	9643.01
573.38	9966.00
573.55	9741.31
573.71	9753.01
573.87	9797.48
574.03	9741.31
574.20	9748.33
574.36	9453.42
574.52	9394.91
574.68	9226.39
574.84	9650.03
575.01	9357.46
575.17	9228.73
575.33	9390.23
575.49	9364.48
575.65	9542.36
575.82	9310.65
575.98	9200.65
576.14	9383.21
576.30	9544.70
576.46	9767.06
576.62	9682.80
576.79	9753.01
576.95	9621.94
577.11	9474.49
577.27	9380.87
577.43	9488.53
577.59	9273.20
577.75	9404.27
577.92	9027.45
578.08	9034.47
578.24	8947.87
578.40	9214.69
578.56	9315.33
578.72	9511.94
578.88	9678.12
579.04	9476.83
579.21	9371.50
579.37	9315.33
579.53	9549.39
579.69	9657.05
579.85	9535.34
580.01	9619.60
580.17	9460.45
580.33	9540.02
580.49	9678.12
580.65	9397.25
580.82	9610.24
580.98	9582.15
581.14	9380.87
581.30	9638.33
581.46	9453.42
581.62	9493.21
581.78	9394.91
581.94	9675.77
582.10	9518.96
582.26	9624.28
582.42	9853.66
582.58	9844.29
582.74	9839.61
582.90	9713.22
583.06	9530.66
583.22	9678.12
583.38	9369.16
583.54	9579.81
583.70	9575.13
583.86	9603.22
584.02	9624.28
584.18	9703.86
584.34	9572.79
584.50	9624.28
584.66	9446.40
584.82	9481.51
584.98	9441.72
585.14	9310.65
585.30	9224.05
585.46	9085.96
585.62	8865.95
585.78	9116.39
585.94	8992.34
586.10	9006.38
586.26	8887.01
586.42	9125.75
586.58	9132.77
586.74	9139.79
586.90	9268.52
587.06	9104.68
587.22	9188.94
587.38	8772.33
587.54	8861.27
587.70	8369.76
587.86	8095.91
588.02	7981.23
588.18	7796.32
588.34	7559.93
588.49	7037.99
588.65	6647.12
588.81	6487.96
588.97	6565.20
589.13	6588.61
589.29	6600.31
589.45	6516.05
589.61	6839.05
589.77	6974.80
589.93	6984.16
590.08	7365.67
590.24	7775.26
590.40	7700.36
590.56	7735.47
590.72	7569.29
590.88	7433.54
591.04	7700.36
591.20	7618.44
591.35	7683.98
591.51	7623.12
591.67	7290.77
591.83	7382.05
591.99	7384.39
592.15	7405.46
592.31	7634.83
592.46	7901.65
